05/07/2022	17:48:29	Ver.	4.1	UNKNOWN
Optical Delay	639.989416	Delta X		0.078125	Sweeps	1	Scan Rate	0/0
Coordinates	Axis 1	NaN	Axis 2	NaN	Axis 3	NaN	Axis 4	NaN	Axis 5	NaN	Axis 6	0.000000
TX Power	0.000000	RX Power	0.000000

639.989	0.0133206
640.068	0.0134957
640.146	0.0134675
640.224	0.0133154
640.302	0.0133824
640.380	0.0132986
640.458	0.0132887
640.536	0.0133140
640.614	0.0132352
640.693	0.0132784
640.771	0.0132375
640.849	0.0132062
640.927	0.0132243
641.005	0.0132707
641.083	0.0133039
641.161	0.0130130
641.239	0.0131348
641.318	0.0133067
641.396	0.0129882
641.474	0.0132239
641.552	0.0130964
641.630	0.0131268
641.708	0.0131126
641.786	0.0130943
641.864	0.0132874
641.943	0.0132283
642.021	0.0132967
642.099	0.0133704
642.177	0.0132970
642.255	0.0134074
642.333	0.0134447
642.411	0.0134042
642.489	0.0133546
642.568	0.0133681
642.646	0.0134113
642.724	0.0134332
642.802	0.0135421
642.880	0.0132597
642.958	0.0132643
643.036	0.0133804
643.114	0.0133528
643.193	0.0131588
643.271	0.0132088
643.349	0.0133655
643.427	0.0131198
643.505	0.0129707
643.583	0.0130923
643.661	0.0130873
643.739	0.0129669
643.818	0.0128792
643.896	0.0128699
643.974	0.0128763
644.052	0.0129076
644.130	0.0131158
644.208	0.0130348
644.286	0.0130264
644.364	0.0131587
644.443	0.0130780
644.521	0.0132190
644.599	0.0132693
644.677	0.0133681
644.755	0.0135690
644.833	0.0135249
644.911	0.0135661
644.989	0.0135680
645.068	0.0136039
645.146	0.0137591
645.224	0.0137280
645.302	0.0137892
645.380	0.0137148
645.458	0.0139587
645.536	0.0137934
645.614	0.0136660
645.693	0.0138137
645.771	0.0137383
645.849	0.0136240
645.927	0.0135777
646.005	0.0135403
646.083	0.0134765
646.161	0.0134560
646.239	0.0131282
646.318	0.0131544
646.396	0.0130973
646.474	0.0128148
646.552	0.0128757
646.630	0.0128209
646.708	0.0127272
646.786	0.0126719
646.864	0.0127651
646.943	0.0127029
647.021	0.0127137
647.099	0.0126194
647.177	0.0125626
647.255	0.0127983
647.333	0.0129706
647.411	0.0127928
647.489	0.0129213
647.568	0.0130764
647.646	0.0130721
647.724	0.0131783
647.802	0.0132711
647.880	0.0134003
647.958	0.0133543
648.036	0.0135014
648.114	0.0135871
648.193	0.0136861
648.271	0.0137428
648.349	0.0137582
648.427	0.0136745
648.505	0.0137994
648.583	0.0137730
648.661	0.0138261
648.739	0.0138423
648.818	0.0136596
648.896	0.0136327
648.974	0.0135318
649.052	0.0135069
649.130	0.0135430
649.208	0.0133631
649.286	0.0133614
649.364	0.0134447
649.443	0.0132700
649.521	0.0131381
649.599	0.0130994
649.677	0.0130496
649.755	0.0129476
649.833	0.0130345
649.911	0.0129828
649.989	0.0128124
650.068	0.0127800
650.146	0.0128860
650.224	0.0128314
650.302	0.0129146
650.380	0.0128312
650.458	0.0126677
650.536	0.0128846
650.614	0.0127643
650.693	0.0128862
650.771	0.0128416
650.849	0.0129375
650.927	0.0127894
651.005	0.0129232
651.083	0.0128356
651.161	0.0128208
651.239	0.0130347
651.318	0.0128097
651.396	0.0127032
651.474	0.0129952
651.552	0.0128628
651.630	0.0127887
651.708	0.0128536
651.786	0.0129617
651.864	0.0131152
651.943	0.0130485
652.021	0.0131297
652.099	0.0132083
652.177	0.0132491
652.255	0.0134688
652.333	0.0134089
652.411	0.0133877
652.489	0.0137273
652.568	0.0138148
652.646	0.0139139
652.724	0.0139488
652.802	0.0140882
652.880	0.0139778
652.958	0.0142321
653.036	0.0142375
653.114	0.0142247
653.193	0.0141921
653.271	0.0142606
653.349	0.0143021
653.427	0.0141422
653.505	0.0142921
653.583	0.0140999
653.661	0.0140797
653.739	0.0139484
653.818	0.0138060
653.896	0.0137747
653.974	0.0136216
654.052	0.0134547
654.130	0.0134192
654.208	0.0132491
654.286	0.0130985
654.364	0.0130517
654.443	0.0129025
654.521	0.0126054
654.599	0.0124947
654.677	0.0123790
654.755	0.0123396
654.833	0.0122719
654.911	0.0120971
654.989	0.0119604
655.068	0.0118677
655.146	0.0119344
655.224	0.0117754
655.302	0.0118386
655.380	0.0118813
655.458	0.0117982
655.536	0.0119032
655.614	0.0120000
655.693	0.0123333
655.771	0.0123425
655.849	0.0124666
655.927	0.0126657
656.005	0.0129105
656.083	0.0130552
656.161	0.0133376
656.239	0.0135397
656.318	0.0138418
656.396	0.0141424
656.474	0.0141715
656.552	0.0144454
656.630	0.0145634
656.708	0.0148695
656.786	0.0149505
656.864	0.0151334
656.943	0.0150911
657.021	0.0152459
657.099	0.0152178
657.177	0.0153593
657.255	0.0153365
657.333	0.0152313
657.411	0.0152219
657.489	0.0150438
657.568	0.0148486
657.646	0.0146657
657.724	0.0145917
657.802	0.0143192
657.880	0.0140890
657.958	0.0138391
658.036	0.0136866
658.114	0.0134251
658.193	0.0131733
658.271	0.0128710
658.349	0.0126845
658.427	0.0124487
658.505	0.0122241
658.583	0.0120221
658.661	0.0118735
658.739	0.0116669
658.818	0.0115610
658.896	0.0115480
658.974	0.0116570
659.052	0.0114043
659.130	0.0113873
659.208	0.0115965
659.286	0.0115942
659.364	0.0115398
659.443	0.0118104
659.521	0.0118755
659.599	0.0120171
659.677	0.0120596
659.755	0.0122504
659.833	0.0124370
659.911	0.0125475
659.989	0.0126495
660.068	0.0128825
660.146	0.0129685
660.224	0.0131635
660.302	0.0135090
660.380	0.0135934
660.458	0.0135719
660.536	0.0139046
660.614	0.0141390
660.693	0.0140245
660.771	0.0142265
660.849	0.0144112
660.927	0.0144676
661.005	0.0146690
661.083	0.0147573
661.161	0.0149919
661.239	0.0149690
661.318	0.0150806
661.396	0.0151067
661.474	0.0151546
661.552	0.0152375
661.630	0.0153161
661.708	0.0154912
661.786	0.0152786
661.864	0.0151986
661.943	0.0152835
662.021	0.0150971
662.099	0.0150565
662.177	0.0148732
662.255	0.0147018
662.333	0.0145322
662.411	0.0142550
662.489	0.0143128
662.568	0.0139355
662.646	0.0136807
662.724	0.0134552
662.802	0.0132248
662.880	0.0128446
662.958	0.0125237
663.036	0.0121497
663.114	0.0118856
663.193	0.0115281
663.271	0.0114097
663.349	0.0110205
663.427	0.0107274
663.505	0.0104694
663.583	0.0104237
663.661	0.0103816
663.739	0.0101955
663.818	0.0101602
663.896	0.0101866
663.974	0.0102077
664.052	0.0102945
664.130	0.0105064
664.208	0.0106084
664.286	0.0107935
664.364	0.0111646
664.443	0.0112522
664.521	0.0117933
664.599	0.0121102
664.677	0.0123206
664.755	0.0126247
664.833	0.0129503
664.911	0.0132231
664.989	0.0134589
665.068	0.0139615
665.146	0.0141862
665.224	0.0142818
665.302	0.0146438
665.380	0.0148110
665.458	0.0150256
665.536	0.0152695
665.614	0.0152486
665.693	0.0153831
665.771	0.0154957
665.849	0.0155989
665.927	0.0155894
666.005	0.0155962
666.083	0.0155578
666.161	0.0155165
666.239	0.0155103
666.318	0.0155847
666.396	0.0155009
666.474	0.0154139
666.552	0.0152814
666.630	0.0150471
666.708	0.0149364
666.786	0.0148486
666.864	0.0147187
666.943	0.0144752
667.021	0.0142467
667.099	0.0140409
667.177	0.0139128
667.255	0.0136825
667.333	0.0134273
667.411	0.0131886
667.489	0.0129240
667.568	0.0125552
667.646	0.0122288
667.724	0.0119130
667.802	0.0116856
667.880	0.0114374
667.958	0.0111021
668.036	0.0108604
668.114	0.0104755
668.193	0.0103364
668.271	0.0101313
668.349	0.0100190
668.427	0.00988457
668.505	0.00980339
668.583	0.00990044
668.661	0.00996033
668.739	0.0100613
668.818	0.0101620
668.896	0.0104054
668.974	0.0107435
669.052	0.0110456
669.130	0.0112837
669.208	0.0117173
669.286	0.0120879
669.364	0.0125090
669.443	0.0129246
669.521	0.0134216
669.599	0.0138868
669.677	0.0142244
669.755	0.0146748
669.833	0.0150193
669.911	0.0153459
669.989	0.0155720
670.068	0.0158659
670.146	0.0160125
670.224	0.0159436
670.302	0.0162543
670.380	0.0162526
670.458	0.0163419
670.536	0.0162376
670.614	0.0161868
670.693	0.0160710
670.771	0.0158462
670.849	0.0156315
670.927	0.0154517
671.005	0.0153945
671.083	0.0149056
671.161	0.0147546
671.239	0.0146334
671.318	0.0143797
671.396	0.0140388
671.474	0.0138625
671.552	0.0134528
671.630	0.0133933
671.708	0.0132791
671.786	0.0130971
671.864	0.0129326
671.943	0.0125093
672.021	0.0125027
672.099	0.0124487
672.177	0.0122542
672.255	0.0121805
672.333	0.0121132
672.411	0.0120853
672.489	0.0119678
672.568	0.0120129
672.646	0.0116973
672.724	0.0116280
672.802	0.0115659
672.880	0.0117049
672.958	0.0113373
673.036	0.0113583
673.114	0.0113457
673.193	0.0114231
673.271	0.0114253
673.349	0.0113679
673.427	0.0114151
673.505	0.0114584
673.583	0.0115132
673.661	0.0116386
673.739	0.0117063
673.818	0.0120055
673.896	0.0120933
673.974	0.0123440
674.052	0.0126062
674.130	0.0126940
674.208	0.0130380
674.286	0.0132201
674.364	0.0133953
674.443	0.0136021
674.521	0.0139310
674.599	0.0140120
674.677	0.0142423
674.755	0.0144006
674.833	0.0147689
674.911	0.0148254
674.989	0.0149798
675.068	0.0151485
675.146	0.0151485
675.224	0.0150883
675.302	0.0150571
675.380	0.0149349
675.458	0.0149606
675.536	0.0148704
675.614	0.0147767
675.693	0.0145915
675.771	0.0144106
675.849	0.0141335
675.927	0.0141107
676.005	0.0137419
676.083	0.0135355
676.161	0.0133301
676.239	0.0133949
676.318	0.0132781
676.396	0.0130352
676.474	0.0129043
676.552	0.0129423
676.630	0.0128408
676.708	0.0127565
676.786	0.0128097
676.864	0.0125321
676.943	0.0125702
677.021	0.0128275
677.099	0.0128595
677.177	0.0129184
677.255	0.0127348
677.333	0.0129288
677.411	0.0130983
677.489	0.0129556
677.568	0.0131229
677.646	0.0133784
677.724	0.0132237
677.802	0.0132919
677.880	0.0133410
677.958	0.0132874
678.036	0.0133327
678.114	0.0132540
678.193	0.0132950
678.271	0.0131408
678.349	0.0132307
678.427	0.0131667
678.505	0.0131149
678.583	0.0130941
678.661	0.0129060
678.739	0.0129309
678.818	0.0128886
678.896	0.0128167
678.974	0.0127789
679.052	0.0126745
679.130	0.0124888
679.208	0.0126223
679.286	0.0127087
679.364	0.0125300
679.443	0.0125603
679.521	0.0124418
679.599	0.0125482
679.677	0.0127290
679.755	0.0126359
679.833	0.0128452
679.911	0.0128046
679.989	0.0129316
680.068	0.0131121
680.146	0.0131980
680.224	0.0132926
680.302	0.0133829
680.380	0.0135110
680.458	0.0134560
680.536	0.0135859
680.614	0.0136366
680.693	0.0137921
680.771	0.0137348
680.849	0.0139041
680.927	0.0138145
681.005	0.0139133
681.083	0.0137499
681.161	0.0139997
681.239	0.0138964
681.318	0.0139599
681.396	0.0139640
681.474	0.0138443
681.552	0.0139657
681.630	0.0138898
681.708	0.0140868
681.786	0.0140768
681.864	0.0139855
681.943	0.0138939
682.021	0.0140377
682.099	0.0139267
682.177	0.0139574
682.255	0.0139600
682.333	0.0138064
682.411	0.0138431
682.489	0.0138428
682.568	0.0138353
682.646	0.0135450
682.724	0.0134925
682.802	0.0133051
682.880	0.0132251
682.958	0.0131226
683.036	0.0131262
683.114	0.0130598
683.193	0.0131350
683.271	0.0130553
683.349	0.0128571
683.427	0.0129494
683.505	0.0128658
683.583	0.0129297
683.661	0.0128327
683.739	0.0128207
683.818	0.0127123
683.896	0.0126202
683.974	0.0126398
684.052	0.0129134
684.130	0.0127354
684.208	0.0125395
684.286	0.0127534
684.364	0.0126108
684.443	0.0126862
684.521	0.0126960
684.599	0.0126363
684.677	0.0127641
684.755	0.0128339
684.833	0.0126411
684.911	0.0127244
684.989	0.0127188
685.068	0.0128561
685.146	0.0128080
685.224	0.0129460
685.302	0.0130302
685.380	0.0130716
685.458	0.0131424
685.536	0.0130783
685.614	0.0131524
685.693	0.0133091
685.771	0.0132920
685.849	0.0133981
685.927	0.0134668
686.005	0.0135376
686.083	0.0137448
686.161	0.0136674
686.239	0.0138428
686.318	0.0137786
686.396	0.0137724
686.474	0.0138876
686.552	0.0139572
686.630	0.0139363
686.708	0.0138379
686.786	0.0141469
686.864	0.0141114
686.943	0.0138555
687.021	0.0139556
687.099	0.0140073
687.177	0.0138219
687.255	0.0138130
687.333	0.0137207
687.411	0.0137346
687.489	0.0136842
687.568	0.0137733
687.646	0.0136076
687.724	0.0136451
687.802	0.0134338
687.880	0.0136149
687.958	0.0135165
688.036	0.0135043
688.114	0.0133209
688.193	0.0134391
688.271	0.0132343
688.349	0.0131350
688.427	0.0131107
688.505	0.0131975
688.583	0.0131881
688.661	0.0131378
688.739	0.0132153
688.818	0.0131968
688.896	0.0132236
688.974	0.0132452
689.052	0.0133436
689.130	0.0132846
689.208	0.0132941
689.286	0.0135005
689.364	0.0135214
689.443	0.0134534
689.521	0.0135664
689.599	0.0136861
689.677	0.0137808
689.755	0.0137304
689.833	0.0137910
689.911	0.0137159
689.989	0.0136967
690.068	0.0139991
690.146	0.0137738
690.224	0.0137087
690.302	0.0138277
690.380	0.0137000
690.458	0.0136635
690.536	0.0134683
690.614	0.0134536
690.693	0.0133987
690.771	0.0133091
690.849	0.0131347
690.927	0.0130217
691.005	0.0129044
691.083	0.0126980
691.161	0.0125945
691.239	0.0125498
691.318	0.0125106
691.396	0.0123027
691.474	0.0122485
691.552	0.0123330
691.630	0.0121935
691.708	0.0121193
691.786	0.0123632
691.864	0.0122643
691.943	0.0123317
692.021	0.0126164
692.099	0.0126846
692.177	0.0127450
692.255	0.0128226
692.333	0.0129228
692.411	0.0130775
692.489	0.0133252
692.568	0.0133295
692.646	0.0136065
692.724	0.0136559
692.802	0.0137183
692.880	0.0139900
692.958	0.0141518
693.036	0.0142085
693.114	0.0142611
693.193	0.0142674
693.271	0.0143837
693.349	0.0146319
693.427	0.0144543
693.505	0.0143333
693.583	0.0144193
693.661	0.0143623
693.739	0.0145262
693.818	0.0145468
693.896	0.0142183
693.974	0.0143234
694.052	0.0142265
694.130	0.0141192
694.208	0.0139485
694.286	0.0138916
694.364	0.0136404
694.443	0.0136427
694.521	0.0135915
694.599	0.0134069
694.677	0.0132936
694.755	0.0133429
694.833	0.0131255
694.911	0.0132191
694.989	0.0130637
695.068	0.0129736
695.146	0.0128851
695.224	0.0128331
695.302	0.0128223
695.380	0.0125961
695.458	0.0125754
695.536	0.0126498
695.614	0.0125726
695.693	0.0124303
695.771	0.0122825
695.849	0.0121681
695.927	0.0121218
696.005	0.0122438
696.083	0.0123455
696.161	0.0121535
696.239	0.0121623
696.318	0.0123099
696.396	0.0121471
696.474	0.0122050
696.552	0.0121349
696.630	0.0124614
696.708	0.0123257
696.786	0.0124034
696.864	0.0124697
696.943	0.0125211
697.021	0.0125523
697.099	0.0125999
697.177	0.0127784
697.255	0.0127577
697.333	0.0126937
697.411	0.0128666
697.489	0.0129955
697.568	0.0130246
697.646	0.0130766
697.724	0.0132713
697.802	0.0133060
697.880	0.0133839
697.958	0.0133287
698.036	0.0134389
698.114	0.0136215
698.193	0.0136950
698.271	0.0135622
698.349	0.0136446
698.427	0.0138374
698.505	0.0136932
698.583	0.0137297
698.661	0.0138751
698.739	0.0139230
698.818	0.0139153
698.896	0.0139938
698.974	0.0140304
699.052	0.0140741
699.130	0.0139301
699.208	0.0139748
699.286	0.0141882
699.364	0.0141990
699.443	0.0141212
699.521	0.0142189
699.599	0.0142300
699.677	0.0142091
699.755	0.0143397
699.833	0.0142297
699.911	0.0141656
699.989	0.0141654
700.068	0.0142036
700.146	0.0140097
700.224	0.0140876
700.302	0.0139548
700.380	0.0138602
700.458	0.0137286
700.536	0.0134894
700.614	0.0134753
700.693	0.0133874
700.771	0.0132269
700.849	0.0132089
700.927	0.0129642
701.005	0.0129136
701.083	0.0128798
701.161	0.0127886
701.239	0.0128679
701.318	0.0126028
701.396	0.0124731
701.474	0.0126173
701.552	0.0126611
701.630	0.0124427
701.708	0.0124940
701.786	0.0124501
701.864	0.0125172
701.943	0.0125462
702.021	0.0124571
702.099	0.0125406
702.177	0.0126598
702.255	0.0126324
702.333	0.0125877
702.411	0.0126665
702.489	0.0127105
702.568	0.0128564
702.646	0.0127811
702.724	0.0128194
702.802	0.0128320
702.880	0.0129654
702.958	0.0128921
703.036	0.0129013
703.114	0.0128609
703.193	0.0128335
703.271	0.0127907
703.349	0.0128920
703.427	0.0128178
703.505	0.0128518
703.583	0.0130539
703.661	0.0127267
703.739	0.0129102
703.818	0.0129633
703.896	0.0130914
703.974	0.0130274
704.052	0.0130524
704.130	0.0132639
704.208	0.0133569
704.286	0.0133717
704.364	0.0133965
704.443	0.0135229
704.521	0.0136651
704.599	0.0136941
704.677	0.0137251
704.755	0.0138457
704.833	0.0140384
704.911	0.0141091
704.989	0.0141256
705.068	0.0142410
705.146	0.0143037
705.224	0.0143256
705.302	0.0143251
705.380	0.0144931
705.458	0.0144052
705.536	0.0143938
705.614	0.0143604
705.693	0.0143779
705.771	0.0143585
705.849	0.0141929
705.927	0.0141075
706.005	0.0140674
706.083	0.0138529
706.161	0.0138277
706.239	0.0137072
706.318	0.0136932
706.396	0.0135381
706.474	0.0134006
706.552	0.0132989
706.630	0.0131234
706.708	0.0130462
706.786	0.0130795
706.864	0.0128271
706.943	0.0128587
707.021	0.0127650
707.099	0.0127405
707.177	0.0125960
707.255	0.0126989
707.333	0.0127282
707.411	0.0126030
707.489	0.0125890
707.568	0.0126331
707.646	0.0126051
707.724	0.0127313
707.802	0.0126644
707.880	0.0127222
707.958	0.0128204
708.036	0.0126157
708.114	0.0127213
708.193	0.0127827
708.271	0.0127654
708.349	0.0128636
708.427	0.0130967
708.505	0.0129046
708.583	0.0130143
708.661	0.0129662
708.739	0.0130507
708.818	0.0132316
708.896	0.0131060
708.974	0.0131557
709.052	0.0133590
709.130	0.0133440
709.208	0.0132990
709.286	0.0133186
709.364	0.0132504
709.443	0.0133447
709.521	0.0135574
709.599	0.0135856
709.677	0.0135658
709.755	0.0137052
709.833	0.0136792
709.911	0.0135396
709.989	0.0135896
710.068	0.0136988
710.146	0.0138331
710.224	0.0137663
710.302	0.0137340
710.380	0.0138566
710.458	0.0138446
710.536	0.0137375
710.614	0.0139252
710.693	0.0138319
710.771	0.0137439
710.849	0.0138660
710.927	0.0139082
711.005	0.0138327
711.083	0.0138251
711.161	0.0137502
711.239	0.0137420
711.318	0.0138645
711.396	0.0137540
711.474	0.0138544
711.552	0.0138851
711.630	0.0139142
711.708	0.0139249
711.786	0.0138212
711.864	0.0138214
711.943	0.0138326
712.021	0.0138297
712.099	0.0139130
712.177	0.0138267
712.255	0.0137650
712.333	0.0137987
712.411	0.0137067
712.489	0.0136233
712.568	0.0136845
712.646	0.0135821
712.724	0.0137292
712.802	0.0134682
712.880	0.0133071
712.958	0.0132997
713.036	0.0132848
713.114	0.0130096
713.193	0.0130125
713.271	0.0129065
713.349	0.0129061
713.427	0.0128761
713.505	0.0127969
713.583	0.0127462
713.661	0.0126626
713.739	0.0126673
713.818	0.0124153
713.896	0.0125568
713.974	0.0126523
714.052	0.0125534
714.130	0.0125687
714.208	0.0125567
714.286	0.0126882
714.364	0.0127439
714.443	0.0126554
714.521	0.0126189
714.599	0.0126169
714.677	0.0128956
714.755	0.0127882
714.833	0.0128647
714.911	0.0129240
714.989	0.0128684
715.068	0.0130000
715.146	0.0131452
715.224	0.0132646
715.302	0.0132187
715.380	0.0133093
715.458	0.0134084
715.536	0.0133846
715.614	0.0132297
715.693	0.0132985
715.771	0.0134258
715.849	0.0134081
715.927	0.0133322
716.005	0.0133730
716.083	0.0135201
716.161	0.0135722
716.239	0.0133389
716.318	0.0135566
716.396	0.0136410
716.474	0.0135470
716.552	0.0135537
716.630	0.0137176
716.708	0.0136974
716.786	0.0136610
716.864	0.0136909
716.943	0.0137944
717.021	0.0138200
717.099	0.0137164
717.177	0.0138758
717.255	0.0138729
717.333	0.0137336
717.411	0.0138652
717.489	0.0138611
717.568	0.0137405
717.646	0.0138237
717.724	0.0140003
717.802	0.0139431
717.880	0.0138311
717.958	0.0137005
718.036	0.0137447
718.114	0.0138107
718.193	0.0138366
718.271	0.0136660
718.349	0.0136827
718.427	0.0136495
718.505	0.0135270
718.583	0.0133273
718.661	0.0133826
718.739	0.0134429
718.818	0.0131689
718.896	0.0130840
718.974	0.0129066
719.052	0.0128928
719.130	0.0127986
719.208	0.0128977
719.286	0.0128152
719.364	0.0126122
719.443	0.0125517
719.521	0.0128905
719.599	0.0126637
719.677	0.0125861
719.755	0.0127431
719.833	0.0128513
719.911	0.0128571
719.989	0.0128015
720.068	0.0127689
720.146	0.0126887
720.224	0.0128008
720.302	0.0129072
720.380	0.0128346
720.458	0.0127915
720.536	0.0128429
720.614	0.0130130
720.693	0.0130695
720.771	0.0128866
720.849	0.0130045
720.927	0.0131108
721.005	0.0130289
721.083	0.0129733
721.161	0.0130925
721.239	0.0131851
721.318	0.0133068
721.396	0.0132812
721.474	0.0133781
721.552	0.0134511
721.630	0.0134432
721.708	0.0134100
721.786	0.0135910
721.864	0.0134752
721.943	0.0133543
722.021	0.0136061
722.099	0.0135127
722.177	0.0135145
722.255	0.0133502
722.333	0.0135500
722.411	0.0135105
722.489	0.0134998
722.568	0.0133668
722.646	0.0134529
722.724	0.0135866
722.802	0.0136005
722.880	0.0133687
722.958	0.0134557
723.036	0.0135538
723.114	0.0133908
723.193	0.0134485
723.271	0.0134107
723.349	0.0132767
723.427	0.0133881
723.505	0.0133245
723.583	0.0133076
723.661	0.0132921
723.739	0.0133779
723.818	0.0132887
723.896	0.0133615
723.974	0.0133384
724.052	0.0132680
724.130	0.0133971
724.208	0.0133238
724.286	0.0134164
724.364	0.0133861
724.443	0.0135230
724.521	0.0134412
724.599	0.0134758
724.677	0.0134499
724.755	0.0134653
724.833	0.0135046
724.911	0.0135918
724.989	0.0137025
725.068	0.0136506
725.146	0.0136235
725.224	0.0135513
725.302	0.0135744
725.380	0.0135763
725.458	0.0134476
725.536	0.0133186
725.614	0.0135167
725.693	0.0134725
725.771	0.0132937
725.849	0.0133078
725.927	0.0132909
726.005	0.0130859
726.083	0.0130396
726.161	0.0130743
726.239	0.0130350
726.318	0.0128726
726.396	0.0127920
726.474	0.0128456
726.552	0.0127662
726.630	0.0126694
726.708	0.0124467
726.786	0.0125844
726.864	0.0126491
726.943	0.0126139
727.021	0.0127815
727.099	0.0127360
727.177	0.0127441
727.255	0.0129068
727.333	0.0128342
727.411	0.0126634
727.489	0.0128450
727.568	0.0128631
727.646	0.0131091
727.724	0.0131140
727.802	0.0132116
727.880	0.0132736
727.958	0.0132999
728.036	0.0131958
728.114	0.0132360
728.193	0.0133220
728.271	0.0134593
728.349	0.0135274
728.427	0.0135388
728.505	0.0135735
728.583	0.0133836
728.661	0.0135497
728.739	0.0134361
728.818	0.0134849
728.896	0.0133668
728.974	0.0133924
729.052	0.0135196
729.130	0.0134773
729.208	0.0134538
729.286	0.0134778
729.364	0.0135118
729.443	0.0135018
729.521	0.0133464
729.599	0.0133944
729.677	0.0133122
729.755	0.0132922
729.833	0.0133937
729.911	0.0134297
729.989	0.0133878
730.068	0.0134004
730.146	0.0134102
730.224	0.0133202
730.302	0.0134667
730.380	0.0133665
730.458	0.0135542
730.536	0.0135410
730.614	0.0134950
730.693	0.0135347
730.771	0.0134687
730.849	0.0135280
730.927	0.0136263
731.005	0.0135314
731.083	0.0134621
731.161	0.0135934
731.239	0.0136163
731.318	0.0135068
731.396	0.0135270
731.474	0.0136542
731.552	0.0134263
731.630	0.0135873
731.708	0.0135551
731.786	0.0134705
731.864	0.0134417
731.943	0.0133471
732.021	0.0132585
732.099	0.0133064
732.177	0.0130432
732.255	0.0130939
732.333	0.0130600
732.411	0.0130658
732.489	0.0130724
732.568	0.0129476
732.646	0.0130504
732.724	0.0128311
732.802	0.0129471
732.880	0.0130018
732.958	0.0129795
733.036	0.0129676
733.114	0.0129863
733.193	0.0129475
733.271	0.0129994
733.349	0.0130754
733.427	0.0130790
733.505	0.0131711
733.583	0.0131831
733.661	0.0130017
733.739	0.0131671
733.818	0.0131593
733.896	0.0132644
733.974	0.0131625
734.052	0.0133095
734.130	0.0133592
734.208	0.0133146
734.286	0.0134160
734.364	0.0133836
734.443	0.0134494
734.521	0.0136388
734.599	0.0136285
734.677	0.0136211
734.755	0.0135748
734.833	0.0136089
734.911	0.0136226
734.989	0.0136660
735.068	0.0136630
735.146	0.0135425
735.224	0.0135344
735.302	0.0134332
735.380	0.0135402
735.458	0.0133669
735.536	0.0134393
735.614	0.0134723
735.693	0.0135394
735.771	0.0134457
735.849	0.0133047
735.927	0.0133759
736.005	0.0133054
736.083	0.0133507
736.161	0.0132166
736.239	0.0134158
736.318	0.0132752
736.396	0.0133114
736.474	0.0134219
736.552	0.0133495
736.630	0.0134609
736.708	0.0133774
736.786	0.0134261
736.864	0.0133463
736.943	0.0135765
737.021	0.0136545
737.099	0.0135944
737.177	0.0135552
737.255	0.0135701
737.333	0.0136590
737.411	0.0136733
737.489	0.0137198
737.568	0.0135905
737.646	0.0135409
737.724	0.0136073
737.802	0.0134981
737.880	0.0135756
737.958	0.0135724
738.036	0.0136266
738.114	0.0136065
738.193	0.0134196
738.271	0.0133273
738.349	0.0134402
738.427	0.0133189
738.505	0.0133672
738.583	0.0132879
738.661	0.0131778
738.739	0.0130280
738.818	0.0130971
738.896	0.0130099
738.974	0.0129597
739.052	0.0128461
739.130	0.0127784
739.208	0.0128674
739.286	0.0127598
739.364	0.0127794
739.443	0.0127669
739.521	0.0128855
739.599	0.0126826
739.677	0.0126710
739.755	0.0127623
739.833	0.0128734
739.911	0.0129554
739.989	0.0127885
740.068	0.0130235
740.146	0.0128628
740.224	0.0129929
740.302	0.0129823
740.380	0.0130670
740.458	0.0131052
740.536	0.0129970
740.614	0.0131170
740.693	0.0131966
740.771	0.0131417
740.849	0.0133070
740.927	0.0132614
741.005	0.0132829
741.083	0.0133489
741.161	0.0135461
741.239	0.0133941
741.318	0.0133308
741.396	0.0133601
741.474	0.0135291
741.552	0.0134388
741.630	0.0135352
741.708	0.0134705
741.786	0.0136812
741.864	0.0135938
741.943	0.0134731
742.021	0.0136436
742.099	0.0137502
742.177	0.0135988
742.255	0.0134000
742.333	0.0134998
742.411	0.0134523
742.489	0.0135426
742.568	0.0135335
742.646	0.0133717
742.724	0.0135198
742.802	0.0133408
742.880	0.0132895
742.958	0.0132085
743.036	0.0134730
743.114	0.0132735
743.193	0.0133189
743.271	0.0132777
743.349	0.0132573
743.427	0.0133926
743.505	0.0133794
743.583	0.0132814
743.661	0.0132547
743.739	0.0132642
743.818	0.0133579
743.896	0.0134500
743.974	0.0134402
744.052	0.0133289
744.130	0.0135641
744.208	0.0135751
744.286	0.0135092
744.364	0.0135674
744.443	0.0136719
744.521	0.0137731
744.599	0.0136841
744.677	0.0134583
744.755	0.0135841
744.833	0.0135517
744.911	0.0135825
744.989	0.0135942
745.068	0.0135589
745.146	0.0134801
745.224	0.0134402
745.302	0.0134420
745.380	0.0132273
745.458	0.0133078
745.536	0.0132917
745.614	0.0132641
745.693	0.0132224
745.771	0.0132867
745.849	0.0130819
745.927	0.0131369
746.005	0.0131315
746.083	0.0130501
746.161	0.0130450
746.239	0.0129899
746.318	0.0130361
746.396	0.0130246
746.474	0.0128993
746.552	0.0128416
746.630	0.0131374
746.708	0.0131250
746.786	0.0129462
746.864	0.0130897
746.943	0.0131662
747.021	0.0131355
747.099	0.0130338
747.177	0.0132478
747.255	0.0132187
747.333	0.0132154
747.411	0.0133070
747.489	0.0133117
747.568	0.0133598
747.646	0.0133820
747.724	0.0135490
747.802	0.0134532
747.880	0.0135115
747.958	0.0136143
748.036	0.0135854
748.114	0.0136166
748.193	0.0135184
748.271	0.0134347
748.349	0.0135564
748.427	0.0137395
748.505	0.0136192
748.583	0.0136819
748.661	0.0136027
748.739	0.0135371
748.818	0.0135824
748.896	0.0135223
748.974	0.0134698
749.052	0.0135041
749.130	0.0135479
749.208	0.0134603
749.286	0.0134138
749.364	0.0133373
749.443	0.0134978
749.521	0.0135289
749.599	0.0132580
749.677	0.0133918
749.755	0.0133731
749.833	0.0133811
749.911	0.0133556
749.989	0.0133598
750.068	0.0134043
750.146	0.0132674
750.224	0.0134842
750.302	0.0133914
750.380	0.0134261
750.458	0.0133799
750.536	0.0134982
750.614	0.0135289
750.693	0.0134368
750.771	0.0136332
750.849	0.0134144
750.927	0.0133904
751.005	0.0134663
751.083	0.0134096
751.161	0.0134103
751.239	0.0134904
751.318	0.0134422
751.396	0.0133757
751.474	0.0132901
751.552	0.0132108
751.630	0.0134301
751.708	0.0132009
751.786	0.0131896
751.864	0.0129528
751.943	0.0130824
752.021	0.0130286
752.099	0.0129626
752.177	0.0128593
752.255	0.0129128
752.333	0.0129338
752.411	0.0128035
752.489	0.0127296
752.568	0.0126948
752.646	0.0126350
752.724	0.0127453
752.802	0.0127123
752.880	0.0126241
752.958	0.0126797
753.036	0.0128709
753.114	0.0127547
753.193	0.0127713
753.271	0.0129044
753.349	0.0129517
753.427	0.0130058
753.505	0.0131969
753.583	0.0132195
753.661	0.0132896
753.739	0.0132919
753.818	0.0134032
753.896	0.0136490
753.974	0.0135860
754.052	0.0134921
754.130	0.0135995
754.208	0.0137429
754.286	0.0137734
754.364	0.0137540
754.443	0.0136705
754.521	0.0138971
754.599	0.0138516
754.677	0.0138169
754.755	0.0137604
754.833	0.0137221
754.911	0.0137075
754.989	0.0136677
755.068	0.0135651
755.146	0.0136502
755.224	0.0135566
755.302	0.0135799
755.380	0.0134927
755.458	0.0135173
755.536	0.0133912
755.614	0.0132578
755.693	0.0133792
755.771	0.0131185
755.849	0.0131280
755.927	0.0130634
756.005	0.0131046
756.083	0.0131036
756.161	0.0130512
756.239	0.0129060
756.318	0.0129594
756.396	0.0129345
756.474	0.0129340
756.552	0.0130386
756.630	0.0128147
756.708	0.0128993
756.786	0.0131209
756.864	0.0129960
756.943	0.0131375
757.021	0.0131678
757.099	0.0129057
757.177	0.0130808
757.255	0.0133158
757.333	0.0133037
757.411	0.0134163
757.489	0.0132867
757.568	0.0132611
757.646	0.0133556
757.724	0.0133543
757.802	0.0134488
757.880	0.0132700
757.958	0.0134911
758.036	0.0134392
758.114	0.0133815
758.193	0.0134422
758.271	0.0133887
758.349	0.0134475
758.427	0.0134428
758.505	0.0135117
758.583	0.0135441
758.661	0.0134754
758.739	0.0135007
758.818	0.0133906
758.896	0.0134664
758.974	0.0133888
759.052	0.0132870
759.130	0.0133475
759.208	0.0133285
759.286	0.0132327
759.364	0.0131544
759.443	0.0132063
759.521	0.0131606
759.599	0.0130976
759.677	0.0129914
759.755	0.0130022
759.833	0.0128288
759.911	0.0127655
759.989	0.0128909
760.068	0.0127789
760.146	0.0127794
760.224	0.0129536
760.302	0.0127342
760.380	0.0128440
760.458	0.0129062
760.536	0.0130661
760.614	0.0128632
760.693	0.0130802
760.771	0.0129416
760.849	0.0130344
760.927	0.0130725
761.005	0.0131847
761.083	0.0130532
761.161	0.0133846
761.239	0.0133968
761.318	0.0134473
761.396	0.0134444
761.474	0.0134007
761.552	0.0135855
761.630	0.0136682
761.708	0.0136731
761.786	0.0137659
761.864	0.0138332
761.943	0.0137341
762.021	0.0138139
762.099	0.0139060
762.177	0.0139398
762.255	0.0138487
762.333	0.0139686
762.411	0.0138545
762.489	0.0138448
762.568	0.0139816
762.646	0.0139926
762.724	0.0137617
762.802	0.0138221
762.880	0.0139300
762.958	0.0137991
763.036	0.0137763
763.114	0.0138731
763.193	0.0136526
763.271	0.0137876
763.349	0.0136789
763.427	0.0136205
763.505	0.0135577
763.583	0.0134566
763.661	0.0135400
763.739	0.0135075
763.818	0.0134521
763.896	0.0134146
763.974	0.0134151
764.052	0.0134861
764.130	0.0132840
764.208	0.0132202
764.286	0.0132272
764.364	0.0131853
764.443	0.0132751
764.521	0.0131873
764.599	0.0133121
764.677	0.0131842
764.755	0.0129692
764.833	0.0129610
764.911	0.0129243
764.989	0.0128635
765.068	0.0130353
765.146	0.0129366
765.224	0.0127934
765.302	0.0127675
765.380	0.0128189
765.458	0.0127676
765.536	0.0128075
765.614	0.0128378
765.693	0.0128374
765.771	0.0129240
765.849	0.0127751
765.927	0.0127217
766.005	0.0129630
766.083	0.0130222
766.161	0.0130618
766.239	0.0130154
766.318	0.0131496
766.396	0.0132834
766.474	0.0131768
766.552	0.0134504
766.630	0.0134287
766.708	0.0134563
766.786	0.0134624
766.864	0.0135556
766.943	0.0135814
767.021	0.0135943
767.099	0.0136913
767.177	0.0138055
767.255	0.0138158
767.333	0.0137106
767.411	0.0137408
767.489	0.0138337
767.568	0.0138319
767.646	0.0139523
767.724	0.0136279
767.802	0.0136948
767.880	0.0137366
767.958	0.0137144
768.036	0.0137180
768.114	0.0138797
768.193	0.0136162
768.271	0.0136005
768.349	0.0134773
768.427	0.0135056
768.505	0.0135714
768.583	0.0136137
768.661	0.0134697
768.739	0.0135110
768.818	0.0133840
768.896	0.0134270
768.974	0.0134411
769.052	0.0134552
769.130	0.0132323
769.208	0.0130952
769.286	0.0131121
769.364	0.0131956
769.443	0.0132362
769.521	0.0130569
769.599	0.0130276
769.677	0.0129512
769.755	0.0129513
769.833	0.0129938
769.911	0.0129674
769.989	0.0130372
770.068	0.0130645
770.146	0.0131003
770.224	0.0128954
770.302	0.0130019
770.380	0.0130441
770.458	0.0130896
770.536	0.0131828
770.614	0.0132297
770.693	0.0130177
770.771	0.0131525
770.849	0.0131545
770.927	0.0132097
771.005	0.0132344
771.083	0.0132763
771.161	0.0133901
771.239	0.0134221
771.318	0.0135288
771.396	0.0133114
771.474	0.0134258
771.552	0.0135583
771.630	0.0134564
771.708	0.0135074
771.786	0.0133981
771.864	0.0134355
771.943	0.0134062
772.021	0.0134915
772.099	0.0134170
772.177	0.0133344
772.255	0.0133009
772.333	0.0132751
772.411	0.0131403
772.489	0.0131947
772.568	0.0132527
772.646	0.0132378
772.724	0.0131863
772.802	0.0131501
772.880	0.0131870
772.958	0.0131911
773.036	0.0131237
773.114	0.0130576
773.193	0.0131023
773.271	0.0131651
773.349	0.0131824
773.427	0.0131567
773.505	0.0130848
773.583	0.0132454
773.661	0.0131652
773.739	0.0131815
773.818	0.0133467
773.896	0.0131690
773.974	0.0133312
774.052	0.0133320
774.130	0.0133157
774.208	0.0134945
774.286	0.0134855
774.364	0.0133914
774.443	0.0133624
774.521	0.0134122
774.599	0.0133828
774.677	0.0134404
774.755	0.0134624
774.833	0.0134782
774.911	0.0134385
774.989	0.0134792
775.068	0.0134879
775.146	0.0132835
775.224	0.0133652
775.302	0.0133187
775.380	0.0132733
775.458	0.0133775
775.536	0.0132271
775.614	0.0130430
775.693	0.0131536
775.771	0.0131679
775.849	0.0131697
775.927	0.0129270
776.005	0.0130703
776.083	0.0130515
776.161	0.0131136
776.239	0.0130733
776.318	0.0130054
776.396	0.0130711
776.474	0.0128814
776.552	0.0129681
776.630	0.0128590
776.708	0.0129741
776.786	0.0130196
776.864	0.0129986
776.943	0.0131143
777.021	0.0130695
777.099	0.0131659
777.177	0.0130537
777.255	0.0131847
777.333	0.0132820
777.411	0.0132966
777.489	0.0133489
777.568	0.0133338
777.646	0.0134563
777.724	0.0134137
777.802	0.0134377
777.880	0.0133186
777.958	0.0134807
778.036	0.0134905
778.114	0.0135100
778.193	0.0134364
778.271	0.0135506
778.349	0.0135393
778.427	0.0133751
778.505	0.0134911
778.583	0.0135397
778.661	0.0133085
778.739	0.0132833
778.818	0.0134261
778.896	0.0134254
778.974	0.0133335
779.052	0.0132567
779.130	0.0133305
779.208	0.0132885
779.286	0.0131457
779.364	0.0131584
779.443	0.0132768
779.521	0.0133093
779.599	0.0130432
779.677	0.0132016
779.755	0.0132531
779.833	0.0131699
779.911	0.0132317
779.989	0.0131232
780.068	0.0131248
780.146	0.0129576
780.224	0.0129479
780.302	0.0130772
780.380	0.0131766
780.458	0.0130882
780.536	0.0131977
780.614	0.0130699
780.693	0.0130975
780.771	0.0131260
780.849	0.0131863
780.927	0.0131586
781.005	0.0133482
781.083	0.0132166
781.161	0.0131496
781.239	0.0131950
781.318	0.0133609
781.396	0.0130816
781.474	0.0131436
781.552	0.0130864
781.630	0.0131509
781.708	0.0131644
781.786	0.0132125
781.864	0.0132688
781.943	0.0133298
782.021	0.0132510
782.099	0.0132105
782.177	0.0132565
782.255	0.0133869
782.333	0.0133532
782.411	0.0132211
782.489	0.0133434
782.568	0.0131787
782.646	0.0131045
782.724	0.0135125
782.802	0.0134234
782.880	0.0134173
782.958	0.0133037
783.036	0.0133269
783.114	0.0132345
783.193	0.0132687
783.271	0.0132684
783.349	0.0136010
783.427	0.0133329
783.505	0.0133546
783.583	0.0132966
783.661	0.0134170
783.739	0.0135130
783.818	0.0134406
783.896	0.0133631
783.974	0.0133128
784.052	0.0135647
784.130	0.0131921
784.208	0.0132818
784.286	0.0134089
784.364	0.0134655
784.443	0.0134202
784.521	0.0133179
784.599	0.0133184
784.677	0.0134084
784.755	0.0133290
784.833	0.0132274
784.911	0.0132810
784.989	0.0134167
785.068	0.0132116
785.146	0.0133474
785.224	0.0133114
785.302	0.0133138
785.380	0.0132272
785.458	0.0131264
785.536	0.0130892
785.614	0.0130342
785.693	0.0131454
785.771	0.0130692
785.849	0.0130326
785.927	0.0129773
786.005	0.0129509
786.083	0.0129955
786.161	0.0129599
786.239	0.0130544
786.318	0.0129839
786.396	0.0130069
786.474	0.0130896
786.552	0.0129311
786.630	0.0131647
786.708	0.0131124
786.786	0.0131332
786.864	0.0131199
786.943	0.0133201
787.021	0.0133269
787.099	0.0133260
787.177	0.0133192
787.255	0.0132726
787.333	0.0133235
787.411	0.0133748
787.489	0.0133907
787.568	0.0133700
787.646	0.0134357
787.724	0.0132602
787.802	0.0131583
787.880	0.0132403
787.958	0.0133974
788.036	0.0133471
788.114	0.0134427
788.193	0.0135108
788.271	0.0136547
788.349	0.0133666
788.427	0.0136308
788.505	0.0137617
788.583	0.0136437
788.661	0.0137485
788.739	0.0137376
788.818	0.0134985
788.896	0.0137409
788.974	0.0136401
789.052	0.0137226
789.130	0.0137165
789.208	0.0135148
789.286	0.0134262
789.364	0.0135753
789.443	0.0134944
789.521	0.0133933
789.599	0.0135190
789.677	0.0135155
789.755	0.0134610
789.833	0.0135495
789.911	0.0134437
789.989	0.0134274
790.068	0.0134409
790.146	0.0134418
790.224	0.0134887
790.302	0.0134675
790.380	0.0133291
790.458	0.0134357
790.536	0.0131925
790.614	0.0132295
790.693	0.0133065
790.771	0.0132703
790.849	0.0134174
790.927	0.0133183
791.005	0.0132440
791.083	0.0132648
791.161	0.0132239
791.239	0.0132098
791.318	0.0134104
791.396	0.0134618
791.474	0.0134417
791.552	0.0134352
791.630	0.0133549
791.708	0.0133591
791.786	0.0133279
791.864	0.0133592
791.943	0.0135635
792.021	0.0134412
792.099	0.0131728
792.177	0.0133115
792.255	0.0131599
792.333	0.0131204
792.411	0.0131512
792.489	0.0131585
792.568	0.0131191
792.646	0.0131010
792.724	0.0130811
792.802	0.0130807
792.880	0.0131344
792.958	0.0132379
793.036	0.0131672
793.114	0.0131091
793.193	0.0131430
793.271	0.0131132
793.349	0.0131811
793.427	0.0130280
793.505	0.0131073
793.583	0.0131760
793.661	0.0132317
793.739	0.0131911
793.818	0.0132234
793.896	0.0132431
793.974	0.0130700
794.052	0.0132403
794.130	0.0133447
794.208	0.0133684
794.286	0.0133241
794.364	0.0134509
794.443	0.0135130
794.521	0.0135049
794.599	0.0134071
794.677	0.0136012
794.755	0.0134435
794.833	0.0135440
794.911	0.0134846
794.989	0.0133458
795.068	0.0134564
795.146	0.0132797
795.224	0.0133617
795.302	0.0132990
795.380	0.0133927
795.458	0.0133607
795.536	0.0131541
795.614	0.0132915
795.693	0.0133026
795.771	0.0135842
795.849	0.0134944
795.927	0.0136004
796.005	0.0136962
796.083	0.0134987
796.161	0.0137804
796.239	0.0138143
796.318	0.0136853
796.396	0.0137197
796.474	0.0136642
796.552	0.0136916
796.630	0.0136687
796.708	0.0137501
796.786	0.0136646
796.864	0.0135468
796.943	0.0134148
797.021	0.0134935
797.099	0.0134058
797.177	0.0132202
797.255	0.0131821
797.333	0.0131363
797.411	0.0130871
797.489	0.0129988
797.568	0.0130551
797.646	0.0129172
797.724	0.0129765
797.802	0.0129813
797.880	0.0130648
797.958	0.0130859
798.036	0.0130091
798.114	0.0130699
798.193	0.0131559
798.271	0.0131804
798.349	0.0131129
798.427	0.0131767
798.505	0.0130284
798.583	0.0131738
798.661	0.0130902
798.739	0.0132700
798.818	0.0132639
798.896	0.0132409
798.974	0.0131563
799.052	0.0132058
799.130	0.0132442
799.208	0.0131414
799.286	0.0130927
799.364	0.0130371
799.443	0.0131551
799.521	0.0130347
799.599	0.0130973
799.677	0.0131161
799.755	0.0130671
799.833	0.0131189
799.911	0.0130942
799.989	0.0131865
800.068	0.0134447
800.146	0.0132921
800.224	0.0133295
800.302	0.0134945
800.380	0.0133708
800.458	0.0134421
800.536	0.0132615
800.614	0.0134815
800.693	0.0134304
800.771	0.0134058
800.849	0.0134758
800.927	0.0133969
801.005	0.0133188
801.083	0.0133606
801.161	0.0131605
801.239	0.0134373
801.318	0.0132365
801.396	0.0130354
801.474	0.0131222
801.552	0.0131358
801.630	0.0131486
801.708	0.0131561
801.786	0.0132199
801.864	0.0133524
801.943	0.0133386
802.021	0.0133121
802.099	0.0133285
802.177	0.0134173
802.255	0.0133643
802.333	0.0135186
802.411	0.0135657
802.489	0.0135262
802.568	0.0134123
802.646	0.0135301
802.724	0.0136161
802.802	0.0135566
802.880	0.0135167
802.958	0.0135560
803.036	0.0135515
803.114	0.0133456
803.193	0.0133038
803.271	0.0134353
803.349	0.0133726
803.427	0.0132414
803.505	0.0133003
803.583	0.0132706
803.661	0.0132154
803.739	0.0131186
803.818	0.0130083
803.896	0.0129620
803.974	0.0131062
804.052	0.0130851
804.130	0.0129839
804.208	0.0129980
804.286	0.0128584
804.364	0.0129791
804.443	0.0130090
804.521	0.0130957
804.599	0.0131626
804.677	0.0130856
804.755	0.0131850
804.833	0.0130961
804.911	0.0132682
804.989	0.0131268
805.068	0.0132318
805.146	0.0132793
805.224	0.0131498
805.302	0.0132346
805.380	0.0132832
805.458	0.0133051
805.536	0.0133415
805.614	0.0133875
805.693	0.0132610
805.771	0.0132230
805.849	0.0133123
805.927	0.0132381
806.005	0.0131183
806.083	0.0130840
806.161	0.0130497
806.239	0.0128061
806.318	0.0127686
806.396	0.0128728
806.474	0.0128724
806.552	0.0128682
806.630	0.0127065
806.708	0.0128840
806.786	0.0129529
806.864	0.0129932
806.943	0.0130044
807.021	0.0130891
807.099	0.0131850
807.177	0.0133413
807.255	0.0133360
807.333	0.0133353
807.411	0.0132357
807.489	0.0135534
807.568	0.0135756
807.646	0.0135158
807.724	0.0136074
807.802	0.0136411
807.880	0.0136250
807.958	0.0137222
808.036	0.0137562
808.114	0.0137015
808.193	0.0137264
808.271	0.0138190
808.349	0.0138902
808.427	0.0138030
808.505	0.0137094
808.583	0.0137779
808.661	0.0136812
808.739	0.0137617
808.818	0.0137107
808.896	0.0136485
808.974	0.0136635
809.052	0.0134861
809.130	0.0134328
809.208	0.0133072
809.286	0.0132561
809.364	0.0133437
809.443	0.0131911
809.521	0.0131949
809.599	0.0132088
809.677	0.0129966
809.755	0.0130244
809.833	0.0131136
809.911	0.0129294
809.989	0.0129591
810.068	0.0129925
810.146	0.0129957
810.224	0.0130962
810.302	0.0130809
810.380	0.0131131
810.458	0.0130311
810.536	0.0132370
810.614	0.0130520
810.693	0.0130972
810.771	0.0133281
810.849	0.0132767
810.927	0.0133341
811.005	0.0133344
811.083	0.0133185
811.161	0.0134736
811.239	0.0134595
811.318	0.0133456
811.396	0.0133154
811.474	0.0133478
811.552	0.0132969
811.630	0.0133292
811.708	0.0132642
811.786	0.0132812
811.864	0.0133517
811.943	0.0132764
812.021	0.0132281
812.099	0.0131615
812.177	0.0132355
812.255	0.0130837
812.333	0.0132269
812.411	0.0133599
812.489	0.0130725
812.568	0.0131646
812.646	0.0132706
812.724	0.0132716
812.802	0.0131188
812.880	0.0133364
812.958	0.0132903
813.036	0.0131227
813.114	0.0133443
813.193	0.0135683
813.271	0.0135721
813.349	0.0133812
813.427	0.0136414
813.505	0.0136536
813.583	0.0135858
813.661	0.0135783
813.739	0.0138993
813.818	0.0137679
813.896	0.0137312
813.974	0.0136527
814.052	0.0135875
814.130	0.0136312
814.208	0.0134837
814.286	0.0136050
814.364	0.0133485
814.443	0.0134544
814.521	0.0131718
814.599	0.0132441
814.677	0.0133785
814.755	0.0131819
814.833	0.0132391
814.911	0.0132648
814.989	0.0131636
815.068	0.0132693
815.146	0.0132470
815.224	0.0132454
815.302	0.0131689
815.380	0.0133127
815.458	0.0132781
815.536	0.0131619
815.614	0.0133234
815.693	0.0132275
815.771	0.0132751
815.849	0.0134197
815.927	0.0132944
816.005	0.0134358
816.083	0.0135152
816.161	0.0134254
816.239	0.0134589
816.318	0.0135995
816.396	0.0134933
816.474	0.0135513
816.552	0.0134724
816.630	0.0134621
816.708	0.0131833
816.786	0.0132693
816.864	0.0133049
816.943	0.0131541
817.021	0.0130923
817.099	0.0130103
817.177	0.0130344
817.255	0.0129520
817.333	0.0129823
817.411	0.0130026
817.489	0.0129620
817.568	0.0130833
817.646	0.0131142
817.724	0.0130562
817.802	0.0131308
817.880	0.0132134
817.958	0.0131492
818.036	0.0133266
818.114	0.0132969
818.193	0.0132771
818.271	0.0133375
818.349	0.0133802
818.427	0.0132831
818.505	0.0134946
818.583	0.0134346
818.661	0.0134906
818.739	0.0134799
818.818	0.0135243
818.896	0.0138270
818.974	0.0136953
819.052	0.0135352
819.130	0.0136573
819.208	0.0137253
819.286	0.0137019
819.364	0.0136252
819.443	0.0136049
819.521	0.0136803
819.599	0.0136178
819.677	0.0134347
819.755	0.0134891
819.833	0.0135001
819.911	0.0132529
819.989	0.0133093
820.068	0.0131937
820.146	0.0134026
820.224	0.0132279
820.302	0.0133426
820.380	0.0132996
820.458	0.0131682
820.536	0.0130408
820.614	0.0131004
820.693	0.0130559
820.771	0.0130801
820.849	0.0131129
820.927	0.0131447
821.005	0.0130524
821.083	0.0130317
821.161	0.0132839
821.239	0.0132246
821.318	0.0131585
821.396	0.0132731
821.474	0.0132945
821.552	0.0133294
821.630	0.0133294
821.708	0.0133433
821.786	0.0134940
821.864	0.0133401
821.943	0.0134128
822.021	0.0134460
822.099	0.0133736
822.177	0.0133271
822.255	0.0132269
822.333	0.0131744
822.411	0.0131979
822.489	0.0131660
822.568	0.0131580
822.646	0.0132692
822.724	0.0132983
822.802	0.0131604
822.880	0.0132639
822.958	0.0131857
823.036	0.0131755
823.114	0.0132203
823.193	0.0131577
823.271	0.0131276
823.349	0.0131858
823.427	0.0132252
823.505	0.0131876
823.583	0.0131100
823.661	0.0130966
823.739	0.0132262
823.818	0.0131598
823.896	0.0131261
823.974	0.0130110
824.052	0.0131628
824.130	0.0131416
824.208	0.0130774
824.286	0.0131482
824.364	0.0132237
824.443	0.0131771
824.521	0.0131586
824.599	0.0132790
824.677	0.0132462
824.755	0.0131895
824.833	0.0132596
824.911	0.0131598
824.989	0.0132022
825.068	0.0133240
825.146	0.0130690
825.224	0.0132491
825.302	0.0132965
825.380	0.0130692
825.458	0.0131062
825.536	0.0130677
825.614	0.0131280
825.693	0.0133556
825.771	0.0132317
825.849	0.0131569
825.927	0.0131806
826.005	0.0130134
826.083	0.0131951
826.161	0.0132555
826.239	0.0130726
826.318	0.0131989
826.396	0.0132021
826.474	0.0131416
826.552	0.0131509
826.630	0.0132424
826.708	0.0133087
826.786	0.0132570
826.864	0.0132094
826.943	0.0133071
827.021	0.0133065
827.099	0.0132346
827.177	0.0132863
827.255	0.0133633
827.333	0.0133771
827.411	0.0133265
827.489	0.0132900
827.568	0.0132431
827.646	0.0132976
827.724	0.0133598
827.802	0.0133851
827.880	0.0134348
827.958	0.0133154
828.036	0.0132809
828.114	0.0133202
828.193	0.0134792
828.271	0.0133024
828.349	0.0133659
828.427	0.0134447
828.505	0.0133002
828.583	0.0133629
828.661	0.0134107
828.739	0.0132720
828.818	0.0132106
828.896	0.0132156
828.974	0.0131933
829.052	0.0131197
829.130	0.0133241
829.208	0.0132114
829.286	0.0132126
829.364	0.0132857
829.443	0.0133295
829.521	0.0134121
829.599	0.0132447
829.677	0.0132032
829.755	0.0133406
829.833	0.0132450
829.911	0.0133958
829.989	0.0134269
830.068	0.0133508
830.146	0.0135155
830.224	0.0134248
830.302	0.0132905
830.380	0.0134518
830.458	0.0131971
830.536	0.0132597
830.614	0.0133433
830.693	0.0132025
830.771	0.0133829
830.849	0.0132111
830.927	0.0133042
831.005	0.0133711
831.083	0.0133623
831.161	0.0132065
831.239	0.0134070
831.318	0.0133581
831.396	0.0133000
831.474	0.0133681
831.552	0.0132212
831.630	0.0132655
831.708	0.0132989
831.786	0.0133936
831.864	0.0134959
831.943	0.0133233
832.021	0.0133109
832.099	0.0133365
832.177	0.0133775
832.255	0.0133492
832.333	0.0133513
832.411	0.0132291
832.489	0.0134760
832.568	0.0134113
832.646	0.0135011
832.724	0.0134847
832.802	0.0133085
832.880	0.0134283
832.958	0.0134101
833.036	0.0134619
833.114	0.0134859
833.193	0.0134871
833.271	0.0135523
833.349	0.0134978
833.427	0.0134509
833.505	0.0133469
833.583	0.0133495
833.661	0.0134022
833.739	0.0133026
833.818	0.0133257
833.896	0.0133311
833.974	0.0134408
834.052	0.0133166
834.130	0.0133231
834.208	0.0133724
834.286	0.0132704
834.364	0.0133663
834.443	0.0133045
834.521	0.0132236
834.599	0.0132760
834.677	0.0133163
834.755	0.0133407
834.833	0.0133633
834.911	0.0132340
834.989	0.0132197
835.068	0.0132137
835.146	0.0133235
835.224	0.0132259
835.302	0.0134340
835.380	0.0133292
835.458	0.0131839
835.536	0.0132353
835.614	0.0133169
835.693	0.0132770
835.771	0.0132751
835.849	0.0133554
835.927	0.0133753
836.005	0.0132379
836.083	0.0133314
836.161	0.0134682
836.239	0.0134539
836.318	0.0134016
836.396	0.0134036
836.474	0.0134584
836.552	0.0135410
836.630	0.0134339
836.708	0.0133281
836.786	0.0135919
836.864	0.0135044
836.943	0.0134377
837.021	0.0135573
837.099	0.0134983
837.177	0.0135436
837.255	0.0135744
837.333	0.0134993
837.411	0.0133660
837.489	0.0134367
837.568	0.0134927
837.646	0.0133251
837.724	0.0135485
837.802	0.0133905
837.880	0.0132991
837.958	0.0133934
838.036	0.0134839
838.114	0.0133469
838.193	0.0132828
838.271	0.0133786
838.349	0.0133147
838.427	0.0131744
838.505	0.0133265
838.583	0.0133366
838.661	0.0132848
838.739	0.0133146
838.818	0.0131110
838.896	0.0132476
838.974	0.0132180
839.052	0.0134277
839.130	0.0132769
839.208	0.0132056
839.286	0.0134454
839.364	0.0134119
839.443	0.0133142
839.521	0.0133096
839.599	0.0133263
839.677	0.0134036
839.755	0.0134377
839.833	0.0132722
839.911	0.0132125
839.989	0.0134046
840.068	0.0133224
840.146	0.0133727
840.224	0.0134161
840.302	0.0133004
840.380	0.0133562
840.458	0.0133604
840.536	0.0134613
840.614	0.0133569
840.693	0.0135270
840.771	0.0134197
840.849	0.0132954
840.927	0.0132852
841.005	0.0133490
841.083	0.0133311
841.161	0.0133076
841.239	0.0131997
841.318	0.0133729
841.396	0.0132852
841.474	0.0132401
841.552	0.0132475
841.630	0.0133309
841.708	0.0132382
841.786	0.0132914
841.864	0.0131820
841.943	0.0133544
842.021	0.0133312
842.099	0.0131371
842.177	0.0132705
842.255	0.0133630
842.333	0.0133223
842.411	0.0132787
842.489	0.0133296
842.568	0.0132973
842.646	0.0131297
842.724	0.0131995
842.802	0.0131789
842.880	0.0132477
842.958	0.0132690
843.036	0.0132388
843.114	0.0131740
843.193	0.0131273
843.271	0.0131544
843.349	0.0133287
843.427	0.0133440
843.505	0.0133231
843.583	0.0132588
843.661	0.0134657
843.739	0.0133972
843.818	0.0135111
843.896	0.0134545
843.974	0.0134019
844.052	0.0133638
844.130	0.0133440
844.208	0.0134112
844.286	0.0133103
844.364	0.0133829
844.443	0.0133560
844.521	0.0134554
844.599	0.0133891
844.677	0.0133315
844.755	0.0133908
844.833	0.0135156
844.911	0.0135866
844.989	0.0134379
845.068	0.0133247
845.146	0.0133453
845.224	0.0134654
845.302	0.0133794
845.380	0.0134914
845.458	0.0132452
845.536	0.0133160
845.614	0.0132917
845.693	0.0133303
845.771	0.0132094
845.849	0.0131314
845.927	0.0131751
846.005	0.0132198
846.083	0.0131394
846.161	0.0130795
846.239	0.0131800
846.318	0.0130691
846.396	0.0131306
846.474	0.0131055
846.552	0.0132018
846.630	0.0131303
846.708	0.0131986
846.786	0.0131630
846.864	0.0132987
846.943	0.0132767
847.021	0.0132028
847.099	0.0131669
847.177	0.0131342
847.255	0.0131628
847.333	0.0132828
847.411	0.0131708
847.489	0.0131757
847.568	0.0134108
847.646	0.0132765
847.724	0.0133131
847.802	0.0133897
847.880	0.0133306
847.958	0.0133681
848.036	0.0134396
848.114	0.0133201
848.193	0.0134161
848.271	0.0134849
848.349	0.0133894
848.427	0.0133183
848.505	0.0134692
848.583	0.0135152
848.661	0.0132993
848.739	0.0133015
848.818	0.0132054
848.896	0.0132497
848.974	0.0133776
849.052	0.0135165
849.130	0.0131978
849.208	0.0133086
849.286	0.0133105
849.364	0.0133479
849.443	0.0133727
849.521	0.0132316
849.599	0.0132736
849.677	0.0132661
849.755	0.0132626
849.833	0.0132239
849.911	0.0131856
849.989	0.0131917
850.068	0.0133937
850.146	0.0132212
850.224	0.0132762
850.302	0.0132050
850.380	0.0131043
850.458	0.0132153
850.536	0.0131548
850.614	0.0132333
850.693	0.0130946
850.771	0.0131851
850.849	0.0130946
850.927	0.0131460
851.005	0.0132224
851.083	0.0130877
851.161	0.0133168
851.239	0.0132452
851.318	0.0131087
851.396	0.0131787
851.474	0.0133332
851.552	0.0134348
851.630	0.0133710
851.708	0.0133576
851.786	0.0132972
851.864	0.0133517
851.943	0.0134871
852.021	0.0133410
852.099	0.0133150
852.177	0.0132870
852.255	0.0134493
852.333	0.0133985
852.411	0.0135195
852.489	0.0134268
852.568	0.0133765
852.646	0.0135207
852.724	0.0134946
852.802	0.0135271
852.880	0.0134146
852.958	0.0134751
853.036	0.0135163
853.114	0.0134473
853.193	0.0132737
853.271	0.0133041
853.349	0.0135118
853.427	0.0135227
853.505	0.0135791
853.583	0.0135263
853.661	0.0133613
853.739	0.0132269
853.818	0.0134722
853.896	0.0134716
853.974	0.0133715
854.052	0.0134541
854.130	0.0134545
854.208	0.0133867
854.286	0.0132781
854.364	0.0132791
854.443	0.0134380
854.521	0.0133987
854.599	0.0132391
854.677	0.0132317
854.755	0.0132035
854.833	0.0132438
854.911	0.0132220
854.989	0.0131350
855.068	0.0133690
855.146	0.0132069
855.224	0.0131133
855.302	0.0131425
855.380	0.0131950
855.458	0.0133424
855.536	0.0133637
855.614	0.0133029
855.693	0.0133224
855.771	0.0132644
855.849	0.0132426
855.927	0.0133620
856.005	0.0133042
856.083	0.0133019
856.161	0.0133033
856.239	0.0132944
856.318	0.0134482
856.396	0.0134618
856.474	0.0133999
856.552	0.0134425
856.630	0.0133215
856.708	0.0134162
856.786	0.0134994
856.864	0.0134934
856.943	0.0133614
857.021	0.0135125
857.099	0.0135798
857.177	0.0134609
857.255	0.0133633
857.333	0.0134278
857.411	0.0134954
857.489	0.0133007
857.568	0.0132931
857.646	0.0134516
857.724	0.0133237
857.802	0.0132735
857.880	0.0134065
857.958	0.0133335
858.036	0.0134834
858.114	0.0132979
858.193	0.0133027
858.271	0.0133192
858.349	0.0133522
858.427	0.0133421
858.505	0.0134978
858.583	0.0133909
858.661	0.0132671
858.739	0.0133537
858.818	0.0132131
858.896	0.0133887
858.974	0.0132713
859.052	0.0133315
859.130	0.0133295
859.208	0.0132712
859.286	0.0131282
859.364	0.0131947
859.443	0.0132162
859.521	0.0132282
859.599	0.0133488
859.677	0.0132712
859.755	0.0132851
859.833	0.0132526
859.911	0.0131103
859.989	0.0130650
860.068	0.0130605
860.146	0.0131293
860.224	0.0131523
860.302	0.0132623
860.380	0.0130632
860.458	0.0130862
860.536	0.0131024
860.614	0.0130254
860.693	0.0130833
860.771	0.0133186
860.849	0.0133563
860.927	0.0132363
861.005	0.0133891
861.083	0.0134030
861.161	0.0133501
861.239	0.0133814
861.318	0.0134637
861.396	0.0134256
861.474	0.0134579
861.552	0.0135236
861.630	0.0134957
861.708	0.0135439
861.786	0.0134763
861.864	0.0135396
861.943	0.0136263
862.021	0.0134499
862.099	0.0135104
862.177	0.0133124
862.255	0.0134529
862.333	0.0132285
862.411	0.0134549
862.489	0.0134325
862.568	0.0132466
862.646	0.0132557
862.724	0.0133399
862.802	0.0132965
862.880	0.0131575
862.958	0.0132123
863.036	0.0132639
863.114	0.0131252
863.193	0.0131455
863.271	0.0131365
863.349	0.0131020
863.427	0.0133089
863.505	0.0130989
863.583	0.0131407
863.661	0.0132883
863.739	0.0132749
863.818	0.0132722
863.896	0.0132883
863.974	0.0133069
864.052	0.0132787
864.130	0.0134032
864.208	0.0132245
864.286	0.0132513
864.364	0.0133507
864.443	0.0133420
864.521	0.0132867
864.599	0.0132743
864.677	0.0133000
864.755	0.0133922
864.833	0.0134171
864.911	0.0132497
864.989	0.0131850
865.068	0.0132767
865.146	0.0133192
865.224	0.0132753
865.302	0.0133408
865.380	0.0132155
865.458	0.0131960
865.536	0.0131291
865.614	0.0132220
865.693	0.0132614
865.771	0.0133387
865.849	0.0132715
865.927	0.0133755
866.005	0.0133032
866.083	0.0133109
866.161	0.0134094
866.239	0.0134590
866.318	0.0133452
866.396	0.0133311
866.474	0.0134839
866.552	0.0135250
866.630	0.0135434
866.708	0.0135104
866.786	0.0133610
866.864	0.0134319
866.943	0.0134708
867.021	0.0135658
867.099	0.0134393
867.177	0.0134878
867.255	0.0133947
867.333	0.0132730
867.411	0.0132878
867.489	0.0132397
867.568	0.0133192
867.646	0.0132129
867.724	0.0131638
867.802	0.0132076
867.880	0.0131647
867.958	0.0130436
868.036	0.0130984
868.114	0.0131834
868.193	0.0131319
868.271	0.0131022
868.349	0.0130208
868.427	0.0129807
868.505	0.0131725
868.583	0.0130876
868.661	0.0132088
868.739	0.0131036
868.818	0.0129692
868.896	0.0130666
868.974	0.0131252
869.052	0.0132188
869.130	0.0131174
869.208	0.0131926
869.286	0.0131634
869.364	0.0131491
869.443	0.0131031
869.521	0.0131940
869.599	0.0132698
869.677	0.0132333
869.755	0.0131919
869.833	0.0130959
869.911	0.0131366
869.989	0.0131168
870.068	0.0130592
870.146	0.0130435
870.224	0.0129306
870.302	0.0130357
870.380	0.0131007
870.458	0.0130569
870.536	0.0130222
870.614	0.0127994
870.693	0.0130051
870.771	0.0131620
870.849	0.0130669
870.927	0.0129693
871.005	0.0130905
871.083	0.0129597
871.161	0.0130124
871.239	0.0130850
871.318	0.0130392
871.396	0.0132590
871.474	0.0132533
871.552	0.0130096
871.630	0.0132382
871.708	0.0132420
871.786	0.0131750
871.864	0.0133400
871.943	0.0133514
872.021	0.0133619
872.099	0.0133504
872.177	0.0133759
872.255	0.0133221
872.333	0.0132815
872.411	0.0134109
872.489	0.0133368
872.568	0.0133360
872.646	0.0133389
872.724	0.0132027
872.802	0.0131155
872.880	0.0131828
872.958	0.0131240
873.036	0.0130005
873.114	0.0131719
873.193	0.0131195
873.271	0.0132050
873.349	0.0131019
873.427	0.0130225
873.505	0.0131522
873.583	0.0129517
873.661	0.0130357
873.739	0.0132272
873.818	0.0132905
873.896	0.0133008
873.974	0.0132769
874.052	0.0134568
874.130	0.0134413
874.208	0.0133214
874.286	0.0132781
874.364	0.0132946
874.443	0.0133811
874.521	0.0135020
874.599	0.0133871
874.677	0.0132798
874.755	0.0133530
874.833	0.0133746
874.911	0.0132749
874.989	0.0134427
875.068	0.0134306
875.146	0.0134365
875.224	0.0133173
875.302	0.0133788
875.380	0.0135096
875.458	0.0133514
875.536	0.0133653
875.614	0.0134554
875.693	0.0132981
875.771	0.0132996
875.849	0.0133587
875.927	0.0133356
876.005	0.0132810
876.083	0.0133472
876.161	0.0134006
876.239	0.0133064
876.318	0.0133601
876.396	0.0133825
876.474	0.0133628
876.552	0.0133276
876.630	0.0133227
876.708	0.0134170
876.786	0.0134132
876.864	0.0133210
876.943	0.0134548
877.021	0.0135896
877.099	0.0135966
877.177	0.0132762
877.255	0.0135130
877.333	0.0136530
877.411	0.0136549
877.489	0.0134571
877.568	0.0135145
877.646	0.0135203
877.724	0.0137395
877.802	0.0136665
877.880	0.0136810
877.958	0.0135748
878.036	0.0135813
878.114	0.0136018
878.193	0.0134644
878.271	0.0136443
878.349	0.0136137
878.427	0.0134422
878.505	0.0134106
878.583	0.0133338
878.661	0.0135139
878.739	0.0134161
878.818	0.0134690
878.896	0.0134755
878.974	0.0135680
879.052	0.0133569
879.130	0.0133331
879.208	0.0133941
879.286	0.0134455
879.364	0.0134286
879.443	0.0135393
879.521	0.0133881
879.599	0.0133997
879.677	0.0133878
879.755	0.0133522
879.833	0.0133577
879.911	0.0132220
879.989	0.0133596
880.068	0.0134142
880.146	0.0133775
880.224	0.0131468
880.302	0.0133375
880.380	0.0133759
880.458	0.0133036
880.536	0.0131926
880.614	0.0132265
880.693	0.0133467
880.771	0.0134741
880.849	0.0133054
880.927	0.0133165
881.005	0.0134140
881.083	0.0134810
881.161	0.0133008
881.239	0.0132952
881.318	0.0132603
881.396	0.0134779
881.474	0.0134734
881.552	0.0133737
881.630	0.0135236
881.708	0.0133895
881.786	0.0133805
881.864	0.0133009
881.943	0.0134760
882.021	0.0135108
882.099	0.0134112
882.177	0.0134267
882.255	0.0133994
882.333	0.0135237
882.411	0.0134977
882.489	0.0133483
882.568	0.0133692
882.646	0.0134917
882.724	0.0134447
882.802	0.0134325
882.880	0.0135406
882.958	0.0134826
883.036	0.0134083
883.114	0.0132903
883.193	0.0133178
883.271	0.0133053
883.349	0.0132963
883.427	0.0133025
883.505	0.0132946
883.583	0.0132977
883.661	0.0133381
883.739	0.0132669
883.818	0.0134071
883.896	0.0133123
883.974	0.0134309
884.052	0.0133038
884.130	0.0133723
884.208	0.0135849
884.286	0.0133687
884.364	0.0134339
884.443	0.0133956
884.521	0.0134689
884.599	0.0135243
884.677	0.0135455
884.755	0.0134171
884.833	0.0133816
884.911	0.0134892
884.989	0.0135729
885.068	0.0134516
885.146	0.0134681
885.224	0.0134702
885.302	0.0134767
885.380	0.0133028
885.458	0.0133831
885.536	0.0134674
885.614	0.0133390
885.693	0.0133173
885.771	0.0132824
885.849	0.0132623
885.927	0.0132970
886.005	0.0132996
886.083	0.0134699
886.161	0.0133796
886.239	0.0134256
886.318	0.0132716
886.396	0.0132407
886.474	0.0131202
886.552	0.0132021
886.630	0.0132693
886.708	0.0132404
886.786	0.0132481
886.864	0.0131916
886.943	0.0131756
887.021	0.0131674
887.099	0.0132369
887.177	0.0131287
887.255	0.0131599
887.333	0.0131212
887.411	0.0132093
887.489	0.0132330
887.568	0.0131896
887.646	0.0132169
887.724	0.0132258
887.802	0.0131867
887.880	0.0130178
887.958	0.0131830
888.036	0.0130936
888.114	0.0132627
888.193	0.0131276
888.271	0.0132153
888.349	0.0132369
888.427	0.0132156
888.505	0.0131790
888.583	0.0131818
888.661	0.0131965
888.739	0.0131167
888.818	0.0131395
888.896	0.0131151
888.974	0.0131635
889.052	0.0130482
889.130	0.0133012
889.208	0.0132455
889.286	0.0131558
889.364	0.0132243
889.443	0.0132655
889.521	0.0131865
889.599	0.0133842
889.677	0.0132382
889.755	0.0133332
889.833	0.0132379
889.911	0.0133411
889.989	0.0133785
890.068	0.0133797
890.146	0.0134187
890.224	0.0133310
890.302	0.0133755
890.380	0.0133345
890.458	0.0132870
890.536	0.0134357
890.614	0.0134741
890.693	0.0135240
890.771	0.0133640
890.849	0.0133839
890.927	0.0132724
891.005	0.0132884
891.083	0.0133850
891.161	0.0133704
891.239	0.0133276
891.318	0.0134144
891.396	0.0132289
891.474	0.0131872
891.552	0.0133226
891.630	0.0133138
891.708	0.0130766
891.786	0.0131438
891.864	0.0132034
891.943	0.0131792
892.021	0.0131544
892.099	0.0131689
892.177	0.0130385
892.255	0.0131474
892.333	0.0131265
892.411	0.0130072
892.489	0.0130397
892.568	0.0130281
892.646	0.0129317
892.724	0.0128409
892.802	0.0130901
892.880	0.0130518
892.958	0.0129971
893.036	0.0129884
893.114	0.0130432
893.193	0.0131201
893.271	0.0130784
893.349	0.0131497
893.427	0.0131934
893.505	0.0130392
893.583	0.0131136
893.661	0.0130334
893.739	0.0132167
893.818	0.0132430
893.896	0.0130860
893.974	0.0131107
894.052	0.0130859
894.130	0.0131768
894.208	0.0130756
894.286	0.0133003
894.364	0.0133044
894.443	0.0133376
894.521	0.0132001
894.599	0.0132382
894.677	0.0132368
894.755	0.0133488
894.833	0.0133674
894.911	0.0132701
894.989	0.0132616
895.068	0.0133492
895.146	0.0133962
895.224	0.0132459
895.302	0.0131354
895.380	0.0133923
895.458	0.0132703
895.536	0.0133591
895.614	0.0133974
895.693	0.0134967
895.771	0.0134093
895.849	0.0134049
895.927	0.0134570
896.005	0.0132723
896.083	0.0133503
896.161	0.0133853
896.239	0.0133795
896.318	0.0133374
896.396	0.0134217
896.474	0.0134074
896.552	0.0132226
896.630	0.0132664
896.708	0.0134406
896.786	0.0134055
896.864	0.0133622
896.943	0.0133233
897.021	0.0133164
897.099	0.0131712
897.177	0.0132046
897.255	0.0131026
897.333	0.0132312
897.411	0.0132632
897.489	0.0131940
897.568	0.0131321
897.646	0.0131437
897.724	0.0130846
897.802	0.0131352
897.880	0.0131329
897.958	0.0132090
898.036	0.0131937
898.114	0.0132310
898.193	0.0131218
898.271	0.0131390
898.349	0.0131903
898.427	0.0132509
898.505	0.0132724
898.583	0.0131078
898.661	0.0131323
898.739	0.0131218
898.818	0.0131681
898.896	0.0131698
898.974	0.0130348
899.052	0.0132201
899.130	0.0131996
899.208	0.0130983
899.286	0.0132837
899.364	0.0131338
899.443	0.0132486
899.521	0.0133087
899.599	0.0131084
899.677	0.0133028
899.755	0.0132805
899.833	0.0133203
899.911	0.0134013
899.989	0.0134534
900.068	0.0134515
900.146	0.0133343
900.224	0.0133603
900.302	0.0134991
900.380	0.0133717
900.458	0.0134636
900.536	0.0135194
900.614	0.0134893
900.693	0.0134271
900.771	0.0134273
900.849	0.0133874
900.927	0.0135776
901.005	0.0134646
901.083	0.0134678
901.161	0.0133838
901.239	0.0134344
901.318	0.0132777
901.396	0.0132652
901.474	0.0134283
901.552	0.0133518
901.630	0.0133590
901.708	0.0133484
901.786	0.0133480
901.864	0.0133203
901.943	0.0133851
902.021	0.0133230
902.099	0.0133479
902.177	0.0132207
902.255	0.0133150
902.333	0.0133007
902.411	0.0133234
902.489	0.0133701
902.568	0.0132642
902.646	0.0133279
902.724	0.0132466
902.802	0.0133279
902.880	0.0131913
902.958	0.0132037
903.036	0.0133089
903.114	0.0131594
903.193	0.0133017
903.271	0.0132030
903.349	0.0131290
903.427	0.0133656
903.505	0.0133559
903.583	0.0132895
903.661	0.0131145
903.739	0.0132461
903.818	0.0134171
903.896	0.0132277
903.974	0.0130717
904.052	0.0131474
904.130	0.0132616
904.208	0.0133252
904.286	0.0132693
904.364	0.0131040
904.443	0.0130861
904.521	0.0131049
904.599	0.0131001
904.677	0.0131775
904.755	0.0132157
904.833	0.0130481
904.911	0.0130208
904.989	0.0132268
905.068	0.0131847
905.146	0.0132184
905.224	0.0132660
905.302	0.0131934
905.380	0.0132387
905.458	0.0133386
905.536	0.0132135
905.614	0.0134295
905.693	0.0133991
905.771	0.0133215
905.849	0.0133097
905.927	0.0133978
906.005	0.0133350
906.083	0.0132810
906.161	0.0132825
906.239	0.0133457
906.318	0.0133957
906.396	0.0133620
906.474	0.0133834
906.552	0.0134562
906.630	0.0133550
906.708	0.0133522
906.786	0.0132871
906.864	0.0133968
906.943	0.0133846
907.021	0.0133479
907.099	0.0133968
907.177	0.0134367
907.255	0.0134201
907.333	0.0134460
907.411	0.0134386
907.489	0.0133660
907.568	0.0133536
907.646	0.0133786
907.724	0.0134744
907.802	0.0134519
907.880	0.0133500
907.958	0.0132531
908.036	0.0132008
908.114	0.0133669
908.193	0.0131805
908.271	0.0132125
908.349	0.0132993
908.427	0.0131517
908.505	0.0133520
908.583	0.0132936
908.661	0.0132005
908.739	0.0134064
908.818	0.0132121
908.896	0.0132251
908.974	0.0131790
909.052	0.0132952
909.130	0.0133453
909.208	0.0133135
909.286	0.0132882
909.364	0.0134080
909.443	0.0132761
909.521	0.0132536
909.599	0.0132230
909.677	0.0133668
909.755	0.0133374
909.833	0.0133980
909.911	0.0133974
909.989	0.0132681
910.068	0.0134671
910.146	0.0133298
910.224	0.0133694
910.302	0.0134885
910.380	0.0134402
910.458	0.0134639
910.536	0.0133450
910.614	0.0134090
910.693	0.0135135
910.771	0.0135399
910.849	0.0134756
910.927	0.0134897
911.005	0.0133924
911.083	0.0133745
911.161	0.0132772
911.239	0.0133103
911.318	0.0134216
911.396	0.0132542
911.474	0.0132302
911.552	0.0131699
911.630	0.0133818
911.708	0.0133153
911.786	0.0134102
911.864	0.0133521
911.943	0.0131850
912.021	0.0132721
912.099	0.0131340
912.177	0.0133149
912.255	0.0133463
912.333	0.0132937
912.411	0.0132189
912.489	0.0132886
912.568	0.0132944
912.646	0.0132500
912.724	0.0133359
912.802	0.0133266
912.880	0.0132675
912.958	0.0132869
913.036	0.0132460
913.114	0.0132094
913.193	0.0132709
913.271	0.0133086
913.349	0.0133242
913.427	0.0132742
913.505	0.0132247
913.583	0.0131022
913.661	0.0131570
913.739	0.0132280
913.818	0.0132388
913.896	0.0131102
913.974	0.0132030
914.052	0.0132543
914.130	0.0132217
914.208	0.0130098
914.286	0.0130521
914.364	0.0131391
914.443	0.0132443
914.521	0.0131805
914.599	0.0131548
914.677	0.0130520
914.755	0.0130705
914.833	0.0130679
914.911	0.0132272
914.989	0.0131018
915.068	0.0130935
915.146	0.0131409
915.224	0.0131087
915.302	0.0130328
915.380	0.0129337
915.458	0.0131096
915.536	0.0131517
915.614	0.0131577
915.693	0.0131027
915.771	0.0131696
915.849	0.0132134
915.927	0.0132291
916.005	0.0130810
916.083	0.0131295
916.161	0.0132450
916.239	0.0132161
916.318	0.0131960
916.396	0.0132103
916.474	0.0131002
916.552	0.0132502
916.630	0.0131174
916.708	0.0131554
916.786	0.0133400
916.864	0.0131033
916.943	0.0129093
917.021	0.0131875
917.099	0.0132068
917.177	0.0131812
917.255	0.0131865
917.333	0.0132240
917.411	0.0132191
917.489	0.0131610
917.568	0.0134100
917.646	0.0132970
917.724	0.0132949
917.802	0.0132986
917.880	0.0132833
917.958	0.0131762
918.036	0.0132211
918.114	0.0133082
918.193	0.0132558
918.271	0.0132302
918.349	0.0132525
918.427	0.0132675
918.505	0.0133352
918.583	0.0131600
918.661	0.0131350
918.739	0.0132411
918.818	0.0133842
918.896	0.0132793
918.974	0.0133577
919.052	0.0134875
919.130	0.0133783
919.208	0.0132436
919.286	0.0133991
919.364	0.0134435
919.443	0.0133174
919.521	0.0133945
919.599	0.0134141
919.677	0.0133072
919.755	0.0132781
919.833	0.0132982
919.911	0.0133644
919.989	0.0133722
920.068	0.0133482
920.146	0.0132958
920.224	0.0132905
920.302	0.0133331
920.380	0.0132812
920.458	0.0132285
920.536	0.0133245
920.614	0.0132707
920.693	0.0131976
920.771	0.0134315
920.849	0.0132403
920.927	0.0133250
921.005	0.0134152
921.083	0.0134854
921.161	0.0132986
921.239	0.0133115
921.318	0.0132597
921.396	0.0133371
921.474	0.0131924
921.552	0.0132377
921.630	0.0132442
921.708	0.0132509
921.786	0.0132539
921.864	0.0131686
921.943	0.0131943
922.021	0.0132648
922.099	0.0131600
922.177	0.0131236
922.255	0.0132053
922.333	0.0131496
922.411	0.0132264
922.489	0.0131476
922.568	0.0132864
922.646	0.0132175
922.724	0.0132522
922.802	0.0131672
922.880	0.0132186
922.958	0.0130873
923.036	0.0132096
923.114	0.0131757
923.193	0.0131493
923.271	0.0133104
923.349	0.0132014
923.427	0.0131815
923.505	0.0133500
923.583	0.0130293
923.661	0.0131052
923.739	0.0133252
923.818	0.0132994
923.896	0.0132376
923.974	0.0131486
924.052	0.0132882
924.130	0.0132831
924.208	0.0133031
924.286	0.0133715
924.364	0.0133720
924.443	0.0133060
924.521	0.0132980
924.599	0.0134633
924.677	0.0133157
924.755	0.0132066
924.833	0.0135490
924.911	0.0134122
924.989	0.0132648
925.068	0.0134267
925.146	0.0133610
925.224	0.0133851
925.302	0.0134867
925.380	0.0133351
925.458	0.0134174
925.536	0.0132709
925.614	0.0132851
925.693	0.0132408
925.771	0.0134182
925.849	0.0133719
925.927	0.0133625
926.005	0.0133132
926.083	0.0132491
926.161	0.0133907
926.239	0.0133139
926.318	0.0133041
926.396	0.0132975
926.474	0.0133955
926.552	0.0134435
926.630	0.0135098
926.708	0.0133154
926.786	0.0132603
926.864	0.0133588
926.943	0.0132644
927.021	0.0133457
927.099	0.0132490
927.177	0.0132896
927.255	0.0133044
927.333	0.0132598
927.411	0.0131957
927.489	0.0133289
927.568	0.0132627
927.646	0.0134440
927.724	0.0133455
927.802	0.0131991
927.880	0.0132354
927.958	0.0133366
928.036	0.0133332
928.114	0.0133539
928.193	0.0132561
928.271	0.0131428
928.349	0.0131207
928.427	0.0132066
928.505	0.0133490
928.583	0.0132789
928.661	0.0131533
928.739	0.0131067
928.818	0.0131101
928.896	0.0130081
928.974	0.0130635
929.052	0.0132851
929.130	0.0132252
929.208	0.0131208
929.286	0.0130855
929.364	0.0130918
929.443	0.0130765
929.521	0.0131599
929.599	0.0131987
929.677	0.0130998
929.755	0.0131667
929.833	0.0132101
929.911	0.0133175
929.989	0.0131174
930.068	0.0131986
930.146	0.0133867
930.224	0.0132040
930.302	0.0132293
930.380	0.0133043
930.458	0.0133419
930.536	0.0133241
930.614	0.0133705
930.693	0.0134406
930.771	0.0133875
930.849	0.0134747
930.927	0.0134557
931.005	0.0135133
931.083	0.0135529
931.161	0.0134058
931.239	0.0133566
931.318	0.0133498
931.396	0.0135099
931.474	0.0134504
931.552	0.0133555
931.630	0.0135181
931.708	0.0133109
931.786	0.0134358
931.864	0.0133398
931.943	0.0133766
932.021	0.0133826
932.099	0.0134763
932.177	0.0133252
932.255	0.0133575
932.333	0.0131274
932.411	0.0133070
932.489	0.0133723
932.568	0.0132964
932.646	0.0134032
932.724	0.0133347
932.802	0.0133319
932.880	0.0133406
932.958	0.0132706
933.036	0.0133464
933.114	0.0133628
933.193	0.0134056
933.271	0.0133205
933.349	0.0133436
933.427	0.0132706
933.505	0.0132265
933.583	0.0133151
933.661	0.0133696
933.739	0.0131006
933.818	0.0133464
933.896	0.0133256
933.974	0.0130653
934.052	0.0131651
934.130	0.0132440
934.208	0.0132658
934.286	0.0132214
934.364	0.0130988
934.443	0.0131255
934.521	0.0130370
934.599	0.0131810
934.677	0.0131464
934.755	0.0131746
934.833	0.0132150
934.911	0.0132321
934.989	0.0131908
935.068	0.0132090
935.146	0.0131522
935.224	0.0131290
935.302	0.0133279
935.380	0.0133545
935.458	0.0132381
935.536	0.0132682
935.614	0.0133639
935.693	0.0133801
935.771	0.0133842
935.849	0.0134812
935.927	0.0134149
936.005	0.0132503
936.083	0.0134673
936.161	0.0134914
936.239	0.0133504
936.318	0.0135442
936.396	0.0134756
936.474	0.0135420
936.552	0.0135715
936.630	0.0135777
936.708	0.0133045
936.786	0.0135407
936.864	0.0134989
936.943	0.0134936
937.021	0.0133927
937.099	0.0132998
937.177	0.0133617
937.255	0.0133664
937.333	0.0133653
937.411	0.0132226
937.489	0.0134222
937.568	0.0133778
937.646	0.0133466
937.724	0.0131779
937.802	0.0130894
937.880	0.0133209
937.958	0.0132349
938.036	0.0132809
938.114	0.0131886
938.193	0.0132686
938.271	0.0133685
938.349	0.0132666
938.427	0.0132950
938.505	0.0132796
938.583	0.0132764
938.661	0.0133267
938.739	0.0132261
938.818	0.0132182
938.896	0.0131897
938.974	0.0132991
939.052	0.0132053
939.130	0.0133987
939.208	0.0133798
939.286	0.0131239
939.364	0.0131836
939.443	0.0132259
939.521	0.0131461
939.599	0.0131320
939.677	0.0131012
939.755	0.0131851
939.833	0.0132065
939.911	0.0132403
939.989	0.0132564
940.068	0.0131448
940.146	0.0132166
940.224	0.0131490
940.302	0.0131485
940.380	0.0132838
940.458	0.0132217
940.536	0.0132358
940.614	0.0133192
940.693	0.0132055
940.771	0.0132635
940.849	0.0132557
940.927	0.0133241
941.005	0.0133118
941.083	0.0134043
941.161	0.0133868
941.239	0.0132970
941.318	0.0133676
941.396	0.0132949
941.474	0.0134036
941.552	0.0134860
941.630	0.0135167
941.708	0.0134884
941.786	0.0134663
941.864	0.0134258
941.943	0.0135207
942.021	0.0133482
942.099	0.0133228
942.177	0.0133569
942.255	0.0135175
942.333	0.0135283
942.411	0.0133562
942.489	0.0132355
942.568	0.0133575
942.646	0.0132372
942.724	0.0132663
942.802	0.0133137
942.880	0.0134673
942.958	0.0133664
943.036	0.0133549
943.114	0.0132522
943.193	0.0132283
943.271	0.0132281
943.349	0.0133354
943.427	0.0131758
943.505	0.0131254
943.583	0.0132498
943.661	0.0132329
943.739	0.0131827
943.818	0.0132854
943.896	0.0132496
943.974	0.0132920
944.052	0.0132894
944.130	0.0132281
944.208	0.0131441
944.286	0.0133822
944.364	0.0131503
944.443	0.0131940
944.521	0.0133474
944.599	0.0132705
944.677	0.0132537
944.755	0.0131205
944.833	0.0132178
944.911	0.0133212
944.989	0.0133622
945.068	0.0132045
945.146	0.0132988
945.224	0.0132719
945.302	0.0132973
945.380	0.0131856
945.458	0.0133540
945.536	0.0132661
945.614	0.0132820
945.693	0.0132649
945.771	0.0132842
945.849	0.0134772
945.927	0.0132583
946.005	0.0132191
946.083	0.0132695
946.161	0.0132499
946.239	0.0133983
946.318	0.0131404
946.396	0.0132475
946.474	0.0133561
946.552	0.0132514
946.630	0.0131767
946.708	0.0132824
946.786	0.0133334
946.864	0.0133603
946.943	0.0131497
947.021	0.0131621
947.099	0.0131747
947.177	0.0132985
947.255	0.0132124
947.333	0.0132935
947.411	0.0132340
947.489	0.0132224
947.568	0.0133492
947.646	0.0132490
947.724	0.0132482
947.802	0.0131271
947.880	0.0132695
947.958	0.0133067
948.036	0.0133095
948.114	0.0132128
948.193	0.0131708
948.271	0.0133238
948.349	0.0132118
948.427	0.0133073
948.505	0.0133323
948.583	0.0133282
948.661	0.0134007
948.739	0.0133913
948.818	0.0134218
948.896	0.0134605
948.974	0.0134261
949.052	0.0134680
949.130	0.0133162
949.208	0.0134261
949.286	0.0135203
949.364	0.0134686
949.443	0.0133854
949.521	0.0134078
949.599	0.0133955
949.677	0.0134854
949.755	0.0134164
949.833	0.0134319
949.911	0.0133311
949.989	0.0133226
950.068	0.0133398
950.146	0.0133376
950.224	0.0134143
950.302	0.0133488
950.380	0.0132722
950.458	0.0133491
950.536	0.0133144
950.614	0.0133732
950.693	0.0133186
950.771	0.0132630
950.849	0.0132629
950.927	0.0133366
951.005	0.0132304
951.083	0.0133694
951.161	0.0132313
951.239	0.0132043
951.318	0.0131881
951.396	0.0132442
951.474	0.0133260
951.552	0.0131771
951.630	0.0131645
951.708	0.0131018
951.786	0.0133022
951.864	0.0132912
951.943	0.0132647
952.021	0.0132812
952.099	0.0131435
952.177	0.0130816
952.255	0.0131568
952.333	0.0133575
952.411	0.0130962
952.489	0.0132516
952.568	0.0133755
952.646	0.0133592
952.724	0.0133126
952.802	0.0132154
952.880	0.0131422
952.958	0.0133212
953.036	0.0134029
953.114	0.0132880
953.193	0.0132696
953.271	0.0132414
953.349	0.0133670
953.427	0.0134962
953.505	0.0132195
953.583	0.0132810
953.661	0.0134921
953.739	0.0134016
953.818	0.0133803
953.896	0.0133496
953.974	0.0133350
954.052	0.0133321
954.130	0.0134064
954.208	0.0133073
954.286	0.0134057
954.364	0.0134202
954.443	0.0133984
954.521	0.0132511
954.599	0.0135280
954.677	0.0134885
954.755	0.0134328
954.833	0.0134212
954.911	0.0133491
954.989	0.0134070
955.068	0.0133735
955.146	0.0133854
955.224	0.0134522
955.302	0.0135470
955.380	0.0135413
955.458	0.0134145
955.536	0.0133915
955.614	0.0134355
955.693	0.0134364
955.771	0.0133756
955.849	0.0134675
955.927	0.0135041
956.005	0.0133395
956.083	0.0133815
956.161	0.0134616
956.239	0.0134274
956.318	0.0134093
956.396	0.0134232
956.474	0.0134293
956.552	0.0133581
956.630	0.0133192
956.708	0.0132994
956.786	0.0132787
956.864	0.0133718
956.943	0.0132389
957.021	0.0135141
957.099	0.0133385
957.177	0.0133063
957.255	0.0133181
957.333	0.0134428
957.411	0.0134328
957.489	0.0133752
957.568	0.0133513
957.646	0.0134465
957.724	0.0134144
957.802	0.0134554
957.880	0.0132895
957.958	0.0133504
958.036	0.0133205
958.114	0.0132621
958.193	0.0132831
958.271	0.0133337
958.349	0.0134227
958.427	0.0134187
958.505	0.0134727
958.583	0.0133292
958.661	0.0133124
958.739	0.0135664
958.818	0.0133141
958.896	0.0132629
958.974	0.0133993
959.052	0.0132342
959.130	0.0132941
959.208	0.0133098
959.286	0.0133456
959.364	0.0132961
959.443	0.0132687
959.521	0.0131953
959.599	0.0132714
959.677	0.0133290
959.755	0.0134003
959.833	0.0133300
959.911	0.0134576
