05/07/2022	17:51:19	Ver.	4.1	UNKNOWN
Optical Delay	639.989416	Delta X		0.078125	Sweeps	1	Scan Rate	0/0
Coordinates	Axis 1	NaN	Axis 2	NaN	Axis 3	NaN	Axis 4	NaN	Axis 5	NaN	Axis 6	0.000000
TX Power	0.000000	RX Power	0.000000

639.989	0.0134261
640.068	0.0135756
640.146	0.0134254
640.224	0.0133340
640.302	0.0133162
640.380	0.0134377
640.458	0.0134014
640.536	0.0130923
640.614	0.0132447
640.693	0.0131983
640.771	0.0132193
640.849	0.0131906
640.927	0.0132867
641.005	0.0132966
641.083	0.0132295
641.161	0.0132431
641.239	0.0132143
641.318	0.0133645
641.396	0.0134669
641.474	0.0134936
641.552	0.0134156
641.630	0.0134866
641.708	0.0135390
641.786	0.0132732
641.864	0.0135770
641.943	0.0135648
642.021	0.0134655
642.099	0.0135217
642.177	0.0135211
642.255	0.0135600
642.333	0.0133632
642.411	0.0133438
642.489	0.0133202
642.568	0.0133366
642.646	0.0132627
642.724	0.0133686
642.802	0.0131270
642.880	0.0130531
642.958	0.0132515
643.036	0.0132317
643.114	0.0132506
643.193	0.0131329
643.271	0.0131393
643.349	0.0131899
643.427	0.0132706
643.505	0.0132760
643.583	0.0134156
643.661	0.0132799
643.739	0.0132025
643.818	0.0133014
643.896	0.0132892
643.974	0.0135400
644.052	0.0134805
644.130	0.0133195
644.208	0.0134608
644.286	0.0134119
644.364	0.0134782
644.443	0.0133453
644.521	0.0134727
644.599	0.0133449
644.677	0.0134311
644.755	0.0133861
644.833	0.0134132
644.911	0.0133895
644.989	0.0134172
645.068	0.0135161
645.146	0.0134013
645.224	0.0134805
645.302	0.0135289
645.380	0.0133316
645.458	0.0133533
645.536	0.0135560
645.614	0.0134505
645.693	0.0133875
645.771	0.0134620
645.849	0.0134879
645.927	0.0134880
646.005	0.0132877
646.083	0.0134143
646.161	0.0132668
646.239	0.0132323
646.318	0.0133246
646.396	0.0134375
646.474	0.0132818
646.552	0.0133260
646.630	0.0133162
646.708	0.0134039
646.786	0.0132349
646.864	0.0134099
646.943	0.0134383
647.021	0.0134504
647.099	0.0134264
647.177	0.0135701
647.255	0.0135927
647.333	0.0136485
647.411	0.0136398
647.489	0.0137003
647.568	0.0138557
647.646	0.0138676
647.724	0.0139210
647.802	0.0138280
647.880	0.0138068
647.958	0.0138473
648.036	0.0138931
648.114	0.0137500
648.193	0.0137436
648.271	0.0138435
648.349	0.0137757
648.427	0.0137552
648.505	0.0136979
648.583	0.0136211
648.661	0.0135342
648.739	0.0137425
648.818	0.0134912
648.896	0.0133862
648.974	0.0136334
649.052	0.0136193
649.130	0.0135828
649.208	0.0135503
649.286	0.0135262
649.364	0.0134119
649.443	0.0136974
649.521	0.0136695
649.599	0.0134982
649.677	0.0137293
649.755	0.0137188
649.833	0.0136559
649.911	0.0137097
649.989	0.0137781
650.068	0.0137036
650.146	0.0137616
650.224	0.0136948
650.302	0.0136006
650.380	0.0135983
650.458	0.0135870
650.536	0.0134540
650.614	0.0134264
650.693	0.0132780
650.771	0.0132342
650.849	0.0131609
650.927	0.0132294
651.005	0.0129568
651.083	0.0130598
651.161	0.0128684
651.239	0.0128867
651.318	0.0130746
651.396	0.0128719
651.474	0.0130111
651.552	0.0130553
651.630	0.0130875
651.708	0.0131431
651.786	0.0131974
651.864	0.0131761
651.943	0.0132439
652.021	0.0133139
652.099	0.0134258
652.177	0.0136122
652.255	0.0137499
652.333	0.0135640
652.411	0.0137646
652.489	0.0137347
652.568	0.0138300
652.646	0.0138670
652.724	0.0139081
652.802	0.0138464
652.880	0.0138416
652.958	0.0138019
653.036	0.0137546
653.114	0.0136922
653.193	0.0135796
653.271	0.0136510
653.349	0.0135337
653.427	0.0135197
653.505	0.0133627
653.583	0.0132581
653.661	0.0133060
653.739	0.0132926
653.818	0.0131766
653.896	0.0130338
653.974	0.0131062
654.052	0.0130637
654.130	0.0129402
654.208	0.0130218
654.286	0.0129439
654.364	0.0127676
654.443	0.0128365
654.521	0.0129777
654.599	0.0129899
654.677	0.0129620
654.755	0.0130776
654.833	0.0130177
654.911	0.0130169
654.989	0.0130392
655.068	0.0130534
655.146	0.0129922
655.224	0.0131306
655.302	0.0130838
655.380	0.0131552
655.458	0.0132184
655.536	0.0131636
655.614	0.0133472
655.693	0.0135372
655.771	0.0135306
655.849	0.0137907
655.927	0.0138489
656.005	0.0139398
656.083	0.0139924
656.161	0.0139819
656.239	0.0141266
656.318	0.0142834
656.396	0.0143365
656.474	0.0143587
656.552	0.0144157
656.630	0.0143891
656.708	0.0143951
656.786	0.0141986
656.864	0.0142559
656.943	0.0142937
657.021	0.0141899
657.099	0.0141425
657.177	0.0140927
657.255	0.0139590
657.333	0.0138435
657.411	0.0138515
657.489	0.0137305
657.568	0.0136437
657.646	0.0135564
657.724	0.0135681
657.802	0.0134462
657.880	0.0132497
657.958	0.0130746
658.036	0.0131182
658.114	0.0129507
658.193	0.0132053
658.271	0.0131216
658.349	0.0130194
658.427	0.0130563
658.505	0.0129264
658.583	0.0129018
658.661	0.0130531
658.739	0.0131101
658.818	0.0129893
658.896	0.0130926
658.974	0.0131007
659.052	0.0131493
659.130	0.0131541
659.208	0.0131744
659.286	0.0131120
659.364	0.0132025
659.443	0.0132948
659.521	0.0133479
659.599	0.0134358
659.677	0.0135899
659.755	0.0134771
659.833	0.0135357
659.911	0.0137704
659.989	0.0137753
660.068	0.0138080
660.146	0.0139405
660.224	0.0139547
660.302	0.0138435
660.380	0.0139649
660.458	0.0139735
660.536	0.0139447
660.614	0.0139313
660.693	0.0140254
660.771	0.0138579
660.849	0.0138375
660.927	0.0139234
661.005	0.0139764
661.083	0.0139304
661.161	0.0138863
661.239	0.0138612
661.318	0.0138797
661.396	0.0139474
661.474	0.0137955
661.552	0.0138978
661.630	0.0138150
661.708	0.0136996
661.786	0.0136948
661.864	0.0136520
661.943	0.0136027
662.021	0.0135359
662.099	0.0135692
662.177	0.0134763
662.255	0.0134525
662.333	0.0132932
662.411	0.0131804
662.489	0.0131985
662.568	0.0132520
662.646	0.0130225
662.724	0.0131998
662.802	0.0131594
662.880	0.0129562
662.958	0.0129974
663.036	0.0128791
663.114	0.0128228
663.193	0.0128341
663.271	0.0129858
663.349	0.0128645
663.427	0.0127847
663.505	0.0128773
663.583	0.0129543
663.661	0.0129919
663.739	0.0128124
663.818	0.0128861
663.896	0.0128098
663.974	0.0128888
664.052	0.0129855
664.130	0.0131003
664.208	0.0131122
664.286	0.0131248
664.364	0.0130981
664.443	0.0130929
664.521	0.0131626
664.599	0.0131960
664.677	0.0132675
664.755	0.0133092
664.833	0.0133282
664.911	0.0132975
664.989	0.0135486
665.068	0.0136194
665.146	0.0137474
665.224	0.0137218
665.302	0.0136395
665.380	0.0138244
665.458	0.0138628
665.536	0.0140652
665.614	0.0141844
665.693	0.0143985
665.771	0.0143669
665.849	0.0143577
665.927	0.0146297
666.005	0.0144522
666.083	0.0145439
666.161	0.0145844
666.239	0.0145469
666.318	0.0145678
666.396	0.0145621
666.474	0.0144392
666.552	0.0144590
666.630	0.0143475
666.708	0.0141312
666.786	0.0141296
666.864	0.0140726
666.943	0.0138843
667.021	0.0136857
667.099	0.0134755
667.177	0.0136473
667.255	0.0133797
667.333	0.0131222
667.411	0.0130482
667.489	0.0130276
667.568	0.0126901
667.646	0.0124279
667.724	0.0123169
667.802	0.0121818
667.880	0.0120282
667.958	0.0118610
668.036	0.0119958
668.114	0.0118699
668.193	0.0118625
668.271	0.0118893
668.349	0.0119455
668.427	0.0120750
668.505	0.0120906
668.583	0.0122011
668.661	0.0124426
668.739	0.0126221
668.818	0.0127082
668.896	0.0128354
668.974	0.0131047
669.052	0.0132599
669.130	0.0134434
669.208	0.0136496
669.286	0.0140019
669.364	0.0139593
669.443	0.0140453
669.521	0.0141602
669.599	0.0142580
669.677	0.0145200
669.755	0.0145705
669.833	0.0145249
669.911	0.0145995
669.989	0.0147485
670.068	0.0145415
670.146	0.0146432
670.224	0.0146509
670.302	0.0145125
670.380	0.0146242
670.458	0.0144347
670.536	0.0146367
670.614	0.0143713
670.693	0.0143355
670.771	0.0142910
670.849	0.0142083
670.927	0.0140574
671.005	0.0140253
671.083	0.0139326
671.161	0.0137978
671.239	0.0136024
671.318	0.0134901
671.396	0.0134901
671.474	0.0134920
671.552	0.0135708
671.630	0.0133616
671.708	0.0131966
671.786	0.0130845
671.864	0.0129430
671.943	0.0128595
672.021	0.0129421
672.099	0.0128670
672.177	0.0127107
672.255	0.0126389
672.333	0.0125095
672.411	0.0123422
672.489	0.0121622
672.568	0.0122009
672.646	0.0121155
672.724	0.0119725
672.802	0.0121827
672.880	0.0120317
672.958	0.0120363
673.036	0.0121541
673.114	0.0122426
673.193	0.0122433
673.271	0.0123100
673.349	0.0127238
673.427	0.0126768
673.505	0.0128804
673.583	0.0131059
673.661	0.0132021
673.739	0.0134579
673.818	0.0136736
673.896	0.0139305
673.974	0.0140845
674.052	0.0142554
674.130	0.0145769
674.208	0.0147689
674.286	0.0148492
674.364	0.0150263
674.443	0.0151428
674.521	0.0151642
674.599	0.0152646
674.677	0.0154008
674.755	0.0156198
674.833	0.0153298
674.911	0.0151891
674.989	0.0150799
675.068	0.0150533
675.146	0.0149795
675.224	0.0149776
675.302	0.0146204
675.380	0.0145209
675.458	0.0143639
675.536	0.0141753
675.614	0.0140240
675.693	0.0139625
675.771	0.0137962
675.849	0.0137132
675.927	0.0136385
676.005	0.0134238
676.083	0.0132433
676.161	0.0133414
676.239	0.0132953
676.318	0.0132673
676.396	0.0132767
676.474	0.0132661
676.552	0.0132840
676.630	0.0133775
676.708	0.0133636
676.786	0.0133767
676.864	0.0134963
676.943	0.0135863
677.021	0.0136953
677.099	0.0136961
677.177	0.0137885
677.255	0.0137786
677.333	0.0138735
677.411	0.0140147
677.489	0.0138830
677.568	0.0139256
677.646	0.0138153
677.724	0.0138133
677.802	0.0138786
677.880	0.0137605
677.958	0.0136491
678.036	0.0135333
678.114	0.0134454
678.193	0.0133843
678.271	0.0132253
678.349	0.0132630
678.427	0.0132359
678.505	0.0129786
678.583	0.0130219
678.661	0.0130185
678.739	0.0130161
678.818	0.0129456
678.896	0.0129144
678.974	0.0129129
679.052	0.0131016
679.130	0.0130050
679.208	0.0130162
679.286	0.0131506
679.364	0.0131751
679.443	0.0132629
679.521	0.0133457
679.599	0.0134815
679.677	0.0134158
679.755	0.0135629
679.833	0.0135442
679.911	0.0137176
679.989	0.0137060
680.068	0.0136423
680.146	0.0137170
680.224	0.0138205
680.302	0.0136198
680.380	0.0138222
680.458	0.0137669
680.536	0.0136975
680.614	0.0137254
680.693	0.0137412
680.771	0.0135777
680.849	0.0136229
680.927	0.0135487
681.005	0.0134433
681.083	0.0132875
681.161	0.0131735
681.239	0.0132031
681.318	0.0129832
681.396	0.0130308
681.474	0.0129121
681.552	0.0129004
681.630	0.0127785
681.708	0.0128446
681.786	0.0128429
681.864	0.0127223
681.943	0.0128694
682.021	0.0130180
682.099	0.0128797
682.177	0.0128638
682.255	0.0130135
682.333	0.0131905
682.411	0.0130490
682.489	0.0132410
682.568	0.0132664
682.646	0.0133717
682.724	0.0133884
682.802	0.0134427
682.880	0.0133143
682.958	0.0134147
683.036	0.0135566
683.114	0.0134686
683.193	0.0135818
683.271	0.0137367
683.349	0.0135657
683.427	0.0137395
683.505	0.0138577
683.583	0.0138985
683.661	0.0138525
683.739	0.0140211
683.818	0.0140759
683.896	0.0141171
683.974	0.0139851
684.052	0.0139918
684.130	0.0140685
684.208	0.0140922
684.286	0.0141216
684.364	0.0138825
684.443	0.0139584
684.521	0.0140323
684.599	0.0141446
684.677	0.0140662
684.755	0.0139886
684.833	0.0140208
684.911	0.0139619
684.989	0.0138038
685.068	0.0139524
685.146	0.0140457
685.224	0.0139669
685.302	0.0138562
685.380	0.0137744
685.458	0.0137827
685.536	0.0136820
685.614	0.0137424
685.693	0.0136133
685.771	0.0136623
685.849	0.0136731
685.927	0.0134436
686.005	0.0136140
686.083	0.0135783
686.161	0.0134442
686.239	0.0137299
686.318	0.0135907
686.396	0.0136565
686.474	0.0136632
686.552	0.0136775
686.630	0.0139858
686.708	0.0139540
686.786	0.0139266
686.864	0.0140492
686.943	0.0141666
687.021	0.0141143
687.099	0.0142165
687.177	0.0142974
687.255	0.0143228
687.333	0.0145170
687.411	0.0144444
687.489	0.0144122
687.568	0.0144976
687.646	0.0144218
687.724	0.0144634
687.802	0.0143165
687.880	0.0142970
687.958	0.0142130
688.036	0.0140496
688.114	0.0139911
688.193	0.0139254
688.271	0.0138596
688.349	0.0137505
688.427	0.0135983
688.505	0.0134936
688.583	0.0132053
688.661	0.0133723
688.739	0.0131213
688.818	0.0131160
688.896	0.0130325
688.974	0.0130390
689.052	0.0129289
689.130	0.0129159
689.208	0.0130571
689.286	0.0131035
689.364	0.0129268
689.443	0.0129525
689.521	0.0129693
689.599	0.0132674
689.677	0.0131792
689.755	0.0132188
689.833	0.0132288
689.911	0.0132398
689.989	0.0132419
690.068	0.0132348
690.146	0.0132417
690.224	0.0132912
690.302	0.0132304
690.380	0.0132721
690.458	0.0134065
690.536	0.0132919
690.614	0.0133592
690.693	0.0133801
690.771	0.0134699
690.849	0.0134425
690.927	0.0135891
691.005	0.0136648
691.083	0.0136493
691.161	0.0136944
691.239	0.0137786
691.318	0.0136562
691.396	0.0137888
691.474	0.0136360
691.552	0.0136782
691.630	0.0137959
691.708	0.0137859
691.786	0.0137746
691.864	0.0138309
691.943	0.0138139
692.021	0.0137784
692.099	0.0137250
692.177	0.0137057
692.255	0.0136392
692.333	0.0136965
692.411	0.0137697
692.489	0.0134976
692.568	0.0135657
692.646	0.0134070
692.724	0.0133454
692.802	0.0134719
692.880	0.0134353
692.958	0.0133915
693.036	0.0131327
693.114	0.0131808
693.193	0.0131889
693.271	0.0130971
693.349	0.0130797
693.427	0.0130026
693.505	0.0131896
693.583	0.0131387
693.661	0.0132066
693.739	0.0132503
693.818	0.0132301
693.896	0.0132455
693.974	0.0134753
694.052	0.0135600
694.130	0.0135851
694.208	0.0137463
694.286	0.0137569
694.364	0.0138242
694.443	0.0139281
694.521	0.0140678
694.599	0.0139349
694.677	0.0140822
694.755	0.0140716
694.833	0.0142661
694.911	0.0141213
694.989	0.0140181
695.068	0.0140363
695.146	0.0140293
695.224	0.0140121
695.302	0.0140589
695.380	0.0139760
695.458	0.0139069
695.536	0.0139012
695.614	0.0137629
695.693	0.0137325
695.771	0.0138054
695.849	0.0137314
695.927	0.0134384
696.005	0.0133385
696.083	0.0133378
696.161	0.0133923
696.239	0.0133051
696.318	0.0133316
696.396	0.0132368
696.474	0.0131897
696.552	0.0132574
696.630	0.0131361
696.708	0.0131085
696.786	0.0130754
696.864	0.0131509
696.943	0.0132242
697.021	0.0129684
697.099	0.0129365
697.177	0.0130104
697.255	0.0129385
697.333	0.0129535
697.411	0.0131372
697.489	0.0131049
697.568	0.0130479
697.646	0.0131947
697.724	0.0131358
697.802	0.0131857
697.880	0.0133859
697.958	0.0133521
698.036	0.0134213
698.114	0.0135973
698.193	0.0137269
698.271	0.0135742
698.349	0.0138388
698.427	0.0138633
698.505	0.0140600
698.583	0.0141197
698.661	0.0140690
698.739	0.0140813
698.818	0.0142188
698.896	0.0142524
698.974	0.0144197
699.052	0.0143307
699.130	0.0144858
699.208	0.0142599
699.286	0.0142903
699.364	0.0144452
699.443	0.0143345
699.521	0.0143979
699.599	0.0144721
699.677	0.0141515
699.755	0.0141468
699.833	0.0142109
699.911	0.0142252
699.989	0.0140305
700.068	0.0139552
700.146	0.0138895
700.224	0.0137888
700.302	0.0138910
700.380	0.0137933
700.458	0.0136066
700.536	0.0137651
700.614	0.0137146
700.693	0.0134323
700.771	0.0134543
700.849	0.0134692
700.927	0.0135573
701.005	0.0135534
701.083	0.0134624
701.161	0.0135049
701.239	0.0133645
701.318	0.0134904
701.396	0.0135436
701.474	0.0134247
701.552	0.0134222
701.630	0.0134069
701.708	0.0135524
701.786	0.0135641
701.864	0.0134206
701.943	0.0133807
702.021	0.0134973
702.099	0.0135980
702.177	0.0137314
702.255	0.0135926
702.333	0.0136117
702.411	0.0136847
702.489	0.0136336
702.568	0.0136213
702.646	0.0135554
702.724	0.0137706
702.802	0.0134882
702.880	0.0133627
702.958	0.0134048
703.036	0.0133138
703.114	0.0133890
703.193	0.0131896
703.271	0.0131689
703.349	0.0132535
703.427	0.0132701
703.505	0.0132534
703.583	0.0131535
703.661	0.0132453
703.739	0.0131467
703.818	0.0133423
703.896	0.0134013
703.974	0.0134322
704.052	0.0133825
704.130	0.0137056
704.208	0.0137042
704.286	0.0137535
704.364	0.0137889
704.443	0.0138273
704.521	0.0138021
704.599	0.0137640
704.677	0.0138645
704.755	0.0140598
704.833	0.0140366
704.911	0.0139806
704.989	0.0140163
705.068	0.0140800
705.146	0.0140508
705.224	0.0140952
705.302	0.0141175
705.380	0.0139859
705.458	0.0140508
705.536	0.0139007
705.614	0.0139407
705.693	0.0139957
705.771	0.0139233
705.849	0.0139497
705.927	0.0138808
706.005	0.0138869
706.083	0.0138168
706.161	0.0138203
706.239	0.0138757
706.318	0.0135710
706.396	0.0136339
706.474	0.0136928
706.552	0.0135502
706.630	0.0136115
706.708	0.0134740
706.786	0.0135672
706.864	0.0135834
706.943	0.0134781
707.021	0.0134330
707.099	0.0133482
707.177	0.0133343
707.255	0.0132462
707.333	0.0131210
707.411	0.0131365
707.489	0.0132034
707.568	0.0131883
707.646	0.0131775
707.724	0.0130960
707.802	0.0130183
707.880	0.0130322
707.958	0.0129987
708.036	0.0130240
708.114	0.0130828
708.193	0.0130994
708.271	0.0130663
708.349	0.0130568
708.427	0.0130483
708.505	0.0132117
708.583	0.0133158
708.661	0.0132353
708.739	0.0133204
708.818	0.0134105
708.896	0.0133418
708.974	0.0134297
709.052	0.0135564
709.130	0.0135916
709.208	0.0136305
709.286	0.0135405
709.364	0.0139096
709.443	0.0138181
709.521	0.0138911
709.599	0.0138366
709.677	0.0139946
709.755	0.0140611
709.833	0.0139365
709.911	0.0142161
709.989	0.0141427
710.068	0.0141372
710.146	0.0141542
710.224	0.0140449
710.302	0.0140807
710.380	0.0140469
710.458	0.0141373
710.536	0.0139084
710.614	0.0141078
710.693	0.0141145
710.771	0.0141100
710.849	0.0141869
710.927	0.0140865
711.005	0.0141378
711.083	0.0141920
711.161	0.0142590
711.239	0.0141682
711.318	0.0142448
711.396	0.0142661
711.474	0.0143153
711.552	0.0141412
711.630	0.0141582
711.708	0.0141690
711.786	0.0143783
711.864	0.0142259
711.943	0.0142245
712.021	0.0141000
712.099	0.0140618
712.177	0.0138547
712.255	0.0140144
712.333	0.0138205
712.411	0.0138062
712.489	0.0136188
712.568	0.0136771
712.646	0.0135649
712.724	0.0134602
712.802	0.0133212
712.880	0.0131992
712.958	0.0133421
713.036	0.0131618
713.114	0.0132233
713.193	0.0131264
713.271	0.0130228
713.349	0.0129581
713.427	0.0127992
713.505	0.0127507
713.583	0.0128518
713.661	0.0128815
713.739	0.0129897
713.818	0.0129766
713.896	0.0129771
713.974	0.0130222
714.052	0.0130741
714.130	0.0129744
714.208	0.0129121
714.286	0.0132500
714.364	0.0130328
714.443	0.0130290
714.521	0.0132069
714.599	0.0132038
714.677	0.0132873
714.755	0.0133287
714.833	0.0133903
714.911	0.0133198
714.989	0.0133790
715.068	0.0135523
715.146	0.0136123
715.224	0.0136657
715.302	0.0136430
715.380	0.0137502
715.458	0.0137847
715.536	0.0138094
715.614	0.0138968
715.693	0.0140390
715.771	0.0138945
715.849	0.0139140
715.927	0.0140054
716.005	0.0141138
716.083	0.0138764
716.161	0.0138137
716.239	0.0136922
716.318	0.0138114
716.396	0.0135532
716.474	0.0136314
716.552	0.0135589
716.630	0.0134560
716.708	0.0133529
716.786	0.0133169
716.864	0.0133749
716.943	0.0134913
717.021	0.0134980
717.099	0.0133898
717.177	0.0134497
717.255	0.0134563
717.333	0.0134787
717.411	0.0135881
717.489	0.0136449
717.568	0.0135338
717.646	0.0136214
717.724	0.0136789
717.802	0.0135894
717.880	0.0136091
717.958	0.0135700
718.036	0.0134536
718.114	0.0135011
718.193	0.0135343
718.271	0.0134118
718.349	0.0132838
718.427	0.0133614
718.505	0.0133704
718.583	0.0133381
718.661	0.0131622
718.739	0.0133845
718.818	0.0133031
718.896	0.0132513
718.974	0.0133245
719.052	0.0133103
719.130	0.0132033
719.208	0.0131832
719.286	0.0132984
719.364	0.0131863
719.443	0.0132146
719.521	0.0131166
719.599	0.0130693
719.677	0.0130576
719.755	0.0131298
719.833	0.0130512
719.911	0.0131059
719.989	0.0130503
720.068	0.0129876
720.146	0.0130605
720.224	0.0130245
720.302	0.0132133
720.380	0.0132635
720.458	0.0133115
720.536	0.0133344
720.614	0.0132748
720.693	0.0134142
720.771	0.0134782
720.849	0.0134003
720.927	0.0136173
721.005	0.0136536
721.083	0.0136459
721.161	0.0137373
721.239	0.0138519
721.318	0.0137606
721.396	0.0137666
721.474	0.0137426
721.552	0.0138240
721.630	0.0137706
721.708	0.0137704
721.786	0.0138389
721.864	0.0137675
721.943	0.0138297
722.021	0.0137794
722.099	0.0137507
722.177	0.0136595
722.255	0.0136778
722.333	0.0137495
722.411	0.0135371
722.489	0.0135283
722.568	0.0136446
722.646	0.0135480
722.724	0.0135783
722.802	0.0134923
722.880	0.0135387
722.958	0.0136378
723.036	0.0135828
723.114	0.0136997
723.193	0.0135109
723.271	0.0136449
723.349	0.0136306
723.427	0.0136044
723.505	0.0135690
723.583	0.0135779
723.661	0.0134821
723.739	0.0135517
723.818	0.0134950
723.896	0.0134998
723.974	0.0137064
724.052	0.0136521
724.130	0.0135894
724.208	0.0134632
724.286	0.0136494
724.364	0.0136826
724.443	0.0136917
724.521	0.0137856
724.599	0.0138321
724.677	0.0138290
724.755	0.0138397
724.833	0.0137753
724.911	0.0139438
724.989	0.0138067
725.068	0.0138258
725.146	0.0137606
725.224	0.0136168
725.302	0.0136749
725.380	0.0135920
725.458	0.0135714
725.536	0.0135069
725.614	0.0135100
725.693	0.0134843
725.771	0.0134315
725.849	0.0134726
725.927	0.0134306
726.005	0.0134000
726.083	0.0133595
726.161	0.0136030
726.239	0.0134813
726.318	0.0135667
726.396	0.0134907
726.474	0.0135558
726.552	0.0136458
726.630	0.0136179
726.708	0.0135825
726.786	0.0134898
726.864	0.0136345
726.943	0.0135911
727.021	0.0135130
727.099	0.0135528
727.177	0.0134899
727.255	0.0135595
727.333	0.0134571
727.411	0.0134847
727.489	0.0134810
727.568	0.0135397
727.646	0.0135037
727.724	0.0134916
727.802	0.0136025
727.880	0.0135432
727.958	0.0134927
728.036	0.0136224
728.114	0.0136462
728.193	0.0135209
728.271	0.0136460
728.349	0.0135593
728.427	0.0135149
728.505	0.0135679
728.583	0.0135899
728.661	0.0136440
728.739	0.0134328
728.818	0.0135735
728.896	0.0134833
728.974	0.0135320
729.052	0.0134422
729.130	0.0133802
729.208	0.0134324
729.286	0.0134876
729.364	0.0134781
729.443	0.0133878
729.521	0.0134344
729.599	0.0135487
729.677	0.0135442
729.755	0.0134440
729.833	0.0133974
729.911	0.0133539
729.989	0.0133730
730.068	0.0134279
730.146	0.0135837
730.224	0.0135545
730.302	0.0135012
730.380	0.0133146
730.458	0.0134733
730.536	0.0135897
730.614	0.0135760
730.693	0.0135018
730.771	0.0136641
730.849	0.0134747
730.927	0.0137361
731.005	0.0136938
731.083	0.0136451
731.161	0.0137048
731.239	0.0137971
731.318	0.0136636
731.396	0.0136953
731.474	0.0137514
731.552	0.0137943
731.630	0.0137626
731.708	0.0135680
731.786	0.0135302
731.864	0.0136676
731.943	0.0135218
732.021	0.0134180
732.099	0.0135002
732.177	0.0134567
732.255	0.0134848
732.333	0.0136375
732.411	0.0136503
732.489	0.0137026
732.568	0.0136929
732.646	0.0138313
732.724	0.0137225
732.802	0.0138179
732.880	0.0138480
732.958	0.0138959
733.036	0.0138968
733.114	0.0137265
733.193	0.0138779
733.271	0.0137949
733.349	0.0138625
733.427	0.0137449
733.505	0.0137734
733.583	0.0138675
733.661	0.0137288
733.739	0.0137755
733.818	0.0136809
733.896	0.0137920
733.974	0.0137611
734.052	0.0135847
734.130	0.0138103
734.208	0.0137620
734.286	0.0135697
734.364	0.0136993
734.443	0.0137239
734.521	0.0135355
734.599	0.0136644
734.677	0.0135434
734.755	0.0135292
734.833	0.0136761
734.911	0.0136530
734.989	0.0136694
735.068	0.0135435
735.146	0.0135670
735.224	0.0135970
735.302	0.0137558
735.380	0.0137097
735.458	0.0135491
735.536	0.0135639
735.614	0.0134427
735.693	0.0135542
735.771	0.0136848
735.849	0.0136570
735.927	0.0136185
736.005	0.0135418
736.083	0.0137437
736.161	0.0136359
736.239	0.0137192
736.318	0.0136517
736.396	0.0135409
736.474	0.0137299
736.552	0.0135458
736.630	0.0135426
736.708	0.0137142
736.786	0.0136504
736.864	0.0135069
736.943	0.0135251
737.021	0.0134580
737.099	0.0133829
737.177	0.0133968
737.255	0.0133425
737.333	0.0134715
737.411	0.0133443
737.489	0.0132782
737.568	0.0131373
737.646	0.0131420
737.724	0.0132456
737.802	0.0132069
737.880	0.0131264
737.958	0.0130828
738.036	0.0129897
738.114	0.0130696
738.193	0.0129229
738.271	0.0130106
738.349	0.0128808
738.427	0.0127985
738.505	0.0129929
738.583	0.0129900
738.661	0.0129403
738.739	0.0128326
738.818	0.0128569
738.896	0.0127643
738.974	0.0128198
739.052	0.0128090
739.130	0.0127661
739.208	0.0128798
739.286	0.0128688
739.364	0.0126617
739.443	0.0126473
739.521	0.0127485
739.599	0.0126967
739.677	0.0126012
739.755	0.0126975
739.833	0.0127299
739.911	0.0127540
739.989	0.0129162
740.068	0.0128492
740.146	0.0128699
740.224	0.0129858
740.302	0.0131270
740.380	0.0129480
740.458	0.0131232
740.536	0.0131007
740.614	0.0133466
740.693	0.0132484
740.771	0.0132934
740.849	0.0132845
740.927	0.0133836
741.005	0.0134068
741.083	0.0133436
741.161	0.0133785
741.239	0.0133145
741.318	0.0134368
741.396	0.0133598
741.474	0.0134007
741.552	0.0134333
741.630	0.0135265
741.708	0.0134378
741.786	0.0135280
741.864	0.0135170
741.943	0.0135816
742.021	0.0136566
742.099	0.0135507
742.177	0.0137399
742.255	0.0137159
742.333	0.0137927
742.411	0.0139333
742.489	0.0138423
742.568	0.0136854
742.646	0.0139229
742.724	0.0139156
742.802	0.0138015
742.880	0.0139622
742.958	0.0138622
743.036	0.0138861
743.114	0.0139452
743.193	0.0138890
743.271	0.0139487
743.349	0.0139529
743.427	0.0139104
743.505	0.0139483
743.583	0.0138870
743.661	0.0138000
743.739	0.0137683
743.818	0.0137521
743.896	0.0136854
743.974	0.0136292
744.052	0.0137287
744.130	0.0137189
744.208	0.0136482
744.286	0.0136594
744.364	0.0134949
744.443	0.0134084
744.521	0.0134821
744.599	0.0137742
744.677	0.0136308
744.755	0.0136007
744.833	0.0137302
744.911	0.0137673
744.989	0.0137534
745.068	0.0137834
745.146	0.0137981
745.224	0.0138432
745.302	0.0137300
745.380	0.0137009
745.458	0.0136192
745.536	0.0137679
745.614	0.0136575
745.693	0.0135170
745.771	0.0133904
745.849	0.0131998
745.927	0.0131284
746.005	0.0130959
746.083	0.0131553
746.161	0.0130653
746.239	0.0131075
746.318	0.0130390
746.396	0.0130880
746.474	0.0131272
746.552	0.0129690
746.630	0.0130509
746.708	0.0131134
746.786	0.0130332
746.864	0.0129742
746.943	0.0129887
747.021	0.0129070
747.099	0.0129443
747.177	0.0127806
747.255	0.0126391
747.333	0.0126639
747.411	0.0127388
747.489	0.0126985
747.568	0.0127412
747.646	0.0129105
747.724	0.0131560
747.802	0.0132948
747.880	0.0133044
747.958	0.0134627
748.036	0.0137611
748.114	0.0138076
748.193	0.0138167
748.271	0.0137916
748.349	0.0137835
748.427	0.0138191
748.505	0.0139178
748.583	0.0138874
748.661	0.0137952
748.739	0.0137012
748.818	0.0136693
748.896	0.0138690
748.974	0.0137000
749.052	0.0136398
749.130	0.0135781
749.208	0.0136130
749.286	0.0136351
749.364	0.0136691
749.443	0.0137193
749.521	0.0137880
749.599	0.0136393
749.677	0.0136065
749.755	0.0134888
749.833	0.0137396
749.911	0.0135995
749.989	0.0136547
750.068	0.0136892
750.146	0.0135815
750.224	0.0136312
750.302	0.0137234
750.380	0.0136751
750.458	0.0136749
750.536	0.0136901
750.614	0.0137777
750.693	0.0137460
750.771	0.0136675
750.849	0.0137802
750.927	0.0136879
751.005	0.0136840
751.083	0.0138486
751.161	0.0138322
751.239	0.0137216
751.318	0.0137262
751.396	0.0136481
751.474	0.0137077
751.552	0.0135735
751.630	0.0135601
751.708	0.0135679
751.786	0.0133965
751.864	0.0135569
751.943	0.0134351
752.021	0.0133037
752.099	0.0132888
752.177	0.0133605
752.255	0.0132990
752.333	0.0132900
752.411	0.0133636
752.489	0.0133176
752.568	0.0133244
752.646	0.0134277
752.724	0.0134083
752.802	0.0133901
752.880	0.0134019
752.958	0.0133474
753.036	0.0135136
753.114	0.0135342
753.193	0.0135721
753.271	0.0134680
753.349	0.0135088
753.427	0.0136226
753.505	0.0135625
753.583	0.0137277
753.661	0.0138023
753.739	0.0138248
753.818	0.0137862
753.896	0.0138831
753.974	0.0139536
754.052	0.0138410
754.130	0.0137896
754.208	0.0137315
754.286	0.0138390
754.364	0.0137968
754.443	0.0138675
754.521	0.0139413
754.599	0.0139138
754.677	0.0137569
754.755	0.0138783
754.833	0.0137746
754.911	0.0137753
754.989	0.0138013
755.068	0.0138414
755.146	0.0136859
755.224	0.0136687
755.302	0.0137171
755.380	0.0137532
755.458	0.0136900
755.536	0.0135287
755.614	0.0137000
755.693	0.0135760
755.771	0.0137353
755.849	0.0135958
755.927	0.0135709
756.005	0.0134745
756.083	0.0136197
756.161	0.0134551
756.239	0.0134007
756.318	0.0135395
756.396	0.0135371
756.474	0.0135219
756.552	0.0135876
756.630	0.0135472
756.708	0.0136308
756.786	0.0135811
756.864	0.0135793
756.943	0.0137350
757.021	0.0137343
757.099	0.0138298
757.177	0.0137061
757.255	0.0137569
757.333	0.0137889
757.411	0.0138290
757.489	0.0136379
757.568	0.0136438
757.646	0.0137567
757.724	0.0138963
757.802	0.0138147
757.880	0.0137195
757.958	0.0138062
758.036	0.0138467
758.114	0.0136702
758.193	0.0137381
758.271	0.0136688
758.349	0.0138219
758.427	0.0139869
758.505	0.0138519
758.583	0.0138447
758.661	0.0138489
758.739	0.0138593
758.818	0.0138655
758.896	0.0137615
758.974	0.0135419
759.052	0.0136063
759.130	0.0135014
759.208	0.0135348
759.286	0.0134331
759.364	0.0133823
759.443	0.0132177
759.521	0.0131480
759.599	0.0130972
759.677	0.0129803
759.755	0.0131070
759.833	0.0128825
759.911	0.0128960
759.989	0.0127615
760.068	0.0128678
760.146	0.0129741
760.224	0.0127034
760.302	0.0127560
760.380	0.0127999
760.458	0.0129034
760.536	0.0130131
760.614	0.0129133
760.693	0.0130289
760.771	0.0130299
760.849	0.0129926
760.927	0.0130898
761.005	0.0130312
761.083	0.0130489
761.161	0.0131753
761.239	0.0131368
761.318	0.0131505
761.396	0.0132874
761.474	0.0132649
761.552	0.0132372
761.630	0.0131639
761.708	0.0133875
761.786	0.0133843
761.864	0.0132755
761.943	0.0132386
762.021	0.0132369
762.099	0.0132291
762.177	0.0132352
762.255	0.0131512
762.333	0.0131288
762.411	0.0130920
762.489	0.0132251
762.568	0.0131562
762.646	0.0131161
762.724	0.0132070
762.802	0.0132467
762.880	0.0132185
762.958	0.0131758
763.036	0.0132394
763.114	0.0134085
763.193	0.0135181
763.271	0.0134595
763.349	0.0135069
763.427	0.0135945
763.505	0.0134010
763.583	0.0134158
763.661	0.0135267
763.739	0.0136801
763.818	0.0134522
763.896	0.0134855
763.974	0.0134790
764.052	0.0134435
764.130	0.0133077
764.208	0.0133701
764.286	0.0133434
764.364	0.0133717
764.443	0.0134185
764.521	0.0134115
764.599	0.0135258
764.677	0.0134102
764.755	0.0135130
764.833	0.0135837
764.911	0.0137366
764.989	0.0135361
765.068	0.0135608
765.146	0.0136158
765.224	0.0134123
765.302	0.0135413
765.380	0.0135971
765.458	0.0133086
765.536	0.0132903
765.614	0.0133273
765.693	0.0131705
765.771	0.0133582
765.849	0.0132806
765.927	0.0133185
766.005	0.0131599
766.083	0.0133539
766.161	0.0131051
766.239	0.0133542
766.318	0.0134718
766.396	0.0134457
766.474	0.0133877
766.552	0.0135315
766.630	0.0134856
766.708	0.0136089
766.786	0.0136038
766.864	0.0137452
766.943	0.0136893
767.021	0.0136408
767.099	0.0135683
767.177	0.0136059
767.255	0.0137811
767.333	0.0138416
767.411	0.0138406
767.489	0.0139619
767.568	0.0139172
767.646	0.0140594
767.724	0.0139333
767.802	0.0139210
767.880	0.0139639
767.958	0.0138816
768.036	0.0138742
768.114	0.0138106
768.193	0.0138551
768.271	0.0136593
768.349	0.0135769
768.427	0.0136724
768.505	0.0135909
768.583	0.0133914
768.661	0.0134106
768.739	0.0133279
768.818	0.0132001
768.896	0.0129141
768.974	0.0130438
769.052	0.0132195
769.130	0.0130309
769.208	0.0130295
769.286	0.0130089
769.364	0.0130740
769.443	0.0129501
769.521	0.0131829
769.599	0.0131928
769.677	0.0131024
769.755	0.0133141
769.833	0.0133388
769.911	0.0133921
769.989	0.0134883
770.068	0.0135207
770.146	0.0135387
770.224	0.0135751
770.302	0.0136512
770.380	0.0136732
770.458	0.0135500
770.536	0.0135822
770.614	0.0135742
770.693	0.0135931
770.771	0.0136005
770.849	0.0134993
770.927	0.0134334
771.005	0.0134479
771.083	0.0135633
771.161	0.0136041
771.239	0.0135809
771.318	0.0135845
771.396	0.0136420
771.474	0.0136020
771.552	0.0135253
771.630	0.0137359
771.708	0.0136861
771.786	0.0137493
771.864	0.0136416
771.943	0.0137327
772.021	0.0138238
772.099	0.0135796
772.177	0.0136400
772.255	0.0137893
772.333	0.0138634
772.411	0.0137524
772.489	0.0137485
772.568	0.0137594
772.646	0.0137376
772.724	0.0137177
772.802	0.0136368
772.880	0.0138784
772.958	0.0137852
773.036	0.0136638
773.114	0.0137323
773.193	0.0136027
773.271	0.0137010
773.349	0.0137840
773.427	0.0138150
773.505	0.0137746
773.583	0.0137781
773.661	0.0136272
773.739	0.0137885
773.818	0.0138101
773.896	0.0138713
773.974	0.0139249
774.052	0.0136774
774.130	0.0138119
774.208	0.0139039
774.286	0.0137453
774.364	0.0137628
774.443	0.0138617
774.521	0.0138496
774.599	0.0139148
774.677	0.0137674
774.755	0.0137818
774.833	0.0137726
774.911	0.0138267
774.989	0.0137134
775.068	0.0136015
775.146	0.0137563
775.224	0.0137765
775.302	0.0137152
775.380	0.0136611
775.458	0.0135920
775.536	0.0137356
775.614	0.0137413
775.693	0.0137900
775.771	0.0137682
775.849	0.0139017
775.927	0.0139644
776.005	0.0138792
776.083	0.0136813
776.161	0.0137495
776.239	0.0137193
776.318	0.0135308
776.396	0.0136732
776.474	0.0133211
776.552	0.0132591
776.630	0.0132580
776.708	0.0132052
776.786	0.0131854
776.864	0.0129628
776.943	0.0130503
777.021	0.0131815
777.099	0.0132400
777.177	0.0132357
777.255	0.0133464
777.333	0.0134478
777.411	0.0133654
777.489	0.0135274
777.568	0.0136121
777.646	0.0134737
777.724	0.0135294
777.802	0.0136655
777.880	0.0136245
777.958	0.0136702
778.036	0.0135586
778.114	0.0136027
778.193	0.0135965
778.271	0.0135802
778.349	0.0134404
778.427	0.0134294
778.505	0.0133965
778.583	0.0134504
778.661	0.0134148
778.739	0.0132752
778.818	0.0131235
778.896	0.0130151
778.974	0.0130330
779.052	0.0130670
779.130	0.0131202
779.208	0.0132200
779.286	0.0131357
779.364	0.0131718
779.443	0.0131190
779.521	0.0132101
779.599	0.0133411
779.677	0.0131876
779.755	0.0133587
779.833	0.0133733
779.911	0.0133395
779.989	0.0134373
780.068	0.0133477
780.146	0.0134801
780.224	0.0134935
780.302	0.0135096
780.380	0.0135183
780.458	0.0134721
780.536	0.0137157
780.614	0.0136214
780.693	0.0136212
780.771	0.0135902
780.849	0.0136755
780.927	0.0136900
781.005	0.0138362
781.083	0.0137122
781.161	0.0138460
781.239	0.0138477
781.318	0.0137565
781.396	0.0139621
781.474	0.0138471
781.552	0.0138113
781.630	0.0138293
781.708	0.0138676
781.786	0.0138584
781.864	0.0139173
781.943	0.0137671
782.021	0.0138068
782.099	0.0138338
782.177	0.0139231
782.255	0.0138474
782.333	0.0136602
782.411	0.0136436
782.489	0.0138524
782.568	0.0137720
782.646	0.0137885
782.724	0.0139185
782.802	0.0138854
782.880	0.0137114
782.958	0.0138116
783.036	0.0138370
783.114	0.0137283
783.193	0.0137064
783.271	0.0135841
783.349	0.0137073
783.427	0.0136879
783.505	0.0138918
783.583	0.0137151
783.661	0.0137324
783.739	0.0136088
783.818	0.0137173
783.896	0.0135785
783.974	0.0136010
784.052	0.0137866
784.130	0.0137173
784.208	0.0137259
784.286	0.0136554
784.364	0.0135445
784.443	0.0135567
784.521	0.0137494
784.599	0.0136368
784.677	0.0136083
784.755	0.0136671
784.833	0.0135647
784.911	0.0136404
784.989	0.0135316
785.068	0.0134840
785.146	0.0135295
785.224	0.0135429
785.302	0.0135933
785.380	0.0134020
785.458	0.0134869
785.536	0.0133123
785.614	0.0133534
785.693	0.0133497
785.771	0.0134400
785.849	0.0134460
785.927	0.0132422
786.005	0.0132860
786.083	0.0133265
786.161	0.0132627
786.239	0.0133910
786.318	0.0132584
786.396	0.0133812
786.474	0.0132703
786.552	0.0133103
786.630	0.0131625
786.708	0.0133408
786.786	0.0133302
786.864	0.0134808
786.943	0.0133396
787.021	0.0132771
787.099	0.0135036
787.177	0.0134261
787.255	0.0133283
787.333	0.0134100
787.411	0.0134945
787.489	0.0136118
787.568	0.0134918
787.646	0.0133974
787.724	0.0135529
787.802	0.0136345
787.880	0.0135546
787.958	0.0136932
788.036	0.0136510
788.114	0.0137481
788.193	0.0138320
788.271	0.0138658
788.349	0.0139172
788.427	0.0137738
788.505	0.0137776
788.583	0.0138137
788.661	0.0137026
788.739	0.0137312
788.818	0.0137202
788.896	0.0137566
788.974	0.0136821
789.052	0.0134821
789.130	0.0135143
789.208	0.0134252
789.286	0.0134368
789.364	0.0133893
789.443	0.0134177
789.521	0.0134521
789.599	0.0134004
789.677	0.0133846
789.755	0.0133511
789.833	0.0134247
789.911	0.0134614
789.989	0.0135387
790.068	0.0134441
790.146	0.0135091
790.224	0.0135397
790.302	0.0136226
790.380	0.0137070
790.458	0.0137901
790.536	0.0136586
790.614	0.0135818
790.693	0.0137787
790.771	0.0137009
790.849	0.0136508
790.927	0.0138062
791.005	0.0136382
791.083	0.0135670
791.161	0.0136502
791.239	0.0135825
791.318	0.0135509
791.396	0.0135638
791.474	0.0136847
791.552	0.0136856
791.630	0.0137282
791.708	0.0138173
791.786	0.0137293
791.864	0.0137691
791.943	0.0138087
792.021	0.0138380
792.099	0.0139378
792.177	0.0137654
792.255	0.0137217
792.333	0.0137820
792.411	0.0136880
792.489	0.0135918
792.568	0.0137286
792.646	0.0136213
792.724	0.0134516
792.802	0.0135645
792.880	0.0135136
792.958	0.0135394
793.036	0.0135445
793.114	0.0135607
793.193	0.0134424
793.271	0.0134673
793.349	0.0135287
793.427	0.0135359
793.505	0.0136114
793.583	0.0136797
793.661	0.0134357
793.739	0.0135062
793.818	0.0135644
793.896	0.0133970
793.974	0.0134907
794.052	0.0134254
794.130	0.0133208
794.208	0.0133070
794.286	0.0133935
794.364	0.0134306
794.443	0.0133067
794.521	0.0133506
794.599	0.0133135
794.677	0.0133184
794.755	0.0133748
794.833	0.0132795
794.911	0.0133640
794.989	0.0134220
795.068	0.0133440
795.146	0.0132625
795.224	0.0134576
795.302	0.0133224
795.380	0.0133038
795.458	0.0134579
795.536	0.0135298
795.614	0.0133630
795.693	0.0135125
795.771	0.0134200
795.849	0.0135155
795.927	0.0135134
796.005	0.0137172
796.083	0.0135765
796.161	0.0137412
796.239	0.0137408
796.318	0.0137041
796.396	0.0136411
796.474	0.0135866
796.552	0.0134469
796.630	0.0136045
796.708	0.0134042
796.786	0.0134182
796.864	0.0134074
796.943	0.0134001
797.021	0.0134945
797.099	0.0134702
797.177	0.0134283
797.255	0.0134602
797.333	0.0134631
797.411	0.0134721
797.489	0.0134946
797.568	0.0134687
797.646	0.0134224
797.724	0.0134590
797.802	0.0135535
797.880	0.0134054
797.958	0.0133488
798.036	0.0132943
798.114	0.0133914
798.193	0.0134704
798.271	0.0134525
798.349	0.0134207
798.427	0.0134834
798.505	0.0134624
798.583	0.0135416
798.661	0.0135255
798.739	0.0135451
798.818	0.0135622
798.896	0.0134542
798.974	0.0135458
799.052	0.0134229
799.130	0.0135935
799.208	0.0135745
799.286	0.0136428
799.364	0.0133217
799.443	0.0134926
799.521	0.0133759
799.599	0.0134296
799.677	0.0132566
799.755	0.0133514
799.833	0.0134615
799.911	0.0132247
799.989	0.0132227
800.068	0.0133161
800.146	0.0132873
800.224	0.0132437
800.302	0.0132719
800.380	0.0133540
800.458	0.0133873
800.536	0.0134973
800.614	0.0135839
800.693	0.0134768
800.771	0.0138162
800.849	0.0136988
800.927	0.0138953
801.005	0.0138627
801.083	0.0140049
801.161	0.0138342
801.239	0.0138998
801.318	0.0140105
801.396	0.0139120
801.474	0.0140022
801.552	0.0137696
801.630	0.0136929
801.708	0.0137887
801.786	0.0138069
801.864	0.0137568
801.943	0.0137174
802.021	0.0137687
802.099	0.0137446
802.177	0.0136772
802.255	0.0138874
802.333	0.0138943
802.411	0.0137941
802.489	0.0136549
802.568	0.0137684
802.646	0.0138986
802.724	0.0138556
802.802	0.0137366
802.880	0.0137958
802.958	0.0138937
803.036	0.0138105
803.114	0.0139145
803.193	0.0139233
803.271	0.0140091
803.349	0.0139407
803.427	0.0139836
803.505	0.0139670
803.583	0.0139822
803.661	0.0140681
803.739	0.0138601
803.818	0.0139462
803.896	0.0141014
803.974	0.0139616
804.052	0.0137416
804.130	0.0138333
804.208	0.0137145
804.286	0.0136864
804.364	0.0136884
804.443	0.0136275
804.521	0.0136638
804.599	0.0135472
804.677	0.0135035
804.755	0.0136185
804.833	0.0135776
804.911	0.0135168
804.989	0.0134235
805.068	0.0136263
805.146	0.0136263
805.224	0.0135814
805.302	0.0135540
805.380	0.0136305
805.458	0.0134898
805.536	0.0135153
805.614	0.0133830
805.693	0.0133824
805.771	0.0135175
805.849	0.0135114
805.927	0.0136378
806.005	0.0135504
806.083	0.0134163
806.161	0.0134346
806.239	0.0133735
806.318	0.0133349
806.396	0.0133760
806.474	0.0135329
806.552	0.0133459
806.630	0.0132628
806.708	0.0132303
806.786	0.0134200
806.864	0.0133662
806.943	0.0134261
807.021	0.0133622
807.099	0.0134830
807.177	0.0135081
807.255	0.0135748
807.333	0.0136875
807.411	0.0135976
807.489	0.0136072
807.568	0.0136710
807.646	0.0137888
807.724	0.0138167
807.802	0.0138181
807.880	0.0138620
807.958	0.0137418
808.036	0.0138289
808.114	0.0138746
808.193	0.0137255
808.271	0.0138632
808.349	0.0138597
808.427	0.0137536
808.505	0.0136615
808.583	0.0135941
808.661	0.0135762
808.739	0.0135572
808.818	0.0134839
808.896	0.0134178
808.974	0.0134666
809.052	0.0133657
809.130	0.0132627
809.208	0.0133753
809.286	0.0134368
809.364	0.0132333
809.443	0.0133898
809.521	0.0132395
809.599	0.0134753
809.677	0.0134309
809.755	0.0133905
809.833	0.0132182
809.911	0.0133186
809.989	0.0134277
810.068	0.0133038
810.146	0.0133945
810.224	0.0132640
810.302	0.0132371
810.380	0.0133768
810.458	0.0133475
810.536	0.0132433
810.614	0.0133167
810.693	0.0132880
810.771	0.0134080
810.849	0.0134621
810.927	0.0134795
811.005	0.0135951
811.083	0.0136445
811.161	0.0135641
811.239	0.0136680
811.318	0.0136778
811.396	0.0137695
811.474	0.0137909
811.552	0.0136575
811.630	0.0136772
811.708	0.0138625
811.786	0.0137728
811.864	0.0138492
811.943	0.0137763
812.021	0.0139039
812.099	0.0138168
812.177	0.0138224
812.255	0.0137714
812.333	0.0138555
812.411	0.0138712
812.489	0.0137223
812.568	0.0137659
812.646	0.0138587
812.724	0.0139405
812.802	0.0137208
812.880	0.0137974
812.958	0.0139301
813.036	0.0138231
813.114	0.0138090
813.193	0.0138268
813.271	0.0137977
813.349	0.0138864
813.427	0.0138693
813.505	0.0138741
813.583	0.0138089
813.661	0.0139236
813.739	0.0138383
813.818	0.0139422
813.896	0.0137835
813.974	0.0140403
814.052	0.0138732
814.130	0.0138327
814.208	0.0137700
814.286	0.0138764
814.364	0.0138766
814.443	0.0139001
814.521	0.0139758
814.599	0.0139012
814.677	0.0137722
814.755	0.0139157
814.833	0.0139164
814.911	0.0138818
814.989	0.0138453
815.068	0.0138673
815.146	0.0137908
815.224	0.0137411
815.302	0.0136623
815.380	0.0135622
815.458	0.0137029
815.536	0.0134466
815.614	0.0133857
815.693	0.0134712
815.771	0.0131646
815.849	0.0132469
815.927	0.0132813
816.005	0.0131521
816.083	0.0131314
816.161	0.0131661
816.239	0.0130387
816.318	0.0131120
816.396	0.0130508
816.474	0.0131591
816.552	0.0130598
816.630	0.0132123
816.708	0.0132627
816.786	0.0131383
816.864	0.0132283
816.943	0.0133728
817.021	0.0132229
817.099	0.0132141
817.177	0.0133312
817.255	0.0134892
817.333	0.0134956
817.411	0.0132771
817.489	0.0134540
817.568	0.0135939
817.646	0.0136012
817.724	0.0135284
817.802	0.0136139
817.880	0.0136629
817.958	0.0136899
818.036	0.0137495
818.114	0.0137145
818.193	0.0136460
818.271	0.0136427
818.349	0.0135767
818.427	0.0135222
818.505	0.0134528
818.583	0.0134880
818.661	0.0133204
818.739	0.0133086
818.818	0.0132747
818.896	0.0131922
818.974	0.0133161
819.052	0.0132653
819.130	0.0131229
819.208	0.0131545
819.286	0.0130505
819.364	0.0130553
819.443	0.0131338
819.521	0.0130319
819.599	0.0129345
819.677	0.0128800
819.755	0.0129126
819.833	0.0129765
819.911	0.0131207
819.989	0.0131886
820.068	0.0133043
820.146	0.0131902
820.224	0.0133281
820.302	0.0131480
820.380	0.0133911
820.458	0.0133968
820.536	0.0134100
820.614	0.0133771
820.693	0.0133658
820.771	0.0134664
820.849	0.0135281
820.927	0.0134352
821.005	0.0135155
821.083	0.0134248
821.161	0.0135292
821.239	0.0135628
821.318	0.0135471
821.396	0.0136927
821.474	0.0136061
821.552	0.0136942
821.630	0.0138396
821.708	0.0137429
821.786	0.0138139
821.864	0.0138797
821.943	0.0138056
822.021	0.0138303
822.099	0.0137966
822.177	0.0137476
822.255	0.0135998
822.333	0.0135725
822.411	0.0135442
822.489	0.0134027
822.568	0.0134600
822.646	0.0135478
822.724	0.0135865
822.802	0.0134658
822.880	0.0134054
822.958	0.0134097
823.036	0.0133971
823.114	0.0133272
823.193	0.0133923
823.271	0.0132719
823.349	0.0132632
823.427	0.0133014
823.505	0.0132776
823.583	0.0132182
823.661	0.0132330
823.739	0.0132230
823.818	0.0132521
823.896	0.0132959
823.974	0.0133019
824.052	0.0132990
824.130	0.0134306
824.208	0.0135474
824.286	0.0135642
824.364	0.0135458
824.443	0.0134779
824.521	0.0137147
824.599	0.0136607
824.677	0.0136495
824.755	0.0136972
824.833	0.0137289
824.911	0.0138169
824.989	0.0136872
825.068	0.0139532
825.146	0.0137287
825.224	0.0138084
825.302	0.0138712
825.380	0.0137690
825.458	0.0138544
825.536	0.0139191
825.614	0.0138306
825.693	0.0137775
825.771	0.0137416
825.849	0.0137641
825.927	0.0137805
826.005	0.0137984
826.083	0.0137337
826.161	0.0136576
826.239	0.0134760
826.318	0.0135463
826.396	0.0134906
826.474	0.0134628
826.552	0.0134290
826.630	0.0134549
826.708	0.0134167
826.786	0.0132923
826.864	0.0133980
826.943	0.0134473
827.021	0.0134603
827.099	0.0134122
827.177	0.0134668
827.255	0.0134388
827.333	0.0134074
827.411	0.0132999
827.489	0.0134212
827.568	0.0133915
827.646	0.0132508
827.724	0.0132178
827.802	0.0131634
827.880	0.0132359
827.958	0.0132381
828.036	0.0133255
828.114	0.0134852
828.193	0.0133173
828.271	0.0135419
828.349	0.0134236
828.427	0.0135478
828.505	0.0135213
828.583	0.0134196
828.661	0.0135395
828.739	0.0135622
828.818	0.0137335
828.896	0.0136343
828.974	0.0136127
829.052	0.0136916
829.130	0.0136989
829.208	0.0137262
829.286	0.0137584
829.364	0.0135154
829.443	0.0135561
829.521	0.0136997
829.599	0.0137209
829.677	0.0136501
829.755	0.0136260
829.833	0.0136861
829.911	0.0136544
829.989	0.0135819
830.068	0.0134601
830.146	0.0135062
830.224	0.0133236
830.302	0.0134709
830.380	0.0135091
830.458	0.0135010
830.536	0.0133401
830.614	0.0134286
830.693	0.0133869
830.771	0.0135406
830.849	0.0134921
830.927	0.0135461
831.005	0.0136294
831.083	0.0136037
831.161	0.0136627
831.239	0.0136075
831.318	0.0136746
831.396	0.0136636
831.474	0.0137582
831.552	0.0137595
831.630	0.0136890
831.708	0.0137682
831.786	0.0137497
831.864	0.0139217
831.943	0.0138422
832.021	0.0139349
832.099	0.0138615
832.177	0.0140058
832.255	0.0142087
832.333	0.0141451
832.411	0.0139669
832.489	0.0141984
832.568	0.0141501
832.646	0.0143430
832.724	0.0144012
832.802	0.0144485
832.880	0.0143199
832.958	0.0143608
833.036	0.0144773
833.114	0.0143983
833.193	0.0145230
833.271	0.0145094
833.349	0.0145240
833.427	0.0145270
833.505	0.0145192
833.583	0.0144973
833.661	0.0144182
833.739	0.0144851
833.818	0.0142700
833.896	0.0141670
833.974	0.0140304
834.052	0.0140215
834.130	0.0138948
834.208	0.0137145
834.286	0.0137678
834.364	0.0137493
834.443	0.0135757
834.521	0.0136301
834.599	0.0134622
834.677	0.0133083
834.755	0.0134407
834.833	0.0132133
834.911	0.0131489
834.989	0.0131342
835.068	0.0131646
835.146	0.0130547
835.224	0.0130921
835.302	0.0133588
835.380	0.0131697
835.458	0.0131582
835.536	0.0131406
835.614	0.0131147
835.693	0.0132601
835.771	0.0132229
835.849	0.0132275
835.927	0.0132710
836.005	0.0131055
836.083	0.0131150
836.161	0.0132230
836.239	0.0132749
836.318	0.0130642
836.396	0.0132960
836.474	0.0132892
836.552	0.0131502
836.630	0.0129847
836.708	0.0132268
836.786	0.0131043
836.864	0.0129719
836.943	0.0131773
837.021	0.0130978
837.099	0.0130022
837.177	0.0132384
837.255	0.0132193
837.333	0.0131930
837.411	0.0131531
837.489	0.0132630
837.568	0.0132196
837.646	0.0132350
837.724	0.0131663
837.802	0.0132193
837.880	0.0132611
837.958	0.0132578
838.036	0.0130914
838.114	0.0130568
838.193	0.0129353
838.271	0.0131284
838.349	0.0130156
838.427	0.0130527
838.505	0.0130183
838.583	0.0130968
838.661	0.0129968
838.739	0.0130501
838.818	0.0129622
838.896	0.0131159
838.974	0.0131964
839.052	0.0131398
839.130	0.0133243
839.208	0.0133463
839.286	0.0133337
839.364	0.0133105
839.443	0.0135157
839.521	0.0134314
839.599	0.0132973
839.677	0.0133370
839.755	0.0135138
839.833	0.0133392
839.911	0.0132888
839.989	0.0134186
840.068	0.0134081
840.146	0.0133173
840.224	0.0132981
840.302	0.0132344
840.380	0.0132767
840.458	0.0133385
840.536	0.0132312
840.614	0.0132219
840.693	0.0131152
840.771	0.0131045
840.849	0.0131980
840.927	0.0129877
841.005	0.0130640
841.083	0.0130785
841.161	0.0131329
841.239	0.0132291
841.318	0.0132295
841.396	0.0133396
841.474	0.0133691
841.552	0.0135926
841.630	0.0136485
841.708	0.0137036
841.786	0.0137856
841.864	0.0137720
841.943	0.0139198
842.021	0.0138566
842.099	0.0137926
842.177	0.0137961
842.255	0.0137292
842.333	0.0137840
842.411	0.0138792
842.489	0.0137690
842.568	0.0137854
842.646	0.0137287
842.724	0.0135892
842.802	0.0137250
842.880	0.0136814
842.958	0.0136199
843.036	0.0137019
843.114	0.0135820
843.193	0.0136047
843.271	0.0138650
843.349	0.0139026
843.427	0.0137181
843.505	0.0137498
843.583	0.0137965
843.661	0.0137378
843.739	0.0136287
843.818	0.0136201
843.896	0.0137673
843.974	0.0137908
844.052	0.0136576
844.130	0.0135992
844.208	0.0137007
844.286	0.0136919
844.364	0.0136571
844.443	0.0135793
844.521	0.0135593
844.599	0.0136510
844.677	0.0135162
844.755	0.0135904
844.833	0.0137050
844.911	0.0135180
844.989	0.0135816
845.068	0.0135400
845.146	0.0136341
845.224	0.0136366
845.302	0.0136579
845.380	0.0136182
845.458	0.0136512
845.536	0.0136258
845.614	0.0137698
845.693	0.0136723
845.771	0.0137569
845.849	0.0137786
845.927	0.0139874
846.005	0.0139050
846.083	0.0139132
846.161	0.0138802
846.239	0.0139007
846.318	0.0139531
846.396	0.0139149
846.474	0.0139797
846.552	0.0139309
846.630	0.0137171
846.708	0.0137054
846.786	0.0136163
846.864	0.0135024
846.943	0.0135470
847.021	0.0135201
847.099	0.0134659
847.177	0.0134351
847.255	0.0133047
847.333	0.0133128
847.411	0.0132423
847.489	0.0130782
847.568	0.0133142
847.646	0.0133139
847.724	0.0132677
847.802	0.0132861
847.880	0.0133778
847.958	0.0133021
848.036	0.0133298
848.114	0.0132839
848.193	0.0133461
848.271	0.0133221
848.349	0.0132458
848.427	0.0132749
848.505	0.0131573
848.583	0.0131669
848.661	0.0130545
848.739	0.0131900
848.818	0.0131408
848.896	0.0131704
848.974	0.0130374
849.052	0.0130569
849.130	0.0131790
849.208	0.0130663
849.286	0.0130482
849.364	0.0131516
849.443	0.0133077
849.521	0.0131626
849.599	0.0132460
849.677	0.0132504
849.755	0.0133589
849.833	0.0133551
849.911	0.0133112
849.989	0.0134933
850.068	0.0135777
850.146	0.0136754
850.224	0.0135937
850.302	0.0135358
850.380	0.0136553
850.458	0.0136874
850.536	0.0136301
850.614	0.0135730
850.693	0.0135124
850.771	0.0135113
850.849	0.0133516
850.927	0.0135565
851.005	0.0134930
851.083	0.0135100
851.161	0.0134120
851.239	0.0135426
851.318	0.0135635
851.396	0.0136331
851.474	0.0136362
851.552	0.0136937
851.630	0.0136269
851.708	0.0136043
851.786	0.0135890
851.864	0.0135828
851.943	0.0136050
852.021	0.0137150
852.099	0.0136580
852.177	0.0136134
852.255	0.0135219
852.333	0.0136732
852.411	0.0134704
852.489	0.0133788
852.568	0.0134566
852.646	0.0135385
852.724	0.0135722
852.802	0.0135741
852.880	0.0137405
852.958	0.0136948
853.036	0.0137344
853.114	0.0137444
853.193	0.0137855
853.271	0.0137513
853.349	0.0138115
853.427	0.0137550
853.505	0.0138013
853.583	0.0138600
853.661	0.0138005
853.739	0.0138480
853.818	0.0138226
853.896	0.0138188
853.974	0.0137867
854.052	0.0137990
854.130	0.0138313
854.208	0.0139301
854.286	0.0137779
854.364	0.0136804
854.443	0.0137852
854.521	0.0137759
854.599	0.0137090
854.677	0.0137775
854.755	0.0138455
854.833	0.0136668
854.911	0.0135846
854.989	0.0138638
855.068	0.0137469
855.146	0.0137394
855.224	0.0136669
855.302	0.0135560
855.380	0.0134588
855.458	0.0136581
855.536	0.0137232
855.614	0.0136871
855.693	0.0136256
855.771	0.0137648
855.849	0.0135659
855.927	0.0137746
856.005	0.0136558
856.083	0.0139142
856.161	0.0138135
856.239	0.0139676
856.318	0.0138580
856.396	0.0139233
856.474	0.0138873
856.552	0.0137117
856.630	0.0136398
856.708	0.0137303
856.786	0.0137746
856.864	0.0136185
856.943	0.0135217
857.021	0.0135519
857.099	0.0133403
857.177	0.0134077
857.255	0.0134785
857.333	0.0134075
857.411	0.0135300
857.489	0.0134908
857.568	0.0135463
857.646	0.0134169
857.724	0.0133936
857.802	0.0134451
857.880	0.0134324
857.958	0.0134216
858.036	0.0134756
858.114	0.0134457
858.193	0.0135284
858.271	0.0135460
858.349	0.0134933
858.427	0.0135143
858.505	0.0136829
858.583	0.0137199
858.661	0.0136221
858.739	0.0135764
858.818	0.0137420
858.896	0.0135934
858.974	0.0136683
859.052	0.0137560
859.130	0.0136332
859.208	0.0137360
859.286	0.0135843
859.364	0.0135516
859.443	0.0136452
859.521	0.0134453
859.599	0.0133895
859.677	0.0134546
859.755	0.0135587
859.833	0.0134044
859.911	0.0134255
859.989	0.0133480
860.068	0.0133216
860.146	0.0133736
860.224	0.0134399
860.302	0.0135271
860.380	0.0133926
860.458	0.0135191
860.536	0.0136153
860.614	0.0135127
860.693	0.0136802
860.771	0.0137391
860.849	0.0136914
860.927	0.0136964
861.005	0.0136669
861.083	0.0137402
861.161	0.0137217
861.239	0.0138032
861.318	0.0138035
861.396	0.0137720
861.474	0.0137700
861.552	0.0137584
861.630	0.0137548
861.708	0.0138071
861.786	0.0138689
861.864	0.0138031
861.943	0.0137434
862.021	0.0137585
862.099	0.0139351
862.177	0.0138038
862.255	0.0139014
862.333	0.0138564
862.411	0.0135773
862.489	0.0135068
862.568	0.0138065
862.646	0.0135458
862.724	0.0135711
862.802	0.0134555
862.880	0.0135152
862.958	0.0135455
863.036	0.0136210
863.114	0.0135350
863.193	0.0135569
863.271	0.0135854
863.349	0.0136852
863.427	0.0137853
863.505	0.0135133
863.583	0.0136884
863.661	0.0136626
863.739	0.0135551
863.818	0.0135643
863.896	0.0136022
863.974	0.0135171
864.052	0.0136436
864.130	0.0134878
864.208	0.0134305
864.286	0.0134882
864.364	0.0136323
864.443	0.0135037
864.521	0.0134480
864.599	0.0136008
864.677	0.0135135
864.755	0.0136324
864.833	0.0135710
864.911	0.0135545
864.989	0.0136317
865.068	0.0136917
865.146	0.0136204
865.224	0.0137945
865.302	0.0138379
865.380	0.0137858
865.458	0.0137340
865.536	0.0139683
865.614	0.0139633
865.693	0.0140488
865.771	0.0141111
865.849	0.0141685
865.927	0.0141934
866.005	0.0140865
866.083	0.0139646
866.161	0.0141315
866.239	0.0141492
866.318	0.0140573
866.396	0.0141535
866.474	0.0140518
866.552	0.0137866
866.630	0.0138557
866.708	0.0138855
866.786	0.0138231
866.864	0.0137764
866.943	0.0137939
867.021	0.0137315
867.099	0.0137191
867.177	0.0136157
867.255	0.0135249
867.333	0.0135390
867.411	0.0135354
867.489	0.0133804
867.568	0.0135237
867.646	0.0135780
867.724	0.0135070
867.802	0.0133932
867.880	0.0133856
867.958	0.0132852
868.036	0.0133018
868.114	0.0131500
868.193	0.0131542
868.271	0.0130701
868.349	0.0130076
868.427	0.0131664
868.505	0.0131168
868.583	0.0130438
868.661	0.0129720
868.739	0.0131143
868.818	0.0130730
868.896	0.0131118
868.974	0.0131667
869.052	0.0130299
869.130	0.0132541
869.208	0.0132415
869.286	0.0131423
869.364	0.0131739
869.443	0.0130676
869.521	0.0131474
869.599	0.0130569
869.677	0.0130785
869.755	0.0131353
869.833	0.0132214
869.911	0.0130730
869.989	0.0129614
870.068	0.0129420
870.146	0.0129700
870.224	0.0130051
870.302	0.0130124
870.380	0.0131322
870.458	0.0129697
870.536	0.0131107
870.614	0.0131290
870.693	0.0130310
870.771	0.0130625
870.849	0.0130946
870.927	0.0130990
871.005	0.0132229
871.083	0.0132378
871.161	0.0131472
871.239	0.0131318
871.318	0.0131900
871.396	0.0131831
871.474	0.0131984
871.552	0.0132530
871.630	0.0132391
871.708	0.0132834
871.786	0.0131990
871.864	0.0132750
871.943	0.0132806
872.021	0.0132823
872.099	0.0134195
872.177	0.0134179
872.255	0.0133104
872.333	0.0132080
872.411	0.0132584
872.489	0.0132296
872.568	0.0132896
872.646	0.0131579
872.724	0.0130937
872.802	0.0131749
872.880	0.0131070
872.958	0.0132135
873.036	0.0133437
873.114	0.0133137
873.193	0.0134150
873.271	0.0132658
873.349	0.0134341
873.427	0.0134995
873.505	0.0135108
873.583	0.0135633
873.661	0.0136495
873.739	0.0136640
873.818	0.0136432
873.896	0.0137715
873.974	0.0136897
874.052	0.0136194
874.130	0.0136549
874.208	0.0135551
874.286	0.0135889
874.364	0.0135732
874.443	0.0138208
874.521	0.0136701
874.599	0.0136271
874.677	0.0136516
874.755	0.0136406
874.833	0.0136349
874.911	0.0136489
874.989	0.0136785
875.068	0.0136703
875.146	0.0137082
875.224	0.0137497
875.302	0.0136922
875.380	0.0138032
875.458	0.0137621
875.536	0.0137061
875.614	0.0138149
875.693	0.0138289
875.771	0.0139027
875.849	0.0139407
875.927	0.0138031
876.005	0.0136787
876.083	0.0136697
876.161	0.0138476
876.239	0.0138355
876.318	0.0137971
876.396	0.0138529
876.474	0.0140848
876.552	0.0139631
876.630	0.0138498
876.708	0.0140051
876.786	0.0139989
876.864	0.0139466
876.943	0.0139674
877.021	0.0140619
877.099	0.0139904
877.177	0.0140895
877.255	0.0140481
877.333	0.0140626
877.411	0.0139663
877.489	0.0140115
877.568	0.0139223
877.646	0.0138486
877.724	0.0140463
877.802	0.0139928
877.880	0.0137501
877.958	0.0138650
878.036	0.0138865
878.114	0.0137070
878.193	0.0138147
878.271	0.0137179
878.349	0.0137464
878.427	0.0138498
878.505	0.0138305
878.583	0.0137234
878.661	0.0137605
878.739	0.0136723
878.818	0.0137213
878.896	0.0136756
878.974	0.0136970
879.052	0.0137556
879.130	0.0136407
879.208	0.0137292
879.286	0.0137101
879.364	0.0136641
879.443	0.0137114
879.521	0.0135797
879.599	0.0134769
879.677	0.0135107
879.755	0.0135228
879.833	0.0134564
879.911	0.0134505
879.989	0.0135487
880.068	0.0133881
880.146	0.0134862
880.224	0.0135642
880.302	0.0134674
880.380	0.0135901
880.458	0.0136649
880.536	0.0135973
880.614	0.0134719
880.693	0.0135545
880.771	0.0135862
880.849	0.0133856
880.927	0.0133115
881.005	0.0133919
881.083	0.0133336
881.161	0.0133157
881.239	0.0133978
881.318	0.0132571
881.396	0.0133666
881.474	0.0132919
881.552	0.0133115
881.630	0.0131271
881.708	0.0131743
881.786	0.0132567
881.864	0.0132346
881.943	0.0132558
882.021	0.0132275
882.099	0.0132288
882.177	0.0131747
882.255	0.0131879
882.333	0.0133087
882.411	0.0132461
882.489	0.0131872
882.568	0.0134252
882.646	0.0133193
882.724	0.0132282
882.802	0.0133480
882.880	0.0134514
882.958	0.0133163
883.036	0.0134454
883.114	0.0134698
883.193	0.0135357
883.271	0.0136858
883.349	0.0135767
883.427	0.0135271
883.505	0.0136057
883.583	0.0134937
883.661	0.0135609
883.739	0.0135654
883.818	0.0135380
883.896	0.0133920
883.974	0.0135469
884.052	0.0134362
884.130	0.0133589
884.208	0.0133503
884.286	0.0133739
884.364	0.0135289
884.443	0.0133471
884.521	0.0133259
884.599	0.0133067
884.677	0.0131782
884.755	0.0134419
884.833	0.0134563
884.911	0.0134534
884.989	0.0132942
885.068	0.0134186
885.146	0.0133681
885.224	0.0133897
885.302	0.0132973
885.380	0.0133722
885.458	0.0133529
885.536	0.0134395
885.614	0.0134999
885.693	0.0132819
885.771	0.0134234
885.849	0.0133495
885.927	0.0133138
886.005	0.0133846
886.083	0.0133008
886.161	0.0132777
886.239	0.0132685
886.318	0.0133884
886.396	0.0132993
886.474	0.0131948
886.552	0.0133449
886.630	0.0133458
886.708	0.0132945
886.786	0.0134711
886.864	0.0134122
886.943	0.0133732
887.021	0.0134602
887.099	0.0136030
887.177	0.0136718
887.255	0.0136567
887.333	0.0138682
887.411	0.0137311
887.489	0.0137386
887.568	0.0137504
887.646	0.0138589
887.724	0.0138665
887.802	0.0137410
887.880	0.0136835
887.958	0.0137003
888.036	0.0136684
888.114	0.0136410
888.193	0.0136688
888.271	0.0136184
888.349	0.0135549
888.427	0.0134917
888.505	0.0134428
888.583	0.0136534
888.661	0.0137334
888.739	0.0137318
888.818	0.0136230
888.896	0.0136019
888.974	0.0135136
889.052	0.0137225
889.130	0.0137093
889.208	0.0135669
889.286	0.0135756
889.364	0.0135597
889.443	0.0135008
889.521	0.0135783
889.599	0.0136508
889.677	0.0134518
889.755	0.0134457
889.833	0.0133678
889.911	0.0133838
889.989	0.0135091
890.068	0.0133853
890.146	0.0133421
890.224	0.0133646
890.302	0.0133862
890.380	0.0135088
890.458	0.0134075
890.536	0.0134234
890.614	0.0134351
890.693	0.0135532
890.771	0.0134521
890.849	0.0133385
890.927	0.0135216
891.005	0.0133755
891.083	0.0134401
891.161	0.0133418
891.239	0.0132483
891.318	0.0132293
891.396	0.0133836
891.474	0.0132966
891.552	0.0132719
891.630	0.0133444
891.708	0.0133945
891.786	0.0134039
891.864	0.0133154
891.943	0.0133876
892.021	0.0133362
892.099	0.0133822
892.177	0.0133459
892.255	0.0133752
892.333	0.0133449
892.411	0.0133297
892.489	0.0132458
892.568	0.0133310
892.646	0.0132794
892.724	0.0132654
892.802	0.0131458
892.880	0.0131654
892.958	0.0131735
893.036	0.0131738
893.114	0.0130055
893.193	0.0130869
893.271	0.0131502
893.349	0.0132410
893.427	0.0131453
893.505	0.0132265
893.583	0.0133607
893.661	0.0133220
893.739	0.0132610
893.818	0.0135147
893.896	0.0135960
893.974	0.0136741
894.052	0.0136404
894.130	0.0136511
894.208	0.0136687
894.286	0.0135745
894.364	0.0137643
894.443	0.0138437
894.521	0.0138210
894.599	0.0137896
894.677	0.0137514
894.755	0.0137599
894.833	0.0136760
894.911	0.0136951
894.989	0.0138754
895.068	0.0137604
895.146	0.0136798
895.224	0.0135582
895.302	0.0135787
895.380	0.0138482
895.458	0.0135377
895.536	0.0136357
895.614	0.0136581
895.693	0.0136212
895.771	0.0137505
895.849	0.0136781
895.927	0.0135989
896.005	0.0136938
896.083	0.0136670
896.161	0.0135942
896.239	0.0137627
896.318	0.0135515
896.396	0.0137309
896.474	0.0136961
896.552	0.0136810
896.630	0.0136063
896.708	0.0137568
896.786	0.0135139
896.864	0.0134182
896.943	0.0134866
897.021	0.0132712
897.099	0.0133813
897.177	0.0132909
897.255	0.0131725
897.333	0.0132576
897.411	0.0131397
897.489	0.0132663
897.568	0.0132518
897.646	0.0131752
897.724	0.0131551
897.802	0.0132869
897.880	0.0131959
897.958	0.0133673
898.036	0.0133803
898.114	0.0133762
898.193	0.0133611
898.271	0.0133598
898.349	0.0132623
898.427	0.0133281
898.505	0.0132490
898.583	0.0131374
898.661	0.0132233
898.739	0.0133457
898.818	0.0132704
898.896	0.0133241
898.974	0.0132714
899.052	0.0132236
899.130	0.0132378
899.208	0.0135102
899.286	0.0133810
899.364	0.0132958
899.443	0.0132695
899.521	0.0135535
899.599	0.0136012
899.677	0.0134818
899.755	0.0135932
899.833	0.0136294
899.911	0.0135925
899.989	0.0135747
900.068	0.0135483
900.146	0.0134120
900.224	0.0134214
900.302	0.0135081
900.380	0.0134187
900.458	0.0133794
900.536	0.0132774
900.614	0.0132914
900.693	0.0133753
900.771	0.0133216
900.849	0.0132322
900.927	0.0131660
901.005	0.0132817
901.083	0.0132774
901.161	0.0130398
901.239	0.0132585
901.318	0.0133507
901.396	0.0134562
901.474	0.0135687
901.552	0.0134371
901.630	0.0133685
901.708	0.0135155
901.786	0.0135358
901.864	0.0136624
901.943	0.0136405
902.021	0.0137379
902.099	0.0136564
902.177	0.0136935
902.255	0.0137624
902.333	0.0137151
902.411	0.0135694
902.489	0.0136004
902.568	0.0136170
902.646	0.0134711
902.724	0.0134518
902.802	0.0133810
902.880	0.0134049
902.958	0.0133776
903.036	0.0133292
903.114	0.0130933
903.193	0.0133009
903.271	0.0131395
903.349	0.0132794
903.427	0.0131666
903.505	0.0131963
903.583	0.0132096
903.661	0.0131847
903.739	0.0133922
903.818	0.0133925
903.896	0.0133815
903.974	0.0134711
904.052	0.0134258
904.130	0.0135794
904.208	0.0135076
904.286	0.0135007
904.364	0.0134766
904.443	0.0134515
904.521	0.0135695
904.599	0.0136156
904.677	0.0135894
904.755	0.0136595
904.833	0.0136792
904.911	0.0136794
904.989	0.0137095
905.068	0.0137479
905.146	0.0137472
905.224	0.0137467
905.302	0.0138284
905.380	0.0136860
905.458	0.0137134
905.536	0.0137625
905.614	0.0137752
905.693	0.0139269
905.771	0.0139157
905.849	0.0139114
905.927	0.0139336
906.005	0.0138660
906.083	0.0139020
906.161	0.0139230
906.239	0.0138496
906.318	0.0139783
906.396	0.0138995
906.474	0.0139398
906.552	0.0139103
906.630	0.0139217
906.708	0.0139690
906.786	0.0138778
906.864	0.0137961
906.943	0.0138155
907.021	0.0137653
907.099	0.0138353
907.177	0.0138216
907.255	0.0136794
907.333	0.0135731
907.411	0.0139214
907.489	0.0137701
907.568	0.0137034
907.646	0.0135835
907.724	0.0135957
907.802	0.0135723
907.880	0.0136170
907.958	0.0136160
908.036	0.0136859
908.114	0.0136650
908.193	0.0136493
908.271	0.0136082
908.349	0.0135619
908.427	0.0135950
908.505	0.0136824
908.583	0.0136633
908.661	0.0134921
908.739	0.0136195
908.818	0.0136329
908.896	0.0135281
908.974	0.0134072
909.052	0.0134872
909.130	0.0133424
909.208	0.0132327
909.286	0.0132938
909.364	0.0132749
909.443	0.0133923
909.521	0.0133989
909.599	0.0132725
909.677	0.0132745
909.755	0.0133553
909.833	0.0133140
909.911	0.0132519
909.989	0.0133762
910.068	0.0133496
910.146	0.0133752
910.224	0.0134676
910.302	0.0134016
910.380	0.0135244
910.458	0.0134634
910.536	0.0133877
910.614	0.0132693
910.693	0.0133944
910.771	0.0134421
910.849	0.0133025
910.927	0.0134464
911.005	0.0131448
911.083	0.0131925
911.161	0.0132065
911.239	0.0132314
911.318	0.0132500
911.396	0.0132004
911.474	0.0133150
911.552	0.0131565
911.630	0.0132926
911.708	0.0132706
911.786	0.0133815
911.864	0.0134431
911.943	0.0134401
912.021	0.0133255
912.099	0.0133780
912.177	0.0134559
912.255	0.0134259
912.333	0.0133694
912.411	0.0134924
912.489	0.0134888
912.568	0.0134307
912.646	0.0135094
912.724	0.0136809
912.802	0.0134933
912.880	0.0135997
912.958	0.0136748
913.036	0.0136373
913.114	0.0136283
913.193	0.0136236
913.271	0.0135924
913.349	0.0137355
913.427	0.0136726
913.505	0.0137534
913.583	0.0138013
913.661	0.0137332
913.739	0.0135397
913.818	0.0135571
913.896	0.0138191
913.974	0.0136384
914.052	0.0134986
914.130	0.0135358
914.208	0.0134344
914.286	0.0135812
914.364	0.0135412
914.443	0.0134640
914.521	0.0135638
914.599	0.0134767
914.677	0.0135625
914.755	0.0134393
914.833	0.0134219
914.911	0.0134750
914.989	0.0135490
915.068	0.0136456
915.146	0.0134678
915.224	0.0135488
915.302	0.0136414
915.380	0.0135576
915.458	0.0135645
915.536	0.0136847
915.614	0.0135513
915.693	0.0136699
915.771	0.0135910
915.849	0.0136382
915.927	0.0136699
916.005	0.0137540
916.083	0.0136063
916.161	0.0137894
916.239	0.0136183
916.318	0.0136456
916.396	0.0136811
916.474	0.0137662
916.552	0.0136876
916.630	0.0136673
916.708	0.0136140
916.786	0.0137533
916.864	0.0135694
916.943	0.0134705
917.021	0.0135758
917.099	0.0135143
917.177	0.0134061
917.255	0.0134898
917.333	0.0135932
917.411	0.0134474
917.489	0.0133905
917.568	0.0134724
917.646	0.0133182
917.724	0.0134376
917.802	0.0133616
917.880	0.0134256
917.958	0.0134624
918.036	0.0134339
918.114	0.0135887
918.193	0.0134948
918.271	0.0135416
918.349	0.0134978
918.427	0.0134547
918.505	0.0135407
918.583	0.0137205
918.661	0.0136647
918.739	0.0137784
918.818	0.0137334
918.896	0.0135885
918.974	0.0138004
919.052	0.0137234
919.130	0.0137408
919.208	0.0137006
919.286	0.0138636
919.364	0.0137482
919.443	0.0137608
919.521	0.0137914
919.599	0.0136845
919.677	0.0137299
919.755	0.0136841
919.833	0.0136168
919.911	0.0136885
919.989	0.0135590
920.068	0.0136353
920.146	0.0137808
920.224	0.0136743
920.302	0.0135180
920.380	0.0135270
920.458	0.0135803
920.536	0.0135486
920.614	0.0134839
920.693	0.0134946
920.771	0.0134206
920.849	0.0133862
920.927	0.0133975
921.005	0.0134630
921.083	0.0134027
921.161	0.0132616
921.239	0.0132822
921.318	0.0132734
921.396	0.0131867
921.474	0.0132922
921.552	0.0132735
921.630	0.0133489
921.708	0.0132117
921.786	0.0132821
921.864	0.0132603
921.943	0.0133459
922.021	0.0132344
922.099	0.0132655
922.177	0.0133913
922.255	0.0134420
922.333	0.0133611
922.411	0.0133044
922.489	0.0133339
922.568	0.0133038
922.646	0.0132891
922.724	0.0132241
922.802	0.0131930
922.880	0.0134700
922.958	0.0132627
923.036	0.0132576
923.114	0.0131822
923.193	0.0132279
923.271	0.0131641
923.349	0.0131470
923.427	0.0132779
923.505	0.0132832
923.583	0.0133430
923.661	0.0133647
923.739	0.0134689
923.818	0.0135466
923.896	0.0134768
923.974	0.0134266
924.052	0.0135925
924.130	0.0134196
924.208	0.0134812
924.286	0.0135236
924.364	0.0134461
924.443	0.0136590
924.521	0.0134351
924.599	0.0134467
924.677	0.0134321
924.755	0.0133881
924.833	0.0134811
924.911	0.0135499
924.989	0.0133093
925.068	0.0134489
925.146	0.0135013
925.224	0.0133759
925.302	0.0133958
925.380	0.0134603
925.458	0.0134222
925.536	0.0134281
925.614	0.0134634
925.693	0.0134877
925.771	0.0133540
925.849	0.0135789
925.927	0.0133738
926.005	0.0134782
926.083	0.0134956
926.161	0.0135908
926.239	0.0135043
926.318	0.0134836
926.396	0.0134333
926.474	0.0135833
926.552	0.0135474
926.630	0.0136114
926.708	0.0134827
926.786	0.0134786
926.864	0.0136157
926.943	0.0136935
927.021	0.0135737
927.099	0.0136308
927.177	0.0137125
927.255	0.0137142
927.333	0.0137071
927.411	0.0134564
927.489	0.0135085
927.568	0.0136133
927.646	0.0134991
927.724	0.0134588
927.802	0.0135782
927.880	0.0136304
927.958	0.0136243
928.036	0.0137352
928.114	0.0136947
928.193	0.0135408
928.271	0.0137028
928.349	0.0137851
928.427	0.0137688
928.505	0.0137868
928.583	0.0139543
928.661	0.0138323
928.739	0.0138864
928.818	0.0138863
928.896	0.0140019
928.974	0.0140016
929.052	0.0141167
929.130	0.0140607
929.208	0.0141735
929.286	0.0141390
929.364	0.0141187
929.443	0.0141192
929.521	0.0140761
929.599	0.0140436
929.677	0.0139699
929.755	0.0139368
929.833	0.0138233
929.911	0.0139011
929.989	0.0139481
930.068	0.0138786
930.146	0.0138946
930.224	0.0137854
930.302	0.0137847
930.380	0.0137974
930.458	0.0138544
930.536	0.0138899
930.614	0.0139822
930.693	0.0138369
930.771	0.0136330
930.849	0.0137421
930.927	0.0137912
931.005	0.0137117
931.083	0.0137041
931.161	0.0137705
931.239	0.0137705
931.318	0.0135608
931.396	0.0138792
931.474	0.0135620
931.552	0.0135629
931.630	0.0135521
931.708	0.0133226
931.786	0.0134679
931.864	0.0135598
931.943	0.0133144
932.021	0.0133067
932.099	0.0133749
932.177	0.0132850
932.255	0.0134447
932.333	0.0134806
932.411	0.0134891
932.489	0.0135578
932.568	0.0133829
932.646	0.0135623
932.724	0.0136754
932.802	0.0136803
932.880	0.0137408
932.958	0.0135310
933.036	0.0135793
933.114	0.0136732
933.193	0.0134712
933.271	0.0134325
933.349	0.0133999
933.427	0.0133208
933.505	0.0132864
933.583	0.0132598
933.661	0.0132819
933.739	0.0130622
933.818	0.0131463
933.896	0.0131331
933.974	0.0131437
934.052	0.0133064
934.130	0.0132299
934.208	0.0132462
934.286	0.0132774
934.364	0.0133217
934.443	0.0134220
934.521	0.0133270
934.599	0.0134367
934.677	0.0135666
934.755	0.0136517
934.833	0.0136723
934.911	0.0135770
934.989	0.0135683
935.068	0.0136504
935.146	0.0136932
935.224	0.0137166
935.302	0.0136858
935.380	0.0137630
935.458	0.0135835
935.536	0.0137404
935.614	0.0138531
935.693	0.0137078
935.771	0.0137992
935.849	0.0137737
935.927	0.0137727
936.005	0.0136700
936.083	0.0137349
936.161	0.0136174
936.239	0.0137584
936.318	0.0136616
936.396	0.0135297
936.474	0.0135847
936.552	0.0135851
936.630	0.0136703
936.708	0.0136544
936.786	0.0133504
936.864	0.0135624
936.943	0.0135880
937.021	0.0136912
937.099	0.0137231
937.177	0.0137390
937.255	0.0138237
937.333	0.0137160
937.411	0.0139227
937.489	0.0137685
937.568	0.0139797
937.646	0.0138070
937.724	0.0138308
937.802	0.0140579
937.880	0.0140128
937.958	0.0140633
938.036	0.0140588
938.114	0.0139118
938.193	0.0139008
938.271	0.0138059
938.349	0.0138271
938.427	0.0139051
938.505	0.0138329
938.583	0.0139136
938.661	0.0139451
938.739	0.0138367
938.818	0.0138588
938.896	0.0139503
938.974	0.0139746
939.052	0.0140388
939.130	0.0139682
939.208	0.0139519
939.286	0.0139576
939.364	0.0139157
939.443	0.0138601
939.521	0.0140854
939.599	0.0140388
939.677	0.0139771
939.755	0.0138895
939.833	0.0140543
939.911	0.0138702
939.989	0.0138918
940.068	0.0137280
940.146	0.0138013
940.224	0.0137896
940.302	0.0138412
940.380	0.0138509
940.458	0.0136952
940.536	0.0137408
940.614	0.0138327
940.693	0.0138172
940.771	0.0137008
940.849	0.0137225
940.927	0.0138031
941.005	0.0139362
941.083	0.0138751
941.161	0.0138697
941.239	0.0137296
941.318	0.0137373
941.396	0.0136768
941.474	0.0138456
941.552	0.0138450
941.630	0.0138093
941.708	0.0137777
941.786	0.0137633
941.864	0.0137881
941.943	0.0135933
942.021	0.0136153
942.099	0.0135394
942.177	0.0136034
942.255	0.0136249
942.333	0.0135474
942.411	0.0136332
942.489	0.0136697
942.568	0.0136905
942.646	0.0135835
942.724	0.0137635
942.802	0.0135448
942.880	0.0136176
942.958	0.0135103
943.036	0.0136810
943.114	0.0136853
943.193	0.0137763
943.271	0.0137819
943.349	0.0137272
943.427	0.0135997
943.505	0.0136118
943.583	0.0136175
943.661	0.0134968
943.739	0.0136442
943.818	0.0135706
943.896	0.0135004
943.974	0.0135002
944.052	0.0135048
944.130	0.0134769
944.208	0.0133950
944.286	0.0135598
944.364	0.0134550
944.443	0.0133009
944.521	0.0132394
944.599	0.0133421
944.677	0.0133591
944.755	0.0131976
944.833	0.0132538
944.911	0.0131683
944.989	0.0133118
945.068	0.0133449
945.146	0.0132903
945.224	0.0132427
945.302	0.0132091
945.380	0.0132698
945.458	0.0131604
945.536	0.0131722
945.614	0.0131635
945.693	0.0132573
945.771	0.0132402
945.849	0.0133150
945.927	0.0132964
946.005	0.0132175
946.083	0.0131808
946.161	0.0131865
946.239	0.0133662
946.318	0.0134171
946.396	0.0135237
946.474	0.0134467
946.552	0.0135091
946.630	0.0135333
946.708	0.0134944
946.786	0.0134118
946.864	0.0134821
946.943	0.0134536
947.021	0.0133230
947.099	0.0134237
947.177	0.0134280
947.255	0.0134467
947.333	0.0134229
947.411	0.0133960
947.489	0.0134779
947.568	0.0135164
947.646	0.0133707
947.724	0.0133925
947.802	0.0134612
947.880	0.0133693
947.958	0.0133978
948.036	0.0134029
948.114	0.0134462
948.193	0.0135607
948.271	0.0135084
948.349	0.0134279
948.427	0.0135033
948.505	0.0133590
948.583	0.0135348
948.661	0.0136460
948.739	0.0135537
948.818	0.0136375
948.896	0.0133973
948.974	0.0135123
949.052	0.0136257
949.130	0.0135927
949.208	0.0136715
949.286	0.0135174
949.364	0.0136222
949.443	0.0137533
949.521	0.0137660
949.599	0.0139500
949.677	0.0137112
949.755	0.0137961
949.833	0.0137704
949.911	0.0137299
949.989	0.0137201
950.068	0.0136465
950.146	0.0137846
950.224	0.0138943
950.302	0.0138444
950.380	0.0138583
950.458	0.0137897
950.536	0.0139185
950.614	0.0138398
950.693	0.0137649
950.771	0.0139294
950.849	0.0139577
950.927	0.0136968
951.005	0.0137228
951.083	0.0138132
951.161	0.0138915
951.239	0.0138963
951.318	0.0139831
951.396	0.0138091
951.474	0.0137474
951.552	0.0138564
951.630	0.0138186
951.708	0.0139596
951.786	0.0138804
951.864	0.0138134
951.943	0.0137335
952.021	0.0136009
952.099	0.0137654
952.177	0.0137978
952.255	0.0137402
952.333	0.0136768
952.411	0.0137508
952.489	0.0137981
952.568	0.0138465
952.646	0.0137109
952.724	0.0137295
952.802	0.0137757
952.880	0.0136279
952.958	0.0137965
953.036	0.0138760
953.114	0.0138887
953.193	0.0136252
953.271	0.0136759
953.349	0.0138602
953.427	0.0138181
953.505	0.0137656
953.583	0.0137822
953.661	0.0138303
953.739	0.0138801
953.818	0.0137965
953.896	0.0137624
953.974	0.0138372
954.052	0.0137083
954.130	0.0137419
954.208	0.0138634
954.286	0.0138519
954.364	0.0138705
954.443	0.0137969
954.521	0.0138531
954.599	0.0139071
954.677	0.0139085
954.755	0.0138400
954.833	0.0137948
954.911	0.0138415
954.989	0.0138476
955.068	0.0138612
955.146	0.0139317
955.224	0.0139057
955.302	0.0139983
955.380	0.0138495
955.458	0.0139867
955.536	0.0140417
955.614	0.0140323
955.693	0.0139378
955.771	0.0140560
955.849	0.0140523
955.927	0.0138251
956.005	0.0137876
956.083	0.0138637
956.161	0.0137798
956.239	0.0138066
956.318	0.0137511
956.396	0.0136353
956.474	0.0136788
956.552	0.0135892
956.630	0.0135714
956.708	0.0135638
956.786	0.0133508
956.864	0.0134766
956.943	0.0135079
957.021	0.0133221
957.099	0.0133376
957.177	0.0134237
957.255	0.0135170
957.333	0.0135162
957.411	0.0133332
957.489	0.0134414
957.568	0.0134251
957.646	0.0135173
957.724	0.0135994
957.802	0.0135141
957.880	0.0136484
957.958	0.0136577
958.036	0.0136201
958.114	0.0137224
958.193	0.0136239
958.271	0.0136248
958.349	0.0136282
958.427	0.0137469
958.505	0.0136079
958.583	0.0136864
958.661	0.0133678
958.739	0.0134650
958.818	0.0134196
958.896	0.0135626
958.974	0.0135281
959.052	0.0134632
959.130	0.0135341
959.208	0.0135455
959.286	0.0135313
959.364	0.0135455
959.443	0.0135950
959.521	0.0135595
959.599	0.0136763
959.677	0.0137110
959.755	0.0138824
959.833	0.0136573
959.911	0.0137006
