05/07/2022	17:11:37	Ver.	4.1	UNKNOWN
Optical Delay	639.989416	Delta X		0.078125	Sweeps	1	Scan Rate	0/0
Coordinates	Axis 1	NaN	Axis 2	NaN	Axis 3	NaN	Axis 4	NaN	Axis 5	NaN	Axis 6	0.000000
TX Power	0.000000	RX Power	0.000000

639.989	0.0136032
640.068	0.0136388
640.146	0.0135714
640.224	0.0136685
640.302	0.0136664
640.380	0.0136166
640.458	0.0136985
640.536	0.0136327
640.614	0.0136395
640.693	0.0135987
640.771	0.0136552
640.849	0.0136617
640.927	0.0136153
641.005	0.0134216
641.083	0.0135295
641.161	0.0136413
641.239	0.0137579
641.318	0.0134566
641.396	0.0135883
641.474	0.0137047
641.552	0.0136104
641.630	0.0137341
641.708	0.0137166
641.786	0.0134530
641.864	0.0135367
641.943	0.0137123
642.021	0.0136276
642.099	0.0135612
642.177	0.0136746
642.255	0.0136276
642.333	0.0135637
642.411	0.0134536
642.489	0.0135954
642.568	0.0136303
642.646	0.0135801
642.724	0.0135538
642.802	0.0136323
642.880	0.0137236
642.958	0.0136919
643.036	0.0137449
643.114	0.0136541
643.193	0.0136642
643.271	0.0136243
643.349	0.0136917
643.427	0.0137886
643.505	0.0134548
643.583	0.0135680
643.661	0.0135948
643.739	0.0135720
643.818	0.0136449
643.896	0.0136490
643.974	0.0134801
644.052	0.0134899
644.130	0.0135919
644.208	0.0137032
644.286	0.0137158
644.364	0.0135678
644.443	0.0135894
644.521	0.0135389
644.599	0.0135065
644.677	0.0137001
644.755	0.0136568
644.833	0.0137077
644.911	0.0136922
644.989	0.0135202
645.068	0.0137342
645.146	0.0136184
645.224	0.0136665
645.302	0.0137423
645.380	0.0136505
645.458	0.0136312
645.536	0.0136354
645.614	0.0134837
645.693	0.0136375
645.771	0.0136999
645.849	0.0136215
645.927	0.0136131
646.005	0.0136770
646.083	0.0136106
646.161	0.0136883
646.239	0.0137321
646.318	0.0136355
646.396	0.0136113
646.474	0.0136676
646.552	0.0135764
646.630	0.0137091
646.708	0.0136382
646.786	0.0137074
646.864	0.0136668
646.943	0.0136238
647.021	0.0135542
647.099	0.0135515
647.177	0.0137180
647.255	0.0136156
647.333	0.0136979
647.411	0.0137888
647.489	0.0136224
647.568	0.0136361
647.646	0.0135346
647.724	0.0135854
647.802	0.0136097
647.880	0.0135935
647.958	0.0136114
648.036	0.0136721
648.114	0.0135888
648.193	0.0136311
648.271	0.0135130
648.349	0.0137283
648.427	0.0135661
648.505	0.0136692
648.583	0.0136743
648.661	0.0137090
648.739	0.0136766
648.818	0.0135748
648.896	0.0136639
648.974	0.0137429
649.052	0.0135077
649.130	0.0135809
649.208	0.0136898
649.286	0.0136197
649.364	0.0137691
649.443	0.0137890
649.521	0.0137879
649.599	0.0136603
649.677	0.0135248
649.755	0.0136957
649.833	0.0137193
649.911	0.0136546
649.989	0.0137360
650.068	0.0136040
650.146	0.0136651
650.224	0.0138535
650.302	0.0136314
650.380	0.0136400
650.458	0.0135670
650.536	0.0135863
650.614	0.0137531
650.693	0.0136578
650.771	0.0136758
650.849	0.0135764
650.927	0.0136505
651.005	0.0135881
651.083	0.0136950
651.161	0.0136826
651.239	0.0137255
651.318	0.0136916
651.396	0.0136998
651.474	0.0137623
651.552	0.0136552
651.630	0.0135818
651.708	0.0136642
651.786	0.0136127
651.864	0.0134972
651.943	0.0135887
652.021	0.0137997
652.099	0.0135503
652.177	0.0135990
652.255	0.0136912
652.333	0.0135229
652.411	0.0135405
652.489	0.0137981
652.568	0.0136904
652.646	0.0136594
652.724	0.0136946
652.802	0.0135684
652.880	0.0137069
652.958	0.0134803
653.036	0.0136149
653.114	0.0136376
653.193	0.0135552
653.271	0.0136367
653.349	0.0137970
653.427	0.0136781
653.505	0.0135767
653.583	0.0135818
653.661	0.0136144
653.739	0.0138081
653.818	0.0136610
653.896	0.0136292
653.974	0.0136134
654.052	0.0134681
654.130	0.0138770
654.208	0.0135340
654.286	0.0135812
654.364	0.0136784
654.443	0.0136648
654.521	0.0135339
654.599	0.0136214
654.677	0.0135815
654.755	0.0136997
654.833	0.0136653
654.911	0.0136396
654.989	0.0136459
655.068	0.0135748
655.146	0.0137194
655.224	0.0136414
655.302	0.0136440
655.380	0.0137313
655.458	0.0136749
655.536	0.0137445
655.614	0.0136952
655.693	0.0136241
655.771	0.0135905
655.849	0.0136843
655.927	0.0136092
656.005	0.0136885
656.083	0.0136774
656.161	0.0137376
656.239	0.0136399
656.318	0.0135998
656.396	0.0136674
656.474	0.0136542
656.552	0.0135644
656.630	0.0136169
656.708	0.0137431
656.786	0.0137079
656.864	0.0136053
656.943	0.0135332
657.021	0.0136852
657.099	0.0136462
657.177	0.0135720
657.255	0.0136015
657.333	0.0136053
657.411	0.0133937
657.489	0.0136118
657.568	0.0135459
657.646	0.0136575
657.724	0.0136040
657.802	0.0136435
657.880	0.0135855
657.958	0.0135411
658.036	0.0136169
658.114	0.0136396
658.193	0.0136639
658.271	0.0137614
658.349	0.0136210
658.427	0.0137269
658.505	0.0136777
658.583	0.0136935
658.661	0.0135006
658.739	0.0137027
658.818	0.0136422
658.896	0.0136434
658.974	0.0135140
659.052	0.0136629
659.130	0.0135918
659.208	0.0135175
659.286	0.0136216
659.364	0.0137031
659.443	0.0135419
659.521	0.0136512
659.599	0.0136939
659.677	0.0137071
659.755	0.0137531
659.833	0.0136140
659.911	0.0136498
659.989	0.0136617
660.068	0.0135962
660.146	0.0136694
660.224	0.0136908
660.302	0.0136559
660.380	0.0135664
660.458	0.0136435
660.536	0.0135845
660.614	0.0135641
660.693	0.0137481
660.771	0.0136364
660.849	0.0136855
660.927	0.0135927
661.005	0.0136894
661.083	0.0137734
661.161	0.0135770
661.239	0.0136347
661.318	0.0135386
661.396	0.0136424
661.474	0.0135930
661.552	0.0135769
661.630	0.0136411
661.708	0.0135444
661.786	0.0135777
661.864	0.0136156
661.943	0.0135269
662.021	0.0135422
662.099	0.0135268
662.177	0.0137206
662.255	0.0136906
662.333	0.0135263
662.411	0.0136794
662.489	0.0137251
662.568	0.0136130
662.646	0.0136438
662.724	0.0137228
662.802	0.0136279
662.880	0.0136367
662.958	0.0137448
663.036	0.0136597
663.114	0.0135006
663.193	0.0136468
663.271	0.0137416
663.349	0.0136318
663.427	0.0134476
663.505	0.0136012
663.583	0.0137199
663.661	0.0136070
663.739	0.0135327
663.818	0.0136069
663.896	0.0135125
663.974	0.0136930
664.052	0.0136488
664.130	0.0136808
664.208	0.0136402
664.286	0.0135954
664.364	0.0137012
664.443	0.0136590
664.521	0.0136372
664.599	0.0136885
664.677	0.0135680
664.755	0.0135630
664.833	0.0135806
664.911	0.0136712
664.989	0.0135593
665.068	0.0136060
665.146	0.0136343
665.224	0.0137228
665.302	0.0135986
665.380	0.0136014
665.458	0.0135767
665.536	0.0136509
665.614	0.0136066
665.693	0.0137250
665.771	0.0137405
665.849	0.0135925
665.927	0.0136176
666.005	0.0135648
666.083	0.0135653
666.161	0.0135536
666.239	0.0136935
666.318	0.0136043
666.396	0.0136620
666.474	0.0136449
666.552	0.0135632
666.630	0.0135815
666.708	0.0136116
666.786	0.0135342
666.864	0.0137125
666.943	0.0135346
667.021	0.0135924
667.099	0.0135337
667.177	0.0136581
667.255	0.0136926
667.333	0.0136430
667.411	0.0136334
667.489	0.0136524
667.568	0.0136755
667.646	0.0136617
667.724	0.0135924
667.802	0.0135206
667.880	0.0136393
667.958	0.0136590
668.036	0.0136594
668.114	0.0136080
668.193	0.0135509
668.271	0.0135374
668.349	0.0135204
668.427	0.0135488
668.505	0.0136706
668.583	0.0135266
668.661	0.0136984
668.739	0.0135573
668.818	0.0136089
668.896	0.0136689
668.974	0.0137134
669.052	0.0136127
669.130	0.0136021
669.208	0.0135395
669.286	0.0137312
669.364	0.0136250
669.443	0.0135284
669.521	0.0136376
669.599	0.0137400
669.677	0.0137306
669.755	0.0137477
669.833	0.0136177
669.911	0.0136110
669.989	0.0137086
670.068	0.0136182
670.146	0.0137234
670.224	0.0137311
670.302	0.0135313
670.380	0.0135888
670.458	0.0136195
670.536	0.0136605
670.614	0.0135244
670.693	0.0136989
670.771	0.0137201
670.849	0.0137109
670.927	0.0136427
671.005	0.0136216
671.083	0.0134450
671.161	0.0136270
671.239	0.0137148
671.318	0.0135435
671.396	0.0137186
671.474	0.0136153
671.552	0.0136787
671.630	0.0135817
671.708	0.0135022
671.786	0.0135379
671.864	0.0136418
671.943	0.0136250
672.021	0.0137197
672.099	0.0135832
672.177	0.0137606
672.255	0.0136736
672.333	0.0136647
672.411	0.0136913
672.489	0.0135891
672.568	0.0136321
672.646	0.0136187
672.724	0.0136752
672.802	0.0135510
672.880	0.0137308
672.958	0.0136684
673.036	0.0135672
673.114	0.0136175
673.193	0.0136429
673.271	0.0137132
673.349	0.0137274
673.427	0.0138000
673.505	0.0137831
673.583	0.0139175
673.661	0.0138306
673.739	0.0138006
673.818	0.0137752
673.896	0.0139129
673.974	0.0137907
674.052	0.0135863
674.130	0.0136702
674.208	0.0136214
674.286	0.0136605
674.364	0.0134670
674.443	0.0133927
674.521	0.0134408
674.599	0.0133083
674.677	0.0134470
674.755	0.0133504
674.833	0.0133529
674.911	0.0135600
674.989	0.0135381
675.068	0.0136717
675.146	0.0137519
675.224	0.0136178
675.302	0.0136120
675.380	0.0138717
675.458	0.0138580
675.536	0.0137112
675.614	0.0137100
675.693	0.0138275
675.771	0.0137316
675.849	0.0137231
675.927	0.0137875
676.005	0.0137859
676.083	0.0137244
676.161	0.0136535
676.239	0.0136823
676.318	0.0137400
676.396	0.0139401
676.474	0.0138538
676.552	0.0140011
676.630	0.0137955
676.708	0.0137183
676.786	0.0136852
676.864	0.0138207
676.943	0.0136276
677.021	0.0134063
677.099	0.0135229
677.177	0.0132780
677.255	0.0132367
677.333	0.0132499
677.411	0.0131068
677.489	0.0130161
677.568	0.0130896
677.646	0.0128939
677.724	0.0130236
677.802	0.0133015
677.880	0.0133262
677.958	0.0134361
678.036	0.0135682
678.114	0.0137914
678.193	0.0139844
678.271	0.0140542
678.349	0.0140791
678.427	0.0141990
678.505	0.0142669
678.583	0.0143708
678.661	0.0143811
678.739	0.0141475
678.818	0.0142251
678.896	0.0143348
678.974	0.0142436
679.052	0.0140538
679.130	0.0139655
679.208	0.0140278
679.286	0.0137842
679.364	0.0137194
679.443	0.0136591
679.521	0.0136024
679.599	0.0135268
679.677	0.0134071
679.755	0.0134666
679.833	0.0133708
679.911	0.0132919
679.989	0.0133990
680.068	0.0134398
680.146	0.0133255
680.224	0.0132804
680.302	0.0132677
680.380	0.0132056
680.458	0.0132127
680.536	0.0130553
680.614	0.0131403
680.693	0.0129620
680.771	0.0128189
680.849	0.0127553
680.927	0.0127473
681.005	0.0127126
681.083	0.0128815
681.161	0.0129751
681.239	0.0132973
681.318	0.0134653
681.396	0.0136555
681.474	0.0140047
681.552	0.0143227
681.630	0.0145911
681.708	0.0148416
681.786	0.0148519
681.864	0.0152337
681.943	0.0151159
682.021	0.0151555
682.099	0.0150431
682.177	0.0147476
682.255	0.0147562
682.333	0.0144997
682.411	0.0142323
682.489	0.0140427
682.568	0.0138624
682.646	0.0136907
682.724	0.0134765
682.802	0.0134950
682.880	0.0132435
682.958	0.0133163
683.036	0.0132298
683.114	0.0130392
683.193	0.0131624
683.271	0.0130786
683.349	0.0130286
683.427	0.0130010
683.505	0.0128939
683.583	0.0129376
683.661	0.0130357
683.739	0.0130642
683.818	0.0130028
683.896	0.0130552
683.974	0.0131434
684.052	0.0131068
684.130	0.0130160
684.208	0.0131388
684.286	0.0131655
684.364	0.0130335
684.443	0.0132003
684.521	0.0130519
684.599	0.0130261
684.677	0.0130378
684.755	0.0132476
684.833	0.0131614
684.911	0.0132532
684.989	0.0132973
685.068	0.0135274
685.146	0.0138549
685.224	0.0141577
685.302	0.0143921
685.380	0.0146268
685.458	0.0149157
685.536	0.0150465
685.614	0.0151671
685.693	0.0152558
685.771	0.0155154
685.849	0.0154722
685.927	0.0154700
686.005	0.0153323
686.083	0.0153218
686.161	0.0150198
686.239	0.0148111
686.318	0.0147922
686.396	0.0144359
686.474	0.0143710
686.552	0.0141633
686.630	0.0139768
686.708	0.0138563
686.786	0.0138039
686.864	0.0136690
686.943	0.0135229
687.021	0.0134033
687.099	0.0132265
687.177	0.0131028
687.255	0.0129556
687.333	0.0125017
687.411	0.0123655
687.489	0.0121714
687.568	0.0121301
687.646	0.0118504
687.724	0.0116404
687.802	0.0114418
687.880	0.0113513
687.958	0.0114875
688.036	0.0116254
688.114	0.0116586
688.193	0.0118212
688.271	0.0119817
688.349	0.0121558
688.427	0.0123420
688.505	0.0126251
688.583	0.0127990
688.661	0.0128547
688.739	0.0128767
688.818	0.0131204
688.896	0.0130754
688.974	0.0132404
689.052	0.0133742
689.130	0.0136444
689.208	0.0138653
689.286	0.0141138
689.364	0.0144857
689.443	0.0148988
689.521	0.0153442
689.599	0.0158347
689.677	0.0162591
689.755	0.0165508
689.833	0.0167486
689.911	0.0171648
689.989	0.0173586
690.068	0.0174798
690.146	0.0175832
690.224	0.0175624
690.302	0.0173520
690.380	0.0169582
690.458	0.0167328
690.536	0.0163223
690.614	0.0157114
690.693	0.0153430
690.771	0.0146632
690.849	0.0140660
690.927	0.0133915
691.005	0.0128329
691.083	0.0124424
691.161	0.0119571
691.239	0.0113727
691.318	0.0109572
691.396	0.0104641
691.474	0.0100483
691.552	0.00974808
691.630	0.00948418
691.708	0.00936562
691.786	0.00911812
691.864	0.00916916
691.943	0.00926132
692.021	0.00954651
692.099	0.00964844
692.177	0.0100391
692.255	0.0105121
692.333	0.0108401
692.411	0.0112879
692.489	0.0117881
692.568	0.0122618
692.646	0.0128879
692.724	0.0133650
692.802	0.0138295
692.880	0.0143500
692.958	0.0146693
693.036	0.0150117
693.114	0.0154974
693.193	0.0157740
693.271	0.0159417
693.349	0.0161027
693.427	0.0161478
693.505	0.0163496
693.583	0.0165046
693.661	0.0163661
693.739	0.0163493
693.818	0.0163097
693.896	0.0162798
693.974	0.0161962
694.052	0.0160626
694.130	0.0160497
694.208	0.0159653
694.286	0.0158309
694.364	0.0158057
694.443	0.0157655
694.521	0.0155852
694.599	0.0154636
694.677	0.0153926
694.755	0.0152350
694.833	0.0151707
694.911	0.0148830
694.989	0.0148016
695.068	0.0146008
695.146	0.0144553
695.224	0.0144124
695.302	0.0141699
695.380	0.0137949
695.458	0.0136504
695.536	0.0135133
695.614	0.0130260
695.693	0.0128577
695.771	0.0124490
695.849	0.0121523
695.927	0.0117154
696.005	0.0110982
696.083	0.0106559
696.161	0.0100605
696.239	0.00976151
696.318	0.00925583
696.396	0.00873932
696.474	0.00855408
696.552	0.00814674
696.630	0.00806572
696.708	0.00816727
696.786	0.00817032
696.864	0.00838234
696.943	0.00897491
697.021	0.00937546
697.099	0.00982574
697.177	0.0106856
697.255	0.0115894
697.333	0.0124475
697.411	0.0132092
697.489	0.0140629
697.568	0.0150062
697.646	0.0158062
697.724	0.0163586
697.802	0.0170596
697.880	0.0174840
697.958	0.0178345
698.036	0.0182041
698.114	0.0184034
698.193	0.0184783
698.271	0.0186250
698.349	0.0186364
698.427	0.0186343
698.505	0.0185883
698.583	0.0183285
698.661	0.0181940
698.739	0.0181158
698.818	0.0177680
698.896	0.0176038
698.974	0.0173199
699.052	0.0169344
699.130	0.0164767
699.208	0.0161876
699.286	0.0156785
699.364	0.0152313
699.443	0.0148903
699.521	0.0143573
699.599	0.0139365
699.677	0.0134664
699.755	0.0133369
699.833	0.0128555
699.911	0.0126337
699.989	0.0123395
700.068	0.0120770
700.146	0.0116502
700.224	0.0114471
700.302	0.0111182
700.380	0.0109782
700.458	0.0106559
700.536	0.0103195
700.614	0.0100472
700.693	0.00980652
700.771	0.00951698
700.849	0.00922310
700.927	0.00899971
701.005	0.00859650
701.083	0.00836151
701.161	0.00827591
701.239	0.00813004
701.318	0.00784973
701.396	0.00801918
701.474	0.00806374
701.552	0.00825066
701.630	0.00857727
701.708	0.00896027
701.786	0.00951057
701.864	0.0102272
701.943	0.0110964
702.021	0.0121252
702.099	0.0131077
702.177	0.0140582
702.255	0.0149716
702.333	0.0160968
702.411	0.0170720
702.489	0.0180190
702.568	0.0187325
702.646	0.0192809
702.724	0.0200248
702.802	0.0204173
702.880	0.0206696
702.958	0.0209098
703.036	0.0209196
703.114	0.0209348
703.193	0.0209045
703.271	0.0206648
703.349	0.0203400
703.427	0.0199857
703.505	0.0197131
703.583	0.0191650
703.661	0.0184425
703.739	0.0177835
703.818	0.0170336
703.896	0.0163007
703.974	0.0153894
704.052	0.0146320
704.130	0.0140746
704.208	0.0135354
704.286	0.0125755
704.364	0.0119543
704.443	0.0114642
704.521	0.0110851
704.599	0.0105007
704.677	0.0103218
704.755	0.0100459
704.833	0.00975014
704.911	0.00952843
704.989	0.00933960
705.068	0.00927666
705.146	0.00929504
705.224	0.00908554
705.302	0.00926857
705.380	0.00917999
705.458	0.00921204
705.536	0.00919724
705.614	0.00927406
705.693	0.00910538
705.771	0.00896942
705.849	0.00905220
705.927	0.00910515
706.005	0.00921097
706.083	0.00932076
706.161	0.00935913
706.239	0.00971176
706.318	0.00992081
706.396	0.0102703
706.474	0.0107246
706.552	0.0112915
706.630	0.0118693
706.708	0.0127030
706.786	0.0133473
706.864	0.0142971
706.943	0.0151798
707.021	0.0159531
707.099	0.0166666
707.177	0.0173424
707.255	0.0181879
707.333	0.0185979
707.411	0.0191121
707.489	0.0193449
707.568	0.0196473
707.646	0.0197932
707.724	0.0197066
707.802	0.0197137
707.880	0.0194765
707.958	0.0193929
708.036	0.0191091
708.114	0.0186877
708.193	0.0183682
708.271	0.0179187
708.349	0.0174100
708.427	0.0172251
708.505	0.0166730
708.583	0.0160009
708.661	0.0154120
708.739	0.0149866
708.818	0.0147615
708.896	0.0143008
708.974	0.0137853
709.052	0.0132444
709.130	0.0129143
709.208	0.0123590
709.286	0.0119681
709.364	0.0117599
709.443	0.0113696
709.521	0.0110181
709.599	0.0107122
709.677	0.0106767
709.755	0.0104075
709.833	0.0102616
709.911	0.0102435
709.989	0.0101625
710.068	0.0101658
710.146	0.0101807
710.224	0.0100259
710.302	0.0101750
710.380	0.0105126
710.458	0.0103607
710.536	0.0104269
710.614	0.0106012
710.693	0.0107162
710.771	0.0107720
710.849	0.0109660
710.927	0.0110390
711.005	0.0112252
711.083	0.0115153
711.161	0.0114739
711.239	0.0116232
711.318	0.0120125
711.396	0.0122820
711.474	0.0126727
711.552	0.0130779
711.630	0.0134267
711.708	0.0138292
711.786	0.0141610
711.864	0.0145343
711.943	0.0146597
712.021	0.0149979
712.099	0.0153395
712.177	0.0154866
712.255	0.0155886
712.333	0.0156151
712.411	0.0156977
712.489	0.0156786
712.568	0.0156098
712.646	0.0156025
712.724	0.0157653
712.802	0.0158868
712.880	0.0158905
712.958	0.0160524
713.036	0.0160391
713.114	0.0161428
713.193	0.0162074
713.271	0.0162950
713.349	0.0163142
713.427	0.0162998
713.505	0.0163537
713.583	0.0163993
713.661	0.0164830
713.739	0.0163883
713.818	0.0163647
713.896	0.0164068
713.974	0.0161211
714.052	0.0160155
714.130	0.0158415
714.208	0.0155286
714.286	0.0154697
714.364	0.0151763
714.443	0.0149550
714.521	0.0144627
714.599	0.0139674
714.677	0.0135442
714.755	0.0130432
714.833	0.0126181
714.911	0.0121979
714.989	0.0115010
715.068	0.0110677
715.146	0.0106679
715.224	0.0101666
715.302	0.00988846
715.380	0.00932831
715.458	0.00889900
715.536	0.00874611
715.614	0.00864243
715.693	0.00856239
715.771	0.00853661
715.849	0.00881699
715.927	0.00904152
716.005	0.00922356
716.083	0.00964371
716.161	0.0101906
716.239	0.0107044
716.318	0.0112448
716.396	0.0119084
716.474	0.0123682
716.552	0.0131596
716.630	0.0136072
716.708	0.0142953
716.786	0.0148207
716.864	0.0151194
716.943	0.0154958
717.021	0.0158318
717.099	0.0160087
717.177	0.0162263
717.255	0.0163369
717.333	0.0162222
717.411	0.0160896
717.489	0.0159578
717.568	0.0159338
717.646	0.0155453
717.724	0.0153294
717.802	0.0150123
717.880	0.0146932
717.958	0.0144831
718.036	0.0144643
718.114	0.0142038
718.193	0.0140095
718.271	0.0139947
718.349	0.0139600
718.427	0.0141838
718.505	0.0142625
718.583	0.0145639
718.661	0.0147029
718.739	0.0148395
718.818	0.0151963
718.896	0.0156277
718.974	0.0157320
719.052	0.0158715
719.130	0.0160434
719.208	0.0161919
719.286	0.0162347
719.364	0.0161841
719.443	0.0162066
719.521	0.0162535
719.599	0.0158581
719.677	0.0155611
719.755	0.0152155
719.833	0.0147808
719.911	0.0144048
719.989	0.0139154
720.068	0.0136061
720.146	0.0130030
720.224	0.0125272
720.302	0.0120983
720.380	0.0116618
720.458	0.0111571
720.536	0.0108096
720.614	0.0103455
720.693	0.0101226
720.771	0.00999710
720.849	0.00977386
720.927	0.00976761
721.005	0.00965439
721.083	0.00992256
721.161	0.0101947
721.239	0.0105350
721.318	0.0107565
721.396	0.0111312
721.474	0.0115518
721.552	0.0121513
721.630	0.0125311
721.708	0.0129785
721.786	0.0131916
721.864	0.0136285
721.943	0.0138067
722.021	0.0140238
722.099	0.0142990
722.177	0.0143985
722.255	0.0144902
722.333	0.0145251
722.411	0.0144389
722.489	0.0141993
722.568	0.0141325
722.646	0.0140840
722.724	0.0139617
722.802	0.0138396
722.880	0.0137286
722.958	0.0137049
723.036	0.0136960
723.114	0.0135826
723.193	0.0136787
723.271	0.0137941
723.349	0.0139224
723.427	0.0140347
723.505	0.0141090
723.583	0.0141355
723.661	0.0143502
723.739	0.0146610
723.818	0.0147518
723.896	0.0149176
723.974	0.0151131
724.052	0.0152441
724.130	0.0153088
724.208	0.0154928
724.286	0.0155856
724.364	0.0156836
724.443	0.0155753
724.521	0.0155848
724.599	0.0155965
724.677	0.0154337
724.755	0.0153513
724.833	0.0151186
724.911	0.0149459
724.989	0.0147583
725.068	0.0146519
725.146	0.0143993
725.224	0.0141497
725.302	0.0140341
725.380	0.0138159
725.458	0.0135979
725.536	0.0135157
725.614	0.0135295
725.693	0.0132529
725.771	0.0133196
725.849	0.0131558
725.927	0.0130315
726.005	0.0129520
726.083	0.0130421
726.161	0.0129687
726.239	0.0128417
726.318	0.0128559
726.396	0.0127271
726.474	0.0125397
726.552	0.0126551
726.630	0.0126493
726.708	0.0121983
726.786	0.0122066
726.864	0.0121468
726.943	0.0120530
727.021	0.0119949
727.099	0.0118000
727.177	0.0117232
727.255	0.0117443
727.333	0.0115299
727.411	0.0115251
727.489	0.0115919
727.568	0.0118125
727.646	0.0117924
727.724	0.0119546
727.802	0.0120441
727.880	0.0123340
727.958	0.0125046
728.036	0.0127376
728.114	0.0129667
728.193	0.0134229
728.271	0.0136483
728.349	0.0139505
728.427	0.0141934
728.505	0.0144956
728.583	0.0147580
728.661	0.0148881
728.739	0.0150794
728.818	0.0152350
728.896	0.0152973
728.974	0.0154185
729.052	0.0153882
729.130	0.0153220
729.208	0.0153303
729.286	0.0151876
729.364	0.0150838
729.443	0.0149706
729.521	0.0148490
729.599	0.0149140
729.677	0.0147202
729.755	0.0146693
729.833	0.0144768
729.911	0.0144119
729.989	0.0142942
730.068	0.0143716
730.146	0.0143343
730.224	0.0143887
730.302	0.0143163
730.380	0.0143476
730.458	0.0144077
730.536	0.0144429
730.614	0.0144822
730.693	0.0144828
730.771	0.0143522
730.849	0.0143271
730.927	0.0144044
731.005	0.0142760
731.083	0.0142618
731.161	0.0143608
731.239	0.0141782
731.318	0.0140234
731.396	0.0138967
731.474	0.0138070
731.552	0.0137904
731.630	0.0136040
731.708	0.0133280
731.786	0.0132117
731.864	0.0130701
731.943	0.0128683
732.021	0.0126189
732.099	0.0124863
732.177	0.0123992
732.255	0.0124355
732.333	0.0122009
732.411	0.0120935
732.489	0.0120870
732.568	0.0120020
732.646	0.0120609
732.724	0.0121024
732.802	0.0120867
732.880	0.0122505
732.958	0.0120804
733.036	0.0122357
733.114	0.0123463
733.193	0.0124295
733.271	0.0124152
733.349	0.0124471
733.427	0.0125264
733.505	0.0127329
733.583	0.0128182
733.661	0.0129195
733.739	0.0130409
733.818	0.0130402
733.896	0.0132504
733.974	0.0133533
734.052	0.0136242
734.130	0.0136189
734.208	0.0137581
734.286	0.0139477
734.364	0.0140635
734.443	0.0142460
734.521	0.0144640
734.599	0.0145696
734.677	0.0144646
734.755	0.0145898
734.833	0.0146696
734.911	0.0148516
734.989	0.0147560
735.068	0.0149294
735.146	0.0150372
735.224	0.0150377
735.302	0.0150334
735.380	0.0149924
735.458	0.0150976
735.536	0.0150094
735.614	0.0152129
735.693	0.0150400
735.771	0.0149599
735.849	0.0148685
735.927	0.0149123
736.005	0.0146025
736.083	0.0146441
736.161	0.0143403
736.239	0.0142330
736.318	0.0139813
736.396	0.0137615
736.474	0.0134840
736.552	0.0134058
736.630	0.0133540
736.708	0.0132323
736.786	0.0130662
736.864	0.0130307
736.943	0.0129276
737.021	0.0128837
737.099	0.0130088
737.177	0.0130556
737.255	0.0130816
737.333	0.0131868
737.411	0.0134037
737.489	0.0134282
737.568	0.0134657
737.646	0.0134845
737.724	0.0136202
737.802	0.0136824
737.880	0.0135784
737.958	0.0135223
738.036	0.0135666
738.114	0.0134700
738.193	0.0133523
738.271	0.0132874
738.349	0.0130946
738.427	0.0132085
738.505	0.0129761
738.583	0.0128346
738.661	0.0128930
738.739	0.0127451
738.818	0.0124736
738.896	0.0126229
738.974	0.0124570
739.052	0.0124496
739.130	0.0124735
739.208	0.0125051
739.286	0.0123329
739.364	0.0124435
739.443	0.0125216
739.521	0.0126011
739.599	0.0127001
739.677	0.0127387
739.755	0.0130074
739.833	0.0131441
739.911	0.0131116
739.989	0.0133883
740.068	0.0135041
740.146	0.0137068
740.224	0.0139919
740.302	0.0141232
740.380	0.0143466
740.458	0.0144007
740.536	0.0145614
740.614	0.0148105
740.693	0.0146401
740.771	0.0148250
740.849	0.0147559
740.927	0.0148172
741.005	0.0147382
741.083	0.0146286
741.161	0.0146484
741.239	0.0144287
741.318	0.0144706
741.396	0.0143042
741.474	0.0141480
741.552	0.0140023
741.630	0.0140073
741.708	0.0138187
741.786	0.0137679
741.864	0.0136897
741.943	0.0138103
742.021	0.0137785
742.099	0.0138125
742.177	0.0137937
742.255	0.0137038
742.333	0.0136689
742.411	0.0137303
742.489	0.0137766
742.568	0.0136443
742.646	0.0136571
742.724	0.0136943
742.802	0.0136703
742.880	0.0136265
742.958	0.0135339
743.036	0.0136938
743.114	0.0136510
743.193	0.0136209
743.271	0.0137026
743.349	0.0137310
743.427	0.0137155
743.505	0.0137584
743.583	0.0137291
743.661	0.0137639
743.739	0.0136259
743.818	0.0136076
743.896	0.0137325
743.974	0.0135394
744.052	0.0133891
744.130	0.0134415
744.208	0.0133786
744.286	0.0132009
744.364	0.0131923
744.443	0.0132436
744.521	0.0130650
744.599	0.0131090
744.677	0.0130247
744.755	0.0131593
744.833	0.0130566
744.911	0.0130759
744.989	0.0130563
745.068	0.0129138
745.146	0.0130836
745.224	0.0130709
745.302	0.0129708
745.380	0.0129903
745.458	0.0129518
745.536	0.0130631
745.614	0.0129895
745.693	0.0130428
745.771	0.0131444
745.849	0.0130607
745.927	0.0130312
746.005	0.0130276
746.083	0.0132822
746.161	0.0132047
746.239	0.0132842
746.318	0.0133540
746.396	0.0135519
746.474	0.0136215
746.552	0.0138268
746.630	0.0138084
746.708	0.0139731
746.786	0.0142361
746.864	0.0144529
746.943	0.0144806
747.021	0.0144629
747.099	0.0144920
747.177	0.0144556
747.255	0.0143318
747.333	0.0143718
747.411	0.0142620
747.489	0.0144486
747.568	0.0143233
747.646	0.0142591
747.724	0.0142270
747.802	0.0142323
747.880	0.0140408
747.958	0.0141084
748.036	0.0141154
748.114	0.0140574
748.193	0.0140121
748.271	0.0139737
748.349	0.0139336
748.427	0.0137963
748.505	0.0139628
748.583	0.0137962
748.661	0.0137132
748.739	0.0137155
748.818	0.0138537
748.896	0.0137300
748.974	0.0136124
749.052	0.0137142
749.130	0.0136872
749.208	0.0136801
749.286	0.0136679
749.364	0.0136945
749.443	0.0136167
749.521	0.0136913
749.599	0.0138052
749.677	0.0136909
749.755	0.0137373
749.833	0.0137762
749.911	0.0137181
749.989	0.0136237
750.068	0.0135297
750.146	0.0135160
750.224	0.0134230
750.302	0.0133063
750.380	0.0132390
750.458	0.0131673
750.536	0.0130135
750.614	0.0128871
750.693	0.0129392
750.771	0.0128913
750.849	0.0126874
750.927	0.0128526
751.005	0.0128371
751.083	0.0127104
751.161	0.0128436
751.239	0.0129758
751.318	0.0130295
751.396	0.0131986
751.474	0.0132049
751.552	0.0132424
751.630	0.0133230
751.708	0.0133663
751.786	0.0133154
751.864	0.0134305
751.943	0.0134505
752.021	0.0133929
752.099	0.0134211
752.177	0.0137231
752.255	0.0135590
752.333	0.0136754
752.411	0.0138673
752.489	0.0138117
752.568	0.0140830
752.646	0.0139439
752.724	0.0139589
752.802	0.0141235
752.880	0.0142300
752.958	0.0141100
753.036	0.0143062
753.114	0.0142069
753.193	0.0142503
753.271	0.0140742
753.349	0.0139341
753.427	0.0139776
753.505	0.0138816
753.583	0.0138851
753.661	0.0138255
753.739	0.0137398
753.818	0.0138322
753.896	0.0138192
753.974	0.0136859
754.052	0.0136819
754.130	0.0137373
754.208	0.0138078
754.286	0.0139286
754.364	0.0139585
754.443	0.0139346
754.521	0.0139333
754.599	0.0139568
754.677	0.0137535
754.755	0.0138640
754.833	0.0138976
754.911	0.0137843
754.989	0.0137241
755.068	0.0136645
755.146	0.0137277
755.224	0.0134953
755.302	0.0135468
755.380	0.0135419
755.458	0.0136133
755.536	0.0134888
755.614	0.0135802
755.693	0.0137005
755.771	0.0136535
755.849	0.0134670
755.927	0.0136388
756.005	0.0135649
756.083	0.0135840
756.161	0.0135300
756.239	0.0135210
756.318	0.0136427
756.396	0.0136308
756.474	0.0135491
756.552	0.0136003
756.630	0.0135441
756.708	0.0135191
756.786	0.0135092
756.864	0.0135876
756.943	0.0134123
757.021	0.0134078
757.099	0.0134517
757.177	0.0134339
757.255	0.0133783
757.333	0.0132362
757.411	0.0133866
757.489	0.0131402
757.568	0.0131924
757.646	0.0133669
757.724	0.0133078
757.802	0.0132028
757.880	0.0131379
757.958	0.0132666
758.036	0.0131149
758.114	0.0130698
758.193	0.0130027
758.271	0.0131619
758.349	0.0133100
758.427	0.0133320
758.505	0.0132743
758.583	0.0133073
758.661	0.0134054
758.739	0.0134354
758.818	0.0135914
758.896	0.0136636
758.974	0.0136797
759.052	0.0138176
759.130	0.0138869
759.208	0.0138540
759.286	0.0140738
759.364	0.0140314
759.443	0.0139864
759.521	0.0139028
759.599	0.0139379
759.677	0.0140887
759.755	0.0140250
759.833	0.0141411
759.911	0.0138474
759.989	0.0139294
760.068	0.0139093
760.146	0.0139627
760.224	0.0139033
760.302	0.0140181
760.380	0.0138731
760.458	0.0139780
760.536	0.0138797
760.614	0.0138636
760.693	0.0138906
760.771	0.0138191
760.849	0.0138509
760.927	0.0139426
761.005	0.0138812
761.083	0.0138366
761.161	0.0139465
761.239	0.0136379
761.318	0.0135696
761.396	0.0135558
761.474	0.0134924
761.552	0.0135868
761.630	0.0134540
761.708	0.0134572
761.786	0.0136089
761.864	0.0136894
761.943	0.0135480
762.021	0.0135834
762.099	0.0135535
762.177	0.0135921
762.255	0.0135180
762.333	0.0136849
762.411	0.0135394
762.489	0.0136566
762.568	0.0136758
762.646	0.0136082
762.724	0.0135526
762.802	0.0135828
762.880	0.0136183
762.958	0.0135050
763.036	0.0135949
763.114	0.0135561
763.193	0.0136089
763.271	0.0135481
763.349	0.0135604
763.427	0.0134525
763.505	0.0135828
763.583	0.0133747
763.661	0.0131634
763.739	0.0132201
763.818	0.0132742
763.896	0.0133312
763.974	0.0132074
764.052	0.0131703
764.130	0.0133483
764.208	0.0131717
764.286	0.0132009
764.364	0.0132665
764.443	0.0133430
764.521	0.0132486
764.599	0.0133424
764.677	0.0133128
764.755	0.0132635
764.833	0.0133966
764.911	0.0134225
764.989	0.0133542
765.068	0.0134666
765.146	0.0134337
765.224	0.0134296
765.302	0.0134458
765.380	0.0134077
765.458	0.0136698
765.536	0.0136340
765.614	0.0138015
765.693	0.0137725
765.771	0.0138114
765.849	0.0139119
765.927	0.0140246
766.005	0.0139605
766.083	0.0140698
766.161	0.0141315
766.239	0.0141644
766.318	0.0140866
766.396	0.0142617
766.474	0.0141351
766.552	0.0141721
766.630	0.0143172
766.708	0.0141709
766.786	0.0141753
766.864	0.0140530
766.943	0.0141441
767.021	0.0141353
767.099	0.0139280
767.177	0.0139278
767.255	0.0137687
767.333	0.0137172
767.411	0.0137466
767.489	0.0137593
767.568	0.0136340
767.646	0.0134894
767.724	0.0136139
767.802	0.0136155
767.880	0.0136704
767.958	0.0135925
768.036	0.0134150
768.114	0.0134385
768.193	0.0134822
768.271	0.0134852
768.349	0.0132818
768.427	0.0133996
768.505	0.0134785
768.583	0.0134217
768.661	0.0134159
768.739	0.0133954
768.818	0.0133987
768.896	0.0133945
768.974	0.0135950
769.052	0.0134792
769.130	0.0135625
769.208	0.0135851
769.286	0.0136722
769.364	0.0135861
769.443	0.0137773
769.521	0.0137383
769.599	0.0136307
769.677	0.0136322
769.755	0.0138548
769.833	0.0137373
769.911	0.0137225
769.989	0.0137938
770.068	0.0139139
770.146	0.0139011
770.224	0.0137067
770.302	0.0138948
770.380	0.0137840
770.458	0.0138937
770.536	0.0135981
770.614	0.0136789
770.693	0.0136366
770.771	0.0135072
770.849	0.0134861
770.927	0.0135378
771.005	0.0133313
771.083	0.0133829
771.161	0.0133771
771.239	0.0133109
771.318	0.0133164
771.396	0.0131743
771.474	0.0131703
771.552	0.0133627
771.630	0.0132987
771.708	0.0132128
771.786	0.0133335
771.864	0.0133262
771.943	0.0133106
772.021	0.0134227
772.099	0.0134107
772.177	0.0134402
772.255	0.0134988
772.333	0.0135275
772.411	0.0137438
772.489	0.0137505
772.568	0.0137783
772.646	0.0137673
772.724	0.0139075
772.802	0.0139523
772.880	0.0140430
772.958	0.0139912
773.036	0.0140993
773.114	0.0140390
773.193	0.0140862
773.271	0.0141509
773.349	0.0141734
773.427	0.0140771
773.505	0.0138874
773.583	0.0140417
773.661	0.0139184
773.739	0.0138960
773.818	0.0139657
773.896	0.0138547
773.974	0.0137183
774.052	0.0137919
774.130	0.0138472
774.208	0.0137923
774.286	0.0136301
774.364	0.0136900
774.443	0.0136840
774.521	0.0136282
774.599	0.0137625
774.677	0.0136360
774.755	0.0135671
774.833	0.0137490
774.911	0.0137344
774.989	0.0137931
775.068	0.0137282
775.146	0.0136311
775.224	0.0136459
775.302	0.0136751
775.380	0.0135753
775.458	0.0136921
775.536	0.0137006
775.614	0.0136646
775.693	0.0136481
775.771	0.0136532
775.849	0.0136166
775.927	0.0135712
776.005	0.0137428
776.083	0.0136004
776.161	0.0135465
776.239	0.0134254
776.318	0.0134850
776.396	0.0134710
776.474	0.0133814
776.552	0.0134282
776.630	0.0134032
776.708	0.0133869
776.786	0.0133850
776.864	0.0131961
776.943	0.0133864
777.021	0.0132313
777.099	0.0133173
777.177	0.0133425
777.255	0.0132361
777.333	0.0134490
777.411	0.0134858
777.489	0.0134292
777.568	0.0135275
777.646	0.0135344
777.724	0.0134954
777.802	0.0135506
777.880	0.0135848
777.958	0.0136419
778.036	0.0134960
778.114	0.0136683
778.193	0.0135308
778.271	0.0136227
778.349	0.0136604
778.427	0.0137988
778.505	0.0136407
778.583	0.0137235
778.661	0.0138454
778.739	0.0137284
778.818	0.0138315
778.896	0.0140433
778.974	0.0139059
779.052	0.0138506
779.130	0.0139261
779.208	0.0140914
779.286	0.0139124
779.364	0.0140440
779.443	0.0140046
779.521	0.0138870
779.599	0.0140639
779.677	0.0138640
779.755	0.0137043
779.833	0.0139431
779.911	0.0136622
779.989	0.0136651
780.068	0.0137476
780.146	0.0136612
780.224	0.0135620
780.302	0.0136148
780.380	0.0136375
780.458	0.0135576
780.536	0.0136758
780.614	0.0135459
780.693	0.0135248
780.771	0.0136224
780.849	0.0135664
780.927	0.0137492
781.005	0.0136714
781.083	0.0136409
781.161	0.0136828
781.239	0.0137978
781.318	0.0136007
781.396	0.0135685
781.474	0.0136165
781.552	0.0137243
781.630	0.0137220
781.708	0.0137640
781.786	0.0138102
781.864	0.0136493
781.943	0.0136366
782.021	0.0137297
782.099	0.0136132
782.177	0.0138029
782.255	0.0138029
782.333	0.0139135
782.411	0.0137018
782.489	0.0137516
782.568	0.0136515
782.646	0.0137732
782.724	0.0136701
782.802	0.0136153
782.880	0.0136585
782.958	0.0136469
783.036	0.0136663
783.114	0.0136027
783.193	0.0135689
783.271	0.0136228
783.349	0.0136401
783.427	0.0137065
783.505	0.0136314
783.583	0.0137115
783.661	0.0136146
783.739	0.0136310
783.818	0.0136548
783.896	0.0137332
783.974	0.0135712
784.052	0.0135677
784.130	0.0135809
784.208	0.0134006
784.286	0.0135331
784.364	0.0136247
784.443	0.0135924
784.521	0.0133490
784.599	0.0134444
784.677	0.0134135
784.755	0.0133627
784.833	0.0133280
784.911	0.0133543
784.989	0.0133554
785.068	0.0133023
785.146	0.0132804
785.224	0.0133760
785.302	0.0133614
785.380	0.0133788
785.458	0.0135981
785.536	0.0135541
785.614	0.0134775
785.693	0.0135447
785.771	0.0137283
785.849	0.0136092
785.927	0.0136299
786.005	0.0137386
786.083	0.0137233
786.161	0.0140083
786.239	0.0139423
786.318	0.0138417
786.396	0.0138892
786.474	0.0139613
786.552	0.0140937
786.630	0.0142177
786.708	0.0140538
786.786	0.0141718
786.864	0.0140865
786.943	0.0141125
787.021	0.0143024
787.099	0.0141958
787.177	0.0141790
787.255	0.0140118
787.333	0.0140491
787.411	0.0139965
787.489	0.0138966
787.568	0.0138784
787.646	0.0139718
787.724	0.0137373
787.802	0.0136714
787.880	0.0137436
787.958	0.0136349
788.036	0.0135324
788.114	0.0134457
788.193	0.0134502
788.271	0.0134361
788.349	0.0132672
788.427	0.0132378
788.505	0.0131371
788.583	0.0131344
788.661	0.0131264
788.739	0.0131422
788.818	0.0130540
788.896	0.0130614
788.974	0.0128908
789.052	0.0131193
789.130	0.0130812
789.208	0.0129968
789.286	0.0131100
789.364	0.0130767
789.443	0.0132648
789.521	0.0133162
789.599	0.0133053
789.677	0.0133123
789.755	0.0134570
789.833	0.0135108
789.911	0.0136436
789.989	0.0137000
790.068	0.0137424
790.146	0.0139371
790.224	0.0139153
790.302	0.0138981
790.380	0.0140379
790.458	0.0139513
790.536	0.0141702
790.614	0.0140763
790.693	0.0141712
790.771	0.0140327
790.849	0.0140180
790.927	0.0140765
791.005	0.0139949
791.083	0.0138605
791.161	0.0139932
791.239	0.0140574
791.318	0.0139055
791.396	0.0140367
791.474	0.0139556
791.552	0.0139529
791.630	0.0139645
791.708	0.0139788
791.786	0.0139285
791.864	0.0140104
791.943	0.0140814
792.021	0.0141183
792.099	0.0140035
792.177	0.0139551
792.255	0.0140243
792.333	0.0139807
792.411	0.0138979
792.489	0.0137619
792.568	0.0137559
792.646	0.0136960
792.724	0.0135916
792.802	0.0135072
792.880	0.0133879
792.958	0.0133083
793.036	0.0132211
793.114	0.0130967
793.193	0.0131210
793.271	0.0130836
793.349	0.0128922
793.427	0.0128280
793.505	0.0127980
793.583	0.0127624
793.661	0.0127744
793.739	0.0129388
793.818	0.0128932
793.896	0.0130005
793.974	0.0129317
794.052	0.0130278
794.130	0.0132987
794.208	0.0133778
794.286	0.0134303
794.364	0.0133924
794.443	0.0137600
794.521	0.0137910
794.599	0.0139470
794.677	0.0141081
794.755	0.0142930
794.833	0.0142992
794.911	0.0142970
794.989	0.0143965
795.068	0.0145409
795.146	0.0145950
795.224	0.0144632
795.302	0.0145432
795.380	0.0143733
795.458	0.0144571
795.536	0.0142978
795.614	0.0142952
795.693	0.0144169
795.771	0.0142271
795.849	0.0141236
795.927	0.0141442
796.005	0.0140196
796.083	0.0140342
796.161	0.0138992
796.239	0.0138763
796.318	0.0138177
796.396	0.0137475
796.474	0.0137896
796.552	0.0137135
796.630	0.0137086
796.708	0.0135014
796.786	0.0136325
796.864	0.0135757
796.943	0.0134701
797.021	0.0133644
797.099	0.0133559
797.177	0.0134020
797.255	0.0131014
797.333	0.0131503
797.411	0.0131270
797.489	0.0129865
797.568	0.0129236
797.646	0.0128625
797.724	0.0128678
797.802	0.0127864
797.880	0.0127899
797.958	0.0127538
798.036	0.0127728
798.114	0.0125893
798.193	0.0127814
798.271	0.0128028
798.349	0.0128445
798.427	0.0129889
798.505	0.0129459
798.583	0.0129503
798.661	0.0132666
798.739	0.0134739
798.818	0.0134134
798.896	0.0134805
798.974	0.0136530
799.052	0.0138414
799.130	0.0141174
799.208	0.0142068
799.286	0.0143478
799.364	0.0144666
799.443	0.0145088
799.521	0.0145489
799.599	0.0146680
799.677	0.0146036
799.755	0.0145322
799.833	0.0147664
799.911	0.0147586
799.989	0.0146351
800.068	0.0145757
800.146	0.0144652
800.224	0.0144263
800.302	0.0143533
800.380	0.0142043
800.458	0.0140962
800.536	0.0142159
800.614	0.0141347
800.693	0.0139362
800.771	0.0138905
800.849	0.0138794
800.927	0.0138012
801.005	0.0138071
801.083	0.0137960
801.161	0.0137789
801.239	0.0136556
801.318	0.0135519
801.396	0.0133919
801.474	0.0134541
801.552	0.0132728
801.630	0.0132054
801.708	0.0132412
801.786	0.0131928
801.864	0.0131819
801.943	0.0130325
802.021	0.0130196
802.099	0.0129655
802.177	0.0129176
802.255	0.0129630
802.333	0.0128521
802.411	0.0128306
802.489	0.0128138
802.568	0.0128616
802.646	0.0128452
802.724	0.0129388
802.802	0.0130547
802.880	0.0130584
802.958	0.0130646
803.036	0.0130769
803.114	0.0130585
803.193	0.0131896
803.271	0.0131796
803.349	0.0133723
803.427	0.0134836
803.505	0.0135049
803.583	0.0135812
803.661	0.0136274
803.739	0.0138250
803.818	0.0139546
803.896	0.0139520
803.974	0.0139761
804.052	0.0142138
804.130	0.0143607
804.208	0.0143552
804.286	0.0145169
804.364	0.0143870
804.443	0.0144281
804.521	0.0145918
804.599	0.0145665
804.677	0.0145651
804.755	0.0145378
804.833	0.0144425
804.911	0.0143893
804.989	0.0144541
805.068	0.0143092
805.146	0.0142725
805.224	0.0140425
805.302	0.0140695
805.380	0.0140340
805.458	0.0138803
805.536	0.0139780
805.614	0.0139520
805.693	0.0137029
805.771	0.0137413
805.849	0.0137777
805.927	0.0136663
806.005	0.0136692
806.083	0.0136653
806.161	0.0134843
806.239	0.0134959
806.318	0.0134611
806.396	0.0133031
806.474	0.0133120
806.552	0.0133110
806.630	0.0131769
806.708	0.0133026
806.786	0.0133977
806.864	0.0131483
806.943	0.0132217
807.021	0.0131211
807.099	0.0132201
807.177	0.0130383
807.255	0.0130367
807.333	0.0131069
807.411	0.0130660
807.489	0.0131606
807.568	0.0132088
807.646	0.0133415
807.724	0.0130802
807.802	0.0130915
807.880	0.0132368
807.958	0.0132826
808.036	0.0132004
808.114	0.0132626
808.193	0.0134875
808.271	0.0135510
808.349	0.0135719
808.427	0.0136529
808.505	0.0135303
808.583	0.0138128
808.661	0.0137377
808.739	0.0137420
808.818	0.0138495
808.896	0.0139611
808.974	0.0139053
809.052	0.0138093
809.130	0.0139690
809.208	0.0138477
809.286	0.0139560
809.364	0.0140482
809.443	0.0139962
809.521	0.0139294
809.599	0.0140360
809.677	0.0139301
809.755	0.0139159
809.833	0.0139191
809.911	0.0140125
809.989	0.0139855
810.068	0.0140273
810.146	0.0140283
810.224	0.0139975
810.302	0.0140316
810.380	0.0141364
810.458	0.0141039
810.536	0.0142670
810.614	0.0141521
810.693	0.0142414
810.771	0.0142000
810.849	0.0141199
810.927	0.0140540
811.005	0.0139271
811.083	0.0139873
811.161	0.0139160
811.239	0.0137981
811.318	0.0137106
811.396	0.0135284
811.474	0.0135558
811.552	0.0135442
811.630	0.0135148
811.708	0.0133855
811.786	0.0133081
811.864	0.0131779
811.943	0.0131882
812.021	0.0131387
812.099	0.0131785
812.177	0.0130920
812.255	0.0130210
812.333	0.0129794
812.411	0.0130701
812.489	0.0129857
812.568	0.0130177
812.646	0.0130006
812.724	0.0130535
812.802	0.0129262
812.880	0.0128814
812.958	0.0128793
813.036	0.0130812
813.114	0.0130669
813.193	0.0128926
813.271	0.0130539
813.349	0.0133180
813.427	0.0131933
813.505	0.0132687
813.583	0.0132922
813.661	0.0134061
813.739	0.0134761
813.818	0.0134704
813.896	0.0136137
813.974	0.0136454
814.052	0.0137168
814.130	0.0137275
814.208	0.0137193
814.286	0.0137667
814.364	0.0138050
814.443	0.0138206
814.521	0.0139755
814.599	0.0138267
814.677	0.0139005
814.755	0.0140910
814.833	0.0140981
814.911	0.0141117
814.989	0.0140763
815.068	0.0142272
815.146	0.0142836
815.224	0.0142871
815.302	0.0142369
815.380	0.0146492
815.458	0.0144506
815.536	0.0143707
815.614	0.0144994
815.693	0.0143736
815.771	0.0144789
815.849	0.0144656
815.927	0.0143954
816.005	0.0141716
816.083	0.0142334
816.161	0.0142847
816.239	0.0141638
816.318	0.0140431
816.396	0.0138593
816.474	0.0139324
816.552	0.0139243
816.630	0.0137150
816.708	0.0136623
816.786	0.0136061
816.864	0.0134004
816.943	0.0134212
817.021	0.0132025
817.099	0.0131028
817.177	0.0131339
817.255	0.0131512
817.333	0.0129989
817.411	0.0128642
817.489	0.0127536
817.568	0.0128714
817.646	0.0126881
817.724	0.0126923
817.802	0.0126089
817.880	0.0127576
817.958	0.0126776
818.036	0.0125716
818.114	0.0128043
818.193	0.0126944
818.271	0.0127654
818.349	0.0128877
818.427	0.0129452
818.505	0.0129791
818.583	0.0131001
818.661	0.0130684
818.739	0.0132651
818.818	0.0134191
818.896	0.0133391
818.974	0.0134473
819.052	0.0136095
819.130	0.0134231
819.208	0.0133894
819.286	0.0136086
819.364	0.0136031
819.443	0.0137234
819.521	0.0137759
819.599	0.0137444
819.677	0.0138972
819.755	0.0137933
819.833	0.0139327
819.911	0.0139968
819.989	0.0139363
820.068	0.0140447
820.146	0.0142513
820.224	0.0141614
820.302	0.0141091
820.380	0.0142025
820.458	0.0142993
820.536	0.0142551
820.614	0.0141837
820.693	0.0142059
820.771	0.0142569
820.849	0.0141389
820.927	0.0141698
821.005	0.0141604
821.083	0.0141402
821.161	0.0141898
821.239	0.0140859
821.318	0.0140865
821.396	0.0140388
821.474	0.0140480
821.552	0.0140233
821.630	0.0139265
821.708	0.0139471
821.786	0.0137562
821.864	0.0136981
821.943	0.0137165
822.021	0.0135793
822.099	0.0135397
822.177	0.0135098
822.255	0.0135375
822.333	0.0132691
822.411	0.0133185
822.489	0.0133255
822.568	0.0131794
822.646	0.0132935
822.724	0.0131167
822.802	0.0130499
822.880	0.0131092
822.958	0.0131644
823.036	0.0129519
823.114	0.0130005
823.193	0.0129619
823.271	0.0128815
823.349	0.0130244
823.427	0.0129850
823.505	0.0129513
823.583	0.0127745
823.661	0.0127139
823.739	0.0129845
823.818	0.0129712
823.896	0.0129366
823.974	0.0129912
824.052	0.0130733
824.130	0.0132381
824.208	0.0131853
824.286	0.0131903
824.364	0.0133601
824.443	0.0135075
824.521	0.0134280
824.599	0.0135157
824.677	0.0135786
824.755	0.0138572
824.833	0.0138812
824.911	0.0139711
824.989	0.0139820
825.068	0.0139999
825.146	0.0141079
825.224	0.0140351
825.302	0.0141131
825.380	0.0141311
825.458	0.0142854
825.536	0.0141797
825.614	0.0142363
825.693	0.0142219
825.771	0.0142496
825.849	0.0141794
825.927	0.0140981
826.005	0.0142012
826.083	0.0140015
826.161	0.0140398
826.239	0.0140598
826.318	0.0141141
826.396	0.0140428
826.474	0.0139919
826.552	0.0140713
826.630	0.0140041
826.708	0.0139677
826.786	0.0138291
826.864	0.0138998
826.943	0.0139584
827.021	0.0138837
827.099	0.0138889
827.177	0.0137804
827.255	0.0138483
827.333	0.0138564
827.411	0.0137324
827.489	0.0137424
827.568	0.0137923
827.646	0.0138095
827.724	0.0135327
827.802	0.0134902
827.880	0.0135789
827.958	0.0132890
828.036	0.0134997
828.114	0.0132886
828.193	0.0132908
828.271	0.0132346
828.349	0.0133337
828.427	0.0131738
828.505	0.0132543
828.583	0.0132250
828.661	0.0130106
828.739	0.0131339
828.818	0.0130608
828.896	0.0133453
828.974	0.0133887
829.052	0.0131105
829.130	0.0132812
829.208	0.0132248
829.286	0.0132699
829.364	0.0132503
829.443	0.0132456
829.521	0.0132016
829.599	0.0131605
829.677	0.0131699
829.755	0.0133339
829.833	0.0133775
829.911	0.0131657
829.989	0.0133381
830.068	0.0131389
830.146	0.0132946
830.224	0.0132308
830.302	0.0131790
830.380	0.0133472
830.458	0.0134715
830.536	0.0131866
830.614	0.0131940
830.693	0.0134141
830.771	0.0134686
830.849	0.0135247
830.927	0.0135319
831.005	0.0135532
831.083	0.0137662
831.161	0.0138487
831.239	0.0137036
831.318	0.0138805
831.396	0.0140173
831.474	0.0139961
831.552	0.0140842
831.630	0.0141093
831.708	0.0140257
831.786	0.0142267
831.864	0.0140421
831.943	0.0140989
832.021	0.0141642
832.099	0.0141393
832.177	0.0140106
832.255	0.0141299
832.333	0.0140138
832.411	0.0140703
832.489	0.0140112
832.568	0.0139953
832.646	0.0137490
832.724	0.0138100
832.802	0.0138369
832.880	0.0136574
832.958	0.0135621
833.036	0.0135439
833.114	0.0135619
833.193	0.0134976
833.271	0.0134807
833.349	0.0134835
833.427	0.0132832
833.505	0.0132018
833.583	0.0133313
833.661	0.0132616
833.739	0.0132319
833.818	0.0133451
833.896	0.0133194
833.974	0.0132760
834.052	0.0132946
834.130	0.0132294
834.208	0.0133268
834.286	0.0134061
834.364	0.0133408
834.443	0.0132664
834.521	0.0132807
834.599	0.0130538
834.677	0.0133038
834.755	0.0132204
834.833	0.0132539
834.911	0.0131866
834.989	0.0131633
835.068	0.0132226
835.146	0.0130871
835.224	0.0132352
835.302	0.0133587
835.380	0.0133884
835.458	0.0133694
835.536	0.0134427
835.614	0.0132973
835.693	0.0135054
835.771	0.0135892
835.849	0.0136419
835.927	0.0137503
836.005	0.0136192
836.083	0.0137414
836.161	0.0139069
836.239	0.0139081
836.318	0.0138076
836.396	0.0138004
836.474	0.0140451
836.552	0.0140147
836.630	0.0140124
836.708	0.0137862
836.786	0.0139956
836.864	0.0139662
836.943	0.0138973
837.021	0.0140200
837.099	0.0138342
837.177	0.0138140
837.255	0.0138484
837.333	0.0138669
837.411	0.0137665
837.489	0.0137706
837.568	0.0138099
837.646	0.0137905
837.724	0.0136640
837.802	0.0136319
837.880	0.0135986
837.958	0.0134974
838.036	0.0134684
838.114	0.0135878
838.193	0.0133934
838.271	0.0134476
838.349	0.0135491
838.427	0.0135679
838.505	0.0133634
838.583	0.0133654
838.661	0.0134230
838.739	0.0132903
838.818	0.0133067
838.896	0.0133736
838.974	0.0134563
839.052	0.0133768
839.130	0.0136234
839.208	0.0132755
839.286	0.0133201
839.364	0.0134689
839.443	0.0134334
839.521	0.0134051
839.599	0.0135325
839.677	0.0134859
839.755	0.0134135
839.833	0.0135150
839.911	0.0135709
839.989	0.0135766
840.068	0.0135075
840.146	0.0136565
840.224	0.0136188
840.302	0.0137910
840.380	0.0138566
840.458	0.0137498
840.536	0.0138532
840.614	0.0138815
840.693	0.0138840
840.771	0.0138469
840.849	0.0136985
840.927	0.0137959
841.005	0.0138359
841.083	0.0138480
841.161	0.0138243
841.239	0.0138709
841.318	0.0138996
841.396	0.0138359
841.474	0.0137733
841.552	0.0137099
841.630	0.0137560
841.708	0.0137553
841.786	0.0136683
841.864	0.0134916
841.943	0.0135484
842.021	0.0136394
842.099	0.0136250
842.177	0.0135814
842.255	0.0135075
842.333	0.0134492
842.411	0.0134568
842.489	0.0134985
842.568	0.0135402
842.646	0.0135254
842.724	0.0134525
842.802	0.0134006
842.880	0.0136092
842.958	0.0134553
843.036	0.0134885
843.114	0.0134352
843.193	0.0135315
843.271	0.0136039
843.349	0.0136131
843.427	0.0137004
843.505	0.0136203
843.583	0.0134634
843.661	0.0135301
843.739	0.0134918
843.818	0.0135432
843.896	0.0135668
843.974	0.0136219
844.052	0.0136442
844.130	0.0135113
844.208	0.0134846
844.286	0.0136138
844.364	0.0135503
844.443	0.0135377
844.521	0.0135512
844.599	0.0133812
844.677	0.0134993
844.755	0.0134583
844.833	0.0134187
844.911	0.0136294
844.989	0.0135334
845.068	0.0134795
845.146	0.0135456
845.224	0.0136689
845.302	0.0135239
845.380	0.0135410
845.458	0.0136148
845.536	0.0136010
845.614	0.0136722
845.693	0.0136169
845.771	0.0137310
845.849	0.0136670
845.927	0.0136202
846.005	0.0136475
846.083	0.0138102
846.161	0.0137680
846.239	0.0136611
846.318	0.0137350
846.396	0.0139272
846.474	0.0139265
846.552	0.0137428
846.630	0.0138522
846.708	0.0138531
846.786	0.0138342
846.864	0.0139014
846.943	0.0138413
847.021	0.0137190
847.099	0.0137237
847.177	0.0136131
847.255	0.0136594
847.333	0.0135611
847.411	0.0135927
847.489	0.0137054
847.568	0.0134780
847.646	0.0135433
847.724	0.0135127
847.802	0.0134653
847.880	0.0134683
847.958	0.0134639
848.036	0.0132944
848.114	0.0132557
848.193	0.0134373
848.271	0.0132888
848.349	0.0131926
848.427	0.0132131
848.505	0.0133897
848.583	0.0133441
848.661	0.0133054
848.739	0.0132322
848.818	0.0133932
848.896	0.0134235
848.974	0.0133985
849.052	0.0134487
849.130	0.0136379
849.208	0.0135741
849.286	0.0135358
849.364	0.0135001
849.443	0.0136958
849.521	0.0136066
849.599	0.0135589
849.677	0.0137086
849.755	0.0136791
849.833	0.0137636
849.911	0.0139637
849.989	0.0137981
850.068	0.0135809
850.146	0.0137271
850.224	0.0137038
850.302	0.0138077
850.380	0.0137784
850.458	0.0135844
850.536	0.0137365
850.614	0.0138573
850.693	0.0137363
850.771	0.0136508
850.849	0.0136970
850.927	0.0136429
851.005	0.0137566
851.083	0.0137140
851.161	0.0136302
851.239	0.0136536
851.318	0.0139470
851.396	0.0136665
851.474	0.0137888
851.552	0.0138456
851.630	0.0136868
851.708	0.0138604
851.786	0.0138387
851.864	0.0136962
851.943	0.0137435
852.021	0.0138348
852.099	0.0137047
852.177	0.0137527
852.255	0.0138898
852.333	0.0137535
852.411	0.0137899
852.489	0.0137649
852.568	0.0136512
852.646	0.0136967
852.724	0.0134358
852.802	0.0134004
852.880	0.0135816
852.958	0.0133950
853.036	0.0133016
853.114	0.0133393
853.193	0.0135313
853.271	0.0134708
853.349	0.0132864
853.427	0.0132977
853.505	0.0132497
853.583	0.0133163
853.661	0.0133934
853.739	0.0134137
853.818	0.0134373
853.896	0.0134027
853.974	0.0134798
854.052	0.0134375
854.130	0.0134325
854.208	0.0134632
854.286	0.0134722
854.364	0.0134720
854.443	0.0135276
854.521	0.0135429
854.599	0.0135200
854.677	0.0134483
854.755	0.0134461
854.833	0.0135070
854.911	0.0135193
854.989	0.0135108
855.068	0.0135358
855.146	0.0136126
855.224	0.0136249
855.302	0.0135411
855.380	0.0136784
855.458	0.0136377
855.536	0.0137215
855.614	0.0136864
855.693	0.0137793
855.771	0.0136758
855.849	0.0137862
855.927	0.0136450
856.005	0.0137145
856.083	0.0138395
856.161	0.0137582
856.239	0.0137550
856.318	0.0137575
856.396	0.0138164
856.474	0.0138141
856.552	0.0137622
856.630	0.0138636
856.708	0.0138699
856.786	0.0137165
856.864	0.0138292
856.943	0.0137257
857.021	0.0136361
857.099	0.0137769
857.177	0.0136718
857.255	0.0136957
857.333	0.0137331
857.411	0.0137132
857.489	0.0136206
857.568	0.0136331
857.646	0.0136652
857.724	0.0135526
857.802	0.0135150
857.880	0.0135632
857.958	0.0135158
858.036	0.0136240
858.114	0.0137169
858.193	0.0136385
858.271	0.0135392
858.349	0.0135072
858.427	0.0135760
858.505	0.0136135
858.583	0.0135955
858.661	0.0135753
858.739	0.0136124
858.818	0.0136379
858.896	0.0134918
858.974	0.0136336
859.052	0.0135968
859.130	0.0136806
859.208	0.0135715
859.286	0.0133697
859.364	0.0135013
859.443	0.0135026
859.521	0.0134198
859.599	0.0133266
859.677	0.0134528
859.755	0.0134439
859.833	0.0135448
859.911	0.0135301
859.989	0.0134221
860.068	0.0133948
860.146	0.0135028
860.224	0.0135023
860.302	0.0135861
860.380	0.0136173
860.458	0.0136160
860.536	0.0138073
860.614	0.0137797
860.693	0.0135863
860.771	0.0135909
860.849	0.0138120
860.927	0.0136862
861.005	0.0138090
861.083	0.0138139
861.161	0.0138143
861.239	0.0135886
861.318	0.0136731
861.396	0.0137671
861.474	0.0138596
861.552	0.0138153
861.630	0.0137875
861.708	0.0138166
861.786	0.0139095
861.864	0.0139287
861.943	0.0138255
862.021	0.0136137
862.099	0.0136703
862.177	0.0138619
862.255	0.0138114
862.333	0.0137409
862.411	0.0138251
862.489	0.0136865
862.568	0.0137394
862.646	0.0136102
862.724	0.0136243
862.802	0.0136601
862.880	0.0137348
862.958	0.0136536
863.036	0.0137143
863.114	0.0135756
863.193	0.0135584
863.271	0.0136578
863.349	0.0136545
863.427	0.0137778
863.505	0.0137550
863.583	0.0136366
863.661	0.0137199
863.739	0.0137662
863.818	0.0136089
863.896	0.0136035
863.974	0.0136418
864.052	0.0136606
864.130	0.0135819
864.208	0.0137288
864.286	0.0136266
864.364	0.0136181
864.443	0.0136546
864.521	0.0135503
864.599	0.0136933
864.677	0.0136260
864.755	0.0136705
864.833	0.0136395
864.911	0.0137173
864.989	0.0135612
865.068	0.0137389
865.146	0.0137452
865.224	0.0136325
865.302	0.0137176
865.380	0.0136852
865.458	0.0137135
865.536	0.0136411
865.614	0.0137231
865.693	0.0135931
865.771	0.0136269
865.849	0.0136585
865.927	0.0136428
866.005	0.0135253
866.083	0.0134008
866.161	0.0134148
866.239	0.0133310
866.318	0.0133762
866.396	0.0134373
866.474	0.0133585
866.552	0.0134972
866.630	0.0134632
866.708	0.0134757
866.786	0.0135542
866.864	0.0134023
866.943	0.0134101
867.021	0.0135628
867.099	0.0136247
867.177	0.0136037
867.255	0.0135696
867.333	0.0135802
867.411	0.0136745
867.489	0.0136606
867.568	0.0135767
867.646	0.0135656
867.724	0.0137592
867.802	0.0137022
867.880	0.0136510
867.958	0.0137298
868.036	0.0137190
868.114	0.0138038
868.193	0.0138512
868.271	0.0137663
868.349	0.0137714
868.427	0.0138248
868.505	0.0137065
868.583	0.0138499
868.661	0.0137308
868.739	0.0137765
868.818	0.0137047
868.896	0.0137210
868.974	0.0137006
869.052	0.0137907
869.130	0.0138499
869.208	0.0138043
869.286	0.0136530
869.364	0.0136137
869.443	0.0136257
869.521	0.0137340
869.599	0.0139930
869.677	0.0139182
869.755	0.0138098
869.833	0.0138026
869.911	0.0138429
869.989	0.0138872
870.068	0.0139532
870.146	0.0139345
870.224	0.0139001
870.302	0.0138122
870.380	0.0138859
870.458	0.0139069
870.536	0.0136835
870.614	0.0135824
870.693	0.0136322
870.771	0.0134801
870.849	0.0135078
870.927	0.0135769
871.005	0.0134810
871.083	0.0133979
871.161	0.0133826
871.239	0.0133282
871.318	0.0132446
871.396	0.0133160
871.474	0.0131416
871.552	0.0133429
871.630	0.0134641
871.708	0.0133762
871.786	0.0134063
871.864	0.0132658
871.943	0.0134519
872.021	0.0134558
872.099	0.0133012
872.177	0.0134460
872.255	0.0133880
872.333	0.0132753
872.411	0.0133813
872.489	0.0135775
872.568	0.0135388
872.646	0.0134966
872.724	0.0135467
872.802	0.0136169
872.880	0.0136448
872.958	0.0136369
873.036	0.0137411
873.114	0.0136095
873.193	0.0137637
873.271	0.0137061
873.349	0.0137479
873.427	0.0136957
873.505	0.0137692
873.583	0.0137897
873.661	0.0138946
873.739	0.0138721
873.818	0.0136440
873.896	0.0137170
873.974	0.0135884
874.052	0.0138048
874.130	0.0136946
874.208	0.0136167
874.286	0.0135825
874.364	0.0136217
874.443	0.0137646
874.521	0.0134871
874.599	0.0136469
874.677	0.0137410
874.755	0.0137575
874.833	0.0136801
874.911	0.0137281
874.989	0.0136909
875.068	0.0136554
875.146	0.0136922
875.224	0.0139015
875.302	0.0136920
875.380	0.0136664
875.458	0.0136472
875.536	0.0137346
875.614	0.0135915
875.693	0.0137993
875.771	0.0137268
875.849	0.0137222
875.927	0.0134814
876.005	0.0136861
876.083	0.0135486
876.161	0.0135484
876.239	0.0137336
876.318	0.0134380
876.396	0.0134225
876.474	0.0133465
876.552	0.0134295
876.630	0.0134950
876.708	0.0133588
876.786	0.0133010
876.864	0.0135593
876.943	0.0135361
877.021	0.0134633
877.099	0.0135500
877.177	0.0136079
877.255	0.0136220
877.333	0.0135421
877.411	0.0136797
877.489	0.0136535
877.568	0.0138193
877.646	0.0136400
877.724	0.0137123
877.802	0.0137753
877.880	0.0137897
877.958	0.0136778
878.036	0.0137009
878.114	0.0138670
878.193	0.0139194
878.271	0.0136812
878.349	0.0137022
878.427	0.0137666
878.505	0.0136187
878.583	0.0136339
878.661	0.0137397
878.739	0.0135399
878.818	0.0135795
878.896	0.0136982
878.974	0.0136622
879.052	0.0135490
879.130	0.0136672
879.208	0.0135886
879.286	0.0135303
879.364	0.0135758
879.443	0.0136094
879.521	0.0136198
879.599	0.0133846
879.677	0.0135692
879.755	0.0135434
879.833	0.0134075
879.911	0.0134471
879.989	0.0135413
880.068	0.0136446
880.146	0.0135532
880.224	0.0136102
880.302	0.0136894
880.380	0.0135011
880.458	0.0136304
880.536	0.0136048
880.614	0.0134767
880.693	0.0135521
880.771	0.0136359
880.849	0.0135912
880.927	0.0138521
881.005	0.0136772
881.083	0.0136939
881.161	0.0136165
881.239	0.0137759
881.318	0.0137718
881.396	0.0136253
881.474	0.0138579
881.552	0.0139545
881.630	0.0138010
881.708	0.0137100
881.786	0.0138994
881.864	0.0139675
881.943	0.0138987
882.021	0.0138101
882.099	0.0138116
882.177	0.0137406
882.255	0.0137740
882.333	0.0136340
882.411	0.0136198
882.489	0.0136498
882.568	0.0137256
882.646	0.0137307
882.724	0.0135986
882.802	0.0135403
882.880	0.0134252
882.958	0.0134614
883.036	0.0133283
883.114	0.0134464
883.193	0.0133042
883.271	0.0132988
883.349	0.0131382
883.427	0.0133001
883.505	0.0131640
883.583	0.0132375
883.661	0.0132679
883.739	0.0131828
883.818	0.0133962
883.896	0.0133818
883.974	0.0134302
884.052	0.0134589
884.130	0.0135001
884.208	0.0135258
884.286	0.0135924
884.364	0.0136392
884.443	0.0137244
884.521	0.0137628
884.599	0.0138412
884.677	0.0139732
884.755	0.0138693
884.833	0.0137238
884.911	0.0137786
884.989	0.0138068
885.068	0.0138523
885.146	0.0139181
885.224	0.0137038
885.302	0.0137270
885.380	0.0136996
885.458	0.0136290
885.536	0.0137569
885.614	0.0138395
885.693	0.0136860
885.771	0.0137485
885.849	0.0137528
885.927	0.0135754
886.005	0.0136308
886.083	0.0137794
886.161	0.0135854
886.239	0.0137412
886.318	0.0137916
886.396	0.0138828
886.474	0.0137967
886.552	0.0138262
886.630	0.0137868
886.708	0.0136956
886.786	0.0138851
886.864	0.0138919
886.943	0.0138362
887.021	0.0136977
887.099	0.0137920
887.177	0.0136891
887.255	0.0137196
887.333	0.0137112
887.411	0.0135366
887.489	0.0135844
887.568	0.0135749
887.646	0.0134740
887.724	0.0134292
887.802	0.0131879
887.880	0.0133139
887.958	0.0133567
888.036	0.0132964
888.114	0.0131757
888.193	0.0130807
888.271	0.0129958
888.349	0.0132245
888.427	0.0132066
888.505	0.0133192
888.583	0.0133253
888.661	0.0133427
888.739	0.0133522
888.818	0.0135932
888.896	0.0136428
888.974	0.0138829
889.052	0.0137410
889.130	0.0139641
889.208	0.0140041
889.286	0.0141062
889.364	0.0142648
889.443	0.0142716
889.521	0.0141254
889.599	0.0141645
889.677	0.0142667
889.755	0.0142170
889.833	0.0141319
889.911	0.0141325
889.989	0.0140635
890.068	0.0139798
890.146	0.0139529
890.224	0.0138674
890.302	0.0138972
890.380	0.0138177
890.458	0.0136983
890.536	0.0136710
890.614	0.0136584
890.693	0.0135485
890.771	0.0136210
890.849	0.0135913
890.927	0.0135948
891.005	0.0135545
891.083	0.0135175
891.161	0.0134680
891.239	0.0135056
891.318	0.0135723
891.396	0.0136232
891.474	0.0135843
891.552	0.0134883
891.630	0.0136506
891.708	0.0134676
891.786	0.0136143
891.864	0.0136257
891.943	0.0136411
892.021	0.0135081
892.099	0.0134995
892.177	0.0137058
892.255	0.0135983
892.333	0.0135492
892.411	0.0134697
892.489	0.0132587
892.568	0.0136581
892.646	0.0134112
892.724	0.0132790
892.802	0.0132497
892.880	0.0133996
892.958	0.0131982
893.036	0.0131056
893.114	0.0132330
893.193	0.0132124
893.271	0.0132619
893.349	0.0133396
893.427	0.0133163
893.505	0.0134436
893.583	0.0136004
893.661	0.0135715
893.739	0.0137897
893.818	0.0138458
893.896	0.0137496
893.974	0.0140546
894.052	0.0140913
894.130	0.0142072
894.208	0.0142682
894.286	0.0142046
894.364	0.0143705
894.443	0.0144394
894.521	0.0142820
894.599	0.0142480
894.677	0.0142149
894.755	0.0140249
894.833	0.0140340
894.911	0.0140720
894.989	0.0138626
895.068	0.0138802
895.146	0.0137449
895.224	0.0135948
895.302	0.0134917
895.380	0.0135692
895.458	0.0134100
895.536	0.0132323
895.614	0.0134319
895.693	0.0132854
895.771	0.0133157
895.849	0.0133019
895.927	0.0134039
896.005	0.0131797
896.083	0.0133350
896.161	0.0133758
896.239	0.0132385
896.318	0.0133325
896.396	0.0134201
896.474	0.0134113
896.552	0.0134668
896.630	0.0133764
896.708	0.0136299
896.786	0.0136044
896.864	0.0134484
896.943	0.0135309
897.021	0.0135666
897.099	0.0136082
897.177	0.0136683
897.255	0.0135776
897.333	0.0136037
897.411	0.0136887
897.489	0.0135279
897.568	0.0134846
897.646	0.0136980
897.724	0.0135895
897.802	0.0135426
897.880	0.0136927
897.958	0.0135438
898.036	0.0135003
898.114	0.0135670
898.193	0.0134849
898.271	0.0135866
898.349	0.0135307
898.427	0.0135347
898.505	0.0137257
898.583	0.0136194
898.661	0.0136964
898.739	0.0136454
898.818	0.0137204
898.896	0.0138494
898.974	0.0136694
899.052	0.0137807
899.130	0.0138557
899.208	0.0138234
899.286	0.0137439
899.364	0.0138664
899.443	0.0139555
899.521	0.0136738
899.599	0.0136182
899.677	0.0136449
899.755	0.0136938
899.833	0.0135848
899.911	0.0135756
899.989	0.0135139
900.068	0.0135973
900.146	0.0134448
900.224	0.0134850
900.302	0.0135754
900.380	0.0134911
900.458	0.0135937
900.536	0.0134035
900.614	0.0135549
900.693	0.0134923
900.771	0.0135561
900.849	0.0135777
900.927	0.0135729
901.005	0.0135334
901.083	0.0135931
901.161	0.0136637
901.239	0.0135022
901.318	0.0137102
901.396	0.0137155
901.474	0.0135658
901.552	0.0135231
901.630	0.0136066
901.708	0.0136472
901.786	0.0137106
901.864	0.0136208
901.943	0.0136116
902.021	0.0138038
902.099	0.0136684
902.177	0.0137717
902.255	0.0136632
902.333	0.0136475
902.411	0.0137407
902.489	0.0137225
902.568	0.0137086
902.646	0.0136634
902.724	0.0137167
902.802	0.0134859
902.880	0.0134930
902.958	0.0135358
903.036	0.0133774
903.114	0.0134167
903.193	0.0134138
903.271	0.0134132
903.349	0.0132997
903.427	0.0133291
903.505	0.0133134
903.583	0.0131564
903.661	0.0133801
903.739	0.0133794
903.818	0.0133812
903.896	0.0133607
903.974	0.0134415
904.052	0.0134345
904.130	0.0134084
904.208	0.0135641
904.286	0.0135535
904.364	0.0134985
904.443	0.0135715
904.521	0.0134521
904.599	0.0135789
904.677	0.0135075
904.755	0.0137211
904.833	0.0136852
904.911	0.0137332
904.989	0.0136956
905.068	0.0138294
905.146	0.0140050
905.224	0.0138946
905.302	0.0139098
905.380	0.0140041
905.458	0.0139661
905.536	0.0139107
905.614	0.0139234
905.693	0.0141496
905.771	0.0141262
905.849	0.0139813
905.927	0.0138545
906.005	0.0139692
906.083	0.0139723
906.161	0.0139118
906.239	0.0137532
906.318	0.0136118
906.396	0.0137630
906.474	0.0136683
906.552	0.0136787
906.630	0.0136526
906.708	0.0135278
906.786	0.0135437
906.864	0.0133836
906.943	0.0132804
907.021	0.0131952
907.099	0.0133592
907.177	0.0134219
907.255	0.0132454
907.333	0.0132110
907.411	0.0132652
907.489	0.0132845
907.568	0.0132771
907.646	0.0132774
907.724	0.0133445
907.802	0.0135429
907.880	0.0133556
907.958	0.0133374
908.036	0.0132655
908.114	0.0134402
908.193	0.0135342
908.271	0.0135725
908.349	0.0136053
908.427	0.0136643
908.505	0.0136634
908.583	0.0136615
908.661	0.0137565
908.739	0.0135925
908.818	0.0137891
908.896	0.0138075
908.974	0.0136745
909.052	0.0137984
909.130	0.0136740
909.208	0.0138770
909.286	0.0137785
909.364	0.0138441
909.443	0.0138370
909.521	0.0139301
909.599	0.0138094
909.677	0.0137386
909.755	0.0138430
909.833	0.0138594
909.911	0.0139840
909.989	0.0139678
910.068	0.0140523
910.146	0.0141731
910.224	0.0139545
910.302	0.0141399
910.380	0.0140428
910.458	0.0139822
910.536	0.0140004
910.614	0.0140649
910.693	0.0141441
910.771	0.0139685
910.849	0.0138525
910.927	0.0140034
911.005	0.0139322
911.083	0.0137648
911.161	0.0137949
911.239	0.0137088
911.318	0.0136301
911.396	0.0136141
911.474	0.0135064
911.552	0.0134650
911.630	0.0134268
911.708	0.0133617
911.786	0.0133234
911.864	0.0132261
911.943	0.0132577
912.021	0.0131825
912.099	0.0131344
912.177	0.0131516
912.255	0.0131126
912.333	0.0132961
912.411	0.0132243
912.489	0.0132321
912.568	0.0131443
912.646	0.0131802
912.724	0.0134019
912.802	0.0132862
912.880	0.0133341
912.958	0.0134238
913.036	0.0135838
913.114	0.0136816
913.193	0.0137125
913.271	0.0137930
913.349	0.0138727
913.427	0.0140559
913.505	0.0141638
913.583	0.0140155
913.661	0.0140595
913.739	0.0141694
913.818	0.0141847
913.896	0.0140739
913.974	0.0139367
914.052	0.0139566
914.130	0.0140041
914.208	0.0138902
914.286	0.0139855
914.364	0.0138932
914.443	0.0138677
914.521	0.0137537
914.599	0.0135711
914.677	0.0136569
914.755	0.0138100
914.833	0.0136723
914.911	0.0137432
914.989	0.0136639
915.068	0.0137509
915.146	0.0135535
915.224	0.0136509
915.302	0.0136509
915.380	0.0136856
915.458	0.0137874
915.536	0.0138068
915.614	0.0136729
915.693	0.0137244
915.771	0.0135997
915.849	0.0136104
915.927	0.0137094
916.005	0.0136066
916.083	0.0136276
916.161	0.0135464
916.239	0.0133353
916.318	0.0133297
916.396	0.0134778
916.474	0.0133193
916.552	0.0131958
916.630	0.0132618
916.708	0.0133229
916.786	0.0132201
916.864	0.0132579
916.943	0.0132777
917.021	0.0131747
917.099	0.0132491
917.177	0.0132005
917.255	0.0132655
917.333	0.0133880
917.411	0.0133961
917.489	0.0134507
917.568	0.0133116
917.646	0.0134698
917.724	0.0136051
917.802	0.0136965
917.880	0.0137350
917.958	0.0136313
918.036	0.0137451
918.114	0.0137648
918.193	0.0138026
918.271	0.0137408
918.349	0.0138155
918.427	0.0138351
918.505	0.0138773
918.583	0.0140476
918.661	0.0138778
918.739	0.0138179
918.818	0.0137585
918.896	0.0137183
918.974	0.0136749
919.052	0.0136160
919.130	0.0135722
919.208	0.0135928
919.286	0.0134029
919.364	0.0135495
919.443	0.0134029
919.521	0.0133958
919.599	0.0133649
919.677	0.0134889
919.755	0.0135738
919.833	0.0134713
919.911	0.0134100
919.989	0.0133835
920.068	0.0134223
920.146	0.0135117
920.224	0.0135499
920.302	0.0135933
920.380	0.0134087
920.458	0.0136164
920.536	0.0135623
920.614	0.0135573
920.693	0.0136021
920.771	0.0135345
920.849	0.0134889
920.927	0.0135898
921.005	0.0135846
921.083	0.0135883
921.161	0.0136892
921.239	0.0136568
921.318	0.0135122
921.396	0.0135842
921.474	0.0135587
921.552	0.0136050
921.630	0.0134955
921.708	0.0134543
921.786	0.0135802
921.864	0.0136767
921.943	0.0138007
922.021	0.0136803
922.099	0.0136449
922.177	0.0137243
922.255	0.0137105
922.333	0.0136105
922.411	0.0137201
922.489	0.0138708
922.568	0.0138441
922.646	0.0138885
922.724	0.0137476
922.802	0.0137886
922.880	0.0137993
922.958	0.0139433
923.036	0.0138148
923.114	0.0137184
923.193	0.0136584
923.271	0.0137724
923.349	0.0137659
923.427	0.0137678
923.505	0.0136159
923.583	0.0136026
923.661	0.0137698
923.739	0.0136290
923.818	0.0136049
923.896	0.0135583
923.974	0.0137384
924.052	0.0133959
924.130	0.0134124
924.208	0.0135226
924.286	0.0134066
924.364	0.0135026
924.443	0.0133631
924.521	0.0134282
924.599	0.0133356
924.677	0.0133405
924.755	0.0134680
924.833	0.0134067
924.911	0.0134197
924.989	0.0134859
925.068	0.0134699
925.146	0.0134837
925.224	0.0134441
925.302	0.0132840
925.380	0.0134385
925.458	0.0133535
925.536	0.0134761
925.614	0.0134261
925.693	0.0133690
925.771	0.0135269
925.849	0.0135571
925.927	0.0134754
926.005	0.0136252
926.083	0.0136788
926.161	0.0138148
926.239	0.0137295
926.318	0.0137827
926.396	0.0137405
926.474	0.0136959
926.552	0.0137135
926.630	0.0138737
926.708	0.0137956
926.786	0.0137675
926.864	0.0138334
926.943	0.0137318
927.021	0.0137893
927.099	0.0137749
927.177	0.0138162
927.255	0.0137291
927.333	0.0137196
927.411	0.0136725
927.489	0.0136364
927.568	0.0134765
927.646	0.0134353
927.724	0.0135290
927.802	0.0134757
927.880	0.0134652
927.958	0.0135360
928.036	0.0133863
928.114	0.0135650
928.193	0.0135250
928.271	0.0134546
928.349	0.0136707
928.427	0.0135252
928.505	0.0134748
928.583	0.0135231
928.661	0.0135513
928.739	0.0136465
928.818	0.0135952
928.896	0.0136964
928.974	0.0136082
929.052	0.0134999
929.130	0.0137222
929.208	0.0137801
929.286	0.0137675
929.364	0.0136795
929.443	0.0136858
929.521	0.0137470
929.599	0.0136230
929.677	0.0138276
929.755	0.0136263
929.833	0.0135915
929.911	0.0137068
929.989	0.0133257
930.068	0.0135057
930.146	0.0134739
930.224	0.0135552
930.302	0.0135251
930.380	0.0133183
930.458	0.0133601
930.536	0.0132905
930.614	0.0134051
930.693	0.0134767
930.771	0.0135458
930.849	0.0134313
930.927	0.0134637
931.005	0.0133842
931.083	0.0134800
931.161	0.0134921
931.239	0.0136098
931.318	0.0136725
931.396	0.0136681
931.474	0.0136620
931.552	0.0137193
931.630	0.0136940
931.708	0.0137837
931.786	0.0137492
931.864	0.0138189
931.943	0.0139433
932.021	0.0138219
932.099	0.0138663
932.177	0.0138725
932.255	0.0138891
932.333	0.0138890
932.411	0.0139275
932.489	0.0138788
932.568	0.0138415
932.646	0.0139365
932.724	0.0138922
932.802	0.0137973
932.880	0.0138128
932.958	0.0137881
933.036	0.0136351
933.114	0.0137861
933.193	0.0136636
933.271	0.0136544
933.349	0.0137216
933.427	0.0136855
933.505	0.0136483
933.583	0.0135549
933.661	0.0137493
933.739	0.0137481
933.818	0.0136922
933.896	0.0137372
933.974	0.0136951
934.052	0.0136272
934.130	0.0137647
934.208	0.0135868
934.286	0.0136686
934.364	0.0137796
934.443	0.0137476
934.521	0.0135712
934.599	0.0135580
934.677	0.0135194
934.755	0.0135786
934.833	0.0134866
934.911	0.0134689
934.989	0.0135200
935.068	0.0135425
935.146	0.0133784
935.224	0.0132887
935.302	0.0134383
935.380	0.0134171
935.458	0.0133162
935.536	0.0134803
935.614	0.0133884
935.693	0.0133808
935.771	0.0134184
935.849	0.0135191
935.927	0.0135204
936.005	0.0133675
936.083	0.0134750
936.161	0.0134933
936.239	0.0137268
936.318	0.0136327
936.396	0.0134689
936.474	0.0135465
936.552	0.0137121
936.630	0.0136658
936.708	0.0138219
936.786	0.0137257
936.864	0.0137304
936.943	0.0137785
937.021	0.0138200
937.099	0.0138517
937.177	0.0137519
937.255	0.0138562
937.333	0.0139043
937.411	0.0138572
937.489	0.0139281
937.568	0.0139535
937.646	0.0139227
937.724	0.0139597
937.802	0.0138531
937.880	0.0137910
937.958	0.0137756
938.036	0.0139149
938.114	0.0138149
938.193	0.0138921
938.271	0.0138421
938.349	0.0136252
938.427	0.0138629
938.505	0.0138092
938.583	0.0136963
938.661	0.0139396
938.739	0.0138098
938.818	0.0138167
938.896	0.0138700
938.974	0.0137702
939.052	0.0137724
939.130	0.0136406
939.208	0.0135178
939.286	0.0134393
939.364	0.0133882
939.443	0.0134007
939.521	0.0133573
939.599	0.0133698
939.677	0.0131522
939.755	0.0131898
939.833	0.0132725
939.911	0.0133062
939.989	0.0132189
940.068	0.0130887
940.146	0.0131295
940.224	0.0131748
940.302	0.0132830
940.380	0.0132921
940.458	0.0133052
940.536	0.0132436
940.614	0.0133788
940.693	0.0133811
940.771	0.0134092
940.849	0.0133530
940.927	0.0133875
941.005	0.0132659
941.083	0.0134188
941.161	0.0135601
941.239	0.0135497
941.318	0.0134972
941.396	0.0136290
941.474	0.0136915
941.552	0.0135347
941.630	0.0136463
941.708	0.0136443
941.786	0.0138112
941.864	0.0138780
941.943	0.0138334
942.021	0.0138277
942.099	0.0138395
942.177	0.0137114
942.255	0.0137609
942.333	0.0138653
942.411	0.0138984
942.489	0.0137811
942.568	0.0137827
942.646	0.0136344
942.724	0.0137075
942.802	0.0137704
942.880	0.0135352
942.958	0.0135657
943.036	0.0137181
943.114	0.0137703
943.193	0.0138450
943.271	0.0137809
943.349	0.0136814
943.427	0.0136461
943.505	0.0137206
943.583	0.0137493
943.661	0.0135833
943.739	0.0136189
943.818	0.0138021
943.896	0.0135912
943.974	0.0137003
944.052	0.0137337
944.130	0.0135793
944.208	0.0136044
944.286	0.0135480
944.364	0.0134741
944.443	0.0135343
944.521	0.0134671
944.599	0.0134051
944.677	0.0134068
944.755	0.0134550
944.833	0.0134895
944.911	0.0134172
944.989	0.0134254
945.068	0.0134851
945.146	0.0135156
945.224	0.0134940
945.302	0.0134196
945.380	0.0133495
945.458	0.0135838
945.536	0.0134910
945.614	0.0132628
945.693	0.0134484
945.771	0.0134522
945.849	0.0132847
945.927	0.0134431
946.005	0.0133967
946.083	0.0135773
946.161	0.0133944
946.239	0.0134518
946.318	0.0135947
946.396	0.0135423
946.474	0.0135605
946.552	0.0136131
946.630	0.0136137
946.708	0.0135970
946.786	0.0136433
946.864	0.0136134
946.943	0.0137093
947.021	0.0138087
947.099	0.0136375
947.177	0.0136416
947.255	0.0137016
947.333	0.0138406
947.411	0.0136882
947.489	0.0138419
947.568	0.0136629
947.646	0.0138602
947.724	0.0138054
947.802	0.0137092
947.880	0.0136682
947.958	0.0138657
948.036	0.0136668
948.114	0.0138039
948.193	0.0138294
948.271	0.0138602
948.349	0.0137461
948.427	0.0137083
948.505	0.0139677
948.583	0.0137884
948.661	0.0137801
948.739	0.0138350
948.818	0.0139708
948.896	0.0138316
948.974	0.0136889
949.052	0.0137279
949.130	0.0137778
949.208	0.0137058
949.286	0.0136333
949.364	0.0136757
949.443	0.0135837
949.521	0.0135221
949.599	0.0137415
949.677	0.0136465
949.755	0.0134370
949.833	0.0135775
949.911	0.0135546
949.989	0.0135458
950.068	0.0135154
950.146	0.0134267
950.224	0.0134145
950.302	0.0135080
950.380	0.0135128
950.458	0.0134502
950.536	0.0134671
950.614	0.0135315
950.693	0.0134217
950.771	0.0135699
950.849	0.0136240
950.927	0.0136043
951.005	0.0137008
951.083	0.0137546
951.161	0.0137010
951.239	0.0136472
951.318	0.0136316
951.396	0.0137868
951.474	0.0136590
951.552	0.0136748
951.630	0.0137549
951.708	0.0137222
951.786	0.0135943
951.864	0.0136279
951.943	0.0137596
952.021	0.0135378
952.099	0.0136841
952.177	0.0135824
952.255	0.0136235
952.333	0.0135543
952.411	0.0136790
952.489	0.0134863
952.568	0.0134472
952.646	0.0134874
952.724	0.0136119
952.802	0.0135392
952.880	0.0136031
952.958	0.0135645
953.036	0.0135937
953.114	0.0138533
953.193	0.0136344
953.271	0.0138860
953.349	0.0136817
953.427	0.0136444
953.505	0.0137439
953.583	0.0137315
953.661	0.0137663
953.739	0.0136942
953.818	0.0138377
953.896	0.0137796
953.974	0.0135333
954.052	0.0136182
954.130	0.0136796
954.208	0.0135373
954.286	0.0136719
954.364	0.0135431
954.443	0.0136246
954.521	0.0135596
954.599	0.0134453
954.677	0.0135715
954.755	0.0134692
954.833	0.0135479
954.911	0.0135094
954.989	0.0134431
955.068	0.0134155
955.146	0.0136239
955.224	0.0136488
955.302	0.0134331
955.380	0.0135214
955.458	0.0135548
955.536	0.0136595
955.614	0.0137160
955.693	0.0135318
955.771	0.0137793
955.849	0.0136093
955.927	0.0135913
956.005	0.0136835
956.083	0.0136114
956.161	0.0135986
956.239	0.0137660
956.318	0.0137546
956.396	0.0136020
956.474	0.0136821
956.552	0.0135629
956.630	0.0135374
956.708	0.0136629
956.786	0.0135806
956.864	0.0135693
956.943	0.0135278
957.021	0.0135410
957.099	0.0135341
957.177	0.0135396
957.255	0.0135247
957.333	0.0135419
957.411	0.0136593
957.489	0.0137986
957.568	0.0136907
957.646	0.0137077
957.724	0.0137186
957.802	0.0137963
957.880	0.0137622
957.958	0.0137973
958.036	0.0137739
958.114	0.0137529
958.193	0.0137590
958.271	0.0137132
958.349	0.0138670
958.427	0.0137988
958.505	0.0136143
958.583	0.0136189
958.661	0.0136394
958.739	0.0135535
958.818	0.0136228
958.896	0.0135681
958.974	0.0135260
959.052	0.0134600
959.130	0.0135822
959.208	0.0134447
959.286	0.0134120
959.364	0.0133918
959.443	0.0134497
959.521	0.0136979
959.599	0.0135741
959.677	0.0134780
959.755	0.0135914
959.833	0.0135503
959.911	0.0135051
