05/07/2022	17:13:52	Ver.	4.1	UNKNOWN
Optical Delay	639.989416	Delta X		0.078125	Sweeps	1	Scan Rate	0/0
Coordinates	Axis 1	NaN	Axis 2	NaN	Axis 3	NaN	Axis 4	NaN	Axis 5	NaN	Axis 6	0.000000
TX Power	0.000000	RX Power	0.000000

639.989	0.0133679
640.068	0.0133321
640.146	0.0133430
640.224	0.0132458
640.302	0.0133754
640.380	0.0133743
640.458	0.0132905
640.536	0.0134077
640.614	0.0133769
640.693	0.0132935
640.771	0.0134127
640.849	0.0134975
640.927	0.0132052
641.005	0.0133122
641.083	0.0132817
641.161	0.0133702
641.239	0.0134027
641.318	0.0135147
641.396	0.0132700
641.474	0.0134029
641.552	0.0135078
641.630	0.0134861
641.708	0.0133120
641.786	0.0134435
641.864	0.0135517
641.943	0.0133149
642.021	0.0133105
642.099	0.0134616
642.177	0.0131850
642.255	0.0133393
642.333	0.0133496
642.411	0.0133827
642.489	0.0134539
642.568	0.0133984
642.646	0.0132938
642.724	0.0134915
642.802	0.0135074
642.880	0.0133628
642.958	0.0132912
643.036	0.0133801
643.114	0.0133084
643.193	0.0134362
643.271	0.0133269
643.349	0.0134927
643.427	0.0133029
643.505	0.0133411
643.583	0.0132867
643.661	0.0133526
643.739	0.0132273
643.818	0.0133931
643.896	0.0134357
643.974	0.0134021
644.052	0.0133544
644.130	0.0133939
644.208	0.0133530
644.286	0.0133270
644.364	0.0133595
644.443	0.0133821
644.521	0.0134032
644.599	0.0132645
644.677	0.0133568
644.755	0.0132855
644.833	0.0133434
644.911	0.0134113
644.989	0.0133699
645.068	0.0133611
645.146	0.0133528
645.224	0.0133959
645.302	0.0133982
645.380	0.0133833
645.458	0.0133062
645.536	0.0133165
645.614	0.0133673
645.693	0.0134110
645.771	0.0134114
645.849	0.0132271
645.927	0.0133533
646.005	0.0133714
646.083	0.0133793
646.161	0.0132963
646.239	0.0133820
646.318	0.0134917
646.396	0.0134643
646.474	0.0132813
646.552	0.0133081
646.630	0.0134039
646.708	0.0132697
646.786	0.0132733
646.864	0.0133480
646.943	0.0133640
647.021	0.0134769
647.099	0.0134332
647.177	0.0133339
647.255	0.0132600
647.333	0.0134518
647.411	0.0133849
647.489	0.0134043
647.568	0.0134219
647.646	0.0133183
647.724	0.0133234
647.802	0.0134071
647.880	0.0134040
647.958	0.0134595
648.036	0.0134618
648.114	0.0133972
648.193	0.0133897
648.271	0.0133783
648.349	0.0133144
648.427	0.0133436
648.505	0.0133439
648.583	0.0134049
648.661	0.0133318
648.739	0.0134123
648.818	0.0135203
648.896	0.0135165
648.974	0.0134048
649.052	0.0134581
649.130	0.0134352
649.208	0.0134303
649.286	0.0133408
649.364	0.0134687
649.443	0.0134715
649.521	0.0133994
649.599	0.0133723
649.677	0.0133808
649.755	0.0134176
649.833	0.0133706
649.911	0.0134446
649.989	0.0133849
650.068	0.0135106
650.146	0.0134198
650.224	0.0133660
650.302	0.0134469
650.380	0.0135515
650.458	0.0134689
650.536	0.0134260
650.614	0.0133593
650.693	0.0134920
650.771	0.0133999
650.849	0.0134069
650.927	0.0133772
651.005	0.0133157
651.083	0.0133692
651.161	0.0133830
651.239	0.0134474
651.318	0.0133723
651.396	0.0133604
651.474	0.0134148
651.552	0.0133099
651.630	0.0133391
651.708	0.0134373
651.786	0.0134026
651.864	0.0134412
651.943	0.0133814
652.021	0.0133150
652.099	0.0135212
652.177	0.0134390
652.255	0.0134039
652.333	0.0133632
652.411	0.0133317
652.489	0.0134030
652.568	0.0132607
652.646	0.0133822
652.724	0.0134508
652.802	0.0132912
652.880	0.0133353
652.958	0.0132811
653.036	0.0134304
653.114	0.0133205
653.193	0.0133222
653.271	0.0134329
653.349	0.0132966
653.427	0.0134798
653.505	0.0133924
653.583	0.0134093
653.661	0.0133130
653.739	0.0133134
653.818	0.0133870
653.896	0.0133459
653.974	0.0133361
654.052	0.0134334
654.130	0.0133857
654.208	0.0132255
654.286	0.0133958
654.364	0.0134541
654.443	0.0134966
654.521	0.0133289
654.599	0.0133069
654.677	0.0133223
654.755	0.0134712
654.833	0.0134489
654.911	0.0134711
654.989	0.0134684
655.068	0.0134257
655.146	0.0134579
655.224	0.0133695
655.302	0.0134492
655.380	0.0134911
655.458	0.0133067
655.536	0.0133157
655.614	0.0134220
655.693	0.0134969
655.771	0.0134892
655.849	0.0135012
655.927	0.0134061
656.005	0.0134178
656.083	0.0134962
656.161	0.0134478
656.239	0.0132944
656.318	0.0135467
656.396	0.0133651
656.474	0.0133723
656.552	0.0133858
656.630	0.0134689
656.708	0.0133826
656.786	0.0132944
656.864	0.0135372
656.943	0.0135390
657.021	0.0134325
657.099	0.0134805
657.177	0.0134255
657.255	0.0133639
657.333	0.0134098
657.411	0.0134634
657.489	0.0134666
657.568	0.0134811
657.646	0.0134048
657.724	0.0134273
657.802	0.0133183
657.880	0.0134982
657.958	0.0135281
658.036	0.0134722
658.114	0.0134772
658.193	0.0135399
658.271	0.0133796
658.349	0.0134301
658.427	0.0133731
658.505	0.0133147
658.583	0.0134977
658.661	0.0134143
658.739	0.0134183
658.818	0.0136086
658.896	0.0134782
658.974	0.0132323
659.052	0.0134315
659.130	0.0136000
659.208	0.0133836
659.286	0.0133742
659.364	0.0135563
659.443	0.0134754
659.521	0.0133069
659.599	0.0133575
659.677	0.0134869
659.755	0.0134036
659.833	0.0133511
659.911	0.0134129
659.989	0.0133862
660.068	0.0134122
660.146	0.0134423
660.224	0.0135228
660.302	0.0133589
660.380	0.0134128
660.458	0.0134555
660.536	0.0133391
660.614	0.0134839
660.693	0.0134469
660.771	0.0134220
660.849	0.0132713
660.927	0.0133949
661.005	0.0134145
661.083	0.0134004
661.161	0.0135250
661.239	0.0135236
661.318	0.0135065
661.396	0.0133617
661.474	0.0134402
661.552	0.0134799
661.630	0.0134092
661.708	0.0132291
661.786	0.0133299
661.864	0.0133625
661.943	0.0134665
662.021	0.0133636
662.099	0.0133253
662.177	0.0134462
662.255	0.0135196
662.333	0.0134652
662.411	0.0134958
662.489	0.0132523
662.568	0.0134008
662.646	0.0134093
662.724	0.0133534
662.802	0.0135396
662.880	0.0133313
662.958	0.0135015
663.036	0.0133504
663.114	0.0133749
663.193	0.0134209
663.271	0.0134168
663.349	0.0134059
663.427	0.0133674
663.505	0.0133562
663.583	0.0133980
663.661	0.0133746
663.739	0.0133542
663.818	0.0133976
663.896	0.0134013
663.974	0.0132986
664.052	0.0132427
664.130	0.0134151
664.208	0.0133130
664.286	0.0134946
664.364	0.0134389
664.443	0.0133350
664.521	0.0134079
664.599	0.0133361
664.677	0.0133543
664.755	0.0135050
664.833	0.0134322
664.911	0.0132618
664.989	0.0133770
665.068	0.0135771
665.146	0.0134565
665.224	0.0132902
665.302	0.0134546
665.380	0.0135200
665.458	0.0134010
665.536	0.0133477
665.614	0.0134629
665.693	0.0133389
665.771	0.0134015
665.849	0.0133659
665.927	0.0133435
666.005	0.0133987
666.083	0.0132746
666.161	0.0133973
666.239	0.0133623
666.318	0.0133543
666.396	0.0134317
666.474	0.0133269
666.552	0.0133672
666.630	0.0133937
666.708	0.0134550
666.786	0.0134500
666.864	0.0134102
666.943	0.0134755
667.021	0.0133511
667.099	0.0135272
667.177	0.0134332
667.255	0.0134310
667.333	0.0133588
667.411	0.0133743
667.489	0.0133764
667.568	0.0134303
667.646	0.0133460
667.724	0.0134978
667.802	0.0133975
667.880	0.0133597
667.958	0.0134102
668.036	0.0134498
668.114	0.0133437
668.193	0.0133411
668.271	0.0133842
668.349	0.0134793
668.427	0.0134211
668.505	0.0133701
668.583	0.0133550
668.661	0.0132734
668.739	0.0133617
668.818	0.0134707
668.896	0.0135171
668.974	0.0134451
669.052	0.0134393
669.130	0.0134643
669.208	0.0133445
669.286	0.0133508
669.364	0.0134386
669.443	0.0132777
669.521	0.0132782
669.599	0.0132191
669.677	0.0132748
669.755	0.0133082
669.833	0.0134236
669.911	0.0135001
669.989	0.0133398
670.068	0.0134682
670.146	0.0133498
670.224	0.0136426
670.302	0.0136079
670.380	0.0134908
670.458	0.0135125
670.536	0.0135680
670.614	0.0134216
670.693	0.0134293
670.771	0.0136068
670.849	0.0134555
670.927	0.0134713
671.005	0.0134243
671.083	0.0134969
671.161	0.0134701
671.239	0.0133843
671.318	0.0132619
671.396	0.0132082
671.474	0.0131631
671.552	0.0131893
671.630	0.0131245
671.708	0.0131374
671.786	0.0133294
671.864	0.0131813
671.943	0.0132350
672.021	0.0132867
672.099	0.0134521
672.177	0.0135315
672.255	0.0136633
672.333	0.0137572
672.411	0.0137543
672.489	0.0138085
672.568	0.0138620
672.646	0.0138146
672.724	0.0136884
672.802	0.0138223
672.880	0.0135494
672.958	0.0135514
673.036	0.0135846
673.114	0.0136720
673.193	0.0134079
673.271	0.0133610
673.349	0.0130939
673.427	0.0130732
673.505	0.0130785
673.583	0.0132269
673.661	0.0129838
673.739	0.0129314
673.818	0.0129491
673.896	0.0128557
673.974	0.0130003
674.052	0.0130163
674.130	0.0130637
674.208	0.0132110
674.286	0.0132710
674.364	0.0134111
674.443	0.0134825
674.521	0.0135629
674.599	0.0136507
674.677	0.0137066
674.755	0.0138549
674.833	0.0138943
674.911	0.0139020
674.989	0.0137668
675.068	0.0139587
675.146	0.0140257
675.224	0.0138605
675.302	0.0138914
675.380	0.0136950
675.458	0.0136840
675.536	0.0136716
675.614	0.0137196
675.693	0.0133524
675.771	0.0133894
675.849	0.0132341
675.927	0.0130279
676.005	0.0130244
676.083	0.0131215
676.161	0.0129680
676.239	0.0130660
676.318	0.0130474
676.396	0.0131641
676.474	0.0132888
676.552	0.0133411
676.630	0.0135297
676.708	0.0136408
676.786	0.0135417
676.864	0.0136085
676.943	0.0137387
677.021	0.0136176
677.099	0.0134583
677.177	0.0133836
677.255	0.0134705
677.333	0.0133588
677.411	0.0132842
677.489	0.0130022
677.568	0.0131333
677.646	0.0130976
677.724	0.0130788
677.802	0.0130502
677.880	0.0130875
677.958	0.0130131
678.036	0.0132140
678.114	0.0132738
678.193	0.0133329
678.271	0.0132451
678.349	0.0133687
678.427	0.0134276
678.505	0.0134851
678.583	0.0135988
678.661	0.0135204
678.739	0.0138728
678.818	0.0137295
678.896	0.0136207
678.974	0.0137888
679.052	0.0138776
679.130	0.0138023
679.208	0.0137534
679.286	0.0138306
679.364	0.0138231
679.443	0.0137028
679.521	0.0136232
679.599	0.0136661
679.677	0.0137281
679.755	0.0136871
679.833	0.0136134
679.911	0.0135857
679.989	0.0135557
680.068	0.0135838
680.146	0.0135152
680.224	0.0134595
680.302	0.0134418
680.380	0.0134094
680.458	0.0133831
680.536	0.0132494
680.614	0.0132086
680.693	0.0130624
680.771	0.0129440
680.849	0.0126851
680.927	0.0126594
681.005	0.0125323
681.083	0.0125948
681.161	0.0122840
681.239	0.0121416
681.318	0.0123365
681.396	0.0124368
681.474	0.0123704
681.552	0.0125871
681.630	0.0126344
681.708	0.0128152
681.786	0.0128586
681.864	0.0131099
681.943	0.0134277
682.021	0.0137054
682.099	0.0138693
682.177	0.0139634
682.255	0.0140661
682.333	0.0140613
682.411	0.0142957
682.489	0.0143888
682.568	0.0144854
682.646	0.0146073
682.724	0.0149470
682.802	0.0147048
682.880	0.0147141
682.958	0.0150004
683.036	0.0148621
683.114	0.0147215
683.193	0.0147801
683.271	0.0146729
683.349	0.0146136
683.427	0.0145564
683.505	0.0143187
683.583	0.0140592
683.661	0.0136058
683.739	0.0134367
683.818	0.0130933
683.896	0.0127997
683.974	0.0126031
684.052	0.0121822
684.130	0.0120638
684.208	0.0118664
684.286	0.0116531
684.364	0.0116634
684.443	0.0117559
684.521	0.0115872
684.599	0.0117276
684.677	0.0118468
684.755	0.0119476
684.833	0.0121564
684.911	0.0121355
684.989	0.0122353
685.068	0.0123540
685.146	0.0123400
685.224	0.0125434
685.302	0.0127020
685.380	0.0128664
685.458	0.0129205
685.536	0.0129575
685.614	0.0132360
685.693	0.0135478
685.771	0.0137260
685.849	0.0139492
685.927	0.0141663
686.005	0.0145334
686.083	0.0146907
686.161	0.0148509
686.239	0.0148943
686.318	0.0150235
686.396	0.0152321
686.474	0.0152174
686.552	0.0151056
686.630	0.0149751
686.708	0.0148999
686.786	0.0149566
686.864	0.0148257
686.943	0.0147920
687.021	0.0145271
687.099	0.0144824
687.177	0.0144882
687.255	0.0142965
687.333	0.0141122
687.411	0.0138864
687.489	0.0138093
687.568	0.0136491
687.646	0.0136061
687.724	0.0132625
687.802	0.0131785
687.880	0.0128838
687.958	0.0127836
688.036	0.0127034
688.114	0.0124964
688.193	0.0124729
688.271	0.0124134
688.349	0.0123012
688.427	0.0122224
688.505	0.0120615
688.583	0.0119997
688.661	0.0119946
688.739	0.0121993
688.818	0.0121517
688.896	0.0120844
688.974	0.0119830
689.052	0.0120592
689.130	0.0119736
689.208	0.0119160
689.286	0.0118509
689.364	0.0120502
689.443	0.0121729
689.521	0.0123686
689.599	0.0125257
689.677	0.0126871
689.755	0.0131299
689.833	0.0135907
689.911	0.0136343
689.989	0.0139046
690.068	0.0140884
690.146	0.0142048
690.224	0.0143655
690.302	0.0142813
690.380	0.0142120
690.458	0.0141792
690.536	0.0140517
690.614	0.0138570
690.693	0.0139416
690.771	0.0136817
690.849	0.0137125
690.927	0.0139194
691.005	0.0139581
691.083	0.0140159
691.161	0.0142634
691.239	0.0143616
691.318	0.0148887
691.396	0.0149583
691.474	0.0150954
691.552	0.0151524
691.630	0.0154259
691.708	0.0154653
691.786	0.0152619
691.864	0.0152872
691.943	0.0152789
692.021	0.0151607
692.099	0.0149961
692.177	0.0147598
692.255	0.0146647
692.333	0.0144613
692.411	0.0141184
692.489	0.0139604
692.568	0.0138277
692.646	0.0134460
692.724	0.0132679
692.802	0.0128827
692.880	0.0127026
692.958	0.0123420
693.036	0.0120191
693.114	0.0116315
693.193	0.0113583
693.271	0.0109982
693.349	0.0107402
693.427	0.0106006
693.505	0.0104218
693.583	0.0101497
693.661	0.0102164
693.739	0.0101019
693.818	0.0100594
693.896	0.0100885
693.974	0.0100153
694.052	0.0103541
694.130	0.0105381
694.208	0.0107849
694.286	0.0112791
694.364	0.0116195
694.443	0.0120016
694.521	0.0124077
694.599	0.0129868
694.677	0.0133737
694.755	0.0137484
694.833	0.0141660
694.911	0.0145169
694.989	0.0148598
695.068	0.0152244
695.146	0.0155035
695.224	0.0158281
695.302	0.0160194
695.380	0.0162410
695.458	0.0164757
695.536	0.0165647
695.614	0.0167211
695.693	0.0168384
695.771	0.0168214
695.849	0.0170770
695.927	0.0168752
696.005	0.0168793
696.083	0.0167171
696.161	0.0166122
696.239	0.0163499
696.318	0.0163290
696.396	0.0159724
696.474	0.0156341
696.552	0.0152579
696.630	0.0149318
696.708	0.0146982
696.786	0.0143198
696.864	0.0138611
696.943	0.0135496
697.021	0.0134074
697.099	0.0129900
697.177	0.0127340
697.255	0.0123823
697.333	0.0120905
697.411	0.0119361
697.489	0.0116661
697.568	0.0113094
697.646	0.0110675
697.724	0.0106391
697.802	0.0103354
697.880	0.0101823
697.958	0.00994186
698.036	0.00969215
698.114	0.00945404
698.193	0.00923935
698.271	0.00912331
698.349	0.00900864
698.427	0.00904556
698.505	0.00897675
698.583	0.00915497
698.661	0.00912781
698.739	0.00940636
698.818	0.00966835
698.896	0.00992607
698.974	0.0104079
699.052	0.0109427
699.130	0.0116400
699.208	0.0121125
699.286	0.0128939
699.364	0.0137301
699.443	0.0142877
699.521	0.0150777
699.599	0.0157815
699.677	0.0164787
699.755	0.0170458
699.833	0.0174811
699.911	0.0179577
699.989	0.0184204
700.068	0.0189322
700.146	0.0189700
700.224	0.0193382
700.302	0.0195357
700.380	0.0195172
700.458	0.0194335
700.536	0.0192939
700.614	0.0189195
700.693	0.0185306
700.771	0.0179237
700.849	0.0173898
700.927	0.0164257
701.005	0.0157227
701.083	0.0148147
701.161	0.0139697
701.239	0.0132784
701.318	0.0123944
701.396	0.0116258
701.474	0.0109021
701.552	0.0102497
701.630	0.00982010
701.708	0.00951469
701.786	0.00930161
701.864	0.00916153
701.943	0.00896698
702.021	0.00895416
702.099	0.00918083
702.177	0.00945656
702.255	0.00975807
702.333	0.0101419
702.411	0.0105344
702.489	0.0110814
702.568	0.0115914
702.646	0.0122111
702.724	0.0125352
702.802	0.0131118
702.880	0.0133486
702.958	0.0136594
703.036	0.0138000
703.114	0.0141137
703.193	0.0140378
703.271	0.0141431
703.349	0.0141127
703.427	0.0140285
703.505	0.0137428
703.583	0.0133614
703.661	0.0130426
703.739	0.0128799
703.818	0.0126264
703.896	0.0121687
703.974	0.0118256
704.052	0.0117603
704.130	0.0116745
704.208	0.0114605
704.286	0.0113407
704.364	0.0112531
704.443	0.0114706
704.521	0.0116930
704.599	0.0119299
704.677	0.0123497
704.755	0.0126797
704.833	0.0132610
704.911	0.0138149
704.989	0.0144423
705.068	0.0149232
705.146	0.0155020
705.224	0.0158995
705.302	0.0163750
705.380	0.0167019
705.458	0.0172674
705.536	0.0175188
705.614	0.0176322
705.693	0.0177080
705.771	0.0178791
705.849	0.0177467
705.927	0.0175816
706.005	0.0173744
706.083	0.0170754
706.161	0.0166076
706.239	0.0161366
706.318	0.0157463
706.396	0.0152126
706.474	0.0147195
706.552	0.0140163
706.630	0.0134631
706.708	0.0130740
706.786	0.0123856
706.864	0.0118452
706.943	0.0113668
707.021	0.0109258
707.099	0.0107288
707.177	0.0104091
707.255	0.0103873
707.333	0.0102042
707.411	0.0104248
707.489	0.0106516
707.568	0.0107451
707.646	0.0112048
707.724	0.0115731
707.802	0.0121465
707.880	0.0125431
707.958	0.0127486
708.036	0.0130052
708.114	0.0134333
708.193	0.0136952
708.271	0.0135995
708.349	0.0137589
708.427	0.0136393
708.505	0.0134723
708.583	0.0130721
708.661	0.0128436
708.739	0.0125715
708.818	0.0120793
708.896	0.0116653
708.974	0.0112357
709.052	0.0109465
709.130	0.0103693
709.208	0.0101058
709.286	0.00977768
709.364	0.00955276
709.443	0.00934761
709.521	0.00939049
709.599	0.00944778
709.677	0.00976875
709.755	0.0100291
709.833	0.0104099
709.911	0.0110193
709.989	0.0118726
710.068	0.0127328
710.146	0.0135454
710.224	0.0145277
710.302	0.0156068
710.380	0.0164976
710.458	0.0175078
710.536	0.0181796
710.614	0.0189062
710.693	0.0195924
710.771	0.0201731
710.849	0.0203539
710.927	0.0205171
711.005	0.0206295
711.083	0.0205917
711.161	0.0202832
711.239	0.0199000
711.318	0.0194930
711.396	0.0187909
711.474	0.0179656
711.552	0.0172710
711.630	0.0161865
711.708	0.0153765
711.786	0.0145226
711.864	0.0134466
711.943	0.0125021
712.021	0.0115199
712.099	0.0106054
712.177	0.0100122
712.255	0.00939690
712.333	0.00865944
712.411	0.00817741
712.489	0.00808563
712.568	0.00781448
712.646	0.00777550
712.724	0.00811005
712.802	0.00823883
712.880	0.00863297
712.958	0.00920288
713.036	0.00996643
713.114	0.0106673
713.193	0.0114174
713.271	0.0119693
713.349	0.0127116
713.427	0.0135638
713.505	0.0139905
713.583	0.0143534
713.661	0.0147971
713.739	0.0150533
713.818	0.0150484
713.896	0.0151900
713.974	0.0148638
714.052	0.0145746
714.130	0.0141770
714.208	0.0137131
714.286	0.0132428
714.364	0.0128430
714.443	0.0122038
714.521	0.0116421
714.599	0.0112656
714.677	0.0109678
714.755	0.0105855
714.833	0.0102415
714.911	0.0101676
714.989	0.0100375
715.068	0.0101190
715.146	0.0102167
715.224	0.0104842
715.302	0.0108592
715.380	0.0114262
715.458	0.0118167
715.536	0.0125340
715.614	0.0132021
715.693	0.0140941
715.771	0.0148988
715.849	0.0157342
715.927	0.0163628
716.005	0.0171996
716.083	0.0179912
716.161	0.0184439
716.239	0.0189394
716.318	0.0190875
716.396	0.0194019
716.474	0.0194861
716.552	0.0193306
716.630	0.0190681
716.708	0.0187296
716.786	0.0181499
716.864	0.0176496
716.943	0.0171010
717.021	0.0165873
717.099	0.0160622
717.177	0.0153827
717.255	0.0146729
717.333	0.0139017
717.411	0.0134303
717.489	0.0128841
717.568	0.0122186
717.646	0.0117994
717.724	0.0113705
717.802	0.0110020
717.880	0.0106149
717.958	0.0104324
718.036	0.0103792
718.114	0.0103055
718.193	0.0102834
718.271	0.0104398
718.349	0.0104778
718.427	0.0106588
718.505	0.0108661
718.583	0.0111803
718.661	0.0114542
718.739	0.0117531
718.818	0.0120985
718.896	0.0122375
718.974	0.0124089
719.052	0.0124490
719.130	0.0124436
719.208	0.0125417
719.286	0.0123490
719.364	0.0122340
719.443	0.0120635
719.521	0.0118657
719.599	0.0115390
719.677	0.0114709
719.755	0.0110444
719.833	0.0108048
719.911	0.0107810
719.989	0.0106745
720.068	0.0107143
720.146	0.0106729
720.224	0.0108443
720.302	0.0111368
720.380	0.0113676
720.458	0.0116947
720.536	0.0122105
720.614	0.0126791
720.693	0.0130285
720.771	0.0135110
720.849	0.0141054
720.927	0.0144893
721.005	0.0149854
721.083	0.0154300
721.161	0.0157394
721.239	0.0162796
721.318	0.0164562
721.396	0.0167166
721.474	0.0171107
721.552	0.0173265
721.630	0.0173216
721.708	0.0175072
721.786	0.0175702
721.864	0.0173374
721.943	0.0173600
722.021	0.0172791
722.099	0.0169228
722.177	0.0165788
722.255	0.0163511
722.333	0.0161606
722.411	0.0156710
722.489	0.0153552
722.568	0.0149020
722.646	0.0146912
722.724	0.0144271
722.802	0.0140991
722.880	0.0136578
722.958	0.0134048
723.036	0.0132131
723.114	0.0130816
723.193	0.0128475
723.271	0.0127064
723.349	0.0125210
723.427	0.0124075
723.505	0.0124748
723.583	0.0122694
723.661	0.0121310
723.739	0.0120641
723.818	0.0120289
723.896	0.0119965
723.974	0.0120420
724.052	0.0119234
724.130	0.0119102
724.208	0.0117400
724.286	0.0115417
724.364	0.0113786
724.443	0.0113052
724.521	0.0111373
724.599	0.0109872
724.677	0.0108121
724.755	0.0107394
724.833	0.0105269
724.911	0.0106075
724.989	0.0103007
725.068	0.0102438
725.146	0.0104461
725.224	0.0104413
725.302	0.0106048
725.380	0.0107500
725.458	0.0109766
725.536	0.0114218
725.614	0.0115829
725.693	0.0119434
725.771	0.0122695
725.849	0.0126928
725.927	0.0132020
726.005	0.0135550
726.083	0.0139567
726.161	0.0142503
726.239	0.0146049
726.318	0.0149641
726.396	0.0151513
726.474	0.0153005
726.552	0.0154174
726.630	0.0156372
726.708	0.0158401
726.786	0.0159732
726.864	0.0158369
726.943	0.0159625
727.021	0.0159328
727.099	0.0158685
727.177	0.0158451
727.255	0.0157143
727.333	0.0156439
727.411	0.0155479
727.489	0.0153489
727.568	0.0151469
727.646	0.0150867
727.724	0.0147614
727.802	0.0147562
727.880	0.0147049
727.958	0.0144115
728.036	0.0145076
728.114	0.0145124
728.193	0.0143701
728.271	0.0145420
728.349	0.0145693
728.427	0.0145151
728.505	0.0144799
728.583	0.0145923
728.661	0.0145232
728.739	0.0144843
728.818	0.0144543
728.896	0.0141904
728.974	0.0141465
729.052	0.0141393
729.130	0.0138540
729.208	0.0136523
729.286	0.0134610
729.364	0.0131365
729.443	0.0128549
729.521	0.0125298
729.599	0.0122951
729.677	0.0119430
729.755	0.0118105
729.833	0.0114513
729.911	0.0111205
729.989	0.0109516
730.068	0.0105943
730.146	0.0102116
730.224	0.00995056
730.302	0.00982605
730.380	0.00987556
730.458	0.00971519
730.536	0.00961182
730.614	0.00970276
730.693	0.00969505
730.771	0.0100735
730.849	0.0103548
730.927	0.0105299
731.005	0.0109495
731.083	0.0112613
731.161	0.0116852
731.239	0.0122314
731.318	0.0125751
731.396	0.0129556
731.474	0.0135429
731.552	0.0138073
731.630	0.0141878
731.708	0.0145132
731.786	0.0149015
731.864	0.0149470
731.943	0.0152172
732.021	0.0154930
732.099	0.0154736
732.177	0.0158059
732.255	0.0159109
732.333	0.0158432
732.411	0.0158997
732.489	0.0159869
732.568	0.0157053
732.646	0.0156940
732.724	0.0155650
732.802	0.0154124
732.880	0.0152578
732.958	0.0149022
733.036	0.0146790
733.114	0.0145895
733.193	0.0141535
733.271	0.0137679
733.349	0.0135310
733.427	0.0136505
733.505	0.0133857
733.583	0.0135159
733.661	0.0133484
733.739	0.0134077
733.818	0.0135708
733.896	0.0135665
733.974	0.0137804
734.052	0.0138895
734.130	0.0140913
734.208	0.0142395
734.286	0.0144104
734.364	0.0144525
734.443	0.0145889
734.521	0.0146815
734.599	0.0145400
734.677	0.0145956
734.755	0.0146173
734.833	0.0146024
734.911	0.0143866
734.989	0.0142343
735.068	0.0141473
735.146	0.0139539
735.224	0.0137732
735.302	0.0134788
735.380	0.0133128
735.458	0.0131277
735.536	0.0128477
735.614	0.0124937
735.693	0.0121808
735.771	0.0119527
735.849	0.0117907
735.927	0.0114948
736.005	0.0112090
736.083	0.0111169
736.161	0.0107874
736.239	0.0105223
736.318	0.0105164
736.396	0.0106360
736.474	0.0105408
736.552	0.0103831
736.630	0.0104671
736.708	0.0107150
736.786	0.0108893
736.864	0.0110964
736.943	0.0113128
737.021	0.0115604
737.099	0.0119295
737.177	0.0121529
737.255	0.0125371
737.333	0.0128368
737.411	0.0131042
737.489	0.0133998
737.568	0.0136582
737.646	0.0138799
737.724	0.0140103
737.802	0.0142954
737.880	0.0145592
737.958	0.0145415
738.036	0.0147396
738.114	0.0149171
738.193	0.0150291
738.271	0.0151406
738.349	0.0151209
738.427	0.0151351
738.505	0.0152156
738.583	0.0153940
738.661	0.0152498
738.739	0.0151041
738.818	0.0150640
738.896	0.0149961
738.974	0.0151147
739.052	0.0149202
739.130	0.0147691
739.208	0.0147389
739.286	0.0146651
739.364	0.0145915
739.443	0.0143472
739.521	0.0144570
739.599	0.0143467
739.677	0.0141325
739.755	0.0140476
739.833	0.0140388
739.911	0.0138103
739.989	0.0138046
740.068	0.0139056
740.146	0.0137926
740.224	0.0137973
740.302	0.0139088
740.380	0.0137837
740.458	0.0137639
740.536	0.0138066
740.614	0.0136829
740.693	0.0135341
740.771	0.0136568
740.849	0.0135719
740.927	0.0133804
741.005	0.0133790
741.083	0.0132789
741.161	0.0131374
741.239	0.0130954
741.318	0.0129997
741.396	0.0127577
741.474	0.0127544
741.552	0.0125272
741.630	0.0123142
741.708	0.0123820
741.786	0.0121178
741.864	0.0120377
741.943	0.0119390
742.021	0.0118059
742.099	0.0116615
742.177	0.0114159
742.255	0.0113955
742.333	0.0113744
742.411	0.0113729
742.489	0.0111639
742.568	0.0113423
742.646	0.0115192
742.724	0.0114287
742.802	0.0115786
742.880	0.0117731
742.958	0.0119939
743.036	0.0120566
743.114	0.0123412
743.193	0.0124664
743.271	0.0127844
743.349	0.0131042
743.427	0.0131792
743.505	0.0134908
743.583	0.0136739
743.661	0.0137706
743.739	0.0140251
743.818	0.0141492
743.896	0.0142584
743.974	0.0144231
744.052	0.0145848
744.130	0.0146698
744.208	0.0148071
744.286	0.0147827
744.364	0.0147726
744.443	0.0146729
744.521	0.0146831
744.599	0.0146923
744.677	0.0147065
744.755	0.0144820
744.833	0.0144872
744.911	0.0144670
744.989	0.0145524
745.068	0.0143571
745.146	0.0142783
745.224	0.0142108
745.302	0.0141421
745.380	0.0140431
745.458	0.0139410
745.536	0.0137717
745.614	0.0137529
745.693	0.0137932
745.771	0.0136784
745.849	0.0136112
745.927	0.0135959
746.005	0.0136567
746.083	0.0136103
746.161	0.0137618
746.239	0.0137356
746.318	0.0138800
746.396	0.0139952
746.474	0.0138937
746.552	0.0139405
746.630	0.0140388
746.708	0.0140939
746.786	0.0140277
746.864	0.0139233
746.943	0.0139115
747.021	0.0136069
747.099	0.0136209
747.177	0.0134803
747.255	0.0133834
747.333	0.0130936
747.411	0.0130907
747.489	0.0128715
747.568	0.0125346
747.646	0.0125961
747.724	0.0124431
747.802	0.0123460
747.880	0.0121000
747.958	0.0120872
748.036	0.0121094
748.114	0.0120226
748.193	0.0119495
748.271	0.0118825
748.349	0.0118360
748.427	0.0120093
748.505	0.0120697
748.583	0.0119939
748.661	0.0121378
748.739	0.0121895
748.818	0.0122339
748.896	0.0123927
748.974	0.0126643
749.052	0.0125918
749.130	0.0127051
749.208	0.0127731
749.286	0.0130131
749.364	0.0130381
749.443	0.0128983
749.521	0.0131416
749.599	0.0133937
749.677	0.0134524
749.755	0.0135058
749.833	0.0135343
749.911	0.0135824
749.989	0.0136716
750.068	0.0138667
750.146	0.0139794
750.224	0.0140418
750.302	0.0140863
750.380	0.0141924
750.458	0.0143230
750.536	0.0143237
750.614	0.0144386
750.693	0.0146268
750.771	0.0147019
750.849	0.0146274
750.927	0.0146752
751.005	0.0146844
751.083	0.0147861
751.161	0.0146566
751.239	0.0146394
751.318	0.0146012
751.396	0.0145484
751.474	0.0145098
751.552	0.0143388
751.630	0.0143145
751.708	0.0141116
751.786	0.0139466
751.864	0.0138310
751.943	0.0137654
752.021	0.0135446
752.099	0.0134718
752.177	0.0133574
752.255	0.0134359
752.333	0.0132887
752.411	0.0131548
752.489	0.0131747
752.568	0.0129964
752.646	0.0129718
752.724	0.0129404
752.802	0.0130933
752.880	0.0130229
752.958	0.0129502
753.036	0.0130012
753.114	0.0130514
753.193	0.0130446
753.271	0.0129200
753.349	0.0130308
753.427	0.0131149
753.505	0.0132041
753.583	0.0133165
753.661	0.0133258
753.739	0.0134502
753.818	0.0135057
753.896	0.0135937
753.974	0.0135118
754.052	0.0136028
754.130	0.0135114
754.208	0.0134730
754.286	0.0134888
754.364	0.0135310
754.443	0.0132880
754.521	0.0130942
754.599	0.0130476
754.677	0.0129139
754.755	0.0128575
754.833	0.0128536
754.911	0.0125429
754.989	0.0125105
755.068	0.0124661
755.146	0.0124377
755.224	0.0123637
755.302	0.0124393
755.380	0.0123125
755.458	0.0125481
755.536	0.0123562
755.614	0.0123060
755.693	0.0126189
755.771	0.0127695
755.849	0.0127122
755.927	0.0128724
756.005	0.0129911
756.083	0.0130595
756.161	0.0132596
756.239	0.0133587
756.318	0.0134832
756.396	0.0137043
756.474	0.0134507
756.552	0.0136281
756.630	0.0137309
756.708	0.0137673
756.786	0.0139664
756.864	0.0139837
756.943	0.0141644
757.021	0.0141476
757.099	0.0142387
757.177	0.0142935
757.255	0.0143635
757.333	0.0142512
757.411	0.0143279
757.489	0.0143086
757.568	0.0143811
757.646	0.0141833
757.724	0.0141528
757.802	0.0142505
757.880	0.0141515
757.958	0.0139558
758.036	0.0137783
758.114	0.0137476
758.193	0.0136029
758.271	0.0136357
758.349	0.0135217
758.427	0.0134998
758.505	0.0133912
758.583	0.0132899
758.661	0.0134272
758.739	0.0135779
758.818	0.0135107
758.896	0.0134184
758.974	0.0133411
759.052	0.0134742
759.130	0.0134129
759.208	0.0133864
759.286	0.0134346
759.364	0.0134653
759.443	0.0135199
759.521	0.0134136
759.599	0.0134103
759.677	0.0135418
759.755	0.0133868
759.833	0.0133707
759.911	0.0134299
759.989	0.0134048
760.068	0.0131108
760.146	0.0131247
760.224	0.0131190
760.302	0.0128913
760.380	0.0129850
760.458	0.0129367
760.536	0.0129252
760.614	0.0129295
760.693	0.0128049
760.771	0.0129194
760.849	0.0128842
760.927	0.0127876
761.005	0.0127917
761.083	0.0128147
761.161	0.0129564
761.239	0.0129347
761.318	0.0129815
761.396	0.0131406
761.474	0.0130228
761.552	0.0129547
761.630	0.0130392
761.708	0.0130903
761.786	0.0131016
761.864	0.0131210
761.943	0.0130213
762.021	0.0130292
762.099	0.0130180
762.177	0.0130701
762.255	0.0129783
762.333	0.0130670
762.411	0.0130810
762.489	0.0130278
762.568	0.0130117
762.646	0.0131332
762.724	0.0130360
762.802	0.0131969
762.880	0.0131776
762.958	0.0132027
763.036	0.0133447
763.114	0.0134158
763.193	0.0135526
763.271	0.0135763
763.349	0.0136016
763.427	0.0137396
763.505	0.0138388
763.583	0.0138846
763.661	0.0140685
763.739	0.0140786
763.818	0.0141502
763.896	0.0142644
763.974	0.0142744
764.052	0.0141866
764.130	0.0141987
764.208	0.0142320
764.286	0.0141592
764.364	0.0139862
764.443	0.0141301
764.521	0.0140647
764.599	0.0141177
764.677	0.0138999
764.755	0.0139305
764.833	0.0139384
764.911	0.0137803
764.989	0.0137256
765.068	0.0137563
765.146	0.0136098
765.224	0.0135547
765.302	0.0135525
765.380	0.0135116
765.458	0.0134781
765.536	0.0134496
765.614	0.0134277
765.693	0.0132501
765.771	0.0132050
765.849	0.0133356
765.927	0.0130870
766.005	0.0129732
766.083	0.0129706
766.161	0.0130343
766.239	0.0129745
766.318	0.0130392
766.396	0.0129189
766.474	0.0128791
766.552	0.0129936
766.630	0.0131213
766.708	0.0131371
766.786	0.0130594
766.864	0.0131600
766.943	0.0131425
767.021	0.0132681
767.099	0.0133098
767.177	0.0132796
767.255	0.0133240
767.333	0.0131953
767.411	0.0132645
767.489	0.0132212
767.568	0.0130481
767.646	0.0131210
767.724	0.0130254
767.802	0.0130396
767.880	0.0130921
767.958	0.0130623
768.036	0.0129408
768.114	0.0129845
768.193	0.0129224
768.271	0.0128694
768.349	0.0128385
768.427	0.0129600
768.505	0.0130717
768.583	0.0129469
768.661	0.0129713
768.739	0.0129401
768.818	0.0129730
768.896	0.0131469
768.974	0.0131683
769.052	0.0132043
769.130	0.0134013
769.208	0.0133361
769.286	0.0135609
769.364	0.0136150
769.443	0.0137123
769.521	0.0137955
769.599	0.0138786
769.677	0.0138789
769.755	0.0139752
769.833	0.0139995
769.911	0.0141412
769.989	0.0141882
770.068	0.0143837
770.146	0.0141653
770.224	0.0143436
770.302	0.0142333
770.380	0.0142162
770.458	0.0141367
770.536	0.0139854
770.614	0.0140273
770.693	0.0139723
770.771	0.0138982
770.849	0.0139220
770.927	0.0137911
771.005	0.0137243
771.083	0.0137092
771.161	0.0135364
771.239	0.0134281
771.318	0.0133501
771.396	0.0133817
771.474	0.0134179
771.552	0.0132394
771.630	0.0133129
771.708	0.0133788
771.786	0.0132898
771.864	0.0132291
771.943	0.0134167
772.021	0.0134250
772.099	0.0132752
772.177	0.0133267
772.255	0.0134448
772.333	0.0133998
772.411	0.0134311
772.489	0.0132877
772.568	0.0134872
772.646	0.0132529
772.724	0.0131985
772.802	0.0132193
772.880	0.0132595
772.958	0.0133208
773.036	0.0132342
773.114	0.0135384
773.193	0.0134393
773.271	0.0134564
773.349	0.0134525
773.427	0.0133398
773.505	0.0132829
773.583	0.0133346
773.661	0.0132461
773.739	0.0131491
773.818	0.0132463
773.896	0.0132407
773.974	0.0130489
774.052	0.0130136
774.130	0.0128771
774.208	0.0128230
774.286	0.0127237
774.364	0.0127192
774.443	0.0126908
774.521	0.0127455
774.599	0.0127481
774.677	0.0128144
774.755	0.0127346
774.833	0.0126859
774.911	0.0127747
774.989	0.0129427
775.068	0.0130482
775.146	0.0130023
775.224	0.0129953
775.302	0.0131673
775.380	0.0131902
775.458	0.0132190
775.536	0.0133765
775.614	0.0133234
775.693	0.0135564
775.771	0.0137083
775.849	0.0139001
775.927	0.0138671
776.005	0.0139167
776.083	0.0138444
776.161	0.0140673
776.239	0.0141115
776.318	0.0140636
776.396	0.0141751
776.474	0.0141367
776.552	0.0142010
776.630	0.0141261
776.708	0.0140884
776.786	0.0140840
776.864	0.0141015
776.943	0.0140889
777.021	0.0140668
777.099	0.0139664
777.177	0.0139471
777.255	0.0138031
777.333	0.0137753
777.411	0.0137498
777.489	0.0136768
777.568	0.0135918
777.646	0.0135020
777.724	0.0134504
777.802	0.0134938
777.880	0.0133895
777.958	0.0133217
778.036	0.0130322
778.114	0.0131593
778.193	0.0131712
778.271	0.0129462
778.349	0.0130175
778.427	0.0130358
778.505	0.0130059
778.583	0.0129247
778.661	0.0130547
778.739	0.0130702
778.818	0.0130850
778.896	0.0130188
778.974	0.0129262
779.052	0.0131839
779.130	0.0131641
779.208	0.0130698
779.286	0.0131184
779.364	0.0132737
779.443	0.0134563
779.521	0.0134953
779.599	0.0133533
779.677	0.0135544
779.755	0.0135596
779.833	0.0136514
779.911	0.0137280
779.989	0.0137309
780.068	0.0135634
780.146	0.0135735
780.224	0.0136608
780.302	0.0137825
780.380	0.0137135
780.458	0.0135109
780.536	0.0135543
780.614	0.0135785
780.693	0.0135446
780.771	0.0135027
780.849	0.0134773
780.927	0.0133884
781.005	0.0131972
781.083	0.0131511
781.161	0.0131593
781.239	0.0129871
781.318	0.0129383
781.396	0.0128843
781.474	0.0127934
781.552	0.0127597
781.630	0.0126465
781.708	0.0126501
781.786	0.0127260
781.864	0.0126573
781.943	0.0128487
782.021	0.0129056
782.099	0.0129064
782.177	0.0130930
782.255	0.0131375
782.333	0.0132668
782.411	0.0131120
782.489	0.0134303
782.568	0.0135437
782.646	0.0136030
782.724	0.0136797
782.802	0.0137881
782.880	0.0137745
782.958	0.0139231
783.036	0.0137949
783.114	0.0139689
783.193	0.0140237
783.271	0.0138551
783.349	0.0138981
783.427	0.0140089
783.505	0.0141642
783.583	0.0141225
783.661	0.0140635
783.739	0.0140881
783.818	0.0140815
783.896	0.0140885
783.974	0.0140524
784.052	0.0139484
784.130	0.0138448
784.208	0.0140014
784.286	0.0139479
784.364	0.0137836
784.443	0.0137773
784.521	0.0136752
784.599	0.0134610
784.677	0.0135162
784.755	0.0135014
784.833	0.0134554
784.911	0.0133542
784.989	0.0133928
785.068	0.0131091
785.146	0.0131030
785.224	0.0132690
785.302	0.0132847
785.380	0.0130199
785.458	0.0129980
785.536	0.0130826
785.614	0.0131129
785.693	0.0131422
785.771	0.0130588
785.849	0.0131215
785.927	0.0132477
786.005	0.0129974
786.083	0.0129082
786.161	0.0131966
786.239	0.0131407
786.318	0.0132156
786.396	0.0132043
786.474	0.0131550
786.552	0.0131100
786.630	0.0132073
786.708	0.0132370
786.786	0.0131227
786.864	0.0131718
786.943	0.0132288
787.021	0.0131944
787.099	0.0131918
787.177	0.0131883
787.255	0.0130868
787.333	0.0131892
787.411	0.0132792
787.489	0.0132542
787.568	0.0132394
787.646	0.0132922
787.724	0.0132735
787.802	0.0131021
787.880	0.0133208
787.958	0.0131030
788.036	0.0132745
788.114	0.0133901
788.193	0.0133746
788.271	0.0133083
788.349	0.0132686
788.427	0.0132441
788.505	0.0134035
788.583	0.0133698
788.661	0.0133846
788.739	0.0134680
788.818	0.0134641
788.896	0.0136964
788.974	0.0136723
789.052	0.0135607
789.130	0.0136242
789.208	0.0136201
789.286	0.0137247
789.364	0.0136526
789.443	0.0136435
789.521	0.0137270
789.599	0.0137746
789.677	0.0137864
789.755	0.0136623
789.833	0.0136755
789.911	0.0135820
789.989	0.0135955
790.068	0.0136101
790.146	0.0135511
790.224	0.0135472
790.302	0.0134130
790.380	0.0134476
790.458	0.0133415
790.536	0.0134698
790.614	0.0133541
790.693	0.0132818
790.771	0.0130908
790.849	0.0130534
790.927	0.0131190
791.005	0.0129962
791.083	0.0130785
791.161	0.0130891
791.239	0.0130738
791.318	0.0129939
791.396	0.0130496
791.474	0.0130836
791.552	0.0132423
791.630	0.0132016
791.708	0.0132867
791.786	0.0132890
791.864	0.0132640
791.943	0.0133020
792.021	0.0134869
792.099	0.0134286
792.177	0.0134456
792.255	0.0134436
792.333	0.0136651
792.411	0.0136035
792.489	0.0136835
792.568	0.0136231
792.646	0.0136561
792.724	0.0136237
792.802	0.0135844
792.880	0.0136200
792.958	0.0136217
793.036	0.0137683
793.114	0.0137230
793.193	0.0134601
793.271	0.0134969
793.349	0.0134097
793.427	0.0134204
793.505	0.0133324
793.583	0.0134116
793.661	0.0133909
793.739	0.0132521
793.818	0.0132701
793.896	0.0132111
793.974	0.0130891
794.052	0.0130489
794.130	0.0128224
794.208	0.0128600
794.286	0.0129894
794.364	0.0128557
794.443	0.0126372
794.521	0.0128403
794.599	0.0128829
794.677	0.0127412
794.755	0.0127121
794.833	0.0128117
794.911	0.0128000
794.989	0.0128217
795.068	0.0128805
795.146	0.0131146
795.224	0.0130834
795.302	0.0131133
795.380	0.0131480
795.458	0.0131384
795.536	0.0132450
795.614	0.0134872
795.693	0.0135210
795.771	0.0135403
795.849	0.0135201
795.927	0.0136148
796.005	0.0137238
796.083	0.0138061
796.161	0.0138998
796.239	0.0138759
796.318	0.0139613
796.396	0.0139017
796.474	0.0138556
796.552	0.0138657
796.630	0.0138751
796.708	0.0140543
796.786	0.0140582
796.864	0.0139078
796.943	0.0141453
797.021	0.0141663
797.099	0.0139295
797.177	0.0139480
797.255	0.0141917
797.333	0.0141290
797.411	0.0138878
797.489	0.0138864
797.568	0.0139555
797.646	0.0138337
797.724	0.0135986
797.802	0.0136783
797.880	0.0136752
797.958	0.0135288
798.036	0.0134657
798.114	0.0134569
798.193	0.0134003
798.271	0.0133286
798.349	0.0132280
798.427	0.0131084
798.505	0.0129382
798.583	0.0128613
798.661	0.0129337
798.739	0.0129662
798.818	0.0128188
798.896	0.0128414
798.974	0.0127589
799.052	0.0128513
799.130	0.0129060
799.208	0.0129851
799.286	0.0129606
799.364	0.0129423
799.443	0.0129989
799.521	0.0130070
799.599	0.0131367
799.677	0.0132176
799.755	0.0131098
799.833	0.0132302
799.911	0.0133053
799.989	0.0131947
800.068	0.0130797
800.146	0.0134016
800.224	0.0133714
800.302	0.0133229
800.380	0.0132403
800.458	0.0132738
800.536	0.0133915
800.614	0.0134152
800.693	0.0133815
800.771	0.0132220
800.849	0.0132460
800.927	0.0133158
801.005	0.0130238
801.083	0.0132498
801.161	0.0131833
801.239	0.0132034
801.318	0.0131932
801.396	0.0132046
801.474	0.0131229
801.552	0.0132921
801.630	0.0132433
801.708	0.0131883
801.786	0.0133173
801.864	0.0134280
801.943	0.0134694
802.021	0.0135199
802.099	0.0135496
802.177	0.0137607
802.255	0.0135736
802.333	0.0137785
802.411	0.0138633
802.489	0.0138332
802.568	0.0137237
802.646	0.0138270
802.724	0.0139449
802.802	0.0140527
802.880	0.0139410
802.958	0.0138109
803.036	0.0138229
803.114	0.0138955
803.193	0.0139406
803.271	0.0139779
803.349	0.0137085
803.427	0.0137845
803.505	0.0136485
803.583	0.0138018
803.661	0.0138648
803.739	0.0136508
803.818	0.0136474
803.896	0.0134317
803.974	0.0135467
804.052	0.0134317
804.130	0.0133135
804.208	0.0133374
804.286	0.0134186
804.364	0.0132352
804.443	0.0131052
804.521	0.0132584
804.599	0.0132816
804.677	0.0131692
804.755	0.0129881
804.833	0.0130309
804.911	0.0129712
804.989	0.0129169
805.068	0.0129082
805.146	0.0130757
805.224	0.0128394
805.302	0.0129111
805.380	0.0128439
805.458	0.0126572
805.536	0.0129387
805.614	0.0128946
805.693	0.0129803
805.771	0.0128234
805.849	0.0128741
805.927	0.0127510
806.005	0.0129577
806.083	0.0129289
806.161	0.0127787
806.239	0.0128865
806.318	0.0129646
806.396	0.0129520
806.474	0.0129199
806.552	0.0129371
806.630	0.0130046
806.708	0.0131073
806.786	0.0132363
806.864	0.0133541
806.943	0.0134518
807.021	0.0135056
807.099	0.0135252
807.177	0.0135853
807.255	0.0138179
807.333	0.0138662
807.411	0.0139299
807.489	0.0140197
807.568	0.0141013
807.646	0.0141359
807.724	0.0142731
807.802	0.0143085
807.880	0.0141467
807.958	0.0142293
808.036	0.0142468
808.114	0.0141878
808.193	0.0141826
808.271	0.0141611
808.349	0.0140768
808.427	0.0140784
808.505	0.0139128
808.583	0.0139499
808.661	0.0138264
808.739	0.0137437
808.818	0.0135390
808.896	0.0135509
808.974	0.0134142
809.052	0.0134571
809.130	0.0132519
809.208	0.0131152
809.286	0.0130528
809.364	0.0131344
809.443	0.0130453
809.521	0.0129206
809.599	0.0129397
809.677	0.0130045
809.755	0.0130280
809.833	0.0128773
809.911	0.0129136
809.989	0.0128796
810.068	0.0128706
810.146	0.0128978
810.224	0.0128900
810.302	0.0129736
810.380	0.0129963
810.458	0.0130325
810.536	0.0129119
810.614	0.0129163
810.693	0.0128927
810.771	0.0129603
810.849	0.0128721
810.927	0.0127864
811.005	0.0127205
811.083	0.0129299
811.161	0.0128454
811.239	0.0126851
811.318	0.0127454
811.396	0.0128717
811.474	0.0128913
811.552	0.0128398
811.630	0.0129260
811.708	0.0130149
811.786	0.0129031
811.864	0.0131070
811.943	0.0131787
812.021	0.0133868
812.099	0.0132609
812.177	0.0134315
812.255	0.0135121
812.333	0.0136724
812.411	0.0139745
812.489	0.0140074
812.568	0.0139677
812.646	0.0140725
812.724	0.0142648
812.802	0.0142480
812.880	0.0142593
812.958	0.0142901
813.036	0.0144125
813.114	0.0144976
813.193	0.0143769
813.271	0.0144221
813.349	0.0143234
813.427	0.0143415
813.505	0.0143914
813.583	0.0141348
813.661	0.0139856
813.739	0.0139101
813.818	0.0139938
813.896	0.0137731
813.974	0.0134338
814.052	0.0133710
814.130	0.0133030
814.208	0.0132655
814.286	0.0131488
814.364	0.0129347
814.443	0.0129533
814.521	0.0128172
814.599	0.0127000
814.677	0.0127956
814.755	0.0124884
814.833	0.0125922
814.911	0.0125344
814.989	0.0125570
815.068	0.0125344
815.146	0.0124778
815.224	0.0124795
815.302	0.0126202
815.380	0.0127359
815.458	0.0126098
815.536	0.0125200
815.614	0.0124917
815.693	0.0127058
815.771	0.0126517
815.849	0.0127307
815.927	0.0127177
816.005	0.0127859
816.083	0.0127151
816.161	0.0128251
816.239	0.0128674
816.318	0.0128667
816.396	0.0129504
816.474	0.0130624
816.552	0.0128651
816.630	0.0130542
816.708	0.0132111
816.786	0.0132693
816.864	0.0132977
816.943	0.0134094
817.021	0.0135027
817.099	0.0134628
817.177	0.0137542
817.255	0.0136375
817.333	0.0137318
817.411	0.0137984
817.489	0.0137986
817.568	0.0138352
817.646	0.0139717
817.724	0.0137868
817.802	0.0140175
817.880	0.0140175
817.958	0.0141309
818.036	0.0141753
818.114	0.0140898
818.193	0.0144167
818.271	0.0143758
818.349	0.0143237
818.427	0.0143430
818.505	0.0142363
818.583	0.0141977
818.661	0.0142079
818.739	0.0139664
818.818	0.0141412
818.896	0.0139386
818.974	0.0139802
819.052	0.0140459
819.130	0.0138863
819.208	0.0138300
819.286	0.0136943
819.364	0.0135693
819.443	0.0135692
819.521	0.0135531
819.599	0.0133005
819.677	0.0132375
819.755	0.0133018
819.833	0.0131005
819.911	0.0129173
819.989	0.0131676
820.068	0.0128632
820.146	0.0127765
820.224	0.0127094
820.302	0.0127727
820.380	0.0129073
820.458	0.0125711
820.536	0.0125302
820.614	0.0125726
820.693	0.0126016
820.771	0.0125990
820.849	0.0124770
820.927	0.0124944
821.005	0.0125729
821.083	0.0124386
821.161	0.0126119
821.239	0.0125953
821.318	0.0127366
821.396	0.0127542
821.474	0.0127695
821.552	0.0129177
821.630	0.0129012
821.708	0.0130396
821.786	0.0130369
821.864	0.0129295
821.943	0.0130737
822.021	0.0131457
822.099	0.0131931
822.177	0.0132581
822.255	0.0133249
822.333	0.0132406
822.411	0.0134126
822.489	0.0136246
822.568	0.0135505
822.646	0.0136807
822.724	0.0135774
822.802	0.0137785
822.880	0.0138289
822.958	0.0137992
823.036	0.0139642
823.114	0.0139277
823.193	0.0140474
823.271	0.0139691
823.349	0.0139779
823.427	0.0140089
823.505	0.0139244
823.583	0.0139236
823.661	0.0139670
823.739	0.0139733
823.818	0.0138010
823.896	0.0137839
823.974	0.0138836
824.052	0.0139041
824.130	0.0136979
824.208	0.0137659
824.286	0.0137296
824.364	0.0137128
824.443	0.0138538
824.521	0.0137093
824.599	0.0138154
824.677	0.0135361
824.755	0.0134779
824.833	0.0135414
824.911	0.0136397
824.989	0.0136957
825.068	0.0135503
825.146	0.0135309
825.224	0.0134964
825.302	0.0134420
825.380	0.0134168
825.458	0.0132632
825.536	0.0132548
825.614	0.0131757
825.693	0.0131302
825.771	0.0131406
825.849	0.0131237
825.927	0.0130609
826.005	0.0131544
826.083	0.0128135
826.161	0.0129613
826.239	0.0128277
826.318	0.0129624
826.396	0.0128948
826.474	0.0127832
826.552	0.0126921
826.630	0.0128210
826.708	0.0127881
826.786	0.0126035
826.864	0.0127393
826.943	0.0127199
827.021	0.0126491
827.099	0.0128102
827.177	0.0127490
827.255	0.0127477
827.333	0.0127808
827.411	0.0127931
827.489	0.0128826
827.568	0.0130366
827.646	0.0130193
827.724	0.0130981
827.802	0.0131126
827.880	0.0131329
827.958	0.0131992
828.036	0.0132668
828.114	0.0133542
828.193	0.0133764
828.271	0.0134966
828.349	0.0135478
828.427	0.0135057
828.505	0.0137314
828.583	0.0137710
828.661	0.0137936
828.739	0.0137528
828.818	0.0138713
828.896	0.0138927
828.974	0.0140051
829.052	0.0141673
829.130	0.0139491
829.208	0.0139194
829.286	0.0140742
829.364	0.0140300
829.443	0.0140407
829.521	0.0138452
829.599	0.0136979
829.677	0.0139578
829.755	0.0138754
829.833	0.0137588
829.911	0.0137859
829.989	0.0136977
830.068	0.0136727
830.146	0.0136278
830.224	0.0136460
830.302	0.0134657
830.380	0.0135348
830.458	0.0135682
830.536	0.0135194
830.614	0.0135297
830.693	0.0133738
830.771	0.0134818
830.849	0.0133061
830.927	0.0134120
831.005	0.0133887
831.083	0.0132119
831.161	0.0133295
831.239	0.0133678
831.318	0.0132823
831.396	0.0132626
831.474	0.0130688
831.552	0.0132005
831.630	0.0131583
831.708	0.0130898
831.786	0.0130109
831.864	0.0130445
831.943	0.0132648
832.021	0.0129913
832.099	0.0130936
832.177	0.0130316
832.255	0.0131011
832.333	0.0130972
832.411	0.0129828
832.489	0.0130637
832.568	0.0131084
832.646	0.0130714
832.724	0.0130375
832.802	0.0131060
832.880	0.0130755
832.958	0.0129813
833.036	0.0131104
833.114	0.0130633
833.193	0.0129376
833.271	0.0131004
833.349	0.0131149
833.427	0.0131657
833.505	0.0131882
833.583	0.0131832
833.661	0.0131416
833.739	0.0133516
833.818	0.0133334
833.896	0.0131490
833.974	0.0132457
834.052	0.0133678
834.130	0.0133923
834.208	0.0134882
834.286	0.0135788
834.364	0.0137064
834.443	0.0135238
834.521	0.0134670
834.599	0.0136275
834.677	0.0135821
834.755	0.0136155
834.833	0.0135880
834.911	0.0138000
834.989	0.0136607
835.068	0.0137444
835.146	0.0138525
835.224	0.0137579
835.302	0.0138201
835.380	0.0138316
835.458	0.0137260
835.536	0.0138049
835.614	0.0135919
835.693	0.0136002
835.771	0.0136496
835.849	0.0135522
835.927	0.0135600
836.005	0.0135178
836.083	0.0135559
836.161	0.0135395
836.239	0.0135233
836.318	0.0134724
836.396	0.0134526
836.474	0.0134564
836.552	0.0134230
836.630	0.0134664
836.708	0.0133733
836.786	0.0133207
836.864	0.0135100
836.943	0.0134869
837.021	0.0133841
837.099	0.0133264
837.177	0.0132361
837.255	0.0132154
837.333	0.0134520
837.411	0.0132731
837.489	0.0132520
837.568	0.0132643
837.646	0.0134225
837.724	0.0134320
837.802	0.0132296
837.880	0.0131830
837.958	0.0135099
838.036	0.0133837
838.114	0.0134245
838.193	0.0133844
838.271	0.0133208
838.349	0.0133198
838.427	0.0133340
838.505	0.0132529
838.583	0.0133522
838.661	0.0132907
838.739	0.0133727
838.818	0.0132790
838.896	0.0132185
838.974	0.0132469
839.052	0.0130796
839.130	0.0132367
839.208	0.0132420
839.286	0.0132980
839.364	0.0132869
839.443	0.0131784
839.521	0.0132533
839.599	0.0131374
839.677	0.0132392
839.755	0.0132827
839.833	0.0133141
839.911	0.0132918
839.989	0.0133234
840.068	0.0132686
840.146	0.0133415
840.224	0.0133091
840.302	0.0135207
840.380	0.0135795
840.458	0.0134356
840.536	0.0134325
840.614	0.0134399
840.693	0.0134910
840.771	0.0134425
840.849	0.0134696
840.927	0.0135753
841.005	0.0134018
841.083	0.0134349
841.161	0.0134731
841.239	0.0134864
841.318	0.0136015
841.396	0.0135530
841.474	0.0136285
841.552	0.0135413
841.630	0.0134238
841.708	0.0134692
841.786	0.0134864
841.864	0.0135280
841.943	0.0135008
842.021	0.0135114
842.099	0.0134867
842.177	0.0135262
842.255	0.0134381
842.333	0.0134282
842.411	0.0135121
842.489	0.0135884
842.568	0.0135103
842.646	0.0135730
842.724	0.0136362
842.802	0.0136347
842.880	0.0134830
842.958	0.0135293
843.036	0.0136338
843.114	0.0135590
843.193	0.0134975
843.271	0.0135867
843.349	0.0135226
843.427	0.0134766
843.505	0.0136814
843.583	0.0136768
843.661	0.0136526
843.739	0.0135876
843.818	0.0134644
843.896	0.0135281
843.974	0.0133308
844.052	0.0136322
844.130	0.0136316
844.208	0.0134073
844.286	0.0132213
844.364	0.0134388
844.443	0.0133006
844.521	0.0132941
844.599	0.0133632
844.677	0.0132823
844.755	0.0131510
844.833	0.0131816
844.911	0.0131816
844.989	0.0131747
845.068	0.0133031
845.146	0.0131824
845.224	0.0131430
845.302	0.0131335
845.380	0.0131799
845.458	0.0131314
845.536	0.0132867
845.614	0.0131273
845.693	0.0132555
845.771	0.0132514
845.849	0.0131713
845.927	0.0133082
846.005	0.0132706
846.083	0.0133843
846.161	0.0132396
846.239	0.0134505
846.318	0.0134705
846.396	0.0133559
846.474	0.0133732
846.552	0.0134444
846.630	0.0134697
846.708	0.0135713
846.786	0.0134237
846.864	0.0133797
846.943	0.0133951
847.021	0.0134138
847.099	0.0134369
847.177	0.0135524
847.255	0.0134824
847.333	0.0133424
847.411	0.0133897
847.489	0.0133634
847.568	0.0134777
847.646	0.0134909
847.724	0.0135036
847.802	0.0134835
847.880	0.0135297
847.958	0.0135271
848.036	0.0135674
848.114	0.0136128
848.193	0.0135519
848.271	0.0135038
848.349	0.0135891
848.427	0.0135321
848.505	0.0136579
848.583	0.0135416
848.661	0.0136317
848.739	0.0136222
848.818	0.0136773
848.896	0.0135960
848.974	0.0135658
849.052	0.0137518
849.130	0.0137261
849.208	0.0136767
849.286	0.0135021
849.364	0.0135731
849.443	0.0135883
849.521	0.0135915
849.599	0.0136629
849.677	0.0135496
849.755	0.0135317
849.833	0.0135043
849.911	0.0135310
849.989	0.0133688
850.068	0.0133926
850.146	0.0132208
850.224	0.0132089
850.302	0.0132656
850.380	0.0132056
850.458	0.0131202
850.536	0.0129826
850.614	0.0130299
850.693	0.0130511
850.771	0.0129926
850.849	0.0129363
850.927	0.0130708
851.005	0.0130984
851.083	0.0129817
851.161	0.0130296
851.239	0.0131142
851.318	0.0131651
851.396	0.0130840
851.474	0.0131377
851.552	0.0131121
851.630	0.0132127
851.708	0.0131721
851.786	0.0133548
851.864	0.0133063
851.943	0.0132597
852.021	0.0133576
852.099	0.0132999
852.177	0.0132975
852.255	0.0132781
852.333	0.0131634
852.411	0.0134342
852.489	0.0133784
852.568	0.0132709
852.646	0.0133311
852.724	0.0133488
852.802	0.0133385
852.880	0.0135397
852.958	0.0134152
853.036	0.0133457
853.114	0.0133671
853.193	0.0133962
853.271	0.0136253
853.349	0.0135329
853.427	0.0135477
853.505	0.0135560
853.583	0.0135928
853.661	0.0136488
853.739	0.0136344
853.818	0.0136242
853.896	0.0136432
853.974	0.0134785
854.052	0.0136163
854.130	0.0135178
854.208	0.0137859
854.286	0.0136123
854.364	0.0135870
854.443	0.0136393
854.521	0.0135813
854.599	0.0135048
854.677	0.0137144
854.755	0.0136640
854.833	0.0136168
854.911	0.0135912
854.989	0.0134923
855.068	0.0134969
855.146	0.0134425
855.224	0.0135493
855.302	0.0135660
855.380	0.0134718
855.458	0.0134524
855.536	0.0134674
855.614	0.0133673
855.693	0.0135343
855.771	0.0136282
855.849	0.0133822
855.927	0.0132160
856.005	0.0133486
856.083	0.0133466
856.161	0.0133938
856.239	0.0134187
856.318	0.0134797
856.396	0.0133666
856.474	0.0133676
856.552	0.0132191
856.630	0.0135099
856.708	0.0133239
856.786	0.0132528
856.864	0.0133690
856.943	0.0132948
857.021	0.0132516
857.099	0.0133324
857.177	0.0132411
857.255	0.0133441
857.333	0.0132448
857.411	0.0132815
857.489	0.0133630
857.568	0.0133125
857.646	0.0132278
857.724	0.0131361
857.802	0.0133154
857.880	0.0133233
857.958	0.0132837
858.036	0.0132595
858.114	0.0132494
858.193	0.0132458
858.271	0.0132713
858.349	0.0133295
858.427	0.0133851
858.505	0.0135194
858.583	0.0134010
858.661	0.0134126
858.739	0.0134325
858.818	0.0134795
858.896	0.0134566
858.974	0.0134386
859.052	0.0135059
859.130	0.0135998
859.208	0.0135954
859.286	0.0135606
859.364	0.0136308
859.443	0.0135245
859.521	0.0135391
859.599	0.0134746
859.677	0.0134083
859.755	0.0135519
859.833	0.0135019
859.911	0.0136369
859.989	0.0135362
860.068	0.0135134
860.146	0.0134467
860.224	0.0135234
860.302	0.0135663
860.380	0.0135122
860.458	0.0135109
860.536	0.0135162
860.614	0.0134551
860.693	0.0135382
860.771	0.0134226
860.849	0.0135702
860.927	0.0135006
861.005	0.0135629
861.083	0.0134851
861.161	0.0135578
861.239	0.0136055
861.318	0.0134531
861.396	0.0136131
861.474	0.0136807
861.552	0.0135965
861.630	0.0135600
861.708	0.0137276
861.786	0.0137685
861.864	0.0136497
861.943	0.0135957
862.021	0.0136147
862.099	0.0136304
862.177	0.0135011
862.255	0.0136045
862.333	0.0134731
862.411	0.0134610
862.489	0.0134584
862.568	0.0133964
862.646	0.0134322
862.724	0.0133060
862.802	0.0132218
862.880	0.0133224
862.958	0.0133256
863.036	0.0131173
863.114	0.0132766
863.193	0.0131789
863.271	0.0130621
863.349	0.0130238
863.427	0.0132043
863.505	0.0131667
863.583	0.0130238
863.661	0.0131269
863.739	0.0131525
863.818	0.0131528
863.896	0.0130931
863.974	0.0132256
864.052	0.0132554
864.130	0.0132748
864.208	0.0132700
864.286	0.0133607
864.364	0.0134304
864.443	0.0134155
864.521	0.0133220
864.599	0.0132690
864.677	0.0134368
864.755	0.0132635
864.833	0.0133311
864.911	0.0133449
864.989	0.0133113
865.068	0.0132730
865.146	0.0134158
865.224	0.0133150
865.302	0.0134273
865.380	0.0133517
865.458	0.0133049
865.536	0.0133960
865.614	0.0134096
865.693	0.0135316
865.771	0.0134434
865.849	0.0134701
865.927	0.0134427
866.005	0.0136143
866.083	0.0135466
866.161	0.0137183
866.239	0.0136131
866.318	0.0137566
866.396	0.0136806
866.474	0.0137246
866.552	0.0137587
866.630	0.0136552
866.708	0.0137876
866.786	0.0137782
866.864	0.0138897
866.943	0.0138245
867.021	0.0136513
867.099	0.0137432
867.177	0.0139040
867.255	0.0137486
867.333	0.0135912
867.411	0.0135203
867.489	0.0134507
867.568	0.0135760
867.646	0.0134986
867.724	0.0134382
867.802	0.0134301
867.880	0.0134614
867.958	0.0132715
868.036	0.0131245
868.114	0.0134203
868.193	0.0132092
868.271	0.0131870
868.349	0.0131622
868.427	0.0131773
868.505	0.0131862
868.583	0.0131897
868.661	0.0132997
868.739	0.0132320
868.818	0.0131396
868.896	0.0131869
868.974	0.0131729
869.052	0.0132158
869.130	0.0132623
869.208	0.0132027
869.286	0.0131425
869.364	0.0132031
869.443	0.0133124
869.521	0.0132509
869.599	0.0132210
869.677	0.0133469
869.755	0.0131734
869.833	0.0132568
869.911	0.0133995
869.989	0.0133337
870.068	0.0133407
870.146	0.0132899
870.224	0.0132306
870.302	0.0133505
870.380	0.0133917
870.458	0.0132733
870.536	0.0132757
870.614	0.0133374
870.693	0.0133678
870.771	0.0133105
870.849	0.0134483
870.927	0.0132803
871.005	0.0134535
871.083	0.0135439
871.161	0.0132566
871.239	0.0134993
871.318	0.0134550
871.396	0.0134322
871.474	0.0135417
871.552	0.0134758
871.630	0.0134394
871.708	0.0136915
871.786	0.0135076
871.864	0.0136465
871.943	0.0137096
872.021	0.0136499
872.099	0.0136745
872.177	0.0136227
872.255	0.0134991
872.333	0.0135501
872.411	0.0135136
872.489	0.0135252
872.568	0.0134024
872.646	0.0133688
872.724	0.0135083
872.802	0.0135637
872.880	0.0134544
872.958	0.0133959
873.036	0.0132434
873.114	0.0132748
873.193	0.0133669
873.271	0.0132253
873.349	0.0133109
873.427	0.0133627
873.505	0.0133822
873.583	0.0133408
873.661	0.0133250
873.739	0.0134351
873.818	0.0134507
873.896	0.0133862
873.974	0.0132888
874.052	0.0133869
874.130	0.0134268
874.208	0.0133434
874.286	0.0132749
874.364	0.0133427
874.443	0.0135554
874.521	0.0133474
874.599	0.0134412
874.677	0.0135149
874.755	0.0134026
874.833	0.0132967
874.911	0.0133678
874.989	0.0133255
875.068	0.0131282
875.146	0.0131888
875.224	0.0130846
875.302	0.0132801
875.380	0.0131815
875.458	0.0130729
875.536	0.0130472
875.614	0.0130573
875.693	0.0130038
875.771	0.0130486
875.849	0.0129040
875.927	0.0129168
876.005	0.0131204
876.083	0.0130595
876.161	0.0131424
876.239	0.0131319
876.318	0.0131197
876.396	0.0132081
876.474	0.0133501
876.552	0.0132857
876.630	0.0134316
876.708	0.0134458
876.786	0.0135646
876.864	0.0135474
876.943	0.0135679
877.021	0.0136158
877.099	0.0137003
877.177	0.0135912
877.255	0.0135496
877.333	0.0136492
877.411	0.0134966
877.489	0.0136631
877.568	0.0137137
877.646	0.0136253
877.724	0.0135960
877.802	0.0134781
877.880	0.0135217
877.958	0.0135593
878.036	0.0135882
878.114	0.0135155
878.193	0.0133891
878.271	0.0135467
878.349	0.0134406
878.427	0.0134660
878.505	0.0134753
878.583	0.0132412
878.661	0.0134239
878.739	0.0134694
878.818	0.0132473
878.896	0.0133012
878.974	0.0133061
879.052	0.0132421
879.130	0.0132496
879.208	0.0132974
879.286	0.0132882
879.364	0.0133772
879.443	0.0133891
879.521	0.0132368
879.599	0.0133783
879.677	0.0133364
879.755	0.0134374
879.833	0.0134421
879.911	0.0134157
879.989	0.0134121
880.068	0.0133447
880.146	0.0136341
880.224	0.0133811
880.302	0.0133041
880.380	0.0132441
880.458	0.0132832
880.536	0.0133183
880.614	0.0133531
880.693	0.0132012
880.771	0.0132243
880.849	0.0132924
880.927	0.0131081
881.005	0.0131511
881.083	0.0132187
881.161	0.0131740
881.239	0.0132343
881.318	0.0131258
881.396	0.0132089
881.474	0.0132600
881.552	0.0133022
881.630	0.0133024
881.708	0.0132465
881.786	0.0132687
881.864	0.0133200
881.943	0.0132059
882.021	0.0133472
882.099	0.0135069
882.177	0.0132558
882.255	0.0134235
882.333	0.0133727
882.411	0.0133353
882.489	0.0133424
882.568	0.0134736
882.646	0.0134928
882.724	0.0133262
882.802	0.0134924
882.880	0.0133524
882.958	0.0134629
883.036	0.0135046
883.114	0.0133775
883.193	0.0134686
883.271	0.0135168
883.349	0.0134674
883.427	0.0137380
883.505	0.0135875
883.583	0.0134832
883.661	0.0133694
883.739	0.0135457
883.818	0.0135034
883.896	0.0135424
883.974	0.0134306
884.052	0.0135291
884.130	0.0135184
884.208	0.0136002
884.286	0.0133737
884.364	0.0133631
884.443	0.0134151
884.521	0.0135293
884.599	0.0134141
884.677	0.0133890
884.755	0.0133810
884.833	0.0132109
884.911	0.0134403
884.989	0.0132897
885.068	0.0133782
885.146	0.0132182
885.224	0.0131658
885.302	0.0132140
885.380	0.0132873
885.458	0.0133009
885.536	0.0132253
885.614	0.0131788
885.693	0.0131618
885.771	0.0131670
885.849	0.0131243
885.927	0.0131223
886.005	0.0130593
886.083	0.0131702
886.161	0.0133016
886.239	0.0132619
886.318	0.0133410
886.396	0.0133094
886.474	0.0132694
886.552	0.0132528
886.630	0.0133441
886.708	0.0133441
886.786	0.0134425
886.864	0.0134663
886.943	0.0134978
887.021	0.0134493
887.099	0.0135467
887.177	0.0136275
887.255	0.0135264
887.333	0.0136409
887.411	0.0136154
887.489	0.0134644
887.568	0.0134870
887.646	0.0135999
887.724	0.0135861
887.802	0.0135383
887.880	0.0134030
887.958	0.0137498
888.036	0.0136195
888.114	0.0134675
888.193	0.0135265
888.271	0.0134135
888.349	0.0134249
888.427	0.0133778
888.505	0.0134385
888.583	0.0133903
888.661	0.0132676
888.739	0.0134133
888.818	0.0132214
888.896	0.0132166
888.974	0.0131216
889.052	0.0131844
889.130	0.0131186
889.208	0.0132402
889.286	0.0131754
889.364	0.0132401
889.443	0.0132172
889.521	0.0132368
889.599	0.0131137
889.677	0.0131789
889.755	0.0132182
889.833	0.0131819
889.911	0.0131671
889.989	0.0132481
890.068	0.0130566
890.146	0.0130083
890.224	0.0131135
890.302	0.0132397
890.380	0.0130477
890.458	0.0130529
890.536	0.0131320
890.614	0.0131345
890.693	0.0131851
890.771	0.0131668
890.849	0.0131789
890.927	0.0132968
891.005	0.0132774
891.083	0.0133363
891.161	0.0135741
891.239	0.0136575
891.318	0.0136148
891.396	0.0136588
891.474	0.0138735
891.552	0.0139497
891.630	0.0138358
891.708	0.0139368
891.786	0.0138506
891.864	0.0138989
891.943	0.0138519
892.021	0.0139771
892.099	0.0138425
892.177	0.0136608
892.255	0.0137091
892.333	0.0137130
892.411	0.0134339
892.489	0.0136469
892.568	0.0136428
892.646	0.0135846
892.724	0.0133910
892.802	0.0132629
892.880	0.0132519
892.958	0.0132285
893.036	0.0129906
893.114	0.0128139
893.193	0.0129762
893.271	0.0129471
893.349	0.0128996
893.427	0.0127433
893.505	0.0128620
893.583	0.0127943
893.661	0.0130122
893.739	0.0129835
893.818	0.0130234
893.896	0.0131820
893.974	0.0130783
894.052	0.0131570
894.130	0.0132546
894.208	0.0132909
894.286	0.0134298
894.364	0.0135518
894.443	0.0136153
894.521	0.0135944
894.599	0.0136606
894.677	0.0137368
894.755	0.0138440
894.833	0.0136136
894.911	0.0138347
894.989	0.0136859
895.068	0.0135779
895.146	0.0136272
895.224	0.0137116
895.302	0.0136519
895.380	0.0135036
895.458	0.0133401
895.536	0.0132986
895.614	0.0133421
895.693	0.0133134
895.771	0.0132395
895.849	0.0131348
895.927	0.0131080
896.005	0.0130454
896.083	0.0131676
896.161	0.0130600
896.239	0.0131041
896.318	0.0130493
896.396	0.0131288
896.474	0.0132681
896.552	0.0131379
896.630	0.0133057
896.708	0.0135257
896.786	0.0134911
896.864	0.0134591
896.943	0.0135110
897.021	0.0136292
897.099	0.0136563
897.177	0.0135239
897.255	0.0138086
897.333	0.0136450
897.411	0.0137123
897.489	0.0136384
897.568	0.0134897
897.646	0.0134669
897.724	0.0136237
897.802	0.0134932
897.880	0.0134322
897.958	0.0135036
898.036	0.0135023
898.114	0.0132294
898.193	0.0132114
898.271	0.0132085
898.349	0.0132148
898.427	0.0132438
898.505	0.0132203
898.583	0.0130840
898.661	0.0131718
898.739	0.0131789
898.818	0.0131065
898.896	0.0132680
898.974	0.0133152
899.052	0.0134141
899.130	0.0134768
899.208	0.0134848
899.286	0.0134430
899.364	0.0134341
899.443	0.0136201
899.521	0.0136955
899.599	0.0137431
899.677	0.0138065
899.755	0.0137083
899.833	0.0136428
899.911	0.0137492
899.989	0.0138226
900.068	0.0137503
900.146	0.0135681
900.224	0.0134700
900.302	0.0134647
900.380	0.0133878
900.458	0.0132353
900.536	0.0132147
900.614	0.0131145
900.693	0.0131468
900.771	0.0131287
900.849	0.0129920
900.927	0.0130575
901.005	0.0129976
901.083	0.0130459
901.161	0.0130271
901.239	0.0130544
901.318	0.0129261
901.396	0.0130473
901.474	0.0131560
901.552	0.0130729
901.630	0.0131289
901.708	0.0131739
901.786	0.0132980
901.864	0.0133540
901.943	0.0135162
902.021	0.0135876
902.099	0.0135981
902.177	0.0136552
902.255	0.0136179
902.333	0.0137768
902.411	0.0136611
902.489	0.0137239
902.568	0.0138251
902.646	0.0136156
902.724	0.0135857
902.802	0.0136179
902.880	0.0136604
902.958	0.0134994
903.036	0.0133144
903.114	0.0134073
903.193	0.0132041
903.271	0.0132401
903.349	0.0132123
903.427	0.0131754
903.505	0.0131004
903.583	0.0130324
903.661	0.0130631
903.739	0.0131533
903.818	0.0130470
903.896	0.0130632
903.974	0.0131573
904.052	0.0130119
904.130	0.0132060
904.208	0.0131848
904.286	0.0130561
904.364	0.0133564
904.443	0.0132419
904.521	0.0134450
904.599	0.0134811
904.677	0.0136526
904.755	0.0135279
904.833	0.0135859
904.911	0.0135233
904.989	0.0136051
905.068	0.0135658
905.146	0.0135404
905.224	0.0137341
905.302	0.0135351
905.380	0.0134807
905.458	0.0134704
905.536	0.0134822
905.614	0.0133587
905.693	0.0132616
905.771	0.0133128
905.849	0.0131347
905.927	0.0131616
906.005	0.0130604
906.083	0.0131105
906.161	0.0129976
906.239	0.0129601
906.318	0.0129111
906.396	0.0131024
906.474	0.0131869
906.552	0.0129337
906.630	0.0131931
906.708	0.0131459
906.786	0.0130386
906.864	0.0133942
906.943	0.0131738
907.021	0.0133272
907.099	0.0132466
907.177	0.0134225
907.255	0.0136279
907.333	0.0136787
907.411	0.0137395
907.489	0.0138582
907.568	0.0138076
907.646	0.0138480
907.724	0.0139456
907.802	0.0140096
907.880	0.0138120
907.958	0.0138466
908.036	0.0139188
908.114	0.0138263
908.193	0.0135447
908.271	0.0136130
908.349	0.0136056
908.427	0.0133073
908.505	0.0134177
908.583	0.0133482
908.661	0.0130866
908.739	0.0131834
908.818	0.0131937
908.896	0.0131436
908.974	0.0130476
909.052	0.0131274
909.130	0.0130684
909.208	0.0130663
909.286	0.0130211
909.364	0.0130097
909.443	0.0130315
909.521	0.0132325
909.599	0.0130683
909.677	0.0131924
909.755	0.0132593
909.833	0.0132492
909.911	0.0132616
909.989	0.0132811
910.068	0.0132478
910.146	0.0133091
910.224	0.0133463
910.302	0.0132775
910.380	0.0132655
910.458	0.0133530
910.536	0.0133273
910.614	0.0135619
910.693	0.0135029
910.771	0.0133274
910.849	0.0133948
910.927	0.0133011
911.005	0.0134741
911.083	0.0133534
911.161	0.0133879
911.239	0.0133617
911.318	0.0134260
911.396	0.0133917
911.474	0.0132368
911.552	0.0131107
911.630	0.0133013
911.708	0.0133634
911.786	0.0133043
911.864	0.0133018
911.943	0.0132887
912.021	0.0133871
912.099	0.0135521
912.177	0.0134617
912.255	0.0134254
912.333	0.0135369
912.411	0.0134972
912.489	0.0135085
912.568	0.0136327
912.646	0.0137670
912.724	0.0136725
912.802	0.0136178
912.880	0.0136984
912.958	0.0136211
913.036	0.0135912
913.114	0.0137659
913.193	0.0136986
913.271	0.0137148
913.349	0.0133353
913.427	0.0135327
913.505	0.0136367
913.583	0.0134261
913.661	0.0134418
913.739	0.0134814
913.818	0.0133195
913.896	0.0131369
913.974	0.0132165
914.052	0.0131606
914.130	0.0131358
914.208	0.0131058
914.286	0.0130929
914.364	0.0129958
914.443	0.0131314
914.521	0.0130316
914.599	0.0131579
914.677	0.0129838
914.755	0.0130017
914.833	0.0131712
914.911	0.0131950
914.989	0.0132117
915.068	0.0132098
915.146	0.0131430
915.224	0.0131521
915.302	0.0132026
915.380	0.0133874
915.458	0.0132555
915.536	0.0132285
915.614	0.0132581
915.693	0.0132983
915.771	0.0133223
915.849	0.0132938
915.927	0.0132984
916.005	0.0134238
916.083	0.0133580
916.161	0.0133492
916.239	0.0132782
916.318	0.0134988
916.396	0.0134062
916.474	0.0134115
916.552	0.0134011
916.630	0.0134499
916.708	0.0134484
916.786	0.0134512
916.864	0.0135678
916.943	0.0134309
917.021	0.0134364
917.099	0.0134819
917.177	0.0134179
917.255	0.0134268
917.333	0.0134752
917.411	0.0134634
917.489	0.0134067
917.568	0.0135219
917.646	0.0136140
917.724	0.0135784
917.802	0.0134031
917.880	0.0135716
917.958	0.0134618
918.036	0.0135573
918.114	0.0136513
918.193	0.0136378
918.271	0.0135258
918.349	0.0135687
918.427	0.0136186
918.505	0.0134872
918.583	0.0133913
918.661	0.0135440
918.739	0.0134460
918.818	0.0134455
918.896	0.0134685
918.974	0.0133408
919.052	0.0131549
919.130	0.0132789
919.208	0.0133310
919.286	0.0132372
919.364	0.0131872
919.443	0.0132359
919.521	0.0132761
919.599	0.0131337
919.677	0.0132700
919.755	0.0132957
919.833	0.0133519
919.911	0.0132570
919.989	0.0133184
920.068	0.0131434
920.146	0.0133694
920.224	0.0134583
920.302	0.0133584
920.380	0.0133683
920.458	0.0134263
920.536	0.0133737
920.614	0.0134483
920.693	0.0134445
920.771	0.0134172
920.849	0.0133817
920.927	0.0135113
921.005	0.0134244
921.083	0.0134030
921.161	0.0134210
921.239	0.0133270
921.318	0.0133870
921.396	0.0134898
921.474	0.0134470
921.552	0.0133420
921.630	0.0133190
921.708	0.0133372
921.786	0.0133607
921.864	0.0131322
921.943	0.0131390
922.021	0.0131576
922.099	0.0131835
922.177	0.0132095
922.255	0.0131841
922.333	0.0132375
922.411	0.0133186
922.489	0.0133501
922.568	0.0133154
922.646	0.0134417
922.724	0.0133362
922.802	0.0133848
922.880	0.0134286
922.958	0.0134763
923.036	0.0134872
923.114	0.0136052
923.193	0.0135404
923.271	0.0135302
923.349	0.0136542
923.427	0.0137550
923.505	0.0135497
923.583	0.0136101
923.661	0.0136220
923.739	0.0137367
923.818	0.0134543
923.896	0.0136124
923.974	0.0135428
924.052	0.0135318
924.130	0.0135961
924.208	0.0133521
924.286	0.0134491
924.364	0.0134243
924.443	0.0133935
924.521	0.0133625
924.599	0.0134055
924.677	0.0132809
924.755	0.0132533
924.833	0.0133072
924.911	0.0132738
924.989	0.0131928
925.068	0.0132663
925.146	0.0131824
925.224	0.0132058
925.302	0.0132565
925.380	0.0131435
925.458	0.0131631
925.536	0.0131374
925.614	0.0131592
925.693	0.0132639
925.771	0.0133779
925.849	0.0134212
925.927	0.0132256
926.005	0.0133088
926.083	0.0133992
926.161	0.0134668
926.239	0.0132909
926.318	0.0133580
926.396	0.0134013
926.474	0.0132630
926.552	0.0133639
926.630	0.0133735
926.708	0.0134159
926.786	0.0133229
926.864	0.0131832
926.943	0.0130761
927.021	0.0133120
927.099	0.0132027
927.177	0.0130648
927.255	0.0131235
927.333	0.0132211
927.411	0.0130624
927.489	0.0130279
927.568	0.0131567
927.646	0.0131400
927.724	0.0132301
927.802	0.0131023
927.880	0.0130153
927.958	0.0131445
928.036	0.0131676
928.114	0.0131335
928.193	0.0131094
928.271	0.0131464
928.349	0.0132739
928.427	0.0131997
928.505	0.0132652
928.583	0.0134290
928.661	0.0135847
928.739	0.0135165
928.818	0.0136381
928.896	0.0134812
928.974	0.0135838
929.052	0.0137379
929.130	0.0137840
929.208	0.0136345
929.286	0.0136747
929.364	0.0138150
929.443	0.0136976
929.521	0.0136953
929.599	0.0138743
929.677	0.0137794
929.755	0.0137553
929.833	0.0135843
929.911	0.0136896
929.989	0.0135980
930.068	0.0134605
930.146	0.0133875
930.224	0.0134201
930.302	0.0132777
930.380	0.0132626
930.458	0.0132893
930.536	0.0133213
930.614	0.0133383
930.693	0.0133469
930.771	0.0131417
930.849	0.0131768
930.927	0.0133017
931.005	0.0133185
931.083	0.0132710
931.161	0.0132159
931.239	0.0132337
931.318	0.0132346
931.396	0.0134034
931.474	0.0133160
931.552	0.0133321
931.630	0.0132674
931.708	0.0131979
931.786	0.0133044
931.864	0.0132346
931.943	0.0132872
932.021	0.0132543
932.099	0.0133513
932.177	0.0132957
932.255	0.0132021
932.333	0.0132639
932.411	0.0131673
932.489	0.0132113
932.568	0.0132513
932.646	0.0133074
932.724	0.0132123
932.802	0.0132583
932.880	0.0132393
932.958	0.0132033
933.036	0.0131160
933.114	0.0130634
933.193	0.0132204
933.271	0.0132250
933.349	0.0131532
933.427	0.0132124
933.505	0.0130502
933.583	0.0133530
933.661	0.0132973
933.739	0.0133241
933.818	0.0132664
933.896	0.0132099
933.974	0.0132764
934.052	0.0132477
934.130	0.0133066
934.208	0.0132740
934.286	0.0133821
934.364	0.0134534
934.443	0.0134610
934.521	0.0135467
934.599	0.0134144
934.677	0.0135619
934.755	0.0136733
934.833	0.0134550
934.911	0.0137046
934.989	0.0137481
935.068	0.0136816
935.146	0.0136349
935.224	0.0139302
935.302	0.0139017
935.380	0.0137000
935.458	0.0136898
935.536	0.0137363
935.614	0.0137719
935.693	0.0137934
935.771	0.0137019
935.849	0.0136707
935.927	0.0137971
936.005	0.0136047
936.083	0.0136427
936.161	0.0135724
936.239	0.0135071
936.318	0.0134835
936.396	0.0134862
936.474	0.0133624
936.552	0.0133736
936.630	0.0132602
936.708	0.0134244
936.786	0.0132545
936.864	0.0131807
936.943	0.0133636
937.021	0.0131278
937.099	0.0131193
937.177	0.0132130
937.255	0.0131531
937.333	0.0132690
937.411	0.0130511
937.489	0.0130293
937.568	0.0130727
937.646	0.0128814
937.724	0.0130047
937.802	0.0130073
937.880	0.0129783
937.958	0.0130514
938.036	0.0131122
938.114	0.0129008
938.193	0.0130756
938.271	0.0131716
938.349	0.0132302
938.427	0.0132362
938.505	0.0131521
938.583	0.0131053
938.661	0.0132169
938.739	0.0133143
938.818	0.0131958
938.896	0.0133338
938.974	0.0132970
939.052	0.0131725
939.130	0.0132184
939.208	0.0131914
939.286	0.0132364
939.364	0.0132962
939.443	0.0132444
939.521	0.0135226
939.599	0.0134311
939.677	0.0134333
939.755	0.0134979
939.833	0.0134359
939.911	0.0135558
939.989	0.0134371
940.068	0.0135435
940.146	0.0136584
940.224	0.0135764
940.302	0.0137301
940.380	0.0137590
940.458	0.0138255
940.536	0.0136377
940.614	0.0136091
940.693	0.0136731
940.771	0.0137074
940.849	0.0135522
940.927	0.0136481
941.005	0.0137258
941.083	0.0135873
941.161	0.0136960
941.239	0.0136548
941.318	0.0135365
941.396	0.0136572
941.474	0.0135651
941.552	0.0135345
941.630	0.0135065
941.708	0.0136383
941.786	0.0134528
941.864	0.0133820
941.943	0.0134708
942.021	0.0134367
942.099	0.0134576
942.177	0.0134801
942.255	0.0133468
942.333	0.0134293
942.411	0.0133739
942.489	0.0133617
942.568	0.0132735
942.646	0.0132291
942.724	0.0131605
942.802	0.0130863
942.880	0.0131653
942.958	0.0130076
943.036	0.0129626
943.114	0.0130412
943.193	0.0130674
943.271	0.0129852
943.349	0.0130122
943.427	0.0129541
943.505	0.0130627
943.583	0.0129470
943.661	0.0131132
943.739	0.0130677
943.818	0.0128607
943.896	0.0128997
943.974	0.0131310
944.052	0.0131678
944.130	0.0131780
944.208	0.0132418
944.286	0.0133685
944.364	0.0132880
944.443	0.0132088
944.521	0.0134175
944.599	0.0133021
944.677	0.0133688
944.755	0.0135464
944.833	0.0133803
944.911	0.0134738
944.989	0.0134551
945.068	0.0135155
945.146	0.0135141
945.224	0.0135154
945.302	0.0134592
945.380	0.0134481
945.458	0.0137016
945.536	0.0136343
945.614	0.0135379
945.693	0.0136268
945.771	0.0136115
945.849	0.0135127
945.927	0.0135798
946.005	0.0136942
946.083	0.0135899
946.161	0.0134922
946.239	0.0136039
946.318	0.0135786
946.396	0.0135095
946.474	0.0135653
946.552	0.0136147
946.630	0.0135014
946.708	0.0135104
946.786	0.0135525
946.864	0.0134473
946.943	0.0134018
947.021	0.0132988
947.099	0.0133167
947.177	0.0134286
947.255	0.0134202
947.333	0.0133871
947.411	0.0133171
947.489	0.0134698
947.568	0.0132814
947.646	0.0132590
947.724	0.0133845
947.802	0.0132430
947.880	0.0132576
947.958	0.0132494
948.036	0.0132829
948.114	0.0131614
948.193	0.0132615
948.271	0.0133109
948.349	0.0131299
948.427	0.0131879
948.505	0.0131055
948.583	0.0131267
948.661	0.0131573
948.739	0.0132455
948.818	0.0131831
948.896	0.0131120
948.974	0.0132551
949.052	0.0133350
949.130	0.0130989
949.208	0.0131023
949.286	0.0132870
949.364	0.0132173
949.443	0.0131864
949.521	0.0131057
949.599	0.0131792
949.677	0.0133033
949.755	0.0133887
949.833	0.0134204
949.911	0.0132593
949.989	0.0132673
950.068	0.0132114
950.146	0.0133070
950.224	0.0132825
950.302	0.0133425
950.380	0.0134052
950.458	0.0134068
950.536	0.0132883
950.614	0.0133249
950.693	0.0133277
950.771	0.0135191
950.849	0.0135359
950.927	0.0133791
951.005	0.0133556
951.083	0.0134072
951.161	0.0133253
951.239	0.0133469
951.318	0.0134357
951.396	0.0133401
951.474	0.0135426
951.552	0.0135679
951.630	0.0133242
951.708	0.0132920
951.786	0.0134167
951.864	0.0132900
951.943	0.0133274
952.021	0.0134473
952.099	0.0135007
952.177	0.0132944
952.255	0.0134966
952.333	0.0135744
952.411	0.0134579
952.489	0.0134900
952.568	0.0134512
952.646	0.0133034
952.724	0.0135574
952.802	0.0134047
952.880	0.0134812
952.958	0.0134924
953.036	0.0134668
953.114	0.0133907
953.193	0.0132739
953.271	0.0133945
953.349	0.0132462
953.427	0.0131884
953.505	0.0133604
953.583	0.0134293
953.661	0.0133345
953.739	0.0134332
953.818	0.0133773
953.896	0.0134042
953.974	0.0133195
954.052	0.0132684
954.130	0.0134134
954.208	0.0133616
954.286	0.0131426
954.364	0.0134544
954.443	0.0133702
954.521	0.0133104
954.599	0.0132802
954.677	0.0133447
954.755	0.0133909
954.833	0.0133095
954.911	0.0133869
954.989	0.0134560
955.068	0.0134487
955.146	0.0133927
955.224	0.0133412
955.302	0.0133777
955.380	0.0133450
955.458	0.0132924
955.536	0.0133080
955.614	0.0132431
955.693	0.0133064
955.771	0.0133421
955.849	0.0131605
955.927	0.0132436
956.005	0.0131497
956.083	0.0131863
956.161	0.0132226
956.239	0.0132015
956.318	0.0131896
956.396	0.0131500
956.474	0.0132365
956.552	0.0133517
956.630	0.0132394
956.708	0.0133025
956.786	0.0130990
956.864	0.0133765
956.943	0.0133668
957.021	0.0133237
957.099	0.0135140
957.177	0.0134029
957.255	0.0135015
957.333	0.0135313
957.411	0.0134672
957.489	0.0134385
957.568	0.0135728
957.646	0.0136174
957.724	0.0134090
957.802	0.0135508
957.880	0.0135194
957.958	0.0134073
958.036	0.0134673
958.114	0.0133362
958.193	0.0134854
958.271	0.0135162
958.349	0.0134734
958.427	0.0134277
958.505	0.0134674
958.583	0.0133598
958.661	0.0133471
958.739	0.0134756
958.818	0.0134245
958.896	0.0134715
958.974	0.0132784
959.052	0.0133269
959.130	0.0135049
959.208	0.0133848
959.286	0.0132555
959.364	0.0133846
959.443	0.0133196
959.521	0.0133979
959.599	0.0133434
959.677	0.0133939
959.755	0.0133567
959.833	0.0133293
959.911	0.0134026
