05/07/2022	17:00:36	Ver.	4.1	UNKNOWN
Optical Delay	639.989416	Delta X		0.078125	Sweeps	1	Scan Rate	0/0
Coordinates	Axis 1	NaN	Axis 2	NaN	Axis 3	NaN	Axis 4	NaN	Axis 5	NaN	Axis 6	0.000000
TX Power	0.000000	RX Power	0.000000

639.989	0.0123376
640.068	0.0124332
640.146	0.0121957
640.224	0.0123036
640.302	0.0124291
640.380	0.0123946
640.458	0.0123041
640.536	0.0123775
640.614	0.0123572
640.693	0.0123759
640.771	0.0123158
640.849	0.0123543
640.927	0.0123749
641.005	0.0124294
641.083	0.0122054
641.161	0.0123501
641.239	0.0124770
641.318	0.0123833
641.396	0.0122808
641.474	0.0123178
641.552	0.0123648
641.630	0.0122992
641.708	0.0123366
641.786	0.0123470
641.864	0.0121900
641.943	0.0122607
642.021	0.0123029
642.099	0.0124068
642.177	0.0122755
642.255	0.0122977
642.333	0.0123470
642.411	0.0123669
642.489	0.0122263
642.568	0.0122996
642.646	0.0123632
642.724	0.0124518
642.802	0.0123281
642.880	0.0125175
642.958	0.0122725
643.036	0.0122903
643.114	0.0123226
643.193	0.0123149
643.271	0.0123387
643.349	0.0122868
643.427	0.0122777
643.505	0.0122964
643.583	0.0123006
643.661	0.0124428
643.739	0.0123695
643.818	0.0123057
643.896	0.0123957
643.974	0.0122833
644.052	0.0123323
644.130	0.0124710
644.208	0.0123597
644.286	0.0123956
644.364	0.0123080
644.443	0.0123229
644.521	0.0122775
644.599	0.0123717
644.677	0.0123756
644.755	0.0123035
644.833	0.0122900
644.911	0.0123470
644.989	0.0122077
645.068	0.0124261
645.146	0.0123598
645.224	0.0122610
645.302	0.0123913
645.380	0.0123180
645.458	0.0123225
645.536	0.0123936
645.614	0.0124393
645.693	0.0123240
645.771	0.0124015
645.849	0.0121878
645.927	0.0123740
646.005	0.0123656
646.083	0.0124288
646.161	0.0124518
646.239	0.0123745
646.318	0.0122466
646.396	0.0122085
646.474	0.0124165
646.552	0.0124026
646.630	0.0122767
646.708	0.0123659
646.786	0.0122527
646.864	0.0122566
646.943	0.0123867
647.021	0.0123407
647.099	0.0123074
647.177	0.0123531
647.255	0.0122771
647.333	0.0121800
647.411	0.0123508
647.489	0.0122968
647.568	0.0122664
647.646	0.0123592
647.724	0.0122584
647.802	0.0123436
647.880	0.0123083
647.958	0.0121706
648.036	0.0123753
648.114	0.0123959
648.193	0.0122971
648.271	0.0122993
648.349	0.0123618
648.427	0.0123815
648.505	0.0123025
648.583	0.0123842
648.661	0.0122388
648.739	0.0122334
648.818	0.0122872
648.896	0.0122530
648.974	0.0122691
649.052	0.0124471
649.130	0.0124378
649.208	0.0121819
649.286	0.0123340
649.364	0.0124359
649.443	0.0123206
649.521	0.0123381
649.599	0.0123678
649.677	0.0123667
649.755	0.0124615
649.833	0.0123338
649.911	0.0124984
649.989	0.0122923
650.068	0.0124021
650.146	0.0123459
650.224	0.0123229
650.302	0.0123083
650.380	0.0122757
650.458	0.0122311
650.536	0.0124247
650.614	0.0123112
650.693	0.0122635
650.771	0.0123174
650.849	0.0122717
650.927	0.0122854
651.005	0.0122618
651.083	0.0122536
651.161	0.0123882
651.239	0.0122843
651.318	0.0123547
651.396	0.0123567
651.474	0.0122467
651.552	0.0124146
651.630	0.0123583
651.708	0.0123645
651.786	0.0124082
651.864	0.0124065
651.943	0.0123129
652.021	0.0123728
652.099	0.0123824
652.177	0.0122472
652.255	0.0122976
652.333	0.0125044
652.411	0.0122986
652.489	0.0123726
652.568	0.0123514
652.646	0.0123302
652.724	0.0124298
652.802	0.0124223
652.880	0.0123479
652.958	0.0123468
653.036	0.0123802
653.114	0.0123589
653.193	0.0122407
653.271	0.0124171
653.349	0.0121609
653.427	0.0121687
653.505	0.0123174
653.583	0.0122864
653.661	0.0124606
653.739	0.0123145
653.818	0.0123783
653.896	0.0122172
653.974	0.0123542
654.052	0.0123985
654.130	0.0123984
654.208	0.0123754
654.286	0.0122211
654.364	0.0124204
654.443	0.0123373
654.521	0.0123611
654.599	0.0124904
654.677	0.0123060
654.755	0.0122700
654.833	0.0125130
654.911	0.0124137
654.989	0.0123295
655.068	0.0123640
655.146	0.0123382
655.224	0.0123195
655.302	0.0123248
655.380	0.0122761
655.458	0.0124565
655.536	0.0123099
655.614	0.0122984
655.693	0.0122831
655.771	0.0123835
655.849	0.0124319
655.927	0.0123066
656.005	0.0122520
656.083	0.0123962
656.161	0.0122904
656.239	0.0122963
656.318	0.0123746
656.396	0.0123026
656.474	0.0124555
656.552	0.0122832
656.630	0.0124431
656.708	0.0122895
656.786	0.0122515
656.864	0.0123788
656.943	0.0123899
657.021	0.0123843
657.099	0.0124236
657.177	0.0123333
657.255	0.0122752
657.333	0.0123798
657.411	0.0123095
657.489	0.0124313
657.568	0.0123145
657.646	0.0122432
657.724	0.0123450
657.802	0.0123068
657.880	0.0122154
657.958	0.0123595
658.036	0.0123487
658.114	0.0123638
658.193	0.0123818
658.271	0.0123527
658.349	0.0123571
658.427	0.0123899
658.505	0.0124836
658.583	0.0124020
658.661	0.0124150
658.739	0.0123171
658.818	0.0123788
658.896	0.0122570
658.974	0.0123111
659.052	0.0122537
659.130	0.0123184
659.208	0.0124308
659.286	0.0123231
659.364	0.0123045
659.443	0.0124357
659.521	0.0123214
659.599	0.0122179
659.677	0.0124971
659.755	0.0123050
659.833	0.0123040
659.911	0.0123900
659.989	0.0123931
660.068	0.0123557
660.146	0.0121183
660.224	0.0122594
660.302	0.0124259
660.380	0.0123774
660.458	0.0124201
660.536	0.0123427
660.614	0.0123793
660.693	0.0123603
660.771	0.0123734
660.849	0.0124136
660.927	0.0123408
661.005	0.0122882
661.083	0.0123778
661.161	0.0123868
661.239	0.0123761
661.318	0.0122923
661.396	0.0122984
661.474	0.0123385
661.552	0.0123692
661.630	0.0123762
661.708	0.0123161
661.786	0.0122320
661.864	0.0122338
661.943	0.0123573
662.021	0.0123296
662.099	0.0123317
662.177	0.0124187
662.255	0.0124077
662.333	0.0123209
662.411	0.0122768
662.489	0.0122636
662.568	0.0123541
662.646	0.0122690
662.724	0.0122822
662.802	0.0123049
662.880	0.0122647
662.958	0.0123058
663.036	0.0124242
663.114	0.0124105
663.193	0.0123948
663.271	0.0124037
663.349	0.0124496
663.427	0.0123754
663.505	0.0123601
663.583	0.0124624
663.661	0.0123248
663.739	0.0123273
663.818	0.0125031
663.896	0.0123451
663.974	0.0123430
664.052	0.0124232
664.130	0.0123238
664.208	0.0122929
664.286	0.0124143
664.364	0.0124017
664.443	0.0122858
664.521	0.0122940
664.599	0.0125014
664.677	0.0123174
664.755	0.0122523
664.833	0.0125424
664.911	0.0124590
664.989	0.0122913
665.068	0.0122337
665.146	0.0124804
665.224	0.0123164
665.302	0.0123080
665.380	0.0123045
665.458	0.0123496
665.536	0.0123926
665.614	0.0122890
665.693	0.0125069
665.771	0.0123723
665.849	0.0123431
665.927	0.0124512
666.005	0.0124093
666.083	0.0124104
666.161	0.0123470
666.239	0.0123721
666.318	0.0124432
666.396	0.0123950
666.474	0.0124480
666.552	0.0124015
666.630	0.0123658
666.708	0.0124463
666.786	0.0122654
666.864	0.0124709
666.943	0.0123788
667.021	0.0123560
667.099	0.0123438
667.177	0.0122854
667.255	0.0124709
667.333	0.0123784
667.411	0.0124551
667.489	0.0124290
667.568	0.0124544
667.646	0.0124349
667.724	0.0123567
667.802	0.0123553
667.880	0.0125144
667.958	0.0123734
668.036	0.0122614
668.114	0.0123586
668.193	0.0123364
668.271	0.0123083
668.349	0.0123254
668.427	0.0123846
668.505	0.0124376
668.583	0.0123565
668.661	0.0123373
668.739	0.0124342
668.818	0.0124839
668.896	0.0124605
668.974	0.0124448
669.052	0.0124150
669.130	0.0124023
669.208	0.0123710
669.286	0.0124313
669.364	0.0124323
669.443	0.0122044
669.521	0.0123667
669.599	0.0124294
669.677	0.0122723
669.755	0.0122649
669.833	0.0122984
669.911	0.0124318
669.989	0.0125201
670.068	0.0123659
670.146	0.0122614
670.224	0.0123034
670.302	0.0123491
670.380	0.0122971
670.458	0.0123335
670.536	0.0123546
670.614	0.0123185
670.693	0.0123549
670.771	0.0121262
670.849	0.0123479
670.927	0.0123534
671.005	0.0121728
671.083	0.0122114
671.161	0.0123750
671.239	0.0123853
671.318	0.0122136
671.396	0.0122298
671.474	0.0122169
671.552	0.0121819
671.630	0.0122923
671.708	0.0121833
671.786	0.0123107
671.864	0.0122803
671.943	0.0122124
672.021	0.0123832
672.099	0.0122704
672.177	0.0122459
672.255	0.0121883
672.333	0.0121176
672.411	0.0123595
672.489	0.0121747
672.568	0.0122399
672.646	0.0121502
672.724	0.0121762
672.802	0.0121214
672.880	0.0121655
672.958	0.0121936
673.036	0.0122278
673.114	0.0122269
673.193	0.0121526
673.271	0.0121159
673.349	0.0121321
673.427	0.0122204
673.505	0.0122935
673.583	0.0123568
673.661	0.0121955
673.739	0.0121848
673.818	0.0121899
673.896	0.0120794
673.974	0.0121298
674.052	0.0121871
674.130	0.0122624
674.208	0.0122559
674.286	0.0121606
674.364	0.0120956
674.443	0.0121950
674.521	0.0123082
674.599	0.0121586
674.677	0.0122959
674.755	0.0122156
674.833	0.0122195
674.911	0.0121420
674.989	0.0122221
675.068	0.0123437
675.146	0.0121272
675.224	0.0121497
675.302	0.0121871
675.380	0.0121845
675.458	0.0121845
675.536	0.0120294
675.614	0.0122262
675.693	0.0122218
675.771	0.0121571
675.849	0.0122683
675.927	0.0122698
676.005	0.0121593
676.083	0.0122182
676.161	0.0123076
676.239	0.0121774
676.318	0.0122382
676.396	0.0123347
676.474	0.0123713
676.552	0.0124023
676.630	0.0124025
676.708	0.0123296
676.786	0.0123572
676.864	0.0124147
676.943	0.0124751
677.021	0.0124936
677.099	0.0123991
677.177	0.0124888
677.255	0.0124155
677.333	0.0124556
677.411	0.0126336
677.489	0.0125508
677.568	0.0124667
677.646	0.0124379
677.724	0.0125848
677.802	0.0125742
677.880	0.0124550
677.958	0.0125022
678.036	0.0125047
678.114	0.0124899
678.193	0.0125165
678.271	0.0125088
678.349	0.0126433
678.427	0.0125790
678.505	0.0124036
678.583	0.0125505
678.661	0.0125758
678.739	0.0124626
678.818	0.0125159
678.896	0.0125467
678.974	0.0124156
679.052	0.0125913
679.130	0.0126357
679.208	0.0125234
679.286	0.0125877
679.364	0.0124025
679.443	0.0125722
679.521	0.0126176
679.599	0.0124887
679.677	0.0126125
679.755	0.0126540
679.833	0.0126337
679.911	0.0126010
679.989	0.0126114
680.068	0.0124677
680.146	0.0125034
680.224	0.0124596
680.302	0.0126738
680.380	0.0126476
680.458	0.0126091
680.536	0.0125522
680.614	0.0123941
680.693	0.0125256
680.771	0.0126457
680.849	0.0125156
680.927	0.0126270
681.005	0.0125910
681.083	0.0125116
681.161	0.0125395
681.239	0.0126576
681.318	0.0125182
681.396	0.0125525
681.474	0.0124864
681.552	0.0125260
681.630	0.0125414
681.708	0.0124769
681.786	0.0126214
681.864	0.0125819
681.943	0.0124374
682.021	0.0124793
682.099	0.0125014
682.177	0.0125526
682.255	0.0124725
682.333	0.0125028
682.411	0.0124708
682.489	0.0123983
682.568	0.0124701
682.646	0.0124921
682.724	0.0123489
682.802	0.0123480
682.880	0.0124811
682.958	0.0123619
683.036	0.0123994
683.114	0.0123945
683.193	0.0122734
683.271	0.0123392
683.349	0.0123956
683.427	0.0123878
683.505	0.0123711
683.583	0.0123560
683.661	0.0122988
683.739	0.0123454
683.818	0.0124259
683.896	0.0124422
683.974	0.0122704
684.052	0.0122528
684.130	0.0123904
684.208	0.0123095
684.286	0.0122159
684.364	0.0122485
684.443	0.0122795
684.521	0.0122845
684.599	0.0123165
684.677	0.0123537
684.755	0.0123399
684.833	0.0122826
684.911	0.0123566
684.989	0.0121935
685.068	0.0122083
685.146	0.0121986
685.224	0.0123392
685.302	0.0122835
685.380	0.0122260
685.458	0.0121612
685.536	0.0122649
685.614	0.0121759
685.693	0.0121628
685.771	0.0122623
685.849	0.0121861
685.927	0.0122511
686.005	0.0121819
686.083	0.0122314
686.161	0.0124045
686.239	0.0123034
686.318	0.0120890
686.396	0.0121247
686.474	0.0122729
686.552	0.0123157
686.630	0.0120680
686.708	0.0121939
686.786	0.0123260
686.864	0.0122105
686.943	0.0123323
687.021	0.0123562
687.099	0.0122468
687.177	0.0122639
687.255	0.0121490
687.333	0.0120992
687.411	0.0122346
687.489	0.0122520
687.568	0.0122906
687.646	0.0123714
687.724	0.0123702
687.802	0.0123241
687.880	0.0122710
687.958	0.0122833
688.036	0.0123792
688.114	0.0124110
688.193	0.0125622
688.271	0.0123373
688.349	0.0122948
688.427	0.0123571
688.505	0.0124506
688.583	0.0124034
688.661	0.0124245
688.739	0.0122929
688.818	0.0121574
688.896	0.0121777
688.974	0.0122128
689.052	0.0124159
689.130	0.0123348
689.208	0.0123776
689.286	0.0122026
689.364	0.0121243
689.443	0.0125014
689.521	0.0123734
689.599	0.0123571
689.677	0.0121790
689.755	0.0122920
689.833	0.0124993
689.911	0.0123018
689.989	0.0124442
690.068	0.0124181
690.146	0.0123619
690.224	0.0124152
690.302	0.0124844
690.380	0.0123891
690.458	0.0122299
690.536	0.0123517
690.614	0.0123212
690.693	0.0121853
690.771	0.0122456
690.849	0.0123339
690.927	0.0122871
691.005	0.0123415
691.083	0.0121813
691.161	0.0121076
691.239	0.0123514
691.318	0.0122777
691.396	0.0121230
691.474	0.0119841
691.552	0.0121955
691.630	0.0121594
691.708	0.0121575
691.786	0.0123030
691.864	0.0123050
691.943	0.0121715
692.021	0.0122362
692.099	0.0122717
692.177	0.0122180
692.255	0.0123240
692.333	0.0124361
692.411	0.0125576
692.489	0.0123848
692.568	0.0124460
692.646	0.0125459
692.724	0.0126655
692.802	0.0125568
692.880	0.0125761
692.958	0.0125441
693.036	0.0124023
693.114	0.0123558
693.193	0.0124671
693.271	0.0123534
693.349	0.0123243
693.427	0.0123531
693.505	0.0123692
693.583	0.0120238
693.661	0.0120725
693.739	0.0120014
693.818	0.0120087
693.896	0.0121753
693.974	0.0121132
694.052	0.0120719
694.130	0.0120856
694.208	0.0121391
694.286	0.0121101
694.364	0.0122203
694.443	0.0122617
694.521	0.0122709
694.599	0.0123200
694.677	0.0122946
694.755	0.0123958
694.833	0.0124552
694.911	0.0126025
694.989	0.0125333
695.068	0.0125136
695.146	0.0124557
695.224	0.0126645
695.302	0.0125426
695.380	0.0123752
695.458	0.0121896
695.536	0.0122595
695.614	0.0123754
695.693	0.0123266
695.771	0.0121739
695.849	0.0122233
695.927	0.0123769
696.005	0.0122795
696.083	0.0120208
696.161	0.0123097
696.239	0.0122049
696.318	0.0120554
696.396	0.0122562
696.474	0.0121768
696.552	0.0123167
696.630	0.0122852
696.708	0.0123317
696.786	0.0121781
696.864	0.0122118
696.943	0.0121178
697.021	0.0121898
697.099	0.0120685
697.177	0.0120116
697.255	0.0122626
697.333	0.0122649
697.411	0.0121798
697.489	0.0122037
697.568	0.0121718
697.646	0.0121764
697.724	0.0122046
697.802	0.0121505
697.880	0.0122250
697.958	0.0123336
698.036	0.0123196
698.114	0.0123668
698.193	0.0124133
698.271	0.0123305
698.349	0.0123755
698.427	0.0124585
698.505	0.0124091
698.583	0.0124158
698.661	0.0122930
698.739	0.0123603
698.818	0.0124615
698.896	0.0123696
698.974	0.0124263
699.052	0.0123793
699.130	0.0123424
699.208	0.0124667
699.286	0.0124257
699.364	0.0123571
699.443	0.0121905
699.521	0.0121753
699.599	0.0122736
699.677	0.0121986
699.755	0.0122173
699.833	0.0124363
699.911	0.0122253
699.989	0.0121590
700.068	0.0124427
700.146	0.0123609
700.224	0.0123711
700.302	0.0124281
700.380	0.0124168
700.458	0.0124747
700.536	0.0123997
700.614	0.0124699
700.693	0.0125100
700.771	0.0123019
700.849	0.0120880
700.927	0.0123405
701.005	0.0122891
701.083	0.0121993
701.161	0.0122305
701.239	0.0121955
701.318	0.0122379
701.396	0.0121195
701.474	0.0119929
701.552	0.0120146
701.630	0.0119925
701.708	0.0118809
701.786	0.0119768
701.864	0.0119237
701.943	0.0118790
702.021	0.0119058
702.099	0.0119080
702.177	0.0119805
702.255	0.0119563
702.333	0.0119632
702.411	0.0120580
702.489	0.0121297
702.568	0.0122406
702.646	0.0122842
702.724	0.0124409
702.802	0.0123740
702.880	0.0123850
702.958	0.0124928
703.036	0.0124776
703.114	0.0126273
703.193	0.0125945
703.271	0.0126768
703.349	0.0127032
703.427	0.0127119
703.505	0.0127703
703.583	0.0127046
703.661	0.0126434
703.739	0.0125202
703.818	0.0124328
703.896	0.0125310
703.974	0.0123974
704.052	0.0123724
704.130	0.0124024
704.208	0.0123032
704.286	0.0122237
704.364	0.0122525
704.443	0.0122276
704.521	0.0122829
704.599	0.0122419
704.677	0.0122421
704.755	0.0121573
704.833	0.0122372
704.911	0.0121553
704.989	0.0121838
705.068	0.0120863
705.146	0.0121421
705.224	0.0121539
705.302	0.0120426
705.380	0.0120739
705.458	0.0120879
705.536	0.0121967
705.614	0.0121661
705.693	0.0122077
705.771	0.0121981
705.849	0.0123954
705.927	0.0123906
706.005	0.0124883
706.083	0.0124470
706.161	0.0123664
706.239	0.0125101
706.318	0.0124433
706.396	0.0123820
706.474	0.0126038
706.552	0.0127705
706.630	0.0126025
706.708	0.0124357
706.786	0.0124854
706.864	0.0127803
706.943	0.0126536
707.021	0.0126409
707.099	0.0125755
707.177	0.0126067
707.255	0.0127620
707.333	0.0127587
707.411	0.0127062
707.489	0.0127032
707.568	0.0127539
707.646	0.0126402
707.724	0.0127659
707.802	0.0128140
707.880	0.0127799
707.958	0.0127385
708.036	0.0125851
708.114	0.0126942
708.193	0.0126578
708.271	0.0127157
708.349	0.0125850
708.427	0.0127293
708.505	0.0126443
708.583	0.0125563
708.661	0.0125509
708.739	0.0125861
708.818	0.0125777
708.896	0.0124855
708.974	0.0125204
709.052	0.0124779
709.130	0.0125082
709.208	0.0123740
709.286	0.0122911
709.364	0.0122270
709.443	0.0123281
709.521	0.0122992
709.599	0.0122369
709.677	0.0121854
709.755	0.0122233
709.833	0.0120544
709.911	0.0121954
709.989	0.0121469
710.068	0.0122155
710.146	0.0122010
710.224	0.0121027
710.302	0.0120970
710.380	0.0121478
710.458	0.0122143
710.536	0.0122311
710.614	0.0123092
710.693	0.0122887
710.771	0.0122014
710.849	0.0122501
710.927	0.0123624
711.005	0.0123255
711.083	0.0123318
711.161	0.0125007
711.239	0.0123505
711.318	0.0123102
711.396	0.0123586
711.474	0.0124721
711.552	0.0123677
711.630	0.0122346
711.708	0.0123500
711.786	0.0123509
711.864	0.0123664
711.943	0.0124119
712.021	0.0124786
712.099	0.0125105
712.177	0.0123464
712.255	0.0124940
712.333	0.0124313
712.411	0.0123995
712.489	0.0124386
712.568	0.0123320
712.646	0.0123200
712.724	0.0122234
712.802	0.0121811
712.880	0.0123602
712.958	0.0123437
713.036	0.0124021
713.114	0.0122554
713.193	0.0123382
713.271	0.0122691
713.349	0.0123328
713.427	0.0124802
713.505	0.0123338
713.583	0.0123669
713.661	0.0122913
713.739	0.0122333
713.818	0.0122779
713.896	0.0122411
713.974	0.0121359
714.052	0.0123390
714.130	0.0121613
714.208	0.0122029
714.286	0.0120690
714.364	0.0120319
714.443	0.0121651
714.521	0.0119496
714.599	0.0120514
714.677	0.0118443
714.755	0.0119800
714.833	0.0120621
714.911	0.0120245
714.989	0.0120432
715.068	0.0119225
715.146	0.0120002
715.224	0.0120290
715.302	0.0121633
715.380	0.0120886
715.458	0.0121764
715.536	0.0122070
715.614	0.0123512
715.693	0.0122858
715.771	0.0122377
715.849	0.0122807
715.927	0.0123923
716.005	0.0123547
716.083	0.0123655
716.161	0.0124049
716.239	0.0123991
716.318	0.0123778
716.396	0.0124817
716.474	0.0125066
716.552	0.0125162
716.630	0.0126784
716.708	0.0125077
716.786	0.0125746
716.864	0.0125802
716.943	0.0125626
717.021	0.0126029
717.099	0.0125823
717.177	0.0126217
717.255	0.0125903
717.333	0.0125195
717.411	0.0125333
717.489	0.0125870
717.568	0.0125485
717.646	0.0126136
717.724	0.0123557
717.802	0.0122324
717.880	0.0125498
717.958	0.0124185
718.036	0.0124130
718.114	0.0123922
718.193	0.0125554
718.271	0.0125632
718.349	0.0123090
718.427	0.0122250
718.505	0.0123695
718.583	0.0124367
718.661	0.0124788
718.739	0.0125191
718.818	0.0122791
718.896	0.0123378
718.974	0.0122387
719.052	0.0122979
719.130	0.0121764
719.208	0.0122812
719.286	0.0122777
719.364	0.0122730
719.443	0.0121326
719.521	0.0122640
719.599	0.0121531
719.677	0.0120962
719.755	0.0121320
719.833	0.0120525
719.911	0.0120807
719.989	0.0121223
720.068	0.0123145
720.146	0.0122159
720.224	0.0122010
720.302	0.0121523
720.380	0.0121183
720.458	0.0122260
720.536	0.0124054
720.614	0.0123522
720.693	0.0123414
720.771	0.0124068
720.849	0.0124766
720.927	0.0125208
721.005	0.0125536
721.083	0.0127084
721.161	0.0127406
721.239	0.0125957
721.318	0.0126684
721.396	0.0125513
721.474	0.0127301
721.552	0.0126485
721.630	0.0126165
721.708	0.0126595
721.786	0.0123565
721.864	0.0124454
721.943	0.0124031
722.021	0.0123256
722.099	0.0122866
722.177	0.0122484
722.255	0.0121076
722.333	0.0120857
722.411	0.0122184
722.489	0.0121545
722.568	0.0120038
722.646	0.0118909
722.724	0.0119981
722.802	0.0119321
722.880	0.0119523
722.958	0.0119162
723.036	0.0119397
723.114	0.0120959
723.193	0.0121706
723.271	0.0121620
723.349	0.0123949
723.427	0.0122744
723.505	0.0122221
723.583	0.0123397
723.661	0.0125281
723.739	0.0124325
723.818	0.0125574
723.896	0.0125854
723.974	0.0124810
724.052	0.0124450
724.130	0.0126000
724.208	0.0125375
724.286	0.0123444
724.364	0.0125428
724.443	0.0124586
724.521	0.0123558
724.599	0.0122672
724.677	0.0122060
724.755	0.0120615
724.833	0.0120336
724.911	0.0120454
724.989	0.0118933
725.068	0.0119526
725.146	0.0118779
725.224	0.0118339
725.302	0.0117416
725.380	0.0118104
725.458	0.0118786
725.536	0.0119270
725.614	0.0118240
725.693	0.0119930
725.771	0.0119946
725.849	0.0120885
725.927	0.0120039
726.005	0.0121407
726.083	0.0121832
726.161	0.0122536
726.239	0.0120827
726.318	0.0122244
726.396	0.0123277
726.474	0.0123762
726.552	0.0123592
726.630	0.0124271
726.708	0.0124709
726.786	0.0123130
726.864	0.0125119
726.943	0.0124483
727.021	0.0123933
727.099	0.0124863
727.177	0.0123816
727.255	0.0123444
727.333	0.0124569
727.411	0.0123608
727.489	0.0122442
727.568	0.0123965
727.646	0.0123461
727.724	0.0123556
727.802	0.0123270
727.880	0.0123802
727.958	0.0123199
728.036	0.0123243
728.114	0.0123335
728.193	0.0122443
728.271	0.0123223
728.349	0.0123283
728.427	0.0122213
728.505	0.0123015
728.583	0.0123267
728.661	0.0123375
728.739	0.0123541
728.818	0.0124962
728.896	0.0123798
728.974	0.0123995
729.052	0.0124454
729.130	0.0126706
729.208	0.0124915
729.286	0.0125019
729.364	0.0124470
729.443	0.0123833
729.521	0.0124393
729.599	0.0123824
729.677	0.0123351
729.755	0.0125163
729.833	0.0123836
729.911	0.0123380
729.989	0.0122636
730.068	0.0122495
730.146	0.0122049
730.224	0.0121353
730.302	0.0123583
730.380	0.0122145
730.458	0.0120983
730.536	0.0121616
730.614	0.0120869
730.693	0.0122921
730.771	0.0123325
730.849	0.0121976
730.927	0.0121678
731.005	0.0121631
731.083	0.0122672
731.161	0.0124483
731.239	0.0125183
731.318	0.0123703
731.396	0.0122709
731.474	0.0125291
731.552	0.0125703
731.630	0.0125491
731.708	0.0125919
731.786	0.0126109
731.864	0.0126875
731.943	0.0124603
732.021	0.0126682
732.099	0.0128326
732.177	0.0125621
732.255	0.0126365
732.333	0.0125734
732.411	0.0124625
732.489	0.0126722
732.568	0.0124630
732.646	0.0123925
732.724	0.0123845
732.802	0.0123207
732.880	0.0123164
732.958	0.0122127
733.036	0.0121471
733.114	0.0122105
733.193	0.0121951
733.271	0.0120556
733.349	0.0118994
733.427	0.0121346
733.505	0.0122158
733.583	0.0121865
733.661	0.0121189
733.739	0.0120857
733.818	0.0121748
733.896	0.0120783
733.974	0.0122246
734.052	0.0121575
734.130	0.0122581
734.208	0.0122637
734.286	0.0122822
734.364	0.0123477
734.443	0.0124014
734.521	0.0122695
734.599	0.0124446
734.677	0.0124387
734.755	0.0124950
734.833	0.0126660
734.911	0.0126055
734.989	0.0124963
735.068	0.0125144
735.146	0.0125637
735.224	0.0125384
735.302	0.0124614
735.380	0.0126366
735.458	0.0126395
735.536	0.0125777
735.614	0.0124660
735.693	0.0124255
735.771	0.0123681
735.849	0.0123186
735.927	0.0122521
736.005	0.0121502
736.083	0.0123632
736.161	0.0122193
736.239	0.0121700
736.318	0.0121091
736.396	0.0120343
736.474	0.0120771
736.552	0.0121001
736.630	0.0120699
736.708	0.0121564
736.786	0.0120683
736.864	0.0122359
736.943	0.0121667
737.021	0.0121627
737.099	0.0123335
737.177	0.0121913
737.255	0.0122927
737.333	0.0123510
737.411	0.0121999
737.489	0.0122212
737.568	0.0124000
737.646	0.0123679
737.724	0.0123564
737.802	0.0123985
737.880	0.0124103
737.958	0.0122906
738.036	0.0123304
738.114	0.0124158
738.193	0.0124538
738.271	0.0124631
738.349	0.0122987
738.427	0.0123092
738.505	0.0123433
738.583	0.0123504
738.661	0.0123619
738.739	0.0123252
738.818	0.0122729
738.896	0.0123138
738.974	0.0124094
739.052	0.0122098
739.130	0.0121447
739.208	0.0122376
739.286	0.0123621
739.364	0.0122311
739.443	0.0123114
739.521	0.0122502
739.599	0.0121614
739.677	0.0122156
739.755	0.0122496
739.833	0.0121910
739.911	0.0120888
739.989	0.0121732
740.068	0.0122466
740.146	0.0124037
740.224	0.0123926
740.302	0.0122780
740.380	0.0122440
740.458	0.0122949
740.536	0.0122449
740.614	0.0123110
740.693	0.0122537
740.771	0.0122852
740.849	0.0122810
740.927	0.0121758
741.005	0.0122463
741.083	0.0124784
741.161	0.0123273
741.239	0.0122998
741.318	0.0123678
741.396	0.0124810
741.474	0.0122743
741.552	0.0123684
741.630	0.0122325
741.708	0.0122826
741.786	0.0123251
741.864	0.0124538
741.943	0.0122890
742.021	0.0123284
742.099	0.0122677
742.177	0.0122803
742.255	0.0122429
742.333	0.0123191
742.411	0.0123133
742.489	0.0123690
742.568	0.0123763
742.646	0.0124477
742.724	0.0124207
742.802	0.0123506
742.880	0.0123969
742.958	0.0124124
743.036	0.0124653
743.114	0.0126105
743.193	0.0125398
743.271	0.0125934
743.349	0.0125143
743.427	0.0125423
743.505	0.0125326
743.583	0.0125310
743.661	0.0125626
743.739	0.0124541
743.818	0.0123660
743.896	0.0126210
743.974	0.0124815
744.052	0.0124779
744.130	0.0123266
744.208	0.0125113
744.286	0.0124408
744.364	0.0124438
744.443	0.0123422
744.521	0.0123156
744.599	0.0124470
744.677	0.0123019
744.755	0.0123376
744.833	0.0122112
744.911	0.0121590
744.989	0.0122221
745.068	0.0122281
745.146	0.0123005
745.224	0.0122914
745.302	0.0123473
745.380	0.0120705
745.458	0.0123184
745.536	0.0122861
745.614	0.0123418
745.693	0.0122699
745.771	0.0123716
745.849	0.0124418
745.927	0.0123585
746.005	0.0122794
746.083	0.0123183
746.161	0.0124896
746.239	0.0125433
746.318	0.0123814
746.396	0.0124284
746.474	0.0124001
746.552	0.0123489
746.630	0.0124620
746.708	0.0123287
746.786	0.0123631
746.864	0.0124407
746.943	0.0124330
747.021	0.0124882
747.099	0.0125076
747.177	0.0125037
747.255	0.0124961
747.333	0.0124482
747.411	0.0124273
747.489	0.0124463
747.568	0.0124945
747.646	0.0124490
747.724	0.0123483
747.802	0.0123882
747.880	0.0124070
747.958	0.0123222
748.036	0.0123794
748.114	0.0122749
748.193	0.0123597
748.271	0.0124125
748.349	0.0122942
748.427	0.0121971
748.505	0.0122119
748.583	0.0123518
748.661	0.0123328
748.739	0.0123258
748.818	0.0123032
748.896	0.0120802
748.974	0.0122967
749.052	0.0120658
749.130	0.0121761
749.208	0.0121896
749.286	0.0120718
749.364	0.0123779
749.443	0.0122317
749.521	0.0121644
749.599	0.0123075
749.677	0.0122787
749.755	0.0122836
749.833	0.0124024
749.911	0.0122896
749.989	0.0124389
750.068	0.0123848
750.146	0.0123563
750.224	0.0124303
750.302	0.0125714
750.380	0.0124464
750.458	0.0123949
750.536	0.0124274
750.614	0.0123649
750.693	0.0124171
750.771	0.0123414
750.849	0.0123519
750.927	0.0123007
751.005	0.0123753
751.083	0.0124558
751.161	0.0121509
751.239	0.0124143
751.318	0.0123543
751.396	0.0122024
751.474	0.0123012
751.552	0.0123206
751.630	0.0123507
751.708	0.0123875
751.786	0.0123690
751.864	0.0121544
751.943	0.0124127
752.021	0.0124937
752.099	0.0122750
752.177	0.0122860
752.255	0.0124644
752.333	0.0123277
752.411	0.0123772
752.489	0.0122887
752.568	0.0122688
752.646	0.0123677
752.724	0.0124006
752.802	0.0122308
752.880	0.0121224
752.958	0.0123434
753.036	0.0122103
753.114	0.0121645
753.193	0.0122083
753.271	0.0123045
753.349	0.0124123
753.427	0.0121465
753.505	0.0122443
753.583	0.0123665
753.661	0.0123627
753.739	0.0122456
753.818	0.0123434
753.896	0.0121799
753.974	0.0121332
754.052	0.0122262
754.130	0.0120943
754.208	0.0121928
754.286	0.0122790
754.364	0.0122512
754.443	0.0122969
754.521	0.0121886
754.599	0.0123205
754.677	0.0123261
754.755	0.0122119
754.833	0.0122746
754.911	0.0122279
754.989	0.0120668
755.068	0.0121109
755.146	0.0123259
755.224	0.0121404
755.302	0.0122128
755.380	0.0122770
755.458	0.0122393
755.536	0.0121498
755.614	0.0121334
755.693	0.0122737
755.771	0.0122675
755.849	0.0123109
755.927	0.0124136
756.005	0.0122562
756.083	0.0124563
756.161	0.0125945
756.239	0.0124677
756.318	0.0125488
756.396	0.0126825
756.474	0.0125220
756.552	0.0123515
756.630	0.0124966
756.708	0.0126101
756.786	0.0125960
756.864	0.0125553
756.943	0.0124363
757.021	0.0122717
757.099	0.0123448
757.177	0.0123826
757.255	0.0123460
757.333	0.0122802
757.411	0.0123244
757.489	0.0122744
757.568	0.0122974
757.646	0.0121643
757.724	0.0122874
757.802	0.0121359
757.880	0.0121523
757.958	0.0120631
758.036	0.0123245
758.114	0.0122281
758.193	0.0122952
758.271	0.0121821
758.349	0.0123300
758.427	0.0123540
758.505	0.0123167
758.583	0.0123492
758.661	0.0123689
758.739	0.0125087
758.818	0.0125173
758.896	0.0123837
758.974	0.0124708
759.052	0.0125111
759.130	0.0122703
759.208	0.0124501
759.286	0.0127121
759.364	0.0124740
759.443	0.0124303
759.521	0.0124964
759.599	0.0125201
759.677	0.0124552
759.755	0.0123962
759.833	0.0124200
759.911	0.0123811
759.989	0.0122836
760.068	0.0123080
760.146	0.0123409
760.224	0.0122269
760.302	0.0121728
760.380	0.0122202
760.458	0.0121900
760.536	0.0122289
760.614	0.0121943
760.693	0.0121969
760.771	0.0121653
760.849	0.0120593
760.927	0.0121511
761.005	0.0120025
761.083	0.0121650
761.161	0.0122034
761.239	0.0122872
761.318	0.0120757
761.396	0.0122443
761.474	0.0122783
761.552	0.0122207
761.630	0.0121225
761.708	0.0122417
761.786	0.0124073
761.864	0.0122261
761.943	0.0121899
762.021	0.0124997
762.099	0.0124341
762.177	0.0124456
762.255	0.0124361
762.333	0.0122482
762.411	0.0123584
762.489	0.0123215
762.568	0.0123547
762.646	0.0122791
762.724	0.0122282
762.802	0.0122662
762.880	0.0123450
762.958	0.0122459
763.036	0.0121820
763.114	0.0122228
763.193	0.0122713
763.271	0.0123824
763.349	0.0123303
763.427	0.0123230
763.505	0.0122813
763.583	0.0121941
763.661	0.0122820
763.739	0.0122472
763.818	0.0122175
763.896	0.0121266
763.974	0.0121726
764.052	0.0122964
764.130	0.0124486
764.208	0.0124291
764.286	0.0124406
764.364	0.0122628
764.443	0.0122976
764.521	0.0124340
764.599	0.0125768
764.677	0.0126118
764.755	0.0125558
764.833	0.0125896
764.911	0.0125477
764.989	0.0124636
765.068	0.0126210
765.146	0.0125345
765.224	0.0124139
765.302	0.0124559
765.380	0.0125443
765.458	0.0124622
765.536	0.0123895
765.614	0.0123273
765.693	0.0122918
765.771	0.0124652
765.849	0.0124873
765.927	0.0123483
766.005	0.0123544
766.083	0.0122321
766.161	0.0122897
766.239	0.0123172
766.318	0.0123662
766.396	0.0125709
766.474	0.0124031
766.552	0.0124187
766.630	0.0124144
766.708	0.0123754
766.786	0.0123083
766.864	0.0123529
766.943	0.0123832
767.021	0.0124521
767.099	0.0124487
767.177	0.0123258
767.255	0.0123109
767.333	0.0123773
767.411	0.0122888
767.489	0.0121949
767.568	0.0124045
767.646	0.0122757
767.724	0.0121817
767.802	0.0122720
767.880	0.0121223
767.958	0.0121427
768.036	0.0121020
768.114	0.0123333
768.193	0.0123671
768.271	0.0123336
768.349	0.0123338
768.427	0.0121930
768.505	0.0122892
768.583	0.0122766
768.661	0.0122721
768.739	0.0124524
768.818	0.0123309
768.896	0.0124158
768.974	0.0124105
769.052	0.0124318
769.130	0.0124898
769.208	0.0123651
769.286	0.0125313
769.364	0.0126395
769.443	0.0126160
769.521	0.0126368
769.599	0.0125629
769.677	0.0125027
769.755	0.0125040
769.833	0.0125654
769.911	0.0125075
769.989	0.0123403
770.068	0.0124255
770.146	0.0123296
770.224	0.0123835
770.302	0.0123158
770.380	0.0121600
770.458	0.0122264
770.536	0.0122787
770.614	0.0124062
770.693	0.0123705
770.771	0.0121725
770.849	0.0121229
770.927	0.0120480
771.005	0.0122720
771.083	0.0121203
771.161	0.0120744
771.239	0.0121219
771.318	0.0120610
771.396	0.0121910
771.474	0.0121181
771.552	0.0121230
771.630	0.0121658
771.708	0.0121064
771.786	0.0122096
771.864	0.0122452
771.943	0.0122335
772.021	0.0121931
772.099	0.0121886
772.177	0.0122156
772.255	0.0123476
772.333	0.0122442
772.411	0.0122768
772.489	0.0122895
772.568	0.0122843
772.646	0.0121954
772.724	0.0121696
772.802	0.0122442
772.880	0.0123611
772.958	0.0122701
773.036	0.0121903
773.114	0.0122683
773.193	0.0123072
773.271	0.0122797
773.349	0.0122966
773.427	0.0122394
773.505	0.0122680
773.583	0.0124169
773.661	0.0121703
773.739	0.0122584
773.818	0.0123227
773.896	0.0122118
773.974	0.0123684
774.052	0.0124196
774.130	0.0124501
774.208	0.0125216
774.286	0.0124796
774.364	0.0125365
774.443	0.0124399
774.521	0.0124494
774.599	0.0124738
774.677	0.0126237
774.755	0.0125916
774.833	0.0125259
774.911	0.0125902
774.989	0.0125803
775.068	0.0124474
775.146	0.0124570
775.224	0.0125231
775.302	0.0125656
775.380	0.0125358
775.458	0.0125844
775.536	0.0126125
775.614	0.0126259
775.693	0.0125035
775.771	0.0124653
775.849	0.0126215
775.927	0.0124466
776.005	0.0124489
776.083	0.0123977
776.161	0.0123357
776.239	0.0123401
776.318	0.0124003
776.396	0.0122427
776.474	0.0123273
776.552	0.0122126
776.630	0.0122688
776.708	0.0122697
776.786	0.0122633
776.864	0.0121767
776.943	0.0122604
777.021	0.0122906
777.099	0.0122886
777.177	0.0124005
777.255	0.0123091
777.333	0.0123290
777.411	0.0123886
777.489	0.0123060
777.568	0.0123816
777.646	0.0123779
777.724	0.0123571
777.802	0.0124591
777.880	0.0124034
777.958	0.0123369
778.036	0.0124747
778.114	0.0124110
778.193	0.0122930
778.271	0.0124127
778.349	0.0125343
778.427	0.0124319
778.505	0.0124595
778.583	0.0125407
778.661	0.0124007
778.739	0.0124961
778.818	0.0124656
778.896	0.0124181
778.974	0.0124545
779.052	0.0123855
779.130	0.0123029
779.208	0.0124430
779.286	0.0125021
779.364	0.0123435
779.443	0.0123823
779.521	0.0125258
779.599	0.0124012
779.677	0.0125194
779.755	0.0124237
779.833	0.0123927
779.911	0.0123516
779.989	0.0124200
780.068	0.0123955
780.146	0.0125050
780.224	0.0125249
780.302	0.0124805
780.380	0.0125080
780.458	0.0124833
780.536	0.0123727
780.614	0.0123029
780.693	0.0125208
780.771	0.0125089
780.849	0.0123711
780.927	0.0122548
781.005	0.0123603
781.083	0.0122853
781.161	0.0123328
781.239	0.0123844
781.318	0.0122688
781.396	0.0123592
781.474	0.0123828
781.552	0.0121823
781.630	0.0122222
781.708	0.0123132
781.786	0.0122624
781.864	0.0122823
781.943	0.0122454
782.021	0.0122368
782.099	0.0122314
782.177	0.0121611
782.255	0.0121541
782.333	0.0122351
782.411	0.0121976
782.489	0.0123084
782.568	0.0122160
782.646	0.0121918
782.724	0.0123718
782.802	0.0122263
782.880	0.0122928
782.958	0.0122662
783.036	0.0122655
783.114	0.0122815
783.193	0.0123730
783.271	0.0121992
783.349	0.0123573
783.427	0.0123472
783.505	0.0124247
783.583	0.0124381
783.661	0.0123441
783.739	0.0124566
783.818	0.0125308
783.896	0.0125859
783.974	0.0124741
784.052	0.0124331
784.130	0.0124658
784.208	0.0124784
784.286	0.0125019
784.364	0.0124567
784.443	0.0123653
784.521	0.0123526
784.599	0.0126176
784.677	0.0124891
784.755	0.0123823
784.833	0.0123893
784.911	0.0123638
784.989	0.0122978
785.068	0.0122398
785.146	0.0123257
785.224	0.0124655
785.302	0.0123750
785.380	0.0123772
785.458	0.0124104
785.536	0.0122796
785.614	0.0123508
785.693	0.0122927
785.771	0.0122799
785.849	0.0123160
785.927	0.0122372
786.005	0.0121118
786.083	0.0122298
786.161	0.0122945
786.239	0.0122552
786.318	0.0122861
786.396	0.0122558
786.474	0.0122604
786.552	0.0122840
786.630	0.0124529
786.708	0.0123904
786.786	0.0122408
786.864	0.0122568
786.943	0.0122351
787.021	0.0122768
787.099	0.0122814
787.177	0.0123428
787.255	0.0123617
787.333	0.0123166
787.411	0.0122467
787.489	0.0122635
787.568	0.0123676
787.646	0.0122929
787.724	0.0122865
787.802	0.0123582
787.880	0.0122549
787.958	0.0123756
788.036	0.0123097
788.114	0.0122711
788.193	0.0122060
788.271	0.0121715
788.349	0.0121733
788.427	0.0122633
788.505	0.0122770
788.583	0.0121462
788.661	0.0122818
788.739	0.0122250
788.818	0.0123053
788.896	0.0124731
788.974	0.0122520
789.052	0.0123476
789.130	0.0122163
789.208	0.0122063
789.286	0.0122884
789.364	0.0122991
789.443	0.0122809
789.521	0.0122434
789.599	0.0122593
789.677	0.0122927
789.755	0.0123466
789.833	0.0122466
789.911	0.0123367
789.989	0.0123048
790.068	0.0121910
790.146	0.0122066
790.224	0.0122013
790.302	0.0121828
790.380	0.0122154
790.458	0.0122523
790.536	0.0121127
790.614	0.0122250
790.693	0.0122585
790.771	0.0122441
790.849	0.0123009
790.927	0.0124152
791.005	0.0121704
791.083	0.0122010
791.161	0.0122404
791.239	0.0120556
791.318	0.0120669
791.396	0.0122154
791.474	0.0121992
791.552	0.0122234
791.630	0.0122467
791.708	0.0122221
791.786	0.0121915
791.864	0.0121773
791.943	0.0121849
792.021	0.0121925
792.099	0.0121563
792.177	0.0122424
792.255	0.0122153
792.333	0.0121999
792.411	0.0122829
792.489	0.0121701
792.568	0.0122023
792.646	0.0121219
792.724	0.0122882
792.802	0.0121265
792.880	0.0122970
792.958	0.0123692
793.036	0.0122084
793.114	0.0122292
793.193	0.0122899
793.271	0.0122951
793.349	0.0121996
793.427	0.0123911
793.505	0.0124187
793.583	0.0123524
793.661	0.0123507
793.739	0.0123865
793.818	0.0123138
793.896	0.0121396
793.974	0.0122738
794.052	0.0124128
794.130	0.0123384
794.208	0.0122325
794.286	0.0123522
794.364	0.0123219
794.443	0.0122780
794.521	0.0122947
794.599	0.0122520
794.677	0.0121534
794.755	0.0121320
794.833	0.0122684
794.911	0.0122341
794.989	0.0122152
795.068	0.0122255
795.146	0.0121638
795.224	0.0122521
795.302	0.0123947
795.380	0.0122748
795.458	0.0122012
795.536	0.0122284
795.614	0.0122389
795.693	0.0124030
795.771	0.0124030
795.849	0.0124783
795.927	0.0124406
796.005	0.0122762
796.083	0.0122935
796.161	0.0123399
796.239	0.0123959
796.318	0.0125008
796.396	0.0122947
796.474	0.0123107
796.552	0.0124081
796.630	0.0125375
796.708	0.0124426
796.786	0.0124610
796.864	0.0124088
796.943	0.0123400
797.021	0.0123604
797.099	0.0122942
797.177	0.0123997
797.255	0.0124468
797.333	0.0123602
797.411	0.0123753
797.489	0.0123641
797.568	0.0123281
797.646	0.0123467
797.724	0.0124017
797.802	0.0123148
797.880	0.0123825
797.958	0.0121938
798.036	0.0122794
798.114	0.0123700
798.193	0.0122196
798.271	0.0122157
798.349	0.0120259
798.427	0.0121339
798.505	0.0121472
798.583	0.0121870
798.661	0.0123518
798.739	0.0122149
798.818	0.0123197
798.896	0.0121931
798.974	0.0122619
799.052	0.0121711
799.130	0.0123254
799.208	0.0124372
799.286	0.0123052
799.364	0.0122999
799.443	0.0123274
799.521	0.0123740
799.599	0.0124279
799.677	0.0123863
799.755	0.0124085
799.833	0.0124461
799.911	0.0124134
799.989	0.0125426
800.068	0.0124837
800.146	0.0124773
800.224	0.0126612
800.302	0.0124227
800.380	0.0124210
800.458	0.0124684
800.536	0.0124670
800.614	0.0125019
800.693	0.0124595
800.771	0.0124344
800.849	0.0123236
800.927	0.0122317
801.005	0.0122894
801.083	0.0122300
801.161	0.0121771
801.239	0.0121830
801.318	0.0120592
801.396	0.0123109
801.474	0.0121451
801.552	0.0122202
801.630	0.0120649
801.708	0.0121217
801.786	0.0122129
801.864	0.0120087
801.943	0.0121007
802.021	0.0122340
802.099	0.0121542
802.177	0.0121998
802.255	0.0122404
802.333	0.0122505
802.411	0.0122038
802.489	0.0122152
802.568	0.0121806
802.646	0.0122408
802.724	0.0123818
802.802	0.0123940
802.880	0.0122787
802.958	0.0123045
803.036	0.0121426
803.114	0.0124329
803.193	0.0123994
803.271	0.0123666
803.349	0.0123426
803.427	0.0126398
803.505	0.0124940
803.583	0.0123055
803.661	0.0124007
803.739	0.0124650
803.818	0.0125618
803.896	0.0126204
803.974	0.0126128
804.052	0.0124487
804.130	0.0124577
804.208	0.0124864
804.286	0.0125314
804.364	0.0125742
804.443	0.0125903
804.521	0.0125426
804.599	0.0124780
804.677	0.0123733
804.755	0.0125564
804.833	0.0123985
804.911	0.0124030
804.989	0.0124355
805.068	0.0125403
805.146	0.0124154
805.224	0.0123370
805.302	0.0124007
805.380	0.0123635
805.458	0.0123178
805.536	0.0122243
805.614	0.0122326
805.693	0.0121486
805.771	0.0122102
805.849	0.0121959
805.927	0.0122091
806.005	0.0121547
806.083	0.0121815
806.161	0.0119582
806.239	0.0119547
806.318	0.0120335
806.396	0.0120055
806.474	0.0119580
806.552	0.0119385
806.630	0.0120124
806.708	0.0118790
806.786	0.0119685
806.864	0.0119635
806.943	0.0120323
807.021	0.0121108
807.099	0.0120311
807.177	0.0120761
807.255	0.0120684
807.333	0.0121884
807.411	0.0122029
807.489	0.0121773
807.568	0.0121908
807.646	0.0121590
807.724	0.0122182
807.802	0.0122321
807.880	0.0123596
807.958	0.0123535
808.036	0.0123113
808.114	0.0122552
808.193	0.0123873
808.271	0.0123729
808.349	0.0123345
808.427	0.0124129
808.505	0.0124243
808.583	0.0123798
808.661	0.0123161
808.739	0.0122746
808.818	0.0123299
808.896	0.0123486
808.974	0.0123515
809.052	0.0125176
809.130	0.0124688
809.208	0.0124085
809.286	0.0123647
809.364	0.0123868
809.443	0.0124629
809.521	0.0123505
809.599	0.0123074
809.677	0.0123153
809.755	0.0123429
809.833	0.0123450
809.911	0.0123455
809.989	0.0122775
810.068	0.0122021
810.146	0.0122623
810.224	0.0123462
810.302	0.0123900
810.380	0.0122386
810.458	0.0122736
810.536	0.0123344
810.614	0.0124548
810.693	0.0122823
810.771	0.0122482
810.849	0.0124366
810.927	0.0123370
811.005	0.0121873
811.083	0.0122846
811.161	0.0122493
811.239	0.0123738
811.318	0.0123255
811.396	0.0122375
811.474	0.0121352
811.552	0.0122156
811.630	0.0122647
811.708	0.0120521
811.786	0.0121578
811.864	0.0122364
811.943	0.0121930
812.021	0.0122821
812.099	0.0122510
812.177	0.0120937
812.255	0.0121693
812.333	0.0122088
812.411	0.0123060
812.489	0.0122568
812.568	0.0121812
812.646	0.0122120
812.724	0.0122149
812.802	0.0121906
812.880	0.0122262
812.958	0.0123379
813.036	0.0123090
813.114	0.0122116
813.193	0.0123218
813.271	0.0122796
813.349	0.0122855
813.427	0.0123262
813.505	0.0121399
813.583	0.0122050
813.661	0.0122843
813.739	0.0124168
813.818	0.0123367
813.896	0.0123135
813.974	0.0124101
814.052	0.0123022
814.130	0.0123019
814.208	0.0122681
814.286	0.0122861
814.364	0.0123455
814.443	0.0125129
814.521	0.0123714
814.599	0.0122892
814.677	0.0122720
814.755	0.0123462
814.833	0.0123515
814.911	0.0123081
814.989	0.0122927
815.068	0.0122498
815.146	0.0123479
815.224	0.0122074
815.302	0.0123735
815.380	0.0122926
815.458	0.0123611
815.536	0.0122008
815.614	0.0122253
815.693	0.0124007
815.771	0.0124371
815.849	0.0124529
815.927	0.0121934
816.005	0.0122350
816.083	0.0123754
816.161	0.0122884
816.239	0.0121848
816.318	0.0123225
816.396	0.0123305
816.474	0.0122603
816.552	0.0124021
816.630	0.0122799
816.708	0.0123027
816.786	0.0123318
816.864	0.0124383
816.943	0.0122240
817.021	0.0121577
817.099	0.0121290
817.177	0.0122810
817.255	0.0122560
817.333	0.0122877
817.411	0.0122310
817.489	0.0122049
817.568	0.0121213
817.646	0.0122062
817.724	0.0120719
817.802	0.0120990
817.880	0.0122022
817.958	0.0122855
818.036	0.0122060
818.114	0.0122151
818.193	0.0122524
818.271	0.0123003
818.349	0.0122617
818.427	0.0121995
818.505	0.0122951
818.583	0.0122434
818.661	0.0123302
818.739	0.0121409
818.818	0.0123340
818.896	0.0123447
818.974	0.0124051
819.052	0.0123740
819.130	0.0122958
819.208	0.0123660
819.286	0.0123767
819.364	0.0122565
819.443	0.0124211
819.521	0.0123271
819.599	0.0123185
819.677	0.0125233
819.755	0.0125860
819.833	0.0124707
819.911	0.0124304
819.989	0.0125344
820.068	0.0124722
820.146	0.0125442
820.224	0.0125569
820.302	0.0126208
820.380	0.0126131
820.458	0.0125652
820.536	0.0125645
820.614	0.0125854
820.693	0.0125803
820.771	0.0123547
820.849	0.0125962
820.927	0.0125071
821.005	0.0124280
821.083	0.0123052
821.161	0.0124419
821.239	0.0123115
821.318	0.0123720
821.396	0.0121151
821.474	0.0122482
821.552	0.0122734
821.630	0.0122112
821.708	0.0120833
821.786	0.0122456
821.864	0.0122125
821.943	0.0121081
822.021	0.0121452
822.099	0.0122677
822.177	0.0121313
822.255	0.0120074
822.333	0.0120720
822.411	0.0122226
822.489	0.0121105
822.568	0.0120753
822.646	0.0121739
822.724	0.0121425
822.802	0.0122480
822.880	0.0121019
822.958	0.0121941
823.036	0.0121595
823.114	0.0120583
823.193	0.0122153
823.271	0.0121781
823.349	0.0120872
823.427	0.0122761
823.505	0.0122000
823.583	0.0122986
823.661	0.0122412
823.739	0.0122394
823.818	0.0123100
823.896	0.0123368
823.974	0.0123721
824.052	0.0122906
824.130	0.0124537
824.208	0.0123571
824.286	0.0121839
824.364	0.0122623
824.443	0.0124635
824.521	0.0124178
824.599	0.0125301
824.677	0.0124823
824.755	0.0125422
824.833	0.0123843
824.911	0.0124680
824.989	0.0124293
825.068	0.0123862
825.146	0.0124574
825.224	0.0123566
825.302	0.0123740
825.380	0.0122372
825.458	0.0122892
825.536	0.0124147
825.614	0.0125015
825.693	0.0124017
825.771	0.0123120
825.849	0.0123321
825.927	0.0123846
826.005	0.0124035
826.083	0.0123804
826.161	0.0123215
826.239	0.0122108
826.318	0.0123549
826.396	0.0122787
826.474	0.0121400
826.552	0.0123450
826.630	0.0123930
826.708	0.0123541
826.786	0.0121844
826.864	0.0121038
826.943	0.0122006
827.021	0.0121161
827.099	0.0121061
827.177	0.0121830
827.255	0.0120866
827.333	0.0120094
827.411	0.0121516
827.489	0.0119804
827.568	0.0119316
827.646	0.0121394
827.724	0.0121514
827.802	0.0119887
827.880	0.0121017
827.958	0.0120853
828.036	0.0121382
828.114	0.0121964
828.193	0.0122675
828.271	0.0120255
828.349	0.0122714
828.427	0.0121823
828.505	0.0122594
828.583	0.0123560
828.661	0.0123128
828.739	0.0124934
828.818	0.0123796
828.896	0.0123677
828.974	0.0124251
829.052	0.0125304
829.130	0.0124640
829.208	0.0124753
829.286	0.0124363
829.364	0.0125379
829.443	0.0126563
829.521	0.0124850
829.599	0.0125491
829.677	0.0124922
829.755	0.0125361
829.833	0.0125270
829.911	0.0124906
829.989	0.0126151
830.068	0.0124996
830.146	0.0124780
830.224	0.0124579
830.302	0.0123273
830.380	0.0124113
830.458	0.0124052
830.536	0.0125098
830.614	0.0124560
830.693	0.0123631
830.771	0.0123715
830.849	0.0123462
830.927	0.0122548
831.005	0.0122984
831.083	0.0122754
831.161	0.0122862
831.239	0.0121609
831.318	0.0122417
831.396	0.0121116
831.474	0.0120833
831.552	0.0120006
831.630	0.0120953
831.708	0.0119254
831.786	0.0119710
831.864	0.0118559
831.943	0.0118820
832.021	0.0118669
832.099	0.0118118
832.177	0.0118147
832.255	0.0119421
832.333	0.0118566
832.411	0.0120118
832.489	0.0119361
832.568	0.0118839
832.646	0.0118922
832.724	0.0119259
832.802	0.0119299
832.880	0.0118913
832.958	0.0119100
833.036	0.0120080
833.114	0.0120284
833.193	0.0119535
833.271	0.0120236
833.349	0.0121354
833.427	0.0123521
833.505	0.0123110
833.583	0.0122791
833.661	0.0123015
833.739	0.0124032
833.818	0.0124883
833.896	0.0124925
833.974	0.0124989
834.052	0.0126267
834.130	0.0127037
834.208	0.0127602
834.286	0.0126414
834.364	0.0126646
834.443	0.0128183
834.521	0.0127526
834.599	0.0128573
834.677	0.0127396
834.755	0.0128913
834.833	0.0127808
834.911	0.0127642
834.989	0.0128644
835.068	0.0128983
835.146	0.0127862
835.224	0.0127270
835.302	0.0126862
835.380	0.0126804
835.458	0.0126456
835.536	0.0125736
835.614	0.0126483
835.693	0.0125111
835.771	0.0123129
835.849	0.0124740
835.927	0.0124643
836.005	0.0121184
836.083	0.0121217
836.161	0.0122609
836.239	0.0122955
836.318	0.0121548
836.396	0.0122311
836.474	0.0119366
836.552	0.0122064
836.630	0.0120647
836.708	0.0119502
836.786	0.0120560
836.864	0.0120770
836.943	0.0120231
837.021	0.0121751
837.099	0.0119944
837.177	0.0120341
837.255	0.0121425
837.333	0.0119587
837.411	0.0120038
837.489	0.0120856
837.568	0.0120554
837.646	0.0120920
837.724	0.0120803
837.802	0.0122218
837.880	0.0121202
837.958	0.0122050
838.036	0.0121107
838.114	0.0123006
838.193	0.0123605
838.271	0.0123457
838.349	0.0122973
838.427	0.0122911
838.505	0.0124515
838.583	0.0124220
838.661	0.0124531
838.739	0.0126512
838.818	0.0126523
838.896	0.0126153
838.974	0.0126288
839.052	0.0127370
839.130	0.0125386
839.208	0.0125872
839.286	0.0127084
839.364	0.0127000
839.443	0.0127296
839.521	0.0125229
839.599	0.0126984
839.677	0.0125977
839.755	0.0126678
839.833	0.0126888
839.911	0.0126996
839.989	0.0126591
840.068	0.0126129
840.146	0.0126186
840.224	0.0126631
840.302	0.0124886
840.380	0.0124988
840.458	0.0123669
840.536	0.0125595
840.614	0.0124700
840.693	0.0123231
840.771	0.0124313
840.849	0.0124545
840.927	0.0124147
841.005	0.0123274
841.083	0.0123019
841.161	0.0122431
841.239	0.0121439
841.318	0.0121439
841.396	0.0122808
841.474	0.0121632
841.552	0.0122826
841.630	0.0120718
841.708	0.0122458
841.786	0.0121940
841.864	0.0122638
841.943	0.0122883
842.021	0.0121791
842.099	0.0121263
842.177	0.0122907
842.255	0.0123025
842.333	0.0121420
842.411	0.0122025
842.489	0.0122107
842.568	0.0120982
842.646	0.0122449
842.724	0.0123322
842.802	0.0121976
842.880	0.0124096
842.958	0.0122925
843.036	0.0122865
843.114	0.0123827
843.193	0.0123788
843.271	0.0122812
843.349	0.0123913
843.427	0.0123601
843.505	0.0124447
843.583	0.0124643
843.661	0.0123694
843.739	0.0125239
843.818	0.0126763
843.896	0.0124415
843.974	0.0125517
844.052	0.0125606
844.130	0.0125835
844.208	0.0125899
844.286	0.0125587
844.364	0.0126652
844.443	0.0126328
844.521	0.0126048
844.599	0.0126481
844.677	0.0125841
844.755	0.0126649
844.833	0.0126352
844.911	0.0126601
844.989	0.0126673
845.068	0.0126028
845.146	0.0125536
845.224	0.0125765
845.302	0.0125954
845.380	0.0125583
845.458	0.0125608
845.536	0.0125600
845.614	0.0124270
845.693	0.0124833
845.771	0.0124763
845.849	0.0122854
845.927	0.0121970
846.005	0.0122787
846.083	0.0121943
846.161	0.0121738
846.239	0.0122042
846.318	0.0122465
846.396	0.0122000
846.474	0.0120842
846.552	0.0121328
846.630	0.0121734
846.708	0.0122224
846.786	0.0122112
846.864	0.0121735
846.943	0.0120909
847.021	0.0120582
847.099	0.0120057
847.177	0.0121602
847.255	0.0123055
847.333	0.0121869
847.411	0.0120895
847.489	0.0121127
847.568	0.0122157
847.646	0.0121902
847.724	0.0122878
847.802	0.0121645
847.880	0.0122191
847.958	0.0122637
848.036	0.0123486
848.114	0.0123211
848.193	0.0123931
848.271	0.0124612
848.349	0.0123053
848.427	0.0124711
848.505	0.0123232
848.583	0.0123391
848.661	0.0124770
848.739	0.0124220
848.818	0.0123901
848.896	0.0123300
848.974	0.0123384
849.052	0.0122805
849.130	0.0124300
849.208	0.0124548
849.286	0.0125143
849.364	0.0124490
849.443	0.0124317
849.521	0.0123630
849.599	0.0122688
849.677	0.0124577
849.755	0.0123967
849.833	0.0123783
849.911	0.0123253
849.989	0.0122708
850.068	0.0122663
850.146	0.0121638
850.224	0.0122620
850.302	0.0122504
850.380	0.0123000
850.458	0.0123899
850.536	0.0122873
850.614	0.0122843
850.693	0.0121949
850.771	0.0122308
850.849	0.0123038
850.927	0.0123129
851.005	0.0123086
851.083	0.0122314
851.161	0.0123258
851.239	0.0122295
851.318	0.0123015
851.396	0.0123466
851.474	0.0122967
851.552	0.0123380
851.630	0.0123165
851.708	0.0124221
851.786	0.0123956
851.864	0.0124792
851.943	0.0125253
852.021	0.0124371
852.099	0.0124139
852.177	0.0124244
852.255	0.0124162
852.333	0.0124889
852.411	0.0124748
852.489	0.0123743
852.568	0.0123729
852.646	0.0124529
852.724	0.0124876
852.802	0.0125023
852.880	0.0124596
852.958	0.0124002
853.036	0.0124310
853.114	0.0125259
853.193	0.0124483
853.271	0.0124564
853.349	0.0123985
853.427	0.0124423
853.505	0.0124417
853.583	0.0123756
853.661	0.0123017
853.739	0.0124104
853.818	0.0124249
853.896	0.0123042
853.974	0.0122533
854.052	0.0124114
854.130	0.0123583
854.208	0.0122243
854.286	0.0122115
854.364	0.0122911
854.443	0.0123056
854.521	0.0123363
854.599	0.0122956
854.677	0.0120874
854.755	0.0120866
854.833	0.0122592
854.911	0.0120726
854.989	0.0122327
855.068	0.0123856
855.146	0.0122396
855.224	0.0122327
855.302	0.0120924
855.380	0.0122359
855.458	0.0122819
855.536	0.0123106
855.614	0.0122232
855.693	0.0122756
855.771	0.0124390
855.849	0.0123413
855.927	0.0124009
856.005	0.0124130
856.083	0.0123956
856.161	0.0125367
856.239	0.0123669
856.318	0.0124648
856.396	0.0125460
856.474	0.0124927
856.552	0.0124037
856.630	0.0123922
856.708	0.0126076
856.786	0.0125405
856.864	0.0124805
856.943	0.0124583
857.021	0.0125668
857.099	0.0124705
857.177	0.0125756
857.255	0.0124337
857.333	0.0125622
857.411	0.0123833
857.489	0.0123759
857.568	0.0123262
857.646	0.0123358
857.724	0.0122412
857.802	0.0123114
857.880	0.0122550
857.958	0.0123325
858.036	0.0123551
858.114	0.0122813
858.193	0.0121697
858.271	0.0122363
858.349	0.0122881
858.427	0.0122208
858.505	0.0121605
858.583	0.0120686
858.661	0.0122506
858.739	0.0121976
858.818	0.0122028
858.896	0.0120612
858.974	0.0120752
859.052	0.0120918
859.130	0.0121961
859.208	0.0122133
859.286	0.0121169
859.364	0.0121597
859.443	0.0121892
859.521	0.0121847
859.599	0.0123512
859.677	0.0122498
859.755	0.0121300
859.833	0.0121722
859.911	0.0123037
859.989	0.0122777
860.068	0.0123034
860.146	0.0123567
860.224	0.0122131
860.302	0.0122515
860.380	0.0123096
860.458	0.0122898
860.536	0.0123020
860.614	0.0122951
860.693	0.0123251
860.771	0.0121608
860.849	0.0123274
860.927	0.0124379
861.005	0.0123707
861.083	0.0123867
861.161	0.0123177
861.239	0.0122546
861.318	0.0123354
861.396	0.0122372
861.474	0.0122073
861.552	0.0123869
861.630	0.0123076
861.708	0.0122816
861.786	0.0123674
861.864	0.0122663
861.943	0.0122112
862.021	0.0124014
862.099	0.0123999
862.177	0.0123909
862.255	0.0121928
862.333	0.0123299
862.411	0.0124885
862.489	0.0123474
862.568	0.0123335
862.646	0.0121053
862.724	0.0122266
862.802	0.0122521
862.880	0.0122247
862.958	0.0123126
863.036	0.0123158
863.114	0.0122938
863.193	0.0122263
863.271	0.0122509
863.349	0.0121766
863.427	0.0123737
863.505	0.0124447
863.583	0.0122980
863.661	0.0122566
863.739	0.0123199
863.818	0.0123783
863.896	0.0123957
863.974	0.0123090
864.052	0.0124246
864.130	0.0124796
864.208	0.0124238
864.286	0.0124179
864.364	0.0125705
864.443	0.0124964
864.521	0.0124834
864.599	0.0124966
864.677	0.0126103
864.755	0.0125314
864.833	0.0125771
864.911	0.0125708
864.989	0.0125910
865.068	0.0125505
865.146	0.0128328
865.224	0.0126382
865.302	0.0125018
865.380	0.0126411
865.458	0.0125365
865.536	0.0125092
865.614	0.0125479
865.693	0.0126785
865.771	0.0125056
865.849	0.0124111
865.927	0.0124680
866.005	0.0123512
866.083	0.0124056
866.161	0.0126263
866.239	0.0124329
866.318	0.0123441
866.396	0.0123625
866.474	0.0123685
866.552	0.0122197
866.630	0.0122411
866.708	0.0123093
866.786	0.0122523
866.864	0.0121908
866.943	0.0123859
867.021	0.0122923
867.099	0.0121246
867.177	0.0122002
867.255	0.0123583
867.333	0.0122953
867.411	0.0119719
867.489	0.0123386
867.568	0.0124266
867.646	0.0121807
867.724	0.0122061
867.802	0.0122675
867.880	0.0121638
867.958	0.0121597
868.036	0.0122018
868.114	0.0122054
868.193	0.0123404
868.271	0.0122345
868.349	0.0122224
868.427	0.0122410
868.505	0.0122866
868.583	0.0122091
868.661	0.0121597
868.739	0.0121954
868.818	0.0123447
868.896	0.0125555
868.974	0.0124906
869.052	0.0124869
869.130	0.0123695
869.208	0.0124931
869.286	0.0125122
869.364	0.0125034
869.443	0.0123582
869.521	0.0123428
869.599	0.0125032
869.677	0.0125354
869.755	0.0125668
869.833	0.0124686
869.911	0.0123621
869.989	0.0123814
870.068	0.0126043
870.146	0.0124086
870.224	0.0124533
870.302	0.0123944
870.380	0.0124533
870.458	0.0125730
870.536	0.0123823
870.614	0.0123711
870.693	0.0125466
870.771	0.0123932
870.849	0.0124129
870.927	0.0124888
871.005	0.0125097
871.083	0.0123727
871.161	0.0124919
871.239	0.0123682
871.318	0.0121790
871.396	0.0125369
871.474	0.0124220
871.552	0.0122796
871.630	0.0124361
871.708	0.0123660
871.786	0.0122657
871.864	0.0123208
871.943	0.0123487
872.021	0.0123262
872.099	0.0123088
872.177	0.0123383
872.255	0.0122858
872.333	0.0122346
872.411	0.0124235
872.489	0.0122337
872.568	0.0122885
872.646	0.0121843
872.724	0.0122408
872.802	0.0122190
872.880	0.0122569
872.958	0.0121677
873.036	0.0122311
873.114	0.0122153
873.193	0.0121049
873.271	0.0122234
873.349	0.0120746
873.427	0.0121336
873.505	0.0121124
873.583	0.0121392
873.661	0.0120718
873.739	0.0122554
873.818	0.0120882
873.896	0.0121597
873.974	0.0121748
874.052	0.0122819
874.130	0.0121955
874.208	0.0120814
874.286	0.0124491
874.364	0.0123637
874.443	0.0121902
874.521	0.0122532
874.599	0.0123585
874.677	0.0123965
874.755	0.0123545
874.833	0.0124149
874.911	0.0124409
874.989	0.0124317
875.068	0.0124178
875.146	0.0124254
875.224	0.0124277
875.302	0.0125487
875.380	0.0123597
875.458	0.0123535
875.536	0.0125532
875.614	0.0124015
875.693	0.0126463
875.771	0.0124554
875.849	0.0123205
875.927	0.0124972
876.005	0.0124274
876.083	0.0125717
876.161	0.0124976
876.239	0.0124825
876.318	0.0125104
876.396	0.0126203
876.474	0.0125403
876.552	0.0126073
876.630	0.0125054
876.708	0.0124570
876.786	0.0125665
876.864	0.0124561
876.943	0.0124950
877.021	0.0125548
877.099	0.0125700
877.177	0.0126089
877.255	0.0123346
877.333	0.0125452
877.411	0.0123564
877.489	0.0123302
877.568	0.0124310
877.646	0.0122955
877.724	0.0122084
877.802	0.0122693
877.880	0.0121002
877.958	0.0121490
878.036	0.0120282
878.114	0.0121680
878.193	0.0122194
878.271	0.0121258
878.349	0.0120143
878.427	0.0120037
878.505	0.0119696
878.583	0.0119975
878.661	0.0119812
878.739	0.0119048
878.818	0.0120097
878.896	0.0120137
878.974	0.0119138
879.052	0.0119693
879.130	0.0117976
879.208	0.0119200
879.286	0.0120123
879.364	0.0120733
879.443	0.0119424
879.521	0.0120168
879.599	0.0120406
879.677	0.0120895
879.755	0.0120528
879.833	0.0120489
879.911	0.0121098
879.989	0.0121071
880.068	0.0120956
880.146	0.0122878
880.224	0.0122640
880.302	0.0121796
880.380	0.0122981
880.458	0.0122534
880.536	0.0122187
880.614	0.0122854
880.693	0.0123305
880.771	0.0125459
880.849	0.0123120
880.927	0.0123136
881.005	0.0125191
881.083	0.0124654
881.161	0.0123722
881.239	0.0123557
881.318	0.0126115
881.396	0.0126370
881.474	0.0125913
881.552	0.0125166
881.630	0.0126006
881.708	0.0125050
881.786	0.0126018
881.864	0.0125024
881.943	0.0125636
882.021	0.0125449
882.099	0.0125175
882.177	0.0125496
882.255	0.0125806
882.333	0.0125004
882.411	0.0124226
882.489	0.0123819
882.568	0.0125645
882.646	0.0125441
882.724	0.0124395
882.802	0.0122549
882.880	0.0124084
882.958	0.0123471
883.036	0.0123513
883.114	0.0122732
883.193	0.0122853
883.271	0.0122380
883.349	0.0121574
883.427	0.0120619
883.505	0.0122459
883.583	0.0120958
883.661	0.0121654
883.739	0.0121151
883.818	0.0120401
883.896	0.0120482
883.974	0.0119228
884.052	0.0120447
884.130	0.0121510
884.208	0.0117659
884.286	0.0119329
884.364	0.0119467
884.443	0.0121909
884.521	0.0120335
884.599	0.0120320
884.677	0.0120826
884.755	0.0119897
884.833	0.0118687
884.911	0.0120294
884.989	0.0120311
885.068	0.0119572
885.146	0.0120295
885.224	0.0119097
885.302	0.0119685
885.380	0.0120284
885.458	0.0120448
885.536	0.0120781
885.614	0.0122410
885.693	0.0122338
885.771	0.0121950
885.849	0.0121126
885.927	0.0120715
886.005	0.0123740
886.083	0.0121956
886.161	0.0121748
886.239	0.0121838
886.318	0.0121278
886.396	0.0122585
886.474	0.0124352
886.552	0.0123775
886.630	0.0124033
886.708	0.0122806
886.786	0.0122224
886.864	0.0123109
886.943	0.0124106
887.021	0.0123150
887.099	0.0125108
887.177	0.0123701
887.255	0.0124016
887.333	0.0125111
887.411	0.0122887
887.489	0.0123787
887.568	0.0123749
887.646	0.0123762
887.724	0.0124313
887.802	0.0124973
887.880	0.0125153
887.958	0.0123421
888.036	0.0123642
888.114	0.0125517
888.193	0.0124101
888.271	0.0125272
888.349	0.0124363
888.427	0.0125059
888.505	0.0125007
888.583	0.0124216
888.661	0.0124870
888.739	0.0124319
888.818	0.0124480
888.896	0.0122681
888.974	0.0123080
889.052	0.0122396
889.130	0.0122976
889.208	0.0120387
889.286	0.0122528
889.364	0.0122076
889.443	0.0120692
889.521	0.0121812
889.599	0.0121861
889.677	0.0121406
889.755	0.0119975
889.833	0.0120782
889.911	0.0120903
889.989	0.0122190
890.068	0.0121260
890.146	0.0121525
890.224	0.0120190
890.302	0.0119839
890.380	0.0121230
890.458	0.0121556
890.536	0.0122033
890.614	0.0121664
890.693	0.0120436
890.771	0.0121369
890.849	0.0122547
890.927	0.0121770
891.005	0.0122478
891.083	0.0121501
891.161	0.0121786
891.239	0.0122842
891.318	0.0123257
891.396	0.0124356
891.474	0.0123898
891.552	0.0123832
891.630	0.0123465
891.708	0.0122892
891.786	0.0125549
891.864	0.0125093
891.943	0.0124244
892.021	0.0124431
892.099	0.0123798
892.177	0.0125600
892.255	0.0125393
892.333	0.0123174
892.411	0.0124651
892.489	0.0125000
892.568	0.0124928
892.646	0.0124222
892.724	0.0123473
892.802	0.0124091
892.880	0.0124811
892.958	0.0124180
893.036	0.0124220
893.114	0.0123778
893.193	0.0123312
893.271	0.0124364
893.349	0.0123282
893.427	0.0123520
893.505	0.0124116
893.583	0.0123771
893.661	0.0123945
893.739	0.0124921
893.818	0.0123944
893.896	0.0124503
893.974	0.0124262
894.052	0.0124683
894.130	0.0124213
894.208	0.0125243
894.286	0.0124239
894.364	0.0123003
894.443	0.0124812
894.521	0.0124181
894.599	0.0124950
894.677	0.0124359
894.755	0.0124324
894.833	0.0124124
894.911	0.0125876
894.989	0.0125395
895.068	0.0124752
895.146	0.0124187
895.224	0.0123982
895.302	0.0122432
895.380	0.0124179
895.458	0.0124081
895.536	0.0123878
895.614	0.0123526
895.693	0.0122575
895.771	0.0121972
895.849	0.0123351
895.927	0.0122445
896.005	0.0121615
896.083	0.0121922
896.161	0.0121680
896.239	0.0121684
896.318	0.0121574
896.396	0.0120970
896.474	0.0121940
896.552	0.0121431
896.630	0.0119990
896.708	0.0120095
896.786	0.0121510
896.864	0.0119530
896.943	0.0120753
897.021	0.0119338
897.099	0.0119942
897.177	0.0121502
897.255	0.0122321
897.333	0.0121658
897.411	0.0122743
897.489	0.0121569
897.568	0.0122280
897.646	0.0122500
897.724	0.0123225
897.802	0.0123205
897.880	0.0122926
897.958	0.0124059
898.036	0.0124707
898.114	0.0123820
898.193	0.0123035
898.271	0.0123368
898.349	0.0124150
898.427	0.0123641
898.505	0.0124330
898.583	0.0123380
898.661	0.0124776
898.739	0.0123450
898.818	0.0124104
898.896	0.0123941
898.974	0.0124427
899.052	0.0124812
899.130	0.0124994
899.208	0.0124852
899.286	0.0123887
899.364	0.0123882
899.443	0.0124438
899.521	0.0123399
899.599	0.0126254
899.677	0.0123591
899.755	0.0123618
899.833	0.0123537
899.911	0.0124818
899.989	0.0124162
900.068	0.0122189
900.146	0.0122897
900.224	0.0124112
900.302	0.0122358
900.380	0.0122169
900.458	0.0122544
900.536	0.0122357
900.614	0.0122982
900.693	0.0122187
900.771	0.0122585
900.849	0.0123259
900.927	0.0122638
901.005	0.0122651
901.083	0.0122021
901.161	0.0122068
901.239	0.0123169
901.318	0.0122598
901.396	0.0121459
901.474	0.0122644
901.552	0.0121476
901.630	0.0122087
901.708	0.0122841
901.786	0.0123489
901.864	0.0121730
901.943	0.0122966
902.021	0.0122531
902.099	0.0121358
902.177	0.0122030
902.255	0.0121973
902.333	0.0121252
902.411	0.0122504
902.489	0.0121553
902.568	0.0121681
902.646	0.0122778
902.724	0.0122675
902.802	0.0122691
902.880	0.0121510
902.958	0.0120883
903.036	0.0122653
903.114	0.0121340
903.193	0.0121667
903.271	0.0122643
903.349	0.0122661
903.427	0.0122762
903.505	0.0122908
903.583	0.0122446
903.661	0.0122841
903.739	0.0122475
903.818	0.0122979
903.896	0.0121917
903.974	0.0123821
904.052	0.0124281
904.130	0.0122955
904.208	0.0122150
904.286	0.0122826
904.364	0.0121157
904.443	0.0121043
904.521	0.0123450
904.599	0.0124284
904.677	0.0124445
904.755	0.0122781
904.833	0.0122675
904.911	0.0123539
904.989	0.0122369
905.068	0.0122414
905.146	0.0122919
905.224	0.0121458
905.302	0.0121467
905.380	0.0122631
905.458	0.0122935
905.536	0.0122473
905.614	0.0122669
905.693	0.0122614
905.771	0.0121604
905.849	0.0121095
905.927	0.0123190
906.005	0.0123013
906.083	0.0122367
906.161	0.0124091
906.239	0.0122342
906.318	0.0121011
906.396	0.0122311
906.474	0.0122293
906.552	0.0121428
906.630	0.0121904
906.708	0.0122408
906.786	0.0120334
906.864	0.0121896
906.943	0.0123853
907.021	0.0122549
907.099	0.0121185
907.177	0.0122142
907.255	0.0122109
907.333	0.0123431
907.411	0.0122178
907.489	0.0122475
907.568	0.0122984
907.646	0.0122459
907.724	0.0122912
907.802	0.0123431
907.880	0.0123120
907.958	0.0122243
908.036	0.0122179
908.114	0.0122400
908.193	0.0123439
908.271	0.0122860
908.349	0.0122696
908.427	0.0121916
908.505	0.0122211
908.583	0.0121288
908.661	0.0122131
908.739	0.0122740
908.818	0.0121879
908.896	0.0121950
908.974	0.0122889
909.052	0.0121883
909.130	0.0122753
909.208	0.0122568
909.286	0.0123080
909.364	0.0122997
909.443	0.0120874
909.521	0.0121858
909.599	0.0121375
909.677	0.0122301
909.755	0.0124581
909.833	0.0122519
909.911	0.0121708
909.989	0.0122215
910.068	0.0122916
910.146	0.0122197
910.224	0.0122630
910.302	0.0122964
910.380	0.0123370
910.458	0.0123117
910.536	0.0122903
910.614	0.0122685
910.693	0.0122939
910.771	0.0123148
910.849	0.0123835
910.927	0.0123721
911.005	0.0122169
911.083	0.0122852
911.161	0.0124561
911.239	0.0123506
911.318	0.0123943
911.396	0.0123366
911.474	0.0123318
911.552	0.0123237
911.630	0.0123798
911.708	0.0124340
911.786	0.0122456
911.864	0.0123381
911.943	0.0123713
912.021	0.0122834
912.099	0.0123786
912.177	0.0125384
912.255	0.0124221
912.333	0.0124321
912.411	0.0124078
912.489	0.0123104
912.568	0.0125031
912.646	0.0123779
912.724	0.0124887
912.802	0.0124837
912.880	0.0124020
912.958	0.0125230
913.036	0.0124470
913.114	0.0124203
913.193	0.0124899
913.271	0.0124297
913.349	0.0124757
913.427	0.0124634
913.505	0.0123334
913.583	0.0125056
913.661	0.0124509
913.739	0.0124248
913.818	0.0124723
913.896	0.0123461
913.974	0.0123615
914.052	0.0124342
914.130	0.0124763
914.208	0.0123289
914.286	0.0124429
914.364	0.0124269
914.443	0.0123540
914.521	0.0123911
914.599	0.0123452
914.677	0.0123502
914.755	0.0125315
914.833	0.0122729
914.911	0.0124754
914.989	0.0123989
915.068	0.0123483
915.146	0.0125246
915.224	0.0125857
915.302	0.0124531
915.380	0.0124780
915.458	0.0124926
915.536	0.0124067
915.614	0.0123907
915.693	0.0124143
915.771	0.0124055
915.849	0.0125627
915.927	0.0124264
916.005	0.0124113
916.083	0.0123399
916.161	0.0122971
916.239	0.0123843
916.318	0.0124152
916.396	0.0123654
916.474	0.0121558
916.552	0.0122922
916.630	0.0122984
916.708	0.0123208
916.786	0.0122005
916.864	0.0122356
916.943	0.0124104
917.021	0.0122633
917.099	0.0122208
917.177	0.0123595
917.255	0.0122256
917.333	0.0122638
917.411	0.0123302
917.489	0.0122180
917.568	0.0122646
917.646	0.0123414
917.724	0.0122675
917.802	0.0123921
917.880	0.0123497
917.958	0.0123008
918.036	0.0123806
918.114	0.0123442
918.193	0.0123532
918.271	0.0124454
918.349	0.0124988
918.427	0.0123159
918.505	0.0122118
918.583	0.0124397
918.661	0.0124530
918.739	0.0123554
918.818	0.0123887
918.896	0.0125685
918.974	0.0124790
919.052	0.0123916
919.130	0.0124325
919.208	0.0122627
919.286	0.0124764
919.364	0.0124779
919.443	0.0124197
919.521	0.0123377
919.599	0.0123388
919.677	0.0124858
919.755	0.0124126
919.833	0.0122715
919.911	0.0123549
919.989	0.0123805
920.068	0.0124476
920.146	0.0123058
920.224	0.0122984
920.302	0.0123386
920.380	0.0122502
920.458	0.0121235
920.536	0.0121752
920.614	0.0123175
920.693	0.0123302
920.771	0.0122034
920.849	0.0121940
920.927	0.0122740
921.005	0.0120514
921.083	0.0120826
921.161	0.0121799
921.239	0.0122222
921.318	0.0123727
921.396	0.0122690
921.474	0.0122533
921.552	0.0124004
921.630	0.0123634
921.708	0.0122952
921.786	0.0122865
921.864	0.0122967
921.943	0.0123803
922.021	0.0123689
922.099	0.0123330
922.177	0.0124290
922.255	0.0122815
922.333	0.0123090
922.411	0.0122691
922.489	0.0124352
922.568	0.0123182
922.646	0.0121387
922.724	0.0123488
922.802	0.0124313
922.880	0.0123597
922.958	0.0122227
923.036	0.0121863
923.114	0.0122372
923.193	0.0123685
923.271	0.0122778
923.349	0.0122104
923.427	0.0123781
923.505	0.0123738
923.583	0.0122865
923.661	0.0121732
923.739	0.0123450
923.818	0.0123109
923.896	0.0121666
923.974	0.0122752
924.052	0.0122263
924.130	0.0123323
924.208	0.0121497
924.286	0.0122124
924.364	0.0122408
924.443	0.0122896
924.521	0.0123015
924.599	0.0121424
924.677	0.0121470
924.755	0.0123000
924.833	0.0122027
924.911	0.0122108
924.989	0.0123029
925.068	0.0123011
925.146	0.0123661
925.224	0.0122563
925.302	0.0123988
925.380	0.0123711
925.458	0.0122115
925.536	0.0121497
925.614	0.0122167
925.693	0.0121813
925.771	0.0122149
925.849	0.0123905
925.927	0.0122944
926.005	0.0122858
926.083	0.0122920
926.161	0.0124015
926.239	0.0123894
926.318	0.0123711
926.396	0.0123964
926.474	0.0123470
926.552	0.0122449
926.630	0.0123839
926.708	0.0124589
926.786	0.0123716
926.864	0.0124338
926.943	0.0123920
927.021	0.0124497
927.099	0.0123476
927.177	0.0123566
927.255	0.0124420
927.333	0.0124509
927.411	0.0124513
927.489	0.0122953
927.568	0.0122311
927.646	0.0123919
927.724	0.0122681
927.802	0.0123703
927.880	0.0123259
927.958	0.0122926
928.036	0.0122606
928.114	0.0123149
928.193	0.0123009
928.271	0.0121709
928.349	0.0123112
928.427	0.0123736
928.505	0.0122120
928.583	0.0123251
928.661	0.0123054
928.739	0.0123554
928.818	0.0122697
928.896	0.0124340
928.974	0.0121848
929.052	0.0122392
929.130	0.0121536
929.208	0.0124317
929.286	0.0125088
929.364	0.0123123
929.443	0.0122463
929.521	0.0124070
929.599	0.0122550
929.677	0.0122964
929.755	0.0123543
929.833	0.0124101
929.911	0.0124046
929.989	0.0123266
930.068	0.0124773
930.146	0.0124090
930.224	0.0123979
930.302	0.0124881
930.380	0.0122918
930.458	0.0123120
930.536	0.0125213
930.614	0.0122512
930.693	0.0122407
930.771	0.0123138
930.849	0.0123333
930.927	0.0124121
931.005	0.0123596
931.083	0.0125452
931.161	0.0124055
931.239	0.0122469
931.318	0.0125002
931.396	0.0124081
931.474	0.0124715
931.552	0.0123562
931.630	0.0124586
931.708	0.0123528
931.786	0.0124153
931.864	0.0124229
931.943	0.0122153
932.021	0.0123470
932.099	0.0124577
932.177	0.0124603
932.255	0.0122983
932.333	0.0123572
932.411	0.0123942
932.489	0.0123843
932.568	0.0124590
932.646	0.0123530
932.724	0.0123865
932.802	0.0123402
932.880	0.0123414
932.958	0.0123535
933.036	0.0123416
933.114	0.0123901
933.193	0.0122993
933.271	0.0123143
933.349	0.0123986
933.427	0.0123472
933.505	0.0125079
933.583	0.0124555
933.661	0.0123402
933.739	0.0124194
933.818	0.0123564
933.896	0.0122369
933.974	0.0123225
934.052	0.0123165
934.130	0.0123174
934.208	0.0122247
934.286	0.0124065
934.364	0.0123041
934.443	0.0122848
934.521	0.0123738
934.599	0.0123487
934.677	0.0123336
934.755	0.0123196
934.833	0.0122746
934.911	0.0123208
934.989	0.0123595
935.068	0.0123534
935.146	0.0122858
935.224	0.0123702
935.302	0.0123407
935.380	0.0122372
935.458	0.0122048
935.536	0.0123595
935.614	0.0123165
935.693	0.0123521
935.771	0.0123450
935.849	0.0123518
935.927	0.0122504
936.005	0.0124394
936.083	0.0122992
936.161	0.0122971
936.239	0.0123782
936.318	0.0123985
936.396	0.0123984
936.474	0.0124765
936.552	0.0124309
936.630	0.0122294
936.708	0.0122732
936.786	0.0123645
936.864	0.0123407
936.943	0.0123846
937.021	0.0124054
937.099	0.0124366
937.177	0.0123338
937.255	0.0122675
937.333	0.0123904
937.411	0.0124474
937.489	0.0124394
937.568	0.0123640
937.646	0.0123216
937.724	0.0123692
937.802	0.0124590
937.880	0.0124712
937.958	0.0124986
938.036	0.0124147
938.114	0.0124836
938.193	0.0124558
938.271	0.0123038
938.349	0.0123931
938.427	0.0124110
938.505	0.0123724
938.583	0.0124660
938.661	0.0124434
938.739	0.0124413
938.818	0.0124905
938.896	0.0123533
938.974	0.0123953
939.052	0.0123885
939.130	0.0122158
939.208	0.0124655
939.286	0.0122421
939.364	0.0123705
939.443	0.0124940
939.521	0.0122484
939.599	0.0123048
939.677	0.0122203
939.755	0.0122583
939.833	0.0122712
939.911	0.0122797
939.989	0.0123199
940.068	0.0122870
940.146	0.0123357
940.224	0.0122070
940.302	0.0120684
940.380	0.0122790
940.458	0.0123597
940.536	0.0123554
940.614	0.0122909
940.693	0.0122907
940.771	0.0122871
940.849	0.0125316
940.927	0.0123215
941.005	0.0123637
941.083	0.0124674
941.161	0.0123439
941.239	0.0124044
941.318	0.0125477
941.396	0.0125210
941.474	0.0125145
941.552	0.0123836
941.630	0.0125278
941.708	0.0125632
941.786	0.0125968
941.864	0.0123855
941.943	0.0123962
942.021	0.0125083
942.099	0.0124453
942.177	0.0123563
942.255	0.0123939
942.333	0.0125016
942.411	0.0125144
942.489	0.0123406
942.568	0.0123864
942.646	0.0124764
942.724	0.0123610
942.802	0.0122254
942.880	0.0122647
942.958	0.0122890
943.036	0.0122525
943.114	0.0122870
943.193	0.0122482
943.271	0.0122818
943.349	0.0122639
943.427	0.0123200
943.505	0.0122701
943.583	0.0122218
943.661	0.0122914
943.739	0.0123055
943.818	0.0122770
943.896	0.0122845
943.974	0.0122340
944.052	0.0123079
944.130	0.0122052
944.208	0.0121297
944.286	0.0121740
944.364	0.0121728
944.443	0.0122049
944.521	0.0122147
944.599	0.0123762
944.677	0.0122637
944.755	0.0123026
944.833	0.0122228
944.911	0.0123467
944.989	0.0123683
945.068	0.0123601
945.146	0.0123665
945.224	0.0123694
945.302	0.0124208
945.380	0.0124423
945.458	0.0124381
945.536	0.0123692
945.614	0.0124895
945.693	0.0125256
945.771	0.0125833
945.849	0.0125771
945.927	0.0123949
946.005	0.0123873
946.083	0.0124780
946.161	0.0125085
946.239	0.0125524
946.318	0.0124230
946.396	0.0125275
946.474	0.0124838
946.552	0.0124873
946.630	0.0125311
946.708	0.0125763
946.786	0.0124870
946.864	0.0125416
946.943	0.0125245
947.021	0.0124918
947.099	0.0124394
947.177	0.0124829
947.255	0.0123887
947.333	0.0124344
947.411	0.0125170
947.489	0.0124426
947.568	0.0124323
947.646	0.0125323
947.724	0.0126145
947.802	0.0124146
947.880	0.0124169
947.958	0.0124891
948.036	0.0123781
948.114	0.0123849
948.193	0.0124321
948.271	0.0124434
948.349	0.0124243
948.427	0.0125084
948.505	0.0124165
948.583	0.0121802
948.661	0.0123663
948.739	0.0122736
948.818	0.0123319
948.896	0.0124486
948.974	0.0123274
949.052	0.0124861
949.130	0.0123104
949.208	0.0121539
949.286	0.0122684
949.364	0.0122597
949.443	0.0122090
949.521	0.0121962
949.599	0.0122787
949.677	0.0122821
949.755	0.0120689
949.833	0.0122289
949.911	0.0122182
949.989	0.0122245
950.068	0.0122234
950.146	0.0122242
950.224	0.0123120
950.302	0.0123415
950.380	0.0123999
950.458	0.0123212
950.536	0.0121808
950.614	0.0123824
950.693	0.0122906
950.771	0.0123764
950.849	0.0124916
950.927	0.0123073
951.005	0.0122244
951.083	0.0123494
951.161	0.0122410
951.239	0.0124147
951.318	0.0123049
951.396	0.0122369
951.474	0.0123730
951.552	0.0123579
951.630	0.0125441
951.708	0.0124376
951.786	0.0123190
951.864	0.0122044
951.943	0.0121741
952.021	0.0122099
952.099	0.0123702
952.177	0.0123530
952.255	0.0122538
952.333	0.0121941
952.411	0.0121741
952.489	0.0123534
952.568	0.0123321
952.646	0.0123134
952.724	0.0123032
952.802	0.0122940
952.880	0.0123038
952.958	0.0123108
953.036	0.0122835
953.114	0.0123199
953.193	0.0123278
953.271	0.0122620
953.349	0.0124345
953.427	0.0121699
953.505	0.0124369
953.583	0.0124481
953.661	0.0122982
953.739	0.0124395
953.818	0.0123849
953.896	0.0122958
953.974	0.0123904
954.052	0.0122789
954.130	0.0124124
954.208	0.0122825
954.286	0.0123359
954.364	0.0123531
954.443	0.0123836
954.521	0.0123235
954.599	0.0123229
954.677	0.0123385
954.755	0.0122523
954.833	0.0123495
954.911	0.0121637
954.989	0.0122291
955.068	0.0122592
955.146	0.0122827
955.224	0.0124094
955.302	0.0122866
955.380	0.0122670
955.458	0.0122848
955.536	0.0123435
955.614	0.0123315
955.693	0.0123496
955.771	0.0123162
955.849	0.0123151
955.927	0.0122927
956.005	0.0123657
956.083	0.0122034
956.161	0.0123640
956.239	0.0125572
956.318	0.0123222
956.396	0.0123568
956.474	0.0124078
956.552	0.0122866
956.630	0.0123147
956.708	0.0124604
956.786	0.0123437
956.864	0.0124321
956.943	0.0124047
957.021	0.0123158
957.099	0.0122345
957.177	0.0124195
957.255	0.0125045
957.333	0.0123609
957.411	0.0122912
957.489	0.0124527
957.568	0.0125172
957.646	0.0124611
957.724	0.0124651
957.802	0.0123328
957.880	0.0123732
957.958	0.0123225
958.036	0.0121745
958.114	0.0122176
958.193	0.0123983
958.271	0.0123505
958.349	0.0123836
958.427	0.0124752
958.505	0.0124074
958.583	0.0124901
958.661	0.0125098
958.739	0.0125131
958.818	0.0124860
958.896	0.0124189
958.974	0.0123842
959.052	0.0123436
959.130	0.0122956
959.208	0.0123734
959.286	0.0122650
959.364	0.0124032
959.443	0.0123826
959.521	0.0123626
959.599	0.0122894
959.677	0.0122847
959.755	0.0122926
959.833	0.0125125
959.911	0.0124345
