05/07/2022	17:01:16	Ver.	4.1	UNKNOWN
Optical Delay	639.989416	Delta X		0.078125	Sweeps	1	Scan Rate	0/0
Coordinates	Axis 1	NaN	Axis 2	NaN	Axis 3	NaN	Axis 4	NaN	Axis 5	NaN	Axis 6	0.000000
TX Power	0.000000	RX Power	0.000000

639.989	0.0116586
640.068	0.0117191
640.146	0.0116718
640.224	0.0116573
640.302	0.0116454
640.380	0.0116883
640.458	0.0117001
640.536	0.0117496
640.614	0.0116654
640.693	0.0115607
640.771	0.0115941
640.849	0.0116772
640.927	0.0116079
641.005	0.0116451
641.083	0.0117883
641.161	0.0117582
641.239	0.0117281
641.318	0.0116490
641.396	0.0115332
641.474	0.0116276
641.552	0.0117007
641.630	0.0116750
641.708	0.0116981
641.786	0.0115967
641.864	0.0116462
641.943	0.0116599
642.021	0.0117088
642.099	0.0116531
642.177	0.0117021
642.255	0.0117659
642.333	0.0115614
642.411	0.0115812
642.489	0.0116541
642.568	0.0116891
642.646	0.0116747
642.724	0.0117056
642.802	0.0116106
642.880	0.0116601
642.958	0.0116312
643.036	0.0116795
643.114	0.0116232
643.193	0.0117897
643.271	0.0118280
643.349	0.0116344
643.427	0.0117802
643.505	0.0116295
643.583	0.0116637
643.661	0.0117819
643.739	0.0116781
643.818	0.0116463
643.896	0.0116122
643.974	0.0116619
644.052	0.0116463
644.130	0.0117966
644.208	0.0116110
644.286	0.0115563
644.364	0.0115943
644.443	0.0116463
644.521	0.0116786
644.599	0.0117455
644.677	0.0115338
644.755	0.0116040
644.833	0.0116210
644.911	0.0114918
644.989	0.0116692
645.068	0.0116089
645.146	0.0116771
645.224	0.0116770
645.302	0.0115902
645.380	0.0115891
645.458	0.0116470
645.536	0.0116848
645.614	0.0116966
645.693	0.0116174
645.771	0.0116184
645.849	0.0116850
645.927	0.0116378
646.005	0.0116882
646.083	0.0116296
646.161	0.0115805
646.239	0.0116462
646.318	0.0115331
646.396	0.0116692
646.474	0.0116041
646.552	0.0115940
646.630	0.0115666
646.708	0.0117138
646.786	0.0116041
646.864	0.0116091
646.943	0.0116833
647.021	0.0116404
647.099	0.0116801
647.177	0.0116743
647.255	0.0117242
647.333	0.0116846
647.411	0.0116888
647.489	0.0115979
647.568	0.0115973
647.646	0.0117137
647.724	0.0116425
647.802	0.0116207
647.880	0.0117596
647.958	0.0116162
648.036	0.0116670
648.114	0.0116472
648.193	0.0117253
648.271	0.0117372
648.349	0.0117453
648.427	0.0116993
648.505	0.0117122
648.583	0.0117434
648.661	0.0116380
648.739	0.0116488
648.818	0.0116939
648.896	0.0116580
648.974	0.0117163
649.052	0.0116415
649.130	0.0116059
649.208	0.0115604
649.286	0.0116464
649.364	0.0117211
649.443	0.0118213
649.521	0.0116444
649.599	0.0116135
649.677	0.0114866
649.755	0.0115462
649.833	0.0116641
649.911	0.0117995
649.989	0.0117986
650.068	0.0116100
650.146	0.0116792
650.224	0.0116071
650.302	0.0117178
650.380	0.0117786
650.458	0.0115862
650.536	0.0116373
650.614	0.0116705
650.693	0.0116126
650.771	0.0117826
650.849	0.0116053
650.927	0.0114836
651.005	0.0117654
651.083	0.0115690
651.161	0.0116589
651.239	0.0116858
651.318	0.0115816
651.396	0.0116830
651.474	0.0116640
651.552	0.0116106
651.630	0.0118040
651.708	0.0116109
651.786	0.0115989
651.864	0.0116034
651.943	0.0116064
652.021	0.0116739
652.099	0.0118011
652.177	0.0116531
652.255	0.0116737
652.333	0.0117455
652.411	0.0116563
652.489	0.0115520
652.568	0.0117565
652.646	0.0118399
652.724	0.0117425
652.802	0.0115295
652.880	0.0117294
652.958	0.0117311
653.036	0.0116891
653.114	0.0116599
653.193	0.0116848
653.271	0.0116774
653.349	0.0118172
653.427	0.0116709
653.505	0.0116582
653.583	0.0117065
653.661	0.0116998
653.739	0.0117262
653.818	0.0116829
653.896	0.0116487
653.974	0.0115898
654.052	0.0115119
654.130	0.0116175
654.208	0.0117714
654.286	0.0115718
654.364	0.0116921
654.443	0.0116900
654.521	0.0117406
654.599	0.0116582
654.677	0.0116879
654.755	0.0118003
654.833	0.0115591
654.911	0.0116515
654.989	0.0116904
655.068	0.0117029
655.146	0.0117013
655.224	0.0117191
655.302	0.0117310
655.380	0.0118107
655.458	0.0116592
655.536	0.0117169
655.614	0.0117081
655.693	0.0117525
655.771	0.0116865
655.849	0.0117136
655.927	0.0116238
656.005	0.0115305
656.083	0.0116470
656.161	0.0116747
656.239	0.0118095
656.318	0.0116754
656.396	0.0116811
656.474	0.0116861
656.552	0.0115400
656.630	0.0116025
656.708	0.0115944
656.786	0.0118333
656.864	0.0117352
656.943	0.0116399
657.021	0.0116386
657.099	0.0116221
657.177	0.0115826
657.255	0.0116879
657.333	0.0116232
657.411	0.0116582
657.489	0.0116177
657.568	0.0115920
657.646	0.0115945
657.724	0.0115291
657.802	0.0115942
657.880	0.0117488
657.958	0.0116532
658.036	0.0116900
658.114	0.0117037
658.193	0.0117867
658.271	0.0117323
658.349	0.0118836
658.427	0.0117213
658.505	0.0116534
658.583	0.0117646
658.661	0.0117445
658.739	0.0116866
658.818	0.0116095
658.896	0.0116259
658.974	0.0116810
659.052	0.0116723
659.130	0.0116654
659.208	0.0115726
659.286	0.0116551
659.364	0.0116937
659.443	0.0117243
659.521	0.0115585
659.599	0.0117018
659.677	0.0118301
659.755	0.0116773
659.833	0.0118169
659.911	0.0117441
659.989	0.0115996
660.068	0.0116402
660.146	0.0117612
660.224	0.0117386
660.302	0.0116199
660.380	0.0116436
660.458	0.0116409
660.536	0.0117638
660.614	0.0116618
660.693	0.0115945
660.771	0.0117903
660.849	0.0117761
660.927	0.0116548
661.005	0.0117368
661.083	0.0117656
661.161	0.0116796
661.239	0.0117971
661.318	0.0116624
661.396	0.0116896
661.474	0.0116180
661.552	0.0116409
661.630	0.0117311
661.708	0.0117046
661.786	0.0116413
661.864	0.0116093
661.943	0.0117358
662.021	0.0116504
662.099	0.0116235
662.177	0.0116387
662.255	0.0117197
662.333	0.0116843
662.411	0.0117115
662.489	0.0116032
662.568	0.0117901
662.646	0.0116794
662.724	0.0116415
662.802	0.0117294
662.880	0.0117482
662.958	0.0116655
663.036	0.0117194
663.114	0.0116187
663.193	0.0117236
663.271	0.0117515
663.349	0.0115502
663.427	0.0116705
663.505	0.0117275
663.583	0.0116470
663.661	0.0116681
663.739	0.0117287
663.818	0.0117429
663.896	0.0117194
663.974	0.0115581
664.052	0.0116489
664.130	0.0115804
664.208	0.0116161
664.286	0.0116476
664.364	0.0118665
664.443	0.0118223
664.521	0.0117942
664.599	0.0116407
664.677	0.0117049
664.755	0.0116500
664.833	0.0117019
664.911	0.0116266
664.989	0.0115812
665.068	0.0117064
665.146	0.0117694
665.224	0.0116446
665.302	0.0117273
665.380	0.0117961
665.458	0.0116734
665.536	0.0117220
665.614	0.0117382
665.693	0.0117780
665.771	0.0116887
665.849	0.0116239
665.927	0.0116784
666.005	0.0117161
666.083	0.0116002
666.161	0.0117013
666.239	0.0117085
666.318	0.0117049
666.396	0.0117874
666.474	0.0116398
666.552	0.0117236
666.630	0.0117689
666.708	0.0116784
666.786	0.0116425
666.864	0.0116781
666.943	0.0116936
667.021	0.0116969
667.099	0.0116808
667.177	0.0116360
667.255	0.0117973
667.333	0.0115588
667.411	0.0117832
667.489	0.0115504
667.568	0.0116911
667.646	0.0117126
667.724	0.0115635
667.802	0.0116203
667.880	0.0116730
667.958	0.0116492
668.036	0.0116828
668.114	0.0117681
668.193	0.0115839
668.271	0.0115929
668.349	0.0115456
668.427	0.0116282
668.505	0.0115857
668.583	0.0116424
668.661	0.0116505
668.739	0.0116060
668.818	0.0116930
668.896	0.0116324
668.974	0.0114581
669.052	0.0116840
669.130	0.0116508
669.208	0.0116650
669.286	0.0116132
669.364	0.0115478
669.443	0.0114487
669.521	0.0115736
669.599	0.0114530
669.677	0.0115704
669.755	0.0116048
669.833	0.0115356
669.911	0.0113477
669.989	0.0115629
670.068	0.0116022
670.146	0.0116264
670.224	0.0116232
670.302	0.0116235
670.380	0.0114757
670.458	0.0114808
670.536	0.0115530
670.614	0.0115382
670.693	0.0115578
670.771	0.0115377
670.849	0.0116626
670.927	0.0116169
671.005	0.0115694
671.083	0.0114507
671.161	0.0115493
671.239	0.0115537
671.318	0.0116322
671.396	0.0114702
671.474	0.0114932
671.552	0.0116909
671.630	0.0116114
671.708	0.0115761
671.786	0.0116683
671.864	0.0116528
671.943	0.0115865
672.021	0.0116349
672.099	0.0115676
672.177	0.0115456
672.255	0.0115644
672.333	0.0114857
672.411	0.0116412
672.489	0.0115157
672.568	0.0115563
672.646	0.0115076
672.724	0.0114667
672.802	0.0115553
672.880	0.0114535
672.958	0.0115791
673.036	0.0114777
673.114	0.0114107
673.193	0.0114283
673.271	0.0114597
673.349	0.0114996
673.427	0.0114705
673.505	0.0116325
673.583	0.0115331
673.661	0.0114748
673.739	0.0115096
673.818	0.0113709
673.896	0.0116233
673.974	0.0114951
674.052	0.0115800
674.130	0.0115346
674.208	0.0115468
674.286	0.0115882
674.364	0.0116266
674.443	0.0114259
674.521	0.0114759
674.599	0.0115594
674.677	0.0117284
674.755	0.0116050
674.833	0.0115701
674.911	0.0115876
674.989	0.0116405
675.068	0.0114464
675.146	0.0115189
675.224	0.0115749
675.302	0.0116454
675.380	0.0117431
675.458	0.0115666
675.536	0.0116165
675.614	0.0115957
675.693	0.0116998
675.771	0.0116100
675.849	0.0116228
675.927	0.0116159
676.005	0.0117492
676.083	0.0116964
676.161	0.0116840
676.239	0.0115681
676.318	0.0116846
676.396	0.0116138
676.474	0.0115477
676.552	0.0117998
676.630	0.0118269
676.708	0.0117231
676.786	0.0116205
676.864	0.0116294
676.943	0.0117088
677.021	0.0118358
677.099	0.0116736
677.177	0.0116277
677.255	0.0117343
677.333	0.0117691
677.411	0.0117611
677.489	0.0116438
677.568	0.0115900
677.646	0.0117875
677.724	0.0118330
677.802	0.0116684
677.880	0.0116769
677.958	0.0116551
678.036	0.0117404
678.114	0.0116953
678.193	0.0116799
678.271	0.0116998
678.349	0.0117312
678.427	0.0118370
678.505	0.0118645
678.583	0.0117404
678.661	0.0120215
678.739	0.0117909
678.818	0.0118376
678.896	0.0117651
678.974	0.0117004
679.052	0.0118757
679.130	0.0118403
679.208	0.0119416
679.286	0.0120198
679.364	0.0117706
679.443	0.0118507
679.521	0.0118472
679.599	0.0117515
679.677	0.0119006
679.755	0.0118690
679.833	0.0117967
679.911	0.0118114
679.989	0.0117795
680.068	0.0118311
680.146	0.0117712
680.224	0.0117787
680.302	0.0118022
680.380	0.0119184
680.458	0.0120206
680.536	0.0119157
680.614	0.0118316
680.693	0.0118171
680.771	0.0119695
680.849	0.0118127
680.927	0.0118931
681.005	0.0117821
681.083	0.0118656
681.161	0.0120193
681.239	0.0117764
681.318	0.0118232
681.396	0.0117960
681.474	0.0118581
681.552	0.0117595
681.630	0.0118900
681.708	0.0116180
681.786	0.0117634
681.864	0.0118640
681.943	0.0117027
682.021	0.0117859
682.099	0.0117750
682.177	0.0117059
682.255	0.0117963
682.333	0.0117324
682.411	0.0118000
682.489	0.0117396
682.568	0.0116167
682.646	0.0115886
682.724	0.0117015
682.802	0.0118307
682.880	0.0116642
682.958	0.0117084
683.036	0.0117500
683.114	0.0116518
683.193	0.0116147
683.271	0.0115597
683.349	0.0117619
683.427	0.0116375
683.505	0.0116165
683.583	0.0116080
683.661	0.0116084
683.739	0.0116299
683.818	0.0115759
683.896	0.0116026
683.974	0.0117780
684.052	0.0116574
684.130	0.0115755
684.208	0.0116315
684.286	0.0117278
684.364	0.0117376
684.443	0.0117158
684.521	0.0115105
684.599	0.0117124
684.677	0.0115832
684.755	0.0116826
684.833	0.0116977
684.911	0.0116254
684.989	0.0116816
685.068	0.0116440
685.146	0.0116319
685.224	0.0115990
685.302	0.0114650
685.380	0.0117091
685.458	0.0115870
685.536	0.0116415
685.614	0.0116145
685.693	0.0115862
685.771	0.0117130
685.849	0.0117246
685.927	0.0116311
686.005	0.0115779
686.083	0.0116203
686.161	0.0116760
686.239	0.0117078
686.318	0.0116486
686.396	0.0114888
686.474	0.0115391
686.552	0.0114625
686.630	0.0114730
686.708	0.0115971
686.786	0.0115359
686.864	0.0115373
686.943	0.0115216
687.021	0.0116336
687.099	0.0115990
687.177	0.0116924
687.255	0.0117105
687.333	0.0118023
687.411	0.0119098
687.489	0.0119156
687.568	0.0118156
687.646	0.0117008
687.724	0.0117145
687.802	0.0117098
687.880	0.0116374
687.958	0.0115028
688.036	0.0115395
688.114	0.0113985
688.193	0.0113754
688.271	0.0113876
688.349	0.0113032
688.427	0.0114743
688.505	0.0115342
688.583	0.0116027
688.661	0.0117496
688.739	0.0116156
688.818	0.0118020
688.896	0.0119341
688.974	0.0118689
689.052	0.0118477
689.130	0.0119209
689.208	0.0118894
689.286	0.0118655
689.364	0.0119406
689.443	0.0119312
689.521	0.0117281
689.599	0.0115678
689.677	0.0115785
689.755	0.0116559
689.833	0.0115282
689.911	0.0115144
689.989	0.0114568
690.068	0.0115453
690.146	0.0115302
690.224	0.0114704
690.302	0.0116096
690.380	0.0114616
690.458	0.0115659
690.536	0.0115699
690.614	0.0114835
690.693	0.0115951
690.771	0.0116055
690.849	0.0116583
690.927	0.0115588
691.005	0.0115525
691.083	0.0115629
691.161	0.0114424
691.239	0.0116735
691.318	0.0116766
691.396	0.0117303
691.474	0.0117184
691.552	0.0117249
691.630	0.0117596
691.708	0.0118533
691.786	0.0118649
691.864	0.0118584
691.943	0.0119094
692.021	0.0120124
692.099	0.0119499
692.177	0.0119588
692.255	0.0117867
692.333	0.0117589
692.411	0.0116310
692.489	0.0116309
692.568	0.0116145
692.646	0.0115632
692.724	0.0114178
692.802	0.0113342
692.880	0.0112978
692.958	0.0114938
693.036	0.0114163
693.114	0.0112118
693.193	0.0112400
693.271	0.0113210
693.349	0.0113015
693.427	0.0112820
693.505	0.0114561
693.583	0.0113125
693.661	0.0114479
693.739	0.0115250
693.818	0.0116504
693.896	0.0116505
693.974	0.0117460
694.052	0.0118087
694.130	0.0118397
694.208	0.0119112
694.286	0.0119366
694.364	0.0119714
694.443	0.0120393
694.521	0.0118118
694.599	0.0119892
694.677	0.0117417
694.755	0.0117705
694.833	0.0116888
694.911	0.0117190
694.989	0.0117346
695.068	0.0117154
695.146	0.0114191
695.224	0.0114433
695.302	0.0113553
695.380	0.0115199
695.458	0.0115236
695.536	0.0114325
695.614	0.0115426
695.693	0.0114503
695.771	0.0114476
695.849	0.0114001
695.927	0.0115628
696.005	0.0116010
696.083	0.0116349
696.161	0.0116148
696.239	0.0115839
696.318	0.0116460
696.396	0.0116444
696.474	0.0115340
696.552	0.0117194
696.630	0.0115623
696.708	0.0115359
696.786	0.0115820
696.864	0.0115736
696.943	0.0116284
697.021	0.0116187
697.099	0.0116776
697.177	0.0116473
697.255	0.0115009
697.333	0.0115131
697.411	0.0116488
697.489	0.0116932
697.568	0.0117822
697.646	0.0117809
697.724	0.0116572
697.802	0.0116431
697.880	0.0117708
697.958	0.0116756
698.036	0.0117394
698.114	0.0117403
698.193	0.0117835
698.271	0.0117055
698.349	0.0117560
698.427	0.0116676
698.505	0.0118616
698.583	0.0117001
698.661	0.0117447
698.739	0.0117444
698.818	0.0118982
698.896	0.0118375
698.974	0.0118726
699.052	0.0118015
699.130	0.0117798
699.208	0.0118028
699.286	0.0118656
699.364	0.0117378
699.443	0.0117659
699.521	0.0117664
699.599	0.0118127
699.677	0.0118044
699.755	0.0117739
699.833	0.0117300
699.911	0.0117281
699.989	0.0117156
700.068	0.0117567
700.146	0.0116616
700.224	0.0115309
700.302	0.0113792
700.380	0.0113339
700.458	0.0115688
700.536	0.0115430
700.614	0.0111994
700.693	0.0113329
700.771	0.0112399
700.849	0.0113120
700.927	0.0112280
701.005	0.0112221
701.083	0.0112307
701.161	0.0112068
701.239	0.0112236
701.318	0.0112157
701.396	0.0112357
701.474	0.0113226
701.552	0.0113573
701.630	0.0114825
701.708	0.0113827
701.786	0.0115645
701.864	0.0118152
701.943	0.0117679
702.021	0.0117233
702.099	0.0118210
702.177	0.0119830
702.255	0.0120977
702.333	0.0121134
702.411	0.0122059
702.489	0.0119666
702.568	0.0121433
702.646	0.0120142
702.724	0.0120972
702.802	0.0120547
702.880	0.0118507
702.958	0.0117759
703.036	0.0118168
703.114	0.0117431
703.193	0.0117046
703.271	0.0117072
703.349	0.0116318
703.427	0.0115614
703.505	0.0113618
703.583	0.0115956
703.661	0.0116168
703.739	0.0116224
703.818	0.0115247
703.896	0.0115153
703.974	0.0114601
704.052	0.0114935
704.130	0.0114643
704.208	0.0114565
704.286	0.0115308
704.364	0.0114698
704.443	0.0115450
704.521	0.0115228
704.599	0.0114544
704.677	0.0113754
704.755	0.0114598
704.833	0.0114140
704.911	0.0115718
704.989	0.0115698
705.068	0.0117227
705.146	0.0116660
705.224	0.0117727
705.302	0.0118540
705.380	0.0116297
705.458	0.0117665
705.536	0.0118081
705.614	0.0118174
705.693	0.0117841
705.771	0.0118735
705.849	0.0118420
705.927	0.0119386
706.005	0.0119498
706.083	0.0122013
706.161	0.0120010
706.239	0.0119768
706.318	0.0118360
706.396	0.0119434
706.474	0.0121510
706.552	0.0120457
706.630	0.0120234
706.708	0.0121416
706.786	0.0120526
706.864	0.0119948
706.943	0.0120463
707.021	0.0121188
707.099	0.0120143
707.177	0.0119473
707.255	0.0119950
707.333	0.0120910
707.411	0.0119848
707.489	0.0119295
707.568	0.0118498
707.646	0.0119633
707.724	0.0118275
707.802	0.0119149
707.880	0.0119772
707.958	0.0118618
708.036	0.0118412
708.114	0.0118394
708.193	0.0118108
708.271	0.0118148
708.349	0.0116882
708.427	0.0116798
708.505	0.0116435
708.583	0.0116920
708.661	0.0115066
708.739	0.0114146
708.818	0.0114481
708.896	0.0114413
708.974	0.0114826
709.052	0.0114890
709.130	0.0115510
709.208	0.0115150
709.286	0.0116107
709.364	0.0115282
709.443	0.0115438
709.521	0.0116264
709.599	0.0115323
709.677	0.0116911
709.755	0.0116804
709.833	0.0116442
709.911	0.0117122
709.989	0.0115734
710.068	0.0116871
710.146	0.0116785
710.224	0.0118153
710.302	0.0117508
710.380	0.0117635
710.458	0.0117613
710.536	0.0118320
710.614	0.0117504
710.693	0.0118134
710.771	0.0118996
710.849	0.0118641
710.927	0.0116863
711.005	0.0117805
711.083	0.0118845
711.161	0.0118850
711.239	0.0118051
711.318	0.0118481
711.396	0.0118739
711.474	0.0117296
711.552	0.0118299
711.630	0.0118945
711.708	0.0116564
711.786	0.0117078
711.864	0.0117838
711.943	0.0117393
712.021	0.0116958
712.099	0.0115942
712.177	0.0117422
712.255	0.0117487
712.333	0.0116761
712.411	0.0115643
712.489	0.0116711
712.568	0.0116170
712.646	0.0115582
712.724	0.0117540
712.802	0.0117132
712.880	0.0117529
712.958	0.0116785
713.036	0.0115336
713.114	0.0115450
713.193	0.0116350
713.271	0.0116271
713.349	0.0114845
713.427	0.0113287
713.505	0.0113761
713.583	0.0113828
713.661	0.0113435
713.739	0.0113508
713.818	0.0113440
713.896	0.0113461
713.974	0.0112666
714.052	0.0112417
714.130	0.0113979
714.208	0.0114497
714.286	0.0112134
714.364	0.0114717
714.443	0.0113683
714.521	0.0114953
714.599	0.0114616
714.677	0.0115446
714.755	0.0116328
714.833	0.0115881
714.911	0.0116485
714.989	0.0115137
715.068	0.0116665
715.146	0.0117638
715.224	0.0116157
715.302	0.0117316
715.380	0.0118055
715.458	0.0117619
715.536	0.0117966
715.614	0.0118675
715.693	0.0118562
715.771	0.0119442
715.849	0.0118723
715.927	0.0118916
716.005	0.0119411
716.083	0.0119340
716.161	0.0119099
716.239	0.0118404
716.318	0.0118578
716.396	0.0117390
716.474	0.0119807
716.552	0.0119588
716.630	0.0119724
716.708	0.0119976
716.786	0.0119498
716.864	0.0119210
716.943	0.0118474
717.021	0.0118789
717.099	0.0117532
717.177	0.0118407
717.255	0.0118176
717.333	0.0118114
717.411	0.0116450
717.489	0.0116689
717.568	0.0117561
717.646	0.0115926
717.724	0.0115041
717.802	0.0116402
717.880	0.0116477
717.958	0.0116246
718.036	0.0115816
718.114	0.0117757
718.193	0.0115150
718.271	0.0115758
718.349	0.0114995
718.427	0.0116930
718.505	0.0114958
718.583	0.0115750
718.661	0.0116299
718.739	0.0115295
718.818	0.0115433
718.896	0.0115183
718.974	0.0114170
719.052	0.0114233
719.130	0.0114143
719.208	0.0113950
719.286	0.0115308
719.364	0.0115192
719.443	0.0115543
719.521	0.0115953
719.599	0.0116026
719.677	0.0117164
719.755	0.0116874
719.833	0.0116677
719.911	0.0118307
719.989	0.0117789
720.068	0.0119247
720.146	0.0119107
720.224	0.0120990
720.302	0.0122034
720.380	0.0121313
720.458	0.0119938
720.536	0.0119537
720.614	0.0121418
720.693	0.0121140
720.771	0.0120553
720.849	0.0118464
720.927	0.0119750
721.005	0.0118905
721.083	0.0115959
721.161	0.0116904
721.239	0.0115486
721.318	0.0115575
721.396	0.0113661
721.474	0.0114925
721.552	0.0115338
721.630	0.0112106
721.708	0.0112803
721.786	0.0114066
721.864	0.0113000
721.943	0.0113184
722.021	0.0112486
722.099	0.0112813
722.177	0.0112539
722.255	0.0113110
722.333	0.0113258
722.411	0.0114404
722.489	0.0115944
722.568	0.0116135
722.646	0.0115851
722.724	0.0117486
722.802	0.0118736
722.880	0.0119502
722.958	0.0118427
723.036	0.0119495
723.114	0.0119294
723.193	0.0119338
723.271	0.0118676
723.349	0.0119221
723.427	0.0119512
723.505	0.0117359
723.583	0.0117080
723.661	0.0117432
723.739	0.0115278
723.818	0.0116360
723.896	0.0114498
723.974	0.0114000
724.052	0.0113860
724.130	0.0113641
724.208	0.0113768
724.286	0.0111889
724.364	0.0109774
724.443	0.0111768
724.521	0.0112737
724.599	0.0110730
724.677	0.0111165
724.755	0.0112803
724.833	0.0112843
724.911	0.0112920
724.989	0.0112929
725.068	0.0114001
725.146	0.0114351
725.224	0.0116139
725.302	0.0114998
725.380	0.0116457
725.458	0.0116183
725.536	0.0117342
725.614	0.0118300
725.693	0.0117664
725.771	0.0118093
725.849	0.0117831
725.927	0.0118542
726.005	0.0118026
726.083	0.0119083
726.161	0.0118354
726.239	0.0118542
726.318	0.0118355
726.396	0.0117289
726.474	0.0116345
726.552	0.0115968
726.630	0.0116439
726.708	0.0117065
726.786	0.0116109
726.864	0.0116247
726.943	0.0114558
727.021	0.0114943
727.099	0.0115428
727.177	0.0116535
727.255	0.0116476
727.333	0.0115673
727.411	0.0115033
727.489	0.0116492
727.568	0.0115577
727.646	0.0116283
727.724	0.0117310
727.802	0.0118260
727.880	0.0117260
727.958	0.0117859
728.036	0.0117988
728.114	0.0118130
728.193	0.0118127
728.271	0.0118877
728.349	0.0118787
728.427	0.0118633
728.505	0.0118303
728.583	0.0118505
728.661	0.0117763
728.739	0.0118480
728.818	0.0118799
728.896	0.0117407
728.974	0.0115777
729.052	0.0114987
729.130	0.0116721
729.208	0.0115338
729.286	0.0114896
729.364	0.0114802
729.443	0.0116516
729.521	0.0115322
729.599	0.0114940
729.677	0.0115600
729.755	0.0115437
729.833	0.0113962
729.911	0.0114440
729.989	0.0113968
730.068	0.0114645
730.146	0.0116274
730.224	0.0116924
730.302	0.0116785
730.380	0.0116975
730.458	0.0118279
730.536	0.0117230
730.614	0.0118833
730.693	0.0120107
730.771	0.0119674
730.849	0.0118408
730.927	0.0120316
731.005	0.0120812
731.083	0.0120094
731.161	0.0121677
731.239	0.0120599
731.318	0.0120300
731.396	0.0119374
731.474	0.0119093
731.552	0.0118797
731.630	0.0118433
731.708	0.0117387
731.786	0.0118138
731.864	0.0118232
731.943	0.0115508
732.021	0.0114168
732.099	0.0115591
732.177	0.0114964
732.255	0.0115666
732.333	0.0113110
732.411	0.0111883
732.489	0.0113884
732.568	0.0113837
732.646	0.0113734
732.724	0.0115152
732.802	0.0113555
732.880	0.0114190
732.958	0.0114650
733.036	0.0114564
733.114	0.0116328
733.193	0.0117258
733.271	0.0115359
733.349	0.0116370
733.427	0.0115527
733.505	0.0115970
733.583	0.0116234
733.661	0.0116400
733.739	0.0117569
733.818	0.0119203
733.896	0.0118602
733.974	0.0119144
734.052	0.0119873
734.130	0.0118224
734.208	0.0117973
734.286	0.0118038
734.364	0.0119319
734.443	0.0119925
734.521	0.0119084
734.599	0.0119608
734.677	0.0118584
734.755	0.0116770
734.833	0.0116826
734.911	0.0117439
734.989	0.0116724
735.068	0.0115345
735.146	0.0115971
735.224	0.0116265
735.302	0.0114952
735.380	0.0115397
735.458	0.0115232
735.536	0.0114240
735.614	0.0115057
735.693	0.0114654
735.771	0.0114200
735.849	0.0115552
735.927	0.0114949
736.005	0.0113927
736.083	0.0114600
736.161	0.0114090
736.239	0.0115927
736.318	0.0117367
736.396	0.0116031
736.474	0.0116756
736.552	0.0117860
736.630	0.0117799
736.708	0.0117773
736.786	0.0117049
736.864	0.0117693
736.943	0.0118858
737.021	0.0118839
737.099	0.0119592
737.177	0.0120267
737.255	0.0119385
737.333	0.0118340
737.411	0.0117794
737.489	0.0118182
737.568	0.0118938
737.646	0.0118990
737.724	0.0118722
737.802	0.0118284
737.880	0.0117973
737.958	0.0117332
738.036	0.0117489
738.114	0.0115108
738.193	0.0116817
738.271	0.0116537
738.349	0.0115895
738.427	0.0115495
738.505	0.0113897
738.583	0.0115658
738.661	0.0115588
738.739	0.0115821
738.818	0.0115559
738.896	0.0116024
738.974	0.0115972
739.052	0.0115389
739.130	0.0116330
739.208	0.0116573
739.286	0.0117117
739.364	0.0115511
739.443	0.0114710
739.521	0.0118279
739.599	0.0117528
739.677	0.0115700
739.755	0.0116100
739.833	0.0117279
739.911	0.0117554
739.989	0.0117291
740.068	0.0116859
740.146	0.0115106
740.224	0.0117860
740.302	0.0116885
740.380	0.0117245
740.458	0.0118039
740.536	0.0117708
740.614	0.0116807
740.693	0.0116403
740.771	0.0116618
740.849	0.0115336
740.927	0.0116037
741.005	0.0116923
741.083	0.0115971
741.161	0.0116113
741.239	0.0116012
741.318	0.0117081
741.396	0.0117825
741.474	0.0116335
741.552	0.0116288
741.630	0.0114611
741.708	0.0117544
741.786	0.0118371
741.864	0.0117036
741.943	0.0117323
742.021	0.0118414
742.099	0.0118327
742.177	0.0116828
742.255	0.0117216
742.333	0.0117790
742.411	0.0118354
742.489	0.0117839
742.568	0.0119109
742.646	0.0119806
742.724	0.0118178
742.802	0.0118920
742.880	0.0119367
742.958	0.0118104
743.036	0.0118125
743.114	0.0118195
743.193	0.0119565
743.271	0.0119346
743.349	0.0117445
743.427	0.0116872
743.505	0.0117913
743.583	0.0116115
743.661	0.0116299
743.739	0.0115847
743.818	0.0115697
743.896	0.0115035
743.974	0.0116980
744.052	0.0117229
744.130	0.0116120
744.208	0.0117397
744.286	0.0117416
744.364	0.0116219
744.443	0.0116768
744.521	0.0117269
744.599	0.0116648
744.677	0.0115212
744.755	0.0116971
744.833	0.0117924
744.911	0.0115742
744.989	0.0115981
745.068	0.0117644
745.146	0.0118164
745.224	0.0116914
745.302	0.0117394
745.380	0.0117384
745.458	0.0118048
745.536	0.0115676
745.614	0.0119762
745.693	0.0117983
745.771	0.0118244
745.849	0.0116758
745.927	0.0118253
746.005	0.0118620
746.083	0.0118085
746.161	0.0117436
746.239	0.0119735
746.318	0.0118823
746.396	0.0117113
746.474	0.0118233
746.552	0.0119339
746.630	0.0117815
746.708	0.0117999
746.786	0.0118550
746.864	0.0118469
746.943	0.0116824
747.021	0.0116498
747.099	0.0116419
747.177	0.0116758
747.255	0.0117200
747.333	0.0116093
747.411	0.0114520
747.489	0.0115510
747.568	0.0115092
747.646	0.0114664
747.724	0.0115037
747.802	0.0115678
747.880	0.0115021
747.958	0.0114918
748.036	0.0115117
748.114	0.0115278
748.193	0.0114590
748.271	0.0115254
748.349	0.0114259
748.427	0.0116174
748.505	0.0114948
748.583	0.0116124
748.661	0.0117664
748.739	0.0117184
748.818	0.0116895
748.896	0.0117649
748.974	0.0117451
749.052	0.0117747
749.130	0.0117593
749.208	0.0117054
749.286	0.0117671
749.364	0.0117873
749.443	0.0117381
749.521	0.0117662
749.599	0.0119295
749.677	0.0117982
749.755	0.0115086
749.833	0.0118081
749.911	0.0117021
749.989	0.0117747
750.068	0.0116406
750.146	0.0115908
750.224	0.0115547
750.302	0.0117154
750.380	0.0116724
750.458	0.0114936
750.536	0.0115497
750.614	0.0114619
750.693	0.0115952
750.771	0.0116544
750.849	0.0116405
750.927	0.0115871
751.005	0.0115943
751.083	0.0117202
751.161	0.0117396
751.239	0.0116871
751.318	0.0116251
751.396	0.0116580
751.474	0.0115965
751.552	0.0117383
751.630	0.0116219
751.708	0.0116354
751.786	0.0117223
751.864	0.0116061
751.943	0.0117542
752.021	0.0117278
752.099	0.0117604
752.177	0.0116038
752.255	0.0117790
752.333	0.0116982
752.411	0.0116404
752.489	0.0116070
752.568	0.0114443
752.646	0.0116496
752.724	0.0117284
752.802	0.0118066
752.880	0.0115691
752.958	0.0116142
753.036	0.0115086
753.114	0.0115512
753.193	0.0114679
753.271	0.0116036
753.349	0.0115340
753.427	0.0116121
753.505	0.0115414
753.583	0.0115858
753.661	0.0116699
753.739	0.0114393
753.818	0.0114139
753.896	0.0114774
753.974	0.0115800
754.052	0.0114906
754.130	0.0114155
754.208	0.0115030
754.286	0.0114348
754.364	0.0115829
754.443	0.0115830
754.521	0.0116451
754.599	0.0116242
754.677	0.0117319
754.755	0.0116129
754.833	0.0116191
754.911	0.0115883
754.989	0.0117004
755.068	0.0115887
755.146	0.0116915
755.224	0.0118568
755.302	0.0118780
755.380	0.0117352
755.458	0.0117419
755.536	0.0118725
755.614	0.0118554
755.693	0.0117422
755.771	0.0117722
755.849	0.0118378
755.927	0.0117892
756.005	0.0118266
756.083	0.0117589
756.161	0.0116264
756.239	0.0116698
756.318	0.0116008
756.396	0.0114797
756.474	0.0115275
756.552	0.0115529
756.630	0.0115241
756.708	0.0115724
756.786	0.0114672
756.864	0.0115163
756.943	0.0116242
757.021	0.0115151
757.099	0.0115417
757.177	0.0113702
757.255	0.0114489
757.333	0.0116513
757.411	0.0114784
757.489	0.0115303
757.568	0.0116094
757.646	0.0118313
757.724	0.0116286
757.802	0.0117008
757.880	0.0117429
757.958	0.0118925
758.036	0.0118240
758.114	0.0118494
758.193	0.0117580
758.271	0.0119144
758.349	0.0117358
758.427	0.0118208
758.505	0.0118060
758.583	0.0118750
758.661	0.0118803
758.739	0.0117995
758.818	0.0118227
758.896	0.0117891
758.974	0.0116679
759.052	0.0116377
759.130	0.0117538
759.208	0.0116217
759.286	0.0114609
759.364	0.0114719
759.443	0.0114821
759.521	0.0114923
759.599	0.0114502
759.677	0.0113792
759.755	0.0112582
759.833	0.0113316
759.911	0.0113058
759.989	0.0114408
760.068	0.0115311
760.146	0.0113981
760.224	0.0114154
760.302	0.0114255
760.380	0.0115565
760.458	0.0113839
760.536	0.0113992
760.614	0.0115396
760.693	0.0116166
760.771	0.0115852
760.849	0.0116877
760.927	0.0116318
761.005	0.0116727
761.083	0.0116592
761.161	0.0118448
761.239	0.0116914
761.318	0.0116330
761.396	0.0117789
761.474	0.0117801
761.552	0.0118417
761.630	0.0116962
761.708	0.0116151
761.786	0.0116705
761.864	0.0116168
761.943	0.0116805
762.021	0.0115371
762.099	0.0116049
762.177	0.0116113
762.255	0.0116489
762.333	0.0116347
762.411	0.0117111
762.489	0.0117071
762.568	0.0115829
762.646	0.0114274
762.724	0.0115033
762.802	0.0116412
762.880	0.0115461
762.958	0.0117558
763.036	0.0117886
763.114	0.0117850
763.193	0.0116682
763.271	0.0117024
763.349	0.0117548
763.427	0.0117132
763.505	0.0117747
763.583	0.0117374
763.661	0.0118000
763.739	0.0118670
763.818	0.0117932
763.896	0.0116788
763.974	0.0117934
764.052	0.0118420
764.130	0.0117801
764.208	0.0119096
764.286	0.0118769
764.364	0.0118023
764.443	0.0118555
764.521	0.0118036
764.599	0.0117873
764.677	0.0118976
764.755	0.0118637
764.833	0.0117840
764.911	0.0116625
764.989	0.0118149
765.068	0.0117006
765.146	0.0116251
765.224	0.0117231
765.302	0.0117961
765.380	0.0116382
765.458	0.0117648
765.536	0.0117317
765.614	0.0116458
765.693	0.0118121
765.771	0.0117323
765.849	0.0116917
765.927	0.0117815
766.005	0.0118579
766.083	0.0117479
766.161	0.0116391
766.239	0.0117201
766.318	0.0117267
766.396	0.0116320
766.474	0.0116936
766.552	0.0116853
766.630	0.0114083
766.708	0.0115545
766.786	0.0115821
766.864	0.0116077
766.943	0.0114845
767.021	0.0115829
767.099	0.0115472
767.177	0.0114813
767.255	0.0115096
767.333	0.0116872
767.411	0.0116794
767.489	0.0114951
767.568	0.0115254
767.646	0.0116606
767.724	0.0116843
767.802	0.0117149
767.880	0.0116375
767.958	0.0116412
768.036	0.0118573
768.114	0.0118785
768.193	0.0117837
768.271	0.0118644
768.349	0.0120656
768.427	0.0120693
768.505	0.0119115
768.583	0.0117528
768.661	0.0119930
768.739	0.0119621
768.818	0.0118303
768.896	0.0118898
768.974	0.0118293
769.052	0.0118441
769.130	0.0118713
769.208	0.0117825
769.286	0.0117438
769.364	0.0116004
769.443	0.0116512
769.521	0.0115836
769.599	0.0116206
769.677	0.0115318
769.755	0.0114994
769.833	0.0115226
769.911	0.0114758
769.989	0.0115675
770.068	0.0114551
770.146	0.0114357
770.224	0.0114104
770.302	0.0113962
770.380	0.0113706
770.458	0.0113723
770.536	0.0115200
770.614	0.0115379
770.693	0.0116161
770.771	0.0115850
770.849	0.0113860
770.927	0.0115051
771.005	0.0116236
771.083	0.0115706
771.161	0.0115177
771.239	0.0117017
771.318	0.0116058
771.396	0.0115317
771.474	0.0116363
771.552	0.0117036
771.630	0.0117923
771.708	0.0115840
771.786	0.0116204
771.864	0.0116261
771.943	0.0116186
772.021	0.0115992
772.099	0.0116195
772.177	0.0115923
772.255	0.0115314
772.333	0.0116531
772.411	0.0116934
772.489	0.0115684
772.568	0.0114936
772.646	0.0115630
772.724	0.0116232
772.802	0.0117183
772.880	0.0117866
772.958	0.0116747
773.036	0.0117165
773.114	0.0117051
773.193	0.0118866
773.271	0.0118475
773.349	0.0118333
773.427	0.0118474
773.505	0.0118108
773.583	0.0118290
773.661	0.0119058
773.739	0.0118382
773.818	0.0120538
773.896	0.0118612
773.974	0.0119537
774.052	0.0119947
774.130	0.0118704
774.208	0.0118748
774.286	0.0118285
774.364	0.0119450
774.443	0.0119305
774.521	0.0119751
774.599	0.0117924
774.677	0.0118359
774.755	0.0119363
774.833	0.0117336
774.911	0.0117729
774.989	0.0117910
775.068	0.0116230
775.146	0.0116222
775.224	0.0117397
775.302	0.0117081
775.380	0.0115675
775.458	0.0117329
775.536	0.0116159
775.614	0.0116848
775.693	0.0115892
775.771	0.0115166
775.849	0.0116344
775.927	0.0116459
776.005	0.0116265
776.083	0.0117981
776.161	0.0116514
776.239	0.0115742
776.318	0.0116177
776.396	0.0116286
776.474	0.0116185
776.552	0.0117397
776.630	0.0119352
776.708	0.0117337
776.786	0.0117010
776.864	0.0117818
776.943	0.0118090
777.021	0.0117931
777.099	0.0117164
777.177	0.0117396
777.255	0.0118958
777.333	0.0117001
777.411	0.0117470
777.489	0.0116439
777.568	0.0117371
777.646	0.0118131
777.724	0.0117738
777.802	0.0117265
777.880	0.0117098
777.958	0.0116718
778.036	0.0117495
778.114	0.0117339
778.193	0.0117299
778.271	0.0117258
778.349	0.0116286
778.427	0.0115893
778.505	0.0116125
778.583	0.0115946
778.661	0.0117300
778.739	0.0116732
778.818	0.0116672
778.896	0.0118059
778.974	0.0117129
779.052	0.0117292
779.130	0.0117072
779.208	0.0117295
779.286	0.0116798
779.364	0.0117441
779.443	0.0118098
779.521	0.0117648
779.599	0.0117731
779.677	0.0117323
779.755	0.0117651
779.833	0.0117255
779.911	0.0116335
779.989	0.0117590
780.068	0.0116484
780.146	0.0117435
780.224	0.0117052
780.302	0.0116324
780.380	0.0117757
780.458	0.0119087
780.536	0.0117430
780.614	0.0117607
780.693	0.0116995
780.771	0.0115260
780.849	0.0114175
780.927	0.0115753
781.005	0.0116364
781.083	0.0116793
781.161	0.0116579
781.239	0.0114446
781.318	0.0115359
781.396	0.0115900
781.474	0.0115840
781.552	0.0115439
781.630	0.0114467
781.708	0.0115877
781.786	0.0114838
781.864	0.0116187
781.943	0.0115936
782.021	0.0115083
782.099	0.0115419
782.177	0.0118366
782.255	0.0116914
782.333	0.0116433
782.411	0.0117537
782.489	0.0117345
782.568	0.0117007
782.646	0.0118539
782.724	0.0116030
782.802	0.0117237
782.880	0.0118731
782.958	0.0116823
783.036	0.0118057
783.114	0.0117406
783.193	0.0118224
783.271	0.0118537
783.349	0.0116790
783.427	0.0118607
783.505	0.0119698
783.583	0.0116998
783.661	0.0118053
783.739	0.0117363
783.818	0.0118053
783.896	0.0118344
783.974	0.0118907
784.052	0.0117618
784.130	0.0117577
784.208	0.0117463
784.286	0.0115917
784.364	0.0117194
784.443	0.0115844
784.521	0.0118116
784.599	0.0116623
784.677	0.0116125
784.755	0.0115017
784.833	0.0116759
784.911	0.0115850
784.989	0.0115199
785.068	0.0117216
785.146	0.0115916
785.224	0.0117131
785.302	0.0117219
785.380	0.0114661
785.458	0.0117020
785.536	0.0116463
785.614	0.0116206
785.693	0.0115835
785.771	0.0115443
785.849	0.0116147
785.927	0.0116470
786.005	0.0116571
786.083	0.0116261
786.161	0.0117677
786.239	0.0115878
786.318	0.0117419
786.396	0.0116162
786.474	0.0117075
786.552	0.0117056
786.630	0.0117001
786.708	0.0116663
786.786	0.0115659
786.864	0.0115887
786.943	0.0116547
787.021	0.0116547
787.099	0.0116716
787.177	0.0116410
787.255	0.0116322
787.333	0.0115829
787.411	0.0116239
787.489	0.0115252
787.568	0.0116023
787.646	0.0116821
787.724	0.0116501
787.802	0.0116026
787.880	0.0116595
787.958	0.0115731
788.036	0.0116387
788.114	0.0116286
788.193	0.0117265
788.271	0.0116526
788.349	0.0117828
788.427	0.0115946
788.505	0.0115345
788.583	0.0115586
788.661	0.0116972
788.739	0.0115843
788.818	0.0116114
788.896	0.0116671
788.974	0.0116022
789.052	0.0115359
789.130	0.0115484
789.208	0.0116987
789.286	0.0115976
789.364	0.0115475
789.443	0.0116674
789.521	0.0117802
789.599	0.0116225
789.677	0.0116473
789.755	0.0116177
789.833	0.0116187
789.911	0.0116134
789.989	0.0115821
790.068	0.0115011
790.146	0.0115746
790.224	0.0114470
790.302	0.0114297
790.380	0.0115443
790.458	0.0115776
790.536	0.0115366
790.614	0.0115013
790.693	0.0114878
790.771	0.0114861
790.849	0.0115517
790.927	0.0113669
791.005	0.0116415
791.083	0.0116340
791.161	0.0115657
791.239	0.0114581
791.318	0.0115408
791.396	0.0115173
791.474	0.0115753
791.552	0.0115450
791.630	0.0116487
791.708	0.0116439
791.786	0.0115436
791.864	0.0116004
791.943	0.0117471
792.021	0.0116728
792.099	0.0115567
792.177	0.0116689
792.255	0.0115974
792.333	0.0117588
792.411	0.0115641
792.489	0.0116828
792.568	0.0116747
792.646	0.0116891
792.724	0.0117970
792.802	0.0115459
792.880	0.0115942
792.958	0.0116174
793.036	0.0115326
793.114	0.0117113
793.193	0.0117094
793.271	0.0116511
793.349	0.0115678
793.427	0.0116132
793.505	0.0115517
793.583	0.0114815
793.661	0.0115985
793.739	0.0115872
793.818	0.0115665
793.896	0.0116589
793.974	0.0116109
794.052	0.0116283
794.130	0.0116924
794.208	0.0116635
794.286	0.0116317
794.364	0.0117101
794.443	0.0116211
794.521	0.0116572
794.599	0.0116409
794.677	0.0117088
794.755	0.0117702
794.833	0.0118021
794.911	0.0117892
794.989	0.0118051
795.068	0.0116774
795.146	0.0117780
795.224	0.0118988
795.302	0.0117942
795.380	0.0117074
795.458	0.0116512
795.536	0.0117940
795.614	0.0117979
795.693	0.0118329
795.771	0.0117150
795.849	0.0117075
795.927	0.0117369
796.005	0.0118401
796.083	0.0116837
796.161	0.0117181
796.239	0.0117497
796.318	0.0116209
796.396	0.0116766
796.474	0.0118467
796.552	0.0117123
796.630	0.0115812
796.708	0.0116071
796.786	0.0117252
796.864	0.0117564
796.943	0.0116771
797.021	0.0115892
797.099	0.0117247
797.177	0.0114594
797.255	0.0115236
797.333	0.0115645
797.411	0.0114270
797.489	0.0115234
797.568	0.0114721
797.646	0.0115308
797.724	0.0114389
797.802	0.0113867
797.880	0.0115819
797.958	0.0115057
798.036	0.0115528
798.114	0.0114615
798.193	0.0114846
798.271	0.0115916
798.349	0.0116261
798.427	0.0116733
798.505	0.0117108
798.583	0.0115852
798.661	0.0116877
798.739	0.0117629
798.818	0.0118731
798.896	0.0117773
798.974	0.0118221
799.052	0.0119378
799.130	0.0118427
799.208	0.0118501
799.286	0.0118294
799.364	0.0117557
799.443	0.0117620
799.521	0.0117358
799.599	0.0115612
799.677	0.0118177
799.755	0.0117377
799.833	0.0117448
799.911	0.0117388
799.989	0.0116311
800.068	0.0117425
800.146	0.0115340
800.224	0.0115046
800.302	0.0114886
800.380	0.0114347
800.458	0.0115952
800.536	0.0115702
800.614	0.0113406
800.693	0.0114369
800.771	0.0115802
800.849	0.0115133
800.927	0.0113318
801.005	0.0114869
801.083	0.0115049
801.161	0.0114944
801.239	0.0116449
801.318	0.0114811
801.396	0.0115079
801.474	0.0116245
801.552	0.0115033
801.630	0.0116183
801.708	0.0116507
801.786	0.0116459
801.864	0.0117101
801.943	0.0116238
802.021	0.0116467
802.099	0.0117000
802.177	0.0116979
802.255	0.0118298
802.333	0.0117460
802.411	0.0118975
802.489	0.0118097
802.568	0.0117578
802.646	0.0118419
802.724	0.0118723
802.802	0.0118450
802.880	0.0118270
802.958	0.0119048
803.036	0.0118102
803.114	0.0119883
803.193	0.0119487
803.271	0.0119244
803.349	0.0119148
803.427	0.0119763
803.505	0.0120554
803.583	0.0118976
803.661	0.0118571
803.739	0.0119470
803.818	0.0118219
803.896	0.0118256
803.974	0.0120152
804.052	0.0118073
804.130	0.0118633
804.208	0.0118682
804.286	0.0117745
804.364	0.0117354
804.443	0.0117173
804.521	0.0118014
804.599	0.0116875
804.677	0.0116322
804.755	0.0116163
804.833	0.0114782
804.911	0.0114848
804.989	0.0114815
805.068	0.0114999
805.146	0.0114037
805.224	0.0114157
805.302	0.0116027
805.380	0.0114590
805.458	0.0114020
805.536	0.0114157
805.614	0.0114733
805.693	0.0114177
805.771	0.0114689
805.849	0.0113824
805.927	0.0114625
806.005	0.0115598
806.083	0.0115356
806.161	0.0115167
806.239	0.0114294
806.318	0.0115627
806.396	0.0114247
806.474	0.0114868
806.552	0.0116604
806.630	0.0115810
806.708	0.0115792
806.786	0.0115614
806.864	0.0116026
806.943	0.0115900
807.021	0.0116376
807.099	0.0114719
807.177	0.0116722
807.255	0.0115868
807.333	0.0117355
807.411	0.0117367
807.489	0.0116935
807.568	0.0118270
807.646	0.0117580
807.724	0.0117327
807.802	0.0116245
807.880	0.0117870
807.958	0.0118316
808.036	0.0116476
808.114	0.0118171
808.193	0.0118117
808.271	0.0117771
808.349	0.0116795
808.427	0.0117020
808.505	0.0117780
808.583	0.0116571
808.661	0.0116299
808.739	0.0118474
808.818	0.0117194
808.896	0.0116852
808.974	0.0116454
809.052	0.0117464
809.130	0.0117522
809.208	0.0116167
809.286	0.0115498
809.364	0.0117178
809.443	0.0116444
809.521	0.0116446
809.599	0.0115182
809.677	0.0115948
809.755	0.0115255
809.833	0.0116351
809.911	0.0114613
809.989	0.0116835
810.068	0.0117126
810.146	0.0116199
810.224	0.0116608
810.302	0.0115343
810.380	0.0117053
810.458	0.0114185
810.536	0.0115884
810.614	0.0116147
810.693	0.0114755
810.771	0.0114774
810.849	0.0115582
810.927	0.0115424
811.005	0.0115703
811.083	0.0115784
811.161	0.0114507
811.239	0.0113784
811.318	0.0115376
811.396	0.0117271
811.474	0.0115649
811.552	0.0115160
811.630	0.0116176
811.708	0.0115001
811.786	0.0115663
811.864	0.0116522
811.943	0.0116332
812.021	0.0115306
812.099	0.0116355
812.177	0.0116447
812.255	0.0115433
812.333	0.0115377
812.411	0.0116287
812.489	0.0117578
812.568	0.0115093
812.646	0.0115928
812.724	0.0115781
812.802	0.0116602
812.880	0.0117440
812.958	0.0115303
813.036	0.0118993
813.114	0.0116334
813.193	0.0117103
813.271	0.0117556
813.349	0.0117041
813.427	0.0117609
813.505	0.0117915
813.583	0.0116743
813.661	0.0115800
813.739	0.0117879
813.818	0.0116499
813.896	0.0116458
813.974	0.0116601
814.052	0.0116033
814.130	0.0117183
814.208	0.0118126
814.286	0.0117130
814.364	0.0116353
814.443	0.0117201
814.521	0.0119070
814.599	0.0117419
814.677	0.0116939
814.755	0.0117157
814.833	0.0117648
814.911	0.0116885
814.989	0.0116882
815.068	0.0116980
815.146	0.0117139
815.224	0.0116446
815.302	0.0115912
815.380	0.0116799
815.458	0.0116440
815.536	0.0116154
815.614	0.0115565
815.693	0.0115109
815.771	0.0117469
815.849	0.0115958
815.927	0.0115880
816.005	0.0114722
816.083	0.0116299
816.161	0.0115004
816.239	0.0115592
816.318	0.0115088
816.396	0.0113816
816.474	0.0114142
816.552	0.0114491
816.630	0.0114533
816.708	0.0114604
816.786	0.0115204
816.864	0.0115957
816.943	0.0115064
817.021	0.0115710
817.099	0.0116086
817.177	0.0115681
817.255	0.0116933
817.333	0.0117058
817.411	0.0118118
817.489	0.0116872
817.568	0.0116305
817.646	0.0117632
817.724	0.0117691
817.802	0.0118368
817.880	0.0118204
817.958	0.0117625
818.036	0.0117706
818.114	0.0118031
818.193	0.0117943
818.271	0.0118037
818.349	0.0117242
818.427	0.0117355
818.505	0.0117171
818.583	0.0117090
818.661	0.0118844
818.739	0.0118425
818.818	0.0118044
818.896	0.0119498
818.974	0.0117780
819.052	0.0117606
819.130	0.0117336
819.208	0.0119255
819.286	0.0117858
819.364	0.0118369
819.443	0.0118174
819.521	0.0117433
819.599	0.0118616
819.677	0.0118853
819.755	0.0117736
819.833	0.0117725
819.911	0.0118178
819.989	0.0116541
820.068	0.0117290
820.146	0.0116546
820.224	0.0117707
820.302	0.0116196
820.380	0.0115253
820.458	0.0115019
820.536	0.0115134
820.614	0.0116945
820.693	0.0114466
820.771	0.0114986
820.849	0.0114941
820.927	0.0113974
821.005	0.0113420
821.083	0.0115251
821.161	0.0114527
821.239	0.0115491
821.318	0.0115290
821.396	0.0114218
821.474	0.0116121
821.552	0.0115451
821.630	0.0115029
821.708	0.0115710
821.786	0.0115765
821.864	0.0115918
821.943	0.0114829
822.021	0.0115443
822.099	0.0114434
822.177	0.0116330
822.255	0.0116491
822.333	0.0114489
822.411	0.0116385
822.489	0.0116124
822.568	0.0114578
822.646	0.0117124
822.724	0.0115519
822.802	0.0116106
822.880	0.0116637
822.958	0.0116696
823.036	0.0114944
823.114	0.0116179
823.193	0.0118184
823.271	0.0116756
823.349	0.0117189
823.427	0.0117341
823.505	0.0116413
823.583	0.0117049
823.661	0.0117992
823.739	0.0116451
823.818	0.0117613
823.896	0.0117488
823.974	0.0117245
824.052	0.0116778
824.130	0.0117696
824.208	0.0118005
824.286	0.0118286
824.364	0.0117948
824.443	0.0115355
824.521	0.0117284
824.599	0.0117810
824.677	0.0117381
824.755	0.0116595
824.833	0.0116333
824.911	0.0116837
824.989	0.0117541
825.068	0.0113316
825.146	0.0116770
825.224	0.0116125
825.302	0.0116249
825.380	0.0116561
825.458	0.0117287
825.536	0.0116623
825.614	0.0115816
825.693	0.0114287
825.771	0.0115791
825.849	0.0114379
825.927	0.0115106
826.005	0.0114902
826.083	0.0114134
826.161	0.0113972
826.239	0.0114424
826.318	0.0114797
826.396	0.0114758
826.474	0.0114894
826.552	0.0114294
826.630	0.0114581
826.708	0.0114822
826.786	0.0116944
826.864	0.0114500
826.943	0.0115031
827.021	0.0117113
827.099	0.0116856
827.177	0.0116068
827.255	0.0117321
827.333	0.0118163
827.411	0.0118084
827.489	0.0118868
827.568	0.0116918
827.646	0.0118433
827.724	0.0118607
827.802	0.0118720
827.880	0.0117151
827.958	0.0118536
828.036	0.0119990
828.114	0.0118310
828.193	0.0119299
828.271	0.0119925
828.349	0.0118539
828.427	0.0118875
828.505	0.0118552
828.583	0.0118710
828.661	0.0118108
828.739	0.0118137
828.818	0.0117184
828.896	0.0116822
828.974	0.0117770
829.052	0.0114748
829.130	0.0116302
829.208	0.0116592
829.286	0.0117406
829.364	0.0115725
829.443	0.0117000
829.521	0.0116681
829.599	0.0116689
829.677	0.0117294
829.755	0.0115900
829.833	0.0114948
829.911	0.0116022
829.989	0.0115076
830.068	0.0113988
830.146	0.0113081
830.224	0.0115054
830.302	0.0114722
830.380	0.0112807
830.458	0.0112391
830.536	0.0113127
830.614	0.0111551
830.693	0.0112358
830.771	0.0112872
830.849	0.0111838
830.927	0.0110730
831.005	0.0111694
831.083	0.0112235
831.161	0.0111877
831.239	0.0110727
831.318	0.0110831
831.396	0.0112083
831.474	0.0111618
831.552	0.0112791
831.630	0.0113570
831.708	0.0114027
831.786	0.0114594
831.864	0.0114691
831.943	0.0116236
832.021	0.0114227
832.099	0.0115897
832.177	0.0116269
832.255	0.0117223
832.333	0.0117698
832.411	0.0118978
832.489	0.0117801
832.568	0.0119023
832.646	0.0119207
832.724	0.0120164
832.802	0.0121334
832.880	0.0119856
832.958	0.0120242
833.036	0.0120390
833.114	0.0121371
833.193	0.0120000
833.271	0.0121391
833.349	0.0121902
833.427	0.0121546
833.505	0.0122338
833.583	0.0121802
833.661	0.0120428
833.739	0.0120296
833.818	0.0120357
833.896	0.0119376
833.974	0.0119857
834.052	0.0119637
834.130	0.0118340
834.208	0.0119341
834.286	0.0119350
834.364	0.0117506
834.443	0.0117525
834.521	0.0118046
834.599	0.0115936
834.677	0.0115048
834.755	0.0115622
834.833	0.0114445
834.911	0.0113929
834.989	0.0115797
835.068	0.0116159
835.146	0.0114085
835.224	0.0114062
835.302	0.0113559
835.380	0.0113987
835.458	0.0114565
835.536	0.0114026
835.614	0.0113856
835.693	0.0114009
835.771	0.0113425
835.849	0.0112643
835.927	0.0113757
836.005	0.0113200
836.083	0.0113811
836.161	0.0115026
836.239	0.0113381
836.318	0.0114378
836.396	0.0114336
836.474	0.0115177
836.552	0.0114814
836.630	0.0115557
836.708	0.0116203
836.786	0.0115720
836.864	0.0116673
836.943	0.0115923
837.021	0.0115836
837.099	0.0116588
837.177	0.0117294
837.255	0.0117342
837.333	0.0116506
837.411	0.0117773
837.489	0.0118905
837.568	0.0118861
837.646	0.0118302
837.724	0.0119919
837.802	0.0118619
837.880	0.0119572
837.958	0.0120045
838.036	0.0118842
838.114	0.0119654
838.193	0.0120683
838.271	0.0120660
838.349	0.0119324
838.427	0.0120151
838.505	0.0118282
838.583	0.0119395
838.661	0.0119421
838.739	0.0118453
838.818	0.0119871
838.896	0.0118192
838.974	0.0117803
839.052	0.0117960
839.130	0.0117384
839.208	0.0119954
839.286	0.0118299
839.364	0.0117830
839.443	0.0116366
839.521	0.0116530
839.599	0.0116975
839.677	0.0116152
839.755	0.0114817
839.833	0.0115572
839.911	0.0115163
839.989	0.0115720
840.068	0.0115603
840.146	0.0114545
840.224	0.0115520
840.302	0.0115605
840.380	0.0115061
840.458	0.0113863
840.536	0.0115199
840.614	0.0116273
840.693	0.0115115
840.771	0.0114268
840.849	0.0114821
840.927	0.0114864
841.005	0.0114204
841.083	0.0116274
841.161	0.0116534
841.239	0.0116920
841.318	0.0115914
841.396	0.0114882
841.474	0.0116287
841.552	0.0118268
841.630	0.0116342
841.708	0.0116470
841.786	0.0117455
841.864	0.0118711
841.943	0.0118293
842.021	0.0116357
842.099	0.0116386
842.177	0.0118856
842.255	0.0117117
842.333	0.0117025
842.411	0.0118520
842.489	0.0117667
842.568	0.0118392
842.646	0.0118798
842.724	0.0118856
842.802	0.0119367
842.880	0.0119865
842.958	0.0120658
843.036	0.0119315
843.114	0.0119323
843.193	0.0120522
843.271	0.0119910
843.349	0.0120450
843.427	0.0119815
843.505	0.0120399
843.583	0.0118909
843.661	0.0119853
843.739	0.0120074
843.818	0.0119569
843.896	0.0119010
843.974	0.0120464
844.052	0.0118215
844.130	0.0119124
844.208	0.0117582
844.286	0.0117958
844.364	0.0118457
844.443	0.0118295
844.521	0.0116937
844.599	0.0117606
844.677	0.0116737
844.755	0.0116112
844.833	0.0116644
844.911	0.0115525
844.989	0.0114746
845.068	0.0115112
845.146	0.0114963
845.224	0.0114208
845.302	0.0113792
845.380	0.0113403
845.458	0.0114633
845.536	0.0112862
845.614	0.0112981
845.693	0.0115418
845.771	0.0114568
845.849	0.0114604
845.927	0.0114619
846.005	0.0114194
846.083	0.0115031
846.161	0.0115890
846.239	0.0115295
846.318	0.0115627
846.396	0.0116054
846.474	0.0115317
846.552	0.0115984
846.630	0.0117502
846.708	0.0118264
846.786	0.0117926
846.864	0.0117302
846.943	0.0116682
847.021	0.0116935
847.099	0.0116449
847.177	0.0116924
847.255	0.0117926
847.333	0.0116885
847.411	0.0116889
847.489	0.0117064
847.568	0.0117245
847.646	0.0118128
847.724	0.0117641
847.802	0.0118094
847.880	0.0118826
847.958	0.0118234
848.036	0.0118262
848.114	0.0118399
848.193	0.0117580
848.271	0.0117137
848.349	0.0116656
848.427	0.0115942
848.505	0.0115895
848.583	0.0116068
848.661	0.0116599
848.739	0.0115190
848.818	0.0117786
848.896	0.0116315
848.974	0.0115211
849.052	0.0115189
849.130	0.0116086
849.208	0.0115093
849.286	0.0115589
849.364	0.0115099
849.443	0.0113574
849.521	0.0115684
849.599	0.0115557
849.677	0.0116565
849.755	0.0116448
849.833	0.0116097
849.911	0.0116541
849.989	0.0117080
850.068	0.0116547
850.146	0.0116990
850.224	0.0118135
850.302	0.0117537
850.380	0.0116193
850.458	0.0117221
850.536	0.0118054
850.614	0.0116483
850.693	0.0117008
850.771	0.0118223
850.849	0.0117444
850.927	0.0119387
851.005	0.0119212
851.083	0.0117471
851.161	0.0116666
851.239	0.0116136
851.318	0.0119411
851.396	0.0117490
851.474	0.0117634
851.552	0.0116885
851.630	0.0118185
851.708	0.0116448
851.786	0.0117252
851.864	0.0116785
851.943	0.0116362
852.021	0.0116203
852.099	0.0116869
852.177	0.0116685
852.255	0.0117371
852.333	0.0117284
852.411	0.0116949
852.489	0.0114239
852.568	0.0115446
852.646	0.0115275
852.724	0.0115662
852.802	0.0115376
852.880	0.0116240
852.958	0.0117579
853.036	0.0116312
853.114	0.0114170
853.193	0.0115898
853.271	0.0116553
853.349	0.0115173
853.427	0.0116821
853.505	0.0117004
853.583	0.0116807
853.661	0.0116164
853.739	0.0115755
853.818	0.0116394
853.896	0.0116985
853.974	0.0115819
854.052	0.0116373
854.130	0.0116938
854.208	0.0117129
854.286	0.0117068
854.364	0.0116388
854.443	0.0117039
854.521	0.0116874
854.599	0.0117780
854.677	0.0118258
854.755	0.0117012
854.833	0.0117661
854.911	0.0117625
854.989	0.0117747
855.068	0.0118111
855.146	0.0119696
855.224	0.0119598
855.302	0.0119379
855.380	0.0117802
855.458	0.0119038
855.536	0.0120520
855.614	0.0119624
855.693	0.0119827
855.771	0.0118987
855.849	0.0117883
855.927	0.0118781
856.005	0.0118536
856.083	0.0117578
856.161	0.0119277
856.239	0.0118514
856.318	0.0118186
856.396	0.0117700
856.474	0.0115030
856.552	0.0117244
856.630	0.0116180
856.708	0.0116261
856.786	0.0114870
856.864	0.0115070
856.943	0.0114832
857.021	0.0114362
857.099	0.0115807
857.177	0.0115135
857.255	0.0113663
857.333	0.0116364
857.411	0.0113831
857.489	0.0114790
857.568	0.0116607
857.646	0.0114782
857.724	0.0114742
857.802	0.0116246
857.880	0.0116558
857.958	0.0114803
858.036	0.0116746
858.114	0.0118304
858.193	0.0116732
858.271	0.0115977
858.349	0.0115570
858.427	0.0116804
858.505	0.0117058
858.583	0.0117243
858.661	0.0116780
858.739	0.0117799
858.818	0.0117793
858.896	0.0117455
858.974	0.0118029
859.052	0.0117507
859.130	0.0116698
859.208	0.0117825
859.286	0.0118920
859.364	0.0117845
859.443	0.0116187
859.521	0.0117289
859.599	0.0117416
859.677	0.0116880
859.755	0.0117463
859.833	0.0117296
859.911	0.0115394
859.989	0.0118422
860.068	0.0118456
860.146	0.0118563
860.224	0.0117659
860.302	0.0117114
860.380	0.0117387
860.458	0.0117216
860.536	0.0115964
860.614	0.0116269
860.693	0.0116561
860.771	0.0116558
860.849	0.0115791
860.927	0.0116695
861.005	0.0116512
861.083	0.0117382
861.161	0.0116041
861.239	0.0117155
861.318	0.0116248
861.396	0.0116378
861.474	0.0116688
861.552	0.0114950
861.630	0.0115439
861.708	0.0116188
861.786	0.0116884
861.864	0.0115417
861.943	0.0116887
862.021	0.0116678
862.099	0.0116238
862.177	0.0115302
862.255	0.0116799
862.333	0.0118226
862.411	0.0117413
862.489	0.0116198
862.568	0.0115789
862.646	0.0117313
862.724	0.0118539
862.802	0.0117128
862.880	0.0118166
862.958	0.0117417
863.036	0.0118098
863.114	0.0117931
863.193	0.0118002
863.271	0.0120454
863.349	0.0118397
863.427	0.0117398
863.505	0.0118302
863.583	0.0117662
863.661	0.0118803
863.739	0.0119860
863.818	0.0120309
863.896	0.0118246
863.974	0.0118439
864.052	0.0118404
864.130	0.0119957
864.208	0.0117696
864.286	0.0117952
864.364	0.0118641
864.443	0.0118541
864.521	0.0118227
864.599	0.0117363
864.677	0.0118346
864.755	0.0118558
864.833	0.0117817
864.911	0.0117426
864.989	0.0116918
865.068	0.0116440
865.146	0.0116890
865.224	0.0116023
865.302	0.0116498
865.380	0.0116993
865.458	0.0116503
865.536	0.0116141
865.614	0.0115224
865.693	0.0115321
865.771	0.0115325
865.849	0.0114365
865.927	0.0117076
866.005	0.0117007
866.083	0.0115128
866.161	0.0114205
866.239	0.0114788
866.318	0.0116196
866.396	0.0114667
866.474	0.0115528
866.552	0.0116207
866.630	0.0114098
866.708	0.0116102
866.786	0.0115865
866.864	0.0116116
866.943	0.0117003
867.021	0.0115854
867.099	0.0114787
867.177	0.0116325
867.255	0.0116206
867.333	0.0115863
867.411	0.0116536
867.489	0.0116897
867.568	0.0116838
867.646	0.0116831
867.724	0.0117440
867.802	0.0119098
867.880	0.0119781
867.958	0.0117866
868.036	0.0117397
868.114	0.0118635
868.193	0.0117532
868.271	0.0118037
868.349	0.0118050
868.427	0.0118091
868.505	0.0117276
868.583	0.0117865
868.661	0.0118140
868.739	0.0119549
868.818	0.0117124
868.896	0.0119462
868.974	0.0118005
869.052	0.0117852
869.130	0.0117883
869.208	0.0117513
869.286	0.0118297
869.364	0.0117482
869.443	0.0118170
869.521	0.0117675
869.599	0.0117361
869.677	0.0117411
869.755	0.0117665
869.833	0.0118252
869.911	0.0117409
869.989	0.0117138
870.068	0.0116914
870.146	0.0117126
870.224	0.0117818
870.302	0.0117297
870.380	0.0116386
870.458	0.0116241
870.536	0.0116692
870.614	0.0115537
870.693	0.0116261
870.771	0.0116601
870.849	0.0116428
870.927	0.0115810
871.005	0.0116463
871.083	0.0116270
871.161	0.0116091
871.239	0.0116795
871.318	0.0115188
871.396	0.0115404
871.474	0.0114449
871.552	0.0115529
871.630	0.0115103
871.708	0.0115071
871.786	0.0114889
871.864	0.0115316
871.943	0.0114814
872.021	0.0115601
872.099	0.0115089
872.177	0.0115450
872.255	0.0115030
872.333	0.0115575
872.411	0.0115997
872.489	0.0116509
872.568	0.0115993
872.646	0.0116190
872.724	0.0115507
872.802	0.0117114
872.880	0.0116694
872.958	0.0116084
873.036	0.0116081
873.114	0.0117712
873.193	0.0117394
873.271	0.0118056
873.349	0.0118154
873.427	0.0118965
873.505	0.0118217
873.583	0.0118128
873.661	0.0119572
873.739	0.0119281
873.818	0.0116751
873.896	0.0117444
873.974	0.0118048
874.052	0.0118744
874.130	0.0118649
874.208	0.0118245
874.286	0.0118595
874.364	0.0118758
874.443	0.0119238
874.521	0.0119489
874.599	0.0117369
874.677	0.0117937
874.755	0.0118964
874.833	0.0120036
874.911	0.0120044
874.989	0.0119057
875.068	0.0118069
875.146	0.0118366
875.224	0.0118998
875.302	0.0119289
875.380	0.0118293
875.458	0.0118364
875.536	0.0119252
875.614	0.0118902
875.693	0.0117316
875.771	0.0118880
875.849	0.0118597
875.927	0.0118833
876.005	0.0117625
876.083	0.0118596
876.161	0.0117735
876.239	0.0117966
876.318	0.0117459
876.396	0.0115856
876.474	0.0115730
876.552	0.0117081
876.630	0.0115595
876.708	0.0115945
876.786	0.0115239
876.864	0.0115318
876.943	0.0114665
877.021	0.0115192
877.099	0.0115025
877.177	0.0114726
877.255	0.0114598
877.333	0.0114304
877.411	0.0113932
877.489	0.0114093
877.568	0.0115247
877.646	0.0114706
877.724	0.0113281
877.802	0.0114683
877.880	0.0112981
877.958	0.0112926
878.036	0.0114174
878.114	0.0114349
878.193	0.0112473
878.271	0.0115028
878.349	0.0112669
878.427	0.0112304
878.505	0.0113913
878.583	0.0114818
878.661	0.0114907
878.739	0.0114979
878.818	0.0114497
878.896	0.0115192
878.974	0.0115522
879.052	0.0116477
879.130	0.0116903
879.208	0.0118228
879.286	0.0119180
879.364	0.0116906
879.443	0.0119514
879.521	0.0118345
879.599	0.0117947
879.677	0.0119488
879.755	0.0118157
879.833	0.0117305
879.911	0.0119180
879.989	0.0119064
880.068	0.0119022
880.146	0.0118270
880.224	0.0118642
880.302	0.0119182
880.380	0.0119803
880.458	0.0119057
880.536	0.0119077
880.614	0.0119511
880.693	0.0119007
880.771	0.0120043
880.849	0.0119572
880.927	0.0120216
881.005	0.0118264
881.083	0.0119271
881.161	0.0119049
881.239	0.0118536
881.318	0.0118378
881.396	0.0118954
881.474	0.0116241
881.552	0.0118156
881.630	0.0117228
881.708	0.0114563
881.786	0.0115823
881.864	0.0117223
881.943	0.0117734
882.021	0.0116079
882.099	0.0115460
882.177	0.0115738
882.255	0.0115694
882.333	0.0115237
882.411	0.0114364
882.489	0.0114893
882.568	0.0115144
882.646	0.0115215
882.724	0.0114814
882.802	0.0114038
882.880	0.0114371
882.958	0.0114441
883.036	0.0113847
883.114	0.0113254
883.193	0.0113385
883.271	0.0113889
883.349	0.0114320
883.427	0.0115779
883.505	0.0114204
883.583	0.0113986
883.661	0.0114312
883.739	0.0114959
883.818	0.0114323
883.896	0.0115135
883.974	0.0115486
884.052	0.0115853
884.130	0.0115660
884.208	0.0115147
884.286	0.0115549
884.364	0.0115437
884.443	0.0116389
884.521	0.0115697
884.599	0.0115427
884.677	0.0115671
884.755	0.0116514
884.833	0.0117297
884.911	0.0117023
884.989	0.0115489
885.068	0.0116150
885.146	0.0117051
885.224	0.0117498
885.302	0.0117519
885.380	0.0116887
885.458	0.0118149
885.536	0.0117773
885.614	0.0116295
885.693	0.0116982
885.771	0.0117886
885.849	0.0118921
885.927	0.0117297
886.005	0.0117389
886.083	0.0117030
886.161	0.0118664
886.239	0.0118439
886.318	0.0117493
886.396	0.0117673
886.474	0.0118896
886.552	0.0118077
886.630	0.0118266
886.708	0.0117570
886.786	0.0117416
886.864	0.0117926
886.943	0.0119662
887.021	0.0117847
887.099	0.0117429
887.177	0.0117713
887.255	0.0117285
887.333	0.0117867
887.411	0.0117164
887.489	0.0117615
887.568	0.0116115
887.646	0.0116038
887.724	0.0116256
887.802	0.0115709
887.880	0.0116026
887.958	0.0116119
888.036	0.0115015
888.114	0.0114939
888.193	0.0114736
888.271	0.0114561
888.349	0.0113517
888.427	0.0115188
888.505	0.0114288
888.583	0.0114867
888.661	0.0114820
888.739	0.0113915
888.818	0.0112976
888.896	0.0114439
888.974	0.0113743
889.052	0.0114036
889.130	0.0114050
889.208	0.0113844
889.286	0.0114706
889.364	0.0113966
889.443	0.0113625
889.521	0.0113805
889.599	0.0113438
889.677	0.0114661
889.755	0.0114804
889.833	0.0116100
889.911	0.0115118
889.989	0.0117081
890.068	0.0116482
890.146	0.0115514
890.224	0.0117062
890.302	0.0117742
890.380	0.0117503
890.458	0.0116839
890.536	0.0115932
890.614	0.0116645
890.693	0.0118028
890.771	0.0117484
890.849	0.0116748
890.927	0.0116724
891.005	0.0116742
891.083	0.0117466
891.161	0.0116666
891.239	0.0118370
891.318	0.0117513
891.396	0.0116068
891.474	0.0117934
891.552	0.0117715
891.630	0.0117905
891.708	0.0117571
891.786	0.0116351
891.864	0.0116859
891.943	0.0115665
892.021	0.0117216
892.099	0.0118030
892.177	0.0115858
892.255	0.0117525
892.333	0.0117645
892.411	0.0116017
892.489	0.0118077
892.568	0.0117950
892.646	0.0117404
892.724	0.0116818
892.802	0.0117653
892.880	0.0117731
892.958	0.0117182
893.036	0.0118058
893.114	0.0119514
893.193	0.0119222
893.271	0.0116637
893.349	0.0118121
893.427	0.0116141
893.505	0.0118143
893.583	0.0119223
893.661	0.0119670
893.739	0.0118922
893.818	0.0118349
893.896	0.0118216
893.974	0.0118618
894.052	0.0118871
894.130	0.0118822
894.208	0.0117040
894.286	0.0117548
894.364	0.0117367
894.443	0.0117957
894.521	0.0116158
894.599	0.0117046
894.677	0.0116302
894.755	0.0116220
894.833	0.0115175
894.911	0.0115871
894.989	0.0115388
895.068	0.0115972
895.146	0.0115622
895.224	0.0115211
895.302	0.0115086
895.380	0.0114789
895.458	0.0114601
895.536	0.0114933
895.614	0.0113181
895.693	0.0114317
895.771	0.0113525
895.849	0.0113946
895.927	0.0113619
896.005	0.0115292
896.083	0.0114102
896.161	0.0114740
896.239	0.0114056
896.318	0.0115091
896.396	0.0115796
896.474	0.0115009
896.552	0.0116995
896.630	0.0116302
896.708	0.0115855
896.786	0.0117410
896.864	0.0118121
896.943	0.0116484
897.021	0.0118784
897.099	0.0118111
897.177	0.0118118
897.255	0.0118209
897.333	0.0117167
897.411	0.0117864
897.489	0.0118067
897.568	0.0117756
897.646	0.0117101
897.724	0.0116827
897.802	0.0117883
897.880	0.0118188
897.958	0.0118678
898.036	0.0117937
898.114	0.0117632
898.193	0.0117268
898.271	0.0117686
898.349	0.0118765
898.427	0.0117607
898.505	0.0118928
898.583	0.0118443
898.661	0.0118168
898.739	0.0116759
898.818	0.0117757
898.896	0.0118010
898.974	0.0117303
899.052	0.0117792
899.130	0.0116646
899.208	0.0117387
899.286	0.0118633
899.364	0.0116493
899.443	0.0117840
899.521	0.0117188
899.599	0.0115439
899.677	0.0116450
899.755	0.0116006
899.833	0.0116344
899.911	0.0115857
899.989	0.0114837
900.068	0.0116015
900.146	0.0115800
900.224	0.0114045
900.302	0.0114130
900.380	0.0114394
900.458	0.0115284
900.536	0.0115189
900.614	0.0115141
900.693	0.0114780
900.771	0.0114728
900.849	0.0115902
900.927	0.0115233
901.005	0.0115495
901.083	0.0115744
901.161	0.0114844
901.239	0.0115349
901.318	0.0115183
901.396	0.0114719
901.474	0.0115886
901.552	0.0117550
901.630	0.0115349
901.708	0.0115437
901.786	0.0114816
901.864	0.0116583
901.943	0.0115132
902.021	0.0117142
902.099	0.0115697
902.177	0.0113923
902.255	0.0115370
902.333	0.0116628
902.411	0.0117554
902.489	0.0115536
902.568	0.0117661
902.646	0.0117005
902.724	0.0115903
902.802	0.0117423
902.880	0.0117569
902.958	0.0116898
903.036	0.0116897
903.114	0.0117115
903.193	0.0115666
903.271	0.0116099
903.349	0.0116064
903.427	0.0116706
903.505	0.0117307
903.583	0.0116370
903.661	0.0116585
903.739	0.0115143
903.818	0.0117099
903.896	0.0115697
903.974	0.0116404
904.052	0.0115910
904.130	0.0116513
904.208	0.0116302
904.286	0.0117638
904.364	0.0116177
904.443	0.0116490
904.521	0.0115253
904.599	0.0116298
904.677	0.0118204
904.755	0.0116817
904.833	0.0115634
904.911	0.0116825
904.989	0.0116630
905.068	0.0116479
905.146	0.0116340
905.224	0.0116769
905.302	0.0117831
905.380	0.0116671
905.458	0.0117278
905.536	0.0116566
905.614	0.0117244
905.693	0.0114961
905.771	0.0116949
905.849	0.0117777
905.927	0.0117788
906.005	0.0115853
906.083	0.0117216
906.161	0.0117335
906.239	0.0116849
906.318	0.0116121
906.396	0.0116772
906.474	0.0117032
906.552	0.0116712
906.630	0.0116557
906.708	0.0117901
906.786	0.0117127
906.864	0.0116370
906.943	0.0117400
907.021	0.0116732
907.099	0.0116148
907.177	0.0117629
907.255	0.0117004
907.333	0.0115746
907.411	0.0116167
907.489	0.0116206
907.568	0.0114986
907.646	0.0116219
907.724	0.0116310
907.802	0.0115131
907.880	0.0116434
907.958	0.0116130
908.036	0.0116075
908.114	0.0116151
908.193	0.0115649
908.271	0.0114634
908.349	0.0115453
908.427	0.0114858
908.505	0.0116765
908.583	0.0115161
908.661	0.0115388
908.739	0.0115181
908.818	0.0117491
908.896	0.0115672
908.974	0.0116193
909.052	0.0115903
909.130	0.0115114
909.208	0.0118176
909.286	0.0117425
909.364	0.0114406
909.443	0.0115087
909.521	0.0116375
909.599	0.0118134
909.677	0.0115881
909.755	0.0116628
909.833	0.0117138
909.911	0.0117913
909.989	0.0117508
910.068	0.0117300
910.146	0.0117064
910.224	0.0116149
910.302	0.0117246
910.380	0.0117450
910.458	0.0116953
910.536	0.0115640
910.614	0.0117310
910.693	0.0117210
910.771	0.0117581
910.849	0.0115958
910.927	0.0116593
911.005	0.0116541
911.083	0.0118468
911.161	0.0117029
911.239	0.0118100
911.318	0.0118476
911.396	0.0117926
911.474	0.0117776
911.552	0.0118556
911.630	0.0118635
911.708	0.0118762
911.786	0.0117904
911.864	0.0118495
911.943	0.0115990
912.021	0.0118161
912.099	0.0117704
912.177	0.0117654
912.255	0.0116459
912.333	0.0115630
912.411	0.0115784
912.489	0.0118173
912.568	0.0117843
912.646	0.0117574
912.724	0.0116219
912.802	0.0116679
912.880	0.0116573
912.958	0.0116188
913.036	0.0116132
913.114	0.0117585
913.193	0.0116673
913.271	0.0115784
913.349	0.0116720
913.427	0.0116496
913.505	0.0116652
913.583	0.0116202
913.661	0.0115674
913.739	0.0116551
913.818	0.0117021
913.896	0.0117642
913.974	0.0116404
914.052	0.0116646
914.130	0.0118085
914.208	0.0118888
914.286	0.0118564
914.364	0.0117471
914.443	0.0116542
914.521	0.0117053
914.599	0.0116697
914.677	0.0117059
914.755	0.0116182
914.833	0.0116393
914.911	0.0115266
914.989	0.0116545
915.068	0.0116103
915.146	0.0115061
915.224	0.0116321
915.302	0.0115541
915.380	0.0116125
915.458	0.0116024
915.536	0.0116871
915.614	0.0116754
915.693	0.0115426
915.771	0.0116276
915.849	0.0115644
915.927	0.0116898
916.005	0.0116859
916.083	0.0116840
916.161	0.0116985
916.239	0.0116500
916.318	0.0115931
916.396	0.0115533
916.474	0.0115990
916.552	0.0116879
916.630	0.0117977
916.708	0.0116408
916.786	0.0115807
916.864	0.0116749
916.943	0.0116891
917.021	0.0115903
917.099	0.0117678
917.177	0.0117192
917.255	0.0116857
917.333	0.0117518
917.411	0.0117556
917.489	0.0117793
917.568	0.0117598
917.646	0.0116614
917.724	0.0116187
917.802	0.0118338
917.880	0.0118148
917.958	0.0118314
918.036	0.0117438
918.114	0.0116384
918.193	0.0116805
918.271	0.0116473
918.349	0.0117782
918.427	0.0116914
918.505	0.0117952
918.583	0.0116518
918.661	0.0117847
918.739	0.0116884
918.818	0.0117856
918.896	0.0115868
918.974	0.0116274
919.052	0.0116216
919.130	0.0117545
919.208	0.0116745
919.286	0.0116403
919.364	0.0116209
919.443	0.0116665
919.521	0.0116332
919.599	0.0116733
919.677	0.0117210
919.755	0.0116277
919.833	0.0116192
919.911	0.0116249
919.989	0.0116721
920.068	0.0115163
920.146	0.0116503
920.224	0.0115623
920.302	0.0116574
920.380	0.0117224
920.458	0.0115379
920.536	0.0115491
920.614	0.0117541
920.693	0.0117113
920.771	0.0116384
920.849	0.0116884
920.927	0.0117435
921.005	0.0117760
921.083	0.0116392
921.161	0.0117716
921.239	0.0117947
921.318	0.0116972
921.396	0.0118688
921.474	0.0116760
921.552	0.0117033
921.630	0.0116874
921.708	0.0118216
921.786	0.0116828
921.864	0.0116684
921.943	0.0117362
922.021	0.0117725
922.099	0.0117912
922.177	0.0117519
922.255	0.0116370
922.333	0.0115679
922.411	0.0116138
922.489	0.0116683
922.568	0.0116452
922.646	0.0117219
922.724	0.0116777
922.802	0.0117187
922.880	0.0115974
922.958	0.0116558
923.036	0.0115025
923.114	0.0116353
923.193	0.0115666
923.271	0.0114523
923.349	0.0116076
923.427	0.0115950
923.505	0.0116151
923.583	0.0114864
923.661	0.0115176
923.739	0.0115862
923.818	0.0114780
923.896	0.0116319
923.974	0.0116494
924.052	0.0115959
924.130	0.0117035
924.208	0.0115844
924.286	0.0115575
924.364	0.0116534
924.443	0.0117286
924.521	0.0116921
924.599	0.0117113
924.677	0.0115476
924.755	0.0117105
924.833	0.0115818
924.911	0.0117046
924.989	0.0117010
925.068	0.0115455
925.146	0.0117321
925.224	0.0117175
925.302	0.0115474
925.380	0.0116800
925.458	0.0116476
925.536	0.0116939
925.614	0.0116445
925.693	0.0117022
925.771	0.0116840
925.849	0.0116879
925.927	0.0116680
926.005	0.0117093
926.083	0.0117616
926.161	0.0117593
926.239	0.0116149
926.318	0.0116956
926.396	0.0116180
926.474	0.0117294
926.552	0.0117197
926.630	0.0118119
926.708	0.0116180
926.786	0.0116631
926.864	0.0117122
926.943	0.0116029
927.021	0.0116877
927.099	0.0116017
927.177	0.0116136
927.255	0.0115582
927.333	0.0116078
927.411	0.0115926
927.489	0.0115517
927.568	0.0115454
927.646	0.0116755
927.724	0.0116072
927.802	0.0117510
927.880	0.0116771
927.958	0.0117108
928.036	0.0116224
928.114	0.0116496
928.193	0.0117392
928.271	0.0116236
928.349	0.0116700
928.427	0.0117543
928.505	0.0116357
928.583	0.0117894
928.661	0.0118116
928.739	0.0117171
928.818	0.0116925
928.896	0.0117428
928.974	0.0117762
929.052	0.0118651
929.130	0.0118324
929.208	0.0117074
929.286	0.0117911
929.364	0.0117170
929.443	0.0116235
929.521	0.0117026
929.599	0.0118717
929.677	0.0117612
929.755	0.0116030
929.833	0.0116747
929.911	0.0116473
929.989	0.0117030
930.068	0.0117907
930.146	0.0116312
930.224	0.0118930
930.302	0.0116465
930.380	0.0117507
930.458	0.0118029
930.536	0.0117339
930.614	0.0118231
930.693	0.0116583
930.771	0.0117072
930.849	0.0117043
930.927	0.0116666
931.005	0.0116100
931.083	0.0117206
931.161	0.0117208
931.239	0.0117490
931.318	0.0118227
931.396	0.0116882
931.474	0.0116640
931.552	0.0115979
931.630	0.0116216
931.708	0.0117097
931.786	0.0117364
931.864	0.0117741
931.943	0.0116682
932.021	0.0117354
932.099	0.0117713
932.177	0.0116993
932.255	0.0117045
932.333	0.0116559
932.411	0.0117159
932.489	0.0116689
932.568	0.0116685
932.646	0.0114612
932.724	0.0115246
932.802	0.0115743
932.880	0.0115427
932.958	0.0115384
933.036	0.0116007
933.114	0.0116911
933.193	0.0116219
933.271	0.0116014
933.349	0.0116586
933.427	0.0115698
933.505	0.0116282
933.583	0.0115833
933.661	0.0116967
933.739	0.0117661
933.818	0.0115971
933.896	0.0116739
933.974	0.0117087
934.052	0.0116353
934.130	0.0117317
934.208	0.0116520
934.286	0.0116335
934.364	0.0116334
934.443	0.0117675
934.521	0.0118264
934.599	0.0116518
934.677	0.0117255
934.755	0.0117506
934.833	0.0117580
934.911	0.0115654
934.989	0.0116698
935.068	0.0117417
935.146	0.0117793
935.224	0.0118176
935.302	0.0116895
935.380	0.0116926
935.458	0.0116043
935.536	0.0117365
935.614	0.0116403
935.693	0.0117027
935.771	0.0114977
935.849	0.0118623
935.927	0.0116050
936.005	0.0117114
936.083	0.0115596
936.161	0.0117389
936.239	0.0117743
936.318	0.0117134
936.396	0.0116599
936.474	0.0115756
936.552	0.0117068
936.630	0.0117570
936.708	0.0117433
936.786	0.0117123
936.864	0.0117959
936.943	0.0116773
937.021	0.0116819
937.099	0.0117317
937.177	0.0118316
937.255	0.0116595
937.333	0.0117139
937.411	0.0117606
937.489	0.0117044
937.568	0.0117008
937.646	0.0118017
937.724	0.0117240
937.802	0.0116553
937.880	0.0116690
937.958	0.0119020
938.036	0.0117785
938.114	0.0117630
938.193	0.0116174
938.271	0.0117134
938.349	0.0117297
938.427	0.0116936
938.505	0.0117262
938.583	0.0116318
938.661	0.0117572
938.739	0.0117352
938.818	0.0115833
938.896	0.0115839
938.974	0.0116853
939.052	0.0116934
939.130	0.0117062
939.208	0.0117086
939.286	0.0116950
939.364	0.0116492
939.443	0.0116073
939.521	0.0118271
939.599	0.0117353
939.677	0.0116598
939.755	0.0116718
939.833	0.0117075
939.911	0.0117516
939.989	0.0116870
940.068	0.0116103
940.146	0.0117833
940.224	0.0117451
940.302	0.0118192
940.380	0.0117146
940.458	0.0117546
940.536	0.0118271
940.614	0.0118436
940.693	0.0117164
940.771	0.0118565
940.849	0.0117019
940.927	0.0116354
941.005	0.0116109
941.083	0.0117436
941.161	0.0117384
941.239	0.0116589
941.318	0.0117117
941.396	0.0117622
941.474	0.0117046
941.552	0.0116244
941.630	0.0115430
941.708	0.0116261
941.786	0.0116444
941.864	0.0117473
941.943	0.0116449
942.021	0.0114516
942.099	0.0116038
942.177	0.0116241
942.255	0.0115228
942.333	0.0116113
942.411	0.0115584
942.489	0.0115634
942.568	0.0116409
942.646	0.0115598
942.724	0.0117187
942.802	0.0116057
942.880	0.0115064
942.958	0.0114996
943.036	0.0115486
943.114	0.0116260
943.193	0.0116571
943.271	0.0116315
943.349	0.0117916
943.427	0.0116416
943.505	0.0114043
943.583	0.0116267
943.661	0.0116417
943.739	0.0117351
943.818	0.0117474
943.896	0.0115816
943.974	0.0116408
944.052	0.0117113
944.130	0.0116396
944.208	0.0117076
944.286	0.0116334
944.364	0.0117236
944.443	0.0118700
944.521	0.0117030
944.599	0.0117371
944.677	0.0119656
944.755	0.0118195
944.833	0.0119180
944.911	0.0117403
944.989	0.0118126
945.068	0.0118847
945.146	0.0117631
945.224	0.0119141
945.302	0.0118150
945.380	0.0118742
945.458	0.0119775
945.536	0.0117565
945.614	0.0117075
945.693	0.0118231
945.771	0.0116340
945.849	0.0118745
945.927	0.0117668
946.005	0.0117857
946.083	0.0117914
946.161	0.0117423
946.239	0.0117506
946.318	0.0117752
946.396	0.0118595
946.474	0.0116866
946.552	0.0117647
946.630	0.0119054
946.708	0.0120384
946.786	0.0118822
946.864	0.0118174
946.943	0.0119115
947.021	0.0117165
947.099	0.0117484
947.177	0.0118686
947.255	0.0118900
947.333	0.0118001
947.411	0.0118333
947.489	0.0117412
947.568	0.0118150
947.646	0.0117319
947.724	0.0117139
947.802	0.0117907
947.880	0.0117299
947.958	0.0116602
948.036	0.0115831
948.114	0.0116270
948.193	0.0116280
948.271	0.0116305
948.349	0.0116380
948.427	0.0116341
948.505	0.0114534
948.583	0.0116612
948.661	0.0117838
948.739	0.0116348
948.818	0.0116735
948.896	0.0115855
948.974	0.0114619
949.052	0.0113908
949.130	0.0116609
949.208	0.0115217
949.286	0.0116654
949.364	0.0116409
949.443	0.0116280
949.521	0.0117271
949.599	0.0115220
949.677	0.0116767
949.755	0.0115926
949.833	0.0117242
949.911	0.0117504
949.989	0.0117466
950.068	0.0118055
950.146	0.0116648
950.224	0.0117532
950.302	0.0116621
950.380	0.0118043
950.458	0.0116927
950.536	0.0116443
950.614	0.0116328
950.693	0.0117776
950.771	0.0117017
950.849	0.0115714
950.927	0.0117264
951.005	0.0117316
951.083	0.0114925
951.161	0.0115910
951.239	0.0117063
951.318	0.0116470
951.396	0.0118207
951.474	0.0116464
951.552	0.0115733
951.630	0.0115711
951.708	0.0115329
951.786	0.0115904
951.864	0.0116291
951.943	0.0116267
952.021	0.0116277
952.099	0.0115332
952.177	0.0116496
952.255	0.0115558
952.333	0.0118008
952.411	0.0116338
952.489	0.0116086
952.568	0.0117313
952.646	0.0115493
952.724	0.0115588
952.802	0.0116154
952.880	0.0117690
952.958	0.0117339
953.036	0.0115343
953.114	0.0115272
953.193	0.0116515
953.271	0.0116216
953.349	0.0116261
953.427	0.0116104
953.505	0.0115942
953.583	0.0115583
953.661	0.0115883
953.739	0.0115968
953.818	0.0117585
953.896	0.0115447
953.974	0.0114937
954.052	0.0117400
954.130	0.0116805
954.208	0.0114981
954.286	0.0115385
954.364	0.0116779
954.443	0.0116814
954.521	0.0116506
954.599	0.0115997
954.677	0.0117468
954.755	0.0117338
954.833	0.0116914
954.911	0.0116751
954.989	0.0117207
955.068	0.0116908
955.146	0.0116788
955.224	0.0117553
955.302	0.0117116
955.380	0.0117784
955.458	0.0118344
955.536	0.0118390
955.614	0.0117262
955.693	0.0117773
955.771	0.0116126
955.849	0.0117317
955.927	0.0117732
956.005	0.0117217
956.083	0.0116463
956.161	0.0117127
956.239	0.0117929
956.318	0.0116335
956.396	0.0117760
956.474	0.0117623
956.552	0.0115820
956.630	0.0116860
956.708	0.0117063
956.786	0.0116136
956.864	0.0118141
956.943	0.0116930
957.021	0.0116918
957.099	0.0117724
957.177	0.0117481
957.255	0.0118198
957.333	0.0116392
957.411	0.0117286
957.489	0.0115894
957.568	0.0117010
957.646	0.0117033
957.724	0.0116329
957.802	0.0116200
957.880	0.0116936
957.958	0.0117510
958.036	0.0116454
958.114	0.0117131
958.193	0.0116389
958.271	0.0116276
958.349	0.0117812
958.427	0.0116573
958.505	0.0116302
958.583	0.0117832
958.661	0.0117387
958.739	0.0115378
958.818	0.0116547
958.896	0.0115543
958.974	0.0116906
959.052	0.0116529
959.130	0.0117381
959.208	0.0115176
959.286	0.0115961
959.364	0.0117042
959.443	0.0117787
959.521	0.0116615
959.599	0.0115247
959.677	0.0117300
959.755	0.0118338
959.833	0.0117341
959.911	0.0117368
