05/07/2022	17:23:57	Ver.	4.1	UNKNOWN
Optical Delay	639.989416	Delta X		0.078125	Sweeps	1	Scan Rate	0/0
Coordinates	Axis 1	NaN	Axis 2	NaN	Axis 3	NaN	Axis 4	NaN	Axis 5	NaN	Axis 6	0.000000
TX Power	0.000000	RX Power	0.000000

639.989	0.0124013
640.068	0.0125096
640.146	0.0124184
640.224	0.0124110
640.302	0.0124371
640.380	0.0125606
640.458	0.0123732
640.536	0.0124295
640.614	0.0124012
640.693	0.0124924
640.771	0.0123325
640.849	0.0124068
640.927	0.0124828
641.005	0.0125552
641.083	0.0125213
641.161	0.0124814
641.239	0.0125770
641.318	0.0124223
641.396	0.0124963
641.474	0.0125050
641.552	0.0124496
641.630	0.0123396
641.708	0.0123307
641.786	0.0124280
641.864	0.0125651
641.943	0.0125091
642.021	0.0123992
642.099	0.0125249
642.177	0.0124513
642.255	0.0124432
642.333	0.0124339
642.411	0.0123721
642.489	0.0124650
642.568	0.0124104
642.646	0.0124424
642.724	0.0124278
642.802	0.0125025
642.880	0.0123038
642.958	0.0124467
643.036	0.0124657
643.114	0.0125845
643.193	0.0124954
643.271	0.0123950
643.349	0.0123366
643.427	0.0124764
643.505	0.0126140
643.583	0.0122955
643.661	0.0124308
643.739	0.0123893
643.818	0.0124632
643.896	0.0124942
643.974	0.0124075
644.052	0.0124724
644.130	0.0124107
644.208	0.0123972
644.286	0.0123756
644.364	0.0124115
644.443	0.0124717
644.521	0.0124146
644.599	0.0124475
644.677	0.0124443
644.755	0.0123734
644.833	0.0124541
644.911	0.0124845
644.989	0.0123689
645.068	0.0124175
645.146	0.0124870
645.224	0.0125008
645.302	0.0123946
645.380	0.0124701
645.458	0.0123531
645.536	0.0123042
645.614	0.0124220
645.693	0.0123664
645.771	0.0124655
645.849	0.0124223
645.927	0.0123284
646.005	0.0124023
646.083	0.0123856
646.161	0.0123695
646.239	0.0123758
646.318	0.0123282
646.396	0.0123878
646.474	0.0125010
646.552	0.0123335
646.630	0.0123284
646.708	0.0123863
646.786	0.0124539
646.864	0.0123946
646.943	0.0123543
647.021	0.0125117
647.099	0.0123230
647.177	0.0123174
647.255	0.0124216
647.333	0.0122675
647.411	0.0124411
647.489	0.0124447
647.568	0.0124970
647.646	0.0123382
647.724	0.0124609
647.802	0.0125352
647.880	0.0123387
647.958	0.0124258
648.036	0.0125238
648.114	0.0123749
648.193	0.0124309
648.271	0.0124741
648.349	0.0124181
648.427	0.0123810
648.505	0.0124822
648.583	0.0125385
648.661	0.0124238
648.739	0.0123612
648.818	0.0124852
648.896	0.0124884
648.974	0.0124454
649.052	0.0124989
649.130	0.0124594
649.208	0.0125406
649.286	0.0124749
649.364	0.0125637
649.443	0.0124220
649.521	0.0124512
649.599	0.0124625
649.677	0.0124934
649.755	0.0124432
649.833	0.0122936
649.911	0.0123587
649.989	0.0124577
650.068	0.0125246
650.146	0.0124423
650.224	0.0124635
650.302	0.0124408
650.380	0.0125010
650.458	0.0124672
650.536	0.0124316
650.614	0.0123385
650.693	0.0124474
650.771	0.0124389
650.849	0.0124811
650.927	0.0124607
651.005	0.0124677
651.083	0.0122840
651.161	0.0123412
651.239	0.0124736
651.318	0.0122886
651.396	0.0122938
651.474	0.0124221
651.552	0.0124464
651.630	0.0123567
651.708	0.0124191
651.786	0.0123944
651.864	0.0123487
651.943	0.0123440
652.021	0.0124304
652.099	0.0124770
652.177	0.0122534
652.255	0.0122843
652.333	0.0124551
652.411	0.0123599
652.489	0.0124326
652.568	0.0123608
652.646	0.0123045
652.724	0.0124469
652.802	0.0123093
652.880	0.0123076
652.958	0.0124361
653.036	0.0124879
653.114	0.0124013
653.193	0.0124491
653.271	0.0123763
653.349	0.0125510
653.427	0.0123721
653.505	0.0122720
653.583	0.0123090
653.661	0.0123841
653.739	0.0123927
653.818	0.0122995
653.896	0.0124002
653.974	0.0123278
654.052	0.0123812
654.130	0.0124139
654.208	0.0123839
654.286	0.0125420
654.364	0.0125578
654.443	0.0123183
654.521	0.0124276
654.599	0.0125417
654.677	0.0124698
654.755	0.0125372
654.833	0.0125399
654.911	0.0123243
654.989	0.0125012
655.068	0.0123737
655.146	0.0122974
655.224	0.0123392
655.302	0.0124187
655.380	0.0124626
655.458	0.0123678
655.536	0.0123634
655.614	0.0122959
655.693	0.0124796
655.771	0.0125305
655.849	0.0123684
655.927	0.0122890
656.005	0.0122599
656.083	0.0124010
656.161	0.0125591
656.239	0.0124497
656.318	0.0125610
656.396	0.0124925
656.474	0.0124605
656.552	0.0124846
656.630	0.0124581
656.708	0.0124431
656.786	0.0124074
656.864	0.0123795
656.943	0.0122937
657.021	0.0122869
657.099	0.0122273
657.177	0.0122958
657.255	0.0120979
657.333	0.0122369
657.411	0.0121636
657.489	0.0121519
657.568	0.0120721
657.646	0.0121433
657.724	0.0122775
657.802	0.0123399
657.880	0.0122691
657.958	0.0123920
658.036	0.0125341
658.114	0.0124172
658.193	0.0125002
658.271	0.0125213
658.349	0.0127209
658.427	0.0126960
658.505	0.0127359
658.583	0.0126702
658.661	0.0127844
658.739	0.0128117
658.818	0.0126887
658.896	0.0125955
658.974	0.0126193
659.052	0.0125748
659.130	0.0125264
659.208	0.0123881
659.286	0.0122631
659.364	0.0122726
659.443	0.0122845
659.521	0.0119473
659.599	0.0119305
659.677	0.0119051
659.755	0.0119350
659.833	0.0119537
659.911	0.0118286
659.989	0.0119755
660.068	0.0121261
660.146	0.0119650
660.224	0.0121905
660.302	0.0122134
660.380	0.0123001
660.458	0.0125108
660.536	0.0126933
660.614	0.0125278
660.693	0.0128424
660.771	0.0129281
660.849	0.0128720
660.927	0.0130535
661.005	0.0130457
661.083	0.0131071
661.161	0.0131554
661.239	0.0129380
661.318	0.0130010
661.396	0.0128553
661.474	0.0128860
661.552	0.0126935
661.630	0.0125127
661.708	0.0125914
661.786	0.0124433
661.864	0.0121652
661.943	0.0123128
662.021	0.0121375
662.099	0.0120307
662.177	0.0119151
662.255	0.0118506
662.333	0.0117781
662.411	0.0118325
662.489	0.0117580
662.568	0.0116106
662.646	0.0118257
662.724	0.0117827
662.802	0.0117838
662.880	0.0119761
662.958	0.0121024
663.036	0.0120229
663.114	0.0121547
663.193	0.0122256
663.271	0.0122879
663.349	0.0123294
663.427	0.0124282
663.505	0.0125405
663.583	0.0127113
663.661	0.0127290
663.739	0.0127781
663.818	0.0129448
663.896	0.0128082
663.974	0.0128596
664.052	0.0129086
664.130	0.0131275
664.208	0.0130210
664.286	0.0131587
664.364	0.0129755
664.443	0.0129284
664.521	0.0128773
664.599	0.0129689
664.677	0.0128615
664.755	0.0127016
664.833	0.0124735
664.911	0.0124809
664.989	0.0124554
665.068	0.0122493
665.146	0.0120475
665.224	0.0120051
665.302	0.0118783
665.380	0.0117294
665.458	0.0119550
665.536	0.0117538
665.614	0.0118403
665.693	0.0120258
665.771	0.0118775
665.849	0.0120481
665.927	0.0121937
666.005	0.0122942
666.083	0.0122445
666.161	0.0123389
666.239	0.0125542
666.318	0.0125994
666.396	0.0127143
666.474	0.0128403
666.552	0.0127924
666.630	0.0126062
666.708	0.0127526
666.786	0.0127797
666.864	0.0127984
666.943	0.0126710
667.021	0.0125150
667.099	0.0124958
667.177	0.0124992
667.255	0.0123196
667.333	0.0122167
667.411	0.0121133
667.489	0.0121911
667.568	0.0119985
667.646	0.0119965
667.724	0.0120839
667.802	0.0119687
667.880	0.0120582
667.958	0.0121745
668.036	0.0120345
668.114	0.0122202
668.193	0.0122323
668.271	0.0122587
668.349	0.0122028
668.427	0.0123550
668.505	0.0125320
668.583	0.0127193
668.661	0.0126354
668.739	0.0126651
668.818	0.0129692
668.896	0.0128281
668.974	0.0129070
669.052	0.0131178
669.130	0.0132561
669.208	0.0131400
669.286	0.0133505
669.364	0.0132897
669.443	0.0133408
669.521	0.0132672
669.599	0.0132965
669.677	0.0132977
669.755	0.0131524
669.833	0.0130499
669.911	0.0127398
669.989	0.0127218
670.068	0.0125906
670.146	0.0123386
670.224	0.0121207
670.302	0.0118425
670.380	0.0115746
670.458	0.0115128
670.536	0.0113716
670.614	0.0111836
670.693	0.0110592
670.771	0.0109375
670.849	0.0109513
670.927	0.0109448
671.005	0.0110084
671.083	0.0109224
671.161	0.0110878
671.239	0.0112870
671.318	0.0114397
671.396	0.0116431
671.474	0.0118626
671.552	0.0117732
671.630	0.0120232
671.708	0.0122919
671.786	0.0123518
671.864	0.0125114
671.943	0.0128349
672.021	0.0130081
672.099	0.0131413
672.177	0.0133485
672.255	0.0135474
672.333	0.0136691
672.411	0.0138283
672.489	0.0139641
672.568	0.0140049
672.646	0.0140577
672.724	0.0139829
672.802	0.0140765
672.880	0.0140818
672.958	0.0140566
673.036	0.0140898
673.114	0.0139709
673.193	0.0138978
673.271	0.0137868
673.349	0.0135235
673.427	0.0132510
673.505	0.0132224
673.583	0.0129850
673.661	0.0127562
673.739	0.0125746
673.818	0.0122671
673.896	0.0120249
673.974	0.0118160
674.052	0.0115659
674.130	0.0115031
674.208	0.0112328
674.286	0.0111341
674.364	0.0109077
674.443	0.0107088
674.521	0.0106816
674.599	0.0104124
674.677	0.0103185
674.755	0.0103131
674.833	0.0103796
674.911	0.0101555
674.989	0.0102260
675.068	0.0104105
675.146	0.0105926
675.224	0.0107049
675.302	0.0109364
675.380	0.0112760
675.458	0.0115082
675.536	0.0115627
675.614	0.0120885
675.693	0.0124055
675.771	0.0125215
675.849	0.0127870
675.927	0.0130289
676.005	0.0131218
676.083	0.0134602
676.161	0.0135447
676.239	0.0136291
676.318	0.0138149
676.396	0.0141250
676.474	0.0140739
676.552	0.0143898
676.630	0.0142841
676.708	0.0144206
676.786	0.0145861
676.864	0.0144957
676.943	0.0145190
677.021	0.0144490
677.099	0.0143566
677.177	0.0142146
677.255	0.0140719
677.333	0.0139285
677.411	0.0137927
677.489	0.0135710
677.568	0.0134716
677.646	0.0131823
677.724	0.0127265
677.802	0.0124767
677.880	0.0123357
677.958	0.0121356
678.036	0.0118234
678.114	0.0116391
678.193	0.0113973
678.271	0.0110689
678.349	0.0108052
678.427	0.0107240
678.505	0.0105444
678.583	0.0103123
678.661	0.0102794
678.739	0.0103114
678.818	0.0102197
678.896	0.0100779
678.974	0.0100972
679.052	0.0101628
679.130	0.0102536
679.208	0.0102345
679.286	0.0101893
679.364	0.0102782
679.443	0.0104984
679.521	0.0107444
679.599	0.0108201
679.677	0.0108774
679.755	0.0109225
679.833	0.0113610
679.911	0.0115095
679.989	0.0116170
680.068	0.0119099
680.146	0.0122324
680.224	0.0125493
680.302	0.0127481
680.380	0.0130283
680.458	0.0133376
680.536	0.0135632
680.614	0.0137415
680.693	0.0138723
680.771	0.0141785
680.849	0.0143433
680.927	0.0144079
681.005	0.0145983
681.083	0.0148063
681.161	0.0146194
681.239	0.0148501
681.318	0.0150315
681.396	0.0151183
681.474	0.0150520
681.552	0.0149346
681.630	0.0150761
681.708	0.0149626
681.786	0.0149042
681.864	0.0147198
681.943	0.0145197
682.021	0.0143616
682.099	0.0139104
682.177	0.0136575
682.255	0.0131966
682.333	0.0128410
682.411	0.0125065
682.489	0.0122166
682.568	0.0116796
682.646	0.0113443
682.724	0.0109979
682.802	0.0107571
682.880	0.0105053
682.958	0.0102316
683.036	0.00999168
683.114	0.00994400
683.193	0.00970222
683.271	0.00963264
683.349	0.00948410
683.427	0.00951279
683.505	0.00945007
683.583	0.00943001
683.661	0.00932915
683.739	0.00938835
683.818	0.00938889
683.896	0.00958344
683.974	0.00963722
684.052	0.00992676
684.130	0.00993401
684.208	0.0101651
684.286	0.0104180
684.364	0.0109221
684.443	0.0113979
684.521	0.0117014
684.599	0.0120563
684.677	0.0125536
684.755	0.0131244
684.833	0.0134143
684.911	0.0139110
684.989	0.0143103
685.068	0.0145399
685.146	0.0150146
685.224	0.0151981
685.302	0.0154811
685.380	0.0157182
685.458	0.0160344
685.536	0.0161263
685.614	0.0161458
685.693	0.0161240
685.771	0.0162418
685.849	0.0159811
685.927	0.0159485
686.005	0.0159579
686.083	0.0157671
686.161	0.0155458
686.239	0.0152308
686.318	0.0149300
686.396	0.0146736
686.474	0.0144363
686.552	0.0140495
686.630	0.0135249
686.708	0.0130820
686.786	0.0125919
686.864	0.0123114
686.943	0.0118082
687.021	0.0114030
687.099	0.0109089
687.177	0.0105031
687.255	0.0100400
687.333	0.00948242
687.411	0.00918587
687.489	0.00888641
687.568	0.00872139
687.646	0.00840324
687.724	0.00844337
687.802	0.00826515
687.880	0.00826523
687.958	0.00846565
688.036	0.00865295
688.114	0.00881523
688.193	0.00897240
688.271	0.00943932
688.349	0.00987045
688.427	0.0103156
688.505	0.0106342
688.583	0.0112234
688.661	0.0116193
688.739	0.0120722
688.818	0.0126073
688.896	0.0130352
688.974	0.0134322
689.052	0.0139020
689.130	0.0143439
689.208	0.0146010
689.286	0.0150462
689.364	0.0151525
689.443	0.0154133
689.521	0.0155483
689.599	0.0156178
689.677	0.0157700
689.755	0.0155790
689.833	0.0155064
689.911	0.0153882
689.989	0.0151926
690.068	0.0152506
690.146	0.0149525
690.224	0.0145641
690.302	0.0141991
690.380	0.0139119
690.458	0.0136002
690.536	0.0132491
690.614	0.0129776
690.693	0.0127059
690.771	0.0124741
690.849	0.0123188
690.927	0.0120592
691.005	0.0118713
691.083	0.0116473
691.161	0.0114463
691.239	0.0114543
691.318	0.0112624
691.396	0.0111414
691.474	0.0110165
691.552	0.0109705
691.630	0.0108276
691.708	0.0108169
691.786	0.0110234
691.864	0.0110036
691.943	0.0110361
692.021	0.0109624
692.099	0.0109840
692.177	0.0111267
692.255	0.0112016
692.333	0.0112556
692.411	0.0112257
692.489	0.0112712
692.568	0.0114084
692.646	0.0115133
692.724	0.0116656
692.802	0.0115844
692.880	0.0116113
692.958	0.0117315
693.036	0.0118250
693.114	0.0118570
693.193	0.0120358
693.271	0.0121508
693.349	0.0123100
693.427	0.0125452
693.505	0.0128097
693.583	0.0128203
693.661	0.0132050
693.739	0.0133636
693.818	0.0135379
693.896	0.0136863
693.974	0.0139906
694.052	0.0141351
694.130	0.0143395
694.208	0.0143870
694.286	0.0143084
694.364	0.0142937
694.443	0.0141251
694.521	0.0141671
694.599	0.0139314
694.677	0.0136831
694.755	0.0136322
694.833	0.0132718
694.911	0.0131226
694.989	0.0127886
695.068	0.0126180
695.146	0.0123308
695.224	0.0121260
695.302	0.0118172
695.380	0.0115154
695.458	0.0113275
695.536	0.0110026
695.614	0.0106312
695.693	0.0105225
695.771	0.0103658
695.849	0.0102176
695.927	0.0100458
696.005	0.00998535
696.083	0.0100766
696.161	0.0102106
696.239	0.0103223
696.318	0.0105598
696.396	0.0108722
696.474	0.0110724
696.552	0.0113503
696.630	0.0119024
696.708	0.0120566
696.786	0.0124158
696.864	0.0127091
696.943	0.0131282
697.021	0.0135945
697.099	0.0137895
697.177	0.0142121
697.255	0.0144395
697.333	0.0146548
697.411	0.0147696
697.489	0.0148750
697.568	0.0148609
697.646	0.0148611
697.724	0.0146085
697.802	0.0145014
697.880	0.0143891
697.958	0.0138488
698.036	0.0135472
698.114	0.0133654
698.193	0.0128614
698.271	0.0125321
698.349	0.0119981
698.427	0.0118889
698.505	0.0115891
698.583	0.0113252
698.661	0.0110174
698.739	0.0108199
698.818	0.0106969
698.896	0.0107337
698.974	0.0107087
699.052	0.0105283
699.130	0.0107250
699.208	0.0107672
699.286	0.0109897
699.364	0.0111783
699.443	0.0114085
699.521	0.0114562
699.599	0.0117342
699.677	0.0121569
699.755	0.0123831
699.833	0.0125024
699.911	0.0125779
699.989	0.0128316
700.068	0.0131287
700.146	0.0131422
700.224	0.0134729
700.302	0.0131941
700.380	0.0133780
700.458	0.0135535
700.536	0.0134465
700.614	0.0135258
700.693	0.0134229
700.771	0.0133252
700.849	0.0130923
700.927	0.0130930
701.005	0.0127413
701.083	0.0125279
701.161	0.0122899
701.239	0.0120452
701.318	0.0119506
701.396	0.0115389
701.474	0.0113515
701.552	0.0112534
701.630	0.0112939
701.708	0.0113073
701.786	0.0112024
701.864	0.0112801
701.943	0.0113258
702.021	0.0115687
702.099	0.0116750
702.177	0.0120164
702.255	0.0120890
702.333	0.0123286
702.411	0.0127227
702.489	0.0129085
702.568	0.0130852
702.646	0.0133970
702.724	0.0136734
702.802	0.0137681
702.880	0.0139445
702.958	0.0141781
703.036	0.0143085
703.114	0.0142712
703.193	0.0143872
703.271	0.0143407
703.349	0.0141835
703.427	0.0141223
703.505	0.0138705
703.583	0.0136049
703.661	0.0133452
703.739	0.0132967
703.818	0.0128602
703.896	0.0125728
703.974	0.0123005
704.052	0.0120405
704.130	0.0116089
704.208	0.0113232
704.286	0.0110287
704.364	0.0108910
704.443	0.0106984
704.521	0.0105878
704.599	0.0105881
704.677	0.0104921
704.755	0.0104915
704.833	0.0106668
704.911	0.0107733
704.989	0.0109724
705.068	0.0114637
705.146	0.0114635
705.224	0.0117429
705.302	0.0121777
705.380	0.0123130
705.458	0.0126624
705.536	0.0129676
705.614	0.0132239
705.693	0.0135312
705.771	0.0137187
705.849	0.0137479
705.927	0.0138314
706.005	0.0139881
706.083	0.0140292
706.161	0.0138676
706.239	0.0138164
706.318	0.0136509
706.396	0.0136352
706.474	0.0135911
706.552	0.0131085
706.630	0.0128496
706.708	0.0126466
706.786	0.0123233
706.864	0.0119645
706.943	0.0117672
707.021	0.0115522
707.099	0.0112409
707.177	0.0110378
707.255	0.0107349
707.333	0.0108004
707.411	0.0105908
707.489	0.0105108
707.568	0.0105727
707.646	0.0109985
707.724	0.0110042
707.802	0.0111889
707.880	0.0114024
707.958	0.0116528
708.036	0.0118034
708.114	0.0120715
708.193	0.0124592
708.271	0.0127192
708.349	0.0130281
708.427	0.0132533
708.505	0.0133444
708.583	0.0136293
708.661	0.0138788
708.739	0.0139745
708.818	0.0141151
708.896	0.0139913
708.974	0.0139994
709.052	0.0139560
709.130	0.0139130
709.208	0.0139591
709.286	0.0137138
709.364	0.0134757
709.443	0.0133460
709.521	0.0130366
709.599	0.0128075
709.677	0.0127084
709.755	0.0123193
709.833	0.0122803
709.911	0.0121179
709.989	0.0119266
710.068	0.0119402
710.146	0.0116272
710.224	0.0115431
710.302	0.0117062
710.380	0.0116700
710.458	0.0116768
710.536	0.0116771
710.614	0.0117776
710.693	0.0117919
710.771	0.0119685
710.849	0.0120261
710.927	0.0120536
711.005	0.0121492
711.083	0.0123809
711.161	0.0124965
711.239	0.0126593
711.318	0.0125812
711.396	0.0127339
711.474	0.0126028
711.552	0.0125873
711.630	0.0126737
711.708	0.0126781
711.786	0.0125344
711.864	0.0125947
711.943	0.0126958
712.021	0.0125528
712.099	0.0124539
712.177	0.0122647
712.255	0.0122305
712.333	0.0120508
712.411	0.0120980
712.489	0.0117741
712.568	0.0116991
712.646	0.0117053
712.724	0.0116888
712.802	0.0114181
712.880	0.0113297
712.958	0.0114030
713.036	0.0115413
713.114	0.0114787
713.193	0.0113773
713.271	0.0116233
713.349	0.0118517
713.427	0.0119595
713.505	0.0121429
713.583	0.0123331
713.661	0.0125628
713.739	0.0127285
713.818	0.0128221
713.896	0.0129523
713.974	0.0131412
714.052	0.0132357
714.130	0.0133232
714.208	0.0135442
714.286	0.0135120
714.364	0.0134488
714.443	0.0134161
714.521	0.0135687
714.599	0.0135419
714.677	0.0135629
714.755	0.0134322
714.833	0.0132700
714.911	0.0132397
714.989	0.0129902
715.068	0.0129629
715.146	0.0128210
715.224	0.0127265
715.302	0.0124135
715.380	0.0122424
715.458	0.0121152
715.536	0.0119530
715.614	0.0120326
715.693	0.0119178
715.771	0.0118305
715.849	0.0117986
715.927	0.0117813
716.005	0.0118454
716.083	0.0119590
716.161	0.0120605
716.239	0.0122150
716.318	0.0122577
716.396	0.0123381
716.474	0.0124904
716.552	0.0126134
716.630	0.0127530
716.708	0.0128267
716.786	0.0129771
716.864	0.0131051
716.943	0.0129335
717.021	0.0129671
717.099	0.0129977
717.177	0.0130155
717.255	0.0129172
717.333	0.0128553
717.411	0.0127177
717.489	0.0126462
717.568	0.0125964
717.646	0.0123728
717.724	0.0122911
717.802	0.0120811
717.880	0.0118481
717.958	0.0115495
718.036	0.0115008
718.114	0.0113499
718.193	0.0111730
718.271	0.0111084
718.349	0.0110758
718.427	0.0110182
718.505	0.0109739
718.583	0.0110447
718.661	0.0108379
718.739	0.0111398
718.818	0.0111236
718.896	0.0111655
718.974	0.0112223
719.052	0.0114729
719.130	0.0116544
719.208	0.0118794
719.286	0.0119918
719.364	0.0122757
719.443	0.0124570
719.521	0.0127089
719.599	0.0128697
719.677	0.0131036
719.755	0.0132830
719.833	0.0135552
719.911	0.0137712
719.989	0.0136742
720.068	0.0139892
720.146	0.0141205
720.224	0.0139601
720.302	0.0139386
720.380	0.0140029
720.458	0.0138145
720.536	0.0138634
720.614	0.0137354
720.693	0.0134927
720.771	0.0133273
720.849	0.0132920
720.927	0.0130803
721.005	0.0129397
721.083	0.0127915
721.161	0.0127879
721.239	0.0127518
721.318	0.0126875
721.396	0.0125395
721.474	0.0127284
721.552	0.0127555
721.630	0.0126225
721.708	0.0125670
721.786	0.0126102
721.864	0.0122989
721.943	0.0122816
722.021	0.0124141
722.099	0.0123614
722.177	0.0121606
722.255	0.0123332
722.333	0.0122226
722.411	0.0120977
722.489	0.0121109
722.568	0.0121480
722.646	0.0120975
722.724	0.0120354
722.802	0.0121236
722.880	0.0120346
722.958	0.0119065
723.036	0.0118861
723.114	0.0117545
723.193	0.0116219
723.271	0.0116105
723.349	0.0115083
723.427	0.0116071
723.505	0.0115103
723.583	0.0112328
723.661	0.0113692
723.739	0.0112550
723.818	0.0114274
723.896	0.0111691
723.974	0.0112051
724.052	0.0112760
724.130	0.0114295
724.208	0.0116682
724.286	0.0117758
724.364	0.0118041
724.443	0.0120419
724.521	0.0121677
724.599	0.0124128
724.677	0.0126869
724.755	0.0128857
724.833	0.0129446
724.911	0.0130513
724.989	0.0132384
725.068	0.0132977
725.146	0.0134811
725.224	0.0135935
725.302	0.0135275
725.380	0.0135914
725.458	0.0135051
725.536	0.0136125
725.614	0.0134042
725.693	0.0133669
725.771	0.0133717
725.849	0.0131916
725.927	0.0132081
726.005	0.0129951
726.083	0.0130769
726.161	0.0129193
726.239	0.0128816
726.318	0.0127632
726.396	0.0126311
726.474	0.0124857
726.552	0.0125345
726.630	0.0123025
726.708	0.0122979
726.786	0.0122774
726.864	0.0122819
726.943	0.0123883
727.021	0.0123066
727.099	0.0123204
727.177	0.0121587
727.255	0.0122346
727.333	0.0124037
727.411	0.0124135
727.489	0.0123309
727.568	0.0124236
727.646	0.0126051
727.724	0.0125131
727.802	0.0124154
727.880	0.0124517
727.958	0.0124736
728.036	0.0125655
728.114	0.0125245
728.193	0.0124497
728.271	0.0124088
728.349	0.0123419
728.427	0.0124206
728.505	0.0124032
728.583	0.0123748
728.661	0.0123015
728.739	0.0122595
728.818	0.0123504
728.896	0.0122155
728.974	0.0121979
729.052	0.0120693
729.130	0.0119792
729.208	0.0120767
729.286	0.0118686
729.364	0.0117915
729.443	0.0117118
729.521	0.0116351
729.599	0.0116575
729.677	0.0116087
729.755	0.0116132
729.833	0.0116614
729.911	0.0116695
729.989	0.0116800
730.068	0.0117951
730.146	0.0116875
730.224	0.0118116
730.302	0.0119484
730.380	0.0119344
730.458	0.0119969
730.536	0.0121152
730.614	0.0122995
730.693	0.0123653
730.771	0.0123820
730.849	0.0125058
730.927	0.0125767
731.005	0.0126072
731.083	0.0127155
731.161	0.0127646
731.239	0.0128539
731.318	0.0128270
731.396	0.0130511
731.474	0.0129769
731.552	0.0130041
731.630	0.0131313
731.708	0.0131293
731.786	0.0131955
731.864	0.0130959
731.943	0.0131198
732.021	0.0132229
732.099	0.0132651
732.177	0.0133080
732.255	0.0132310
732.333	0.0133714
732.411	0.0133639
732.489	0.0132288
732.568	0.0132594
732.646	0.0130760
732.724	0.0130788
732.802	0.0130083
732.880	0.0130286
732.958	0.0128262
733.036	0.0127493
733.114	0.0127229
733.193	0.0125379
733.271	0.0124763
733.349	0.0124255
733.427	0.0124604
733.505	0.0123593
733.583	0.0122496
733.661	0.0122090
733.739	0.0121716
733.818	0.0122309
733.896	0.0121548
733.974	0.0121999
734.052	0.0122164
734.130	0.0121877
734.208	0.0120541
734.286	0.0123043
734.364	0.0121692
734.443	0.0122021
734.521	0.0121416
734.599	0.0120852
734.677	0.0122090
734.755	0.0121202
734.833	0.0121784
734.911	0.0122691
734.989	0.0123322
735.068	0.0121471
735.146	0.0122259
735.224	0.0122798
735.302	0.0121407
735.380	0.0121255
735.458	0.0121207
735.536	0.0120515
735.614	0.0120361
735.693	0.0120635
735.771	0.0120358
735.849	0.0120311
735.927	0.0119306
736.005	0.0117850
736.083	0.0116904
736.161	0.0117002
736.239	0.0116148
736.318	0.0117481
736.396	0.0117209
736.474	0.0115919
736.552	0.0117643
736.630	0.0117361
736.708	0.0118163
736.786	0.0117175
736.864	0.0119103
736.943	0.0119061
737.021	0.0121461
737.099	0.0122342
737.177	0.0124811
737.255	0.0124967
737.333	0.0125568
737.411	0.0126259
737.489	0.0129496
737.568	0.0129726
737.646	0.0131156
737.724	0.0132039
737.802	0.0133538
737.880	0.0134538
737.958	0.0135572
738.036	0.0137461
738.114	0.0139056
738.193	0.0137000
738.271	0.0136462
738.349	0.0136944
738.427	0.0137118
738.505	0.0136766
738.583	0.0134325
738.661	0.0134043
738.739	0.0132794
738.818	0.0130446
738.896	0.0129521
738.974	0.0127509
739.052	0.0126067
739.130	0.0124496
739.208	0.0123827
739.286	0.0122548
739.364	0.0121947
739.443	0.0120811
739.521	0.0119121
739.599	0.0119298
739.677	0.0119323
739.755	0.0119556
739.833	0.0117100
739.911	0.0116813
739.989	0.0119635
740.068	0.0117803
740.146	0.0119223
740.224	0.0118859
740.302	0.0118892
740.380	0.0118745
740.458	0.0120093
740.536	0.0119053
740.614	0.0121376
740.693	0.0122260
740.771	0.0122794
740.849	0.0123343
740.927	0.0123213
741.005	0.0124110
741.083	0.0122993
741.161	0.0122905
741.239	0.0123351
741.318	0.0124037
741.396	0.0121742
741.474	0.0121835
741.552	0.0123615
741.630	0.0123627
741.708	0.0124028
741.786	0.0122758
741.864	0.0124204
741.943	0.0123577
742.021	0.0122517
742.099	0.0123247
742.177	0.0123003
742.255	0.0120640
742.333	0.0122584
742.411	0.0121477
742.489	0.0121690
742.568	0.0121731
742.646	0.0122266
742.724	0.0123085
742.802	0.0123112
742.880	0.0123895
742.958	0.0123858
743.036	0.0124417
743.114	0.0126109
743.193	0.0126624
743.271	0.0127590
743.349	0.0128944
743.427	0.0127745
743.505	0.0129665
743.583	0.0130595
743.661	0.0129949
743.739	0.0130829
743.818	0.0129851
743.896	0.0129870
743.974	0.0128562
744.052	0.0127421
744.130	0.0128207
744.208	0.0129140
744.286	0.0127280
744.364	0.0125529
744.443	0.0126295
744.521	0.0126641
744.599	0.0125932
744.677	0.0125378
744.755	0.0124555
744.833	0.0122105
744.911	0.0124159
744.989	0.0123003
745.068	0.0123158
745.146	0.0122537
745.224	0.0122485
745.302	0.0122610
745.380	0.0122655
745.458	0.0122595
745.536	0.0123870
745.614	0.0123703
745.693	0.0122026
745.771	0.0123199
745.849	0.0123130
745.927	0.0121439
746.005	0.0121622
746.083	0.0121158
746.161	0.0120608
746.239	0.0120549
746.318	0.0120852
746.396	0.0121889
746.474	0.0120005
746.552	0.0120237
746.630	0.0120164
746.708	0.0120953
746.786	0.0121388
746.864	0.0121078
746.943	0.0122736
747.021	0.0121039
747.099	0.0123569
747.177	0.0122805
747.255	0.0124171
747.333	0.0125100
747.411	0.0124921
747.489	0.0126322
747.568	0.0126031
747.646	0.0124918
747.724	0.0126240
747.802	0.0126331
747.880	0.0126252
747.958	0.0126141
748.036	0.0126967
748.114	0.0125697
748.193	0.0126415
748.271	0.0125666
748.349	0.0125045
748.427	0.0125533
748.505	0.0124155
748.583	0.0123826
748.661	0.0125026
748.739	0.0124462
748.818	0.0123828
748.896	0.0123383
748.974	0.0123048
749.052	0.0123743
749.130	0.0122617
749.208	0.0123041
749.286	0.0123516
749.364	0.0124551
749.443	0.0124628
749.521	0.0121674
749.599	0.0122523
749.677	0.0122852
749.755	0.0124278
749.833	0.0122487
749.911	0.0123586
749.989	0.0124168
750.068	0.0124083
750.146	0.0125185
750.224	0.0125177
750.302	0.0124327
750.380	0.0124815
750.458	0.0125935
750.536	0.0126093
750.614	0.0124847
750.693	0.0125815
750.771	0.0125848
750.849	0.0123473
750.927	0.0125509
751.005	0.0127276
751.083	0.0124465
751.161	0.0124173
751.239	0.0126127
751.318	0.0125243
751.396	0.0122843
751.474	0.0122830
751.552	0.0122657
751.630	0.0123230
751.708	0.0122427
751.786	0.0122740
751.864	0.0123323
751.943	0.0123491
752.021	0.0123042
752.099	0.0120870
752.177	0.0122106
752.255	0.0124110
752.333	0.0122433
752.411	0.0121535
752.489	0.0122656
752.568	0.0122937
752.646	0.0122105
752.724	0.0122597
752.802	0.0123295
752.880	0.0123150
752.958	0.0124121
753.036	0.0123091
753.114	0.0122978
753.193	0.0124652
753.271	0.0125797
753.349	0.0124779
753.427	0.0124448
753.505	0.0123949
753.583	0.0124010
753.661	0.0125042
753.739	0.0123899
753.818	0.0122830
753.896	0.0124481
753.974	0.0124519
754.052	0.0123589
754.130	0.0124063
754.208	0.0123848
754.286	0.0123985
754.364	0.0125060
754.443	0.0123949
754.521	0.0123050
754.599	0.0123737
754.677	0.0124543
754.755	0.0122845
754.833	0.0122926
754.911	0.0123270
754.989	0.0122798
755.068	0.0123288
755.146	0.0121605
755.224	0.0123980
755.302	0.0124863
755.380	0.0123957
755.458	0.0123613
755.536	0.0122382
755.614	0.0123882
755.693	0.0123117
755.771	0.0122832
755.849	0.0124982
755.927	0.0123807
756.005	0.0125297
756.083	0.0123042
756.161	0.0123993
756.239	0.0124450
756.318	0.0123136
756.396	0.0124603
756.474	0.0123969
756.552	0.0124028
756.630	0.0123027
756.708	0.0123711
756.786	0.0123647
756.864	0.0124181
756.943	0.0122709
757.021	0.0124825
757.099	0.0124103
757.177	0.0124083
757.255	0.0125268
757.333	0.0126346
757.411	0.0123586
757.489	0.0124905
757.568	0.0124140
757.646	0.0125930
757.724	0.0125770
757.802	0.0125472
757.880	0.0123019
757.958	0.0125137
758.036	0.0124797
758.114	0.0124272
758.193	0.0124793
758.271	0.0125339
758.349	0.0123877
758.427	0.0124461
758.505	0.0123862
758.583	0.0122364
758.661	0.0122732
758.739	0.0121581
758.818	0.0122540
758.896	0.0122565
758.974	0.0123314
759.052	0.0121803
759.130	0.0122275
759.208	0.0122137
759.286	0.0121299
759.364	0.0121835
759.443	0.0123719
759.521	0.0123447
759.599	0.0123378
759.677	0.0124912
759.755	0.0125073
759.833	0.0127709
759.911	0.0125642
759.989	0.0126975
760.068	0.0125037
760.146	0.0127744
760.224	0.0127023
760.302	0.0126296
760.380	0.0128735
760.458	0.0126715
760.536	0.0126899
760.614	0.0128003
760.693	0.0127493
760.771	0.0128437
760.849	0.0126871
760.927	0.0126057
761.005	0.0126391
761.083	0.0126130
761.161	0.0125681
761.239	0.0126801
761.318	0.0125233
761.396	0.0123649
761.474	0.0123232
761.552	0.0123706
761.630	0.0122467
761.708	0.0124481
761.786	0.0124349
761.864	0.0122638
761.943	0.0124593
762.021	0.0124389
762.099	0.0124482
762.177	0.0121120
762.255	0.0122768
762.333	0.0123203
762.411	0.0123637
762.489	0.0121980
762.568	0.0120970
762.646	0.0122245
762.724	0.0121188
762.802	0.0122739
762.880	0.0121389
762.958	0.0123201
763.036	0.0122324
763.114	0.0123108
763.193	0.0123952
763.271	0.0123058
763.349	0.0125271
763.427	0.0124736
763.505	0.0124117
763.583	0.0124780
763.661	0.0124741
763.739	0.0127302
763.818	0.0127293
763.896	0.0126017
763.974	0.0126941
764.052	0.0126026
764.130	0.0126459
764.208	0.0127052
764.286	0.0126018
764.364	0.0126782
764.443	0.0125410
764.521	0.0125626
764.599	0.0124536
764.677	0.0125717
764.755	0.0124612
764.833	0.0125407
764.911	0.0123406
764.989	0.0123470
765.068	0.0123496
765.146	0.0123346
765.224	0.0123514
765.302	0.0124039
765.380	0.0124220
765.458	0.0125477
765.536	0.0123901
765.614	0.0125872
765.693	0.0124901
765.771	0.0125147
765.849	0.0125481
765.927	0.0126598
766.005	0.0124660
766.083	0.0124773
766.161	0.0126451
766.239	0.0125773
766.318	0.0126481
766.396	0.0124687
766.474	0.0124988
766.552	0.0124793
766.630	0.0124424
766.708	0.0124515
766.786	0.0125330
766.864	0.0123499
766.943	0.0123889
767.021	0.0122639
767.099	0.0122449
767.177	0.0123931
767.255	0.0124699
767.333	0.0124203
767.411	0.0123115
767.489	0.0123528
767.568	0.0123090
767.646	0.0124205
767.724	0.0124132
767.802	0.0123861
767.880	0.0123751
767.958	0.0124133
768.036	0.0123650
768.114	0.0124306
768.193	0.0122308
768.271	0.0122983
768.349	0.0122854
768.427	0.0122880
768.505	0.0122228
768.583	0.0122456
768.661	0.0121605
768.739	0.0120620
768.818	0.0121362
768.896	0.0120436
768.974	0.0120835
769.052	0.0121610
769.130	0.0121153
769.208	0.0122051
769.286	0.0121217
769.364	0.0122147
769.443	0.0123293
769.521	0.0122109
769.599	0.0123540
769.677	0.0123997
769.755	0.0125632
769.833	0.0124979
769.911	0.0126196
769.989	0.0125632
770.068	0.0126871
770.146	0.0127047
770.224	0.0127087
770.302	0.0126175
770.380	0.0128059
770.458	0.0126369
770.536	0.0127161
770.614	0.0126740
770.693	0.0124991
770.771	0.0125437
770.849	0.0126168
770.927	0.0124228
771.005	0.0124623
771.083	0.0122081
771.161	0.0122471
771.239	0.0122365
771.318	0.0121777
771.396	0.0120681
771.474	0.0120058
771.552	0.0120903
771.630	0.0118959
771.708	0.0119321
771.786	0.0119748
771.864	0.0118715
771.943	0.0119761
772.021	0.0118516
772.099	0.0117541
772.177	0.0118027
772.255	0.0117906
772.333	0.0118475
772.411	0.0120531
772.489	0.0119936
772.568	0.0120676
772.646	0.0120473
772.724	0.0121761
772.802	0.0121694
772.880	0.0122423
772.958	0.0123895
773.036	0.0124105
773.114	0.0124406
773.193	0.0124870
773.271	0.0125618
773.349	0.0126660
773.427	0.0125792
773.505	0.0127686
773.583	0.0127333
773.661	0.0128924
773.739	0.0129887
773.818	0.0127101
773.896	0.0128087
773.974	0.0129015
774.052	0.0127742
774.130	0.0128417
774.208	0.0128212
774.286	0.0127497
774.364	0.0127341
774.443	0.0126495
774.521	0.0127946
774.599	0.0127296
774.677	0.0125940
774.755	0.0124850
774.833	0.0124966
774.911	0.0124064
774.989	0.0125220
775.068	0.0122962
775.146	0.0122441
775.224	0.0123189
775.302	0.0122145
775.380	0.0120838
775.458	0.0121049
775.536	0.0119827
775.614	0.0118507
775.693	0.0118085
775.771	0.0119415
775.849	0.0120344
775.927	0.0117428
776.005	0.0117695
776.083	0.0118663
776.161	0.0118679
776.239	0.0119305
776.318	0.0118342
776.396	0.0119525
776.474	0.0121140
776.552	0.0119981
776.630	0.0122156
776.708	0.0122141
776.786	0.0121673
776.864	0.0122375
776.943	0.0123624
777.021	0.0124902
777.099	0.0124778
777.177	0.0125111
777.255	0.0126190
777.333	0.0126759
777.411	0.0125217
777.489	0.0127808
777.568	0.0128501
777.646	0.0128498
777.724	0.0127805
777.802	0.0127770
777.880	0.0128265
777.958	0.0129066
778.036	0.0128681
778.114	0.0128033
778.193	0.0127968
778.271	0.0129481
778.349	0.0128048
778.427	0.0127609
778.505	0.0127079
778.583	0.0127602
778.661	0.0127972
778.739	0.0127150
778.818	0.0126381
778.896	0.0126152
778.974	0.0125857
779.052	0.0126119
779.130	0.0124791
779.208	0.0124345
779.286	0.0122995
779.364	0.0124156
779.443	0.0123737
779.521	0.0122338
779.599	0.0122562
779.677	0.0122459
779.755	0.0120603
779.833	0.0119854
779.911	0.0120352
779.989	0.0119784
780.068	0.0119882
780.146	0.0119492
780.224	0.0119374
780.302	0.0119729
780.380	0.0118633
780.458	0.0117670
780.536	0.0118777
780.614	0.0120289
780.693	0.0119536
780.771	0.0120208
780.849	0.0120998
780.927	0.0121404
781.005	0.0121136
781.083	0.0121040
781.161	0.0121859
781.239	0.0123334
781.318	0.0123129
781.396	0.0124216
781.474	0.0124934
781.552	0.0125906
781.630	0.0127412
781.708	0.0128164
781.786	0.0128782
781.864	0.0127480
781.943	0.0127845
782.021	0.0129630
782.099	0.0127996
782.177	0.0129453
782.255	0.0129276
782.333	0.0130579
782.411	0.0129077
782.489	0.0129340
782.568	0.0129272
782.646	0.0129331
782.724	0.0129319
782.802	0.0129189
782.880	0.0128473
782.958	0.0127343
783.036	0.0128175
783.114	0.0126776
783.193	0.0128731
783.271	0.0127918
783.349	0.0126920
783.427	0.0127134
783.505	0.0126508
783.583	0.0125062
783.661	0.0124609
783.739	0.0125761
783.818	0.0126813
783.896	0.0125730
783.974	0.0123660
784.052	0.0123395
784.130	0.0123466
784.208	0.0123402
784.286	0.0123376
784.364	0.0123273
784.443	0.0120493
784.521	0.0119777
784.599	0.0120575
784.677	0.0121311
784.755	0.0119289
784.833	0.0118512
784.911	0.0119666
784.989	0.0119812
785.068	0.0119279
785.146	0.0118937
785.224	0.0119841
785.302	0.0120641
785.380	0.0120284
785.458	0.0119993
785.536	0.0120083
785.614	0.0122242
785.693	0.0121907
785.771	0.0121311
785.849	0.0123540
785.927	0.0123288
786.005	0.0124149
786.083	0.0125018
786.161	0.0124226
786.239	0.0124807
786.318	0.0126237
786.396	0.0125833
786.474	0.0126105
786.552	0.0127889
786.630	0.0127009
786.708	0.0128642
786.786	0.0127734
786.864	0.0127775
786.943	0.0127099
787.021	0.0126405
787.099	0.0127248
787.177	0.0126905
787.255	0.0128531
787.333	0.0127953
787.411	0.0128156
787.489	0.0128022
787.568	0.0127724
787.646	0.0126675
787.724	0.0127066
787.802	0.0125548
787.880	0.0125776
787.958	0.0126936
788.036	0.0124990
788.114	0.0125415
788.193	0.0125448
788.271	0.0123940
788.349	0.0122640
788.427	0.0123736
788.505	0.0123686
788.583	0.0123574
788.661	0.0122655
788.739	0.0120863
788.818	0.0120512
788.896	0.0122299
788.974	0.0120758
789.052	0.0121671
789.130	0.0121376
789.208	0.0120410
789.286	0.0121400
789.364	0.0120988
789.443	0.0121850
789.521	0.0122430
789.599	0.0121891
789.677	0.0121908
789.755	0.0122913
789.833	0.0124519
789.911	0.0123279
789.989	0.0124134
790.068	0.0123926
790.146	0.0125127
790.224	0.0124336
790.302	0.0125905
790.380	0.0125804
790.458	0.0126950
790.536	0.0126080
790.614	0.0126850
790.693	0.0126189
790.771	0.0125546
790.849	0.0127003
790.927	0.0126719
791.005	0.0125827
791.083	0.0124617
791.161	0.0123091
791.239	0.0124658
791.318	0.0122468
791.396	0.0123006
791.474	0.0123835
791.552	0.0123058
791.630	0.0121923
791.708	0.0121520
791.786	0.0121467
791.864	0.0120895
791.943	0.0120895
792.021	0.0119801
792.099	0.0120827
792.177	0.0120065
792.255	0.0120036
792.333	0.0120814
792.411	0.0120298
792.489	0.0121294
792.568	0.0122878
792.646	0.0121946
792.724	0.0122627
792.802	0.0123093
792.880	0.0122694
792.958	0.0124036
793.036	0.0123808
793.114	0.0123557
793.193	0.0124220
793.271	0.0124130
793.349	0.0124389
793.427	0.0125716
793.505	0.0126238
793.583	0.0127113
793.661	0.0126135
793.739	0.0127219
793.818	0.0127506
793.896	0.0127305
793.974	0.0126286
794.052	0.0127774
794.130	0.0128479
794.208	0.0126724
794.286	0.0129461
794.364	0.0128766
794.443	0.0127512
794.521	0.0126764
794.599	0.0127072
794.677	0.0127495
794.755	0.0127417
794.833	0.0125922
794.911	0.0127162
794.989	0.0125819
795.068	0.0125256
795.146	0.0125028
795.224	0.0123328
795.302	0.0122039
795.380	0.0120815
795.458	0.0122022
795.536	0.0121751
795.614	0.0120689
795.693	0.0121130
795.771	0.0119694
795.849	0.0119041
795.927	0.0117965
796.005	0.0117689
796.083	0.0118900
796.161	0.0119530
796.239	0.0119880
796.318	0.0119120
796.396	0.0119957
796.474	0.0119395
796.552	0.0119138
796.630	0.0120020
796.708	0.0120897
796.786	0.0120658
796.864	0.0122713
796.943	0.0123124
797.021	0.0122538
797.099	0.0122240
797.177	0.0123345
797.255	0.0122561
797.333	0.0121864
797.411	0.0122670
797.489	0.0125353
797.568	0.0124940
797.646	0.0124457
797.724	0.0124625
797.802	0.0124485
797.880	0.0124050
797.958	0.0125032
798.036	0.0125690
798.114	0.0125945
798.193	0.0124917
798.271	0.0124944
798.349	0.0125133
798.427	0.0125850
798.505	0.0124550
798.583	0.0125043
798.661	0.0125511
798.739	0.0123852
798.818	0.0125381
798.896	0.0124178
798.974	0.0125769
799.052	0.0126079
799.130	0.0125774
799.208	0.0126882
799.286	0.0125971
799.364	0.0126942
799.443	0.0125031
799.521	0.0126130
799.599	0.0127342
799.677	0.0126051
799.755	0.0124859
799.833	0.0126492
799.911	0.0125854
799.989	0.0125339
800.068	0.0125979
800.146	0.0125281
800.224	0.0124453
800.302	0.0124384
800.380	0.0124520
800.458	0.0123991
800.536	0.0123148
800.614	0.0123061
800.693	0.0121822
800.771	0.0123182
800.849	0.0121377
800.927	0.0121713
801.005	0.0121008
801.083	0.0122273
801.161	0.0122221
801.239	0.0121212
801.318	0.0120871
801.396	0.0122299
801.474	0.0122297
801.552	0.0122015
801.630	0.0121791
801.708	0.0124188
801.786	0.0124886
801.864	0.0121650
801.943	0.0122601
802.021	0.0124988
802.099	0.0123604
802.177	0.0124870
802.255	0.0126315
802.333	0.0124767
802.411	0.0125410
802.489	0.0126210
802.568	0.0126633
802.646	0.0126814
802.724	0.0127393
802.802	0.0127052
802.880	0.0126276
802.958	0.0127641
803.036	0.0127910
803.114	0.0126997
803.193	0.0124966
803.271	0.0125127
803.349	0.0125555
803.427	0.0124454
803.505	0.0123978
803.583	0.0124082
803.661	0.0124813
803.739	0.0124311
803.818	0.0121921
803.896	0.0122714
803.974	0.0122547
804.052	0.0123886
804.130	0.0121764
804.208	0.0120446
804.286	0.0122143
804.364	0.0121909
804.443	0.0120855
804.521	0.0122023
804.599	0.0121639
804.677	0.0121228
804.755	0.0121244
804.833	0.0121615
804.911	0.0122253
804.989	0.0122194
805.068	0.0123071
805.146	0.0123753
805.224	0.0124599
805.302	0.0124238
805.380	0.0125311
805.458	0.0125589
805.536	0.0125615
805.614	0.0125838
805.693	0.0126138
805.771	0.0127145
805.849	0.0127619
805.927	0.0127637
806.005	0.0126717
806.083	0.0127130
806.161	0.0127416
806.239	0.0128530
806.318	0.0126994
806.396	0.0127460
806.474	0.0127142
806.552	0.0127279
806.630	0.0128616
806.708	0.0127106
806.786	0.0126348
806.864	0.0126134
806.943	0.0125627
807.021	0.0126199
807.099	0.0125253
807.177	0.0124879
807.255	0.0125133
807.333	0.0124906
807.411	0.0124643
807.489	0.0124663
807.568	0.0125510
807.646	0.0124745
807.724	0.0124785
807.802	0.0125223
807.880	0.0125119
807.958	0.0125805
808.036	0.0125160
808.114	0.0125468
808.193	0.0125005
808.271	0.0125352
808.349	0.0125044
808.427	0.0123432
808.505	0.0124258
808.583	0.0125237
808.661	0.0124107
808.739	0.0124502
808.818	0.0123507
808.896	0.0124777
808.974	0.0124610
809.052	0.0122346
809.130	0.0122666
809.208	0.0122612
809.286	0.0122523
809.364	0.0121496
809.443	0.0121735
809.521	0.0120952
809.599	0.0120967
809.677	0.0121384
809.755	0.0122230
809.833	0.0121030
809.911	0.0119635
809.989	0.0121216
810.068	0.0121564
810.146	0.0122913
810.224	0.0122814
810.302	0.0122686
810.380	0.0123268
810.458	0.0122715
810.536	0.0124683
810.614	0.0123526
810.693	0.0124109
810.771	0.0125924
810.849	0.0125179
810.927	0.0126378
811.005	0.0126775
811.083	0.0127190
811.161	0.0125909
811.239	0.0126823
811.318	0.0128475
811.396	0.0127952
811.474	0.0127169
811.552	0.0127307
811.630	0.0128062
811.708	0.0126506
811.786	0.0126411
811.864	0.0126670
811.943	0.0125340
812.021	0.0127409
812.099	0.0126679
812.177	0.0126551
812.255	0.0123586
812.333	0.0125755
812.411	0.0125464
812.489	0.0125225
812.568	0.0125385
812.646	0.0124992
812.724	0.0123710
812.802	0.0124783
812.880	0.0124482
812.958	0.0123516
813.036	0.0124017
813.114	0.0124178
813.193	0.0124700
813.271	0.0123776
813.349	0.0123753
813.427	0.0123940
813.505	0.0124814
813.583	0.0124135
813.661	0.0121830
813.739	0.0123835
813.818	0.0121532
813.896	0.0122154
813.974	0.0122973
814.052	0.0123559
814.130	0.0122571
814.208	0.0123313
814.286	0.0123232
814.364	0.0123485
814.443	0.0123006
814.521	0.0123567
814.599	0.0124242
814.677	0.0123837
814.755	0.0124312
814.833	0.0125334
814.911	0.0123240
814.989	0.0122531
815.068	0.0122882
815.146	0.0122610
815.224	0.0122260
815.302	0.0123497
815.380	0.0123774
815.458	0.0123817
815.536	0.0124248
815.614	0.0123794
815.693	0.0123466
815.771	0.0123146
815.849	0.0122215
815.927	0.0122543
816.005	0.0124078
816.083	0.0124682
816.161	0.0123589
816.239	0.0123538
816.318	0.0122580
816.396	0.0123065
816.474	0.0122317
816.552	0.0122927
816.630	0.0122379
816.708	0.0124240
816.786	0.0123466
816.864	0.0122894
816.943	0.0122967
817.021	0.0123917
817.099	0.0124572
817.177	0.0123979
817.255	0.0122938
817.333	0.0124769
817.411	0.0124357
817.489	0.0124113
817.568	0.0125164
817.646	0.0125513
817.724	0.0123270
817.802	0.0124297
817.880	0.0125515
817.958	0.0124074
818.036	0.0126089
818.114	0.0124055
818.193	0.0124516
818.271	0.0125427
818.349	0.0125676
818.427	0.0126640
818.505	0.0124901
818.583	0.0124003
818.661	0.0124551
818.739	0.0125667
818.818	0.0124628
818.896	0.0124767
818.974	0.0123711
819.052	0.0124300
819.130	0.0125000
819.208	0.0123496
819.286	0.0122684
819.364	0.0122685
819.443	0.0123252
819.521	0.0123325
819.599	0.0122807
819.677	0.0122375
819.755	0.0122059
819.833	0.0121247
819.911	0.0121032
819.989	0.0121412
820.068	0.0120215
820.146	0.0120107
820.224	0.0120348
820.302	0.0119925
820.380	0.0119245
820.458	0.0119053
820.536	0.0120520
820.614	0.0118356
820.693	0.0119869
820.771	0.0119341
820.849	0.0119385
820.927	0.0118980
821.005	0.0121350
821.083	0.0121482
821.161	0.0120696
821.239	0.0122192
821.318	0.0121868
821.396	0.0121704
821.474	0.0123684
821.552	0.0123671
821.630	0.0124647
821.708	0.0125504
821.786	0.0123788
821.864	0.0125960
821.943	0.0125453
822.021	0.0126092
822.099	0.0127007
822.177	0.0128586
822.255	0.0127456
822.333	0.0128277
822.411	0.0128136
822.489	0.0127527
822.568	0.0129092
822.646	0.0127823
822.724	0.0127647
822.802	0.0128139
822.880	0.0128279
822.958	0.0129140
823.036	0.0127559
823.114	0.0127885
823.193	0.0127406
823.271	0.0127320
823.349	0.0126653
823.427	0.0127193
823.505	0.0126855
823.583	0.0126936
823.661	0.0126209
823.739	0.0124776
823.818	0.0125541
823.896	0.0126431
823.974	0.0125440
824.052	0.0125134
824.130	0.0126260
824.208	0.0125859
824.286	0.0124690
824.364	0.0124920
824.443	0.0123527
824.521	0.0123051
824.599	0.0123975
824.677	0.0122929
824.755	0.0123834
824.833	0.0123400
824.911	0.0122764
824.989	0.0122131
825.068	0.0122699
825.146	0.0122645
825.224	0.0123494
825.302	0.0121244
825.380	0.0122262
825.458	0.0121841
825.536	0.0120606
825.614	0.0121243
825.693	0.0121044
825.771	0.0122357
825.849	0.0122778
825.927	0.0121757
826.005	0.0122703
826.083	0.0122283
826.161	0.0122690
826.239	0.0123371
826.318	0.0123988
826.396	0.0124273
826.474	0.0124217
826.552	0.0124141
826.630	0.0124689
826.708	0.0123991
826.786	0.0124533
826.864	0.0123944
826.943	0.0125718
827.021	0.0125298
827.099	0.0125132
827.177	0.0124777
827.255	0.0126134
827.333	0.0125627
827.411	0.0126659
827.489	0.0126935
827.568	0.0127237
827.646	0.0126606
827.724	0.0125932
827.802	0.0125243
827.880	0.0126830
827.958	0.0127947
828.036	0.0126808
828.114	0.0125916
828.193	0.0126476
828.271	0.0127496
828.349	0.0127043
828.427	0.0126409
828.505	0.0127118
828.583	0.0126401
828.661	0.0126492
828.739	0.0127177
828.818	0.0127281
828.896	0.0127239
828.974	0.0126058
829.052	0.0126717
829.130	0.0127046
829.208	0.0126913
829.286	0.0127259
829.364	0.0126347
829.443	0.0126414
829.521	0.0126144
829.599	0.0124489
829.677	0.0125493
829.755	0.0125416
829.833	0.0126412
829.911	0.0125841
829.989	0.0123530
830.068	0.0124851
830.146	0.0124458
830.224	0.0124200
830.302	0.0123364
830.380	0.0123600
830.458	0.0124085
830.536	0.0123369
830.614	0.0122594
830.693	0.0122017
830.771	0.0123528
830.849	0.0121291
830.927	0.0121612
831.005	0.0123141
831.083	0.0120883
831.161	0.0123193
831.239	0.0122575
831.318	0.0123414
831.396	0.0124052
831.474	0.0122868
831.552	0.0122425
831.630	0.0123126
831.708	0.0124047
831.786	0.0122766
831.864	0.0123819
831.943	0.0123000
832.021	0.0124028
832.099	0.0124960
832.177	0.0125167
832.255	0.0125133
832.333	0.0124565
832.411	0.0123953
832.489	0.0125703
832.568	0.0126276
832.646	0.0125549
832.724	0.0125509
832.802	0.0125308
832.880	0.0124962
832.958	0.0124381
833.036	0.0124474
833.114	0.0124659
833.193	0.0124667
833.271	0.0124659
833.349	0.0125587
833.427	0.0124638
833.505	0.0123805
833.583	0.0124674
833.661	0.0125103
833.739	0.0123315
833.818	0.0123837
833.896	0.0124722
833.974	0.0125608
834.052	0.0122990
834.130	0.0123670
834.208	0.0124022
834.286	0.0123238
834.364	0.0125301
834.443	0.0124625
834.521	0.0123310
834.599	0.0123650
834.677	0.0124899
834.755	0.0125034
834.833	0.0124940
834.911	0.0124194
834.989	0.0123381
835.068	0.0124344
835.146	0.0125571
835.224	0.0124841
835.302	0.0125086
835.380	0.0123648
835.458	0.0125492
835.536	0.0124512
835.614	0.0123681
835.693	0.0124384
835.771	0.0124651
835.849	0.0125098
835.927	0.0123241
836.005	0.0124611
836.083	0.0125012
836.161	0.0123938
836.239	0.0124308
836.318	0.0124581
836.396	0.0124065
836.474	0.0122794
836.552	0.0124874
836.630	0.0122947
836.708	0.0121791
836.786	0.0123304
836.864	0.0121732
836.943	0.0120599
837.021	0.0121928
837.099	0.0122543
837.177	0.0120744
837.255	0.0121864
837.333	0.0121877
837.411	0.0122349
837.489	0.0122832
837.568	0.0121848
837.646	0.0120551
837.724	0.0121265
837.802	0.0121638
837.880	0.0121027
837.958	0.0120565
838.036	0.0122244
838.114	0.0122165
838.193	0.0121339
838.271	0.0121995
838.349	0.0122845
838.427	0.0122940
838.505	0.0122370
838.583	0.0123739
838.661	0.0122221
838.739	0.0124487
838.818	0.0124077
838.896	0.0123405
838.974	0.0123912
839.052	0.0124524
839.130	0.0124339
839.208	0.0123617
839.286	0.0124213
839.364	0.0125011
839.443	0.0123798
839.521	0.0124831
839.599	0.0124505
839.677	0.0124799
839.755	0.0124655
839.833	0.0125628
839.911	0.0125214
839.989	0.0124226
840.068	0.0125379
840.146	0.0123814
840.224	0.0124035
840.302	0.0122367
840.380	0.0123413
840.458	0.0123969
840.536	0.0125501
840.614	0.0124123
840.693	0.0124300
840.771	0.0124129
840.849	0.0124234
840.927	0.0124055
841.005	0.0123414
841.083	0.0124987
841.161	0.0125411
841.239	0.0124812
841.318	0.0124790
841.396	0.0123544
841.474	0.0124509
841.552	0.0124902
841.630	0.0123557
841.708	0.0124100
841.786	0.0123370
841.864	0.0124239
841.943	0.0123761
842.021	0.0124316
842.099	0.0124397
842.177	0.0123898
842.255	0.0123941
842.333	0.0124231
842.411	0.0123956
842.489	0.0123663
842.568	0.0124207
842.646	0.0124642
842.724	0.0122327
842.802	0.0122744
842.880	0.0123705
842.958	0.0123495
843.036	0.0123567
843.114	0.0123069
843.193	0.0122189
843.271	0.0123447
843.349	0.0123602
843.427	0.0122128
843.505	0.0123936
843.583	0.0122076
843.661	0.0122031
843.739	0.0123194
843.818	0.0123278
843.896	0.0123408
843.974	0.0123543
844.052	0.0123185
844.130	0.0123199
844.208	0.0122395
844.286	0.0122036
844.364	0.0123539
844.443	0.0121779
844.521	0.0122469
844.599	0.0122956
844.677	0.0122308
844.755	0.0124607
844.833	0.0124052
844.911	0.0123859
844.989	0.0124094
845.068	0.0122383
845.146	0.0123264
845.224	0.0123125
845.302	0.0123353
845.380	0.0124328
845.458	0.0125157
845.536	0.0123077
845.614	0.0125049
845.693	0.0125427
845.771	0.0124727
845.849	0.0125073
845.927	0.0125085
846.005	0.0125647
846.083	0.0125333
846.161	0.0125412
846.239	0.0125344
846.318	0.0125595
846.396	0.0125535
846.474	0.0125493
846.552	0.0125992
846.630	0.0126443
846.708	0.0126354
846.786	0.0125594
846.864	0.0125555
846.943	0.0126350
847.021	0.0125302
847.099	0.0125484
847.177	0.0127035
847.255	0.0125191
847.333	0.0125732
847.411	0.0125776
847.489	0.0126450
847.568	0.0126398
847.646	0.0125356
847.724	0.0125823
847.802	0.0125203
847.880	0.0125708
847.958	0.0125212
848.036	0.0124426
848.114	0.0126002
848.193	0.0125415
848.271	0.0124748
848.349	0.0125658
848.427	0.0126014
848.505	0.0124944
848.583	0.0124364
848.661	0.0123860
848.739	0.0124571
848.818	0.0124718
848.896	0.0123951
848.974	0.0123785
849.052	0.0124239
849.130	0.0122697
849.208	0.0124032
849.286	0.0123302
849.364	0.0124394
849.443	0.0125388
849.521	0.0125099
849.599	0.0123167
849.677	0.0125001
849.755	0.0124877
849.833	0.0125587
849.911	0.0124419
849.989	0.0123784
850.068	0.0123773
850.146	0.0123360
850.224	0.0122430
850.302	0.0123627
850.380	0.0124843
850.458	0.0122441
850.536	0.0121786
850.614	0.0122008
850.693	0.0121996
850.771	0.0122887
850.849	0.0121867
850.927	0.0122684
851.005	0.0121220
851.083	0.0122205
851.161	0.0121507
851.239	0.0122488
851.318	0.0123582
851.396	0.0123287
851.474	0.0122792
851.552	0.0123263
851.630	0.0122012
851.708	0.0123517
851.786	0.0124908
851.864	0.0124799
851.943	0.0125059
852.021	0.0124860
852.099	0.0125416
852.177	0.0125293
852.255	0.0125897
852.333	0.0125945
852.411	0.0126894
852.489	0.0124894
852.568	0.0126096
852.646	0.0126010
852.724	0.0125830
852.802	0.0126429
852.880	0.0126340
852.958	0.0125410
853.036	0.0126447
853.114	0.0125677
853.193	0.0125159
853.271	0.0124361
853.349	0.0124758
853.427	0.0124306
853.505	0.0126086
853.583	0.0124402
853.661	0.0124164
853.739	0.0125176
853.818	0.0123904
853.896	0.0125343
853.974	0.0122987
854.052	0.0123165
854.130	0.0123643
854.208	0.0123701
854.286	0.0124300
854.364	0.0125822
854.443	0.0125441
854.521	0.0123628
854.599	0.0123912
854.677	0.0123888
854.755	0.0125858
854.833	0.0124028
854.911	0.0123959
854.989	0.0124111
855.068	0.0124784
855.146	0.0125854
855.224	0.0125119
855.302	0.0124339
855.380	0.0126612
855.458	0.0124406
855.536	0.0125156
855.614	0.0124756
855.693	0.0125922
855.771	0.0124519
855.849	0.0123563
855.927	0.0123759
856.005	0.0124677
856.083	0.0125264
856.161	0.0124678
856.239	0.0125338
856.318	0.0124577
856.396	0.0123638
856.474	0.0123471
856.552	0.0123487
856.630	0.0122919
856.708	0.0123396
856.786	0.0122187
856.864	0.0123411
856.943	0.0122311
857.021	0.0121783
857.099	0.0123015
857.177	0.0120700
857.255	0.0121844
857.333	0.0121450
857.411	0.0122533
857.489	0.0121051
857.568	0.0122300
857.646	0.0120900
857.724	0.0122529
857.802	0.0124335
857.880	0.0122731
857.958	0.0123013
858.036	0.0123766
858.114	0.0125059
858.193	0.0123578
858.271	0.0123887
858.349	0.0124545
858.427	0.0126009
858.505	0.0125544
858.583	0.0125137
858.661	0.0124091
858.739	0.0124641
858.818	0.0124873
858.896	0.0124753
858.974	0.0123589
859.052	0.0125244
859.130	0.0123837
859.208	0.0123663
859.286	0.0123981
859.364	0.0124762
859.443	0.0123933
859.521	0.0124922
859.599	0.0125899
859.677	0.0125163
859.755	0.0123914
859.833	0.0125813
859.911	0.0126218
859.989	0.0125207
860.068	0.0124666
860.146	0.0125919
860.224	0.0127671
860.302	0.0126112
860.380	0.0125856
860.458	0.0127029
860.536	0.0126998
860.614	0.0127854
860.693	0.0124958
860.771	0.0126003
860.849	0.0127660
860.927	0.0125971
861.005	0.0126035
861.083	0.0125664
861.161	0.0125921
861.239	0.0126075
861.318	0.0124152
861.396	0.0124419
861.474	0.0125423
861.552	0.0123010
861.630	0.0123732
861.708	0.0123350
861.786	0.0123962
861.864	0.0122623
861.943	0.0123098
862.021	0.0122993
862.099	0.0123082
862.177	0.0121865
862.255	0.0123571
862.333	0.0123369
862.411	0.0122315
862.489	0.0122707
862.568	0.0122124
862.646	0.0122919
862.724	0.0122593
862.802	0.0122537
862.880	0.0123374
862.958	0.0123536
863.036	0.0123159
863.114	0.0123054
863.193	0.0122546
863.271	0.0123540
863.349	0.0124643
863.427	0.0123663
863.505	0.0124061
863.583	0.0124584
863.661	0.0123620
863.739	0.0124968
863.818	0.0125035
863.896	0.0125409
863.974	0.0126003
864.052	0.0125117
864.130	0.0124385
864.208	0.0124221
864.286	0.0124642
864.364	0.0125919
864.443	0.0127177
864.521	0.0126052
864.599	0.0124863
864.677	0.0124612
864.755	0.0124171
864.833	0.0124435
864.911	0.0124142
864.989	0.0124612
865.068	0.0126097
865.146	0.0123959
865.224	0.0124023
865.302	0.0124470
865.380	0.0124751
865.458	0.0124056
865.536	0.0124093
865.614	0.0124341
865.693	0.0123518
865.771	0.0124346
865.849	0.0124142
865.927	0.0124596
866.005	0.0123560
866.083	0.0124023
866.161	0.0122835
866.239	0.0123380
866.318	0.0122414
866.396	0.0123257
866.474	0.0122561
866.552	0.0123133
866.630	0.0123484
866.708	0.0122436
866.786	0.0123014
866.864	0.0123946
866.943	0.0123938
867.021	0.0122824
867.099	0.0125439
867.177	0.0123417
867.255	0.0124975
867.333	0.0123736
867.411	0.0125091
867.489	0.0124427
867.568	0.0124687
867.646	0.0125162
867.724	0.0124643
867.802	0.0124168
867.880	0.0124158
867.958	0.0125562
868.036	0.0124685
868.114	0.0124111
868.193	0.0125346
868.271	0.0126284
868.349	0.0125992
868.427	0.0126654
868.505	0.0126046
868.583	0.0125760
868.661	0.0125457
868.739	0.0125758
868.818	0.0126465
868.896	0.0126434
868.974	0.0124710
869.052	0.0125253
869.130	0.0124670
869.208	0.0125217
869.286	0.0125259
869.364	0.0123717
869.443	0.0123233
869.521	0.0123919
869.599	0.0124652
869.677	0.0122415
869.755	0.0122614
869.833	0.0123561
869.911	0.0122244
869.989	0.0121842
870.068	0.0122874
870.146	0.0122437
870.224	0.0122624
870.302	0.0122052
870.380	0.0122116
870.458	0.0122843
870.536	0.0122417
870.614	0.0121677
870.693	0.0123566
870.771	0.0121880
870.849	0.0122364
870.927	0.0122179
871.005	0.0121837
871.083	0.0123158
871.161	0.0123100
871.239	0.0122950
871.318	0.0122800
871.396	0.0125319
871.474	0.0124017
871.552	0.0124561
871.630	0.0123084
871.708	0.0123589
871.786	0.0123920
871.864	0.0123188
871.943	0.0124836
872.021	0.0124406
872.099	0.0124371
872.177	0.0123466
872.255	0.0124210
872.333	0.0124731
872.411	0.0124766
872.489	0.0125512
872.568	0.0125143
872.646	0.0124261
872.724	0.0124572
872.802	0.0125086
872.880	0.0125253
872.958	0.0126113
873.036	0.0125504
873.114	0.0125423
873.193	0.0124478
873.271	0.0126047
873.349	0.0125330
873.427	0.0124344
873.505	0.0124821
873.583	0.0125746
873.661	0.0123897
873.739	0.0123451
873.818	0.0124969
873.896	0.0123192
873.974	0.0122480
874.052	0.0122477
874.130	0.0122568
874.208	0.0121655
874.286	0.0122191
874.364	0.0122176
874.443	0.0122160
874.521	0.0120971
874.599	0.0120535
874.677	0.0121388
874.755	0.0120635
874.833	0.0120884
874.911	0.0120744
874.989	0.0120227
875.068	0.0120987
875.146	0.0121638
875.224	0.0123059
875.302	0.0122897
875.380	0.0123440
875.458	0.0122737
875.536	0.0123061
875.614	0.0123941
875.693	0.0124422
875.771	0.0124629
875.849	0.0125574
875.927	0.0124485
876.005	0.0126331
876.083	0.0127398
876.161	0.0126862
876.239	0.0126369
876.318	0.0126623
876.396	0.0127737
876.474	0.0126774
876.552	0.0127827
876.630	0.0127409
876.708	0.0126234
876.786	0.0126249
876.864	0.0126012
876.943	0.0125771
877.021	0.0125819
877.099	0.0127806
877.177	0.0125001
877.255	0.0125102
877.333	0.0126686
877.411	0.0126601
877.489	0.0124818
877.568	0.0125797
877.646	0.0125229
877.724	0.0124062
877.802	0.0123708
877.880	0.0123206
877.958	0.0123547
878.036	0.0122154
878.114	0.0122243
878.193	0.0122665
878.271	0.0122484
878.349	0.0122789
878.427	0.0122441
878.505	0.0122293
878.583	0.0122752
878.661	0.0121979
878.739	0.0122419
878.818	0.0121449
878.896	0.0121982
878.974	0.0120468
879.052	0.0121680
879.130	0.0122748
879.208	0.0121482
879.286	0.0122118
879.364	0.0122158
879.443	0.0121827
879.521	0.0121296
879.599	0.0121915
879.677	0.0122336
879.755	0.0123237
879.833	0.0122435
879.911	0.0124162
879.989	0.0123126
880.068	0.0123920
880.146	0.0125103
880.224	0.0126912
880.302	0.0127525
880.380	0.0127280
880.458	0.0126376
880.536	0.0127808
880.614	0.0126324
880.693	0.0127544
880.771	0.0128516
880.849	0.0129066
880.927	0.0128361
881.005	0.0129611
881.083	0.0129441
881.161	0.0128164
881.239	0.0126787
881.318	0.0127471
881.396	0.0127156
881.474	0.0128501
881.552	0.0127930
881.630	0.0126594
881.708	0.0126430
881.786	0.0125690
881.864	0.0124004
881.943	0.0123780
882.021	0.0124895
882.099	0.0124083
882.177	0.0123051
882.255	0.0122412
882.333	0.0122478
882.411	0.0122044
882.489	0.0121956
882.568	0.0121645
882.646	0.0121728
882.724	0.0120920
882.802	0.0121831
882.880	0.0120663
882.958	0.0121677
883.036	0.0120547
883.114	0.0121509
883.193	0.0122147
883.271	0.0122537
883.349	0.0122685
883.427	0.0122559
883.505	0.0123222
883.583	0.0122849
883.661	0.0122784
883.739	0.0124625
883.818	0.0124399
883.896	0.0123565
883.974	0.0123209
884.052	0.0126554
884.130	0.0125869
884.208	0.0125524
884.286	0.0125640
884.364	0.0126940
884.443	0.0127690
884.521	0.0125451
884.599	0.0126495
884.677	0.0126340
884.755	0.0126526
884.833	0.0125646
884.911	0.0125717
884.989	0.0126547
885.068	0.0126225
885.146	0.0126558
885.224	0.0126386
885.302	0.0125462
885.380	0.0126211
885.458	0.0126417
885.536	0.0125592
885.614	0.0125916
885.693	0.0125602
885.771	0.0124374
885.849	0.0125215
885.927	0.0124403
886.005	0.0124847
886.083	0.0124257
886.161	0.0124249
886.239	0.0122099
886.318	0.0122718
886.396	0.0122140
886.474	0.0123679
886.552	0.0122740
886.630	0.0122306
886.708	0.0122784
886.786	0.0122389
886.864	0.0120927
886.943	0.0121928
887.021	0.0122930
887.099	0.0122098
887.177	0.0122865
887.255	0.0122485
887.333	0.0122935
887.411	0.0123792
887.489	0.0122728
887.568	0.0123840
887.646	0.0122641
887.724	0.0123577
887.802	0.0124080
887.880	0.0125325
887.958	0.0126234
888.036	0.0126138
888.114	0.0125565
888.193	0.0125426
888.271	0.0125289
888.349	0.0124923
888.427	0.0125891
888.505	0.0128473
888.583	0.0126571
888.661	0.0125280
888.739	0.0126600
888.818	0.0125846
888.896	0.0126948
888.974	0.0126134
889.052	0.0124825
889.130	0.0125755
889.208	0.0124545
889.286	0.0124742
889.364	0.0123271
889.443	0.0124551
889.521	0.0123355
889.599	0.0123948
889.677	0.0123169
889.755	0.0122996
889.833	0.0121837
889.911	0.0121404
889.989	0.0121843
890.068	0.0122159
890.146	0.0120840
890.224	0.0122569
890.302	0.0121432
890.380	0.0121474
890.458	0.0120494
890.536	0.0121751
890.614	0.0120488
890.693	0.0122302
890.771	0.0123869
890.849	0.0123750
890.927	0.0122399
891.005	0.0123672
891.083	0.0123642
891.161	0.0125452
891.239	0.0124662
891.318	0.0124416
891.396	0.0126202
891.474	0.0125335
891.552	0.0124870
891.630	0.0127017
891.708	0.0126740
891.786	0.0126257
891.864	0.0126760
891.943	0.0125574
892.021	0.0126234
892.099	0.0126295
892.177	0.0125435
892.255	0.0124928
892.333	0.0124380
892.411	0.0124751
892.489	0.0125441
892.568	0.0125996
892.646	0.0124381
892.724	0.0123359
892.802	0.0124149
892.880	0.0123566
892.958	0.0124239
893.036	0.0124455
893.114	0.0123834
893.193	0.0125031
893.271	0.0123712
893.349	0.0124931
893.427	0.0124171
893.505	0.0121623
893.583	0.0123527
893.661	0.0123705
893.739	0.0122548
893.818	0.0124110
893.896	0.0125021
893.974	0.0124859
894.052	0.0123959
894.130	0.0123313
894.208	0.0123363
894.286	0.0124597
894.364	0.0124014
894.443	0.0124274
894.521	0.0123754
894.599	0.0122933
894.677	0.0123998
894.755	0.0122642
894.833	0.0123264
894.911	0.0122944
894.989	0.0122503
895.068	0.0122305
895.146	0.0121874
895.224	0.0122318
895.302	0.0120835
895.380	0.0121903
895.458	0.0121246
895.536	0.0122112
895.614	0.0122324
895.693	0.0121832
895.771	0.0122186
895.849	0.0121319
895.927	0.0121516
896.005	0.0122331
896.083	0.0122665
896.161	0.0122642
896.239	0.0122029
896.318	0.0121727
896.396	0.0123619
896.474	0.0122957
896.552	0.0124387
896.630	0.0123456
896.708	0.0124300
896.786	0.0124681
896.864	0.0125615
896.943	0.0126053
897.021	0.0125314
897.099	0.0124294
897.177	0.0125259
897.255	0.0126205
897.333	0.0126279
897.411	0.0126268
897.489	0.0126116
897.568	0.0125717
897.646	0.0125957
897.724	0.0124786
897.802	0.0124371
897.880	0.0124343
897.958	0.0124448
898.036	0.0123345
898.114	0.0123667
898.193	0.0122074
898.271	0.0123000
898.349	0.0122468
898.427	0.0122504
898.505	0.0121349
898.583	0.0121671
898.661	0.0121945
898.739	0.0120873
898.818	0.0120114
898.896	0.0120947
898.974	0.0121519
899.052	0.0121434
899.130	0.0120926
899.208	0.0120200
899.286	0.0120631
899.364	0.0121186
899.443	0.0121915
899.521	0.0122592
899.599	0.0120449
899.677	0.0121835
899.755	0.0123052
899.833	0.0122757
899.911	0.0123639
899.989	0.0123996
900.068	0.0123410
900.146	0.0124372
900.224	0.0125270
900.302	0.0125768
900.380	0.0125038
900.458	0.0125242
900.536	0.0125594
900.614	0.0125182
900.693	0.0126053
900.771	0.0126534
900.849	0.0127084
900.927	0.0125696
901.005	0.0126607
901.083	0.0125475
901.161	0.0125266
901.239	0.0125044
901.318	0.0123714
901.396	0.0124684
901.474	0.0125845
901.552	0.0124033
901.630	0.0122349
901.708	0.0122942
901.786	0.0124188
901.864	0.0123221
901.943	0.0123306
902.021	0.0124431
902.099	0.0124361
902.177	0.0122060
902.255	0.0123241
902.333	0.0123634
902.411	0.0122646
902.489	0.0122897
902.568	0.0122101
902.646	0.0123973
902.724	0.0123837
902.802	0.0122836
902.880	0.0123312
902.958	0.0122297
903.036	0.0122758
903.114	0.0123352
903.193	0.0123262
903.271	0.0123531
903.349	0.0122916
903.427	0.0122983
903.505	0.0121993
903.583	0.0122219
903.661	0.0123727
903.739	0.0122790
903.818	0.0122501
903.896	0.0124409
903.974	0.0123278
904.052	0.0123368
904.130	0.0123817
904.208	0.0123391
904.286	0.0125663
904.364	0.0126497
904.443	0.0125037
904.521	0.0126186
904.599	0.0126427
904.677	0.0127341
904.755	0.0124895
904.833	0.0126674
904.911	0.0126613
904.989	0.0125798
905.068	0.0126156
905.146	0.0126337
905.224	0.0127214
905.302	0.0125949
905.380	0.0126176
905.458	0.0126100
905.536	0.0125465
905.614	0.0125848
905.693	0.0126025
905.771	0.0125584
905.849	0.0125913
905.927	0.0125266
906.005	0.0125587
906.083	0.0125513
906.161	0.0124433
906.239	0.0124319
906.318	0.0123761
906.396	0.0123767
906.474	0.0124155
906.552	0.0122719
906.630	0.0123177
906.708	0.0123022
906.786	0.0122065
906.864	0.0121871
906.943	0.0123403
907.021	0.0122762
907.099	0.0121915
907.177	0.0121730
907.255	0.0122135
907.333	0.0122294
907.411	0.0122633
907.489	0.0121959
907.568	0.0122031
907.646	0.0122423
907.724	0.0122779
907.802	0.0122847
907.880	0.0122457
907.958	0.0123536
908.036	0.0125679
908.114	0.0123457
908.193	0.0123933
908.271	0.0124635
908.349	0.0125062
908.427	0.0126085
908.505	0.0125891
908.583	0.0125799
908.661	0.0123973
908.739	0.0125282
908.818	0.0126167
908.896	0.0126560
908.974	0.0126611
909.052	0.0125388
909.130	0.0124551
909.208	0.0123694
909.286	0.0126328
909.364	0.0124973
909.443	0.0126169
909.521	0.0125709
909.599	0.0126415
909.677	0.0126058
909.755	0.0125780
909.833	0.0125103
909.911	0.0124303
909.989	0.0125259
910.068	0.0125836
910.146	0.0125506
910.224	0.0124173
910.302	0.0124586
910.380	0.0125578
910.458	0.0125716
910.536	0.0125288
910.614	0.0124693
910.693	0.0125145
910.771	0.0124413
910.849	0.0124487
910.927	0.0125514
911.005	0.0124936
911.083	0.0124754
911.161	0.0125526
911.239	0.0124682
911.318	0.0125239
911.396	0.0125558
911.474	0.0126415
911.552	0.0124290
911.630	0.0124428
911.708	0.0123460
911.786	0.0124021
911.864	0.0124339
911.943	0.0125397
912.021	0.0124362
912.099	0.0125121
912.177	0.0125235
912.255	0.0122161
912.333	0.0124040
912.411	0.0123943
912.489	0.0124007
912.568	0.0123299
912.646	0.0124596
912.724	0.0122499
912.802	0.0123026
912.880	0.0123782
912.958	0.0123683
913.036	0.0124570
913.114	0.0124299
913.193	0.0124181
913.271	0.0124107
913.349	0.0123446
913.427	0.0124281
913.505	0.0123570
913.583	0.0123660
913.661	0.0123866
913.739	0.0124468
913.818	0.0123461
913.896	0.0123707
913.974	0.0122429
914.052	0.0122635
914.130	0.0122839
914.208	0.0121638
914.286	0.0122891
914.364	0.0122208
914.443	0.0121684
914.521	0.0121500
914.599	0.0122517
914.677	0.0122897
914.755	0.0123081
914.833	0.0124134
914.911	0.0121986
914.989	0.0124572
915.068	0.0124277
915.146	0.0123894
915.224	0.0124220
915.302	0.0123968
915.380	0.0124493
915.458	0.0124705
915.536	0.0125177
915.614	0.0126092
915.693	0.0126575
915.771	0.0126190
915.849	0.0127309
915.927	0.0125787
916.005	0.0126246
916.083	0.0126943
916.161	0.0127419
916.239	0.0126044
916.318	0.0127642
916.396	0.0127231
916.474	0.0127392
916.552	0.0126210
916.630	0.0125885
916.708	0.0125309
916.786	0.0125986
916.864	0.0124850
916.943	0.0125481
917.021	0.0124788
917.099	0.0121779
917.177	0.0124422
917.255	0.0122163
917.333	0.0122576
917.411	0.0121867
917.489	0.0120782
917.568	0.0120981
917.646	0.0121162
917.724	0.0120144
917.802	0.0120617
917.880	0.0120654
917.958	0.0119602
918.036	0.0120522
918.114	0.0120650
918.193	0.0122094
918.271	0.0121085
918.349	0.0121873
918.427	0.0122095
918.505	0.0120336
918.583	0.0121635
918.661	0.0122390
918.739	0.0121252
918.818	0.0123576
918.896	0.0122803
918.974	0.0122110
919.052	0.0124796
919.130	0.0123116
919.208	0.0123431
919.286	0.0122874
919.364	0.0123764
919.443	0.0124017
919.521	0.0125331
919.599	0.0123203
919.677	0.0124049
919.755	0.0124574
919.833	0.0122966
919.911	0.0123556
919.989	0.0124290
920.068	0.0124271
920.146	0.0123277
920.224	0.0124273
920.302	0.0124141
920.380	0.0123036
920.458	0.0124487
920.536	0.0123946
920.614	0.0123953
920.693	0.0124077
920.771	0.0123557
920.849	0.0124754
920.927	0.0124528
921.005	0.0124590
921.083	0.0124842
921.161	0.0124883
921.239	0.0125569
921.318	0.0124469
921.396	0.0125100
921.474	0.0126472
921.552	0.0125219
921.630	0.0123891
921.708	0.0124604
921.786	0.0125293
921.864	0.0123447
921.943	0.0123305
922.021	0.0124034
922.099	0.0124349
922.177	0.0124145
922.255	0.0123646
922.333	0.0124050
922.411	0.0123810
922.489	0.0123064
922.568	0.0123965
922.646	0.0122206
922.724	0.0122038
922.802	0.0122222
922.880	0.0122365
922.958	0.0124073
923.036	0.0123232
923.114	0.0123523
923.193	0.0121304
923.271	0.0123450
923.349	0.0122909
923.427	0.0123428
923.505	0.0123703
923.583	0.0122243
923.661	0.0124728
923.739	0.0124384
923.818	0.0123595
923.896	0.0123058
923.974	0.0124394
924.052	0.0123651
924.130	0.0123465
924.208	0.0125675
924.286	0.0124198
924.364	0.0126312
924.443	0.0124780
924.521	0.0124774
924.599	0.0125031
924.677	0.0125205
924.755	0.0124694
924.833	0.0124069
924.911	0.0125743
924.989	0.0125429
925.068	0.0126596
925.146	0.0125814
925.224	0.0124461
925.302	0.0124109
925.380	0.0125975
925.458	0.0125479
925.536	0.0124380
925.614	0.0124722
925.693	0.0124551
925.771	0.0123370
925.849	0.0123335
925.927	0.0123826
926.005	0.0121635
926.083	0.0121915
926.161	0.0124260
926.239	0.0123106
926.318	0.0124112
926.396	0.0123341
926.474	0.0122159
926.552	0.0122881
926.630	0.0122404
926.708	0.0123312
926.786	0.0123521
926.864	0.0123457
926.943	0.0123295
927.021	0.0124498
927.099	0.0123871
927.177	0.0123260
927.255	0.0123681
927.333	0.0124449
927.411	0.0124412
927.489	0.0125142
927.568	0.0123802
927.646	0.0124496
927.724	0.0123882
927.802	0.0126126
927.880	0.0124040
927.958	0.0124332
928.036	0.0124933
928.114	0.0124778
928.193	0.0123353
928.271	0.0124557
928.349	0.0123373
928.427	0.0125307
928.505	0.0125581
928.583	0.0123799
928.661	0.0124058
928.739	0.0124065
928.818	0.0124553
928.896	0.0124792
928.974	0.0125471
929.052	0.0125672
929.130	0.0125489
929.208	0.0126228
929.286	0.0125362
929.364	0.0124541
929.443	0.0125156
929.521	0.0125858
929.599	0.0125901
929.677	0.0126440
929.755	0.0126410
929.833	0.0125674
929.911	0.0125808
929.989	0.0126842
930.068	0.0124641
930.146	0.0126607
930.224	0.0125588
930.302	0.0123869
930.380	0.0123959
930.458	0.0124931
930.536	0.0124783
930.614	0.0122768
930.693	0.0124300
930.771	0.0124030
930.849	0.0123689
930.927	0.0123650
931.005	0.0123137
931.083	0.0123608
931.161	0.0122070
931.239	0.0122059
931.318	0.0123006
931.396	0.0122825
931.474	0.0122923
931.552	0.0122072
931.630	0.0122100
931.708	0.0122791
931.786	0.0122602
931.864	0.0124738
931.943	0.0123044
932.021	0.0122730
932.099	0.0124357
932.177	0.0124121
932.255	0.0122543
932.333	0.0123650
932.411	0.0124047
932.489	0.0126339
932.568	0.0125457
932.646	0.0123953
932.724	0.0124203
932.802	0.0124474
932.880	0.0125387
932.958	0.0125703
933.036	0.0125359
933.114	0.0125166
933.193	0.0125918
933.271	0.0125482
933.349	0.0125003
933.427	0.0124002
933.505	0.0125368
933.583	0.0125008
933.661	0.0125594
933.739	0.0126092
933.818	0.0124625
933.896	0.0123840
933.974	0.0125391
934.052	0.0125588
934.130	0.0124757
934.208	0.0124315
934.286	0.0124034
934.364	0.0124223
934.443	0.0125160
934.521	0.0123001
934.599	0.0123260
934.677	0.0123332
934.755	0.0124883
934.833	0.0124268
934.911	0.0123618
934.989	0.0123827
935.068	0.0125262
935.146	0.0124376
935.224	0.0125241
935.302	0.0125354
935.380	0.0123939
935.458	0.0125871
935.536	0.0126260
935.614	0.0125755
935.693	0.0125759
935.771	0.0125273
935.849	0.0124576
935.927	0.0125431
936.005	0.0124786
936.083	0.0126501
936.161	0.0124710
936.239	0.0124408
936.318	0.0125314
936.396	0.0124958
936.474	0.0125089
936.552	0.0123157
936.630	0.0124255
936.708	0.0124603
936.786	0.0122700
936.864	0.0124152
936.943	0.0124325
937.021	0.0124600
937.099	0.0124515
937.177	0.0124796
937.255	0.0123122
937.333	0.0122557
937.411	0.0123005
937.489	0.0125819
937.568	0.0123674
937.646	0.0124184
937.724	0.0124166
937.802	0.0125529
937.880	0.0125582
937.958	0.0124587
938.036	0.0125044
938.114	0.0125040
938.193	0.0124326
938.271	0.0124364
938.349	0.0123741
938.427	0.0124513
938.505	0.0124680
938.583	0.0124525
938.661	0.0125421
938.739	0.0125121
938.818	0.0125307
938.896	0.0125426
938.974	0.0124985
939.052	0.0124981
939.130	0.0125387
939.208	0.0124761
939.286	0.0124293
939.364	0.0124033
939.443	0.0123431
939.521	0.0123052
939.599	0.0124784
939.677	0.0122615
939.755	0.0122418
939.833	0.0123265
939.911	0.0123080
939.989	0.0122230
940.068	0.0120911
940.146	0.0121813
940.224	0.0122044
940.302	0.0121754
940.380	0.0123021
940.458	0.0124097
940.536	0.0123903
940.614	0.0123945
940.693	0.0124426
940.771	0.0123410
940.849	0.0124123
940.927	0.0125257
941.005	0.0124292
941.083	0.0124094
941.161	0.0125228
941.239	0.0125581
941.318	0.0123458
941.396	0.0123826
941.474	0.0124731
941.552	0.0123994
941.630	0.0125014
941.708	0.0124332
941.786	0.0124783
941.864	0.0124683
941.943	0.0122794
942.021	0.0123647
942.099	0.0126017
942.177	0.0123280
942.255	0.0123853
942.333	0.0122789
942.411	0.0123209
942.489	0.0123471
942.568	0.0123950
942.646	0.0123108
942.724	0.0122707
942.802	0.0122342
942.880	0.0122565
942.958	0.0124252
943.036	0.0123255
943.114	0.0123657
943.193	0.0123401
943.271	0.0123788
943.349	0.0123335
943.427	0.0124298
943.505	0.0124677
943.583	0.0125035
943.661	0.0124088
943.739	0.0125404
943.818	0.0125619
943.896	0.0125323
943.974	0.0123013
944.052	0.0124525
944.130	0.0124492
944.208	0.0122048
944.286	0.0123562
944.364	0.0124356
944.443	0.0123315
944.521	0.0123682
944.599	0.0122890
944.677	0.0123764
944.755	0.0123076
944.833	0.0123426
944.911	0.0123742
944.989	0.0122895
945.068	0.0123442
945.146	0.0122495
945.224	0.0122433
945.302	0.0123499
945.380	0.0123508
945.458	0.0123068
945.536	0.0122935
945.614	0.0123507
945.693	0.0121757
945.771	0.0122382
945.849	0.0122507
945.927	0.0123135
946.005	0.0122605
946.083	0.0123496
946.161	0.0123026
946.239	0.0123245
946.318	0.0124013
946.396	0.0123162
946.474	0.0123515
946.552	0.0124580
946.630	0.0125814
946.708	0.0123976
946.786	0.0124454
946.864	0.0124414
946.943	0.0124298
947.021	0.0125063
947.099	0.0125367
947.177	0.0125908
947.255	0.0124801
947.333	0.0125964
947.411	0.0125948
947.489	0.0124602
947.568	0.0124303
947.646	0.0123657
947.724	0.0125512
947.802	0.0125572
947.880	0.0122879
947.958	0.0123557
948.036	0.0123796
948.114	0.0122533
948.193	0.0122649
948.271	0.0124068
948.349	0.0124347
948.427	0.0123091
948.505	0.0122488
948.583	0.0122666
948.661	0.0123100
948.739	0.0122150
948.818	0.0123650
948.896	0.0124306
948.974	0.0122688
949.052	0.0122521
949.130	0.0121523
949.208	0.0123248
949.286	0.0123517
949.364	0.0122403
949.443	0.0124277
949.521	0.0122602
949.599	0.0123023
949.677	0.0123904
949.755	0.0123075
949.833	0.0122507
949.911	0.0122247
949.989	0.0123969
950.068	0.0123769
950.146	0.0123899
950.224	0.0124131
950.302	0.0123147
950.380	0.0124093
950.458	0.0123598
950.536	0.0124097
950.614	0.0124426
950.693	0.0124335
950.771	0.0124144
950.849	0.0124404
950.927	0.0122595
951.005	0.0124246
951.083	0.0124944
951.161	0.0124226
951.239	0.0124254
951.318	0.0123296
951.396	0.0123988
951.474	0.0124129
951.552	0.0125221
951.630	0.0123470
951.708	0.0123228
951.786	0.0122491
951.864	0.0124752
951.943	0.0124374
952.021	0.0123547
952.099	0.0122939
952.177	0.0123433
952.255	0.0123830
952.333	0.0124069
952.411	0.0123029
952.489	0.0125017
952.568	0.0123306
952.646	0.0123453
952.724	0.0123250
952.802	0.0122942
952.880	0.0123262
952.958	0.0123840
953.036	0.0123276
953.114	0.0123229
953.193	0.0123364
953.271	0.0124033
953.349	0.0123875
953.427	0.0122885
953.505	0.0121993
953.583	0.0124216
953.661	0.0123598
953.739	0.0123002
953.818	0.0123936
953.896	0.0124860
953.974	0.0124328
954.052	0.0124058
954.130	0.0123180
954.208	0.0122594
954.286	0.0123376
954.364	0.0125195
954.443	0.0124141
954.521	0.0123592
954.599	0.0122906
954.677	0.0124551
954.755	0.0124166
954.833	0.0123927
954.911	0.0125817
954.989	0.0124498
955.068	0.0123618
955.146	0.0125230
955.224	0.0124571
955.302	0.0123973
955.380	0.0125374
955.458	0.0124701
955.536	0.0125858
955.614	0.0125895
955.693	0.0124939
955.771	0.0125805
955.849	0.0125002
955.927	0.0124863
956.005	0.0125872
956.083	0.0125587
956.161	0.0124149
956.239	0.0123819
956.318	0.0123771
956.396	0.0124648
956.474	0.0124015
956.552	0.0124176
956.630	0.0124081
956.708	0.0124541
956.786	0.0124033
956.864	0.0123629
956.943	0.0124510
957.021	0.0123882
957.099	0.0124168
957.177	0.0123516
957.255	0.0123899
957.333	0.0123588
957.411	0.0123687
957.489	0.0122734
957.568	0.0124713
957.646	0.0124260
957.724	0.0123667
957.802	0.0123424
957.880	0.0123750
957.958	0.0123909
958.036	0.0122475
958.114	0.0122789
958.193	0.0123491
958.271	0.0124033
958.349	0.0122619
958.427	0.0121899
958.505	0.0123424
958.583	0.0124099
958.661	0.0122647
958.739	0.0122752
958.818	0.0123595
958.896	0.0124347
958.974	0.0123615
959.052	0.0122272
959.130	0.0122373
959.208	0.0124163
959.286	0.0124986
959.364	0.0124542
959.443	0.0123199
959.521	0.0123574
959.599	0.0124924
959.677	0.0124039
959.755	0.0123863
959.833	0.0125102
959.911	0.0123931
