05/07/2022	17:28:28	Ver.	4.1	UNKNOWN
Optical Delay	639.989416	Delta X		0.078125	Sweeps	1	Scan Rate	0/0
Coordinates	Axis 1	NaN	Axis 2	NaN	Axis 3	NaN	Axis 4	NaN	Axis 5	NaN	Axis 6	0.000000
TX Power	0.000000	RX Power	0.000000

639.989	0.0133045
640.068	0.0133892
640.146	0.0132870
640.224	0.0132914
640.302	0.0132317
640.380	0.0132642
640.458	0.0132223
640.536	0.0132578
640.614	0.0131246
640.693	0.0132022
640.771	0.0133394
640.849	0.0132296
640.927	0.0132560
641.005	0.0133400
641.083	0.0131580
641.161	0.0132876
641.239	0.0131740
641.318	0.0134417
641.396	0.0134457
641.474	0.0132531
641.552	0.0133271
641.630	0.0132977
641.708	0.0132383
641.786	0.0131369
641.864	0.0133313
641.943	0.0132397
642.021	0.0132314
642.099	0.0132201
642.177	0.0132431
642.255	0.0132359
642.333	0.0132532
642.411	0.0132895
642.489	0.0132993
642.568	0.0131833
642.646	0.0132536
642.724	0.0132942
642.802	0.0133345
642.880	0.0132236
642.958	0.0131626
643.036	0.0132488
643.114	0.0132641
643.193	0.0133530
643.271	0.0132394
643.349	0.0131847
643.427	0.0132651
643.505	0.0133786
643.583	0.0132632
643.661	0.0131737
643.739	0.0132213
643.818	0.0132423
643.896	0.0131339
643.974	0.0132267
644.052	0.0132181
644.130	0.0132374
644.208	0.0132157
644.286	0.0132508
644.364	0.0133569
644.443	0.0132333
644.521	0.0131617
644.599	0.0132886
644.677	0.0133578
644.755	0.0132842
644.833	0.0133749
644.911	0.0132629
644.989	0.0132246
645.068	0.0132292
645.146	0.0130746
645.224	0.0132508
645.302	0.0133595
645.380	0.0131946
645.458	0.0132654
645.536	0.0132098
645.614	0.0133299
645.693	0.0132001
645.771	0.0131932
645.849	0.0133270
645.927	0.0133414
646.005	0.0133075
646.083	0.0132417
646.161	0.0132712
646.239	0.0132256
646.318	0.0133189
646.396	0.0132580
646.474	0.0132789
646.552	0.0131320
646.630	0.0131684
646.708	0.0131750
646.786	0.0131935
646.864	0.0131129
646.943	0.0133034
647.021	0.0130574
647.099	0.0131593
647.177	0.0133559
647.255	0.0130486
647.333	0.0131813
647.411	0.0132064
647.489	0.0131586
647.568	0.0131300
647.646	0.0133696
647.724	0.0132336
647.802	0.0131810
647.880	0.0132424
647.958	0.0132400
648.036	0.0133571
648.114	0.0132523
648.193	0.0133178
648.271	0.0133823
648.349	0.0133440
648.427	0.0133192
648.505	0.0131614
648.583	0.0131554
648.661	0.0132214
648.739	0.0134435
648.818	0.0132507
648.896	0.0132179
648.974	0.0131852
649.052	0.0132861
649.130	0.0131610
649.208	0.0131474
649.286	0.0130898
649.364	0.0131659
649.443	0.0131870
649.521	0.0131753
649.599	0.0132029
649.677	0.0132245
649.755	0.0131931
649.833	0.0131593
649.911	0.0132060
649.989	0.0131548
650.068	0.0131003
650.146	0.0131913
650.224	0.0131284
650.302	0.0132401
650.380	0.0132161
650.458	0.0131833
650.536	0.0134081
650.614	0.0132647
650.693	0.0132847
650.771	0.0133973
650.849	0.0133448
650.927	0.0134985
651.005	0.0134109
651.083	0.0134621
651.161	0.0134646
651.239	0.0132895
651.318	0.0134191
651.396	0.0132932
651.474	0.0133257
651.552	0.0131535
651.630	0.0132246
651.708	0.0132645
651.786	0.0131404
651.864	0.0130844
651.943	0.0130247
652.021	0.0130025
652.099	0.0130598
652.177	0.0129527
652.255	0.0129633
652.333	0.0128436
652.411	0.0127899
652.489	0.0127847
652.568	0.0129760
652.646	0.0129907
652.724	0.0130007
652.802	0.0130238
652.880	0.0130942
652.958	0.0131591
653.036	0.0131580
653.114	0.0132152
653.193	0.0131510
653.271	0.0134267
653.349	0.0135172
653.427	0.0136488
653.505	0.0135820
653.583	0.0135393
653.661	0.0137314
653.739	0.0136179
653.818	0.0138147
653.896	0.0138409
653.974	0.0138365
654.052	0.0137357
654.130	0.0135715
654.208	0.0136080
654.286	0.0135148
654.364	0.0134770
654.443	0.0133205
654.521	0.0132331
654.599	0.0130713
654.677	0.0130984
654.755	0.0129572
654.833	0.0128063
654.911	0.0127602
654.989	0.0126945
655.068	0.0126188
655.146	0.0125110
655.224	0.0125833
655.302	0.0124010
655.380	0.0125070
655.458	0.0125508
655.536	0.0126897
655.614	0.0125899
655.693	0.0125938
655.771	0.0129133
655.849	0.0129478
655.927	0.0130721
656.005	0.0131704
656.083	0.0133150
656.161	0.0134927
656.239	0.0134970
656.318	0.0138036
656.396	0.0138026
656.474	0.0140220
656.552	0.0141177
656.630	0.0141591
656.708	0.0140988
656.786	0.0141856
656.864	0.0143003
656.943	0.0142499
657.021	0.0142880
657.099	0.0142320
657.177	0.0141233
657.255	0.0141590
657.333	0.0139574
657.411	0.0137607
657.489	0.0136344
657.568	0.0132719
657.646	0.0130494
657.724	0.0130952
657.802	0.0127613
657.880	0.0127393
657.958	0.0122967
658.036	0.0123866
658.114	0.0120930
658.193	0.0121626
658.271	0.0118955
658.349	0.0119540
658.427	0.0120533
658.505	0.0119689
658.583	0.0119364
658.661	0.0120319
658.739	0.0122124
658.818	0.0123219
658.896	0.0123508
658.974	0.0125978
659.052	0.0126315
659.130	0.0129305
659.208	0.0132150
659.286	0.0132786
659.364	0.0136449
659.443	0.0137642
659.521	0.0140438
659.599	0.0140904
659.677	0.0141422
659.755	0.0141352
659.833	0.0142667
659.911	0.0144031
659.989	0.0142919
660.068	0.0143367
660.146	0.0144419
660.224	0.0143510
660.302	0.0141026
660.380	0.0142419
660.458	0.0142085
660.536	0.0140865
660.614	0.0138627
660.693	0.0137383
660.771	0.0136411
660.849	0.0136180
660.927	0.0135506
661.005	0.0132184
661.083	0.0129827
661.161	0.0129707
661.239	0.0127933
661.318	0.0127226
661.396	0.0124335
661.474	0.0123526
661.552	0.0124271
661.630	0.0123304
661.708	0.0123672
661.786	0.0122873
661.864	0.0122166
661.943	0.0123263
662.021	0.0124792
662.099	0.0124349
662.177	0.0124533
662.255	0.0124368
662.333	0.0124695
662.411	0.0125591
662.489	0.0125590
662.568	0.0127608
662.646	0.0127751
662.724	0.0128598
662.802	0.0130271
662.880	0.0130717
662.958	0.0131936
663.036	0.0132764
663.114	0.0132800
663.193	0.0133827
663.271	0.0135472
663.349	0.0136227
663.427	0.0136371
663.505	0.0138953
663.583	0.0138705
663.661	0.0138407
663.739	0.0138708
663.818	0.0139425
663.896	0.0141179
663.974	0.0139122
664.052	0.0138943
664.130	0.0140813
664.208	0.0140606
664.286	0.0140344
664.364	0.0138819
664.443	0.0138786
664.521	0.0139541
664.599	0.0138175
664.677	0.0137458
664.755	0.0135636
664.833	0.0135705
664.911	0.0135159
664.989	0.0135443
665.068	0.0134660
665.146	0.0134552
665.224	0.0132527
665.302	0.0131293
665.380	0.0131046
665.458	0.0131001
665.536	0.0129443
665.614	0.0128888
665.693	0.0128076
665.771	0.0127367
665.849	0.0126267
665.927	0.0124398
666.005	0.0124019
666.083	0.0124569
666.161	0.0122895
666.239	0.0121712
666.318	0.0122749
666.396	0.0121584
666.474	0.0122376
666.552	0.0121667
666.630	0.0122918
666.708	0.0124423
666.786	0.0124957
666.864	0.0125662
666.943	0.0126207
667.021	0.0129224
667.099	0.0129075
667.177	0.0131401
667.255	0.0133743
667.333	0.0136368
667.411	0.0136757
667.489	0.0137736
667.568	0.0140150
667.646	0.0140838
667.724	0.0142104
667.802	0.0141960
667.880	0.0144757
667.958	0.0144583
668.036	0.0144741
668.114	0.0144116
668.193	0.0143590
668.271	0.0143544
668.349	0.0142242
668.427	0.0140680
668.505	0.0139361
668.583	0.0137003
668.661	0.0136519
668.739	0.0135571
668.818	0.0133109
668.896	0.0132742
668.974	0.0130667
669.052	0.0128645
669.130	0.0128096
669.208	0.0127216
669.286	0.0125797
669.364	0.0123970
669.443	0.0123998
669.521	0.0122722
669.599	0.0122534
669.677	0.0123334
669.755	0.0124513
669.833	0.0124847
669.911	0.0125141
669.989	0.0126379
670.068	0.0128272
670.146	0.0129130
670.224	0.0131969
670.302	0.0132664
670.380	0.0134783
670.458	0.0136388
670.536	0.0136066
670.614	0.0138153
670.693	0.0137789
670.771	0.0137906
670.849	0.0138505
670.927	0.0139532
671.005	0.0137993
671.083	0.0137613
671.161	0.0135036
671.239	0.0135368
671.318	0.0135153
671.396	0.0132314
671.474	0.0130779
671.552	0.0130181
671.630	0.0128821
671.708	0.0125204
671.786	0.0124024
671.864	0.0125368
671.943	0.0124200
672.021	0.0123994
672.099	0.0124336
672.177	0.0123994
672.255	0.0124595
672.333	0.0126278
672.411	0.0127016
672.489	0.0127306
672.568	0.0129176
672.646	0.0131615
672.724	0.0131541
672.802	0.0134920
672.880	0.0136313
672.958	0.0136338
673.036	0.0136488
673.114	0.0137582
673.193	0.0138367
673.271	0.0140005
673.349	0.0139277
673.427	0.0140205
673.505	0.0138807
673.583	0.0139809
673.661	0.0140005
673.739	0.0137777
673.818	0.0138829
673.896	0.0137291
673.974	0.0136700
674.052	0.0136830
674.130	0.0135335
674.208	0.0133380
674.286	0.0131892
674.364	0.0133237
674.443	0.0131985
674.521	0.0129933
674.599	0.0129160
674.677	0.0129623
674.755	0.0128214
674.833	0.0128420
674.911	0.0128777
674.989	0.0128880
675.068	0.0130092
675.146	0.0131539
675.224	0.0130261
675.302	0.0132142
675.380	0.0132978
675.458	0.0133961
675.536	0.0135112
675.614	0.0135388
675.693	0.0136675
675.771	0.0138103
675.849	0.0139922
675.927	0.0138421
676.005	0.0138658
676.083	0.0139523
676.161	0.0138868
676.239	0.0137995
676.318	0.0135600
676.396	0.0135266
676.474	0.0133802
676.552	0.0129699
676.630	0.0128929
676.708	0.0128402
676.786	0.0127728
676.864	0.0124993
676.943	0.0124338
677.021	0.0122292
677.099	0.0120177
677.177	0.0120284
677.255	0.0121255
677.333	0.0121090
677.411	0.0121789
677.489	0.0122641
677.568	0.0122972
677.646	0.0123946
677.724	0.0126471
677.802	0.0127168
677.880	0.0128036
677.958	0.0130162
678.036	0.0130189
678.114	0.0133581
678.193	0.0134425
678.271	0.0136153
678.349	0.0137701
678.427	0.0137420
678.505	0.0139178
678.583	0.0142339
678.661	0.0141086
678.739	0.0142040
678.818	0.0143100
678.896	0.0142626
678.974	0.0142191
679.052	0.0141425
679.130	0.0141869
679.208	0.0141631
679.286	0.0139841
679.364	0.0138749
679.443	0.0139053
679.521	0.0139928
679.599	0.0138298
679.677	0.0137996
679.755	0.0137664
679.833	0.0137885
679.911	0.0137076
679.989	0.0137494
680.068	0.0136377
680.146	0.0137421
680.224	0.0137613
680.302	0.0136871
680.380	0.0136376
680.458	0.0139196
680.536	0.0137432
680.614	0.0138128
680.693	0.0138055
680.771	0.0138164
680.849	0.0136687
680.927	0.0137532
681.005	0.0137669
681.083	0.0135666
681.161	0.0134223
681.239	0.0132160
681.318	0.0132088
681.396	0.0129525
681.474	0.0126035
681.552	0.0123910
681.630	0.0121735
681.708	0.0118755
681.786	0.0116106
681.864	0.0116409
681.943	0.0113814
682.021	0.0112051
682.099	0.0109843
682.177	0.0109126
682.255	0.0106176
682.333	0.0108370
682.411	0.0108272
682.489	0.0109206
682.568	0.0110698
682.646	0.0111224
682.724	0.0111877
682.802	0.0115228
682.880	0.0116467
682.958	0.0119810
683.036	0.0122881
683.114	0.0125117
683.193	0.0129499
683.271	0.0133826
683.349	0.0137128
683.427	0.0141552
683.505	0.0146033
683.583	0.0149654
683.661	0.0151746
683.739	0.0153905
683.818	0.0157188
683.896	0.0158231
683.974	0.0159103
684.052	0.0160832
684.130	0.0162194
684.208	0.0162328
684.286	0.0161847
684.364	0.0159370
684.443	0.0159531
684.521	0.0156007
684.599	0.0154404
684.677	0.0152096
684.755	0.0150196
684.833	0.0146955
684.911	0.0144878
684.989	0.0142105
685.068	0.0138040
685.146	0.0135950
685.224	0.0135255
685.302	0.0131161
685.380	0.0129033
685.458	0.0126906
685.536	0.0124739
685.614	0.0122540
685.693	0.0119647
685.771	0.0121024
685.849	0.0117439
685.927	0.0115498
686.005	0.0115553
686.083	0.0115146
686.161	0.0115252
686.239	0.0113356
686.318	0.0113951
686.396	0.0114713
686.474	0.0115571
686.552	0.0115206
686.630	0.0114875
686.708	0.0115847
686.786	0.0117734
686.864	0.0116386
686.943	0.0117252
687.021	0.0118441
687.099	0.0116615
687.177	0.0117253
687.255	0.0119244
687.333	0.0117741
687.411	0.0118671
687.489	0.0119619
687.568	0.0118935
687.646	0.0122224
687.724	0.0122504
687.802	0.0123608
687.880	0.0124592
687.958	0.0126244
688.036	0.0130941
688.114	0.0131020
688.193	0.0133575
688.271	0.0136856
688.349	0.0140045
688.427	0.0141029
688.505	0.0145013
688.583	0.0148299
688.661	0.0150748
688.739	0.0150871
688.818	0.0154854
688.896	0.0156685
688.974	0.0156893
689.052	0.0158756
689.130	0.0160259
689.208	0.0159815
689.286	0.0159084
689.364	0.0157862
689.443	0.0156564
689.521	0.0153436
689.599	0.0153188
689.677	0.0149576
689.755	0.0145956
689.833	0.0144347
689.911	0.0140453
689.989	0.0137033
690.068	0.0134686
690.146	0.0131587
690.224	0.0129677
690.302	0.0127383
690.380	0.0124517
690.458	0.0122125
690.536	0.0120810
690.614	0.0119969
690.693	0.0119119
690.771	0.0118594
690.849	0.0117154
690.927	0.0116289
691.005	0.0116845
691.083	0.0117365
691.161	0.0117705
691.239	0.0118656
691.318	0.0120219
691.396	0.0120450
691.474	0.0122522
691.552	0.0122361
691.630	0.0125051
691.708	0.0126704
691.786	0.0127879
691.864	0.0127089
691.943	0.0129794
692.021	0.0129600
692.099	0.0130508
692.177	0.0131864
692.255	0.0130119
692.333	0.0131143
692.411	0.0130797
692.489	0.0129000
692.568	0.0129440
692.646	0.0129132
692.724	0.0127504
692.802	0.0127556
692.880	0.0127267
692.958	0.0125752
693.036	0.0126453
693.114	0.0126075
693.193	0.0126212
693.271	0.0126878
693.349	0.0126587
693.427	0.0126846
693.505	0.0127132
693.583	0.0129127
693.661	0.0129562
693.739	0.0129084
693.818	0.0130888
693.896	0.0132022
693.974	0.0132903
694.052	0.0134593
694.130	0.0137177
694.208	0.0136818
694.286	0.0138335
694.364	0.0139563
694.443	0.0140362
694.521	0.0141234
694.599	0.0142841
694.677	0.0144575
694.755	0.0144904
694.833	0.0145655
694.911	0.0147033
694.989	0.0147570
695.068	0.0146426
695.146	0.0147429
695.224	0.0147122
695.302	0.0147210
695.380	0.0145399
695.458	0.0143855
695.536	0.0144752
695.614	0.0144845
695.693	0.0143240
695.771	0.0142148
695.849	0.0142284
695.927	0.0143340
696.005	0.0140951
696.083	0.0140926
696.161	0.0139272
696.239	0.0139626
696.318	0.0138741
696.396	0.0137882
696.474	0.0137041
696.552	0.0136774
696.630	0.0135087
696.708	0.0134900
696.786	0.0132839
696.864	0.0130760
696.943	0.0128492
697.021	0.0126614
697.099	0.0125808
697.177	0.0122983
697.255	0.0120298
697.333	0.0119312
697.411	0.0116862
697.489	0.0114084
697.568	0.0112367
697.646	0.0111292
697.724	0.0110169
697.802	0.0106903
697.880	0.0108334
697.958	0.0108327
698.036	0.0106922
698.114	0.0107055
698.193	0.0107925
698.271	0.0110203
698.349	0.0112740
698.427	0.0113439
698.505	0.0116142
698.583	0.0118502
698.661	0.0121654
698.739	0.0124532
698.818	0.0126505
698.896	0.0129276
698.974	0.0129755
699.052	0.0132247
699.130	0.0136191
699.208	0.0137583
699.286	0.0138140
699.364	0.0139796
699.443	0.0141554
699.521	0.0142799
699.599	0.0143639
699.677	0.0145243
699.755	0.0145232
699.833	0.0147719
699.911	0.0148135
699.989	0.0149355
700.068	0.0149226
700.146	0.0149036
700.224	0.0150719
700.302	0.0151469
700.380	0.0152175
700.458	0.0151711
700.536	0.0153298
700.614	0.0153809
700.693	0.0153572
700.771	0.0151684
700.849	0.0152361
700.927	0.0153127
701.005	0.0152657
701.083	0.0150922
701.161	0.0151410
701.239	0.0148545
701.318	0.0147044
701.396	0.0145111
701.474	0.0143829
701.552	0.0141635
701.630	0.0139583
701.708	0.0136886
701.786	0.0133773
701.864	0.0130768
701.943	0.0129391
702.021	0.0127495
702.099	0.0124823
702.177	0.0122726
702.255	0.0121809
702.333	0.0119424
702.411	0.0117416
702.489	0.0115691
702.568	0.0115298
702.646	0.0114205
702.724	0.0114677
702.802	0.0113017
702.880	0.0112411
702.958	0.0111120
703.036	0.0110783
703.114	0.0110686
703.193	0.0111536
703.271	0.0109403
703.349	0.0111726
703.427	0.0111272
703.505	0.0110310
703.583	0.0111472
703.661	0.0114561
703.739	0.0114977
703.818	0.0117313
703.896	0.0118800
703.974	0.0121487
704.052	0.0124342
704.130	0.0125523
704.208	0.0126701
704.286	0.0129583
704.364	0.0131943
704.443	0.0134317
704.521	0.0136147
704.599	0.0136858
704.677	0.0137540
704.755	0.0139437
704.833	0.0140022
704.911	0.0140051
704.989	0.0142067
705.068	0.0140788
705.146	0.0141553
705.224	0.0143459
705.302	0.0145338
705.380	0.0143546
705.458	0.0146873
705.536	0.0146864
705.614	0.0146832
705.693	0.0146080
705.771	0.0147672
705.849	0.0148334
705.927	0.0149458
706.005	0.0148730
706.083	0.0149142
706.161	0.0149330
706.239	0.0150182
706.318	0.0150041
706.396	0.0150972
706.474	0.0150964
706.552	0.0150952
706.630	0.0150999
706.708	0.0150294
706.786	0.0148698
706.864	0.0147906
706.943	0.0147839
707.021	0.0146659
707.099	0.0144770
707.177	0.0145194
707.255	0.0141879
707.333	0.0139431
707.411	0.0136121
707.489	0.0133956
707.568	0.0132265
707.646	0.0130905
707.724	0.0127962
707.802	0.0122807
707.880	0.0122534
707.958	0.0121149
708.036	0.0116650
708.114	0.0114268
708.193	0.0113151
708.271	0.0113308
708.349	0.0112027
708.427	0.0110854
708.505	0.0110202
708.583	0.0110627
708.661	0.0109167
708.739	0.0109922
708.818	0.0111252
708.896	0.0109895
708.974	0.0110822
709.052	0.0111070
709.130	0.0111283
709.208	0.0111891
709.286	0.0112307
709.364	0.0115072
709.443	0.0115752
709.521	0.0116711
709.599	0.0119163
709.677	0.0119794
709.755	0.0121548
709.833	0.0122671
709.911	0.0125222
709.989	0.0127211
710.068	0.0129268
710.146	0.0130828
710.224	0.0133376
710.302	0.0136076
710.380	0.0139162
710.458	0.0139367
710.536	0.0140118
710.614	0.0142848
710.693	0.0146182
710.771	0.0146203
710.849	0.0148638
710.927	0.0149805
711.005	0.0150779
711.083	0.0151651
711.161	0.0153031
711.239	0.0151624
711.318	0.0152784
711.396	0.0153416
711.474	0.0153757
711.552	0.0152631
711.630	0.0151668
711.708	0.0151877
711.786	0.0151260
711.864	0.0149593
711.943	0.0149793
712.021	0.0148124
712.099	0.0146176
712.177	0.0146031
712.255	0.0145096
712.333	0.0143511
712.411	0.0140497
712.489	0.0139423
712.568	0.0139761
712.646	0.0137447
712.724	0.0134772
712.802	0.0134340
712.880	0.0133123
712.958	0.0130267
713.036	0.0129321
713.114	0.0128058
713.193	0.0126526
713.271	0.0124400
713.349	0.0123560
713.427	0.0123538
713.505	0.0121979
713.583	0.0120347
713.661	0.0121444
713.739	0.0120831
713.818	0.0118882
713.896	0.0118250
713.974	0.0117797
714.052	0.0117716
714.130	0.0117484
714.208	0.0117546
714.286	0.0117470
714.364	0.0117779
714.443	0.0118614
714.521	0.0118088
714.599	0.0117939
714.677	0.0117751
714.755	0.0118270
714.833	0.0119169
714.911	0.0118121
714.989	0.0117970
715.068	0.0118880
715.146	0.0119553
715.224	0.0119266
715.302	0.0120388
715.380	0.0119861
715.458	0.0121746
715.536	0.0122556
715.614	0.0123460
715.693	0.0125062
715.771	0.0126997
715.849	0.0128462
715.927	0.0131670
716.005	0.0131414
716.083	0.0133719
716.161	0.0134826
716.239	0.0137740
716.318	0.0138815
716.396	0.0142626
716.474	0.0145181
716.552	0.0145341
716.630	0.0148231
716.708	0.0150157
716.786	0.0151866
716.864	0.0151978
716.943	0.0153699
717.021	0.0154388
717.099	0.0153844
717.177	0.0156164
717.255	0.0156572
717.333	0.0153719
717.411	0.0154328
717.489	0.0153482
717.568	0.0153488
717.646	0.0150562
717.724	0.0147695
717.802	0.0146121
717.880	0.0144835
717.958	0.0141576
718.036	0.0139813
718.114	0.0137824
718.193	0.0135331
718.271	0.0133241
718.349	0.0132790
718.427	0.0130230
718.505	0.0126725
718.583	0.0127036
718.661	0.0123968
718.739	0.0123643
718.818	0.0121937
718.896	0.0121678
718.974	0.0120737
719.052	0.0119918
719.130	0.0120161
719.208	0.0120782
719.286	0.0120641
719.364	0.0121943
719.443	0.0122909
719.521	0.0122661
719.599	0.0122498
719.677	0.0122626
719.755	0.0124062
719.833	0.0123674
719.911	0.0123878
719.989	0.0123927
720.068	0.0125609
720.146	0.0123933
720.224	0.0124822
720.302	0.0124959
720.380	0.0124612
720.458	0.0124940
720.536	0.0126180
720.614	0.0125780
720.693	0.0125827
720.771	0.0126161
720.849	0.0125893
720.927	0.0126944
721.005	0.0127710
721.083	0.0127772
721.161	0.0127917
721.239	0.0128599
721.318	0.0130779
721.396	0.0131585
721.474	0.0132333
721.552	0.0132987
721.630	0.0133030
721.708	0.0132846
721.786	0.0134763
721.864	0.0135498
721.943	0.0136469
722.021	0.0137375
722.099	0.0135755
722.177	0.0137987
722.255	0.0137987
722.333	0.0138032
722.411	0.0139027
722.489	0.0139187
722.568	0.0140008
722.646	0.0141144
722.724	0.0139864
722.802	0.0140395
722.880	0.0141560
722.958	0.0141817
723.036	0.0142272
723.114	0.0143065
723.193	0.0142086
723.271	0.0141331
723.349	0.0143458
723.427	0.0143075
723.505	0.0140726
723.583	0.0141124
723.661	0.0142214
723.739	0.0140876
723.818	0.0141718
723.896	0.0139262
723.974	0.0139536
724.052	0.0138454
724.130	0.0138292
724.208	0.0137270
724.286	0.0136662
724.364	0.0136140
724.443	0.0134968
724.521	0.0134586
724.599	0.0131862
724.677	0.0132139
724.755	0.0130741
724.833	0.0129237
724.911	0.0128993
724.989	0.0126757
725.068	0.0126317
725.146	0.0124848
725.224	0.0125906
725.302	0.0123936
725.380	0.0122208
725.458	0.0122665
725.536	0.0121809
725.614	0.0121026
725.693	0.0121627
725.771	0.0120769
725.849	0.0120026
725.927	0.0119441
726.005	0.0118669
726.083	0.0120336
726.161	0.0120461
726.239	0.0120728
726.318	0.0120660
726.396	0.0124422
726.474	0.0123412
726.552	0.0123581
726.630	0.0125401
726.708	0.0127338
726.786	0.0127527
726.864	0.0128182
726.943	0.0130582
727.021	0.0133014
727.099	0.0131757
727.177	0.0133156
727.255	0.0134064
727.333	0.0136082
727.411	0.0137257
727.489	0.0138104
727.568	0.0138281
727.646	0.0138413
727.724	0.0139344
727.802	0.0138870
727.880	0.0138017
727.958	0.0137840
728.036	0.0138979
728.114	0.0138091
728.193	0.0138352
728.271	0.0136740
728.349	0.0137411
728.427	0.0137444
728.505	0.0136046
728.583	0.0135729
728.661	0.0137507
728.739	0.0137283
728.818	0.0136188
728.896	0.0136772
728.974	0.0138068
729.052	0.0137910
729.130	0.0137998
729.208	0.0137602
729.286	0.0138454
729.364	0.0138107
729.443	0.0137347
729.521	0.0136383
729.599	0.0135800
729.677	0.0136762
729.755	0.0136300
729.833	0.0134718
729.911	0.0133820
729.989	0.0132322
730.068	0.0133300
730.146	0.0132848
730.224	0.0132217
730.302	0.0130149
730.380	0.0129591
730.458	0.0130421
730.536	0.0130436
730.614	0.0129945
730.693	0.0129187
730.771	0.0129826
730.849	0.0129723
730.927	0.0128841
731.005	0.0129567
731.083	0.0129953
731.161	0.0129271
731.239	0.0127567
731.318	0.0129400
731.396	0.0128968
731.474	0.0128477
731.552	0.0128179
731.630	0.0126187
731.708	0.0126879
731.786	0.0127432
731.864	0.0127479
731.943	0.0126494
732.021	0.0126084
732.099	0.0126255
732.177	0.0126114
732.255	0.0126219
732.333	0.0125320
732.411	0.0125033
732.489	0.0126934
732.568	0.0127680
732.646	0.0128777
732.724	0.0128429
732.802	0.0128409
732.880	0.0129346
732.958	0.0130247
733.036	0.0130010
733.114	0.0131202
733.193	0.0133278
733.271	0.0133157
733.349	0.0131699
733.427	0.0133334
733.505	0.0134370
733.583	0.0134106
733.661	0.0136767
733.739	0.0136861
733.818	0.0136056
733.896	0.0135523
733.974	0.0137896
734.052	0.0136781
734.130	0.0137944
734.208	0.0137537
734.286	0.0138868
734.364	0.0138809
734.443	0.0139356
734.521	0.0138495
734.599	0.0138278
734.677	0.0137992
734.755	0.0136929
734.833	0.0136304
734.911	0.0135442
734.989	0.0135070
735.068	0.0135181
735.146	0.0134627
735.224	0.0134391
735.302	0.0133504
735.380	0.0131702
735.458	0.0132202
735.536	0.0132715
735.614	0.0131548
735.693	0.0130524
735.771	0.0129606
735.849	0.0130363
735.927	0.0129359
736.005	0.0130859
736.083	0.0130164
736.161	0.0131351
736.239	0.0130517
736.318	0.0129915
736.396	0.0129604
736.474	0.0133208
736.552	0.0133260
736.630	0.0133073
736.708	0.0133022
736.786	0.0133365
736.864	0.0133665
736.943	0.0133353
737.021	0.0134207
737.099	0.0133342
737.177	0.0133864
737.255	0.0133345
737.333	0.0133908
737.411	0.0133302
737.489	0.0132955
737.568	0.0131860
737.646	0.0131252
737.724	0.0130402
737.802	0.0131229
737.880	0.0130245
737.958	0.0130660
738.036	0.0128944
738.114	0.0128089
738.193	0.0128995
738.271	0.0129550
738.349	0.0127182
738.427	0.0127866
738.505	0.0127145
738.583	0.0127406
738.661	0.0128617
738.739	0.0128285
738.818	0.0129202
738.896	0.0128953
738.974	0.0130287
739.052	0.0129306
739.130	0.0130350
739.208	0.0131304
739.286	0.0133545
739.364	0.0132783
739.443	0.0132867
739.521	0.0133223
739.599	0.0135333
739.677	0.0135011
739.755	0.0136107
739.833	0.0135436
739.911	0.0135823
739.989	0.0135918
740.068	0.0135481
740.146	0.0135470
740.224	0.0136263
740.302	0.0135362
740.380	0.0135177
740.458	0.0134389
740.536	0.0134080
740.614	0.0135228
740.693	0.0134552
740.771	0.0132982
740.849	0.0132678
740.927	0.0133899
741.005	0.0131531
741.083	0.0132275
741.161	0.0132381
741.239	0.0132546
741.318	0.0133159
741.396	0.0132101
741.474	0.0132417
741.552	0.0132844
741.630	0.0132761
741.708	0.0131591
741.786	0.0133423
741.864	0.0133675
741.943	0.0133305
742.021	0.0131885
742.099	0.0133709
742.177	0.0133441
742.255	0.0134425
742.333	0.0133605
742.411	0.0133544
742.489	0.0134902
742.568	0.0133648
742.646	0.0132758
742.724	0.0132226
742.802	0.0134014
742.880	0.0132638
742.958	0.0132463
743.036	0.0133050
743.114	0.0133366
743.193	0.0132830
743.271	0.0132484
743.349	0.0132982
743.427	0.0131890
743.505	0.0131049
743.583	0.0131733
743.661	0.0132398
743.739	0.0132933
743.818	0.0132510
743.896	0.0131163
743.974	0.0132681
744.052	0.0131955
744.130	0.0132305
744.208	0.0130518
744.286	0.0131192
744.364	0.0130840
744.443	0.0129384
744.521	0.0131892
744.599	0.0131103
744.677	0.0130683
744.755	0.0130042
744.833	0.0130245
744.911	0.0131521
744.989	0.0131156
745.068	0.0130627
745.146	0.0129269
745.224	0.0130172
745.302	0.0131628
745.380	0.0131277
745.458	0.0130584
745.536	0.0131443
745.614	0.0131160
745.693	0.0132320
745.771	0.0132741
745.849	0.0132187
745.927	0.0132513
746.005	0.0133328
746.083	0.0133641
746.161	0.0133096
746.239	0.0132549
746.318	0.0132403
746.396	0.0132841
746.474	0.0134462
746.552	0.0133605
746.630	0.0133211
746.708	0.0134357
746.786	0.0133961
746.864	0.0133928
746.943	0.0134736
747.021	0.0134736
747.099	0.0134766
747.177	0.0134619
747.255	0.0135025
747.333	0.0135336
747.411	0.0135027
747.489	0.0135076
747.568	0.0135919
747.646	0.0135439
747.724	0.0135934
747.802	0.0134515
747.880	0.0134835
747.958	0.0135595
748.036	0.0134314
748.114	0.0135663
748.193	0.0133969
748.271	0.0132902
748.349	0.0132508
748.427	0.0131634
748.505	0.0131352
748.583	0.0130114
748.661	0.0130473
748.739	0.0128854
748.818	0.0128674
748.896	0.0130219
748.974	0.0128691
749.052	0.0128934
749.130	0.0128483
749.208	0.0127869
749.286	0.0129807
749.364	0.0128062
749.443	0.0130403
749.521	0.0131050
749.599	0.0130325
749.677	0.0130027
749.755	0.0129220
749.833	0.0132140
749.911	0.0133339
749.989	0.0131035
750.068	0.0132159
750.146	0.0131593
750.224	0.0132438
750.302	0.0133439
750.380	0.0133222
750.458	0.0132302
750.536	0.0132409
750.614	0.0131768
750.693	0.0131434
750.771	0.0131442
750.849	0.0131219
750.927	0.0132090
751.005	0.0131288
751.083	0.0129446
751.161	0.0130942
751.239	0.0131255
751.318	0.0128930
751.396	0.0128770
751.474	0.0130701
751.552	0.0130614
751.630	0.0129106
751.708	0.0129430
751.786	0.0128896
751.864	0.0130685
751.943	0.0130478
752.021	0.0129760
752.099	0.0130020
752.177	0.0129893
752.255	0.0130380
752.333	0.0132487
752.411	0.0131587
752.489	0.0132720
752.568	0.0132204
752.646	0.0133330
752.724	0.0132658
752.802	0.0132798
752.880	0.0133105
752.958	0.0135251
753.036	0.0133801
753.114	0.0134789
753.193	0.0133470
753.271	0.0134246
753.349	0.0134901
753.427	0.0135244
753.505	0.0133544
753.583	0.0135215
753.661	0.0135887
753.739	0.0136683
753.818	0.0136253
753.896	0.0134531
753.974	0.0135621
754.052	0.0135876
754.130	0.0135745
754.208	0.0135112
754.286	0.0134215
754.364	0.0133288
754.443	0.0132677
754.521	0.0133088
754.599	0.0131422
754.677	0.0131505
754.755	0.0129678
754.833	0.0129929
754.911	0.0128983
754.989	0.0128104
755.068	0.0128856
755.146	0.0127567
755.224	0.0127647
755.302	0.0126524
755.380	0.0127911
755.458	0.0127491
755.536	0.0127694
755.614	0.0127101
755.693	0.0126286
755.771	0.0127877
755.849	0.0129005
755.927	0.0130220
756.005	0.0129945
756.083	0.0130681
756.161	0.0130868
756.239	0.0132368
756.318	0.0132598
756.396	0.0134359
756.474	0.0133591
756.552	0.0134323
756.630	0.0134828
756.708	0.0134694
756.786	0.0135449
756.864	0.0135249
756.943	0.0135605
757.021	0.0135875
757.099	0.0134686
757.177	0.0135050
757.255	0.0134997
757.333	0.0135896
757.411	0.0135992
757.489	0.0134981
757.568	0.0133680
757.646	0.0133266
757.724	0.0131332
757.802	0.0132430
757.880	0.0132718
757.958	0.0130662
758.036	0.0132575
758.114	0.0130959
758.193	0.0130414
758.271	0.0130138
758.349	0.0131076
758.427	0.0130361
758.505	0.0130155
758.583	0.0130032
758.661	0.0129305
758.739	0.0129967
758.818	0.0129980
758.896	0.0128690
758.974	0.0128752
759.052	0.0129723
759.130	0.0132040
759.208	0.0130461
759.286	0.0130779
759.364	0.0131541
759.443	0.0132805
759.521	0.0131551
759.599	0.0132343
759.677	0.0132915
759.755	0.0132452
759.833	0.0133222
759.911	0.0132710
759.989	0.0134937
760.068	0.0134103
760.146	0.0133047
760.224	0.0134612
760.302	0.0133418
760.380	0.0134930
760.458	0.0134580
760.536	0.0134722
760.614	0.0134749
760.693	0.0134863
760.771	0.0134325
760.849	0.0134374
760.927	0.0132609
761.005	0.0133134
761.083	0.0132693
761.161	0.0134044
761.239	0.0134153
761.318	0.0134048
761.396	0.0132300
761.474	0.0132006
761.552	0.0131824
761.630	0.0131223
761.708	0.0131209
761.786	0.0131071
761.864	0.0130231
761.943	0.0130618
762.021	0.0128799
762.099	0.0129343
762.177	0.0130934
762.255	0.0130570
762.333	0.0130266
762.411	0.0130844
762.489	0.0129526
762.568	0.0129513
762.646	0.0130109
762.724	0.0131725
762.802	0.0131731
762.880	0.0131876
762.958	0.0130607
763.036	0.0133027
763.114	0.0133155
763.193	0.0131401
763.271	0.0131503
763.349	0.0133032
763.427	0.0133315
763.505	0.0132833
763.583	0.0133537
763.661	0.0133208
763.739	0.0133715
763.818	0.0133820
763.896	0.0135275
763.974	0.0134895
764.052	0.0134821
764.130	0.0133429
764.208	0.0134805
764.286	0.0134531
764.364	0.0134227
764.443	0.0133339
764.521	0.0132925
764.599	0.0133615
764.677	0.0133072
764.755	0.0132719
764.833	0.0132897
764.911	0.0133009
764.989	0.0131866
765.068	0.0132162
765.146	0.0132375
765.224	0.0131133
765.302	0.0130422
765.380	0.0130874
765.458	0.0129739
765.536	0.0129896
765.614	0.0131721
765.693	0.0131331
765.771	0.0130479
765.849	0.0131151
765.927	0.0131559
766.005	0.0130331
766.083	0.0130185
766.161	0.0131857
766.239	0.0132667
766.318	0.0131248
766.396	0.0130015
766.474	0.0131891
766.552	0.0133014
766.630	0.0131681
766.708	0.0132575
766.786	0.0133340
766.864	0.0133986
766.943	0.0133143
767.021	0.0132495
767.099	0.0132433
767.177	0.0133257
767.255	0.0132378
767.333	0.0133213
767.411	0.0133251
767.489	0.0133682
767.568	0.0133025
767.646	0.0134591
767.724	0.0133775
767.802	0.0133653
767.880	0.0133115
767.958	0.0133707
768.036	0.0132987
768.114	0.0133385
768.193	0.0131801
768.271	0.0132999
768.349	0.0131873
768.427	0.0132268
768.505	0.0133431
768.583	0.0131524
768.661	0.0132670
768.739	0.0130565
768.818	0.0130888
768.896	0.0131709
768.974	0.0130328
769.052	0.0131709
769.130	0.0131339
769.208	0.0131213
769.286	0.0131163
769.364	0.0132004
769.443	0.0132038
769.521	0.0132825
769.599	0.0132232
769.677	0.0133098
769.755	0.0133326
769.833	0.0132866
769.911	0.0133133
769.989	0.0133035
770.068	0.0133196
770.146	0.0132754
770.224	0.0134993
770.302	0.0132823
770.380	0.0134580
770.458	0.0134685
770.536	0.0132564
770.614	0.0133517
770.693	0.0135203
770.771	0.0133128
770.849	0.0132751
770.927	0.0131441
771.005	0.0132711
771.083	0.0132153
771.161	0.0132029
771.239	0.0130256
771.318	0.0131100
771.396	0.0130750
771.474	0.0131445
771.552	0.0130347
771.630	0.0132356
771.708	0.0131689
771.786	0.0131448
771.864	0.0131691
771.943	0.0132330
772.021	0.0133598
772.099	0.0133278
772.177	0.0133899
772.255	0.0133321
772.333	0.0133485
772.411	0.0133125
772.489	0.0134751
772.568	0.0136111
772.646	0.0136292
772.724	0.0133530
772.802	0.0135357
772.880	0.0136086
772.958	0.0135315
773.036	0.0135844
773.114	0.0135220
773.193	0.0135439
773.271	0.0135425
773.349	0.0134544
773.427	0.0134814
773.505	0.0134339
773.583	0.0132513
773.661	0.0134511
773.739	0.0133524
773.818	0.0134644
773.896	0.0132050
773.974	0.0133215
774.052	0.0131398
774.130	0.0132884
774.208	0.0131774
774.286	0.0131679
774.364	0.0133105
774.443	0.0132104
774.521	0.0131057
774.599	0.0130339
774.677	0.0129803
774.755	0.0129551
774.833	0.0128852
774.911	0.0129752
774.989	0.0129334
775.068	0.0129042
775.146	0.0128633
775.224	0.0129354
775.302	0.0128743
775.380	0.0129510
775.458	0.0130526
775.536	0.0130173
775.614	0.0129432
775.693	0.0130863
775.771	0.0131924
775.849	0.0131180
775.927	0.0131867
776.005	0.0132912
776.083	0.0132983
776.161	0.0132342
776.239	0.0133691
776.318	0.0134422
776.396	0.0134084
776.474	0.0135497
776.552	0.0135112
776.630	0.0135580
776.708	0.0134262
776.786	0.0135300
776.864	0.0135982
776.943	0.0136094
777.021	0.0135663
777.099	0.0135193
777.177	0.0134382
777.255	0.0136133
777.333	0.0135359
777.411	0.0134233
777.489	0.0134882
777.568	0.0134247
777.646	0.0134964
777.724	0.0132826
777.802	0.0131694
777.880	0.0132947
777.958	0.0131646
778.036	0.0132496
778.114	0.0131835
778.193	0.0131483
778.271	0.0129770
778.349	0.0129872
778.427	0.0129454
778.505	0.0128767
778.583	0.0130190
778.661	0.0129427
778.739	0.0130069
778.818	0.0129133
778.896	0.0128067
778.974	0.0130592
779.052	0.0129597
779.130	0.0128320
779.208	0.0128890
779.286	0.0129983
779.364	0.0130922
779.443	0.0130048
779.521	0.0130316
779.599	0.0131145
779.677	0.0131804
779.755	0.0132287
779.833	0.0132522
779.911	0.0132763
779.989	0.0132940
780.068	0.0134663
780.146	0.0134717
780.224	0.0135085
780.302	0.0135272
780.380	0.0135976
780.458	0.0134560
780.536	0.0135159
780.614	0.0134797
780.693	0.0136127
780.771	0.0135239
780.849	0.0136134
780.927	0.0134471
781.005	0.0134776
781.083	0.0135265
781.161	0.0134145
781.239	0.0134393
781.318	0.0134550
781.396	0.0134618
781.474	0.0133423
781.552	0.0132966
781.630	0.0133379
781.708	0.0132022
781.786	0.0131742
781.864	0.0132800
781.943	0.0129762
782.021	0.0131316
782.099	0.0130797
782.177	0.0131686
782.255	0.0130560
782.333	0.0129945
782.411	0.0128744
782.489	0.0128799
782.568	0.0130214
782.646	0.0129837
782.724	0.0129974
782.802	0.0130816
782.880	0.0131361
782.958	0.0129626
783.036	0.0130446
783.114	0.0130218
783.193	0.0129327
783.271	0.0130495
783.349	0.0129923
783.427	0.0130894
783.505	0.0129960
783.583	0.0130602
783.661	0.0130863
783.739	0.0129379
783.818	0.0130626
783.896	0.0130599
783.974	0.0130077
784.052	0.0130878
784.130	0.0130712
784.208	0.0129127
784.286	0.0127348
784.364	0.0128724
784.443	0.0129099
784.521	0.0129363
784.599	0.0128725
784.677	0.0129368
784.755	0.0128252
784.833	0.0129907
784.911	0.0129224
784.989	0.0129935
785.068	0.0130569
785.146	0.0130717
785.224	0.0130486
785.302	0.0132828
785.380	0.0132346
785.458	0.0133173
785.536	0.0134265
785.614	0.0135296
785.693	0.0134927
785.771	0.0135473
785.849	0.0134531
785.927	0.0136154
786.005	0.0137931
786.083	0.0137262
786.161	0.0137340
786.239	0.0138697
786.318	0.0137589
786.396	0.0136726
786.474	0.0137614
786.552	0.0138740
786.630	0.0138638
786.708	0.0136767
786.786	0.0136228
786.864	0.0135760
786.943	0.0135267
787.021	0.0133393
787.099	0.0132265
787.177	0.0131998
787.255	0.0132018
787.333	0.0130559
787.411	0.0129819
787.489	0.0129900
787.568	0.0130587
787.646	0.0129245
787.724	0.0128095
787.802	0.0128320
787.880	0.0128509
787.958	0.0127679
788.036	0.0126572
788.114	0.0127036
788.193	0.0127065
788.271	0.0127632
788.349	0.0127409
788.427	0.0126302
788.505	0.0127763
788.583	0.0129104
788.661	0.0128305
788.739	0.0127441
788.818	0.0129259
788.896	0.0128513
788.974	0.0128988
789.052	0.0129936
789.130	0.0130215
789.208	0.0130451
789.286	0.0130535
789.364	0.0128593
789.443	0.0131303
789.521	0.0131821
789.599	0.0133306
789.677	0.0132595
789.755	0.0132344
789.833	0.0133972
789.911	0.0133807
789.989	0.0132838
790.068	0.0133028
790.146	0.0133157
790.224	0.0135310
790.302	0.0134708
790.380	0.0133430
790.458	0.0134162
790.536	0.0134930
790.614	0.0134056
790.693	0.0134513
790.771	0.0134614
790.849	0.0134577
790.927	0.0135055
791.005	0.0134577
791.083	0.0135918
791.161	0.0136513
791.239	0.0135905
791.318	0.0133528
791.396	0.0134869
791.474	0.0134985
791.552	0.0136633
791.630	0.0135338
791.708	0.0135293
791.786	0.0135772
791.864	0.0134316
791.943	0.0135311
792.021	0.0134952
792.099	0.0135191
792.177	0.0135250
792.255	0.0135368
792.333	0.0135168
792.411	0.0133646
792.489	0.0134782
792.568	0.0135184
792.646	0.0134506
792.724	0.0134289
792.802	0.0134441
792.880	0.0134608
792.958	0.0134676
793.036	0.0135198
793.114	0.0133646
793.193	0.0133286
793.271	0.0133508
793.349	0.0132037
793.427	0.0133198
793.505	0.0131804
793.583	0.0132035
793.661	0.0131438
793.739	0.0131786
793.818	0.0130755
793.896	0.0130102
793.974	0.0130069
794.052	0.0130877
794.130	0.0129641
794.208	0.0127914
794.286	0.0126966
794.364	0.0128131
794.443	0.0127396
794.521	0.0127791
794.599	0.0126379
794.677	0.0126582
794.755	0.0126941
794.833	0.0126448
794.911	0.0127737
794.989	0.0127418
795.068	0.0126920
795.146	0.0127480
795.224	0.0128329
795.302	0.0129064
795.380	0.0128664
795.458	0.0127596
795.536	0.0129580
795.614	0.0131862
795.693	0.0131087
795.771	0.0131461
795.849	0.0133044
795.927	0.0133450
796.005	0.0135370
796.083	0.0133883
796.161	0.0135604
796.239	0.0136166
796.318	0.0137427
796.396	0.0136799
796.474	0.0138997
796.552	0.0140139
796.630	0.0140771
796.708	0.0138864
796.786	0.0138792
796.864	0.0140665
796.943	0.0140852
797.021	0.0140756
797.099	0.0140210
797.177	0.0138788
797.255	0.0140956
797.333	0.0139986
797.411	0.0140178
797.489	0.0138030
797.568	0.0140484
797.646	0.0140716
797.724	0.0139382
797.802	0.0137895
797.880	0.0137843
797.958	0.0136201
798.036	0.0136770
798.114	0.0135070
798.193	0.0134531
798.271	0.0134161
798.349	0.0133804
798.427	0.0134075
798.505	0.0133376
798.583	0.0132034
798.661	0.0131516
798.739	0.0132622
798.818	0.0130139
798.896	0.0129733
798.974	0.0131233
799.052	0.0130532
799.130	0.0130834
799.208	0.0129275
799.286	0.0130570
799.364	0.0130224
799.443	0.0127854
799.521	0.0128457
799.599	0.0129073
799.677	0.0128232
799.755	0.0128667
799.833	0.0128452
799.911	0.0128159
799.989	0.0129088
800.068	0.0128941
800.146	0.0128695
800.224	0.0127825
800.302	0.0129363
800.380	0.0128945
800.458	0.0128847
800.536	0.0129920
800.614	0.0130029
800.693	0.0130956
800.771	0.0131322
800.849	0.0131079
800.927	0.0131313
801.005	0.0130344
801.083	0.0131996
801.161	0.0130939
801.239	0.0132392
801.318	0.0132569
801.396	0.0134800
801.474	0.0133997
801.552	0.0135720
801.630	0.0136278
801.708	0.0135842
801.786	0.0136655
801.864	0.0135984
801.943	0.0136098
802.021	0.0137880
802.099	0.0138028
802.177	0.0139742
802.255	0.0136044
802.333	0.0137000
802.411	0.0139120
802.489	0.0139748
802.568	0.0138222
802.646	0.0138606
802.724	0.0137685
802.802	0.0138715
802.880	0.0138637
802.958	0.0137663
803.036	0.0137172
803.114	0.0138696
803.193	0.0135953
803.271	0.0135102
803.349	0.0135953
803.427	0.0136372
803.505	0.0135379
803.583	0.0134810
803.661	0.0133763
803.739	0.0134545
803.818	0.0135094
803.896	0.0134010
803.974	0.0133753
804.052	0.0134351
804.130	0.0132515
804.208	0.0131437
804.286	0.0132510
804.364	0.0131213
804.443	0.0131505
804.521	0.0130950
804.599	0.0131365
804.677	0.0130181
804.755	0.0131469
804.833	0.0130488
804.911	0.0130927
804.989	0.0128522
805.068	0.0128175
805.146	0.0128083
805.224	0.0129041
805.302	0.0128554
805.380	0.0127984
805.458	0.0128219
805.536	0.0129263
805.614	0.0129333
805.693	0.0127901
805.771	0.0127991
805.849	0.0129678
805.927	0.0128868
806.005	0.0129855
806.083	0.0130427
806.161	0.0130527
806.239	0.0131171
806.318	0.0130428
806.396	0.0130167
806.474	0.0131593
806.552	0.0131647
806.630	0.0128793
806.708	0.0133743
806.786	0.0131738
806.864	0.0131510
806.943	0.0132364
807.021	0.0134031
807.099	0.0133523
807.177	0.0133293
807.255	0.0133360
807.333	0.0134341
807.411	0.0135258
807.489	0.0135693
807.568	0.0134507
807.646	0.0135359
807.724	0.0134752
807.802	0.0134863
807.880	0.0135470
807.958	0.0135331
808.036	0.0134805
808.114	0.0136592
808.193	0.0135500
808.271	0.0135304
808.349	0.0134677
808.427	0.0133350
808.505	0.0133226
808.583	0.0133702
808.661	0.0133897
808.739	0.0133382
808.818	0.0134811
808.896	0.0134030
808.974	0.0132273
809.052	0.0133671
809.130	0.0133744
809.208	0.0134474
809.286	0.0133947
809.364	0.0133484
809.443	0.0133682
809.521	0.0133243
809.599	0.0132745
809.677	0.0133420
809.755	0.0133102
809.833	0.0133335
809.911	0.0132969
809.989	0.0132324
810.068	0.0131667
810.146	0.0131067
810.224	0.0131265
810.302	0.0130470
810.380	0.0130663
810.458	0.0129800
810.536	0.0129298
810.614	0.0127288
810.693	0.0126953
810.771	0.0126994
810.849	0.0128588
810.927	0.0127088
811.005	0.0127209
811.083	0.0127009
811.161	0.0126897
811.239	0.0126404
811.318	0.0126293
811.396	0.0126598
811.474	0.0126216
811.552	0.0127132
811.630	0.0127847
811.708	0.0127010
811.786	0.0128387
811.864	0.0128925
811.943	0.0128340
812.021	0.0129506
812.099	0.0130454
812.177	0.0130397
812.255	0.0130495
812.333	0.0132996
812.411	0.0132275
812.489	0.0131931
812.568	0.0133209
812.646	0.0133673
812.724	0.0133146
812.802	0.0134606
812.880	0.0135290
812.958	0.0134299
813.036	0.0133375
813.114	0.0134933
813.193	0.0135785
813.271	0.0135968
813.349	0.0135756
813.427	0.0134665
813.505	0.0134798
813.583	0.0134377
813.661	0.0135953
813.739	0.0135474
813.818	0.0134961
813.896	0.0135455
813.974	0.0134125
814.052	0.0135909
814.130	0.0136964
814.208	0.0133885
814.286	0.0134277
814.364	0.0135257
814.443	0.0135116
814.521	0.0133900
814.599	0.0132851
814.677	0.0131921
814.755	0.0133580
814.833	0.0133670
814.911	0.0132252
814.989	0.0131210
815.068	0.0130975
815.146	0.0130968
815.224	0.0131121
815.302	0.0129469
815.380	0.0130791
815.458	0.0130853
815.536	0.0127573
815.614	0.0128906
815.693	0.0129317
815.771	0.0128962
815.849	0.0128432
815.927	0.0128748
816.005	0.0128809
816.083	0.0128596
816.161	0.0129224
816.239	0.0128804
816.318	0.0128139
816.396	0.0128053
816.474	0.0129307
816.552	0.0129897
816.630	0.0129218
816.708	0.0129293
816.786	0.0129528
816.864	0.0129432
816.943	0.0129811
817.021	0.0131379
817.099	0.0130927
817.177	0.0131219
817.255	0.0132317
817.333	0.0131122
817.411	0.0132465
817.489	0.0131898
817.568	0.0132701
817.646	0.0132852
817.724	0.0132588
817.802	0.0133784
817.880	0.0133198
817.958	0.0133283
818.036	0.0133440
818.114	0.0133765
818.193	0.0132849
818.271	0.0132944
818.349	0.0132903
818.427	0.0131936
818.505	0.0133073
818.583	0.0133773
818.661	0.0132738
818.739	0.0131499
818.818	0.0131696
818.896	0.0133192
818.974	0.0131914
819.052	0.0133192
819.130	0.0132599
819.208	0.0134615
819.286	0.0132220
819.364	0.0132545
819.443	0.0133898
819.521	0.0133573
819.599	0.0133454
819.677	0.0134376
819.755	0.0132711
819.833	0.0134709
819.911	0.0133942
819.989	0.0134541
820.068	0.0133955
820.146	0.0134084
820.224	0.0135501
820.302	0.0132938
820.380	0.0134074
820.458	0.0135638
820.536	0.0134572
820.614	0.0134044
820.693	0.0133563
820.771	0.0134102
820.849	0.0133302
820.927	0.0134384
821.005	0.0133981
821.083	0.0133845
821.161	0.0133239
821.239	0.0132992
821.318	0.0133932
821.396	0.0132787
821.474	0.0132424
821.552	0.0131082
821.630	0.0132134
821.708	0.0131922
821.786	0.0132266
821.864	0.0130835
821.943	0.0130491
822.021	0.0131357
822.099	0.0132273
822.177	0.0132500
822.255	0.0129929
822.333	0.0131032
822.411	0.0132745
822.489	0.0131669
822.568	0.0131236
822.646	0.0131797
822.724	0.0131993
822.802	0.0132259
822.880	0.0132858
822.958	0.0133311
823.036	0.0132970
823.114	0.0132503
823.193	0.0132065
823.271	0.0132278
823.349	0.0133237
823.427	0.0133872
823.505	0.0133483
823.583	0.0133995
823.661	0.0133285
823.739	0.0132619
823.818	0.0132664
823.896	0.0132571
823.974	0.0133214
824.052	0.0132676
824.130	0.0132014
824.208	0.0131567
824.286	0.0133530
824.364	0.0132145
824.443	0.0132447
824.521	0.0131413
824.599	0.0131196
824.677	0.0130919
824.755	0.0131727
824.833	0.0130971
824.911	0.0133099
824.989	0.0132687
825.068	0.0132360
825.146	0.0131773
825.224	0.0131294
825.302	0.0133567
825.380	0.0131903
825.458	0.0132436
825.536	0.0133682
825.614	0.0132874
825.693	0.0133580
825.771	0.0134432
825.849	0.0135192
825.927	0.0134426
826.005	0.0135487
826.083	0.0133520
826.161	0.0133969
826.239	0.0134240
826.318	0.0134776
826.396	0.0134731
826.474	0.0135299
826.552	0.0134356
826.630	0.0134858
826.708	0.0134932
826.786	0.0135479
826.864	0.0135735
826.943	0.0134501
827.021	0.0135535
827.099	0.0134013
827.177	0.0134527
827.255	0.0134909
827.333	0.0134535
827.411	0.0135090
827.489	0.0133345
827.568	0.0132151
827.646	0.0130898
827.724	0.0131825
827.802	0.0131899
827.880	0.0132832
827.958	0.0131027
828.036	0.0129293
828.114	0.0130727
828.193	0.0130266
828.271	0.0130860
828.349	0.0130838
828.427	0.0130994
828.505	0.0129924
828.583	0.0131039
828.661	0.0129605
828.739	0.0130987
828.818	0.0130311
828.896	0.0131020
828.974	0.0130925
829.052	0.0131045
829.130	0.0129674
829.208	0.0130699
829.286	0.0131575
829.364	0.0129166
829.443	0.0129492
829.521	0.0131030
829.599	0.0131296
829.677	0.0130065
829.755	0.0130618
829.833	0.0132080
829.911	0.0131645
829.989	0.0132608
830.068	0.0131897
830.146	0.0132860
830.224	0.0131782
830.302	0.0132649
830.380	0.0132676
830.458	0.0132998
830.536	0.0132385
830.614	0.0131869
830.693	0.0132554
830.771	0.0131911
830.849	0.0131461
830.927	0.0133356
831.005	0.0132881
831.083	0.0132671
831.161	0.0133601
831.239	0.0133553
831.318	0.0132585
831.396	0.0131470
831.474	0.0133137
831.552	0.0133698
831.630	0.0135011
831.708	0.0133733
831.786	0.0134227
831.864	0.0133633
831.943	0.0133708
832.021	0.0135739
832.099	0.0133755
832.177	0.0133540
832.255	0.0133376
832.333	0.0133923
832.411	0.0134250
832.489	0.0133702
832.568	0.0134283
832.646	0.0135239
832.724	0.0133955
832.802	0.0133027
832.880	0.0131825
832.958	0.0132247
833.036	0.0132757
833.114	0.0134012
833.193	0.0133035
833.271	0.0131428
833.349	0.0131933
833.427	0.0133517
833.505	0.0132531
833.583	0.0133490
833.661	0.0132885
833.739	0.0133797
833.818	0.0133308
833.896	0.0133961
833.974	0.0132861
834.052	0.0132097
834.130	0.0132014
834.208	0.0132287
834.286	0.0131532
834.364	0.0131507
834.443	0.0131459
834.521	0.0131219
834.599	0.0132222
834.677	0.0131449
834.755	0.0131672
834.833	0.0131104
834.911	0.0131043
834.989	0.0131352
835.068	0.0129512
835.146	0.0129216
835.224	0.0130820
835.302	0.0129373
835.380	0.0129396
835.458	0.0130802
835.536	0.0130067
835.614	0.0129547
835.693	0.0131007
835.771	0.0130000
835.849	0.0128758
835.927	0.0130738
836.005	0.0130209
836.083	0.0130511
836.161	0.0132051
836.239	0.0129533
836.318	0.0130733
836.396	0.0132118
836.474	0.0131047
836.552	0.0132216
836.630	0.0132175
836.708	0.0133620
836.786	0.0131975
836.864	0.0132460
836.943	0.0133823
837.021	0.0134433
837.099	0.0133178
837.177	0.0134593
837.255	0.0133472
837.333	0.0134740
837.411	0.0133620
837.489	0.0134356
837.568	0.0135181
837.646	0.0133779
837.724	0.0135872
837.802	0.0133726
837.880	0.0133765
837.958	0.0134326
838.036	0.0132491
838.114	0.0132897
838.193	0.0134151
838.271	0.0132938
838.349	0.0132207
838.427	0.0132282
838.505	0.0133195
838.583	0.0132776
838.661	0.0132208
838.739	0.0131764
838.818	0.0132780
838.896	0.0133973
838.974	0.0132605
839.052	0.0133876
839.130	0.0132005
839.208	0.0132777
839.286	0.0132058
839.364	0.0132029
839.443	0.0132522
839.521	0.0132559
839.599	0.0133411
839.677	0.0132816
839.755	0.0133171
839.833	0.0133092
839.911	0.0133534
839.989	0.0133524
840.068	0.0133746
840.146	0.0134219
840.224	0.0132024
840.302	0.0132145
840.380	0.0132363
840.458	0.0132069
840.536	0.0131930
840.614	0.0131519
840.693	0.0132603
840.771	0.0131273
840.849	0.0130552
840.927	0.0130653
841.005	0.0130410
841.083	0.0131159
841.161	0.0130991
841.239	0.0129134
841.318	0.0131284
841.396	0.0131146
841.474	0.0130417
841.552	0.0129005
841.630	0.0129481
841.708	0.0129851
841.786	0.0129570
841.864	0.0130574
841.943	0.0130311
842.021	0.0131297
842.099	0.0132520
842.177	0.0131314
842.255	0.0132214
842.333	0.0131480
842.411	0.0132583
842.489	0.0133148
842.568	0.0133491
842.646	0.0133536
842.724	0.0133690
842.802	0.0133273
842.880	0.0132523
842.958	0.0133525
843.036	0.0133009
843.114	0.0133189
843.193	0.0132629
843.271	0.0132370
843.349	0.0134008
843.427	0.0133937
843.505	0.0133871
843.583	0.0133372
843.661	0.0132810
843.739	0.0133580
843.818	0.0132183
843.896	0.0133380
843.974	0.0133730
844.052	0.0132895
844.130	0.0133602
844.208	0.0132519
844.286	0.0133717
844.364	0.0134459
844.443	0.0133461
844.521	0.0132314
844.599	0.0133022
844.677	0.0133385
844.755	0.0133279
844.833	0.0133745
844.911	0.0133276
844.989	0.0134010
845.068	0.0133036
845.146	0.0131924
845.224	0.0133525
845.302	0.0132554
845.380	0.0133573
845.458	0.0134747
845.536	0.0133186
845.614	0.0132449
845.693	0.0132781
845.771	0.0131421
845.849	0.0133205
845.927	0.0133457
846.005	0.0133138
846.083	0.0131148
846.161	0.0132582
846.239	0.0130974
846.318	0.0131609
846.396	0.0131638
846.474	0.0131528
846.552	0.0131989
846.630	0.0131709
846.708	0.0131190
846.786	0.0130385
846.864	0.0130382
846.943	0.0130206
847.021	0.0130880
847.099	0.0131453
847.177	0.0130456
847.255	0.0131005
847.333	0.0131773
847.411	0.0133155
847.489	0.0131598
847.568	0.0131108
847.646	0.0130508
847.724	0.0131853
847.802	0.0131689
847.880	0.0132243
847.958	0.0131508
848.036	0.0131516
848.114	0.0132490
848.193	0.0131610
848.271	0.0132201
848.349	0.0132899
848.427	0.0132304
848.505	0.0130893
848.583	0.0132272
848.661	0.0132459
848.739	0.0132270
848.818	0.0129915
848.896	0.0132417
848.974	0.0132106
849.052	0.0132504
849.130	0.0132552
849.208	0.0133985
849.286	0.0131181
849.364	0.0131992
849.443	0.0133503
849.521	0.0132676
849.599	0.0132490
849.677	0.0133714
849.755	0.0133568
849.833	0.0133241
849.911	0.0132792
849.989	0.0133279
850.068	0.0133159
850.146	0.0134191
850.224	0.0134863
850.302	0.0134572
850.380	0.0133334
850.458	0.0133526
850.536	0.0134319
850.614	0.0135589
850.693	0.0135009
850.771	0.0134764
850.849	0.0134885
850.927	0.0135851
851.005	0.0134945
851.083	0.0135277
851.161	0.0134168
851.239	0.0134201
851.318	0.0135806
851.396	0.0133806
851.474	0.0134103
851.552	0.0134159
851.630	0.0133320
851.708	0.0131841
851.786	0.0131811
851.864	0.0131387
851.943	0.0131481
852.021	0.0130412
852.099	0.0132683
852.177	0.0131228
852.255	0.0130820
852.333	0.0130417
852.411	0.0130111
852.489	0.0129887
852.568	0.0131110
852.646	0.0131654
852.724	0.0131293
852.802	0.0130253
852.880	0.0132085
852.958	0.0132584
853.036	0.0131253
853.114	0.0130042
853.193	0.0132420
853.271	0.0131672
853.349	0.0131589
853.427	0.0132802
853.505	0.0131350
853.583	0.0131419
853.661	0.0130571
853.739	0.0131184
853.818	0.0131686
853.896	0.0132107
853.974	0.0132098
854.052	0.0130828
854.130	0.0132307
854.208	0.0131247
854.286	0.0130434
854.364	0.0132727
854.443	0.0132467
854.521	0.0131587
854.599	0.0130412
854.677	0.0131236
854.755	0.0130879
854.833	0.0131194
854.911	0.0132233
854.989	0.0131859
855.068	0.0131861
855.146	0.0133015
855.224	0.0133684
855.302	0.0134128
855.380	0.0132775
855.458	0.0134722
855.536	0.0135486
855.614	0.0134119
855.693	0.0134872
855.771	0.0134872
855.849	0.0133155
855.927	0.0134769
856.005	0.0135339
856.083	0.0135601
856.161	0.0134850
856.239	0.0134222
856.318	0.0134810
856.396	0.0135281
856.474	0.0133913
856.552	0.0133672
856.630	0.0134325
856.708	0.0133131
856.786	0.0132911
856.864	0.0132764
856.943	0.0132691
857.021	0.0131919
857.099	0.0131950
857.177	0.0131435
857.255	0.0130099
857.333	0.0131098
857.411	0.0131355
857.489	0.0130256
857.568	0.0129561
857.646	0.0130746
857.724	0.0130450
857.802	0.0130041
857.880	0.0129269
857.958	0.0130070
858.036	0.0130849
858.114	0.0131209
858.193	0.0130396
858.271	0.0131590
858.349	0.0131413
858.427	0.0131001
858.505	0.0130987
858.583	0.0132561
858.661	0.0131039
858.739	0.0132187
858.818	0.0132214
858.896	0.0132590
858.974	0.0131858
859.052	0.0132334
859.130	0.0131480
859.208	0.0131284
859.286	0.0133347
859.364	0.0132979
859.443	0.0133709
859.521	0.0133748
859.599	0.0133303
859.677	0.0133792
859.755	0.0132829
859.833	0.0133179
859.911	0.0134421
859.989	0.0132126
860.068	0.0133362
860.146	0.0131876
860.224	0.0132541
860.302	0.0132068
860.380	0.0132332
860.458	0.0131938
860.536	0.0131838
860.614	0.0131565
860.693	0.0132933
860.771	0.0132516
860.849	0.0131813
860.927	0.0131574
861.005	0.0130959
861.083	0.0132581
861.161	0.0132542
861.239	0.0132339
861.318	0.0132923
861.396	0.0131815
861.474	0.0132144
861.552	0.0132021
861.630	0.0132947
861.708	0.0131653
861.786	0.0132930
861.864	0.0133457
861.943	0.0134448
862.021	0.0133722
862.099	0.0133147
862.177	0.0134222
862.255	0.0133260
862.333	0.0134280
862.411	0.0134432
862.489	0.0132635
862.568	0.0133252
862.646	0.0134180
862.724	0.0133283
862.802	0.0133035
862.880	0.0133009
862.958	0.0132717
863.036	0.0133258
863.114	0.0132466
863.193	0.0133211
863.271	0.0131358
863.349	0.0131728
863.427	0.0131445
863.505	0.0131237
863.583	0.0132089
863.661	0.0131427
863.739	0.0131812
863.818	0.0131831
863.896	0.0132114
863.974	0.0132383
864.052	0.0132006
864.130	0.0132543
864.208	0.0132199
864.286	0.0132990
864.364	0.0131645
864.443	0.0131703
864.521	0.0130807
864.599	0.0132629
864.677	0.0133076
864.755	0.0131035
864.833	0.0131326
864.911	0.0131500
864.989	0.0132524
865.068	0.0132692
865.146	0.0131519
865.224	0.0130676
865.302	0.0131802
865.380	0.0130621
865.458	0.0131658
865.536	0.0132035
865.614	0.0131686
865.693	0.0131200
865.771	0.0131048
865.849	0.0129919
865.927	0.0131644
866.005	0.0132260
866.083	0.0132637
866.161	0.0132195
866.239	0.0132134
866.318	0.0131127
866.396	0.0131877
866.474	0.0131969
866.552	0.0133640
866.630	0.0134519
866.708	0.0135287
866.786	0.0133606
866.864	0.0133489
866.943	0.0133137
867.021	0.0135611
867.099	0.0134022
867.177	0.0134850
867.255	0.0133907
867.333	0.0133749
867.411	0.0135789
867.489	0.0133861
867.568	0.0134888
867.646	0.0135461
867.724	0.0135328
867.802	0.0133588
867.880	0.0133307
867.958	0.0132138
868.036	0.0132742
868.114	0.0132397
868.193	0.0132329
868.271	0.0132601
868.349	0.0132256
868.427	0.0131238
868.505	0.0131519
868.583	0.0130675
868.661	0.0130871
868.739	0.0130202
868.818	0.0130553
868.896	0.0129619
868.974	0.0129365
869.052	0.0130858
869.130	0.0129953
869.208	0.0130681
869.286	0.0130034
869.364	0.0130489
869.443	0.0131257
869.521	0.0130518
869.599	0.0131661
869.677	0.0132000
869.755	0.0131316
869.833	0.0131841
869.911	0.0132024
869.989	0.0132973
870.068	0.0132459
870.146	0.0132619
870.224	0.0132341
870.302	0.0131895
870.380	0.0132318
870.458	0.0133121
870.536	0.0133007
870.614	0.0132538
870.693	0.0131797
870.771	0.0132143
870.849	0.0131292
870.927	0.0132691
871.005	0.0132846
871.083	0.0131700
871.161	0.0130823
871.239	0.0132033
871.318	0.0132817
871.396	0.0134358
871.474	0.0133067
871.552	0.0132064
871.630	0.0133427
871.708	0.0133052
871.786	0.0133057
871.864	0.0132415
871.943	0.0134082
872.021	0.0133522
872.099	0.0132468
872.177	0.0133669
872.255	0.0133185
872.333	0.0132280
872.411	0.0132915
872.489	0.0133476
872.568	0.0132680
872.646	0.0132504
872.724	0.0132445
872.802	0.0134137
872.880	0.0133356
872.958	0.0130506
873.036	0.0131729
873.114	0.0131602
873.193	0.0132370
873.271	0.0132597
873.349	0.0131136
873.427	0.0129655
873.505	0.0131523
873.583	0.0131756
873.661	0.0130350
873.739	0.0131149
873.818	0.0130727
873.896	0.0130658
873.974	0.0131190
874.052	0.0131807
874.130	0.0130413
874.208	0.0130838
874.286	0.0131619
874.364	0.0131164
874.443	0.0130737
874.521	0.0132081
874.599	0.0131941
874.677	0.0131992
874.755	0.0132784
874.833	0.0133360
874.911	0.0133433
874.989	0.0134404
875.068	0.0132592
875.146	0.0134089
875.224	0.0135117
875.302	0.0134172
875.380	0.0134029
875.458	0.0135155
875.536	0.0134798
875.614	0.0134954
875.693	0.0135088
875.771	0.0135778
875.849	0.0133404
875.927	0.0133461
876.005	0.0133451
876.083	0.0132767
876.161	0.0131983
876.239	0.0132716
876.318	0.0132092
876.396	0.0131985
876.474	0.0132374
876.552	0.0131435
876.630	0.0130232
876.708	0.0130336
876.786	0.0130347
876.864	0.0130197
876.943	0.0131221
877.021	0.0131607
877.099	0.0130149
877.177	0.0131018
877.255	0.0129974
877.333	0.0130231
877.411	0.0131203
877.489	0.0131365
877.568	0.0131065
877.646	0.0132342
877.724	0.0132801
877.802	0.0132283
877.880	0.0132684
877.958	0.0131908
878.036	0.0132904
878.114	0.0133672
878.193	0.0132414
878.271	0.0134052
878.349	0.0133618
878.427	0.0133407
878.505	0.0132114
878.583	0.0133379
878.661	0.0131035
878.739	0.0133402
878.818	0.0132271
878.896	0.0133244
878.974	0.0131964
879.052	0.0131956
879.130	0.0132507
879.208	0.0133516
879.286	0.0133070
879.364	0.0131039
879.443	0.0130801
879.521	0.0130717
879.599	0.0132198
879.677	0.0133259
879.755	0.0131572
879.833	0.0132726
879.911	0.0132437
879.989	0.0133422
880.068	0.0133324
880.146	0.0134599
880.224	0.0134743
880.302	0.0133665
880.380	0.0133420
880.458	0.0133660
880.536	0.0134454
880.614	0.0133811
880.693	0.0133253
880.771	0.0132977
880.849	0.0134112
880.927	0.0134399
881.005	0.0134527
881.083	0.0131933
881.161	0.0134080
881.239	0.0134785
881.318	0.0133749
881.396	0.0131635
881.474	0.0130995
881.552	0.0131859
881.630	0.0132664
881.708	0.0131827
881.786	0.0130935
881.864	0.0130581
881.943	0.0130988
882.021	0.0130096
882.099	0.0130319
882.177	0.0132095
882.255	0.0131164
882.333	0.0130046
882.411	0.0131301
882.489	0.0130589
882.568	0.0132075
882.646	0.0132642
882.724	0.0133366
882.802	0.0132947
882.880	0.0132365
882.958	0.0133078
883.036	0.0133176
883.114	0.0133599
883.193	0.0134470
883.271	0.0134355
883.349	0.0133678
883.427	0.0133375
883.505	0.0132798
883.583	0.0134598
883.661	0.0134328
883.739	0.0133723
883.818	0.0134013
883.896	0.0134093
883.974	0.0133437
884.052	0.0134297
884.130	0.0133578
884.208	0.0133691
884.286	0.0132153
884.364	0.0133240
884.443	0.0130833
884.521	0.0132903
884.599	0.0132492
884.677	0.0132362
884.755	0.0132806
884.833	0.0131926
884.911	0.0132355
884.989	0.0131918
885.068	0.0131567
885.146	0.0130516
885.224	0.0132807
885.302	0.0132529
885.380	0.0133312
885.458	0.0132185
885.536	0.0132196
885.614	0.0132261
885.693	0.0132641
885.771	0.0131552
885.849	0.0132043
885.927	0.0132063
886.005	0.0131931
886.083	0.0131106
886.161	0.0133195
886.239	0.0133143
886.318	0.0132796
886.396	0.0133053
886.474	0.0132764
886.552	0.0133929
886.630	0.0132641
886.708	0.0134248
886.786	0.0133046
886.864	0.0132516
886.943	0.0132124
887.021	0.0133482
887.099	0.0132333
887.177	0.0132327
887.255	0.0133925
887.333	0.0133995
887.411	0.0132532
887.489	0.0133014
887.568	0.0132183
887.646	0.0132871
887.724	0.0132774
887.802	0.0132301
887.880	0.0133019
887.958	0.0132447
888.036	0.0134146
888.114	0.0133389
888.193	0.0133237
888.271	0.0132925
888.349	0.0133092
888.427	0.0134096
888.505	0.0132248
888.583	0.0132662
888.661	0.0132204
888.739	0.0131953
888.818	0.0131847
888.896	0.0132245
888.974	0.0131873
889.052	0.0131201
889.130	0.0132079
889.208	0.0130714
889.286	0.0132666
889.364	0.0132033
889.443	0.0129263
889.521	0.0132139
889.599	0.0131954
889.677	0.0131456
889.755	0.0131049
889.833	0.0131696
889.911	0.0131394
889.989	0.0131799
890.068	0.0131325
890.146	0.0133093
890.224	0.0132781
890.302	0.0132918
890.380	0.0133069
890.458	0.0134436
890.536	0.0133704
890.614	0.0133617
890.693	0.0133719
890.771	0.0134910
890.849	0.0134528
890.927	0.0135258
891.005	0.0134792
891.083	0.0135054
891.161	0.0133940
891.239	0.0134973
891.318	0.0134528
891.396	0.0135680
891.474	0.0134572
891.552	0.0134708
891.630	0.0134351
891.708	0.0133279
891.786	0.0134788
891.864	0.0133384
891.943	0.0133787
892.021	0.0133690
892.099	0.0133852
892.177	0.0133949
892.255	0.0133530
892.333	0.0133466
892.411	0.0132083
892.489	0.0132191
892.568	0.0131476
892.646	0.0131334
892.724	0.0132150
892.802	0.0132158
892.880	0.0131795
892.958	0.0132043
893.036	0.0132058
893.114	0.0131075
893.193	0.0130991
893.271	0.0131783
893.349	0.0130650
893.427	0.0131399
893.505	0.0131105
893.583	0.0130905
893.661	0.0131339
893.739	0.0130249
893.818	0.0129343
893.896	0.0132044
893.974	0.0132074
894.052	0.0131378
894.130	0.0131749
894.208	0.0130672
894.286	0.0131586
894.364	0.0132047
894.443	0.0131874
894.521	0.0132980
894.599	0.0131195
894.677	0.0131865
894.755	0.0134001
894.833	0.0132858
894.911	0.0132863
894.989	0.0133941
895.068	0.0133504
895.146	0.0132688
895.224	0.0134048
895.302	0.0135189
895.380	0.0133473
895.458	0.0133596
895.536	0.0134417
895.614	0.0133646
895.693	0.0134673
895.771	0.0133768
895.849	0.0132879
895.927	0.0133885
896.005	0.0133650
896.083	0.0133446
896.161	0.0133537
896.239	0.0133607
896.318	0.0133780
896.396	0.0133256
896.474	0.0134185
896.552	0.0134203
896.630	0.0133878
896.708	0.0132255
896.786	0.0133216
896.864	0.0133014
896.943	0.0134513
897.021	0.0134447
897.099	0.0134360
897.177	0.0134367
897.255	0.0133335
897.333	0.0133161
897.411	0.0132961
897.489	0.0132984
897.568	0.0133167
897.646	0.0132700
897.724	0.0132150
897.802	0.0131854
897.880	0.0131139
897.958	0.0132002
898.036	0.0133471
898.114	0.0133275
898.193	0.0131174
898.271	0.0132387
898.349	0.0130547
898.427	0.0132145
898.505	0.0132134
898.583	0.0131883
898.661	0.0131999
898.739	0.0132664
898.818	0.0131511
898.896	0.0131693
898.974	0.0131052
899.052	0.0130279
899.130	0.0130872
899.208	0.0132949
899.286	0.0130695
899.364	0.0131113
899.443	0.0132214
899.521	0.0132608
899.599	0.0130815
899.677	0.0130873
899.755	0.0130596
899.833	0.0131266
899.911	0.0130318
899.989	0.0130524
900.068	0.0132261
900.146	0.0131031
900.224	0.0130954
900.302	0.0132342
900.380	0.0133347
900.458	0.0133547
900.536	0.0132008
900.614	0.0132101
900.693	0.0132189
900.771	0.0131974
900.849	0.0131951
900.927	0.0132256
901.005	0.0133599
901.083	0.0131257
901.161	0.0132504
901.239	0.0132257
901.318	0.0132626
901.396	0.0131229
901.474	0.0132872
901.552	0.0131223
901.630	0.0130920
901.708	0.0131025
901.786	0.0131881
901.864	0.0132456
901.943	0.0132516
902.021	0.0132632
902.099	0.0132323
902.177	0.0133219
902.255	0.0132808
902.333	0.0133018
902.411	0.0132652
902.489	0.0132102
902.568	0.0132413
902.646	0.0134446
902.724	0.0133335
902.802	0.0133450
902.880	0.0132671
902.958	0.0133368
903.036	0.0134065
903.114	0.0133602
903.193	0.0133202
903.271	0.0133179
903.349	0.0132994
903.427	0.0133880
903.505	0.0134598
903.583	0.0132580
903.661	0.0133013
903.739	0.0133961
903.818	0.0133282
903.896	0.0133086
903.974	0.0133512
904.052	0.0131979
904.130	0.0132606
904.208	0.0132771
904.286	0.0133154
904.364	0.0132304
904.443	0.0131593
904.521	0.0131783
904.599	0.0131845
904.677	0.0131814
904.755	0.0131694
904.833	0.0132171
904.911	0.0133092
904.989	0.0132201
905.068	0.0131207
905.146	0.0130608
905.224	0.0133047
905.302	0.0131982
905.380	0.0130813
905.458	0.0132888
905.536	0.0132649
905.614	0.0131527
905.693	0.0130585
905.771	0.0131706
905.849	0.0132514
905.927	0.0132230
906.005	0.0132665
906.083	0.0133057
906.161	0.0133126
906.239	0.0133718
906.318	0.0133395
906.396	0.0133902
906.474	0.0133082
906.552	0.0133429
906.630	0.0132582
906.708	0.0134277
906.786	0.0132596
906.864	0.0133158
906.943	0.0132320
907.021	0.0133084
907.099	0.0132462
907.177	0.0132649
907.255	0.0134522
907.333	0.0132360
907.411	0.0132260
907.489	0.0132814
907.568	0.0132893
907.646	0.0135168
907.724	0.0133982
907.802	0.0132391
907.880	0.0133805
907.958	0.0132830
908.036	0.0133244
908.114	0.0133448
908.193	0.0134166
908.271	0.0133444
908.349	0.0133419
908.427	0.0134026
908.505	0.0134080
908.583	0.0132144
908.661	0.0132310
908.739	0.0133878
908.818	0.0132625
908.896	0.0132311
908.974	0.0132860
909.052	0.0132776
909.130	0.0132021
909.208	0.0131931
909.286	0.0133001
909.364	0.0132891
909.443	0.0131959
909.521	0.0132184
909.599	0.0133801
909.677	0.0132861
909.755	0.0131489
909.833	0.0133197
909.911	0.0132193
909.989	0.0132507
910.068	0.0131155
910.146	0.0131593
910.224	0.0133250
910.302	0.0133600
910.380	0.0132060
910.458	0.0131508
910.536	0.0131740
910.614	0.0132234
910.693	0.0131977
910.771	0.0131622
910.849	0.0132347
910.927	0.0132281
911.005	0.0133102
911.083	0.0131793
911.161	0.0132714
911.239	0.0133287
911.318	0.0133203
911.396	0.0132728
911.474	0.0132278
911.552	0.0132098
911.630	0.0133017
911.708	0.0133071
911.786	0.0132342
911.864	0.0132520
911.943	0.0132769
912.021	0.0133249
912.099	0.0130744
912.177	0.0133488
912.255	0.0132486
912.333	0.0132515
912.411	0.0133220
912.489	0.0132087
912.568	0.0133015
912.646	0.0132262
912.724	0.0133385
912.802	0.0132616
912.880	0.0130975
912.958	0.0132720
913.036	0.0132540
913.114	0.0132399
913.193	0.0133054
913.271	0.0133346
913.349	0.0133842
913.427	0.0133231
913.505	0.0132567
913.583	0.0133585
913.661	0.0132450
913.739	0.0133254
913.818	0.0131873
913.896	0.0131757
913.974	0.0132311
914.052	0.0133298
914.130	0.0134004
914.208	0.0134593
914.286	0.0133350
914.364	0.0132874
914.443	0.0133556
914.521	0.0134606
914.599	0.0133778
914.677	0.0132835
914.755	0.0133749
914.833	0.0134200
914.911	0.0133932
914.989	0.0134133
915.068	0.0132566
915.146	0.0132464
915.224	0.0134422
915.302	0.0133578
915.380	0.0133469
915.458	0.0132957
915.536	0.0132442
915.614	0.0132021
915.693	0.0132903
915.771	0.0132285
915.849	0.0131174
915.927	0.0131329
916.005	0.0132195
916.083	0.0132133
916.161	0.0130141
916.239	0.0130895
916.318	0.0131319
916.396	0.0130861
916.474	0.0130086
916.552	0.0131461
916.630	0.0131291
916.708	0.0132037
916.786	0.0130873
916.864	0.0132087
916.943	0.0129781
917.021	0.0131363
917.099	0.0131386
917.177	0.0131647
917.255	0.0132331
917.333	0.0131990
917.411	0.0131202
917.489	0.0130936
917.568	0.0131169
917.646	0.0133052
917.724	0.0132232
917.802	0.0131358
917.880	0.0131792
917.958	0.0133084
918.036	0.0132424
918.114	0.0132693
918.193	0.0133109
918.271	0.0133113
918.349	0.0132933
918.427	0.0134676
918.505	0.0133237
918.583	0.0134124
918.661	0.0135265
918.739	0.0133770
918.818	0.0135326
918.896	0.0134476
918.974	0.0134624
919.052	0.0135677
919.130	0.0136373
919.208	0.0135276
919.286	0.0135675
919.364	0.0135323
919.443	0.0134946
919.521	0.0134853
919.599	0.0136681
919.677	0.0135380
919.755	0.0133559
919.833	0.0134374
919.911	0.0134375
919.989	0.0134813
920.068	0.0133296
920.146	0.0134453
920.224	0.0132341
920.302	0.0132780
920.380	0.0132649
920.458	0.0132727
920.536	0.0132133
920.614	0.0132449
920.693	0.0131685
920.771	0.0129594
920.849	0.0132711
920.927	0.0131968
921.005	0.0132236
921.083	0.0131680
921.161	0.0130960
921.239	0.0130196
921.318	0.0129656
921.396	0.0131018
921.474	0.0131807
921.552	0.0131560
921.630	0.0129819
921.708	0.0128679
921.786	0.0129946
921.864	0.0130202
921.943	0.0130330
922.021	0.0131442
922.099	0.0131107
922.177	0.0131004
922.255	0.0130519
922.333	0.0131233
922.411	0.0131211
922.489	0.0132124
922.568	0.0131260
922.646	0.0130309
922.724	0.0129535
922.802	0.0132138
922.880	0.0131960
922.958	0.0132257
923.036	0.0133068
923.114	0.0132671
923.193	0.0132216
923.271	0.0133839
923.349	0.0132461
923.427	0.0131252
923.505	0.0132845
923.583	0.0132332
923.661	0.0131976
923.739	0.0133173
923.818	0.0133509
923.896	0.0132378
923.974	0.0133268
924.052	0.0132282
924.130	0.0132611
924.208	0.0132877
924.286	0.0134633
924.364	0.0132690
924.443	0.0134464
924.521	0.0134755
924.599	0.0133842
924.677	0.0133685
924.755	0.0134847
924.833	0.0133708
924.911	0.0134641
924.989	0.0134126
925.068	0.0135123
925.146	0.0134583
925.224	0.0134792
925.302	0.0135033
925.380	0.0134894
925.458	0.0134293
925.536	0.0133791
925.614	0.0134255
925.693	0.0133902
925.771	0.0132262
925.849	0.0132976
925.927	0.0132544
926.005	0.0132609
926.083	0.0132483
926.161	0.0132382
926.239	0.0130289
926.318	0.0130959
926.396	0.0130585
926.474	0.0129922
926.552	0.0130724
926.630	0.0131001
926.708	0.0130998
926.786	0.0130504
926.864	0.0130920
926.943	0.0130153
927.021	0.0128525
927.099	0.0129871
927.177	0.0130044
927.255	0.0131716
927.333	0.0129607
927.411	0.0129971
927.489	0.0129964
927.568	0.0130382
927.646	0.0130139
927.724	0.0128185
927.802	0.0129118
927.880	0.0129857
927.958	0.0131453
928.036	0.0130370
928.114	0.0130528
928.193	0.0131127
928.271	0.0132506
928.349	0.0131914
928.427	0.0132610
928.505	0.0131758
928.583	0.0129970
928.661	0.0131306
928.739	0.0131792
928.818	0.0132506
928.896	0.0131984
928.974	0.0132684
929.052	0.0131692
929.130	0.0132316
929.208	0.0132667
929.286	0.0131891
929.364	0.0133186
929.443	0.0132688
929.521	0.0134535
929.599	0.0133121
929.677	0.0132471
929.755	0.0132428
929.833	0.0133581
929.911	0.0134334
929.989	0.0133961
930.068	0.0132439
930.146	0.0134223
930.224	0.0133563
930.302	0.0133900
930.380	0.0134132
930.458	0.0134310
930.536	0.0134937
930.614	0.0133615
930.693	0.0134053
930.771	0.0135406
930.849	0.0134119
930.927	0.0133411
931.005	0.0133800
931.083	0.0133893
931.161	0.0133966
931.239	0.0134236
931.318	0.0134200
931.396	0.0135260
931.474	0.0134245
931.552	0.0133181
931.630	0.0134318
931.708	0.0133566
931.786	0.0132880
931.864	0.0133891
931.943	0.0132255
932.021	0.0131796
932.099	0.0130843
932.177	0.0132190
932.255	0.0131959
932.333	0.0130857
932.411	0.0132420
932.489	0.0130952
932.568	0.0130478
932.646	0.0130840
932.724	0.0130543
932.802	0.0129836
932.880	0.0130923
932.958	0.0132394
933.036	0.0131041
933.114	0.0131882
933.193	0.0130952
933.271	0.0130718
933.349	0.0132220
933.427	0.0131775
933.505	0.0130819
933.583	0.0129849
933.661	0.0132738
933.739	0.0131403
933.818	0.0131148
933.896	0.0130158
933.974	0.0130650
934.052	0.0130338
934.130	0.0132150
934.208	0.0130003
934.286	0.0130080
934.364	0.0129870
934.443	0.0130018
934.521	0.0129377
934.599	0.0130824
934.677	0.0131775
934.755	0.0130024
934.833	0.0130289
934.911	0.0130456
934.989	0.0131906
935.068	0.0132420
935.146	0.0131567
935.224	0.0133283
935.302	0.0132971
935.380	0.0134000
935.458	0.0133407
935.536	0.0131937
935.614	0.0133646
935.693	0.0132761
935.771	0.0132118
935.849	0.0132745
935.927	0.0133691
936.005	0.0133756
936.083	0.0133292
936.161	0.0133640
936.239	0.0132563
936.318	0.0133634
936.396	0.0133585
936.474	0.0133418
936.552	0.0133900
936.630	0.0133656
936.708	0.0133768
936.786	0.0133130
936.864	0.0133182
936.943	0.0133034
937.021	0.0134154
937.099	0.0133080
937.177	0.0134280
937.255	0.0133442
937.333	0.0134656
937.411	0.0133678
937.489	0.0133162
937.568	0.0133578
937.646	0.0133978
937.724	0.0133546
937.802	0.0134270
937.880	0.0133141
937.958	0.0133794
938.036	0.0134361
938.114	0.0132358
938.193	0.0132030
938.271	0.0132189
938.349	0.0132773
938.427	0.0131969
938.505	0.0131937
938.583	0.0132384
938.661	0.0133167
938.739	0.0133533
938.818	0.0132767
938.896	0.0133078
938.974	0.0132639
939.052	0.0131446
939.130	0.0132906
939.208	0.0131640
939.286	0.0132478
939.364	0.0133510
939.443	0.0132288
939.521	0.0131249
939.599	0.0132528
939.677	0.0131849
939.755	0.0129887
939.833	0.0131004
939.911	0.0131539
939.989	0.0132591
940.068	0.0131555
940.146	0.0129637
940.224	0.0131876
940.302	0.0130736
940.380	0.0130907
940.458	0.0129634
940.536	0.0130347
940.614	0.0132156
940.693	0.0130769
940.771	0.0131400
940.849	0.0132233
940.927	0.0131268
941.005	0.0132795
941.083	0.0132452
941.161	0.0134229
941.239	0.0132595
941.318	0.0132012
941.396	0.0133120
941.474	0.0134039
941.552	0.0132076
941.630	0.0131917
941.708	0.0134065
941.786	0.0133258
941.864	0.0133956
941.943	0.0133045
942.021	0.0133995
942.099	0.0133010
942.177	0.0132682
942.255	0.0132674
942.333	0.0133739
942.411	0.0132776
942.489	0.0133806
942.568	0.0133634
942.646	0.0134283
942.724	0.0131156
942.802	0.0133102
942.880	0.0134055
942.958	0.0132948
943.036	0.0133706
943.114	0.0132954
943.193	0.0132870
943.271	0.0133247
943.349	0.0132948
943.427	0.0133292
943.505	0.0133002
943.583	0.0133319
943.661	0.0133157
943.739	0.0134432
943.818	0.0133768
943.896	0.0132990
943.974	0.0133006
944.052	0.0132817
944.130	0.0133499
944.208	0.0134831
944.286	0.0131808
944.364	0.0131389
944.443	0.0132821
944.521	0.0133002
944.599	0.0131747
944.677	0.0132537
944.755	0.0132921
944.833	0.0134182
944.911	0.0133066
944.989	0.0133317
945.068	0.0132237
945.146	0.0132027
945.224	0.0132138
945.302	0.0133212
945.380	0.0132162
945.458	0.0131847
945.536	0.0131767
945.614	0.0133776
945.693	0.0131316
945.771	0.0130422
945.849	0.0130203
945.927	0.0131718
946.005	0.0129385
946.083	0.0130972
946.161	0.0130823
946.239	0.0131828
946.318	0.0131482
946.396	0.0130274
946.474	0.0130419
946.552	0.0130318
946.630	0.0130428
946.708	0.0131586
946.786	0.0130827
946.864	0.0130631
946.943	0.0131055
947.021	0.0132063
947.099	0.0131376
947.177	0.0132468
947.255	0.0133948
947.333	0.0131459
947.411	0.0131237
947.489	0.0132855
947.568	0.0130043
947.646	0.0132401
947.724	0.0133652
947.802	0.0130713
947.880	0.0132175
947.958	0.0133124
948.036	0.0131819
948.114	0.0132262
948.193	0.0131611
948.271	0.0130357
948.349	0.0133048
948.427	0.0132041
948.505	0.0132525
948.583	0.0133613
948.661	0.0133406
948.739	0.0133131
948.818	0.0132389
948.896	0.0131355
948.974	0.0133438
949.052	0.0130975
949.130	0.0130990
949.208	0.0135091
949.286	0.0133181
949.364	0.0133343
949.443	0.0133088
949.521	0.0132842
949.599	0.0133665
949.677	0.0133784
949.755	0.0134646
949.833	0.0135372
949.911	0.0133205
949.989	0.0132858
950.068	0.0133517
950.146	0.0134395
950.224	0.0133318
950.302	0.0133045
950.380	0.0133823
950.458	0.0132545
950.536	0.0133280
950.614	0.0135106
950.693	0.0132980
950.771	0.0132690
950.849	0.0131965
950.927	0.0132654
951.005	0.0133408
951.083	0.0132523
951.161	0.0132211
951.239	0.0131863
951.318	0.0131957
951.396	0.0133121
951.474	0.0132187
951.552	0.0133109
951.630	0.0131463
951.708	0.0132065
951.786	0.0132146
951.864	0.0130259
951.943	0.0131920
952.021	0.0133668
952.099	0.0131715
952.177	0.0131180
952.255	0.0131776
952.333	0.0131096
952.411	0.0131659
952.489	0.0132487
952.568	0.0131128
952.646	0.0130689
952.724	0.0130415
952.802	0.0130933
952.880	0.0131257
952.958	0.0131227
953.036	0.0130914
953.114	0.0131740
953.193	0.0131089
953.271	0.0131985
953.349	0.0132458
953.427	0.0132223
953.505	0.0133108
953.583	0.0132590
953.661	0.0131248
953.739	0.0132822
953.818	0.0133698
953.896	0.0132717
953.974	0.0133678
954.052	0.0132468
954.130	0.0133256
954.208	0.0133226
954.286	0.0133898
954.364	0.0133873
954.443	0.0133020
954.521	0.0133311
954.599	0.0133761
954.677	0.0133519
954.755	0.0134471
954.833	0.0133732
954.911	0.0134476
954.989	0.0133037
955.068	0.0133765
955.146	0.0134530
955.224	0.0133913
955.302	0.0133744
955.380	0.0133756
955.458	0.0134853
955.536	0.0134588
955.614	0.0132832
955.693	0.0133688
955.771	0.0134042
955.849	0.0134542
955.927	0.0134428
956.005	0.0134226
956.083	0.0131760
956.161	0.0133049
956.239	0.0133497
956.318	0.0132355
956.396	0.0132558
956.474	0.0132641
956.552	0.0132336
956.630	0.0132450
956.708	0.0133698
956.786	0.0131881
956.864	0.0129714
956.943	0.0130730
957.021	0.0132476
957.099	0.0131618
957.177	0.0132130
957.255	0.0132292
957.333	0.0130879
957.411	0.0130984
957.489	0.0131187
957.568	0.0131236
957.646	0.0130663
957.724	0.0131465
957.802	0.0131336
957.880	0.0131535
957.958	0.0132723
958.036	0.0131824
958.114	0.0131523
958.193	0.0131461
958.271	0.0130971
958.349	0.0132226
958.427	0.0132259
958.505	0.0133272
958.583	0.0131299
958.661	0.0133137
958.739	0.0132881
958.818	0.0132249
958.896	0.0132201
958.974	0.0131995
959.052	0.0132243
959.130	0.0132615
959.208	0.0133286
959.286	0.0132655
959.364	0.0131824
959.443	0.0132000
959.521	0.0132314
959.599	0.0134503
959.677	0.0132973
959.755	0.0131631
959.833	0.0133643
959.911	0.0132876
