06/01/2022	21:27:22	Ver.	4.1	UNKNOWN
Optical Delay	599.988409	Delta X		0.078125	Sweeps	1	Scan Rate	0/0
Coordinates	Axis 1	NaN	Axis 2	NaN	Axis 3	NaN	Axis 4	NaN	Axis 5	NaN	Axis 6	0.000000
TX Power	0.000000	RX Power	0.000000

599.988	0.0176891
600.067	0.0176256
600.145	0.0177710
600.223	0.0177410
600.301	0.0177406
600.379	0.0176941
600.457	0.0178564
600.535	0.0176366
600.613	0.0177003
600.692	0.0176956
600.770	0.0175533
600.848	0.0176867
600.926	0.0176875
601.004	0.0177568
601.082	0.0176603
601.160	0.0176913
601.238	0.0177517
601.317	0.0176395
601.395	0.0176218
601.473	0.0176970
601.551	0.0177718
601.629	0.0177713
601.707	0.0177421
601.785	0.0175681
601.863	0.0176743
601.942	0.0175906
602.020	0.0175896
602.098	0.0176945
602.176	0.0177610
602.254	0.0176627
602.332	0.0178040
602.410	0.0175996
602.488	0.0177179
602.567	0.0178194
602.645	0.0176721
602.723	0.0176802
602.801	0.0176865
602.879	0.0176541
602.957	0.0177678
603.035	0.0177999
603.113	0.0176089
603.192	0.0176472
603.270	0.0177035
603.348	0.0176344
603.426	0.0176942
603.504	0.0176504
603.582	0.0176711
603.660	0.0178045
603.738	0.0176981
603.817	0.0177022
603.895	0.0176558
603.973	0.0175419
604.051	0.0175768
604.129	0.0177828
604.207	0.0178998
604.285	0.0175960
604.363	0.0175124
604.442	0.0176761
604.520	0.0177317
604.598	0.0177576
604.676	0.0175555
604.754	0.0177515
604.832	0.0177753
604.910	0.0177444
604.988	0.0177179
605.067	0.0175339
605.145	0.0176558
605.223	0.0177657
605.301	0.0176202
605.379	0.0176170
605.457	0.0177494
605.535	0.0177866
605.613	0.0176824
605.692	0.0176882
605.770	0.0175937
605.848	0.0176534
605.926	0.0176505
606.004	0.0177386
606.082	0.0178150
606.160	0.0178214
606.238	0.0177110
606.317	0.0177408
606.395	0.0176180
606.473	0.0176064
606.551	0.0176951
606.629	0.0177843
606.707	0.0177397
606.785	0.0176016
606.863	0.0176667
606.942	0.0176299
607.020	0.0177541
607.098	0.0178036
607.176	0.0177137
607.254	0.0177950
607.332	0.0177219
607.410	0.0177374
607.488	0.0176340
607.567	0.0177555
607.645	0.0178751
607.723	0.0177747
607.801	0.0176335
607.879	0.0177757
607.957	0.0177453
608.035	0.0176362
608.113	0.0176694
608.192	0.0178129
608.270	0.0175690
608.348	0.0176350
608.426	0.0175771
608.504	0.0176823
608.582	0.0177513
608.660	0.0176240
608.738	0.0177879
608.817	0.0175536
608.895	0.0177046
608.973	0.0176938
609.051	0.0176409
609.129	0.0176762
609.207	0.0177375
609.285	0.0178231
609.363	0.0177160
609.442	0.0175629
609.520	0.0177066
609.598	0.0177448
609.676	0.0176730
609.754	0.0176995
609.832	0.0176698
609.910	0.0177004
609.988	0.0176721
610.067	0.0177647
610.145	0.0177158
610.223	0.0176637
610.301	0.0177224
610.379	0.0176564
610.457	0.0176913
610.535	0.0176923
610.613	0.0176785
610.692	0.0177402
610.770	0.0176847
610.848	0.0176773
610.926	0.0174874
611.004	0.0176287
611.082	0.0176749
611.160	0.0178030
611.238	0.0177016
611.317	0.0175902
611.395	0.0176198
611.473	0.0177103
611.551	0.0178519
611.629	0.0176254
611.707	0.0177309
611.785	0.0178037
611.863	0.0176282
611.942	0.0177631
612.020	0.0176698
612.098	0.0176963
612.176	0.0176898
612.254	0.0176279
612.332	0.0176854
612.410	0.0176550
612.488	0.0176922
612.567	0.0176443
612.645	0.0177126
612.723	0.0176682
612.801	0.0178259
612.879	0.0176486
612.957	0.0176718
613.035	0.0176957
613.113	0.0175586
613.192	0.0176492
613.270	0.0177286
613.348	0.0176790
613.426	0.0175201
613.504	0.0176593
613.582	0.0176904
613.660	0.0176244
613.738	0.0176864
613.817	0.0175784
613.895	0.0177087
613.973	0.0177262
614.051	0.0175633
614.129	0.0176214
614.207	0.0175565
614.285	0.0176904
614.363	0.0176172
614.442	0.0177478
614.520	0.0176091
614.598	0.0175436
614.676	0.0176620
614.754	0.0175549
614.832	0.0177059
614.910	0.0176975
614.988	0.0177396
615.067	0.0176441
615.145	0.0177257
615.223	0.0176859
615.301	0.0177742
615.379	0.0176385
615.457	0.0177991
615.535	0.0176200
615.613	0.0177266
615.692	0.0177335
615.770	0.0176507
615.848	0.0176709
615.926	0.0176141
616.004	0.0175607
616.082	0.0176020
616.160	0.0177335
616.238	0.0177332
616.317	0.0175957
616.395	0.0175666
616.473	0.0178901
616.551	0.0177283
616.629	0.0175850
616.707	0.0175457
616.785	0.0175461
616.863	0.0177555
616.942	0.0175886
617.020	0.0177261
617.098	0.0176872
617.176	0.0176453
617.254	0.0176873
617.332	0.0176775
617.410	0.0177029
617.488	0.0176905
617.567	0.0177751
617.645	0.0176221
617.723	0.0175929
617.801	0.0177372
617.879	0.0177333
617.957	0.0176942
618.035	0.0175951
618.113	0.0176118
618.192	0.0177041
618.270	0.0177929
618.348	0.0176868
618.426	0.0175581
618.504	0.0176543
618.582	0.0176313
618.660	0.0175764
618.738	0.0177844
618.817	0.0177732
618.895	0.0176436
618.973	0.0176822
619.051	0.0176868
619.129	0.0176442
619.207	0.0177352
619.285	0.0177245
619.363	0.0176257
619.442	0.0177073
619.520	0.0176683
619.598	0.0176410
619.676	0.0177129
619.754	0.0175436
619.832	0.0176669
619.910	0.0177187
619.988	0.0177396
620.067	0.0176611
620.145	0.0177402
620.223	0.0176280
620.301	0.0176692
620.379	0.0176865
620.457	0.0177091
620.535	0.0176913
620.613	0.0176645
620.692	0.0176886
620.770	0.0176309
620.848	0.0176166
620.926	0.0176495
621.004	0.0175957
621.082	0.0176526
621.160	0.0176934
621.238	0.0177199
621.317	0.0177382
621.395	0.0176782
621.473	0.0176429
621.551	0.0177005
621.629	0.0176590
621.707	0.0176493
621.785	0.0176360
621.863	0.0176891
621.942	0.0176466
622.020	0.0175962
622.098	0.0176645
622.176	0.0176645
622.254	0.0177719
622.332	0.0177465
622.410	0.0176805
622.488	0.0177603
622.567	0.0177673
622.645	0.0177242
622.723	0.0175311
622.801	0.0177058
622.879	0.0176457
622.957	0.0175572
623.035	0.0175854
623.113	0.0176494
623.192	0.0176378
623.270	0.0176328
623.348	0.0177722
623.426	0.0176511
623.504	0.0175927
623.582	0.0175661
623.660	0.0176748
623.738	0.0175987
623.817	0.0175235
623.895	0.0176794
623.973	0.0177427
624.051	0.0176640
624.129	0.0177082
624.207	0.0177250
624.285	0.0178544
624.363	0.0175990
624.442	0.0176830
624.520	0.0178016
624.598	0.0177499
624.676	0.0176261
624.754	0.0175262
624.832	0.0177322
624.910	0.0177517
624.988	0.0176798
625.067	0.0177075
625.145	0.0177381
625.223	0.0177252
625.301	0.0176281
625.379	0.0176858
625.457	0.0177072
625.535	0.0177489
625.613	0.0176735
625.692	0.0175947
625.770	0.0175169
625.848	0.0176796
625.926	0.0177036
626.004	0.0177441
626.082	0.0177393
626.160	0.0175811
626.238	0.0176487
626.317	0.0177325
626.395	0.0178556
626.473	0.0175211
626.551	0.0175724
626.629	0.0176076
626.707	0.0175701
626.785	0.0177663
626.863	0.0176733
626.942	0.0176753
627.020	0.0176792
627.098	0.0177360
627.176	0.0177110
627.254	0.0176492
627.332	0.0174934
627.410	0.0177655
627.488	0.0178230
627.567	0.0177241
627.645	0.0176112
627.723	0.0177405
627.801	0.0176742
627.879	0.0176565
627.957	0.0176299
628.035	0.0177328
628.113	0.0176575
628.192	0.0177474
628.270	0.0177232
628.348	0.0175375
628.426	0.0176305
628.504	0.0177203
628.582	0.0178413
628.660	0.0176563
628.738	0.0176114
628.817	0.0175332
628.895	0.0177708
628.973	0.0176384
629.051	0.0177644
629.129	0.0177232
629.207	0.0177248
629.285	0.0176350
629.363	0.0175823
629.442	0.0176446
629.520	0.0176443
629.598	0.0176225
629.676	0.0177451
629.754	0.0177410
629.832	0.0177007
629.910	0.0177140
629.988	0.0176318
630.067	0.0177710
630.145	0.0176718
630.223	0.0176930
630.301	0.0177070
630.379	0.0177691
630.457	0.0177713
630.535	0.0177100
630.613	0.0176978
630.692	0.0176752
630.770	0.0176255
630.848	0.0177417
630.926	0.0176124
631.004	0.0175986
631.082	0.0177236
631.160	0.0175076
631.238	0.0177837
631.317	0.0177727
631.395	0.0175867
631.473	0.0176645
631.551	0.0175649
631.629	0.0176241
631.707	0.0176518
631.785	0.0177247
631.863	0.0176667
631.942	0.0177245
632.020	0.0176141
632.098	0.0177460
632.176	0.0176897
632.254	0.0175972
632.332	0.0176852
632.410	0.0176412
632.488	0.0176051
632.567	0.0176565
632.645	0.0175616
632.723	0.0175836
632.801	0.0177013
632.879	0.0176070
632.957	0.0177046
633.035	0.0176239
633.113	0.0176129
633.192	0.0176903
633.270	0.0175635
633.348	0.0176522
633.426	0.0176124
633.504	0.0175907
633.582	0.0175805
633.660	0.0177102
633.738	0.0175806
633.817	0.0177573
633.895	0.0177409
633.973	0.0176531
634.051	0.0176259
634.129	0.0175961
634.207	0.0177251
634.285	0.0177862
634.363	0.0177541
634.442	0.0175653
634.520	0.0177831
634.598	0.0176849
634.676	0.0176952
634.754	0.0176672
634.832	0.0176859
634.910	0.0177121
634.988	0.0176104
635.067	0.0177144
635.145	0.0175337
635.223	0.0175816
635.301	0.0177760
635.379	0.0177125
635.457	0.0177361
635.535	0.0177199
635.613	0.0175433
635.692	0.0176596
635.770	0.0176434
635.848	0.0176375
635.926	0.0174313
636.004	0.0177924
636.082	0.0176762
636.160	0.0176775
636.238	0.0176109
636.317	0.0177274
636.395	0.0175114
636.473	0.0175599
636.551	0.0177505
636.629	0.0177030
636.707	0.0177001
636.785	0.0176835
636.863	0.0176852
636.942	0.0176834
637.020	0.0176078
637.098	0.0175256
637.176	0.0175726
637.254	0.0176853
637.332	0.0177039
637.410	0.0177797
637.488	0.0175484
637.567	0.0176365
637.645	0.0175714
637.723	0.0176440
637.801	0.0176965
637.879	0.0176011
637.957	0.0176994
638.035	0.0176630
638.113	0.0176376
638.192	0.0176086
638.270	0.0177426
638.348	0.0177408
638.426	0.0175610
638.504	0.0177621
638.582	0.0175877
638.660	0.0178036
638.738	0.0175960
638.817	0.0177049
638.895	0.0176418
638.973	0.0177887
639.051	0.0176713
639.129	0.0176557
639.207	0.0177561
639.285	0.0177607
639.363	0.0176479
639.442	0.0176300
639.520	0.0176112
639.598	0.0176520
639.676	0.0177914
639.754	0.0177306
639.832	0.0177008
639.910	0.0176566
639.988	0.0175207
640.067	0.0177376
640.145	0.0177419
640.223	0.0177321
640.301	0.0177139
640.379	0.0175971
640.457	0.0176445
640.535	0.0175987
640.613	0.0176737
640.692	0.0176559
640.770	0.0177015
640.848	0.0177715
640.926	0.0176896
641.004	0.0174790
641.082	0.0176595
641.160	0.0175747
641.238	0.0176358
641.317	0.0175306
641.395	0.0176456
641.473	0.0176820
641.551	0.0177837
641.629	0.0176013
641.707	0.0175538
641.785	0.0175823
641.863	0.0176955
641.942	0.0175991
642.020	0.0176410
642.098	0.0176563
642.176	0.0176208
642.254	0.0177343
642.332	0.0175977
642.410	0.0175941
642.488	0.0176847
642.567	0.0174587
642.645	0.0177119
642.723	0.0175780
642.801	0.0176226
642.879	0.0176630
642.957	0.0176249
643.035	0.0176488
643.113	0.0176187
643.192	0.0178400
643.270	0.0177499
643.348	0.0175366
643.426	0.0176928
643.504	0.0177386
643.582	0.0175775
643.660	0.0175628
643.738	0.0175633
643.817	0.0176674
643.895	0.0176650
643.973	0.0175729
644.051	0.0176669
644.129	0.0176952
644.207	0.0176811
644.285	0.0177976
644.363	0.0176560
644.442	0.0177265
644.520	0.0176629
644.598	0.0175972
644.676	0.0176319
644.754	0.0175443
644.832	0.0176620
644.910	0.0175904
644.988	0.0176840
645.067	0.0177863
645.145	0.0176349
645.223	0.0176604
645.301	0.0176659
645.379	0.0175991
645.457	0.0177108
645.535	0.0176277
645.613	0.0175948
645.692	0.0176784
645.770	0.0176361
645.848	0.0176096
645.926	0.0177220
646.004	0.0176118
646.082	0.0176623
646.160	0.0176231
646.238	0.0175813
646.317	0.0176476
646.395	0.0175465
646.473	0.0176879
646.551	0.0176942
646.629	0.0177039
646.707	0.0177176
646.785	0.0175388
646.863	0.0175896
646.942	0.0177724
647.020	0.0176445
647.098	0.0176830
647.176	0.0176595
647.254	0.0176789
647.332	0.0176801
647.410	0.0176671
647.488	0.0176720
647.567	0.0176459
647.645	0.0177680
647.723	0.0176802
647.801	0.0176154
647.879	0.0176228
647.957	0.0176833
648.035	0.0176269
648.113	0.0175738
648.192	0.0176214
648.270	0.0176588
648.348	0.0178017
648.426	0.0175459
648.504	0.0176447
648.582	0.0176776
648.660	0.0176635
648.738	0.0176617
648.817	0.0177012
648.895	0.0177192
648.973	0.0177438
649.051	0.0176205
649.129	0.0177111
649.207	0.0177409
649.285	0.0176963
649.363	0.0177678
649.442	0.0177188
649.520	0.0177769
649.598	0.0177230
649.676	0.0177282
649.754	0.0176881
649.832	0.0176803
649.910	0.0178125
649.988	0.0177183
650.067	0.0176311
650.145	0.0175549
650.223	0.0176090
650.301	0.0177132
650.379	0.0177601
650.457	0.0176263
650.535	0.0176658
650.613	0.0177550
650.692	0.0176103
650.770	0.0176145
650.848	0.0177271
650.926	0.0176681
651.004	0.0176102
651.082	0.0176469
651.160	0.0175865
651.238	0.0176806
651.317	0.0176930
651.395	0.0175477
651.473	0.0177909
651.551	0.0176407
651.629	0.0177010
651.707	0.0177286
651.785	0.0175340
651.863	0.0176724
651.942	0.0176501
652.020	0.0176035
652.098	0.0176128
652.176	0.0175584
652.254	0.0176365
652.332	0.0175446
652.410	0.0174622
652.488	0.0178395
652.567	0.0176900
652.645	0.0176426
652.723	0.0176368
652.801	0.0176615
652.879	0.0177691
652.957	0.0175922
653.035	0.0176596
653.113	0.0178694
653.192	0.0177364
653.270	0.0176302
653.348	0.0176340
653.426	0.0176784
653.504	0.0175707
653.582	0.0178261
653.660	0.0176205
653.738	0.0176637
653.817	0.0177130
653.895	0.0178877
653.973	0.0177304
654.051	0.0175668
654.129	0.0175937
654.207	0.0176688
654.285	0.0176630
654.363	0.0176302
654.442	0.0177074
654.520	0.0177826
654.598	0.0176646
654.676	0.0176990
654.754	0.0176875
654.832	0.0176350
654.910	0.0176457
654.988	0.0175952
655.067	0.0177834
655.145	0.0176463
655.223	0.0176176
655.301	0.0176502
655.379	0.0177094
655.457	0.0176588
655.535	0.0176709
655.613	0.0176023
655.692	0.0176465
655.770	0.0175871
655.848	0.0177837
655.926	0.0177200
656.004	0.0174483
656.082	0.0176341
656.160	0.0176690
656.238	0.0174425
656.317	0.0177225
656.395	0.0176830
656.473	0.0177882
656.551	0.0176706
656.629	0.0177116
656.707	0.0176437
656.785	0.0176706
656.863	0.0177223
656.942	0.0177216
657.020	0.0175883
657.098	0.0176709
657.176	0.0176526
657.254	0.0176447
657.332	0.0175035
657.410	0.0176842
657.488	0.0177039
657.567	0.0177097
657.645	0.0176569
657.723	0.0175190
657.801	0.0175898
657.879	0.0177949
657.957	0.0177084
658.035	0.0175822
658.113	0.0178064
658.192	0.0177711
658.270	0.0176991
658.348	0.0176094
658.426	0.0175737
658.504	0.0176270
658.582	0.0176757
658.660	0.0175349
658.738	0.0176725
658.817	0.0176389
658.895	0.0176797
658.973	0.0175182
659.051	0.0177777
659.129	0.0177302
659.207	0.0177036
659.285	0.0175507
659.363	0.0175298
659.442	0.0176753
659.520	0.0176740
659.598	0.0175616
659.676	0.0175743
659.754	0.0177656
659.832	0.0176205
659.910	0.0176939
659.988	0.0176033
660.067	0.0177166
660.145	0.0178156
660.223	0.0177467
660.301	0.0175907
660.379	0.0175615
660.457	0.0177336
660.535	0.0176587
660.613	0.0176054
660.692	0.0175830
660.770	0.0177193
660.848	0.0177325
660.926	0.0174616
661.004	0.0176463
661.082	0.0177387
661.160	0.0176932
661.238	0.0177338
661.317	0.0178453
661.395	0.0176700
661.473	0.0176656
661.551	0.0176045
661.629	0.0177031
661.707	0.0175085
661.785	0.0177194
661.863	0.0175515
661.942	0.0175358
662.020	0.0176913
662.098	0.0176728
662.176	0.0176743
662.254	0.0176721
662.332	0.0175783
662.410	0.0175880
662.488	0.0176255
662.567	0.0177111
662.645	0.0177464
662.723	0.0176028
662.801	0.0175478
662.879	0.0175676
662.957	0.0177190
663.035	0.0177071
663.113	0.0175961
663.192	0.0175341
663.270	0.0175771
663.348	0.0176493
663.426	0.0175661
663.504	0.0176331
663.582	0.0177222
663.660	0.0176770
663.738	0.0176659
663.817	0.0177287
663.895	0.0176868
663.973	0.0176057
664.051	0.0176217
664.129	0.0176990
664.207	0.0176657
664.285	0.0176363
664.363	0.0176424
664.442	0.0175882
664.520	0.0176342
664.598	0.0175727
664.676	0.0177413
664.754	0.0177737
664.832	0.0177501
664.910	0.0175970
664.988	0.0175166
665.067	0.0177052
665.145	0.0176299
665.223	0.0176331
665.301	0.0176402
665.379	0.0177795
665.457	0.0175211
665.535	0.0176073
665.613	0.0176304
665.692	0.0175751
665.770	0.0176771
665.848	0.0176154
665.926	0.0177535
666.004	0.0177124
666.082	0.0176060
666.160	0.0175913
666.238	0.0174793
666.317	0.0176642
666.395	0.0177536
666.473	0.0176866
666.551	0.0175803
666.629	0.0176680
666.707	0.0175684
666.785	0.0175691
666.863	0.0176854
666.942	0.0177296
667.020	0.0176713
667.098	0.0177769
667.176	0.0176475
667.254	0.0175478
667.332	0.0176276
667.410	0.0176920
667.488	0.0176694
667.567	0.0176350
667.645	0.0177238
667.723	0.0177141
667.801	0.0175706
667.879	0.0176497
667.957	0.0178283
668.035	0.0175771
668.113	0.0176932
668.192	0.0177360
668.270	0.0176975
668.348	0.0177304
668.426	0.0177066
668.504	0.0175271
668.582	0.0176115
668.660	0.0176231
668.738	0.0175209
668.817	0.0176897
668.895	0.0177446
668.973	0.0176448
669.051	0.0176258
669.129	0.0176578
669.207	0.0176860
669.285	0.0175749
669.363	0.0176865
669.442	0.0176188
669.520	0.0177012
669.598	0.0176771
669.676	0.0175998
669.754	0.0175580
669.832	0.0176690
669.910	0.0176929
669.988	0.0176799
670.067	0.0176522
670.145	0.0174041
670.223	0.0176007
670.301	0.0176482
670.379	0.0176179
670.457	0.0176586
670.535	0.0174963
670.613	0.0177480
670.692	0.0177163
670.770	0.0177327
670.848	0.0176559
670.926	0.0176505
671.004	0.0175255
671.082	0.0175895
671.160	0.0176123
671.238	0.0176309
671.317	0.0176311
671.395	0.0176787
671.473	0.0176881
671.551	0.0177541
671.629	0.0177071
671.707	0.0175652
671.785	0.0176923
671.863	0.0176202
671.942	0.0177048
672.020	0.0175635
672.098	0.0176070
672.176	0.0176062
672.254	0.0175827
672.332	0.0176237
672.410	0.0176870
672.488	0.0175810
672.567	0.0178317
672.645	0.0176240
672.723	0.0175886
672.801	0.0176422
672.879	0.0177454
672.957	0.0176933
673.035	0.0176795
673.113	0.0175900
673.192	0.0175757
673.270	0.0175469
673.348	0.0177258
673.426	0.0176302
673.504	0.0176048
673.582	0.0178146
673.660	0.0175719
673.738	0.0175766
673.817	0.0177769
673.895	0.0176031
673.973	0.0177045
674.051	0.0176171
674.129	0.0177893
674.207	0.0177010
674.285	0.0177230
674.363	0.0175319
674.442	0.0175335
674.520	0.0176509
674.598	0.0175945
674.676	0.0177094
674.754	0.0176827
674.832	0.0175516
674.910	0.0177061
674.988	0.0176295
675.067	0.0177602
675.145	0.0175685
675.223	0.0175895
675.301	0.0175262
675.379	0.0177319
675.457	0.0176617
675.535	0.0176927
675.613	0.0175809
675.692	0.0176934
675.770	0.0176106
675.848	0.0175557
675.926	0.0176160
676.004	0.0175465
676.082	0.0176335
676.160	0.0175054
676.238	0.0178143
676.317	0.0176631
676.395	0.0176327
676.473	0.0177545
676.551	0.0177190
676.629	0.0176704
676.707	0.0176446
676.785	0.0176350
676.863	0.0177665
676.942	0.0176234
677.020	0.0175665
677.098	0.0176739
677.176	0.0175407
677.254	0.0176859
677.332	0.0175659
677.410	0.0176244
677.488	0.0176228
677.567	0.0176347
677.645	0.0176463
677.723	0.0175754
677.801	0.0176820
677.879	0.0176871
677.957	0.0176643
678.035	0.0175391
678.113	0.0176318
678.192	0.0176122
678.270	0.0176418
678.348	0.0176853
678.426	0.0176687
678.504	0.0175778
678.582	0.0176595
678.660	0.0177232
678.738	0.0176073
678.817	0.0176324
678.895	0.0177229
678.973	0.0176050
679.051	0.0176727
679.129	0.0176458
679.207	0.0176900
679.285	0.0176262
679.363	0.0176013
679.442	0.0176121
679.520	0.0176649
679.598	0.0177047
679.676	0.0178540
679.754	0.0176827
679.832	0.0177999
679.910	0.0176509
679.988	0.0176059
680.067	0.0175945
680.145	0.0177094
680.223	0.0176231
680.301	0.0176376
680.379	0.0175421
680.457	0.0177347
680.535	0.0177589
680.613	0.0175726
680.692	0.0176049
680.770	0.0177041
680.848	0.0175701
680.926	0.0177710
681.004	0.0176218
681.082	0.0175809
681.160	0.0178645
681.238	0.0177093
681.317	0.0176612
681.395	0.0176389
681.473	0.0176048
681.551	0.0175950
681.629	0.0175563
681.707	0.0176244
681.785	0.0175781
681.863	0.0176823
681.942	0.0176214
682.020	0.0177846
682.098	0.0175943
682.176	0.0176624
682.254	0.0175833
682.332	0.0176631
682.410	0.0177063
682.488	0.0176669
682.567	0.0176445
682.645	0.0176889
682.723	0.0176437
682.801	0.0177055
682.879	0.0176690
682.957	0.0176562
683.035	0.0176723
683.113	0.0177036
683.192	0.0177512
683.270	0.0177035
683.348	0.0176561
683.426	0.0176135
683.504	0.0176299
683.582	0.0175780
683.660	0.0177057
683.738	0.0176986
683.817	0.0176765
683.895	0.0176420
683.973	0.0176355
684.051	0.0176686
684.129	0.0177670
684.207	0.0175950
684.285	0.0178125
684.363	0.0175904
684.442	0.0175582
684.520	0.0175081
684.598	0.0176223
684.676	0.0176648
684.754	0.0176204
684.832	0.0176404
684.910	0.0177829
684.988	0.0177129
685.067	0.0175752
685.145	0.0175954
685.223	0.0175597
685.301	0.0176244
685.379	0.0177306
685.457	0.0176682
685.535	0.0176764
685.613	0.0177199
685.692	0.0177139
685.770	0.0176759
685.848	0.0176151
685.926	0.0176183
686.004	0.0176456
686.082	0.0176591
686.160	0.0177119
686.238	0.0177592
686.317	0.0176991
686.395	0.0177634
686.473	0.0176691
686.551	0.0177778
686.629	0.0176089
686.707	0.0176730
686.785	0.0176927
686.863	0.0176132
686.942	0.0177274
687.020	0.0177591
687.098	0.0178609
687.176	0.0176786
687.254	0.0177886
687.332	0.0175742
687.410	0.0176563
687.488	0.0176903
687.567	0.0177277
687.645	0.0177548
687.723	0.0178063
687.801	0.0176569
687.879	0.0177982
687.957	0.0177770
688.035	0.0177689
688.113	0.0177847
688.192	0.0178195
688.270	0.0176657
688.348	0.0176859
688.426	0.0175895
688.504	0.0177805
688.582	0.0176301
688.660	0.0176250
688.738	0.0176694
688.817	0.0176488
688.895	0.0176644
688.973	0.0176749
689.051	0.0178018
689.129	0.0177465
689.207	0.0177342
689.285	0.0177235
689.363	0.0177076
689.442	0.0176218
689.520	0.0177012
689.598	0.0177266
689.676	0.0176270
689.754	0.0176670
689.832	0.0176716
689.910	0.0178191
689.988	0.0176356
690.067	0.0176003
690.145	0.0176714
690.223	0.0176109
690.301	0.0176540
690.379	0.0176860
690.457	0.0176389
690.535	0.0178498
690.613	0.0178051
690.692	0.0176396
690.770	0.0177193
690.848	0.0177888
690.926	0.0177568
691.004	0.0177333
691.082	0.0176906
691.160	0.0177116
691.238	0.0177448
691.317	0.0175872
691.395	0.0177945
691.473	0.0177043
691.551	0.0176767
691.629	0.0177206
691.707	0.0176813
691.785	0.0178384
691.863	0.0176070
691.942	0.0175876
692.020	0.0177232
692.098	0.0175766
692.176	0.0176665
692.254	0.0175690
692.332	0.0177141
692.410	0.0176420
692.488	0.0176743
692.567	0.0176472
692.645	0.0175021
692.723	0.0175500
692.801	0.0177238
692.879	0.0176461
692.957	0.0176028
693.035	0.0176976
693.113	0.0175890
693.192	0.0176907
693.270	0.0176662
693.348	0.0176369
693.426	0.0177659
693.504	0.0177390
693.582	0.0177336
693.660	0.0175383
693.738	0.0176942
693.817	0.0176119
693.895	0.0176401
693.973	0.0175665
694.051	0.0177789
694.129	0.0176897
694.207	0.0176080
694.285	0.0177131
694.363	0.0176537
694.442	0.0176598
694.520	0.0175748
694.598	0.0177037
694.676	0.0176818
694.754	0.0177336
694.832	0.0177257
694.910	0.0177140
694.988	0.0176394
695.067	0.0176505
695.145	0.0175290
695.223	0.0177158
695.301	0.0176079
695.379	0.0176878
695.457	0.0177147
695.535	0.0176466
695.613	0.0175818
695.692	0.0175612
695.770	0.0176594
695.848	0.0176734
695.926	0.0176993
696.004	0.0177007
696.082	0.0176546
696.160	0.0176794
696.238	0.0175788
696.317	0.0175738
696.395	0.0174746
696.473	0.0175349
696.551	0.0175782
696.629	0.0176567
696.707	0.0176878
696.785	0.0175650
696.863	0.0176504
696.942	0.0177594
697.020	0.0177085
697.098	0.0179015
697.176	0.0180267
697.254	0.0179195
697.332	0.0179257
697.410	0.0178757
697.488	0.0178961
697.567	0.0178660
697.645	0.0177911
697.723	0.0179381
697.801	0.0177547
697.879	0.0175946
697.957	0.0176297
698.035	0.0176669
698.113	0.0174998
698.192	0.0175184
698.270	0.0176434
698.348	0.0174451
698.426	0.0176557
698.504	0.0176052
698.582	0.0175989
698.660	0.0176482
698.738	0.0175573
698.817	0.0175780
698.895	0.0176346
698.973	0.0176530
699.051	0.0175925
699.129	0.0178121
699.207	0.0178752
699.285	0.0178172
699.363	0.0178276
699.442	0.0178688
699.520	0.0178931
699.598	0.0178355
699.676	0.0178342
699.754	0.0178519
699.832	0.0177914
699.910	0.0178016
699.988	0.0176519
700.067	0.0177014
700.145	0.0177634
700.223	0.0176525
700.301	0.0177158
700.379	0.0177801
700.457	0.0176797
700.535	0.0176382
700.613	0.0175002
700.692	0.0175166
700.770	0.0173464
700.848	0.0174499
700.926	0.0173314
701.004	0.0173651
701.082	0.0174236
701.160	0.0174497
701.238	0.0174100
701.317	0.0175085
701.395	0.0176480
701.473	0.0175118
701.551	0.0174679
701.629	0.0175562
701.707	0.0176818
701.785	0.0179027
701.863	0.0178269
701.942	0.0178551
702.020	0.0178948
702.098	0.0179192
702.176	0.0180289
702.254	0.0180036
702.332	0.0178770
702.410	0.0179213
702.488	0.0180187
702.567	0.0179781
702.645	0.0179974
702.723	0.0179604
702.801	0.0178385
702.879	0.0176498
702.957	0.0176914
703.035	0.0175757
703.113	0.0177076
703.192	0.0176494
703.270	0.0175546
703.348	0.0176157
703.426	0.0174798
703.504	0.0173604
703.582	0.0173175
703.660	0.0173774
703.738	0.0174461
703.817	0.0174256
703.895	0.0172983
703.973	0.0174730
704.051	0.0174563
704.129	0.0173759
704.207	0.0174964
704.285	0.0174501
704.363	0.0174291
704.442	0.0175185
704.520	0.0176257
704.598	0.0177053
704.676	0.0177734
704.754	0.0177026
704.832	0.0178110
704.910	0.0178181
704.988	0.0177668
705.067	0.0179261
705.145	0.0178635
705.223	0.0179128
705.301	0.0178671
705.379	0.0179022
705.457	0.0179821
705.535	0.0179527
705.613	0.0180424
705.692	0.0180722
705.770	0.0178851
705.848	0.0179100
705.926	0.0179021
706.004	0.0177848
706.082	0.0177583
706.160	0.0178195
706.238	0.0177941
706.317	0.0176344
706.395	0.0176798
706.473	0.0177926
706.551	0.0175466
706.629	0.0175244
706.707	0.0177225
706.785	0.0176812
706.863	0.0175599
706.942	0.0176400
707.020	0.0174017
707.098	0.0174295
707.176	0.0175088
707.254	0.0174262
707.332	0.0174146
707.410	0.0174698
707.488	0.0174523
707.567	0.0173180
707.645	0.0175131
707.723	0.0174171
707.801	0.0176202
707.879	0.0174752
707.957	0.0175639
708.035	0.0175368
708.113	0.0176099
708.192	0.0176714
708.270	0.0177330
708.348	0.0175688
708.426	0.0177177
708.504	0.0176334
708.582	0.0177256
708.660	0.0177118
708.738	0.0176785
708.817	0.0177274
708.895	0.0177353
708.973	0.0179730
709.051	0.0177623
709.129	0.0176955
709.207	0.0178438
709.285	0.0178328
709.363	0.0180275
709.442	0.0178883
709.520	0.0178745
709.598	0.0178334
709.676	0.0178682
709.754	0.0179401
709.832	0.0179565
709.910	0.0178246
709.988	0.0179358
710.067	0.0179227
710.145	0.0178682
710.223	0.0178180
710.301	0.0178343
710.379	0.0176502
710.457	0.0176183
710.535	0.0175829
710.613	0.0175694
710.692	0.0174856
710.770	0.0175219
710.848	0.0174477
710.926	0.0174062
711.004	0.0174063
711.082	0.0175163
711.160	0.0174725
711.238	0.0174227
711.317	0.0173995
711.395	0.0174780
711.473	0.0174796
711.551	0.0176022
711.629	0.0174351
711.707	0.0174513
711.785	0.0174923
711.863	0.0175886
711.942	0.0174261
712.020	0.0176945
712.098	0.0176107
712.176	0.0176202
712.254	0.0176725
712.332	0.0178040
712.410	0.0176172
712.488	0.0176136
712.567	0.0177863
712.645	0.0178474
712.723	0.0178413
712.801	0.0178235
712.879	0.0179736
712.957	0.0179084
713.035	0.0178371
713.113	0.0180447
713.192	0.0178554
713.270	0.0178054
713.348	0.0178783
713.426	0.0179404
713.504	0.0177325
713.582	0.0176794
713.660	0.0177841
713.738	0.0176942
713.817	0.0177460
713.895	0.0177171
713.973	0.0178255
714.051	0.0177036
714.129	0.0177322
714.207	0.0177781
714.285	0.0177763
714.363	0.0177633
714.442	0.0176768
714.520	0.0176896
714.598	0.0176627
714.676	0.0176463
714.754	0.0177126
714.832	0.0177348
714.910	0.0176711
714.988	0.0176492
715.067	0.0177631
715.145	0.0176031
715.223	0.0175294
715.301	0.0176590
715.379	0.0175699
715.457	0.0176794
715.535	0.0175585
715.613	0.0176599
715.692	0.0176360
715.770	0.0176901
715.848	0.0176801
715.926	0.0176469
716.004	0.0176216
716.082	0.0176217
716.160	0.0176026
716.238	0.0176826
716.317	0.0176903
716.395	0.0175372
716.473	0.0176051
716.551	0.0175990
716.629	0.0177349
716.707	0.0177554
716.785	0.0176524
716.863	0.0176928
716.942	0.0179168
717.020	0.0177890
717.098	0.0178455
717.176	0.0176497
717.254	0.0175756
717.332	0.0177853
717.410	0.0177849
717.488	0.0177608
717.567	0.0177285
717.645	0.0176099
717.723	0.0175664
717.801	0.0176081
717.879	0.0176270
717.957	0.0175926
718.035	0.0177214
718.113	0.0177567
718.192	0.0177345
718.270	0.0176782
718.348	0.0176414
718.426	0.0176590
718.504	0.0176637
718.582	0.0176527
718.660	0.0175649
718.738	0.0177128
718.817	0.0178401
718.895	0.0177373
718.973	0.0177532
719.051	0.0177829
719.129	0.0177110
719.207	0.0177785
719.285	0.0176856
719.363	0.0176648
719.442	0.0177171
719.520	0.0176304
719.598	0.0176825
719.676	0.0177208
719.754	0.0177456
719.832	0.0177074
719.910	0.0176662
719.988	0.0177192
720.067	0.0175171
720.145	0.0178230
720.223	0.0175330
720.301	0.0177042
720.379	0.0175825
720.457	0.0175607
720.535	0.0175267
720.613	0.0174854
720.692	0.0174598
720.770	0.0175719
720.848	0.0176400
720.926	0.0176595
721.004	0.0173468
721.082	0.0172767
721.160	0.0175494
721.238	0.0174944
721.317	0.0175477
721.395	0.0176429
721.473	0.0176252
721.551	0.0175345
721.629	0.0174807
721.707	0.0175986
721.785	0.0175586
721.863	0.0175917
721.942	0.0175884
722.020	0.0175526
722.098	0.0176437
722.176	0.0177026
722.254	0.0177113
722.332	0.0177184
722.410	0.0176660
722.488	0.0176721
722.567	0.0177367
722.645	0.0177748
722.723	0.0176619
722.801	0.0177007
722.879	0.0177390
722.957	0.0178644
723.035	0.0178449
723.113	0.0177142
723.192	0.0176002
723.270	0.0177010
723.348	0.0176781
723.426	0.0177890
723.504	0.0177268
723.582	0.0176140
723.660	0.0176804
723.738	0.0176833
723.817	0.0176286
723.895	0.0177375
723.973	0.0177222
724.051	0.0177285
724.129	0.0177278
724.207	0.0175703
724.285	0.0177817
724.363	0.0175755
724.442	0.0176813
724.520	0.0177282
724.598	0.0176792
724.676	0.0176900
724.754	0.0177090
724.832	0.0175656
724.910	0.0176973
724.988	0.0176499
725.067	0.0177135
725.145	0.0175750
725.223	0.0176279
725.301	0.0174365
725.379	0.0174857
725.457	0.0177346
725.535	0.0174390
725.613	0.0174939
725.692	0.0175191
725.770	0.0176624
725.848	0.0176579
725.926	0.0175814
726.004	0.0175517
726.082	0.0176241
726.160	0.0176262
726.238	0.0177059
726.317	0.0175562
726.395	0.0174885
726.473	0.0175671
726.551	0.0176913
726.629	0.0176507
726.707	0.0176233
726.785	0.0175933
726.863	0.0176481
726.942	0.0176347
727.020	0.0176752
727.098	0.0177187
727.176	0.0177583
727.254	0.0177451
727.332	0.0176279
727.410	0.0176519
727.488	0.0177315
727.567	0.0177792
727.645	0.0176471
727.723	0.0177847
727.801	0.0177435
727.879	0.0177591
727.957	0.0177662
728.035	0.0177825
728.113	0.0178548
728.192	0.0178916
728.270	0.0177583
728.348	0.0177078
728.426	0.0176241
728.504	0.0176657
728.582	0.0176902
728.660	0.0178141
728.738	0.0176298
728.817	0.0177272
728.895	0.0176364
728.973	0.0175811
729.051	0.0176858
729.129	0.0177664
729.207	0.0177317
729.285	0.0177723
729.363	0.0177048
729.442	0.0176955
729.520	0.0176868
729.598	0.0174794
729.676	0.0177651
729.754	0.0176208
729.832	0.0176758
729.910	0.0176993
729.988	0.0178772
730.067	0.0177661
730.145	0.0176791
730.223	0.0177138
730.301	0.0177773
730.379	0.0176334
730.457	0.0176691
730.535	0.0176041
730.613	0.0176928
730.692	0.0177982
730.770	0.0177769
730.848	0.0176450
730.926	0.0177127
731.004	0.0177271
731.082	0.0176048
731.160	0.0176890
731.238	0.0176120
731.317	0.0175661
731.395	0.0176494
731.473	0.0176682
731.551	0.0175948
731.629	0.0175969
731.707	0.0176511
731.785	0.0176469
731.863	0.0177107
731.942	0.0175953
732.020	0.0175163
732.098	0.0176382
732.176	0.0175002
732.254	0.0175249
732.332	0.0176736
732.410	0.0177435
732.488	0.0177773
732.567	0.0177607
732.645	0.0176842
732.723	0.0175922
732.801	0.0177309
732.879	0.0177525
732.957	0.0176256
733.035	0.0177628
733.113	0.0178232
733.192	0.0176682
733.270	0.0177080
733.348	0.0178673
733.426	0.0177831
733.504	0.0176157
733.582	0.0177435
733.660	0.0178986
733.738	0.0178087
733.817	0.0176977
733.895	0.0176561
733.973	0.0177261
734.051	0.0177795
734.129	0.0176123
734.207	0.0177182
734.285	0.0176404
734.363	0.0177117
734.442	0.0177346
734.520	0.0175468
734.598	0.0176160
734.676	0.0177335
734.754	0.0175969
734.832	0.0177191
734.910	0.0175228
734.988	0.0176837
735.067	0.0177100
735.145	0.0175787
735.223	0.0174742
735.301	0.0175901
735.379	0.0176018
735.457	0.0176554
735.535	0.0176786
735.613	0.0176907
735.692	0.0175750
735.770	0.0176231
735.848	0.0176761
735.926	0.0175758
736.004	0.0176888
736.082	0.0177007
736.160	0.0177151
736.238	0.0176588
736.317	0.0176112
736.395	0.0177631
736.473	0.0176588
736.551	0.0175581
736.629	0.0176662
736.707	0.0177248
736.785	0.0178355
736.863	0.0176916
736.942	0.0177436
737.020	0.0176166
737.098	0.0177355
737.176	0.0177141
737.254	0.0178921
737.332	0.0176337
737.410	0.0177905
737.488	0.0178014
737.567	0.0178769
737.645	0.0177579
737.723	0.0176891
737.801	0.0178185
737.879	0.0177496
737.957	0.0177894
738.035	0.0177945
738.113	0.0177795
738.192	0.0177927
738.270	0.0177490
738.348	0.0178091
738.426	0.0176085
738.504	0.0176967
738.582	0.0177551
738.660	0.0176490
738.738	0.0176118
738.817	0.0175298
738.895	0.0177448
738.973	0.0177329
739.051	0.0175983
739.129	0.0176230
739.207	0.0177074
739.285	0.0176205
739.363	0.0176936
739.442	0.0176799
739.520	0.0177756
739.598	0.0177560
739.676	0.0179308
739.754	0.0177682
739.832	0.0176713
739.910	0.0177608
739.988	0.0177071
740.067	0.0177071
740.145	0.0177410
740.223	0.0177366
740.301	0.0177925
740.379	0.0176045
740.457	0.0176584
740.535	0.0175210
740.613	0.0176724
740.692	0.0176091
740.770	0.0177641
740.848	0.0177629
740.926	0.0176650
741.004	0.0176054
741.082	0.0176622
741.160	0.0175947
741.238	0.0175986
741.317	0.0177114
741.395	0.0175942
741.473	0.0176555
741.551	0.0176166
741.629	0.0177049
741.707	0.0177947
741.785	0.0177525
741.863	0.0175726
741.942	0.0177210
742.020	0.0176089
742.098	0.0176455
742.176	0.0177229
742.254	0.0177728
742.332	0.0176820
742.410	0.0176749
742.488	0.0176991
742.567	0.0175993
742.645	0.0176639
742.723	0.0175779
742.801	0.0176544
742.879	0.0176478
742.957	0.0177496
743.035	0.0176412
743.113	0.0176642
743.192	0.0176723
743.270	0.0177276
743.348	0.0176546
743.426	0.0176994
743.504	0.0177489
743.582	0.0177374
743.660	0.0176761
743.738	0.0177221
743.817	0.0176808
743.895	0.0176279
743.973	0.0178498
744.051	0.0176541
744.129	0.0176315
744.207	0.0177322
744.285	0.0175777
744.363	0.0177304
744.442	0.0177419
744.520	0.0177484
744.598	0.0177569
744.676	0.0177605
744.754	0.0177471
744.832	0.0176746
744.910	0.0175822
744.988	0.0176934
745.067	0.0175902
745.145	0.0176071
745.223	0.0177901
745.301	0.0176743
745.379	0.0176269
745.457	0.0175711
745.535	0.0176723
745.613	0.0176368
745.692	0.0176614
745.770	0.0178631
745.848	0.0176280
745.926	0.0177285
746.004	0.0175999
746.082	0.0176125
746.160	0.0177267
746.238	0.0177052
746.317	0.0176714
746.395	0.0176879
746.473	0.0176477
746.551	0.0175882
746.629	0.0176334
746.707	0.0175019
746.785	0.0175014
746.863	0.0175873
746.942	0.0176869
747.020	0.0176596
747.098	0.0176807
747.176	0.0176075
747.254	0.0175861
747.332	0.0176730
747.410	0.0176814
747.488	0.0176244
747.567	0.0178349
747.645	0.0177419
747.723	0.0175751
747.801	0.0176354
747.879	0.0175763
747.957	0.0177791
748.035	0.0176486
748.113	0.0177015
748.192	0.0176107
748.270	0.0176910
748.348	0.0175500
748.426	0.0175997
748.504	0.0178072
748.582	0.0176788
748.660	0.0177057
748.738	0.0175599
748.817	0.0176015
748.895	0.0176040
748.973	0.0176160
749.051	0.0177415
749.129	0.0176524
749.207	0.0175217
749.285	0.0176664
749.363	0.0176177
749.442	0.0177991
749.520	0.0177611
749.598	0.0177505
749.676	0.0177446
749.754	0.0176950
749.832	0.0177211
749.910	0.0177692
749.988	0.0176367
750.067	0.0176245
750.145	0.0175510
750.223	0.0175336
750.301	0.0176204
750.379	0.0176423
750.457	0.0176228
750.535	0.0175829
750.613	0.0177258
750.692	0.0177101
750.770	0.0176599
750.848	0.0176037
750.926	0.0176351
751.004	0.0176130
751.082	0.0175177
751.160	0.0177085
751.238	0.0177547
751.317	0.0177938
751.395	0.0177392
751.473	0.0177428
751.551	0.0175218
751.629	0.0176701
751.707	0.0177171
751.785	0.0178451
751.863	0.0176942
751.942	0.0177024
752.020	0.0177071
752.098	0.0177148
752.176	0.0177999
752.254	0.0177100
752.332	0.0176991
752.410	0.0177679
752.488	0.0178468
752.567	0.0177305
752.645	0.0177018
752.723	0.0177431
752.801	0.0176171
752.879	0.0176698
752.957	0.0174969
753.035	0.0176743
753.113	0.0177411
753.192	0.0176089
753.270	0.0176525
753.348	0.0177128
753.426	0.0176305
753.504	0.0177983
753.582	0.0176567
753.660	0.0176272
753.738	0.0176259
753.817	0.0178067
753.895	0.0178910
753.973	0.0177271
754.051	0.0177436
754.129	0.0177178
754.207	0.0178781
754.285	0.0176849
754.363	0.0177282
754.442	0.0176653
754.520	0.0177238
754.598	0.0175876
754.676	0.0176220
754.754	0.0175925
754.832	0.0176747
754.910	0.0176729
754.988	0.0176708
755.067	0.0175275
755.145	0.0176919
755.223	0.0175681
755.301	0.0177237
755.379	0.0175968
755.457	0.0176030
755.535	0.0175402
755.613	0.0176195
755.692	0.0177327
755.770	0.0176014
755.848	0.0177239
755.926	0.0177409
756.004	0.0176743
756.082	0.0176699
756.160	0.0174992
756.238	0.0176684
756.317	0.0177419
756.395	0.0176396
756.473	0.0177755
756.551	0.0176099
756.629	0.0175121
756.707	0.0176466
756.785	0.0176312
756.863	0.0176528
756.942	0.0176236
757.020	0.0176241
757.098	0.0176012
757.176	0.0175935
757.254	0.0176202
757.332	0.0176730
757.410	0.0176958
757.488	0.0177239
757.567	0.0177366
757.645	0.0176717
757.723	0.0176676
757.801	0.0176271
757.879	0.0177483
757.957	0.0177585
758.035	0.0177486
758.113	0.0176604
758.192	0.0176831
758.270	0.0176806
758.348	0.0177284
758.426	0.0176756
758.504	0.0177022
758.582	0.0177444
758.660	0.0176529
758.738	0.0177042
758.817	0.0176463
758.895	0.0177053
758.973	0.0177214
759.051	0.0176530
759.129	0.0177018
759.207	0.0176637
759.285	0.0177213
759.363	0.0176492
759.442	0.0176579
759.520	0.0177576
759.598	0.0177628
759.676	0.0174899
759.754	0.0176852
759.832	0.0177342
759.910	0.0177515
759.988	0.0177924
760.067	0.0176394
760.145	0.0176491
760.223	0.0177396
760.301	0.0176503
760.379	0.0177207
760.457	0.0177029
760.535	0.0177223
760.613	0.0177059
760.692	0.0178264
760.770	0.0176997
760.848	0.0177611
760.926	0.0177103
761.004	0.0176405
761.082	0.0176605
761.160	0.0177085
761.238	0.0177496
761.317	0.0177040
761.395	0.0178271
761.473	0.0177286
761.551	0.0177972
761.629	0.0176643
761.707	0.0177388
761.785	0.0176689
761.863	0.0176112
761.942	0.0176976
762.020	0.0177785
762.098	0.0176897
762.176	0.0175969
762.254	0.0176654
762.332	0.0176709
762.410	0.0178753
762.488	0.0177993
762.567	0.0177570
762.645	0.0177319
762.723	0.0176952
762.801	0.0176378
762.879	0.0176221
762.957	0.0175996
763.035	0.0176309
763.113	0.0177002
763.192	0.0178031
763.270	0.0177796
763.348	0.0177531
763.426	0.0176485
763.504	0.0177763
763.582	0.0177588
763.660	0.0176227
763.738	0.0175877
763.817	0.0177452
763.895	0.0177362
763.973	0.0177703
764.051	0.0176347
764.129	0.0175274
764.207	0.0177030
764.285	0.0176430
764.363	0.0177769
764.442	0.0176797
764.520	0.0176842
764.598	0.0176344
764.676	0.0177296
764.754	0.0176627
764.832	0.0177675
764.910	0.0177737
764.988	0.0176151
765.067	0.0175057
765.145	0.0176768
765.223	0.0176683
765.301	0.0177376
765.379	0.0177036
765.457	0.0177520
765.535	0.0177047
765.613	0.0177271
765.692	0.0176944
765.770	0.0175819
765.848	0.0176042
765.926	0.0177570
766.004	0.0176584
766.082	0.0177709
766.160	0.0177116
766.238	0.0176244
766.317	0.0177608
766.395	0.0176662
766.473	0.0176342
766.551	0.0176983
766.629	0.0177314
766.707	0.0176374
766.785	0.0175839
766.863	0.0176176
766.942	0.0176536
767.020	0.0176823
767.098	0.0176240
767.176	0.0177439
767.254	0.0175997
767.332	0.0175617
767.410	0.0176479
767.488	0.0177316
767.567	0.0177202
767.645	0.0177057
767.723	0.0176905
767.801	0.0176666
767.879	0.0176526
767.957	0.0176952
768.035	0.0176196
768.113	0.0176521
768.192	0.0176888
768.270	0.0176654
768.348	0.0176389
768.426	0.0177043
768.504	0.0177508
768.582	0.0177045
768.660	0.0177342
768.738	0.0176133
768.817	0.0176903
768.895	0.0176918
768.973	0.0176876
769.051	0.0177487
769.129	0.0175769
769.207	0.0176708
769.285	0.0175905
769.363	0.0175832
769.442	0.0177049
769.520	0.0176298
769.598	0.0175286
769.676	0.0175753
769.754	0.0176355
769.832	0.0176228
769.910	0.0175613
769.988	0.0177151
770.067	0.0176981
770.145	0.0176524
770.223	0.0177496
770.301	0.0176891
770.379	0.0175281
770.457	0.0177274
770.535	0.0177203
770.613	0.0177684
770.692	0.0178035
770.770	0.0175636
770.848	0.0176082
770.926	0.0177029
771.004	0.0176352
771.082	0.0175845
771.160	0.0175922
771.238	0.0176212
771.317	0.0176624
771.395	0.0175754
771.473	0.0177216
771.551	0.0176137
771.629	0.0177221
771.707	0.0176091
771.785	0.0176600
771.863	0.0177883
771.942	0.0175849
772.020	0.0175959
772.098	0.0176632
772.176	0.0176212
772.254	0.0176305
772.332	0.0176000
772.410	0.0177761
772.488	0.0178188
772.567	0.0176752
772.645	0.0176844
772.723	0.0176462
772.801	0.0176186
772.879	0.0177071
772.957	0.0175955
773.035	0.0177772
773.113	0.0176483
773.192	0.0176240
773.270	0.0177794
773.348	0.0176646
773.426	0.0176604
773.504	0.0175922
773.582	0.0176784
773.660	0.0176449
773.738	0.0175819
773.817	0.0176292
773.895	0.0175633
773.973	0.0176934
774.051	0.0175264
774.129	0.0176539
774.207	0.0176888
774.285	0.0176826
774.363	0.0178304
774.442	0.0175955
774.520	0.0175575
774.598	0.0176015
774.676	0.0177449
774.754	0.0175986
774.832	0.0176383
774.910	0.0176508
774.988	0.0176141
775.067	0.0176206
775.145	0.0177395
775.223	0.0177156
775.301	0.0177261
775.379	0.0176600
775.457	0.0176293
775.535	0.0177237
775.613	0.0175864
775.692	0.0176392
775.770	0.0176060
775.848	0.0177322
775.926	0.0177173
776.004	0.0177238
776.082	0.0175629
776.160	0.0176382
776.238	0.0177501
776.317	0.0176431
776.395	0.0175550
776.473	0.0174736
776.551	0.0175584
776.629	0.0176302
776.707	0.0176740
776.785	0.0176846
776.863	0.0175562
776.942	0.0175912
777.020	0.0176141
777.098	0.0175856
777.176	0.0176823
777.254	0.0175766
777.332	0.0175998
777.410	0.0176803
777.488	0.0175431
777.567	0.0176921
777.645	0.0177580
777.723	0.0176508
777.801	0.0176155
777.879	0.0177020
777.957	0.0176054
778.035	0.0176631
778.113	0.0176477
778.192	0.0178764
778.270	0.0176324
778.348	0.0176448
778.426	0.0176517
778.504	0.0176637
778.582	0.0177222
778.660	0.0176418
778.738	0.0176099
778.817	0.0177376
778.895	0.0177466
778.973	0.0175838
779.051	0.0177274
779.129	0.0176514
779.207	0.0175796
779.285	0.0176122
779.363	0.0176330
779.442	0.0175814
779.520	0.0176926
779.598	0.0177010
779.676	0.0176369
779.754	0.0176197
779.832	0.0176196
779.910	0.0177094
779.988	0.0176147
780.067	0.0176579
780.145	0.0175352
780.223	0.0177280
780.301	0.0176687
780.379	0.0177882
780.457	0.0176862
780.535	0.0176269
780.613	0.0176299
780.692	0.0176189
780.770	0.0176378
780.848	0.0176485
780.926	0.0176064
781.004	0.0175928
781.082	0.0176775
781.160	0.0176151
781.238	0.0177518
781.317	0.0176209
781.395	0.0176382
781.473	0.0177172
781.551	0.0178105
781.629	0.0177390
781.707	0.0176797
781.785	0.0177111
781.863	0.0177007
781.942	0.0176569
782.020	0.0178354
782.098	0.0176614
782.176	0.0177239
782.254	0.0175912
782.332	0.0176906
782.410	0.0176116
782.488	0.0176124
782.567	0.0176193
782.645	0.0176116
782.723	0.0176152
782.801	0.0176984
782.879	0.0176344
782.957	0.0177785
783.035	0.0176258
783.113	0.0177226
783.192	0.0175569
783.270	0.0176100
783.348	0.0176072
783.426	0.0175599
783.504	0.0176821
783.582	0.0176987
783.660	0.0174255
783.738	0.0176886
783.817	0.0177667
783.895	0.0176131
783.973	0.0175346
784.051	0.0175259
784.129	0.0176540
784.207	0.0176353
784.285	0.0176453
784.363	0.0177368
784.442	0.0176811
784.520	0.0175947
784.598	0.0175468
784.676	0.0176247
784.754	0.0176714
784.832	0.0176762
784.910	0.0176974
784.988	0.0176265
785.067	0.0176054
785.145	0.0177398
785.223	0.0176653
785.301	0.0177055
785.379	0.0177427
785.457	0.0175648
785.535	0.0176630
785.613	0.0176943
785.692	0.0176595
785.770	0.0176731
785.848	0.0175031
785.926	0.0177339
786.004	0.0176679
786.082	0.0177126
786.160	0.0176787
786.238	0.0176559
786.317	0.0176703
786.395	0.0176707
786.473	0.0176913
786.551	0.0177186
786.629	0.0176773
786.707	0.0176768
786.785	0.0178147
786.863	0.0177039
786.942	0.0176131
787.020	0.0175939
787.098	0.0177165
787.176	0.0177519
787.254	0.0178476
787.332	0.0177385
787.410	0.0176438
787.488	0.0178130
787.567	0.0177038
787.645	0.0176226
787.723	0.0175901
787.801	0.0176491
787.879	0.0176775
787.957	0.0177217
788.035	0.0177177
788.113	0.0176442
788.192	0.0177827
788.270	0.0177055
788.348	0.0176126
788.426	0.0175957
788.504	0.0176787
788.582	0.0176215
788.660	0.0177383
788.738	0.0177734
788.817	0.0176505
788.895	0.0177145
788.973	0.0177739
789.051	0.0176934
789.129	0.0176654
789.207	0.0177410
789.285	0.0177232
789.363	0.0176208
789.442	0.0176268
789.520	0.0175762
789.598	0.0175902
789.676	0.0176276
789.754	0.0176427
789.832	0.0175347
789.910	0.0176763
789.988	0.0176411
790.067	0.0177451
790.145	0.0175785
790.223	0.0175874
790.301	0.0176794
790.379	0.0175906
790.457	0.0175041
790.535	0.0176241
790.613	0.0175829
790.692	0.0177027
790.770	0.0177840
790.848	0.0175270
790.926	0.0174368
791.004	0.0177110
791.082	0.0175697
791.160	0.0176374
791.238	0.0176134
791.317	0.0176527
791.395	0.0176817
791.473	0.0176064
791.551	0.0176781
791.629	0.0177032
791.707	0.0176318
791.785	0.0176440
791.863	0.0176110
791.942	0.0175427
792.020	0.0176167
792.098	0.0177703
792.176	0.0177262
792.254	0.0177328
792.332	0.0176341
792.410	0.0176215
792.488	0.0176800
792.567	0.0176995
792.645	0.0178060
792.723	0.0175290
792.801	0.0176616
792.879	0.0176062
792.957	0.0177052
793.035	0.0176849
793.113	0.0176684
793.192	0.0175736
793.270	0.0176798
793.348	0.0176701
793.426	0.0177772
793.504	0.0177058
793.582	0.0176380
793.660	0.0177029
793.738	0.0176624
793.817	0.0177022
793.895	0.0176250
793.973	0.0178220
794.051	0.0177864
794.129	0.0176468
794.207	0.0176631
794.285	0.0178098
794.363	0.0176645
794.442	0.0176393
794.520	0.0176392
794.598	0.0177082
794.676	0.0176746
794.754	0.0175538
794.832	0.0176559
794.910	0.0175980
794.988	0.0176973
795.067	0.0177075
795.145	0.0176765
795.223	0.0177307
795.301	0.0177045
795.379	0.0176912
795.457	0.0176922
795.535	0.0176565
795.613	0.0175861
795.692	0.0176550
795.770	0.0176488
795.848	0.0176850
795.926	0.0177370
796.004	0.0175952
796.082	0.0177431
796.160	0.0175827
796.238	0.0176678
796.317	0.0178867
796.395	0.0176369
796.473	0.0176447
796.551	0.0176110
796.629	0.0177653
796.707	0.0177555
796.785	0.0177332
796.863	0.0176021
796.942	0.0177078
797.020	0.0177139
797.098	0.0176586
797.176	0.0175585
797.254	0.0176811
797.332	0.0176371
797.410	0.0175453
797.488	0.0176249
797.567	0.0176740
797.645	0.0176019
797.723	0.0175707
797.801	0.0176359
797.879	0.0175738
797.957	0.0177355
798.035	0.0176721
798.113	0.0175261
798.192	0.0176231
798.270	0.0176026
798.348	0.0175291
798.426	0.0177604
798.504	0.0175986
798.582	0.0176795
798.660	0.0177065
798.738	0.0175357
798.817	0.0176707
798.895	0.0175552
798.973	0.0175511
799.051	0.0177112
799.129	0.0175851
799.207	0.0176070
799.285	0.0176472
799.363	0.0177227
799.442	0.0176124
799.520	0.0177236
799.598	0.0176105
799.676	0.0176443
799.754	0.0176462
799.832	0.0177130
799.910	0.0177209
799.988	0.0176777
800.067	0.0176720
800.145	0.0176910
800.223	0.0177589
800.301	0.0176677
800.379	0.0175790
800.457	0.0176357
800.535	0.0177233
800.613	0.0176878
800.692	0.0176879
800.770	0.0176395
800.848	0.0176913
800.926	0.0176541
801.004	0.0177022
801.082	0.0176575
801.160	0.0176299
801.238	0.0177090
801.317	0.0177608
801.395	0.0175742
801.473	0.0175346
801.551	0.0175403
801.629	0.0178099
801.707	0.0178072
801.785	0.0175379
801.863	0.0175475
801.942	0.0176866
802.020	0.0176385
802.098	0.0174959
802.176	0.0175632
802.254	0.0177368
802.332	0.0177853
802.410	0.0177081
802.488	0.0176061
802.567	0.0177988
802.645	0.0176130
802.723	0.0177408
802.801	0.0176962
802.879	0.0174886
802.957	0.0177068
803.035	0.0176250
803.113	0.0175935
803.192	0.0177340
803.270	0.0176831
803.348	0.0176192
803.426	0.0176225
803.504	0.0176511
803.582	0.0175223
803.660	0.0175647
803.738	0.0176483
803.817	0.0175764
803.895	0.0175381
803.973	0.0176080
804.051	0.0175838
804.129	0.0175657
804.207	0.0176376
804.285	0.0177055
804.363	0.0176615
804.442	0.0177291
804.520	0.0177396
804.598	0.0176956
804.676	0.0176424
804.754	0.0176240
804.832	0.0174586
804.910	0.0176223
804.988	0.0176754
805.067	0.0177653
805.145	0.0175548
805.223	0.0175824
805.301	0.0176645
805.379	0.0177737
805.457	0.0176270
805.535	0.0175745
805.613	0.0177496
805.692	0.0175910
805.770	0.0176974
805.848	0.0178957
805.926	0.0176769
806.004	0.0176809
806.082	0.0176532
806.160	0.0177011
806.238	0.0177296
806.317	0.0177603
806.395	0.0177764
806.473	0.0176897
806.551	0.0176360
806.629	0.0176457
806.707	0.0176093
806.785	0.0176659
806.863	0.0177026
806.942	0.0175808
807.020	0.0175506
807.098	0.0175758
807.176	0.0175756
807.254	0.0176640
807.332	0.0177566
807.410	0.0175822
807.488	0.0176147
807.567	0.0175929
807.645	0.0177191
807.723	0.0176388
807.801	0.0177589
807.879	0.0175967
807.957	0.0177008
808.035	0.0176797
808.113	0.0176985
808.192	0.0176260
808.270	0.0177071
808.348	0.0177576
808.426	0.0176717
808.504	0.0177605
808.582	0.0176720
808.660	0.0175762
808.738	0.0177038
808.817	0.0176871
808.895	0.0177647
808.973	0.0177087
809.051	0.0177316
809.129	0.0178066
809.207	0.0177059
809.285	0.0176544
809.363	0.0176408
809.442	0.0177450
809.520	0.0176888
809.598	0.0177278
809.676	0.0175993
809.754	0.0177567
809.832	0.0177525
809.910	0.0177892
809.988	0.0176527
810.067	0.0177503
810.145	0.0178780
810.223	0.0177650
810.301	0.0176318
810.379	0.0178165
810.457	0.0177385
810.535	0.0177455
810.613	0.0176891
810.692	0.0176479
810.770	0.0177484
810.848	0.0177412
810.926	0.0176197
811.004	0.0177493
811.082	0.0176508
811.160	0.0175874
811.238	0.0176662
811.317	0.0178419
811.395	0.0176753
811.473	0.0176860
811.551	0.0176502
811.629	0.0176738
811.707	0.0176565
811.785	0.0176583
811.863	0.0176830
811.942	0.0176369
812.020	0.0174413
812.098	0.0176387
812.176	0.0176145
812.254	0.0176385
812.332	0.0176442
812.410	0.0178858
812.488	0.0177486
812.567	0.0176640
812.645	0.0176492
812.723	0.0176287
812.801	0.0176483
812.879	0.0177126
812.957	0.0176116
813.035	0.0176567
813.113	0.0178447
813.192	0.0176183
813.270	0.0177493
813.348	0.0176775
813.426	0.0175762
813.504	0.0176196
813.582	0.0176457
813.660	0.0176397
813.738	0.0176478
813.817	0.0176135
813.895	0.0175571
813.973	0.0177206
814.051	0.0175278
814.129	0.0176648
814.207	0.0176330
814.285	0.0175977
814.363	0.0177566
814.442	0.0175996
814.520	0.0175748
814.598	0.0177390
814.676	0.0175651
814.754	0.0176321
814.832	0.0176728
814.910	0.0174395
814.988	0.0176690
815.067	0.0177193
815.145	0.0176306
815.223	0.0177262
815.301	0.0176040
815.379	0.0177405
815.457	0.0177310
815.535	0.0176173
815.613	0.0175706
815.692	0.0177074
815.770	0.0176375
815.848	0.0177360
815.926	0.0178637
816.004	0.0175514
816.082	0.0177017
816.160	0.0176385
816.238	0.0177706
816.317	0.0176287
816.395	0.0176493
816.473	0.0177380
816.551	0.0176751
816.629	0.0177873
816.707	0.0177011
816.785	0.0177216
816.863	0.0175726
816.942	0.0176520
817.020	0.0177077
817.098	0.0176141
817.176	0.0177722
817.254	0.0178087
817.332	0.0177161
817.410	0.0176550
817.488	0.0177172
817.567	0.0177198
817.645	0.0177055
817.723	0.0175694
817.801	0.0176575
817.879	0.0177223
817.957	0.0176961
818.035	0.0175202
818.113	0.0175244
818.192	0.0177196
818.270	0.0176934
818.348	0.0177499
818.426	0.0177414
818.504	0.0176887
818.582	0.0177063
818.660	0.0178535
818.738	0.0176369
818.817	0.0176428
818.895	0.0176232
818.973	0.0176186
819.051	0.0176778
819.129	0.0176569
819.207	0.0176157
819.285	0.0177597
819.363	0.0177703
819.442	0.0177508
819.520	0.0178037
819.598	0.0177841
819.676	0.0176994
819.754	0.0176279
819.832	0.0178518
819.910	0.0175301
819.988	0.0176399
820.067	0.0176742
820.145	0.0176524
820.223	0.0177937
820.301	0.0175916
820.379	0.0176379
820.457	0.0175761
820.535	0.0176646
820.613	0.0176631
820.692	0.0178133
820.770	0.0177060
820.848	0.0177340
820.926	0.0177521
821.004	0.0178095
821.082	0.0177298
821.160	0.0177063
821.238	0.0176175
821.317	0.0176452
821.395	0.0177097
821.473	0.0176486
821.551	0.0178455
821.629	0.0176967
821.707	0.0176920
821.785	0.0176559
821.863	0.0175089
821.942	0.0176202
822.020	0.0176814
822.098	0.0176422
822.176	0.0177274
822.254	0.0176756
822.332	0.0176308
822.410	0.0176567
822.488	0.0175142
822.567	0.0177666
822.645	0.0176398
822.723	0.0176351
822.801	0.0176724
822.879	0.0176803
822.957	0.0176774
823.035	0.0176797
823.113	0.0177043
823.192	0.0178165
823.270	0.0177113
823.348	0.0175595
823.426	0.0175921
823.504	0.0177200
823.582	0.0177366
823.660	0.0176467
823.738	0.0175735
823.817	0.0176292
823.895	0.0176788
823.973	0.0177880
824.051	0.0176395
824.129	0.0176436
824.207	0.0175368
824.285	0.0176988
824.363	0.0176695
824.442	0.0176866
824.520	0.0176685
824.598	0.0177377
824.676	0.0176684
824.754	0.0176846
824.832	0.0176913
824.910	0.0176657
824.988	0.0178182
825.067	0.0176479
825.145	0.0176619
825.223	0.0177806
825.301	0.0176295
825.379	0.0175709
825.457	0.0176590
825.535	0.0178600
825.613	0.0176228
825.692	0.0177382
825.770	0.0176912
825.848	0.0178139
825.926	0.0176900
826.004	0.0176616
826.082	0.0176233
826.160	0.0177287
826.238	0.0176250
826.317	0.0175433
826.395	0.0176089
826.473	0.0176756
826.551	0.0175759
826.629	0.0175809
826.707	0.0175891
826.785	0.0175985
826.863	0.0175784
826.942	0.0177359
827.020	0.0175777
827.098	0.0175023
827.176	0.0175867
827.254	0.0175700
827.332	0.0175791
827.410	0.0176257
827.488	0.0176476
827.567	0.0174801
827.645	0.0174886
827.723	0.0176344
827.801	0.0176368
827.879	0.0177820
827.957	0.0178098
828.035	0.0177129
828.113	0.0176104
828.192	0.0177554
828.270	0.0175553
828.348	0.0176575
828.426	0.0178114
828.504	0.0177444
828.582	0.0178098
828.660	0.0177061
828.738	0.0176412
828.817	0.0176957
828.895	0.0176334
828.973	0.0177366
829.051	0.0176355
829.129	0.0175550
829.207	0.0176310
829.285	0.0177193
829.363	0.0177871
829.442	0.0174525
829.520	0.0176720
829.598	0.0176552
829.676	0.0175963
829.754	0.0177456
829.832	0.0177399
829.910	0.0176989
829.988	0.0177114
830.067	0.0177233
830.145	0.0177244
830.223	0.0177327
830.301	0.0175902
830.379	0.0176546
830.457	0.0177014
830.535	0.0176964
830.613	0.0175634
830.692	0.0175319
830.770	0.0175966
830.848	0.0176012
830.926	0.0176985
831.004	0.0176447
831.082	0.0176463
831.160	0.0175922
831.238	0.0176200
831.317	0.0176610
831.395	0.0176041
831.473	0.0175366
831.551	0.0175758
831.629	0.0175684
831.707	0.0176613
831.785	0.0176467
831.863	0.0176671
831.942	0.0176031
832.020	0.0176524
832.098	0.0177145
832.176	0.0176401
832.254	0.0176962
832.332	0.0177941
832.410	0.0176713
832.488	0.0176450
832.567	0.0176371
832.645	0.0176850
832.723	0.0176673
832.801	0.0176874
832.879	0.0176006
832.957	0.0176782
833.035	0.0176608
833.113	0.0177050
833.192	0.0177000
833.270	0.0176389
833.348	0.0177212
833.426	0.0175661
833.504	0.0177210
833.582	0.0176402
833.660	0.0176720
833.738	0.0177790
833.817	0.0176757
833.895	0.0177380
833.973	0.0177325
834.051	0.0176546
834.129	0.0175889
834.207	0.0176334
834.285	0.0177094
834.363	0.0177827
834.442	0.0176718
834.520	0.0177080
834.598	0.0176848
834.676	0.0176144
834.754	0.0177574
834.832	0.0176389
834.910	0.0176865
834.988	0.0175861
835.067	0.0176714
835.145	0.0176499
835.223	0.0176563
835.301	0.0175859
835.379	0.0175328
835.457	0.0176195
835.535	0.0175674
835.613	0.0177299
835.692	0.0175722
835.770	0.0176934
835.848	0.0175016
835.926	0.0176154
836.004	0.0176360
836.082	0.0176948
836.160	0.0176641
836.238	0.0177390
836.317	0.0177814
836.395	0.0177424
836.473	0.0176496
836.551	0.0177074
836.629	0.0177071
836.707	0.0176811
836.785	0.0176482
836.863	0.0177134
836.942	0.0175979
837.020	0.0176142
837.098	0.0175704
837.176	0.0175454
837.254	0.0175578
837.332	0.0175859
837.410	0.0176410
837.488	0.0176579
837.567	0.0176266
837.645	0.0175623
837.723	0.0175472
837.801	0.0177416
837.879	0.0176654
837.957	0.0175573
838.035	0.0176086
838.113	0.0177454
838.192	0.0176569
838.270	0.0177233
838.348	0.0178146
838.426	0.0177101
838.504	0.0177550
838.582	0.0177617
838.660	0.0178115
838.738	0.0176041
838.817	0.0176626
838.895	0.0177488
838.973	0.0176588
839.051	0.0176217
839.129	0.0177269
839.207	0.0176492
839.285	0.0175632
839.363	0.0177900
839.442	0.0176176
839.520	0.0177345
839.598	0.0177210
839.676	0.0177818
839.754	0.0174758
839.832	0.0177071
839.910	0.0176769
839.988	0.0175468
840.067	0.0176457
840.145	0.0176841
840.223	0.0177996
840.301	0.0177757
840.379	0.0177192
840.457	0.0175898
840.535	0.0177396
840.613	0.0176526
840.692	0.0175809
840.770	0.0177110
840.848	0.0177599
840.926	0.0176865
841.004	0.0176152
841.082	0.0176410
841.160	0.0177041
841.238	0.0177206
841.317	0.0176935
841.395	0.0177467
841.473	0.0176875
841.551	0.0176369
841.629	0.0176899
841.707	0.0177168
841.785	0.0177506
841.863	0.0176353
841.942	0.0176150
842.020	0.0177873
842.098	0.0175595
842.176	0.0175728
842.254	0.0175972
842.332	0.0176589
842.410	0.0176036
842.488	0.0175254
842.567	0.0176226
842.645	0.0175641
842.723	0.0176101
842.801	0.0176918
842.879	0.0175803
842.957	0.0174950
843.035	0.0176679
843.113	0.0176134
843.192	0.0174244
843.270	0.0176221
843.348	0.0176336
843.426	0.0176344
843.504	0.0176392
843.582	0.0175239
843.660	0.0177087
843.738	0.0176076
843.817	0.0176134
843.895	0.0177132
843.973	0.0175651
844.051	0.0175839
844.129	0.0176579
844.207	0.0178020
844.285	0.0176881
844.363	0.0176589
844.442	0.0177028
844.520	0.0175230
844.598	0.0176681
844.676	0.0177270
844.754	0.0177142
844.832	0.0177446
844.910	0.0175618
844.988	0.0177065
845.067	0.0177208
845.145	0.0178181
845.223	0.0177350
845.301	0.0175993
845.379	0.0176430
845.457	0.0176501
845.535	0.0176525
845.613	0.0176673
845.692	0.0177034
845.770	0.0176998
845.848	0.0175430
845.926	0.0175841
846.004	0.0175143
846.082	0.0176376
846.160	0.0176464
846.238	0.0176944
846.317	0.0176293
846.395	0.0176681
846.473	0.0176857
846.551	0.0175365
846.629	0.0176365
846.707	0.0177920
846.785	0.0176484
846.863	0.0175050
846.942	0.0177472
847.020	0.0176019
847.098	0.0175567
847.176	0.0176460
847.254	0.0175283
847.332	0.0175369
847.410	0.0177107
847.488	0.0176357
847.567	0.0175588
847.645	0.0177356
847.723	0.0176702
847.801	0.0177459
847.879	0.0175743
847.957	0.0176630
848.035	0.0177209
848.113	0.0177363
848.192	0.0178975
848.270	0.0178228
848.348	0.0177011
848.426	0.0176847
848.504	0.0176428
848.582	0.0177587
848.660	0.0175797
848.738	0.0178536
848.817	0.0178261
848.895	0.0176244
848.973	0.0176667
849.051	0.0176812
849.129	0.0175600
849.207	0.0176067
849.285	0.0177457
849.363	0.0175893
849.442	0.0176167
849.520	0.0176061
849.598	0.0175658
849.676	0.0175642
849.754	0.0175187
849.832	0.0174203
849.910	0.0175404
849.988	0.0177142
850.067	0.0176081
850.145	0.0175269
850.223	0.0176340
850.301	0.0175517
850.379	0.0174635
850.457	0.0177088
850.535	0.0175921
850.613	0.0176807
850.692	0.0176048
850.770	0.0177380
850.848	0.0178217
850.926	0.0177135
851.004	0.0177853
851.082	0.0178764
851.160	0.0179337
851.238	0.0176334
851.317	0.0176324
851.395	0.0178674
851.473	0.0176922
851.551	0.0176725
851.629	0.0177601
851.707	0.0177631
851.785	0.0176277
851.863	0.0176409
851.942	0.0175429
852.020	0.0175178
852.098	0.0175291
852.176	0.0176236
852.254	0.0176187
852.332	0.0176170
852.410	0.0175590
852.488	0.0173822
852.567	0.0174851
852.645	0.0175489
852.723	0.0174203
852.801	0.0175404
852.879	0.0174982
852.957	0.0176430
853.035	0.0175238
853.113	0.0176802
853.192	0.0176339
853.270	0.0175386
853.348	0.0176866
853.426	0.0177053
853.504	0.0177241
853.582	0.0177900
853.660	0.0177654
853.738	0.0177330
853.817	0.0176707
853.895	0.0177515
853.973	0.0178761
854.051	0.0178646
854.129	0.0178497
854.207	0.0179278
854.285	0.0177468
854.363	0.0178771
854.442	0.0179580
854.520	0.0178587
854.598	0.0177049
854.676	0.0177640
854.754	0.0179222
854.832	0.0178456
854.910	0.0177895
854.988	0.0177795
855.067	0.0176887
855.145	0.0177515
855.223	0.0176671
855.301	0.0176258
855.379	0.0176503
855.457	0.0176634
855.535	0.0176632
855.613	0.0175598
855.692	0.0176601
855.770	0.0175113
855.848	0.0175669
855.926	0.0175578
856.004	0.0175854
856.082	0.0175017
856.160	0.0174396
856.238	0.0174981
856.317	0.0174330
856.395	0.0175459
856.473	0.0174658
856.551	0.0176649
856.629	0.0174953
856.707	0.0174276
856.785	0.0174878
856.863	0.0175723
856.942	0.0176331
857.020	0.0175246
857.098	0.0175204
857.176	0.0176823
857.254	0.0176613
857.332	0.0176250
857.410	0.0176624
857.488	0.0177232
857.567	0.0177847
857.645	0.0179552
857.723	0.0178104
857.801	0.0178168
857.879	0.0178009
857.957	0.0178719
858.035	0.0179066
858.113	0.0178362
858.192	0.0178057
858.270	0.0177548
858.348	0.0178419
858.426	0.0178424
858.504	0.0177148
858.582	0.0177714
858.660	0.0177855
858.738	0.0178786
858.817	0.0177926
858.895	0.0176926
858.973	0.0176906
859.051	0.0177055
859.129	0.0175222
859.207	0.0175826
859.285	0.0177587
859.363	0.0175098
859.442	0.0176824
859.520	0.0176449
859.598	0.0175845
859.676	0.0175487
859.754	0.0175049
859.832	0.0175615
859.910	0.0175954
859.988	0.0175305
860.067	0.0175364
860.145	0.0174619
860.223	0.0176540
860.301	0.0175613
860.379	0.0175072
860.457	0.0176370
860.535	0.0175034
860.613	0.0175581
860.692	0.0175950
860.770	0.0173867
860.848	0.0175974
860.926	0.0177135
861.004	0.0175017
861.082	0.0176294
861.160	0.0176488
861.238	0.0175436
861.317	0.0176227
861.395	0.0177593
861.473	0.0176667
861.551	0.0176228
861.629	0.0177688
861.707	0.0178560
861.785	0.0176504
861.863	0.0177530
861.942	0.0176693
862.020	0.0177575
862.098	0.0175720
862.176	0.0176838
862.254	0.0176178
862.332	0.0178209
862.410	0.0178747
862.488	0.0175552
862.567	0.0177036
862.645	0.0176215
862.723	0.0175219
862.801	0.0175708
862.879	0.0177314
862.957	0.0176747
863.035	0.0175760
863.113	0.0176983
863.192	0.0176549
863.270	0.0176629
863.348	0.0176138
863.426	0.0176599
863.504	0.0176495
863.582	0.0177316
863.660	0.0176566
863.738	0.0175259
863.817	0.0176241
863.895	0.0176270
863.973	0.0177237
864.051	0.0178099
864.129	0.0176368
864.207	0.0177203
864.285	0.0177032
864.363	0.0176238
864.442	0.0176979
864.520	0.0177111
864.598	0.0178420
864.676	0.0178222
864.754	0.0177280
864.832	0.0177138
864.910	0.0177802
864.988	0.0176476
865.067	0.0176531
865.145	0.0176162
865.223	0.0176150
865.301	0.0176456
865.379	0.0176709
865.457	0.0175838
865.535	0.0175973
865.613	0.0176931
865.692	0.0175923
865.770	0.0176405
865.848	0.0175285
865.926	0.0175655
866.004	0.0175010
866.082	0.0176427
866.160	0.0175542
866.238	0.0176286
866.317	0.0174745
866.395	0.0175674
866.473	0.0175778
866.551	0.0174539
866.629	0.0176174
866.707	0.0176514
866.785	0.0176280
866.863	0.0175439
866.942	0.0177294
867.020	0.0176878
867.098	0.0176914
867.176	0.0176634
867.254	0.0176379
867.332	0.0176740
867.410	0.0177411
867.488	0.0177452
867.567	0.0177444
867.645	0.0178457
867.723	0.0178844
867.801	0.0178136
867.879	0.0176578
867.957	0.0177190
868.035	0.0177383
868.113	0.0177061
868.192	0.0177391
868.270	0.0177282
868.348	0.0177944
868.426	0.0176824
868.504	0.0175989
868.582	0.0176855
868.660	0.0176530
868.738	0.0175119
868.817	0.0177528
868.895	0.0177490
868.973	0.0176210
869.051	0.0176337
869.129	0.0175231
869.207	0.0175441
869.285	0.0175951
869.363	0.0174577
869.442	0.0176856
869.520	0.0175621
869.598	0.0176360
869.676	0.0175937
869.754	0.0176402
869.832	0.0176626
869.910	0.0175375
869.988	0.0176312
870.067	0.0175306
870.145	0.0174790
870.223	0.0175616
870.301	0.0176347
870.379	0.0175515
870.457	0.0176685
870.535	0.0176556
870.613	0.0176647
870.692	0.0177081
870.770	0.0175668
870.848	0.0176876
870.926	0.0176774
871.004	0.0178143
871.082	0.0178050
871.160	0.0177693
871.238	0.0178087
871.317	0.0177618
871.395	0.0177709
871.473	0.0178195
871.551	0.0177605
871.629	0.0178300
871.707	0.0176807
871.785	0.0176421
871.863	0.0176695
871.942	0.0177235
872.020	0.0177965
872.098	0.0178099
872.176	0.0178450
872.254	0.0176645
872.332	0.0176247
872.410	0.0177645
872.488	0.0178691
872.567	0.0176936
872.645	0.0175967
872.723	0.0175635
872.801	0.0176170
872.879	0.0177343
872.957	0.0175529
873.035	0.0175311
873.113	0.0175648
873.192	0.0175805
873.270	0.0176376
873.348	0.0175262
873.426	0.0176578
873.504	0.0175848
873.582	0.0174615
873.660	0.0176550
873.738	0.0176531
873.817	0.0176315
873.895	0.0177064
873.973	0.0177176
874.051	0.0176633
874.129	0.0176455
874.207	0.0176615
874.285	0.0177652
874.363	0.0177664
874.442	0.0177306
874.520	0.0177724
874.598	0.0177225
874.676	0.0177216
874.754	0.0176555
874.832	0.0176501
874.910	0.0176789
874.988	0.0177430
875.067	0.0178938
875.145	0.0177269
875.223	0.0177970
875.301	0.0178272
875.379	0.0178321
875.457	0.0177495
875.535	0.0176607
875.613	0.0176072
875.692	0.0177354
875.770	0.0177530
875.848	0.0176287
875.926	0.0176326
876.004	0.0176447
876.082	0.0175817
876.160	0.0176761
876.238	0.0176150
876.317	0.0176437
876.395	0.0175920
876.473	0.0175526
876.551	0.0175650
876.629	0.0176126
876.707	0.0176155
876.785	0.0175860
876.863	0.0175227
876.942	0.0175963
877.020	0.0175870
877.098	0.0175331
877.176	0.0176525
877.254	0.0175708
877.332	0.0176106
877.410	0.0176244
877.488	0.0177083
877.567	0.0177669
877.645	0.0177197
877.723	0.0176862
877.801	0.0177303
877.879	0.0177133
877.957	0.0178490
878.035	0.0177874
878.113	0.0176496
878.192	0.0177612
878.270	0.0177132
878.348	0.0177910
878.426	0.0177999
878.504	0.0177491
878.582	0.0179012
878.660	0.0178062
878.738	0.0176868
878.817	0.0177253
878.895	0.0176440
878.973	0.0175974
879.051	0.0176046
879.129	0.0177604
879.207	0.0177137
879.285	0.0176495
879.363	0.0174535
879.442	0.0175442
879.520	0.0175075
879.598	0.0176641
879.676	0.0175739
879.754	0.0176576
879.832	0.0174885
879.910	0.0175214
879.988	0.0175639
880.067	0.0174458
880.145	0.0175236
880.223	0.0176046
880.301	0.0176450
880.379	0.0174766
880.457	0.0176694
880.535	0.0176431
880.613	0.0176734
880.692	0.0176867
880.770	0.0177399
880.848	0.0177645
880.926	0.0176994
881.004	0.0176579
881.082	0.0177136
881.160	0.0177662
881.238	0.0177615
881.317	0.0177322
881.395	0.0177934
881.473	0.0177526
881.551	0.0178517
881.629	0.0178962
881.707	0.0178350
881.785	0.0177078
881.863	0.0178686
881.942	0.0179305
882.020	0.0178021
882.098	0.0178193
882.176	0.0178159
882.254	0.0177895
882.332	0.0177383
882.410	0.0178874
882.488	0.0177805
882.567	0.0177479
882.645	0.0177145
882.723	0.0176196
882.801	0.0177645
882.879	0.0177385
882.957	0.0176922
883.035	0.0176488
883.113	0.0177873
883.192	0.0176123
883.270	0.0176794
883.348	0.0176901
883.426	0.0176635
883.504	0.0175962
883.582	0.0175943
883.660	0.0176275
883.738	0.0176429
883.817	0.0176210
883.895	0.0175422
883.973	0.0174854
884.051	0.0175742
884.129	0.0176199
884.207	0.0176209
884.285	0.0176685
884.363	0.0176510
884.442	0.0176677
884.520	0.0176377
884.598	0.0176621
884.676	0.0174992
884.754	0.0176467
884.832	0.0176275
884.910	0.0175669
884.988	0.0176204
885.067	0.0177209
885.145	0.0177724
885.223	0.0176628
885.301	0.0176217
885.379	0.0176407
885.457	0.0176511
885.535	0.0176450
885.613	0.0177158
885.692	0.0175787
885.770	0.0175756
885.848	0.0176182
885.926	0.0175926
886.004	0.0177066
886.082	0.0177847
886.160	0.0176397
886.238	0.0177132
886.317	0.0177512
886.395	0.0177436
886.473	0.0177265
886.551	0.0177920
886.629	0.0178286
886.707	0.0177654
886.785	0.0178882
886.863	0.0177353
886.942	0.0179604
887.020	0.0177844
887.098	0.0178541
887.176	0.0178037
887.254	0.0178589
887.332	0.0176940
887.410	0.0176796
887.488	0.0178485
887.567	0.0177816
887.645	0.0177712
887.723	0.0176604
887.801	0.0176877
887.879	0.0177173
887.957	0.0176193
888.035	0.0177053
888.113	0.0177152
888.192	0.0174862
888.270	0.0175659
888.348	0.0175449
888.426	0.0174899
888.504	0.0175950
888.582	0.0175245
888.660	0.0175930
888.738	0.0176693
888.817	0.0177052
888.895	0.0175541
888.973	0.0176780
889.051	0.0176235
889.129	0.0177430
889.207	0.0177148
889.285	0.0176294
889.363	0.0174402
889.442	0.0175798
889.520	0.0176749
889.598	0.0175919
889.676	0.0176081
889.754	0.0175977
889.832	0.0176705
889.910	0.0177007
889.988	0.0175946
890.067	0.0176998
890.145	0.0176792
890.223	0.0176219
890.301	0.0176029
890.379	0.0176902
890.457	0.0177782
890.535	0.0177807
890.613	0.0177044
890.692	0.0177982
890.770	0.0177146
890.848	0.0177450
890.926	0.0177203
891.004	0.0178095
891.082	0.0176531
891.160	0.0177471
891.238	0.0177062
891.317	0.0176735
891.395	0.0178759
891.473	0.0177310
891.551	0.0176540
891.629	0.0177126
891.707	0.0177262
891.785	0.0177248
891.863	0.0176565
891.942	0.0177813
892.020	0.0177249
892.098	0.0176890
892.176	0.0177789
892.254	0.0177180
892.332	0.0177073
892.410	0.0177999
892.488	0.0177445
892.567	0.0176283
892.645	0.0177424
892.723	0.0176924
892.801	0.0176717
892.879	0.0177325
892.957	0.0178352
893.035	0.0177678
893.113	0.0176238
893.192	0.0174926
893.270	0.0176438
893.348	0.0175643
893.426	0.0176979
893.504	0.0176241
893.582	0.0176169
893.660	0.0176261
893.738	0.0176188
893.817	0.0177594
893.895	0.0175639
893.973	0.0175539
894.051	0.0176368
894.129	0.0176320
894.207	0.0176167
894.285	0.0176790
894.363	0.0176460
894.442	0.0176590
894.520	0.0174597
894.598	0.0176111
894.676	0.0176816
894.754	0.0176140
894.832	0.0177012
894.910	0.0176676
894.988	0.0175091
895.067	0.0175594
895.145	0.0176279
895.223	0.0176407
895.301	0.0176251
895.379	0.0176008
895.457	0.0177324
895.535	0.0177065
895.613	0.0176434
895.692	0.0175687
895.770	0.0176984
895.848	0.0176263
895.926	0.0176769
896.004	0.0177151
896.082	0.0176646
896.160	0.0177171
896.238	0.0176553
896.317	0.0177784
896.395	0.0177695
896.473	0.0177740
896.551	0.0177311
896.629	0.0176978
896.707	0.0176358
896.785	0.0177361
896.863	0.0177598
896.942	0.0176993
897.020	0.0177644
897.098	0.0177569
897.176	0.0176442
897.254	0.0176465
897.332	0.0176831
897.410	0.0176560
897.488	0.0176939
897.567	0.0176332
897.645	0.0176025
897.723	0.0176163
897.801	0.0176305
897.879	0.0175125
897.957	0.0175523
898.035	0.0176755
898.113	0.0176219
898.192	0.0176593
898.270	0.0176360
898.348	0.0175653
898.426	0.0175520
898.504	0.0176397
898.582	0.0176061
898.660	0.0176482
898.738	0.0175014
898.817	0.0174818
898.895	0.0176643
898.973	0.0177197
899.051	0.0176035
899.129	0.0174915
899.207	0.0175140
899.285	0.0174836
899.363	0.0176176
899.442	0.0176396
899.520	0.0175771
899.598	0.0175854
899.676	0.0175994
899.754	0.0175862
899.832	0.0176974
899.910	0.0177099
899.988	0.0176467
900.067	0.0176715
900.145	0.0176035
900.223	0.0177377
900.301	0.0176182
900.379	0.0176588
900.457	0.0177095
900.535	0.0176925
900.613	0.0176806
900.692	0.0176630
900.770	0.0177705
900.848	0.0178030
900.926	0.0177584
901.004	0.0176256
901.082	0.0176343
901.160	0.0178045
901.238	0.0177874
901.317	0.0176680
901.395	0.0176871
901.473	0.0177678
901.551	0.0176429
901.629	0.0178480
901.707	0.0177419
901.785	0.0176453
901.863	0.0177046
901.942	0.0177714
902.020	0.0176623
902.098	0.0177147
902.176	0.0176750
902.254	0.0176637
902.332	0.0175819
902.410	0.0177913
902.488	0.0177283
902.567	0.0176826
902.645	0.0176753
902.723	0.0176880
902.801	0.0177204
902.879	0.0177158
902.957	0.0176514
903.035	0.0176854
903.113	0.0176739
903.192	0.0176669
903.270	0.0176418
903.348	0.0176347
903.426	0.0176395
903.504	0.0176845
903.582	0.0177265
903.660	0.0176565
903.738	0.0176129
903.817	0.0177540
903.895	0.0176239
903.973	0.0175877
904.051	0.0174686
904.129	0.0175509
904.207	0.0175681
904.285	0.0175678
904.363	0.0175478
904.442	0.0175826
904.520	0.0175883
904.598	0.0175833
904.676	0.0176311
904.754	0.0175735
904.832	0.0176797
904.910	0.0176095
904.988	0.0174655
905.067	0.0175006
905.145	0.0176393
905.223	0.0176030
905.301	0.0176367
905.379	0.0177060
905.457	0.0176051
905.535	0.0176363
905.613	0.0177874
905.692	0.0177056
905.770	0.0176666
905.848	0.0175447
905.926	0.0176118
906.004	0.0177581
906.082	0.0176393
906.160	0.0175643
906.238	0.0176507
906.317	0.0177448
906.395	0.0176920
906.473	0.0177822
906.551	0.0176929
906.629	0.0175874
906.707	0.0175650
906.785	0.0176672
906.863	0.0176546
906.942	0.0176404
907.020	0.0177319
907.098	0.0176672
907.176	0.0175340
907.254	0.0176086
907.332	0.0176082
907.410	0.0175333
907.488	0.0176734
907.567	0.0177560
907.645	0.0176787
907.723	0.0176157
907.801	0.0176212
907.879	0.0176837
907.957	0.0178036
908.035	0.0177124
908.113	0.0177658
908.192	0.0176134
908.270	0.0177533
908.348	0.0178306
908.426	0.0177608
908.504	0.0176926
908.582	0.0177911
908.660	0.0176333
908.738	0.0177274
908.817	0.0179227
908.895	0.0177815
908.973	0.0176585
909.051	0.0177183
909.129	0.0177409
909.207	0.0176019
909.285	0.0175977
909.363	0.0177058
909.442	0.0176266
909.520	0.0176486
909.598	0.0175948
909.676	0.0175388
909.754	0.0175520
909.832	0.0175992
909.910	0.0176527
909.988	0.0176644
910.067	0.0176096
910.145	0.0173862
910.223	0.0176482
910.301	0.0176819
910.379	0.0176749
910.457	0.0176025
910.535	0.0177348
910.613	0.0176537
910.692	0.0176642
910.770	0.0175917
910.848	0.0176225
910.926	0.0176934
911.004	0.0178246
911.082	0.0177094
911.160	0.0176466
911.238	0.0176904
911.317	0.0177909
911.395	0.0176760
911.473	0.0175876
911.551	0.0176960
911.629	0.0177615
911.707	0.0175156
911.785	0.0176818
911.863	0.0177609
911.942	0.0177425
912.020	0.0175566
912.098	0.0176988
912.176	0.0177100
912.254	0.0176134
912.332	0.0176385
912.410	0.0176929
912.488	0.0176859
912.567	0.0177602
912.645	0.0176926
912.723	0.0176626
912.801	0.0177381
912.879	0.0175748
912.957	0.0177210
913.035	0.0176691
913.113	0.0176395
913.192	0.0177873
913.270	0.0177329
913.348	0.0174861
913.426	0.0176562
913.504	0.0177454
913.582	0.0176484
913.660	0.0176163
913.738	0.0177512
913.817	0.0177013
913.895	0.0176350
913.973	0.0175943
914.051	0.0176807
914.129	0.0176471
914.207	0.0176133
914.285	0.0178589
914.363	0.0177029
914.442	0.0176446
914.520	0.0176125
914.598	0.0176102
914.676	0.0177999
914.754	0.0176985
914.832	0.0176703
914.910	0.0177499
914.988	0.0176523
915.067	0.0175674
915.145	0.0177038
915.223	0.0176803
915.301	0.0176091
915.379	0.0175874
915.457	0.0176263
915.535	0.0176466
915.613	0.0175829
915.692	0.0175643
915.770	0.0175433
915.848	0.0175381
915.926	0.0176734
916.004	0.0177065
916.082	0.0176252
916.160	0.0175770
916.238	0.0176955
916.317	0.0178179
916.395	0.0176752
916.473	0.0176707
916.551	0.0177502
916.629	0.0177628
916.707	0.0177443
916.785	0.0177292
916.863	0.0177484
916.942	0.0177163
917.020	0.0177652
917.098	0.0177115
917.176	0.0176971
917.254	0.0176743
917.332	0.0176189
917.410	0.0176024
917.488	0.0176049
917.567	0.0176543
917.645	0.0175206
917.723	0.0175213
917.801	0.0177634
917.879	0.0176965
917.957	0.0176909
918.035	0.0177193
918.113	0.0176700
918.192	0.0175832
918.270	0.0176200
918.348	0.0175449
918.426	0.0178242
918.504	0.0176632
918.582	0.0177855
918.660	0.0177477
918.738	0.0177915
918.817	0.0178239
918.895	0.0176767
918.973	0.0176880
919.051	0.0178700
919.129	0.0177391
919.207	0.0175475
919.285	0.0177609
919.363	0.0177142
919.442	0.0178594
919.520	0.0176445
919.598	0.0175779
919.676	0.0175665
919.754	0.0175037
919.832	0.0176184
919.910	0.0175719
