06/01/2022	22:04:14	Ver.	4.1	UNKNOWN
Optical Delay	599.988409	Delta X		0.078125	Sweeps	1	Scan Rate	0/0
Coordinates	Axis 1	NaN	Axis 2	NaN	Axis 3	NaN	Axis 4	NaN	Axis 5	NaN	Axis 6	0.000000
TX Power	0.000000	RX Power	0.000000

599.988	0.0174314
600.067	0.0173936
600.145	0.0174052
600.223	0.0173768
600.301	0.0173485
600.379	0.0174934
600.457	0.0174801
600.535	0.0174458
600.613	0.0176225
600.692	0.0174882
600.770	0.0174926
600.848	0.0173828
600.926	0.0175169
601.004	0.0175429
601.082	0.0175275
601.160	0.0175031
601.238	0.0175235
601.317	0.0175190
601.395	0.0175835
601.473	0.0175557
601.551	0.0175290
601.629	0.0175424
601.707	0.0175376
601.785	0.0174850
601.863	0.0175667
601.942	0.0175196
602.020	0.0174824
602.098	0.0175100
602.176	0.0176328
602.254	0.0174798
602.332	0.0174944
602.410	0.0176030
602.488	0.0176277
602.567	0.0174668
602.645	0.0175075
602.723	0.0174500
602.801	0.0177039
602.879	0.0174878
602.957	0.0174985
603.035	0.0175324
603.113	0.0175300
603.192	0.0174934
603.270	0.0175089
603.348	0.0177158
603.426	0.0174583
603.504	0.0176550
603.582	0.0175076
603.660	0.0174563
603.738	0.0175747
603.817	0.0175498
603.895	0.0175871
603.973	0.0173936
604.051	0.0174470
604.129	0.0175445
604.207	0.0175714
604.285	0.0175150
604.363	0.0175000
604.442	0.0174635
604.520	0.0175568
604.598	0.0174813
604.676	0.0175292
604.754	0.0173959
604.832	0.0174431
604.910	0.0175963
604.988	0.0175140
605.067	0.0174290
605.145	0.0175191
605.223	0.0175024
605.301	0.0174905
605.379	0.0175564
605.457	0.0175439
605.535	0.0176321
605.613	0.0176425
605.692	0.0174066
605.770	0.0175647
605.848	0.0176012
605.926	0.0174975
606.004	0.0175721
606.082	0.0176044
606.160	0.0175188
606.238	0.0174187
606.317	0.0174121
606.395	0.0176389
606.473	0.0175359
606.551	0.0175766
606.629	0.0174783
606.707	0.0174910
606.785	0.0174525
606.863	0.0175573
606.942	0.0175113
607.020	0.0175225
607.098	0.0175208
607.176	0.0175065
607.254	0.0176859
607.332	0.0175301
607.410	0.0174326
607.488	0.0175031
607.567	0.0174241
607.645	0.0175408
607.723	0.0174934
607.801	0.0176332
607.879	0.0175948
607.957	0.0174539
608.035	0.0173650
608.113	0.0174474
608.192	0.0175249
608.270	0.0176108
608.348	0.0175546
608.426	0.0176196
608.504	0.0175224
608.582	0.0176488
608.660	0.0175114
608.738	0.0174959
608.817	0.0175378
608.895	0.0175710
608.973	0.0175129
609.051	0.0175453
609.129	0.0176131
609.207	0.0174838
609.285	0.0175464
609.363	0.0175083
609.442	0.0175863
609.520	0.0175359
609.598	0.0176323
609.676	0.0176037
609.754	0.0174974
609.832	0.0176663
609.910	0.0176128
609.988	0.0175369
610.067	0.0174177
610.145	0.0175349
610.223	0.0176913
610.301	0.0175038
610.379	0.0174810
610.457	0.0175739
610.535	0.0175837
610.613	0.0174960
610.692	0.0174417
610.770	0.0174423
610.848	0.0175611
610.926	0.0176021
611.004	0.0177683
611.082	0.0174516
611.160	0.0173721
611.238	0.0173293
611.317	0.0174738
611.395	0.0174782
611.473	0.0175547
611.551	0.0175784
611.629	0.0173746
611.707	0.0175919
611.785	0.0176016
611.863	0.0174789
611.942	0.0175357
612.020	0.0173727
612.098	0.0175807
612.176	0.0175362
612.254	0.0175721
612.332	0.0175835
612.410	0.0174284
612.488	0.0175604
612.567	0.0175466
612.645	0.0174142
612.723	0.0175182
612.801	0.0174985
612.879	0.0174122
612.957	0.0174340
613.035	0.0172393
613.113	0.0173838
613.192	0.0173969
613.270	0.0173535
613.348	0.0173599
613.426	0.0172645
613.504	0.0172562
613.582	0.0173831
613.660	0.0174227
613.738	0.0174386
613.817	0.0173889
613.895	0.0173769
613.973	0.0174306
614.051	0.0174816
614.129	0.0174373
614.207	0.0174631
614.285	0.0173712
614.363	0.0173524
614.442	0.0174166
614.520	0.0174652
614.598	0.0175906
614.676	0.0172160
614.754	0.0172994
614.832	0.0173369
614.910	0.0173845
614.988	0.0173444
615.067	0.0174715
615.145	0.0173118
615.223	0.0172783
615.301	0.0172520
615.379	0.0175223
615.457	0.0172928
615.535	0.0172641
615.613	0.0173466
615.692	0.0174203
615.770	0.0173862
615.848	0.0173580
615.926	0.0173834
616.004	0.0174149
616.082	0.0174573
616.160	0.0174026
616.238	0.0173801
616.317	0.0174135
616.395	0.0175243
616.473	0.0173919
616.551	0.0173930
616.629	0.0173627
616.707	0.0173695
616.785	0.0174494
616.863	0.0172937
616.942	0.0172852
617.020	0.0174866
617.098	0.0174139
617.176	0.0173037
617.254	0.0172249
617.332	0.0174034
617.410	0.0174281
617.488	0.0173141
617.567	0.0174475
617.645	0.0174303
617.723	0.0174522
617.801	0.0174441
617.879	0.0173297
617.957	0.0174077
618.035	0.0174548
618.113	0.0173177
618.192	0.0174506
618.270	0.0174619
618.348	0.0173657
618.426	0.0174187
618.504	0.0175291
618.582	0.0174568
618.660	0.0175351
618.738	0.0174841
618.817	0.0174985
618.895	0.0173907
618.973	0.0174796
619.051	0.0173759
619.129	0.0173955
619.207	0.0173431
619.285	0.0173882
619.363	0.0173999
619.442	0.0173927
619.520	0.0173903
619.598	0.0174739
619.676	0.0173353
619.754	0.0174688
619.832	0.0174833
619.910	0.0175432
619.988	0.0175012
620.067	0.0173008
620.145	0.0173833
620.223	0.0174718
620.301	0.0175620
620.379	0.0174776
620.457	0.0174668
620.535	0.0173504
620.613	0.0173660
620.692	0.0174907
620.770	0.0174751
620.848	0.0174841
620.926	0.0175126
621.004	0.0175062
621.082	0.0172700
621.160	0.0172382
621.238	0.0173977
621.317	0.0174384
621.395	0.0173279
621.473	0.0173124
621.551	0.0174422
621.629	0.0173502
621.707	0.0174009
621.785	0.0174443
621.863	0.0174656
621.942	0.0172960
622.020	0.0174454
622.098	0.0174088
622.176	0.0174496
622.254	0.0174793
622.332	0.0172495
622.410	0.0174137
622.488	0.0174426
622.567	0.0172566
622.645	0.0173794
622.723	0.0173379
622.801	0.0172993
622.879	0.0174541
622.957	0.0174159
623.035	0.0172869
623.113	0.0173535
623.192	0.0174011
623.270	0.0172685
623.348	0.0174439
623.426	0.0173267
623.504	0.0174619
623.582	0.0173611
623.660	0.0173795
623.738	0.0172736
623.817	0.0173306
623.895	0.0174101
623.973	0.0173898
624.051	0.0173653
624.129	0.0174308
624.207	0.0174218
624.285	0.0174252
624.363	0.0174044
624.442	0.0175265
624.520	0.0173732
624.598	0.0173383
624.676	0.0175554
624.754	0.0173486
624.832	0.0174760
624.910	0.0174252
624.988	0.0174203
625.067	0.0175169
625.145	0.0174204
625.223	0.0175418
625.301	0.0174938
625.379	0.0175232
625.457	0.0173876
625.535	0.0174494
625.613	0.0174685
625.692	0.0175422
625.770	0.0175100
625.848	0.0174936
625.926	0.0173815
626.004	0.0175175
626.082	0.0175089
626.160	0.0174771
626.238	0.0174998
626.317	0.0173540
626.395	0.0174353
626.473	0.0175308
626.551	0.0175188
626.629	0.0175536
626.707	0.0175475
626.785	0.0174809
626.863	0.0174703
626.942	0.0176130
627.020	0.0175499
627.098	0.0175940
627.176	0.0175515
627.254	0.0175569
627.332	0.0176141
627.410	0.0175686
627.488	0.0175056
627.567	0.0175117
627.645	0.0175008
627.723	0.0176209
627.801	0.0176414
627.879	0.0174979
627.957	0.0175719
628.035	0.0175600
628.113	0.0176577
628.192	0.0176704
628.270	0.0177640
628.348	0.0175619
628.426	0.0175721
628.504	0.0176600
628.582	0.0175923
628.660	0.0176416
628.738	0.0175991
628.817	0.0175695
628.895	0.0176496
628.973	0.0177114
629.051	0.0176671
629.129	0.0176230
629.207	0.0177325
629.285	0.0176852
629.363	0.0175907
629.442	0.0176537
629.520	0.0176139
629.598	0.0175761
629.676	0.0175852
629.754	0.0175980
629.832	0.0174609
629.910	0.0175358
629.988	0.0175376
630.067	0.0174381
630.145	0.0175057
630.223	0.0175218
630.301	0.0174836
630.379	0.0175926
630.457	0.0175153
630.535	0.0176182
630.613	0.0174240
630.692	0.0174171
630.770	0.0175001
630.848	0.0175267
630.926	0.0176085
631.004	0.0174977
631.082	0.0175596
631.160	0.0173589
631.238	0.0174490
631.317	0.0174454
631.395	0.0175996
631.473	0.0175556
631.551	0.0175400
631.629	0.0175983
631.707	0.0176134
631.785	0.0175544
631.863	0.0175739
631.942	0.0176089
632.020	0.0174093
632.098	0.0174303
632.176	0.0176733
632.254	0.0175996
632.332	0.0175199
632.410	0.0175908
632.488	0.0174767
632.567	0.0175211
632.645	0.0175066
632.723	0.0174197
632.801	0.0175633
632.879	0.0175417
632.957	0.0174663
633.035	0.0175069
633.113	0.0175076
633.192	0.0175227
633.270	0.0174952
633.348	0.0175616
633.426	0.0175218
633.504	0.0174189
633.582	0.0173847
633.660	0.0176688
633.738	0.0174207
633.817	0.0174563
633.895	0.0173508
633.973	0.0174468
634.051	0.0175874
634.129	0.0174060
634.207	0.0174924
634.285	0.0174546
634.363	0.0175172
634.442	0.0174374
634.520	0.0174096
634.598	0.0174481
634.676	0.0173791
634.754	0.0174180
634.832	0.0176967
634.910	0.0175788
634.988	0.0175403
635.067	0.0175670
635.145	0.0174426
635.223	0.0175531
635.301	0.0174225
635.379	0.0175077
635.457	0.0174251
635.535	0.0173618
635.613	0.0172966
635.692	0.0173859
635.770	0.0174359
635.848	0.0174578
635.926	0.0175548
636.004	0.0175028
636.082	0.0174953
636.160	0.0174894
636.238	0.0174049
636.317	0.0174479
636.395	0.0175484
636.473	0.0175803
636.551	0.0173933
636.629	0.0175206
636.707	0.0175136
636.785	0.0174577
636.863	0.0174150
636.942	0.0175506
637.020	0.0173697
637.098	0.0175529
637.176	0.0175903
637.254	0.0173906
637.332	0.0174393
637.410	0.0174298
637.488	0.0173399
637.567	0.0173242
637.645	0.0173677
637.723	0.0173946
637.801	0.0173155
637.879	0.0172366
637.957	0.0173633
638.035	0.0173568
638.113	0.0172365
638.192	0.0172965
638.270	0.0173151
638.348	0.0172878
638.426	0.0173218
638.504	0.0174589
638.582	0.0174032
638.660	0.0173199
638.738	0.0172443
638.817	0.0173669
638.895	0.0173334
638.973	0.0173686
639.051	0.0173582
639.129	0.0174239
639.207	0.0173597
639.285	0.0173460
639.363	0.0173016
639.442	0.0174450
639.520	0.0174944
639.598	0.0174496
639.676	0.0174875
639.754	0.0174135
639.832	0.0175510
639.910	0.0173546
639.988	0.0174180
640.067	0.0173730
640.145	0.0174339
640.223	0.0174556
640.301	0.0174043
640.379	0.0174033
640.457	0.0173504
640.535	0.0174357
640.613	0.0174701
640.692	0.0174620
640.770	0.0174498
640.848	0.0173307
640.926	0.0173965
641.004	0.0175297
641.082	0.0174938
641.160	0.0175510
641.238	0.0176054
641.317	0.0174173
641.395	0.0173201
641.473	0.0174337
641.551	0.0173431
641.629	0.0173166
641.707	0.0174081
641.785	0.0173922
641.863	0.0172987
641.942	0.0174206
642.020	0.0172596
642.098	0.0172916
642.176	0.0174358
642.254	0.0173969
642.332	0.0174149
642.410	0.0174261
642.488	0.0173535
642.567	0.0173949
642.645	0.0174133
642.723	0.0173125
642.801	0.0173774
642.879	0.0173565
642.957	0.0174280
643.035	0.0175043
643.113	0.0174290
643.192	0.0174680
643.270	0.0173340
643.348	0.0173170
643.426	0.0174351
643.504	0.0174516
643.582	0.0173052
643.660	0.0173130
643.738	0.0174668
643.817	0.0173859
643.895	0.0173778
643.973	0.0173588
644.051	0.0174616
644.129	0.0173345
644.207	0.0173756
644.285	0.0174017
644.363	0.0174279
644.442	0.0174149
644.520	0.0173106
644.598	0.0174239
644.676	0.0174088
644.754	0.0174576
644.832	0.0174081
644.910	0.0173338
644.988	0.0174345
645.067	0.0175269
645.145	0.0174757
645.223	0.0173141
645.301	0.0175509
645.379	0.0174290
645.457	0.0174928
645.535	0.0174503
645.613	0.0175832
645.692	0.0174418
645.770	0.0175256
645.848	0.0175231
645.926	0.0173694
646.004	0.0174801
646.082	0.0174304
646.160	0.0175018
646.238	0.0174872
646.317	0.0174339
646.395	0.0174976
646.473	0.0176330
646.551	0.0175870
646.629	0.0174342
646.707	0.0175643
646.785	0.0174761
646.863	0.0175529
646.942	0.0175806
647.020	0.0175924
647.098	0.0176331
647.176	0.0176740
647.254	0.0174941
647.332	0.0176790
647.410	0.0176973
647.488	0.0175170
647.567	0.0177317
647.645	0.0176410
647.723	0.0175537
647.801	0.0176479
647.879	0.0176170
647.957	0.0177605
648.035	0.0175179
648.113	0.0176198
648.192	0.0175867
648.270	0.0177033
648.348	0.0174806
648.426	0.0174805
648.504	0.0175600
648.582	0.0176082
648.660	0.0175446
648.738	0.0175980
648.817	0.0175744
648.895	0.0174723
648.973	0.0175154
649.051	0.0174577
649.129	0.0173388
649.207	0.0174799
649.285	0.0174185
649.363	0.0173682
649.442	0.0174384
649.520	0.0173793
649.598	0.0174866
649.676	0.0174249
649.754	0.0173791
649.832	0.0173150
649.910	0.0174784
649.988	0.0174718
650.067	0.0173760
650.145	0.0173079
650.223	0.0174555
650.301	0.0175947
650.379	0.0174707
650.457	0.0174922
650.535	0.0175185
650.613	0.0176126
650.692	0.0175117
650.770	0.0174856
650.848	0.0175161
650.926	0.0176688
651.004	0.0176543
651.082	0.0177491
651.160	0.0176185
651.238	0.0177192
651.317	0.0176101
651.395	0.0175401
651.473	0.0175958
651.551	0.0175021
651.629	0.0175359
651.707	0.0175645
651.785	0.0174813
651.863	0.0175340
651.942	0.0175043
652.020	0.0175494
652.098	0.0174649
652.176	0.0175506
652.254	0.0175494
652.332	0.0173994
652.410	0.0173754
652.488	0.0175002
652.567	0.0174337
652.645	0.0173974
652.723	0.0174313
652.801	0.0174774
652.879	0.0172450
652.957	0.0173171
653.035	0.0174367
653.113	0.0174787
653.192	0.0174152
653.270	0.0174722
653.348	0.0173822
653.426	0.0174641
653.504	0.0175813
653.582	0.0174689
653.660	0.0172970
653.738	0.0172649
653.817	0.0173240
653.895	0.0173054
653.973	0.0174574
654.051	0.0174715
654.129	0.0174310
654.207	0.0175017
654.285	0.0173964
654.363	0.0173835
654.442	0.0175527
654.520	0.0175476
654.598	0.0173139
654.676	0.0173055
654.754	0.0174905
654.832	0.0174313
654.910	0.0174872
654.988	0.0174377
655.067	0.0174555
655.145	0.0174889
655.223	0.0175113
655.301	0.0175316
655.379	0.0174722
655.457	0.0175678
655.535	0.0174796
655.613	0.0176250
655.692	0.0174985
655.770	0.0175153
655.848	0.0176304
655.926	0.0173646
656.004	0.0173971
656.082	0.0175084
656.160	0.0176021
656.238	0.0174735
656.317	0.0175060
656.395	0.0173781
656.473	0.0174532
656.551	0.0173100
656.629	0.0172395
656.707	0.0174452
656.785	0.0173966
656.863	0.0173648
656.942	0.0174425
657.020	0.0173985
657.098	0.0172580
657.176	0.0175022
657.254	0.0174120
657.332	0.0173045
657.410	0.0173512
657.488	0.0173997
657.567	0.0174512
657.645	0.0173264
657.723	0.0172173
657.801	0.0172926
657.879	0.0173514
657.957	0.0173936
658.035	0.0173602
658.113	0.0173961
658.192	0.0174261
658.270	0.0173539
658.348	0.0174549
658.426	0.0173811
658.504	0.0173090
658.582	0.0174414
658.660	0.0173413
658.738	0.0174263
658.817	0.0173816
658.895	0.0174315
658.973	0.0174454
659.051	0.0175892
659.129	0.0173550
659.207	0.0174372
659.285	0.0174108
659.363	0.0174123
659.442	0.0174644
659.520	0.0174529
659.598	0.0174460
659.676	0.0175161
659.754	0.0174043
659.832	0.0173694
659.910	0.0174356
659.988	0.0174806
660.067	0.0175269
660.145	0.0174832
660.223	0.0173841
660.301	0.0175420
660.379	0.0174628
660.457	0.0175932
660.535	0.0174197
660.613	0.0173851
660.692	0.0173898
660.770	0.0174870
660.848	0.0175430
660.926	0.0174717
661.004	0.0174677
661.082	0.0175790
661.160	0.0174693
661.238	0.0175233
661.317	0.0174406
661.395	0.0175752
661.473	0.0174906
661.551	0.0174437
661.629	0.0174559
661.707	0.0175168
661.785	0.0173946
661.863	0.0174351
661.942	0.0173851
662.020	0.0174554
662.098	0.0172878
662.176	0.0174215
662.254	0.0173860
662.332	0.0174094
662.410	0.0174448
662.488	0.0174538
662.567	0.0172829
662.645	0.0172859
662.723	0.0174691
662.801	0.0174407
662.879	0.0174231
662.957	0.0173582
663.035	0.0172823
663.113	0.0172628
663.192	0.0173836
663.270	0.0174554
663.348	0.0174107
663.426	0.0174602
663.504	0.0173312
663.582	0.0174168
663.660	0.0173844
663.738	0.0175690
663.817	0.0174969
663.895	0.0175040
663.973	0.0175066
664.051	0.0175300
664.129	0.0175482
664.207	0.0176337
664.285	0.0175211
664.363	0.0174608
664.442	0.0175234
664.520	0.0175273
664.598	0.0175845
664.676	0.0174436
664.754	0.0175585
664.832	0.0175122
664.910	0.0174233
664.988	0.0173964
665.067	0.0173418
665.145	0.0175871
665.223	0.0174915
665.301	0.0175061
665.379	0.0174482
665.457	0.0173460
665.535	0.0173405
665.613	0.0173383
665.692	0.0174262
665.770	0.0174072
665.848	0.0173383
665.926	0.0174315
666.004	0.0173898
666.082	0.0173009
666.160	0.0175079
666.238	0.0173759
666.317	0.0174095
666.395	0.0172511
666.473	0.0173709
666.551	0.0174134
666.629	0.0173376
666.707	0.0174821
666.785	0.0174758
666.863	0.0175964
666.942	0.0173750
667.020	0.0174710
667.098	0.0173376
667.176	0.0175803
667.254	0.0174455
667.332	0.0174773
667.410	0.0173993
667.488	0.0173854
667.567	0.0174545
667.645	0.0173872
667.723	0.0173701
667.801	0.0175187
667.879	0.0175298
667.957	0.0174878
668.035	0.0174395
668.113	0.0175266
668.192	0.0174863
668.270	0.0174072
668.348	0.0174155
668.426	0.0175011
668.504	0.0173894
668.582	0.0175357
668.660	0.0175379
668.738	0.0176274
668.817	0.0176091
668.895	0.0173697
668.973	0.0174927
669.051	0.0176096
669.129	0.0175166
669.207	0.0175963
669.285	0.0175376
669.363	0.0175890
669.442	0.0175780
669.520	0.0176311
669.598	0.0174377
669.676	0.0173656
669.754	0.0175665
669.832	0.0174562
669.910	0.0174728
669.988	0.0174913
670.067	0.0174103
670.145	0.0174998
670.223	0.0174294
670.301	0.0173972
670.379	0.0175247
670.457	0.0175049
670.535	0.0175623
670.613	0.0175608
670.692	0.0175640
670.770	0.0176025
670.848	0.0176232
670.926	0.0174525
671.004	0.0175271
671.082	0.0176408
671.160	0.0175845
671.238	0.0176385
671.317	0.0175219
671.395	0.0175439
671.473	0.0175728
671.551	0.0175549
671.629	0.0176331
671.707	0.0174835
671.785	0.0174654
671.863	0.0174274
671.942	0.0175441
672.020	0.0176649
672.098	0.0175640
672.176	0.0175378
672.254	0.0176295
672.332	0.0175394
672.410	0.0175569
672.488	0.0175288
672.567	0.0176141
672.645	0.0177134
672.723	0.0176846
672.801	0.0176582
672.879	0.0178328
672.957	0.0176649
673.035	0.0176858
673.113	0.0177128
673.192	0.0177459
673.270	0.0175520
673.348	0.0176329
673.426	0.0175875
673.504	0.0175480
673.582	0.0175123
673.660	0.0175819
673.738	0.0175097
673.817	0.0173815
673.895	0.0174120
673.973	0.0176442
674.051	0.0174352
674.129	0.0174039
674.207	0.0173819
674.285	0.0175017
674.363	0.0174905
674.442	0.0173885
674.520	0.0174988
674.598	0.0174859
674.676	0.0173957
674.754	0.0174958
674.832	0.0173725
674.910	0.0174167
674.988	0.0175613
675.067	0.0175360
675.145	0.0174688
675.223	0.0174413
675.301	0.0173689
675.379	0.0174329
675.457	0.0176321
675.535	0.0174187
675.613	0.0173922
675.692	0.0172891
675.770	0.0173754
675.848	0.0172657
675.926	0.0172661
676.004	0.0173730
676.082	0.0172356
676.160	0.0173399
676.238	0.0175460
676.317	0.0173605
676.395	0.0175210
676.473	0.0173959
676.551	0.0174427
676.629	0.0176125
676.707	0.0176205
676.785	0.0176195
676.863	0.0175572
676.942	0.0178821
677.020	0.0177943
677.098	0.0177498
677.176	0.0177586
677.254	0.0177003
677.332	0.0178254
677.410	0.0178000
677.488	0.0176509
677.567	0.0176485
677.645	0.0176090
677.723	0.0174053
677.801	0.0174279
677.879	0.0173139
677.957	0.0171907
678.035	0.0172130
678.113	0.0169862
678.192	0.0169436
678.270	0.0168659
678.348	0.0168417
678.426	0.0168428
678.504	0.0167956
678.582	0.0168502
678.660	0.0169749
678.738	0.0169955
678.817	0.0172109
678.895	0.0172858
678.973	0.0174431
679.051	0.0174676
679.129	0.0175128
679.207	0.0176315
679.285	0.0177091
679.363	0.0177358
679.442	0.0176537
679.520	0.0178431
679.598	0.0179572
679.676	0.0178325
679.754	0.0179063
679.832	0.0178330
679.910	0.0177670
679.988	0.0178597
680.067	0.0176167
680.145	0.0176299
680.223	0.0176674
680.301	0.0175812
680.379	0.0174276
680.457	0.0173740
680.535	0.0173833
680.613	0.0172253
680.692	0.0171383
680.770	0.0171304
680.848	0.0171382
680.926	0.0170642
681.004	0.0169637
681.082	0.0169903
681.160	0.0171233
681.238	0.0171322
681.317	0.0169785
681.395	0.0170650
681.473	0.0172443
681.551	0.0171671
681.629	0.0172412
681.707	0.0173626
681.785	0.0173981
681.863	0.0173477
681.942	0.0175053
682.020	0.0177262
682.098	0.0176745
682.176	0.0177648
682.254	0.0179013
682.332	0.0178880
682.410	0.0178420
682.488	0.0179289
682.567	0.0179711
682.645	0.0179979
682.723	0.0180264
682.801	0.0180134
682.879	0.0179713
682.957	0.0178664
683.035	0.0177028
683.113	0.0176469
683.192	0.0178399
683.270	0.0176382
683.348	0.0174577
683.426	0.0174258
683.504	0.0174615
683.582	0.0171352
683.660	0.0169716
683.738	0.0170090
683.817	0.0169287
683.895	0.0168444
683.973	0.0167561
684.051	0.0166167
684.129	0.0167887
684.207	0.0167277
684.285	0.0166636
684.363	0.0165949
684.442	0.0165039
684.520	0.0166057
684.598	0.0167496
684.676	0.0167161
684.754	0.0167583
684.832	0.0169827
684.910	0.0172294
684.988	0.0172283
685.067	0.0172917
685.145	0.0175449
685.223	0.0177596
685.301	0.0178496
685.379	0.0178932
685.457	0.0182514
685.535	0.0184450
685.613	0.0183961
685.692	0.0185016
685.770	0.0186772
685.848	0.0188257
685.926	0.0188671
686.004	0.0189051
686.082	0.0190177
686.160	0.0188718
686.238	0.0188002
686.317	0.0187108
686.395	0.0186556
686.473	0.0184010
686.551	0.0180257
686.629	0.0178320
686.707	0.0177390
686.785	0.0176241
686.863	0.0174173
686.942	0.0173302
687.020	0.0171791
687.098	0.0167665
687.176	0.0168100
687.254	0.0168303
687.332	0.0166760
687.410	0.0166572
687.488	0.0164973
687.567	0.0164854
687.645	0.0163864
687.723	0.0164348
687.801	0.0164748
687.879	0.0164750
687.957	0.0165439
688.035	0.0166485
688.113	0.0167457
688.192	0.0168661
688.270	0.0168354
688.348	0.0169010
688.426	0.0169994
688.504	0.0171230
688.582	0.0173689
688.660	0.0172652
688.738	0.0174769
688.817	0.0176505
688.895	0.0176434
688.973	0.0176963
689.051	0.0178580
689.129	0.0177605
689.207	0.0175703
689.285	0.0177348
689.363	0.0177186
689.442	0.0177647
689.520	0.0176648
689.598	0.0175831
689.676	0.0175530
689.754	0.0176619
689.832	0.0176084
689.910	0.0177332
689.988	0.0178357
690.067	0.0178143
690.145	0.0180719
690.223	0.0180264
690.301	0.0181052
690.379	0.0182610
690.457	0.0185532
690.535	0.0184848
690.613	0.0185782
690.692	0.0187285
690.770	0.0186839
690.848	0.0186105
690.926	0.0186891
691.004	0.0185440
691.082	0.0185403
691.160	0.0183509
691.238	0.0183365
691.317	0.0183089
691.395	0.0179231
691.473	0.0176683
691.551	0.0175463
691.629	0.0173035
691.707	0.0169632
691.785	0.0167457
691.863	0.0166148
691.942	0.0163715
692.020	0.0162656
692.098	0.0160524
692.176	0.0158633
692.254	0.0158252
692.332	0.0157888
692.410	0.0158742
692.488	0.0158073
692.567	0.0157747
692.645	0.0159551
692.723	0.0159299
692.801	0.0158904
692.879	0.0160099
692.957	0.0162179
693.035	0.0162170
693.113	0.0162798
693.192	0.0163645
693.270	0.0164941
693.348	0.0165321
693.426	0.0167979
693.504	0.0169231
693.582	0.0170711
693.660	0.0172509
693.738	0.0173038
693.817	0.0174416
693.895	0.0176153
693.973	0.0177878
694.051	0.0178966
694.129	0.0181707
694.207	0.0182789
694.285	0.0182156
694.363	0.0182685
694.442	0.0185739
694.520	0.0187663
694.598	0.0188699
694.676	0.0189159
694.754	0.0189957
694.832	0.0190909
694.910	0.0192393
694.988	0.0192023
695.067	0.0193504
695.145	0.0192125
695.223	0.0190739
695.301	0.0192931
695.379	0.0191389
695.457	0.0188713
695.535	0.0189420
695.613	0.0188997
695.692	0.0185587
695.770	0.0184054
695.848	0.0183240
695.926	0.0181880
696.004	0.0180954
696.082	0.0178188
696.160	0.0178105
696.238	0.0175021
696.317	0.0173159
696.395	0.0172169
696.473	0.0168532
696.551	0.0167423
696.629	0.0165057
696.707	0.0162823
696.785	0.0159658
696.863	0.0158051
696.942	0.0155528
697.020	0.0154525
697.098	0.0152032
697.176	0.0150932
697.254	0.0151120
697.332	0.0150933
697.410	0.0148333
697.488	0.0148948
697.567	0.0149680
697.645	0.0150079
697.723	0.0150854
697.801	0.0152125
697.879	0.0154136
697.957	0.0157551
698.035	0.0158549
698.113	0.0163274
698.192	0.0166251
698.270	0.0169269
698.348	0.0172024
698.426	0.0174473
698.504	0.0177985
698.582	0.0182520
698.660	0.0183617
698.738	0.0186744
698.817	0.0187582
698.895	0.0190372
698.973	0.0190884
699.051	0.0192181
699.129	0.0193310
699.207	0.0194897
699.285	0.0193417
699.363	0.0195649
699.442	0.0195145
699.520	0.0195523
699.598	0.0193285
699.676	0.0193059
699.754	0.0191353
699.832	0.0191393
699.910	0.0189622
699.988	0.0188139
700.067	0.0187690
700.145	0.0185855
700.223	0.0183915
700.301	0.0184442
700.379	0.0181885
700.457	0.0180651
700.535	0.0181008
700.613	0.0179452
700.692	0.0176720
700.770	0.0175990
700.848	0.0173943
700.926	0.0172551
701.004	0.0170135
701.082	0.0168858
701.160	0.0166811
701.238	0.0163825
701.317	0.0162212
701.395	0.0162221
701.473	0.0160490
701.551	0.0159158
701.629	0.0156656
701.707	0.0156896
701.785	0.0155775
701.863	0.0156406
701.942	0.0154713
702.020	0.0155577
702.098	0.0154975
702.176	0.0155358
702.254	0.0154311
702.332	0.0156410
702.410	0.0156537
702.488	0.0156998
702.567	0.0157806
702.645	0.0160632
702.723	0.0163940
702.801	0.0164378
702.879	0.0166008
702.957	0.0167390
703.035	0.0170793
703.113	0.0172198
703.192	0.0175021
703.270	0.0176106
703.348	0.0179422
703.426	0.0181612
703.504	0.0184013
703.582	0.0186410
703.660	0.0187795
703.738	0.0190476
703.817	0.0193222
703.895	0.0195465
703.973	0.0196043
704.051	0.0197571
704.129	0.0198730
704.207	0.0198459
704.285	0.0199284
704.363	0.0197934
704.442	0.0197643
704.520	0.0196308
704.598	0.0194169
704.676	0.0193102
704.754	0.0191151
704.832	0.0190192
704.910	0.0186965
704.988	0.0185839
705.067	0.0185794
705.145	0.0181974
705.223	0.0180360
705.301	0.0178856
705.379	0.0175538
705.457	0.0174696
705.535	0.0172894
705.613	0.0170937
705.692	0.0170589
705.770	0.0166471
705.848	0.0166012
705.926	0.0165668
706.004	0.0164686
706.082	0.0165189
706.160	0.0162514
706.238	0.0163873
706.317	0.0165352
706.395	0.0165020
706.473	0.0165745
706.551	0.0164468
706.629	0.0165605
706.707	0.0165837
706.785	0.0166284
706.863	0.0165463
706.942	0.0166405
707.020	0.0166246
707.098	0.0166052
707.176	0.0165784
707.254	0.0167867
707.332	0.0166050
707.410	0.0166683
707.488	0.0166221
707.567	0.0167781
707.645	0.0168367
707.723	0.0168439
707.801	0.0168700
707.879	0.0169711
707.957	0.0169614
708.035	0.0169088
708.113	0.0171230
708.192	0.0171851
708.270	0.0173019
708.348	0.0172710
708.426	0.0173969
708.504	0.0175729
708.582	0.0176766
708.660	0.0177668
708.738	0.0179798
708.817	0.0180659
708.895	0.0180927
708.973	0.0181020
709.051	0.0181236
709.129	0.0181806
709.207	0.0182480
709.285	0.0183293
709.363	0.0183537
709.442	0.0182519
709.520	0.0183089
709.598	0.0183250
709.676	0.0182778
709.754	0.0182883
709.832	0.0183873
709.910	0.0184592
709.988	0.0184492
710.067	0.0184847
710.145	0.0183598
710.223	0.0184549
710.301	0.0183694
710.379	0.0182937
710.457	0.0182489
710.535	0.0182098
710.613	0.0179253
710.692	0.0178632
710.770	0.0177345
710.848	0.0174353
710.926	0.0174026
711.004	0.0172585
711.082	0.0171089
711.160	0.0170049
711.238	0.0168179
711.317	0.0165995
711.395	0.0166097
711.473	0.0165486
711.551	0.0162764
711.629	0.0163811
711.707	0.0165719
711.785	0.0163307
711.863	0.0164217
711.942	0.0165627
712.020	0.0164799
712.098	0.0165880
712.176	0.0166679
712.254	0.0168156
712.332	0.0168497
712.410	0.0168031
712.488	0.0168414
712.567	0.0169562
712.645	0.0170351
712.723	0.0171129
712.801	0.0170940
712.879	0.0171467
712.957	0.0172925
713.035	0.0171136
713.113	0.0172076
713.192	0.0172697
713.270	0.0171931
713.348	0.0171200
713.426	0.0172607
713.504	0.0172271
713.582	0.0174658
713.660	0.0173852
713.738	0.0175912
713.817	0.0178040
713.895	0.0176507
713.973	0.0178059
714.051	0.0179130
714.129	0.0178658
714.207	0.0180014
714.285	0.0182781
714.363	0.0181924
714.442	0.0181560
714.520	0.0182629
714.598	0.0182767
714.676	0.0183073
714.754	0.0182498
714.832	0.0181070
714.910	0.0180103
714.988	0.0181023
715.067	0.0179259
715.145	0.0176604
715.223	0.0176595
715.301	0.0177479
715.379	0.0174160
715.457	0.0173695
715.535	0.0174630
715.613	0.0173633
715.692	0.0172260
715.770	0.0173949
715.848	0.0173400
715.926	0.0174063
716.004	0.0174651
716.082	0.0173916
716.160	0.0174082
716.238	0.0176188
716.317	0.0174529
716.395	0.0174992
716.473	0.0176038
716.551	0.0176960
716.629	0.0176889
716.707	0.0175809
716.785	0.0175923
716.863	0.0175045
716.942	0.0175068
717.020	0.0174695
717.098	0.0173749
717.176	0.0174204
717.254	0.0172511
717.332	0.0173035
717.410	0.0172070
717.488	0.0169738
717.567	0.0169868
717.645	0.0169866
717.723	0.0169292
717.801	0.0168987
717.879	0.0170113
717.957	0.0169753
718.035	0.0168365
718.113	0.0170874
718.192	0.0170399
718.270	0.0170611
718.348	0.0170573
718.426	0.0171170
718.504	0.0171413
718.582	0.0173253
718.660	0.0172865
718.738	0.0172576
718.817	0.0173367
718.895	0.0174726
718.973	0.0173437
719.051	0.0174548
719.129	0.0173218
719.207	0.0175234
719.285	0.0175583
719.363	0.0174097
719.442	0.0173681
719.520	0.0173838
719.598	0.0174564
719.676	0.0174277
719.754	0.0174228
719.832	0.0173070
719.910	0.0175388
719.988	0.0174139
720.067	0.0174312
720.145	0.0172462
720.223	0.0174023
720.301	0.0172945
720.379	0.0172697
720.457	0.0174152
720.535	0.0173991
720.613	0.0173238
720.692	0.0172057
720.770	0.0172076
720.848	0.0171631
720.926	0.0172448
721.004	0.0171570
721.082	0.0170072
721.160	0.0171577
721.238	0.0169975
721.317	0.0171044
721.395	0.0172647
721.473	0.0173039
721.551	0.0171713
721.629	0.0172382
721.707	0.0172936
721.785	0.0173865
721.863	0.0173927
721.942	0.0175465
722.020	0.0174761
722.098	0.0177275
722.176	0.0176913
722.254	0.0177358
722.332	0.0176958
722.410	0.0177819
722.488	0.0179042
722.567	0.0178614
722.645	0.0178974
722.723	0.0179902
722.801	0.0180655
722.879	0.0178866
722.957	0.0179461
723.035	0.0179626
723.113	0.0180927
723.192	0.0178423
723.270	0.0176290
723.348	0.0176527
723.426	0.0177325
723.504	0.0174991
723.582	0.0174416
723.660	0.0173968
723.738	0.0172472
723.817	0.0172817
723.895	0.0171410
723.973	0.0171828
724.051	0.0171107
724.129	0.0172251
724.207	0.0169888
724.285	0.0170511
724.363	0.0171474
724.442	0.0169868
724.520	0.0170503
724.598	0.0170870
724.676	0.0170881
724.754	0.0169930
724.832	0.0171640
724.910	0.0171149
724.988	0.0171121
725.067	0.0171750
725.145	0.0171896
725.223	0.0171049
725.301	0.0172973
725.379	0.0172282
725.457	0.0170048
725.535	0.0170812
725.613	0.0174650
725.692	0.0173574
725.770	0.0172179
725.848	0.0173198
725.926	0.0171701
726.004	0.0173849
726.082	0.0174778
726.160	0.0175140
726.238	0.0175069
726.317	0.0176822
726.395	0.0175793
726.473	0.0177059
726.551	0.0177613
726.629	0.0177219
726.707	0.0178848
726.785	0.0179389
726.863	0.0178545
726.942	0.0180033
727.020	0.0179639
727.098	0.0180391
727.176	0.0181271
727.254	0.0181841
727.332	0.0180938
727.410	0.0181609
727.488	0.0181956
727.567	0.0181554
727.645	0.0181702
727.723	0.0180412
727.801	0.0181059
727.879	0.0180623
727.957	0.0181520
728.035	0.0182151
728.113	0.0181197
728.192	0.0181326
728.270	0.0181330
728.348	0.0182491
728.426	0.0181100
728.504	0.0177806
728.582	0.0178049
728.660	0.0177906
728.738	0.0176959
728.817	0.0175720
728.895	0.0175117
728.973	0.0174573
729.051	0.0175021
729.129	0.0174200
729.207	0.0172540
729.285	0.0172331
729.363	0.0172548
729.442	0.0171978
729.520	0.0171742
729.598	0.0173612
729.676	0.0172289
729.754	0.0171366
729.832	0.0171104
729.910	0.0172013
729.988	0.0171238
730.067	0.0169207
730.145	0.0170523
730.223	0.0169714
730.301	0.0168114
730.379	0.0168319
730.457	0.0168177
730.535	0.0167266
730.613	0.0167419
730.692	0.0167040
730.770	0.0166164
730.848	0.0168038
730.926	0.0167599
731.004	0.0168269
731.082	0.0170084
731.160	0.0170715
731.238	0.0170456
731.317	0.0173901
731.395	0.0174100
731.473	0.0172253
731.551	0.0172552
731.629	0.0175231
731.707	0.0174223
731.785	0.0174585
731.863	0.0174123
731.942	0.0175204
732.020	0.0175526
732.098	0.0174930
732.176	0.0174874
732.254	0.0175609
732.332	0.0174825
732.410	0.0174694
732.488	0.0174014
732.567	0.0174005
732.645	0.0173805
732.723	0.0173641
732.801	0.0174575
732.879	0.0172886
732.957	0.0172481
733.035	0.0173721
733.113	0.0172853
733.192	0.0174240
733.270	0.0174755
733.348	0.0174730
733.426	0.0176301
733.504	0.0175082
733.582	0.0175978
733.660	0.0175784
733.738	0.0175248
733.817	0.0176498
733.895	0.0176209
733.973	0.0176503
734.051	0.0176857
734.129	0.0176749
734.207	0.0178610
734.285	0.0177332
734.363	0.0177798
734.442	0.0179596
734.520	0.0177631
734.598	0.0178609
734.676	0.0178876
734.754	0.0178265
734.832	0.0177644
734.910	0.0176929
734.988	0.0177370
735.067	0.0176841
735.145	0.0176503
735.223	0.0176629
735.301	0.0175169
735.379	0.0175563
735.457	0.0173367
735.535	0.0173854
735.613	0.0174512
735.692	0.0171281
735.770	0.0172871
735.848	0.0172538
735.926	0.0171530
736.004	0.0171297
736.082	0.0171922
736.160	0.0171223
736.238	0.0171149
736.317	0.0170306
736.395	0.0171530
736.473	0.0172575
736.551	0.0172481
736.629	0.0170118
736.707	0.0170825
736.785	0.0171383
736.863	0.0170762
736.942	0.0170669
737.020	0.0171661
737.098	0.0170472
737.176	0.0170518
737.254	0.0172280
737.332	0.0172412
737.410	0.0172032
737.488	0.0171956
737.567	0.0172272
737.645	0.0173015
737.723	0.0172604
737.801	0.0174619
737.879	0.0174171
737.957	0.0176188
738.035	0.0176186
738.113	0.0176440
738.192	0.0175705
738.270	0.0178689
738.348	0.0177438
738.426	0.0175174
738.504	0.0175537
738.582	0.0176501
738.660	0.0177650
738.738	0.0176314
738.817	0.0175419
738.895	0.0175435
738.973	0.0174040
739.051	0.0173870
739.129	0.0173164
739.207	0.0174713
739.285	0.0175396
739.363	0.0172895
739.442	0.0173396
739.520	0.0174516
739.598	0.0173870
739.676	0.0174765
739.754	0.0175089
739.832	0.0174940
739.910	0.0173939
739.988	0.0176320
740.067	0.0174536
740.145	0.0175322
740.223	0.0176101
740.301	0.0176203
740.379	0.0175510
740.457	0.0177497
740.535	0.0175991
740.613	0.0176582
740.692	0.0177614
740.770	0.0177152
740.848	0.0177804
740.926	0.0178355
741.004	0.0178339
741.082	0.0178766
741.160	0.0179292
741.238	0.0179887
741.317	0.0178758
741.395	0.0179760
741.473	0.0179485
741.551	0.0177997
741.629	0.0178814
741.707	0.0177736
741.785	0.0176530
741.863	0.0177973
741.942	0.0177411
742.020	0.0177534
742.098	0.0176474
742.176	0.0176059
742.254	0.0177802
742.332	0.0174880
742.410	0.0173229
742.488	0.0174812
742.567	0.0173737
742.645	0.0173784
742.723	0.0175697
742.801	0.0174338
742.879	0.0174535
742.957	0.0174237
743.035	0.0173156
743.113	0.0172330
743.192	0.0171807
743.270	0.0171900
743.348	0.0173013
743.426	0.0171570
743.504	0.0172057
743.582	0.0173130
743.660	0.0172439
743.738	0.0172098
743.817	0.0171493
743.895	0.0171200
743.973	0.0171567
744.051	0.0173090
744.129	0.0172869
744.207	0.0171439
744.285	0.0173098
744.363	0.0172878
744.442	0.0172356
744.520	0.0171404
744.598	0.0172190
744.676	0.0171091
744.754	0.0171447
744.832	0.0171281
744.910	0.0170711
744.988	0.0169600
745.067	0.0171456
745.145	0.0172030
745.223	0.0173779
745.301	0.0172000
745.379	0.0172654
745.457	0.0173140
745.535	0.0174541
745.613	0.0174545
745.692	0.0174651
745.770	0.0174253
745.848	0.0174601
745.926	0.0174506
746.004	0.0175059
746.082	0.0174400
746.160	0.0175057
746.238	0.0175235
746.317	0.0174809
746.395	0.0175211
746.473	0.0173864
746.551	0.0172774
746.629	0.0174895
746.707	0.0173481
746.785	0.0174220
746.863	0.0172498
746.942	0.0173497
747.020	0.0174061
747.098	0.0174928
747.176	0.0174402
747.254	0.0175047
747.332	0.0175845
747.410	0.0176515
747.488	0.0177435
747.567	0.0178934
747.645	0.0177682
747.723	0.0178827
747.801	0.0178880
747.879	0.0181078
747.957	0.0178045
748.035	0.0177964
748.113	0.0178712
748.192	0.0178841
748.270	0.0178717
748.348	0.0180473
748.426	0.0179307
748.504	0.0179507
748.582	0.0178020
748.660	0.0177171
748.738	0.0177837
748.817	0.0178797
748.895	0.0178358
748.973	0.0177984
749.051	0.0176897
749.129	0.0176784
749.207	0.0176019
749.285	0.0174606
749.363	0.0173844
749.442	0.0173763
749.520	0.0172204
749.598	0.0172011
749.676	0.0171149
749.754	0.0170527
749.832	0.0171550
749.910	0.0169109
749.988	0.0170047
750.067	0.0170087
750.145	0.0169801
750.223	0.0169086
750.301	0.0168695
750.379	0.0169995
750.457	0.0171281
750.535	0.0171795
750.613	0.0173303
750.692	0.0174281
750.770	0.0174587
750.848	0.0175372
750.926	0.0174628
751.004	0.0176049
751.082	0.0174774
751.160	0.0174342
751.238	0.0173295
751.317	0.0174342
751.395	0.0173801
751.473	0.0172785
751.551	0.0173097
751.629	0.0170797
751.707	0.0170446
751.785	0.0169644
751.863	0.0170984
751.942	0.0170253
752.020	0.0170890
752.098	0.0168806
752.176	0.0170007
752.254	0.0169359
752.332	0.0170203
752.410	0.0170923
752.488	0.0171354
752.567	0.0172079
752.645	0.0173166
752.723	0.0174017
752.801	0.0173867
752.879	0.0175494
752.957	0.0175740
753.035	0.0175457
753.113	0.0175930
753.192	0.0176472
753.270	0.0176161
753.348	0.0178127
753.426	0.0175618
753.504	0.0177615
753.582	0.0176776
753.660	0.0175850
753.738	0.0175877
753.817	0.0177673
753.895	0.0178649
753.973	0.0177607
754.051	0.0178038
754.129	0.0176758
754.207	0.0178504
754.285	0.0176936
754.363	0.0179058
754.442	0.0179196
754.520	0.0180502
754.598	0.0180402
754.676	0.0178529
754.754	0.0180161
754.832	0.0179787
754.910	0.0180983
754.988	0.0182076
755.067	0.0181174
755.145	0.0181419
755.223	0.0181071
755.301	0.0181416
755.379	0.0180321
755.457	0.0180896
755.535	0.0179121
755.613	0.0179069
755.692	0.0176348
755.770	0.0176610
755.848	0.0176361
755.926	0.0175101
756.004	0.0172662
756.082	0.0172174
756.160	0.0171979
756.238	0.0170297
756.317	0.0168129
756.395	0.0168564
756.473	0.0169939
756.551	0.0166385
756.629	0.0166788
756.707	0.0166533
756.785	0.0165616
756.863	0.0167640
756.942	0.0169057
757.020	0.0167587
757.098	0.0167725
757.176	0.0167938
757.254	0.0167386
757.332	0.0168579
757.410	0.0167605
757.488	0.0167852
757.567	0.0168294
757.645	0.0169406
757.723	0.0168021
757.801	0.0167279
757.879	0.0169263
757.957	0.0168514
758.035	0.0168623
758.113	0.0169845
758.192	0.0170129
758.270	0.0170302
758.348	0.0171030
758.426	0.0170767
758.504	0.0172556
758.582	0.0171713
758.660	0.0171027
758.738	0.0172084
758.817	0.0172736
758.895	0.0172166
758.973	0.0172913
759.051	0.0175900
759.129	0.0174590
759.207	0.0174465
759.285	0.0175883
759.363	0.0175962
759.442	0.0176905
759.520	0.0174571
759.598	0.0175146
759.676	0.0176251
759.754	0.0177589
759.832	0.0176707
759.910	0.0176623
759.988	0.0177486
760.067	0.0178808
760.145	0.0177632
760.223	0.0177003
760.301	0.0176285
760.379	0.0176852
760.457	0.0176845
760.535	0.0176426
760.613	0.0178300
760.692	0.0177749
760.770	0.0176064
760.848	0.0177794
760.926	0.0176938
761.004	0.0176778
761.082	0.0177181
761.160	0.0177217
761.238	0.0177851
761.317	0.0176299
761.395	0.0176604
761.473	0.0176049
761.551	0.0177022
761.629	0.0177733
761.707	0.0176181
761.785	0.0176993
761.863	0.0175734
761.942	0.0175367
762.020	0.0175958
762.098	0.0176944
762.176	0.0174807
762.254	0.0175593
762.332	0.0175980
762.410	0.0176911
762.488	0.0176749
762.567	0.0176563
762.645	0.0177148
762.723	0.0177167
762.801	0.0177545
762.879	0.0178391
762.957	0.0177802
763.035	0.0178252
763.113	0.0177762
763.192	0.0177316
763.270	0.0177577
763.348	0.0176539
763.426	0.0176711
763.504	0.0175942
763.582	0.0173295
763.660	0.0173644
763.738	0.0173090
763.817	0.0172188
763.895	0.0171664
763.973	0.0173159
764.051	0.0171902
764.129	0.0171319
764.207	0.0170659
764.285	0.0170045
764.363	0.0169859
764.442	0.0170171
764.520	0.0170034
764.598	0.0170246
764.676	0.0169399
764.754	0.0168756
764.832	0.0171218
764.910	0.0170567
764.988	0.0171614
765.067	0.0171258
765.145	0.0170829
765.223	0.0173640
765.301	0.0170841
765.379	0.0172629
765.457	0.0174691
765.535	0.0175524
765.613	0.0175822
765.692	0.0176222
765.770	0.0177214
765.848	0.0175336
765.926	0.0175212
766.004	0.0176677
766.082	0.0176236
766.160	0.0174833
766.238	0.0174200
766.317	0.0174010
766.395	0.0174854
766.473	0.0173024
766.551	0.0173077
766.629	0.0174770
766.707	0.0175340
766.785	0.0175391
766.863	0.0175021
766.942	0.0173742
767.020	0.0174800
767.098	0.0175142
767.176	0.0175284
767.254	0.0176534
767.332	0.0175385
767.410	0.0174560
767.488	0.0175941
767.567	0.0176683
767.645	0.0174904
767.723	0.0176337
767.801	0.0175883
767.879	0.0176439
767.957	0.0176152
768.035	0.0177129
768.113	0.0175865
768.192	0.0175784
768.270	0.0175971
768.348	0.0176320
768.426	0.0177457
768.504	0.0175634
768.582	0.0176691
768.660	0.0176641
768.738	0.0175519
768.817	0.0175312
768.895	0.0176220
768.973	0.0177948
769.051	0.0176883
769.129	0.0177371
769.207	0.0176662
769.285	0.0177420
769.363	0.0176888
769.442	0.0177610
769.520	0.0177750
769.598	0.0177610
769.676	0.0178139
769.754	0.0179004
769.832	0.0179262
769.910	0.0178275
769.988	0.0178920
770.067	0.0178220
770.145	0.0177430
770.223	0.0178359
770.301	0.0178355
770.379	0.0176231
770.457	0.0176086
770.535	0.0177074
770.613	0.0176917
770.692	0.0176881
770.770	0.0176841
770.848	0.0174593
770.926	0.0175305
771.004	0.0175711
771.082	0.0173799
771.160	0.0174410
771.238	0.0173515
771.317	0.0173506
771.395	0.0172630
771.473	0.0172493
771.551	0.0172767
771.629	0.0171467
771.707	0.0170195
771.785	0.0170612
771.863	0.0172285
771.942	0.0170200
772.020	0.0170935
772.098	0.0171362
772.176	0.0171535
772.254	0.0171281
772.332	0.0172070
772.410	0.0171739
772.488	0.0170745
772.567	0.0171459
772.645	0.0172409
772.723	0.0171744
772.801	0.0172928
772.879	0.0172820
772.957	0.0171358
773.035	0.0172916
773.113	0.0173769
773.192	0.0174341
773.270	0.0172333
773.348	0.0173654
773.426	0.0173210
773.504	0.0172819
773.582	0.0173303
773.660	0.0172592
773.738	0.0174821
773.817	0.0172883
773.895	0.0172324
773.973	0.0171730
774.051	0.0173074
774.129	0.0173542
774.207	0.0172997
774.285	0.0173335
774.363	0.0173985
774.442	0.0172221
774.520	0.0172161
774.598	0.0173487
774.676	0.0174431
774.754	0.0174030
774.832	0.0174411
774.910	0.0173473
774.988	0.0173912
775.067	0.0174920
775.145	0.0173360
775.223	0.0174274
775.301	0.0173584
775.379	0.0174698
775.457	0.0174780
775.535	0.0172513
775.613	0.0174629
775.692	0.0173460
775.770	0.0173935
775.848	0.0173235
775.926	0.0172265
776.004	0.0173615
776.082	0.0174115
776.160	0.0173353
776.238	0.0170895
776.317	0.0171940
776.395	0.0172209
776.473	0.0170922
776.551	0.0172256
776.629	0.0173241
776.707	0.0171559
776.785	0.0172691
776.863	0.0172899
776.942	0.0174025
777.020	0.0173567
777.098	0.0171718
777.176	0.0172752
777.254	0.0173011
777.332	0.0172506
777.410	0.0174228
777.488	0.0173727
777.567	0.0174212
777.645	0.0174469
777.723	0.0174046
777.801	0.0174651
777.879	0.0175033
777.957	0.0175155
778.035	0.0176814
778.113	0.0173734
778.192	0.0174493
778.270	0.0175735
778.348	0.0174825
778.426	0.0174709
778.504	0.0173246
778.582	0.0172114
778.660	0.0172906
778.738	0.0173086
778.817	0.0173232
778.895	0.0171664
778.973	0.0173190
779.051	0.0172028
779.129	0.0172081
779.207	0.0172150
779.285	0.0172451
779.363	0.0173442
779.442	0.0172023
779.520	0.0171117
779.598	0.0171544
779.676	0.0171172
779.754	0.0170547
779.832	0.0170444
779.910	0.0170060
779.988	0.0170072
780.067	0.0170318
780.145	0.0170247
780.223	0.0170058
780.301	0.0170292
780.379	0.0170568
780.457	0.0169923
780.535	0.0169865
780.613	0.0170475
780.692	0.0171511
780.770	0.0171570
780.848	0.0172292
780.926	0.0172881
781.004	0.0172989
781.082	0.0174286
781.160	0.0174120
781.238	0.0173970
781.317	0.0175147
781.395	0.0175928
781.473	0.0176376
781.551	0.0177092
781.629	0.0177012
781.707	0.0176248
781.785	0.0176591
781.863	0.0178120
781.942	0.0177284
782.020	0.0177129
782.098	0.0177230
782.176	0.0178616
782.254	0.0178598
782.332	0.0177706
782.410	0.0176878
782.488	0.0177897
782.567	0.0178767
782.645	0.0176073
782.723	0.0178135
782.801	0.0176666
782.879	0.0177826
782.957	0.0176791
783.035	0.0177737
783.113	0.0178542
783.192	0.0177364
783.270	0.0178713
783.348	0.0179735
783.426	0.0178974
783.504	0.0176951
783.582	0.0177679
783.660	0.0178291
783.738	0.0180396
783.817	0.0177544
783.895	0.0176527
783.973	0.0176821
784.051	0.0176389
784.129	0.0175670
784.207	0.0177921
784.285	0.0176749
784.363	0.0174961
784.442	0.0174685
784.520	0.0173913
784.598	0.0175322
784.676	0.0172770
784.754	0.0173673
784.832	0.0172581
784.910	0.0171875
784.988	0.0172381
785.067	0.0172577
785.145	0.0172559
785.223	0.0172173
785.301	0.0172750
785.379	0.0172028
785.457	0.0173161
785.535	0.0173123
785.613	0.0173375
785.692	0.0175184
785.770	0.0174535
785.848	0.0174306
785.926	0.0175655
786.004	0.0175090
786.082	0.0177074
786.160	0.0174940
786.238	0.0176269
786.317	0.0176398
786.395	0.0175925
786.473	0.0177683
786.551	0.0175893
786.629	0.0176957
786.707	0.0177953
786.785	0.0177637
786.863	0.0178545
786.942	0.0177808
787.020	0.0176792
787.098	0.0176541
787.176	0.0176373
787.254	0.0177003
787.332	0.0176263
787.410	0.0174784
787.488	0.0174704
787.567	0.0174266
787.645	0.0173332
787.723	0.0172726
787.801	0.0173050
787.879	0.0170815
787.957	0.0171264
788.035	0.0171738
788.113	0.0171734
788.192	0.0170660
788.270	0.0171394
788.348	0.0171590
788.426	0.0171628
788.504	0.0172512
788.582	0.0172385
788.660	0.0170872
788.738	0.0172433
788.817	0.0172964
788.895	0.0173072
788.973	0.0173573
789.051	0.0173140
789.129	0.0174147
789.207	0.0173736
789.285	0.0173933
789.363	0.0174810
789.442	0.0174771
789.520	0.0174030
789.598	0.0173687
789.676	0.0173825
789.754	0.0173547
789.832	0.0173061
789.910	0.0173474
789.988	0.0173273
790.067	0.0172514
790.145	0.0172740
790.223	0.0174210
790.301	0.0172987
790.379	0.0173447
790.457	0.0172904
790.535	0.0174844
790.613	0.0174081
790.692	0.0174483
790.770	0.0174732
790.848	0.0175088
790.926	0.0176384
791.004	0.0177288
791.082	0.0177733
791.160	0.0176943
791.238	0.0176843
791.317	0.0177635
791.395	0.0178075
791.473	0.0176611
791.551	0.0177296
791.629	0.0177525
791.707	0.0175857
791.785	0.0175255
791.863	0.0174950
791.942	0.0176106
792.020	0.0176186
792.098	0.0175766
792.176	0.0175393
792.254	0.0174776
792.332	0.0174372
792.410	0.0173907
792.488	0.0173680
792.567	0.0174462
792.645	0.0174317
792.723	0.0173355
792.801	0.0173466
792.879	0.0174136
792.957	0.0173305
793.035	0.0174047
793.113	0.0174103
793.192	0.0173376
793.270	0.0172124
793.348	0.0174366
793.426	0.0174377
793.504	0.0172880
793.582	0.0173773
793.660	0.0173933
793.738	0.0175130
793.817	0.0174312
793.895	0.0174090
793.973	0.0174898
794.051	0.0172926
794.129	0.0172754
794.207	0.0174130
794.285	0.0174026
794.363	0.0174446
794.442	0.0174956
794.520	0.0175448
794.598	0.0175494
794.676	0.0177068
794.754	0.0176970
794.832	0.0175760
794.910	0.0176407
794.988	0.0176629
795.067	0.0176774
795.145	0.0175867
795.223	0.0177035
795.301	0.0177453
795.379	0.0177211
795.457	0.0175446
795.535	0.0175181
795.613	0.0176925
795.692	0.0176043
795.770	0.0175402
795.848	0.0176070
795.926	0.0175130
796.004	0.0174149
796.082	0.0174554
796.160	0.0174565
796.238	0.0174641
796.317	0.0173951
796.395	0.0175337
796.473	0.0174360
796.551	0.0175247
796.629	0.0174944
796.707	0.0174507
796.785	0.0175612
796.863	0.0175266
796.942	0.0176842
797.020	0.0174510
797.098	0.0174641
797.176	0.0176244
797.254	0.0176087
797.332	0.0176022
797.410	0.0175826
797.488	0.0173439
797.567	0.0173634
797.645	0.0174281
797.723	0.0173327
797.801	0.0174057
797.879	0.0172618
797.957	0.0171613
798.035	0.0172162
798.113	0.0172005
798.192	0.0171026
798.270	0.0173392
798.348	0.0171456
798.426	0.0171622
798.504	0.0171415
798.582	0.0171547
798.660	0.0172105
798.738	0.0172752
798.817	0.0171399
798.895	0.0171613
798.973	0.0172169
799.051	0.0173428
799.129	0.0173232
799.207	0.0172834
799.285	0.0172385
799.363	0.0174092
799.442	0.0175077
799.520	0.0175455
799.598	0.0175318
799.676	0.0176326
799.754	0.0177290
799.832	0.0176126
799.910	0.0176467
799.988	0.0176411
800.067	0.0177615
800.145	0.0177225
800.223	0.0178590
800.301	0.0179786
800.379	0.0178750
800.457	0.0178627
800.535	0.0177954
800.613	0.0178217
800.692	0.0176703
800.770	0.0179262
800.848	0.0177245
800.926	0.0177667
801.004	0.0178352
801.082	0.0176271
801.160	0.0177998
801.238	0.0176082
801.317	0.0177001
801.395	0.0176632
801.473	0.0176575
801.551	0.0176982
801.629	0.0176069
801.707	0.0177451
801.785	0.0176345
801.863	0.0176392
801.942	0.0176384
802.020	0.0175661
802.098	0.0175932
802.176	0.0176691
802.254	0.0174943
802.332	0.0176381
802.410	0.0176154
802.488	0.0174704
802.567	0.0174452
802.645	0.0173322
802.723	0.0174706
802.801	0.0172432
802.879	0.0174474
802.957	0.0172826
803.035	0.0171650
803.113	0.0172296
803.192	0.0172252
803.270	0.0170570
803.348	0.0170341
803.426	0.0170741
803.504	0.0170815
803.582	0.0170261
803.660	0.0169534
803.738	0.0169170
803.817	0.0169328
803.895	0.0170053
803.973	0.0171304
804.051	0.0170790
804.129	0.0170929
804.207	0.0170620
804.285	0.0171519
804.363	0.0171748
804.442	0.0172683
804.520	0.0171680
804.598	0.0172952
804.676	0.0173167
804.754	0.0173568
804.832	0.0173565
804.910	0.0173969
804.988	0.0172871
805.067	0.0174467
805.145	0.0174720
805.223	0.0174589
805.301	0.0173933
805.379	0.0174671
805.457	0.0175596
805.535	0.0175764
805.613	0.0173930
805.692	0.0174992
805.770	0.0174395
805.848	0.0175004
805.926	0.0175391
806.004	0.0176768
806.082	0.0174480
806.160	0.0175043
806.238	0.0177399
806.317	0.0175273
806.395	0.0175405
806.473	0.0175854
806.551	0.0177259
806.629	0.0176071
806.707	0.0174400
806.785	0.0176646
806.863	0.0177453
806.942	0.0176165
807.020	0.0177522
807.098	0.0177957
807.176	0.0177632
807.254	0.0178240
807.332	0.0176036
807.410	0.0176277
807.488	0.0177335
807.567	0.0176199
807.645	0.0176735
807.723	0.0176928
807.801	0.0177905
807.879	0.0176947
807.957	0.0175991
808.035	0.0177605
808.113	0.0176382
808.192	0.0175105
808.270	0.0175204
808.348	0.0177317
808.426	0.0175963
808.504	0.0175172
808.582	0.0175317
808.660	0.0174696
808.738	0.0174841
808.817	0.0176149
808.895	0.0174166
808.973	0.0174658
809.051	0.0174482
809.129	0.0175231
809.207	0.0175607
809.285	0.0175437
809.363	0.0175903
809.442	0.0176440
809.520	0.0175444
809.598	0.0175792
809.676	0.0176059
809.754	0.0176529
809.832	0.0177097
809.910	0.0177483
809.988	0.0175089
810.067	0.0176292
810.145	0.0176084
810.223	0.0175851
810.301	0.0175585
810.379	0.0175671
810.457	0.0175605
810.535	0.0175034
810.613	0.0175859
810.692	0.0175648
810.770	0.0174908
810.848	0.0173724
810.926	0.0173220
811.004	0.0174047
811.082	0.0173671
811.160	0.0173197
811.238	0.0174213
811.317	0.0172938
811.395	0.0172910
811.473	0.0171410
811.551	0.0172134
811.629	0.0172890
811.707	0.0171720
811.785	0.0170676
811.863	0.0170341
811.942	0.0172816
812.020	0.0171673
812.098	0.0171771
812.176	0.0171071
812.254	0.0171487
812.332	0.0172195
812.410	0.0172614
812.488	0.0172293
812.567	0.0172273
812.645	0.0170583
812.723	0.0172092
812.801	0.0171946
812.879	0.0171751
812.957	0.0172788
813.035	0.0172994
813.113	0.0171361
813.192	0.0173179
813.270	0.0173003
813.348	0.0173342
813.426	0.0173597
813.504	0.0172975
813.582	0.0171893
813.660	0.0172775
813.738	0.0174319
813.817	0.0172855
813.895	0.0173222
813.973	0.0172756
814.051	0.0173165
814.129	0.0173281
814.207	0.0174559
814.285	0.0173218
814.363	0.0174014
814.442	0.0173927
814.520	0.0174142
814.598	0.0173300
814.676	0.0173872
814.754	0.0175110
814.832	0.0174098
814.910	0.0175982
814.988	0.0174194
815.067	0.0176174
815.145	0.0176170
815.223	0.0176062
815.301	0.0174401
815.379	0.0176770
815.457	0.0178548
815.535	0.0177303
815.613	0.0177399
815.692	0.0177576
815.770	0.0178194
815.848	0.0177009
815.926	0.0178332
816.004	0.0178001
816.082	0.0178182
816.160	0.0177105
816.238	0.0177287
816.317	0.0175882
816.395	0.0176287
816.473	0.0176464
816.551	0.0175804
816.629	0.0176628
816.707	0.0175856
816.785	0.0176981
816.863	0.0175916
816.942	0.0175368
817.020	0.0175002
817.098	0.0177548
817.176	0.0176393
817.254	0.0174880
817.332	0.0177071
817.410	0.0176556
817.488	0.0176080
817.567	0.0176340
817.645	0.0175692
817.723	0.0177299
817.801	0.0174973
817.879	0.0176911
817.957	0.0176528
818.035	0.0176204
818.113	0.0175706
818.192	0.0175597
818.270	0.0175307
818.348	0.0175077
818.426	0.0174964
818.504	0.0174540
818.582	0.0175259
818.660	0.0174349
818.738	0.0175050
818.817	0.0173581
818.895	0.0173138
818.973	0.0174715
819.051	0.0173452
819.129	0.0172455
819.207	0.0171394
819.285	0.0172058
819.363	0.0172451
819.442	0.0172377
819.520	0.0170860
819.598	0.0170508
819.676	0.0171436
819.754	0.0172573
819.832	0.0172438
819.910	0.0170634
819.988	0.0172272
820.067	0.0172143
820.145	0.0170840
820.223	0.0172331
820.301	0.0172398
820.379	0.0172507
820.457	0.0173627
820.535	0.0173592
820.613	0.0174706
820.692	0.0173321
820.770	0.0173949
820.848	0.0173895
820.926	0.0176626
821.004	0.0174862
821.082	0.0173952
821.160	0.0176008
821.238	0.0175038
821.317	0.0175883
821.395	0.0176228
821.473	0.0176595
821.551	0.0175121
821.629	0.0177123
821.707	0.0176662
821.785	0.0175146
821.863	0.0175433
821.942	0.0176692
822.020	0.0177290
822.098	0.0176637
822.176	0.0176666
822.254	0.0177382
822.332	0.0175397
822.410	0.0176541
822.488	0.0176767
822.567	0.0176261
822.645	0.0175899
822.723	0.0177318
822.801	0.0175808
822.879	0.0177016
822.957	0.0177363
823.035	0.0177271
823.113	0.0178136
823.192	0.0177431
823.270	0.0176778
823.348	0.0177094
823.426	0.0178364
823.504	0.0177468
823.582	0.0176882
823.660	0.0177612
823.738	0.0177944
823.817	0.0177339
823.895	0.0178259
823.973	0.0177362
824.051	0.0177361
824.129	0.0176723
824.207	0.0177340
824.285	0.0177441
824.363	0.0176820
824.442	0.0176593
824.520	0.0176173
824.598	0.0176594
824.676	0.0176244
824.754	0.0176346
824.832	0.0176171
824.910	0.0175345
824.988	0.0176808
825.067	0.0176224
825.145	0.0174697
825.223	0.0174358
825.301	0.0174544
825.379	0.0174715
825.457	0.0173795
825.535	0.0174374
825.613	0.0173646
825.692	0.0173747
825.770	0.0174783
825.848	0.0174046
825.926	0.0173223
826.004	0.0172643
826.082	0.0173025
826.160	0.0174399
826.238	0.0173461
826.317	0.0173820
826.395	0.0173215
826.473	0.0173891
826.551	0.0174437
826.629	0.0174040
826.707	0.0173792
826.785	0.0174238
826.863	0.0173075
826.942	0.0173202
827.020	0.0173626
827.098	0.0173965
827.176	0.0173389
827.254	0.0173103
827.332	0.0171645
827.410	0.0173492
827.488	0.0172658
827.567	0.0170923
827.645	0.0172723
827.723	0.0171646
827.801	0.0172610
827.879	0.0173071
827.957	0.0171960
828.035	0.0173864
828.113	0.0174091
828.192	0.0172807
828.270	0.0172768
828.348	0.0172763
828.426	0.0173597
828.504	0.0173780
828.582	0.0174227
828.660	0.0173294
828.738	0.0174699
828.817	0.0175405
828.895	0.0174423
828.973	0.0174471
829.051	0.0174779
829.129	0.0174833
829.207	0.0173533
829.285	0.0175637
829.363	0.0174593
829.442	0.0173597
829.520	0.0176019
829.598	0.0175550
829.676	0.0174575
829.754	0.0176911
829.832	0.0175137
829.910	0.0175676
829.988	0.0175284
830.067	0.0175499
830.145	0.0175429
830.223	0.0175644
830.301	0.0175612
830.379	0.0176029
830.457	0.0176204
830.535	0.0174950
830.613	0.0176344
830.692	0.0176270
830.770	0.0176422
830.848	0.0176020
830.926	0.0176025
831.004	0.0175663
831.082	0.0175458
831.160	0.0176847
831.238	0.0176253
831.317	0.0176438
831.395	0.0174737
831.473	0.0175918
831.551	0.0176255
831.629	0.0174727
831.707	0.0174439
831.785	0.0174847
831.863	0.0175128
831.942	0.0175825
832.020	0.0174079
832.098	0.0174168
832.176	0.0175158
832.254	0.0174666
832.332	0.0175401
832.410	0.0175368
832.488	0.0174476
832.567	0.0175739
832.645	0.0175217
832.723	0.0173885
832.801	0.0174206
832.879	0.0174160
832.957	0.0174564
833.035	0.0175216
833.113	0.0175272
833.192	0.0175376
833.270	0.0173853
833.348	0.0174977
833.426	0.0175081
833.504	0.0174038
833.582	0.0172899
833.660	0.0173421
833.738	0.0172515
833.817	0.0174020
833.895	0.0173533
833.973	0.0173422
834.051	0.0173808
834.129	0.0173055
834.207	0.0173944
834.285	0.0174982
834.363	0.0174068
834.442	0.0173267
834.520	0.0172675
834.598	0.0173480
834.676	0.0172875
834.754	0.0172442
834.832	0.0170824
834.910	0.0171229
834.988	0.0170881
835.067	0.0170627
835.145	0.0169807
835.223	0.0169365
835.301	0.0170848
835.379	0.0170062
835.457	0.0169794
835.535	0.0168403
835.613	0.0170783
835.692	0.0171899
835.770	0.0169995
835.848	0.0170487
835.926	0.0173380
836.004	0.0172145
836.082	0.0171865
836.160	0.0172382
836.238	0.0172932
836.317	0.0175191
836.395	0.0174644
836.473	0.0173327
836.551	0.0174738
836.629	0.0174300
836.707	0.0175791
836.785	0.0176044
836.863	0.0175526
836.942	0.0174255
837.020	0.0176525
837.098	0.0176021
837.176	0.0175141
837.254	0.0175304
837.332	0.0175733
837.410	0.0175328
837.488	0.0176190
837.567	0.0174667
837.645	0.0176552
837.723	0.0177032
837.801	0.0176408
837.879	0.0175425
837.957	0.0175373
838.035	0.0176174
838.113	0.0175375
838.192	0.0173880
838.270	0.0174587
838.348	0.0175661
838.426	0.0174861
838.504	0.0176296
838.582	0.0175289
838.660	0.0175929
838.738	0.0175660
838.817	0.0175066
838.895	0.0175321
838.973	0.0175891
839.051	0.0174033
839.129	0.0175071
839.207	0.0175070
839.285	0.0173128
839.363	0.0173080
839.442	0.0174180
839.520	0.0173464
839.598	0.0173700
839.676	0.0172849
839.754	0.0172235
839.832	0.0173734
839.910	0.0173666
839.988	0.0173272
840.067	0.0173624
840.145	0.0173884
840.223	0.0174417
840.301	0.0173888
840.379	0.0174754
840.457	0.0174110
840.535	0.0172643
840.613	0.0175052
840.692	0.0174935
840.770	0.0174463
840.848	0.0174686
840.926	0.0175180
841.004	0.0175730
841.082	0.0173484
841.160	0.0175002
841.238	0.0173502
841.317	0.0174180
841.395	0.0174864
841.473	0.0173685
841.551	0.0173757
841.629	0.0173911
841.707	0.0175060
841.785	0.0173645
841.863	0.0174489
841.942	0.0174202
842.020	0.0175147
842.098	0.0174573
842.176	0.0172761
842.254	0.0175108
842.332	0.0175036
842.410	0.0174137
842.488	0.0174024
842.567	0.0175250
842.645	0.0173458
842.723	0.0173943
842.801	0.0173989
842.879	0.0173257
842.957	0.0173396
843.035	0.0174153
843.113	0.0174727
843.192	0.0173248
843.270	0.0171992
843.348	0.0172805
843.426	0.0173571
843.504	0.0173681
843.582	0.0173811
843.660	0.0174450
843.738	0.0173940
843.817	0.0173207
843.895	0.0174854
843.973	0.0175939
844.051	0.0173947
844.129	0.0175591
844.207	0.0177451
844.285	0.0176569
844.363	0.0176698
844.442	0.0177125
844.520	0.0176872
844.598	0.0177380
844.676	0.0175966
844.754	0.0176724
844.832	0.0176398
844.910	0.0176302
844.988	0.0176647
845.067	0.0177914
845.145	0.0177579
845.223	0.0176136
845.301	0.0178835
845.379	0.0177509
845.457	0.0176476
845.535	0.0177142
845.613	0.0177602
845.692	0.0176997
845.770	0.0179066
845.848	0.0177567
845.926	0.0177512
846.004	0.0177764
846.082	0.0178262
846.160	0.0176445
846.238	0.0175439
846.317	0.0177629
846.395	0.0176605
846.473	0.0177218
846.551	0.0177197
846.629	0.0177837
846.707	0.0178239
846.785	0.0175061
846.863	0.0176855
846.942	0.0177312
847.020	0.0177951
847.098	0.0175393
847.176	0.0176616
847.254	0.0175829
847.332	0.0174966
847.410	0.0175555
847.488	0.0176978
847.567	0.0175816
847.645	0.0175491
847.723	0.0175778
847.801	0.0174557
847.879	0.0175952
847.957	0.0175319
848.035	0.0175852
848.113	0.0175652
848.192	0.0175498
848.270	0.0175460
848.348	0.0176009
848.426	0.0175941
848.504	0.0175974
848.582	0.0174863
848.660	0.0175880
848.738	0.0175183
848.817	0.0173946
848.895	0.0174178
848.973	0.0173432
849.051	0.0174669
849.129	0.0173884
849.207	0.0172485
849.285	0.0172871
849.363	0.0173219
849.442	0.0172385
849.520	0.0172086
849.598	0.0171424
849.676	0.0171920
849.754	0.0171994
849.832	0.0172984
849.910	0.0171918
849.988	0.0171816
850.067	0.0171949
850.145	0.0170763
850.223	0.0170518
850.301	0.0171529
850.379	0.0171902
850.457	0.0171287
850.535	0.0172100
850.613	0.0172290
850.692	0.0171786
850.770	0.0172086
850.848	0.0172017
850.926	0.0173496
851.004	0.0172802
851.082	0.0172955
851.160	0.0172871
851.238	0.0173419
851.317	0.0173283
851.395	0.0172700
851.473	0.0173610
851.551	0.0172908
851.629	0.0174004
851.707	0.0174114
851.785	0.0174601
851.863	0.0173440
851.942	0.0173865
852.020	0.0173991
852.098	0.0173622
852.176	0.0172279
852.254	0.0174354
852.332	0.0174200
852.410	0.0173663
852.488	0.0173366
852.567	0.0174510
852.645	0.0174142
852.723	0.0173406
852.801	0.0174930
852.879	0.0173805
852.957	0.0173670
853.035	0.0174589
853.113	0.0173124
853.192	0.0173014
853.270	0.0174287
853.348	0.0174205
853.426	0.0174335
853.504	0.0172216
853.582	0.0173029
853.660	0.0173042
853.738	0.0174229
853.817	0.0174516
853.895	0.0174064
853.973	0.0174406
854.051	0.0174973
854.129	0.0173449
854.207	0.0173620
854.285	0.0175287
854.363	0.0174527
854.442	0.0174609
854.520	0.0174467
854.598	0.0173326
854.676	0.0173569
854.754	0.0174271
854.832	0.0174497
854.910	0.0174328
854.988	0.0173244
855.067	0.0173628
855.145	0.0173707
855.223	0.0173691
855.301	0.0174458
855.379	0.0174103
855.457	0.0173974
855.535	0.0173727
855.613	0.0174693
855.692	0.0172729
855.770	0.0174220
855.848	0.0174683
855.926	0.0173060
856.004	0.0174194
856.082	0.0173956
856.160	0.0172171
856.238	0.0172974
856.317	0.0174638
856.395	0.0174924
856.473	0.0174310
856.551	0.0174705
856.629	0.0173354
856.707	0.0174445
856.785	0.0174048
856.863	0.0174185
856.942	0.0175108
857.020	0.0174107
857.098	0.0173814
857.176	0.0172397
857.254	0.0172993
857.332	0.0173299
857.410	0.0172961
857.488	0.0171603
857.567	0.0173009
857.645	0.0172581
857.723	0.0173401
857.801	0.0171689
857.879	0.0171177
857.957	0.0171140
858.035	0.0173097
858.113	0.0172207
858.192	0.0173351
858.270	0.0172348
858.348	0.0170927
858.426	0.0172461
858.504	0.0172853
858.582	0.0171585
858.660	0.0172006
858.738	0.0172299
858.817	0.0173114
858.895	0.0172639
858.973	0.0173679
859.051	0.0172092
859.129	0.0172578
859.207	0.0174119
859.285	0.0174713
859.363	0.0174616
859.442	0.0173634
859.520	0.0174490
859.598	0.0174450
859.676	0.0172903
859.754	0.0174942
859.832	0.0174318
859.910	0.0174913
859.988	0.0174174
860.067	0.0174191
860.145	0.0175363
860.223	0.0174865
860.301	0.0174828
860.379	0.0173145
860.457	0.0173760
860.535	0.0173713
860.613	0.0174474
860.692	0.0172865
860.770	0.0174571
860.848	0.0174343
860.926	0.0172813
861.004	0.0173074
861.082	0.0174300
861.160	0.0175863
861.238	0.0174888
861.317	0.0174276
861.395	0.0173601
861.473	0.0174619
861.551	0.0174100
861.629	0.0174720
861.707	0.0175829
861.785	0.0176927
861.863	0.0175215
861.942	0.0175931
862.020	0.0177131
862.098	0.0176332
862.176	0.0174609
862.254	0.0174979
862.332	0.0174664
862.410	0.0176242
862.488	0.0176018
862.567	0.0176089
862.645	0.0173336
862.723	0.0173548
862.801	0.0174804
862.879	0.0174515
862.957	0.0176547
863.035	0.0173823
863.113	0.0174332
863.192	0.0173832
863.270	0.0174559
863.348	0.0174692
863.426	0.0173789
863.504	0.0174420
863.582	0.0175770
863.660	0.0173576
863.738	0.0175569
863.817	0.0175275
863.895	0.0174609
863.973	0.0175549
864.051	0.0174606
864.129	0.0175605
864.207	0.0175582
864.285	0.0175554
864.363	0.0174986
864.442	0.0174396
864.520	0.0175123
864.598	0.0175058
864.676	0.0174105
864.754	0.0174425
864.832	0.0175840
864.910	0.0175651
864.988	0.0174306
865.067	0.0174400
865.145	0.0175096
865.223	0.0174370
865.301	0.0173354
865.379	0.0174428
865.457	0.0173067
865.535	0.0173499
865.613	0.0174616
865.692	0.0173254
865.770	0.0174426
865.848	0.0173295
865.926	0.0173325
866.004	0.0174863
866.082	0.0176106
866.160	0.0173965
866.238	0.0174440
866.317	0.0173169
866.395	0.0172959
866.473	0.0174081
866.551	0.0174462
866.629	0.0173488
866.707	0.0174500
866.785	0.0174950
866.863	0.0173929
866.942	0.0174706
867.020	0.0175266
867.098	0.0174638
867.176	0.0175072
867.254	0.0176677
867.332	0.0175274
867.410	0.0175315
867.488	0.0177084
867.567	0.0176315
867.645	0.0176340
867.723	0.0177724
867.801	0.0176540
867.879	0.0175023
867.957	0.0176133
868.035	0.0174786
868.113	0.0175544
868.192	0.0175742
868.270	0.0175203
868.348	0.0176654
868.426	0.0175354
868.504	0.0174870
868.582	0.0174891
868.660	0.0174639
868.738	0.0174847
868.817	0.0173298
868.895	0.0173609
868.973	0.0175455
869.051	0.0174058
869.129	0.0174316
869.207	0.0173729
869.285	0.0173804
869.363	0.0175010
869.442	0.0175797
869.520	0.0175002
869.598	0.0175925
869.676	0.0175911
869.754	0.0176495
869.832	0.0176047
869.910	0.0175134
869.988	0.0174676
870.067	0.0177330
870.145	0.0175465
870.223	0.0175284
870.301	0.0177601
870.379	0.0174871
870.457	0.0175759
870.535	0.0176119
870.613	0.0175626
870.692	0.0176668
870.770	0.0175982
870.848	0.0176962
870.926	0.0175869
871.004	0.0174301
871.082	0.0175833
871.160	0.0177077
871.238	0.0174950
871.317	0.0174164
871.395	0.0176089
871.473	0.0175240
871.551	0.0175814
871.629	0.0174924
871.707	0.0175635
871.785	0.0174696
871.863	0.0174856
871.942	0.0174821
872.020	0.0175462
872.098	0.0175167
872.176	0.0174821
872.254	0.0174358
872.332	0.0173814
872.410	0.0173209
872.488	0.0174270
872.567	0.0173221
872.645	0.0173692
872.723	0.0173137
872.801	0.0172020
872.879	0.0172246
872.957	0.0171586
873.035	0.0170280
873.113	0.0171239
873.192	0.0171044
873.270	0.0172174
873.348	0.0171035
873.426	0.0170350
873.504	0.0172007
873.582	0.0171105
873.660	0.0171436
873.738	0.0170569
873.817	0.0170930
873.895	0.0170927
873.973	0.0171218
874.051	0.0171317
874.129	0.0171813
874.207	0.0170888
874.285	0.0171707
874.363	0.0171719
874.442	0.0172549
874.520	0.0171894
874.598	0.0173061
874.676	0.0172859
874.754	0.0173355
874.832	0.0172472
874.910	0.0173096
874.988	0.0174337
875.067	0.0174513
875.145	0.0174975
875.223	0.0176180
875.301	0.0175204
875.379	0.0175175
875.457	0.0175790
875.535	0.0176154
875.613	0.0175860
875.692	0.0176147
875.770	0.0177312
875.848	0.0174042
875.926	0.0174268
876.004	0.0175310
876.082	0.0175795
876.160	0.0174890
876.238	0.0173489
876.317	0.0173573
876.395	0.0175227
876.473	0.0173370
876.551	0.0174023
876.629	0.0174564
876.707	0.0173850
876.785	0.0173016
876.863	0.0173018
876.942	0.0174184
877.020	0.0173745
877.098	0.0174139
877.176	0.0175467
877.254	0.0174873
877.332	0.0175122
877.410	0.0175770
877.488	0.0173946
877.567	0.0176600
877.645	0.0175589
877.723	0.0175355
877.801	0.0175040
877.879	0.0177271
877.957	0.0176448
878.035	0.0175269
878.113	0.0177835
878.192	0.0175839
878.270	0.0177886
878.348	0.0178037
878.426	0.0175886
878.504	0.0175488
878.582	0.0175637
878.660	0.0176556
878.738	0.0176207
878.817	0.0174918
878.895	0.0175302
878.973	0.0176272
879.051	0.0175088
879.129	0.0173522
879.207	0.0174088
879.285	0.0174392
879.363	0.0175315
879.442	0.0174435
879.520	0.0174806
879.598	0.0174817
879.676	0.0174334
879.754	0.0175204
879.832	0.0174302
879.910	0.0174500
879.988	0.0175312
880.067	0.0173121
880.145	0.0173539
880.223	0.0173571
880.301	0.0174754
880.379	0.0174543
880.457	0.0174113
880.535	0.0172532
880.613	0.0173547
880.692	0.0173144
880.770	0.0172818
880.848	0.0172582
880.926	0.0172293
881.004	0.0172794
881.082	0.0172765
881.160	0.0171642
881.238	0.0172676
881.317	0.0172678
881.395	0.0172224
881.473	0.0173775
881.551	0.0173320
881.629	0.0173042
881.707	0.0171584
881.785	0.0173007
881.863	0.0172511
881.942	0.0172977
882.020	0.0171895
882.098	0.0174345
882.176	0.0174020
882.254	0.0174097
882.332	0.0174216
882.410	0.0175409
882.488	0.0174760
882.567	0.0175242
882.645	0.0174409
882.723	0.0175243
882.801	0.0174204
882.879	0.0174946
882.957	0.0174844
883.035	0.0176042
883.113	0.0174983
883.192	0.0175081
883.270	0.0175706
883.348	0.0176412
883.426	0.0176037
883.504	0.0175815
883.582	0.0174632
883.660	0.0176247
883.738	0.0176987
883.817	0.0175516
883.895	0.0176576
883.973	0.0175827
884.051	0.0175964
884.129	0.0175908
884.207	0.0175067
884.285	0.0175169
884.363	0.0175236
884.442	0.0174384
884.520	0.0175490
884.598	0.0174390
884.676	0.0173328
884.754	0.0173785
884.832	0.0173631
884.910	0.0172643
884.988	0.0173971
885.067	0.0174100
885.145	0.0172617
885.223	0.0173428
885.301	0.0173801
885.379	0.0174470
885.457	0.0175263
885.535	0.0174722
885.613	0.0175204
885.692	0.0174850
885.770	0.0175221
885.848	0.0175919
885.926	0.0176136
886.004	0.0176743
886.082	0.0174931
886.160	0.0177076
886.238	0.0177069
886.317	0.0175964
886.395	0.0176476
886.473	0.0175261
886.551	0.0175271
886.629	0.0174628
886.707	0.0175279
886.785	0.0173542
886.863	0.0174407
886.942	0.0175812
887.020	0.0175152
887.098	0.0174315
887.176	0.0173851
887.254	0.0174188
887.332	0.0173988
887.410	0.0174065
887.488	0.0174249
887.567	0.0174931
887.645	0.0173924
887.723	0.0174586
887.801	0.0174246
887.879	0.0174709
887.957	0.0174279
888.035	0.0173036
888.113	0.0174021
888.192	0.0173988
888.270	0.0173279
888.348	0.0174194
888.426	0.0172501
888.504	0.0172638
888.582	0.0172946
888.660	0.0173389
888.738	0.0171194
888.817	0.0170428
888.895	0.0171928
888.973	0.0171661
889.051	0.0169908
889.129	0.0170580
889.207	0.0169862
889.285	0.0169910
889.363	0.0170620
889.442	0.0170410
889.520	0.0171675
889.598	0.0171386
889.676	0.0171220
889.754	0.0171423
889.832	0.0172417
889.910	0.0172516
889.988	0.0172048
890.067	0.0173028
890.145	0.0173071
890.223	0.0174189
890.301	0.0175204
890.379	0.0175887
890.457	0.0174464
890.535	0.0175348
890.613	0.0174837
890.692	0.0175371
890.770	0.0176282
890.848	0.0177159
890.926	0.0175432
891.004	0.0176801
891.082	0.0176539
891.160	0.0175851
891.238	0.0176501
891.317	0.0177573
891.395	0.0176569
891.473	0.0176541
891.551	0.0177294
891.629	0.0176269
891.707	0.0175713
891.785	0.0177146
891.863	0.0176987
891.942	0.0176657
892.020	0.0174491
892.098	0.0175869
892.176	0.0176698
892.254	0.0174813
892.332	0.0174724
892.410	0.0175459
892.488	0.0174662
892.567	0.0176028
892.645	0.0175404
892.723	0.0175024
892.801	0.0175914
892.879	0.0174446
892.957	0.0174236
893.035	0.0174236
893.113	0.0174596
893.192	0.0173074
893.270	0.0175587
893.348	0.0174142
893.426	0.0173465
893.504	0.0175593
893.582	0.0174840
893.660	0.0174251
893.738	0.0173373
893.817	0.0173882
893.895	0.0174318
893.973	0.0173730
894.051	0.0173205
894.129	0.0174143
894.207	0.0174238
894.285	0.0174484
894.363	0.0172771
894.442	0.0174821
894.520	0.0173022
894.598	0.0173142
894.676	0.0174850
894.754	0.0174424
894.832	0.0175937
894.910	0.0173815
894.988	0.0174142
895.067	0.0174776
895.145	0.0175093
895.223	0.0175404
895.301	0.0174906
895.379	0.0175570
895.457	0.0176237
895.535	0.0175565
895.613	0.0175338
895.692	0.0176136
895.770	0.0176227
895.848	0.0175555
895.926	0.0175452
896.004	0.0175565
896.082	0.0175750
896.160	0.0174580
896.238	0.0176065
896.317	0.0174778
896.395	0.0175076
896.473	0.0175368
896.551	0.0175165
896.629	0.0176044
896.707	0.0174223
896.785	0.0172423
896.863	0.0172930
896.942	0.0175925
897.020	0.0174933
897.098	0.0173875
897.176	0.0173122
897.254	0.0173259
897.332	0.0174300
897.410	0.0171529
897.488	0.0170647
897.567	0.0173859
897.645	0.0172480
897.723	0.0174649
897.801	0.0173976
897.879	0.0173344
897.957	0.0173265
898.035	0.0174113
898.113	0.0173376
898.192	0.0173643
898.270	0.0173190
898.348	0.0174762
898.426	0.0174413
898.504	0.0174545
898.582	0.0174168
898.660	0.0173821
898.738	0.0173386
898.817	0.0173714
898.895	0.0173943
898.973	0.0174480
899.051	0.0176455
899.129	0.0174631
899.207	0.0175077
899.285	0.0174657
899.363	0.0176027
899.442	0.0175672
899.520	0.0174485
899.598	0.0175745
899.676	0.0176081
899.754	0.0175285
899.832	0.0175130
899.910	0.0173407
899.988	0.0174989
900.067	0.0174470
900.145	0.0174102
900.223	0.0174969
900.301	0.0173802
900.379	0.0174206
900.457	0.0175303
900.535	0.0174036
900.613	0.0172408
900.692	0.0173807
900.770	0.0173718
900.848	0.0174915
900.926	0.0175642
901.004	0.0173481
901.082	0.0174233
901.160	0.0173957
901.238	0.0174570
901.317	0.0176479
901.395	0.0175794
901.473	0.0175745
901.551	0.0175934
901.629	0.0176856
901.707	0.0175787
901.785	0.0176645
901.863	0.0176896
901.942	0.0175889
902.020	0.0176658
902.098	0.0176468
902.176	0.0176043
902.254	0.0175954
902.332	0.0175320
902.410	0.0176144
902.488	0.0174773
902.567	0.0175481
902.645	0.0175940
902.723	0.0175769
902.801	0.0174098
902.879	0.0173862
902.957	0.0174999
903.035	0.0174213
903.113	0.0174850
903.192	0.0174841
903.270	0.0173979
903.348	0.0174413
903.426	0.0174009
903.504	0.0174020
903.582	0.0174181
903.660	0.0173745
903.738	0.0174635
903.817	0.0175240
903.895	0.0174142
903.973	0.0173293
904.051	0.0174791
904.129	0.0174612
904.207	0.0172944
904.285	0.0175629
904.363	0.0173462
904.442	0.0174461
904.520	0.0175290
904.598	0.0175068
904.676	0.0174356
904.754	0.0175790
904.832	0.0173154
904.910	0.0173383
904.988	0.0174898
905.067	0.0174434
905.145	0.0173650
905.223	0.0173900
905.301	0.0174445
905.379	0.0174017
905.457	0.0175845
905.535	0.0174933
905.613	0.0173484
905.692	0.0175175
905.770	0.0173685
905.848	0.0173580
905.926	0.0174109
906.004	0.0173945
906.082	0.0173782
906.160	0.0174025
906.238	0.0174732
906.317	0.0174095
906.395	0.0175436
906.473	0.0176202
906.551	0.0174226
906.629	0.0174168
906.707	0.0174819
906.785	0.0174828
906.863	0.0174800
906.942	0.0174210
907.020	0.0176222
907.098	0.0175222
907.176	0.0175415
907.254	0.0175469
907.332	0.0174446
907.410	0.0174625
907.488	0.0174656
907.567	0.0175204
907.645	0.0173872
907.723	0.0173603
907.801	0.0174863
907.879	0.0175409
907.957	0.0175183
908.035	0.0175829
908.113	0.0175121
908.192	0.0173782
908.270	0.0174648
908.348	0.0175951
908.426	0.0174206
908.504	0.0174859
908.582	0.0173367
908.660	0.0175299
908.738	0.0174709
908.817	0.0175430
908.895	0.0176520
908.973	0.0176528
909.051	0.0175383
909.129	0.0174910
909.207	0.0176150
909.285	0.0175191
909.363	0.0174104
909.442	0.0175337
909.520	0.0174413
909.598	0.0175456
909.676	0.0175715
909.754	0.0175649
909.832	0.0175131
909.910	0.0174175
909.988	0.0173551
910.067	0.0175330
910.145	0.0175381
910.223	0.0174670
910.301	0.0174534
910.379	0.0172993
910.457	0.0174876
910.535	0.0175010
910.613	0.0173836
910.692	0.0174593
910.770	0.0174165
910.848	0.0174466
910.926	0.0175393
911.004	0.0176823
911.082	0.0175165
911.160	0.0176277
911.238	0.0175070
911.317	0.0175632
911.395	0.0175932
911.473	0.0175658
911.551	0.0175312
911.629	0.0175441
911.707	0.0175908
911.785	0.0176055
911.863	0.0176978
911.942	0.0175474
912.020	0.0176000
912.098	0.0175417
912.176	0.0175787
912.254	0.0173669
912.332	0.0175491
912.410	0.0176044
912.488	0.0175201
912.567	0.0175645
912.645	0.0175277
912.723	0.0174972
912.801	0.0176209
912.879	0.0175414
912.957	0.0174857
913.035	0.0174104
913.113	0.0175067
913.192	0.0174459
913.270	0.0173484
913.348	0.0172974
913.426	0.0174182
913.504	0.0173062
913.582	0.0173918
913.660	0.0174628
913.738	0.0172785
913.817	0.0173066
913.895	0.0173723
913.973	0.0172521
914.051	0.0173664
914.129	0.0173786
914.207	0.0174854
914.285	0.0175944
914.363	0.0173804
914.442	0.0174313
914.520	0.0173763
914.598	0.0173956
914.676	0.0173788
914.754	0.0174295
914.832	0.0174646
914.910	0.0174072
914.988	0.0174769
915.067	0.0174850
915.145	0.0175264
915.223	0.0174310
915.301	0.0173892
915.379	0.0174649
915.457	0.0174773
915.535	0.0174906
915.613	0.0174113
915.692	0.0175183
915.770	0.0174895
915.848	0.0175340
915.926	0.0172987
916.004	0.0173504
916.082	0.0173545
916.160	0.0174041
916.238	0.0172620
916.317	0.0174406
916.395	0.0174104
916.473	0.0173100
916.551	0.0174017
916.629	0.0172432
916.707	0.0172829
916.785	0.0173592
916.863	0.0175334
916.942	0.0173383
917.020	0.0173290
917.098	0.0174015
917.176	0.0173360
917.254	0.0175033
917.332	0.0173282
917.410	0.0174033
917.488	0.0172301
917.567	0.0174277
917.645	0.0173965
917.723	0.0174823
917.801	0.0174587
917.879	0.0174640
917.957	0.0173846
918.035	0.0175655
918.113	0.0175433
918.192	0.0175091
918.270	0.0175082
918.348	0.0175196
918.426	0.0174568
918.504	0.0173991
918.582	0.0174827
918.660	0.0174921
918.738	0.0174264
918.817	0.0173951
918.895	0.0174203
918.973	0.0174335
919.051	0.0174439
919.129	0.0173896
919.207	0.0174707
919.285	0.0173332
919.363	0.0172810
919.442	0.0173233
919.520	0.0174974
919.598	0.0173504
919.676	0.0174146
919.754	0.0174976
919.832	0.0174941
919.910	0.0174633
