06/01/2022	22:05:59	Ver.	4.1	UNKNOWN
Optical Delay	599.988409	Delta X		0.078125	Sweeps	1	Scan Rate	0/0
Coordinates	Axis 1	NaN	Axis 2	NaN	Axis 3	NaN	Axis 4	NaN	Axis 5	NaN	Axis 6	0.000000
TX Power	0.000000	RX Power	0.000000

599.988	0.0172779
600.067	0.0173818
600.145	0.0171629
600.223	0.0173891
600.301	0.0172749
600.379	0.0172111
600.457	0.0172744
600.535	0.0172280
600.613	0.0173964
600.692	0.0172140
600.770	0.0172555
600.848	0.0172549
600.926	0.0171786
601.004	0.0172202
601.082	0.0173676
601.160	0.0171986
601.238	0.0172144
601.317	0.0172989
601.395	0.0174699
601.473	0.0171770
601.551	0.0172385
601.629	0.0172387
601.707	0.0173009
601.785	0.0173497
601.863	0.0173801
601.942	0.0171658
602.020	0.0173103
602.098	0.0173190
602.176	0.0173658
602.254	0.0172540
602.332	0.0171871
602.410	0.0172554
602.488	0.0173753
602.567	0.0172760
602.645	0.0172214
602.723	0.0173697
602.801	0.0172635
602.879	0.0171828
602.957	0.0172209
603.035	0.0174618
603.113	0.0173430
603.192	0.0171355
603.270	0.0173711
603.348	0.0172114
603.426	0.0172194
603.504	0.0172553
603.582	0.0173255
603.660	0.0173115
603.738	0.0174565
603.817	0.0173538
603.895	0.0172213
603.973	0.0173129
604.051	0.0174080
604.129	0.0173929
604.207	0.0174547
604.285	0.0174024
604.363	0.0173788
604.442	0.0174310
604.520	0.0174709
604.598	0.0174206
604.676	0.0174554
604.754	0.0174367
604.832	0.0172159
604.910	0.0173008
604.988	0.0174326
605.067	0.0172940
605.145	0.0172578
605.223	0.0172832
605.301	0.0174441
605.379	0.0173619
605.457	0.0172067
605.535	0.0174340
605.613	0.0172593
605.692	0.0171958
605.770	0.0172423
605.848	0.0173312
605.926	0.0174277
606.004	0.0172206
606.082	0.0172230
606.160	0.0172958
606.238	0.0174171
606.317	0.0173328
606.395	0.0173717
606.473	0.0173570
606.551	0.0174004
606.629	0.0172736
606.707	0.0174029
606.785	0.0173057
606.863	0.0172013
606.942	0.0173714
607.020	0.0174039
607.098	0.0172736
607.176	0.0172734
607.254	0.0173244
607.332	0.0173376
607.410	0.0172501
607.488	0.0171999
607.567	0.0172408
607.645	0.0173463
607.723	0.0172649
607.801	0.0172280
607.879	0.0173891
607.957	0.0173935
608.035	0.0173105
608.113	0.0173967
608.192	0.0173840
608.270	0.0172497
608.348	0.0173241
608.426	0.0173669
608.504	0.0173035
608.582	0.0173336
608.660	0.0172956
608.738	0.0172810
608.817	0.0175135
608.895	0.0171764
608.973	0.0172313
609.051	0.0173351
609.129	0.0174009
609.207	0.0174219
609.285	0.0172815
609.363	0.0173119
609.442	0.0174540
609.520	0.0174721
609.598	0.0173061
609.676	0.0172623
609.754	0.0173796
609.832	0.0174290
609.910	0.0173569
609.988	0.0174512
610.067	0.0174108
610.145	0.0173401
610.223	0.0173093
610.301	0.0173616
610.379	0.0170595
610.457	0.0171181
610.535	0.0174123
610.613	0.0172987
610.692	0.0172975
610.770	0.0173371
610.848	0.0171629
610.926	0.0173666
611.004	0.0173090
611.082	0.0172818
611.160	0.0173498
611.238	0.0172633
611.317	0.0172023
611.395	0.0173536
611.473	0.0173416
611.551	0.0173064
611.629	0.0172669
611.707	0.0173229
611.785	0.0172527
611.863	0.0173080
611.942	0.0173203
612.020	0.0171747
612.098	0.0173811
612.176	0.0172766
612.254	0.0171532
612.332	0.0172746
612.410	0.0172067
612.488	0.0172076
612.567	0.0171604
612.645	0.0171634
612.723	0.0170972
612.801	0.0172003
612.879	0.0171768
612.957	0.0172880
613.035	0.0172528
613.113	0.0172536
613.192	0.0172125
613.270	0.0171519
613.348	0.0172316
613.426	0.0172789
613.504	0.0172808
613.582	0.0172823
613.660	0.0172505
613.738	0.0173226
613.817	0.0172488
613.895	0.0171278
613.973	0.0173046
614.051	0.0172703
614.129	0.0172448
614.207	0.0172548
614.285	0.0172565
614.363	0.0173500
614.442	0.0172245
614.520	0.0172414
614.598	0.0172651
614.676	0.0171921
614.754	0.0172781
614.832	0.0173761
614.910	0.0172751
614.988	0.0172324
615.067	0.0172330
615.145	0.0171954
615.223	0.0173380
615.301	0.0173068
615.379	0.0174066
615.457	0.0173565
615.535	0.0173914
615.613	0.0173214
615.692	0.0173930
615.770	0.0173734
615.848	0.0172496
615.926	0.0173389
616.004	0.0173795
616.082	0.0174229
616.160	0.0173888
616.238	0.0172831
616.317	0.0173999
616.395	0.0173103
616.473	0.0173009
616.551	0.0172978
616.629	0.0173362
616.707	0.0173587
616.785	0.0172984
616.863	0.0172795
616.942	0.0173385
617.020	0.0173038
617.098	0.0174492
617.176	0.0173967
617.254	0.0171586
617.332	0.0174083
617.410	0.0174238
617.488	0.0173442
617.567	0.0173298
617.645	0.0173426
617.723	0.0171901
617.801	0.0174528
617.879	0.0174313
617.957	0.0173555
618.035	0.0173364
618.113	0.0173524
618.192	0.0172755
618.270	0.0173043
618.348	0.0173125
618.426	0.0172050
618.504	0.0172028
618.582	0.0173152
618.660	0.0172636
618.738	0.0172144
618.817	0.0172633
618.895	0.0172458
618.973	0.0172263
619.051	0.0171076
619.129	0.0172523
619.207	0.0171025
619.285	0.0171973
619.363	0.0173627
619.442	0.0171973
619.520	0.0172494
619.598	0.0172758
619.676	0.0172542
619.754	0.0172383
619.832	0.0172336
619.910	0.0173962
619.988	0.0172929
620.067	0.0171873
620.145	0.0172185
620.223	0.0173900
620.301	0.0172347
620.379	0.0173303
620.457	0.0174101
620.535	0.0173079
620.613	0.0172899
620.692	0.0174159
620.770	0.0173744
620.848	0.0173834
620.926	0.0173767
621.004	0.0172971
621.082	0.0172878
621.160	0.0173309
621.238	0.0172956
621.317	0.0173019
621.395	0.0174566
621.473	0.0174126
621.551	0.0173548
621.629	0.0173211
621.707	0.0172811
621.785	0.0172353
621.863	0.0172985
621.942	0.0173514
622.020	0.0172275
622.098	0.0173139
622.176	0.0174212
622.254	0.0172879
622.332	0.0173192
622.410	0.0172391
622.488	0.0173011
622.567	0.0174421
622.645	0.0173545
622.723	0.0173358
622.801	0.0173631
622.879	0.0172939
622.957	0.0173222
623.035	0.0174889
623.113	0.0174426
623.192	0.0172967
623.270	0.0173367
623.348	0.0172972
623.426	0.0174035
623.504	0.0172919
623.582	0.0172571
623.660	0.0172454
623.738	0.0172480
623.817	0.0172958
623.895	0.0172125
623.973	0.0174725
624.051	0.0173126
624.129	0.0171330
624.207	0.0172308
624.285	0.0173304
624.363	0.0171723
624.442	0.0173717
624.520	0.0173736
624.598	0.0173320
624.676	0.0172947
624.754	0.0173954
624.832	0.0173368
624.910	0.0174008
624.988	0.0173852
625.067	0.0173459
625.145	0.0174603
625.223	0.0173460
625.301	0.0173170
625.379	0.0173944
625.457	0.0174195
625.535	0.0174352
625.613	0.0173591
625.692	0.0173695
625.770	0.0172897
625.848	0.0173969
625.926	0.0172306
626.004	0.0172891
626.082	0.0172839
626.160	0.0173033
626.238	0.0173748
626.317	0.0173645
626.395	0.0172777
626.473	0.0173032
626.551	0.0171611
626.629	0.0172464
626.707	0.0173242
626.785	0.0172576
626.863	0.0174200
626.942	0.0174230
627.020	0.0171902
627.098	0.0173032
627.176	0.0173616
627.254	0.0172639
627.332	0.0173288
627.410	0.0173900
627.488	0.0173156
627.567	0.0172824
627.645	0.0174325
627.723	0.0174409
627.801	0.0173882
627.879	0.0170901
627.957	0.0172540
628.035	0.0174590
628.113	0.0173402
628.192	0.0173878
628.270	0.0173177
628.348	0.0173187
628.426	0.0173031
628.504	0.0171924
628.582	0.0173508
628.660	0.0173213
628.738	0.0173187
628.817	0.0173804
628.895	0.0172059
628.973	0.0172452
629.051	0.0173448
629.129	0.0172969
629.207	0.0172207
629.285	0.0173014
629.363	0.0175237
629.442	0.0173590
629.520	0.0172771
629.598	0.0173710
629.676	0.0173071
629.754	0.0174017
629.832	0.0173758
629.910	0.0174564
629.988	0.0174337
630.067	0.0173277
630.145	0.0172867
630.223	0.0173856
630.301	0.0173713
630.379	0.0171872
630.457	0.0173164
630.535	0.0173060
630.613	0.0173051
630.692	0.0172672
630.770	0.0173002
630.848	0.0173119
630.926	0.0173411
631.004	0.0173544
631.082	0.0173335
631.160	0.0174131
631.238	0.0172735
631.317	0.0171898
631.395	0.0172599
631.473	0.0174316
631.551	0.0171791
631.629	0.0174329
631.707	0.0173090
631.785	0.0172501
631.863	0.0172210
631.942	0.0173856
632.020	0.0172702
632.098	0.0172495
632.176	0.0172169
632.254	0.0172910
632.332	0.0173160
632.410	0.0170393
632.488	0.0171976
632.567	0.0171607
632.645	0.0173433
632.723	0.0173174
632.801	0.0172440
632.879	0.0172837
632.957	0.0172061
633.035	0.0172336
633.113	0.0171667
633.192	0.0171333
633.270	0.0172697
633.348	0.0171135
633.426	0.0172287
633.504	0.0171438
633.582	0.0172053
633.660	0.0171305
633.738	0.0172487
633.817	0.0172713
633.895	0.0173294
633.973	0.0172602
634.051	0.0171643
634.129	0.0171628
634.207	0.0171624
634.285	0.0173027
634.363	0.0172730
634.442	0.0171320
634.520	0.0172038
634.598	0.0172049
634.676	0.0173061
634.754	0.0172324
634.832	0.0172742
634.910	0.0171810
634.988	0.0170403
635.067	0.0172732
635.145	0.0171092
635.223	0.0172353
635.301	0.0172970
635.379	0.0171415
635.457	0.0171761
635.535	0.0173734
635.613	0.0172993
635.692	0.0173378
635.770	0.0173271
635.848	0.0172969
635.926	0.0172959
636.004	0.0170866
636.082	0.0172791
636.160	0.0171779
636.238	0.0173234
636.317	0.0173376
636.395	0.0172279
636.473	0.0172829
636.551	0.0171487
636.629	0.0173050
636.707	0.0172337
636.785	0.0172935
636.863	0.0172789
636.942	0.0171483
637.020	0.0173198
637.098	0.0172904
637.176	0.0173969
637.254	0.0173042
637.332	0.0173044
637.410	0.0171563
637.488	0.0171448
637.567	0.0173805
637.645	0.0173653
637.723	0.0173072
637.801	0.0173273
637.879	0.0172572
637.957	0.0173453
638.035	0.0172286
638.113	0.0172575
638.192	0.0173421
638.270	0.0173742
638.348	0.0173009
638.426	0.0174142
638.504	0.0172701
638.582	0.0172359
638.660	0.0172460
638.738	0.0173923
638.817	0.0172799
638.895	0.0172254
638.973	0.0172997
639.051	0.0172333
639.129	0.0171759
639.207	0.0171906
639.285	0.0173631
639.363	0.0173860
639.442	0.0172683
639.520	0.0172321
639.598	0.0172384
639.676	0.0174420
639.754	0.0172189
639.832	0.0172205
639.910	0.0172394
639.988	0.0172478
640.067	0.0173272
640.145	0.0171300
640.223	0.0172313
640.301	0.0172822
640.379	0.0172296
640.457	0.0170309
640.535	0.0172201
640.613	0.0173641
640.692	0.0172675
640.770	0.0172018
640.848	0.0172822
640.926	0.0172317
641.004	0.0173513
641.082	0.0173062
641.160	0.0173143
641.238	0.0174078
641.317	0.0173244
641.395	0.0172452
641.473	0.0173341
641.551	0.0172311
641.629	0.0173692
641.707	0.0173981
641.785	0.0172998
641.863	0.0173966
641.942	0.0174380
642.020	0.0173995
642.098	0.0173824
642.176	0.0173911
642.254	0.0172494
642.332	0.0173926
642.410	0.0173352
642.488	0.0172504
642.567	0.0173793
642.645	0.0173219
642.723	0.0174584
642.801	0.0173403
642.879	0.0173080
642.957	0.0171265
643.035	0.0173490
643.113	0.0173449
643.192	0.0172981
643.270	0.0173891
643.348	0.0172871
643.426	0.0172372
643.504	0.0173119
643.582	0.0172073
643.660	0.0172998
643.738	0.0172358
643.817	0.0172585
643.895	0.0174043
643.973	0.0174562
644.051	0.0174676
644.129	0.0173859
644.207	0.0172491
644.285	0.0173703
644.363	0.0173299
644.442	0.0173360
644.520	0.0173879
644.598	0.0174405
644.676	0.0173553
644.754	0.0173978
644.832	0.0173215
644.910	0.0174357
644.988	0.0175206
645.067	0.0174236
645.145	0.0172733
645.223	0.0173991
645.301	0.0173555
645.379	0.0173016
645.457	0.0174729
645.535	0.0174157
645.613	0.0173910
645.692	0.0173820
645.770	0.0173011
645.848	0.0173311
645.926	0.0173232
646.004	0.0173541
646.082	0.0172006
646.160	0.0173553
646.238	0.0172069
646.317	0.0173689
646.395	0.0172379
646.473	0.0173163
646.551	0.0173816
646.629	0.0174170
646.707	0.0173720
646.785	0.0173533
646.863	0.0173900
646.942	0.0174404
647.020	0.0175038
647.098	0.0174285
647.176	0.0172620
647.254	0.0173606
647.332	0.0173820
647.410	0.0173419
647.488	0.0174570
647.567	0.0173130
647.645	0.0172923
647.723	0.0172010
647.801	0.0172696
647.879	0.0173363
647.957	0.0171642
648.035	0.0171040
648.113	0.0171563
648.192	0.0170782
648.270	0.0170776
648.348	0.0171062
648.426	0.0171918
648.504	0.0171809
648.582	0.0171011
648.660	0.0171339
648.738	0.0170292
648.817	0.0171043
648.895	0.0170559
648.973	0.0169873
649.051	0.0170734
649.129	0.0171397
649.207	0.0171722
649.285	0.0170795
649.363	0.0170469
649.442	0.0171740
649.520	0.0172653
649.598	0.0171376
649.676	0.0172925
649.754	0.0172048
649.832	0.0171845
649.910	0.0172421
649.988	0.0172071
650.067	0.0172898
650.145	0.0172981
650.223	0.0173267
650.301	0.0173592
650.379	0.0172575
650.457	0.0173518
650.535	0.0174189
650.613	0.0173166
650.692	0.0172313
650.770	0.0171770
650.848	0.0171828
650.926	0.0173308
651.004	0.0173183
651.082	0.0173120
651.160	0.0172697
651.238	0.0171854
651.317	0.0172679
651.395	0.0172904
651.473	0.0171814
651.551	0.0173097
651.629	0.0169982
651.707	0.0172131
651.785	0.0172571
651.863	0.0172070
651.942	0.0173448
652.020	0.0170750
652.098	0.0173349
652.176	0.0173252
652.254	0.0173157
652.332	0.0171264
652.410	0.0173840
652.488	0.0172850
652.567	0.0174724
652.645	0.0172640
652.723	0.0172945
652.801	0.0173293
652.879	0.0173341
652.957	0.0172498
653.035	0.0172386
653.113	0.0173083
653.192	0.0172816
653.270	0.0172591
653.348	0.0173331
653.426	0.0174378
653.504	0.0173282
653.582	0.0172887
653.660	0.0172732
653.738	0.0173162
653.817	0.0172663
653.895	0.0172990
653.973	0.0171861
654.051	0.0173220
654.129	0.0174181
654.207	0.0174299
654.285	0.0173157
654.363	0.0173347
654.442	0.0173653
654.520	0.0174018
654.598	0.0173114
654.676	0.0175422
654.754	0.0173757
654.832	0.0172176
654.910	0.0173512
654.988	0.0172975
655.067	0.0173416
655.145	0.0174533
655.223	0.0174461
655.301	0.0175459
655.379	0.0174380
655.457	0.0173205
655.535	0.0172364
655.613	0.0173095
655.692	0.0174054
655.770	0.0173921
655.848	0.0174171
655.926	0.0173000
656.004	0.0172864
656.082	0.0173062
656.160	0.0173663
656.238	0.0172342
656.317	0.0173143
656.395	0.0172786
656.473	0.0172251
656.551	0.0173866
656.629	0.0172541
656.707	0.0171534
656.785	0.0172889
656.863	0.0174117
656.942	0.0171890
657.020	0.0172363
657.098	0.0174178
657.176	0.0173695
657.254	0.0172963
657.332	0.0171623
657.410	0.0172054
657.488	0.0171484
657.567	0.0173152
657.645	0.0172914
657.723	0.0172761
657.801	0.0173192
657.879	0.0174504
657.957	0.0172066
658.035	0.0172736
658.113	0.0174123
658.192	0.0173141
658.270	0.0172498
658.348	0.0174113
658.426	0.0173604
658.504	0.0171505
658.582	0.0173339
658.660	0.0172216
658.738	0.0173320
658.817	0.0173105
658.895	0.0172285
658.973	0.0173311
659.051	0.0172344
659.129	0.0172889
659.207	0.0172794
659.285	0.0172433
659.363	0.0173095
659.442	0.0172182
659.520	0.0173113
659.598	0.0172227
659.676	0.0172803
659.754	0.0171877
659.832	0.0171648
659.910	0.0171786
659.988	0.0173191
660.067	0.0172570
660.145	0.0173907
660.223	0.0173441
660.301	0.0173846
660.379	0.0172990
660.457	0.0172778
660.535	0.0173772
660.613	0.0174110
660.692	0.0173194
660.770	0.0173444
660.848	0.0173426
660.926	0.0173867
661.004	0.0172167
661.082	0.0172560
661.160	0.0172450
661.238	0.0172549
661.317	0.0171830
661.395	0.0173350
661.473	0.0171554
661.551	0.0172334
661.629	0.0171412
661.707	0.0171329
661.785	0.0172897
661.863	0.0172115
661.942	0.0172170
662.020	0.0172572
662.098	0.0171848
662.176	0.0172565
662.254	0.0172053
662.332	0.0171884
662.410	0.0171409
662.488	0.0171251
662.567	0.0172491
662.645	0.0172758
662.723	0.0172128
662.801	0.0174196
662.879	0.0172153
662.957	0.0171320
663.035	0.0172498
663.113	0.0172947
663.192	0.0172668
663.270	0.0173830
663.348	0.0173206
663.426	0.0172786
663.504	0.0173379
663.582	0.0172377
663.660	0.0174082
663.738	0.0173120
663.817	0.0173553
663.895	0.0174374
663.973	0.0175186
664.051	0.0174452
664.129	0.0174467
664.207	0.0174113
664.285	0.0173640
664.363	0.0174407
664.442	0.0174514
664.520	0.0173171
664.598	0.0173080
664.676	0.0173324
664.754	0.0172475
664.832	0.0174066
664.910	0.0174610
664.988	0.0174486
665.067	0.0173599
665.145	0.0173610
665.223	0.0173483
665.301	0.0173769
665.379	0.0173129
665.457	0.0174537
665.535	0.0174522
665.613	0.0173534
665.692	0.0173475
665.770	0.0172573
665.848	0.0172285
665.926	0.0174187
666.004	0.0173326
666.082	0.0171873
666.160	0.0172594
666.238	0.0173056
666.317	0.0173337
666.395	0.0172565
666.473	0.0171285
666.551	0.0172000
666.629	0.0171707
666.707	0.0172475
666.785	0.0172096
666.863	0.0173273
666.942	0.0172945
667.020	0.0173184
667.098	0.0173499
667.176	0.0173184
667.254	0.0172740
667.332	0.0172926
667.410	0.0173041
667.488	0.0174609
667.567	0.0174254
667.645	0.0174374
667.723	0.0174547
667.801	0.0174839
667.879	0.0173917
667.957	0.0174925
668.035	0.0174936
668.113	0.0174397
668.192	0.0174261
668.270	0.0174537
668.348	0.0173851
668.426	0.0174646
668.504	0.0174165
668.582	0.0172793
668.660	0.0174045
668.738	0.0174508
668.817	0.0173022
668.895	0.0173476
668.973	0.0174025
669.051	0.0175155
669.129	0.0174963
669.207	0.0173983
669.285	0.0173489
669.363	0.0174879
669.442	0.0172735
669.520	0.0174247
669.598	0.0175236
669.676	0.0174270
669.754	0.0175788
669.832	0.0175225
669.910	0.0172878
669.988	0.0174488
670.067	0.0174104
670.145	0.0174485
670.223	0.0173802
670.301	0.0173298
670.379	0.0173947
670.457	0.0174313
670.535	0.0173662
670.613	0.0174106
670.692	0.0172862
670.770	0.0173685
670.848	0.0173009
670.926	0.0174237
671.004	0.0172205
671.082	0.0173915
671.160	0.0172497
671.238	0.0171999
671.317	0.0172807
671.395	0.0173341
671.473	0.0173476
671.551	0.0173428
671.629	0.0173928
671.707	0.0172720
671.785	0.0173049
671.863	0.0173680
671.942	0.0173090
672.020	0.0173944
672.098	0.0173326
672.176	0.0172698
672.254	0.0172923
672.332	0.0173058
672.410	0.0171198
672.488	0.0172437
672.567	0.0172897
672.645	0.0171393
672.723	0.0171023
672.801	0.0170113
672.879	0.0172776
672.957	0.0171697
673.035	0.0172047
673.113	0.0172344
673.192	0.0171831
673.270	0.0172579
673.348	0.0171489
673.426	0.0173267
673.504	0.0173280
673.582	0.0173737
673.660	0.0171185
673.738	0.0174919
673.817	0.0174760
673.895	0.0173600
673.973	0.0174601
674.051	0.0174621
674.129	0.0173443
674.207	0.0173154
674.285	0.0174032
674.363	0.0172050
674.442	0.0172342
674.520	0.0171096
674.598	0.0172139
674.676	0.0171819
674.754	0.0171471
674.832	0.0170750
674.910	0.0171309
674.988	0.0171680
675.067	0.0171391
675.145	0.0171161
675.223	0.0172104
675.301	0.0171517
675.379	0.0171693
675.457	0.0174626
675.535	0.0174117
675.613	0.0173974
675.692	0.0174235
675.770	0.0174591
675.848	0.0175002
675.926	0.0175710
676.004	0.0174680
676.082	0.0175114
676.160	0.0173872
676.238	0.0172311
676.317	0.0173111
676.395	0.0173765
676.473	0.0173273
676.551	0.0173707
676.629	0.0173076
676.707	0.0172403
676.785	0.0170952
676.863	0.0171625
676.942	0.0171217
677.020	0.0171027
677.098	0.0171815
677.176	0.0172321
677.254	0.0170992
677.332	0.0172429
677.410	0.0174371
677.488	0.0173344
677.567	0.0173719
677.645	0.0174242
677.723	0.0175716
677.801	0.0176336
677.879	0.0177361
677.957	0.0176844
678.035	0.0176305
678.113	0.0176067
678.192	0.0176297
678.270	0.0175956
678.348	0.0175604
678.426	0.0174744
678.504	0.0175609
678.582	0.0173433
678.660	0.0173250
678.738	0.0170039
678.817	0.0169435
678.895	0.0169646
678.973	0.0169136
679.051	0.0168891
679.129	0.0168807
679.207	0.0168188
679.285	0.0168177
679.363	0.0168031
679.442	0.0169238
679.520	0.0169215
679.598	0.0168903
679.676	0.0169373
679.754	0.0168878
679.832	0.0168464
679.910	0.0172063
679.988	0.0171953
680.067	0.0172345
680.145	0.0169781
680.223	0.0172145
680.301	0.0172700
680.379	0.0175293
680.457	0.0174123
680.535	0.0173300
680.613	0.0174207
680.692	0.0175043
680.770	0.0174842
680.848	0.0175228
680.926	0.0174904
681.004	0.0174507
681.082	0.0174345
681.160	0.0173438
681.238	0.0174821
681.317	0.0173956
681.395	0.0175282
681.473	0.0173451
681.551	0.0173955
681.629	0.0171738
681.707	0.0172173
681.785	0.0171938
681.863	0.0170975
681.942	0.0170464
682.020	0.0171780
682.098	0.0168842
682.176	0.0169088
682.254	0.0168552
682.332	0.0167843
682.410	0.0166697
682.488	0.0167867
682.567	0.0168404
682.645	0.0169097
682.723	0.0167474
682.801	0.0169215
682.879	0.0168973
682.957	0.0171418
683.035	0.0172120
683.113	0.0171732
683.192	0.0172948
683.270	0.0173976
683.348	0.0175784
683.426	0.0177001
683.504	0.0178355
683.582	0.0178658
683.660	0.0178508
683.738	0.0179377
683.817	0.0180731
683.895	0.0180692
683.973	0.0179480
684.051	0.0177515
684.129	0.0177596
684.207	0.0177017
684.285	0.0175935
684.363	0.0175746
684.442	0.0174528
684.520	0.0173420
684.598	0.0172997
684.676	0.0172551
684.754	0.0172016
684.832	0.0170385
684.910	0.0169134
684.988	0.0170261
685.067	0.0169952
685.145	0.0167324
685.223	0.0169205
685.301	0.0167626
685.379	0.0168141
685.457	0.0167854
685.535	0.0168854
685.613	0.0168368
685.692	0.0166647
685.770	0.0169228
685.848	0.0170627
685.926	0.0170264
686.004	0.0170335
686.082	0.0170384
686.160	0.0173065
686.238	0.0173333
686.317	0.0174857
686.395	0.0175919
686.473	0.0176567
686.551	0.0179149
686.629	0.0180003
686.707	0.0181343
686.785	0.0181832
686.863	0.0182199
686.942	0.0183054
687.020	0.0184443
687.098	0.0185957
687.176	0.0183856
687.254	0.0183473
687.332	0.0183760
687.410	0.0181568
687.488	0.0181148
687.567	0.0180932
687.645	0.0179844
687.723	0.0178587
687.801	0.0175882
687.879	0.0175785
687.957	0.0174660
688.035	0.0171518
688.113	0.0169544
688.192	0.0169864
688.270	0.0169069
688.348	0.0166299
688.426	0.0165422
688.504	0.0164344
688.582	0.0164338
688.660	0.0163258
688.738	0.0163401
688.817	0.0163541
688.895	0.0162482
688.973	0.0162380
689.051	0.0162412
689.129	0.0165576
689.207	0.0164477
689.285	0.0167214
689.363	0.0167649
689.442	0.0168367
689.520	0.0170531
689.598	0.0170627
689.676	0.0171429
689.754	0.0172303
689.832	0.0173574
689.910	0.0174367
689.988	0.0174418
690.067	0.0174669
690.145	0.0174731
690.223	0.0175637
690.301	0.0175270
690.379	0.0175214
690.457	0.0176170
690.535	0.0177519
690.613	0.0175352
690.692	0.0176187
690.770	0.0176690
690.848	0.0177246
690.926	0.0175119
691.004	0.0176861
691.082	0.0176572
691.160	0.0175732
691.238	0.0177979
691.317	0.0179115
691.395	0.0179636
691.473	0.0180376
691.551	0.0179524
691.629	0.0180309
691.707	0.0181740
691.785	0.0182706
691.863	0.0182452
691.942	0.0182037
692.020	0.0182243
692.098	0.0182580
692.176	0.0183175
692.254	0.0181133
692.332	0.0180117
692.410	0.0178767
692.488	0.0178120
692.567	0.0177785
692.645	0.0174357
692.723	0.0172710
692.801	0.0172244
692.879	0.0171974
692.957	0.0169428
693.035	0.0167683
693.113	0.0166328
693.192	0.0165178
693.270	0.0162398
693.348	0.0162970
693.426	0.0162458
693.504	0.0161610
693.582	0.0160159
693.660	0.0161327
693.738	0.0161454
693.817	0.0161416
693.895	0.0162190
693.973	0.0164735
694.051	0.0162267
694.129	0.0163509
694.207	0.0164984
694.285	0.0164960
694.363	0.0165652
694.442	0.0166782
694.520	0.0166186
694.598	0.0169001
694.676	0.0169820
694.754	0.0169234
694.832	0.0170788
694.910	0.0172077
694.988	0.0171010
695.067	0.0173697
695.145	0.0173413
695.223	0.0175757
695.301	0.0176897
695.379	0.0179800
695.457	0.0179837
695.535	0.0180814
695.613	0.0182462
695.692	0.0182564
695.770	0.0184779
695.848	0.0184978
695.926	0.0187088
696.004	0.0186279
696.082	0.0187401
696.160	0.0187822
696.238	0.0189888
696.317	0.0189737
696.395	0.0189333
696.473	0.0189709
696.551	0.0188721
696.629	0.0188657
696.707	0.0186466
696.785	0.0185406
696.863	0.0185951
696.942	0.0183298
697.020	0.0181360
697.098	0.0178628
697.176	0.0177285
697.254	0.0176208
697.332	0.0173608
697.410	0.0171449
697.488	0.0169862
697.567	0.0167176
697.645	0.0163692
697.723	0.0162758
697.801	0.0161397
697.879	0.0158480
697.957	0.0157899
698.035	0.0156018
698.113	0.0155056
698.192	0.0153436
698.270	0.0153065
698.348	0.0152279
698.426	0.0152750
698.504	0.0152708
698.582	0.0153896
698.660	0.0153471
698.738	0.0152074
698.817	0.0154771
698.895	0.0156240
698.973	0.0157094
699.051	0.0158081
699.129	0.0159996
699.207	0.0162086
699.285	0.0164792
699.363	0.0166926
699.442	0.0168036
699.520	0.0170494
699.598	0.0173041
699.676	0.0175346
699.754	0.0176897
699.832	0.0177498
699.910	0.0181098
699.988	0.0182478
700.067	0.0184023
700.145	0.0186495
700.223	0.0186739
700.301	0.0186547
700.379	0.0188371
700.457	0.0188453
700.535	0.0189896
700.613	0.0188857
700.692	0.0189564
700.770	0.0190454
700.848	0.0187700
700.926	0.0189369
701.004	0.0188802
701.082	0.0189013
701.160	0.0187577
701.238	0.0188088
701.317	0.0186520
701.395	0.0184846
701.473	0.0184429
701.551	0.0183916
701.629	0.0181465
701.707	0.0180097
701.785	0.0178467
701.863	0.0176698
701.942	0.0176202
702.020	0.0173019
702.098	0.0171754
702.176	0.0168783
702.254	0.0167891
702.332	0.0166579
702.410	0.0164642
702.488	0.0162722
702.567	0.0161694
702.645	0.0161832
702.723	0.0159756
702.801	0.0159185
702.879	0.0159371
702.957	0.0156771
703.035	0.0157192
703.113	0.0156145
703.192	0.0155593
703.270	0.0155673
703.348	0.0156285
703.426	0.0155512
703.504	0.0154353
703.582	0.0153949
703.660	0.0155812
703.738	0.0154875
703.817	0.0156769
703.895	0.0157127
703.973	0.0155869
704.051	0.0158411
704.129	0.0160210
704.207	0.0162001
704.285	0.0164948
704.363	0.0167509
704.442	0.0167338
704.520	0.0169244
704.598	0.0173190
704.676	0.0176053
704.754	0.0177464
704.832	0.0178530
704.910	0.0181087
704.988	0.0183998
705.067	0.0185043
705.145	0.0187576
705.223	0.0190114
705.301	0.0189183
705.379	0.0191244
705.457	0.0192069
705.535	0.0191640
705.613	0.0193795
705.692	0.0193547
705.770	0.0192493
705.848	0.0190943
705.926	0.0192168
706.004	0.0190036
706.082	0.0188828
706.160	0.0185762
706.238	0.0183353
706.317	0.0183243
706.395	0.0181819
706.473	0.0179128
706.551	0.0177290
706.629	0.0175880
706.707	0.0174243
706.785	0.0173338
706.863	0.0171812
706.942	0.0169758
707.020	0.0169283
707.098	0.0167618
707.176	0.0167623
707.254	0.0167185
707.332	0.0166178
707.410	0.0165791
707.488	0.0165358
707.567	0.0165762
707.645	0.0167860
707.723	0.0165829
707.801	0.0166866
707.879	0.0167088
707.957	0.0166749
708.035	0.0166118
708.113	0.0165617
708.192	0.0164861
708.270	0.0164738
708.348	0.0164350
708.426	0.0163742
708.504	0.0162507
708.582	0.0162245
708.660	0.0162505
708.738	0.0162514
708.817	0.0162772
708.895	0.0164436
708.973	0.0163684
709.051	0.0163255
709.129	0.0165458
709.207	0.0166340
709.285	0.0166981
709.363	0.0169762
709.442	0.0168661
709.520	0.0169471
709.598	0.0170634
709.676	0.0172463
709.754	0.0173540
709.832	0.0175354
709.910	0.0175171
709.988	0.0176781
710.067	0.0178795
710.145	0.0178772
710.223	0.0181831
710.301	0.0181668
710.379	0.0180825
710.457	0.0183555
710.535	0.0184539
710.613	0.0184428
710.692	0.0185626
710.770	0.0185806
710.848	0.0185613
710.926	0.0187067
711.004	0.0185812
711.082	0.0187956
711.160	0.0187704
711.238	0.0186268
711.317	0.0186527
711.395	0.0185754
711.473	0.0184942
711.551	0.0186016
711.629	0.0184318
711.707	0.0182343
711.785	0.0181586
711.863	0.0180466
711.942	0.0179343
712.020	0.0178203
712.098	0.0174680
712.176	0.0173515
712.254	0.0171943
712.332	0.0169537
712.410	0.0168905
712.488	0.0168366
712.567	0.0165514
712.645	0.0165573
712.723	0.0163061
712.801	0.0161805
712.879	0.0160890
712.957	0.0162071
713.035	0.0161478
713.113	0.0160314
713.192	0.0161398
713.270	0.0161304
713.348	0.0160439
713.426	0.0162877
713.504	0.0162650
713.582	0.0162741
713.660	0.0162772
713.738	0.0162792
713.817	0.0162814
713.895	0.0163953
713.973	0.0165057
714.051	0.0165284
714.129	0.0164680
714.207	0.0165240
714.285	0.0166099
714.363	0.0165841
714.442	0.0167059
714.520	0.0167524
714.598	0.0169469
714.676	0.0170611
714.754	0.0171712
714.832	0.0173675
714.910	0.0172172
714.988	0.0175180
715.067	0.0176665
715.145	0.0176415
715.223	0.0177230
715.301	0.0179329
715.379	0.0179498
715.457	0.0179498
715.535	0.0179392
715.613	0.0180242
715.692	0.0179968
715.770	0.0180208
715.848	0.0181059
715.926	0.0179945
716.004	0.0180204
716.082	0.0180157
716.160	0.0180950
716.238	0.0179760
716.317	0.0178416
716.395	0.0178525
716.473	0.0179101
716.551	0.0178097
716.629	0.0179002
716.707	0.0177903
716.785	0.0177025
716.863	0.0175026
716.942	0.0174950
717.020	0.0174220
717.098	0.0173791
717.176	0.0172967
717.254	0.0173898
717.332	0.0172648
717.410	0.0173712
717.488	0.0173217
717.567	0.0173398
717.645	0.0172955
717.723	0.0172301
717.801	0.0171658
717.879	0.0172619
717.957	0.0172704
718.035	0.0171805
718.113	0.0171731
718.192	0.0170461
718.270	0.0168565
718.348	0.0169485
718.426	0.0168304
718.504	0.0168053
718.582	0.0167277
718.660	0.0167323
718.738	0.0166906
718.817	0.0166660
718.895	0.0167537
718.973	0.0167641
719.051	0.0170040
719.129	0.0169041
719.207	0.0169717
719.285	0.0170798
719.363	0.0171268
719.442	0.0172065
719.520	0.0172110
719.598	0.0171825
719.676	0.0171152
719.754	0.0174105
719.832	0.0172111
719.910	0.0170417
719.988	0.0171870
720.067	0.0172169
720.145	0.0171461
720.223	0.0171586
720.301	0.0171977
720.379	0.0171992
720.457	0.0171215
720.535	0.0170947
720.613	0.0171012
720.692	0.0171889
720.770	0.0173850
720.848	0.0172919
720.926	0.0175274
721.004	0.0175375
721.082	0.0178761
721.160	0.0177331
721.238	0.0178403
721.317	0.0178522
721.395	0.0179703
721.473	0.0180364
721.551	0.0179044
721.629	0.0178867
721.707	0.0177757
721.785	0.0177119
721.863	0.0175005
721.942	0.0174898
722.020	0.0174062
722.098	0.0174090
722.176	0.0172868
722.254	0.0170890
722.332	0.0170799
722.410	0.0171713
722.488	0.0170044
722.567	0.0170648
722.645	0.0170365
722.723	0.0171022
722.801	0.0169742
722.879	0.0171616
722.957	0.0171701
723.035	0.0172311
723.113	0.0172287
723.192	0.0171896
723.270	0.0172013
723.348	0.0172856
723.426	0.0171696
723.504	0.0172422
723.582	0.0170757
723.660	0.0172451
723.738	0.0171715
723.817	0.0170912
723.895	0.0170963
723.973	0.0170818
724.051	0.0171593
724.129	0.0170801
724.207	0.0171761
724.285	0.0172243
724.363	0.0172797
724.442	0.0172796
724.520	0.0173358
724.598	0.0172623
724.676	0.0172703
724.754	0.0174367
724.832	0.0173312
724.910	0.0175244
724.988	0.0174081
725.067	0.0174085
725.145	0.0173701
725.223	0.0173869
725.301	0.0173714
725.379	0.0173637
725.457	0.0173167
725.535	0.0173066
725.613	0.0173706
725.692	0.0173022
725.770	0.0171862
725.848	0.0171732
725.926	0.0171944
726.004	0.0174136
726.082	0.0172259
726.160	0.0172095
726.238	0.0170840
726.317	0.0171147
726.395	0.0171634
726.473	0.0172387
726.551	0.0172968
726.629	0.0171497
726.707	0.0170663
726.785	0.0170226
726.863	0.0170047
726.942	0.0170406
727.020	0.0169147
727.098	0.0169857
727.176	0.0171467
727.254	0.0169642
727.332	0.0168668
727.410	0.0169807
727.488	0.0170299
727.567	0.0169347
727.645	0.0168681
727.723	0.0170269
727.801	0.0172301
727.879	0.0170538
727.957	0.0170213
728.035	0.0172284
728.113	0.0173010
728.192	0.0171657
728.270	0.0173856
728.348	0.0173792
728.426	0.0173685
728.504	0.0174446
728.582	0.0173666
728.660	0.0175156
728.738	0.0174770
728.817	0.0175901
728.895	0.0175613
728.973	0.0177143
729.051	0.0177042
729.129	0.0176234
729.207	0.0175672
729.285	0.0176009
729.363	0.0175715
729.442	0.0175865
729.520	0.0175446
729.598	0.0175560
729.676	0.0174720
729.754	0.0175279
729.832	0.0174390
729.910	0.0172089
729.988	0.0173382
730.067	0.0172688
730.145	0.0173065
730.223	0.0171772
730.301	0.0172571
730.379	0.0172956
730.457	0.0172803
730.535	0.0173280
730.613	0.0172609
730.692	0.0172702
730.770	0.0171995
730.848	0.0172496
730.926	0.0173615
731.004	0.0174215
731.082	0.0173227
731.160	0.0173251
731.238	0.0174098
731.317	0.0172513
731.395	0.0173659
731.473	0.0172981
731.551	0.0172815
731.629	0.0172215
731.707	0.0170972
731.785	0.0171779
731.863	0.0172446
731.942	0.0171031
732.020	0.0170168
732.098	0.0171796
732.176	0.0169839
732.254	0.0171688
732.332	0.0171551
732.410	0.0171964
732.488	0.0173118
732.567	0.0171792
732.645	0.0172446
732.723	0.0171922
732.801	0.0173800
732.879	0.0175433
732.957	0.0173970
733.035	0.0173074
733.113	0.0175527
733.192	0.0175714
733.270	0.0175362
733.348	0.0175980
733.426	0.0175022
733.504	0.0174817
733.582	0.0174661
733.660	0.0174419
733.738	0.0173724
733.817	0.0173074
733.895	0.0173956
733.973	0.0172282
734.051	0.0172301
734.129	0.0173037
734.207	0.0172760
734.285	0.0171073
734.363	0.0170934
734.442	0.0172514
734.520	0.0173698
734.598	0.0173943
734.676	0.0174966
734.754	0.0176115
734.832	0.0175183
734.910	0.0177362
734.988	0.0178082
735.067	0.0178265
735.145	0.0176709
735.223	0.0176392
735.301	0.0177555
735.379	0.0177558
735.457	0.0177217
735.535	0.0175337
735.613	0.0174194
735.692	0.0175564
735.770	0.0174203
735.848	0.0174458
735.926	0.0174039
736.004	0.0172630
736.082	0.0173903
736.160	0.0173684
736.238	0.0171429
736.317	0.0172136
736.395	0.0172597
736.473	0.0173135
736.551	0.0172759
736.629	0.0172737
736.707	0.0173132
736.785	0.0171663
736.863	0.0172651
736.942	0.0173299
737.020	0.0171304
737.098	0.0171303
737.176	0.0170180
737.254	0.0170252
737.332	0.0169593
737.410	0.0169654
737.488	0.0170110
737.567	0.0169728
737.645	0.0169231
737.723	0.0169586
737.801	0.0169901
737.879	0.0170119
737.957	0.0169174
738.035	0.0169966
738.113	0.0170806
738.192	0.0169840
738.270	0.0171602
738.348	0.0171701
738.426	0.0171875
738.504	0.0172318
738.582	0.0173950
738.660	0.0173932
738.738	0.0174728
738.817	0.0176163
738.895	0.0175884
738.973	0.0176920
739.051	0.0176711
739.129	0.0177351
739.207	0.0177667
739.285	0.0176319
739.363	0.0176044
739.442	0.0176670
739.520	0.0176837
739.598	0.0174790
739.676	0.0172469
739.754	0.0174268
739.832	0.0172806
739.910	0.0171186
739.988	0.0170995
740.067	0.0171592
740.145	0.0169333
740.223	0.0170130
740.301	0.0169234
740.379	0.0171799
740.457	0.0169601
740.535	0.0170463
740.613	0.0169946
740.692	0.0170830
740.770	0.0168667
740.848	0.0169167
740.926	0.0168826
741.004	0.0170206
741.082	0.0169968
741.160	0.0170799
741.238	0.0170885
741.317	0.0170490
741.395	0.0169594
741.473	0.0170052
741.551	0.0169534
741.629	0.0171287
741.707	0.0170959
741.785	0.0170559
741.863	0.0171401
741.942	0.0171500
742.020	0.0173107
742.098	0.0174089
742.176	0.0174200
742.254	0.0174407
742.332	0.0174527
742.410	0.0175407
742.488	0.0174721
742.567	0.0174136
742.645	0.0174380
742.723	0.0174530
742.801	0.0174669
742.879	0.0174227
742.957	0.0173862
743.035	0.0172488
743.113	0.0173111
743.192	0.0172970
743.270	0.0174140
743.348	0.0173578
743.426	0.0174252
743.504	0.0171836
743.582	0.0173411
743.660	0.0173214
743.738	0.0173167
743.817	0.0173983
743.895	0.0173599
743.973	0.0174098
744.051	0.0175063
744.129	0.0173881
744.207	0.0172077
744.285	0.0172829
744.363	0.0171278
744.442	0.0172488
744.520	0.0170810
744.598	0.0169705
744.676	0.0170028
744.754	0.0170342
744.832	0.0169344
744.910	0.0169753
744.988	0.0169750
745.067	0.0169410
745.145	0.0171674
745.223	0.0171418
745.301	0.0170670
745.379	0.0168620
745.457	0.0170325
745.535	0.0171210
745.613	0.0171858
745.692	0.0172180
745.770	0.0172089
745.848	0.0171204
745.926	0.0171945
746.004	0.0170019
746.082	0.0171404
746.160	0.0171995
746.238	0.0171626
746.317	0.0171624
746.395	0.0173407
746.473	0.0173238
746.551	0.0173481
746.629	0.0172332
746.707	0.0173160
746.785	0.0172711
746.863	0.0173951
746.942	0.0173999
747.020	0.0174157
747.098	0.0174793
747.176	0.0173367
747.254	0.0173422
747.332	0.0172913
747.410	0.0172189
747.488	0.0172255
747.567	0.0170607
747.645	0.0170879
747.723	0.0169385
747.801	0.0170899
747.879	0.0170438
747.957	0.0169820
748.035	0.0169073
748.113	0.0169958
748.192	0.0170061
748.270	0.0169597
748.348	0.0169763
748.426	0.0170919
748.504	0.0171428
748.582	0.0171222
748.660	0.0171400
748.738	0.0171516
748.817	0.0172148
748.895	0.0171861
748.973	0.0172044
749.051	0.0173981
749.129	0.0174440
749.207	0.0174291
749.285	0.0175413
749.363	0.0174237
749.442	0.0175078
749.520	0.0175373
749.598	0.0176536
749.676	0.0176012
749.754	0.0176205
749.832	0.0175896
749.910	0.0175172
749.988	0.0177034
750.067	0.0175418
750.145	0.0174923
750.223	0.0176340
750.301	0.0174171
750.379	0.0174611
750.457	0.0173608
750.535	0.0173030
750.613	0.0173418
750.692	0.0174034
750.770	0.0172001
750.848	0.0172002
750.926	0.0172711
751.004	0.0172884
751.082	0.0171642
751.160	0.0172560
751.238	0.0172868
751.317	0.0173812
751.395	0.0172051
751.473	0.0173200
751.551	0.0174480
751.629	0.0173447
751.707	0.0175903
751.785	0.0176318
751.863	0.0177418
751.942	0.0174561
752.020	0.0176743
752.098	0.0176124
752.176	0.0175446
752.254	0.0175286
752.332	0.0175803
752.410	0.0175874
752.488	0.0173335
752.567	0.0172601
752.645	0.0173424
752.723	0.0172597
752.801	0.0171851
752.879	0.0171693
752.957	0.0170979
753.035	0.0170368
753.113	0.0170203
753.192	0.0169292
753.270	0.0171268
753.348	0.0171128
753.426	0.0169837
753.504	0.0169684
753.582	0.0170476
753.660	0.0171929
753.738	0.0171259
753.817	0.0173445
753.895	0.0172588
753.973	0.0174540
754.051	0.0175445
754.129	0.0174238
754.207	0.0173819
754.285	0.0174962
754.363	0.0174342
754.442	0.0173171
754.520	0.0173503
754.598	0.0172900
754.676	0.0172542
754.754	0.0172343
754.832	0.0172563
754.910	0.0171740
754.988	0.0171028
755.067	0.0172717
755.145	0.0172861
755.223	0.0173418
755.301	0.0174207
755.379	0.0173045
755.457	0.0173249
755.535	0.0173189
755.613	0.0176226
755.692	0.0173387
755.770	0.0175574
755.848	0.0177281
755.926	0.0175304
756.004	0.0174555
756.082	0.0176688
756.160	0.0176308
756.238	0.0177414
756.317	0.0175758
756.395	0.0175380
756.473	0.0176826
756.551	0.0176321
756.629	0.0175922
756.707	0.0176344
756.785	0.0176055
756.863	0.0175887
756.942	0.0176717
757.020	0.0176029
757.098	0.0175468
757.176	0.0176221
757.254	0.0175272
757.332	0.0175308
757.410	0.0173385
757.488	0.0172381
757.567	0.0171999
757.645	0.0172681
757.723	0.0172326
757.801	0.0172379
757.879	0.0172584
757.957	0.0171634
758.035	0.0169372
758.113	0.0168999
758.192	0.0170187
758.270	0.0169737
758.348	0.0169717
758.426	0.0170197
758.504	0.0170124
758.582	0.0168807
758.660	0.0169559
758.738	0.0169640
758.817	0.0170295
758.895	0.0169029
758.973	0.0169073
759.051	0.0170705
759.129	0.0170713
759.207	0.0171317
759.285	0.0170906
759.363	0.0171243
759.442	0.0171629
759.520	0.0171909
759.598	0.0171943
759.676	0.0170963
759.754	0.0172356
759.832	0.0172066
759.910	0.0171454
759.988	0.0170734
760.067	0.0171643
760.145	0.0171686
760.223	0.0171254
760.301	0.0171894
760.379	0.0171704
760.457	0.0171275
760.535	0.0170982
760.613	0.0171270
760.692	0.0172678
760.770	0.0173540
760.848	0.0172241
760.926	0.0172477
761.004	0.0174188
761.082	0.0173176
761.160	0.0174038
761.238	0.0174729
761.317	0.0174477
761.395	0.0174621
761.473	0.0174155
761.551	0.0176247
761.629	0.0176135
761.707	0.0175027
761.785	0.0176316
761.863	0.0176476
761.942	0.0176460
762.020	0.0176554
762.098	0.0177412
762.176	0.0176308
762.254	0.0177307
762.332	0.0176407
762.410	0.0175135
762.488	0.0175592
762.567	0.0176675
762.645	0.0176032
762.723	0.0175183
762.801	0.0175346
762.879	0.0176009
762.957	0.0174138
763.035	0.0174601
763.113	0.0174768
763.192	0.0173550
763.270	0.0175238
763.348	0.0174611
763.426	0.0174310
763.504	0.0174447
763.582	0.0173714
763.660	0.0174481
763.738	0.0173917
763.817	0.0174237
763.895	0.0175344
763.973	0.0175105
764.051	0.0173888
764.129	0.0173936
764.207	0.0173516
764.285	0.0172999
764.363	0.0172234
764.442	0.0172172
764.520	0.0171951
764.598	0.0171777
764.676	0.0172311
764.754	0.0171011
764.832	0.0170636
764.910	0.0170415
764.988	0.0169860
765.067	0.0171040
765.145	0.0170590
765.223	0.0169872
765.301	0.0170148
765.379	0.0170059
765.457	0.0169824
765.535	0.0170177
765.613	0.0168922
765.692	0.0169813
765.770	0.0170787
765.848	0.0169522
765.926	0.0169347
766.004	0.0169089
766.082	0.0169362
766.160	0.0168544
766.238	0.0170407
766.317	0.0169539
766.395	0.0169391
766.473	0.0169529
766.551	0.0169836
766.629	0.0170622
766.707	0.0170090
766.785	0.0171561
766.863	0.0172082
766.942	0.0171280
767.020	0.0172797
767.098	0.0171996
767.176	0.0173997
767.254	0.0174252
767.332	0.0171617
767.410	0.0172177
767.488	0.0171864
767.567	0.0172797
767.645	0.0173686
767.723	0.0173067
767.801	0.0173580
767.879	0.0173621
767.957	0.0172665
768.035	0.0174648
768.113	0.0173888
768.192	0.0173207
768.270	0.0174459
768.348	0.0174357
768.426	0.0175153
768.504	0.0174426
768.582	0.0173374
768.660	0.0174242
768.738	0.0173974
768.817	0.0174176
768.895	0.0173403
768.973	0.0175229
769.051	0.0174307
769.129	0.0174175
769.207	0.0174854
769.285	0.0174813
769.363	0.0173682
769.442	0.0173489
769.520	0.0175490
769.598	0.0175462
769.676	0.0175323
769.754	0.0174583
769.832	0.0173906
769.910	0.0175496
769.988	0.0174006
770.067	0.0175286
770.145	0.0176488
770.223	0.0174110
770.301	0.0174272
770.379	0.0176310
770.457	0.0175838
770.535	0.0175364
770.613	0.0176608
770.692	0.0174525
770.770	0.0175679
770.848	0.0173392
770.926	0.0175669
771.004	0.0175055
771.082	0.0173631
771.160	0.0173576
771.238	0.0174294
771.317	0.0173886
771.395	0.0174655
771.473	0.0173779
771.551	0.0172559
771.629	0.0172624
771.707	0.0170594
771.785	0.0171936
771.863	0.0170649
771.942	0.0168686
772.020	0.0171490
772.098	0.0170399
772.176	0.0170143
772.254	0.0169524
772.332	0.0168041
772.410	0.0169633
772.488	0.0170296
772.567	0.0169884
772.645	0.0167242
772.723	0.0167832
772.801	0.0168559
772.879	0.0168157
772.957	0.0168064
773.035	0.0168176
773.113	0.0168919
773.192	0.0168607
773.270	0.0169780
773.348	0.0168942
773.426	0.0169479
773.504	0.0170491
773.582	0.0170068
773.660	0.0172453
773.738	0.0171637
773.817	0.0172101
773.895	0.0172089
773.973	0.0173683
774.051	0.0174088
774.129	0.0173985
774.207	0.0172592
774.285	0.0175372
774.363	0.0174946
774.442	0.0174326
774.520	0.0173661
774.598	0.0174300
774.676	0.0174907
774.754	0.0175146
774.832	0.0174357
774.910	0.0175034
774.988	0.0174968
775.067	0.0177023
775.145	0.0174966
775.223	0.0176578
775.301	0.0176241
775.379	0.0176486
775.457	0.0177625
775.535	0.0174484
775.613	0.0177116
775.692	0.0178532
775.770	0.0177260
775.848	0.0177186
775.926	0.0177667
776.004	0.0175272
776.082	0.0176067
776.160	0.0175609
776.238	0.0176547
776.317	0.0175925
776.395	0.0175163
776.473	0.0175197
776.551	0.0173946
776.629	0.0173352
776.707	0.0173856
776.785	0.0174050
776.863	0.0174929
776.942	0.0173714
777.020	0.0172657
777.098	0.0173638
777.176	0.0173743
777.254	0.0171721
777.332	0.0172843
777.410	0.0172498
777.488	0.0172836
777.567	0.0173545
777.645	0.0172498
777.723	0.0171986
777.801	0.0173335
777.879	0.0171038
777.957	0.0172993
778.035	0.0173482
778.113	0.0173937
778.192	0.0173579
778.270	0.0172895
778.348	0.0172881
778.426	0.0173647
778.504	0.0174008
778.582	0.0173986
778.660	0.0175248
778.738	0.0175406
778.817	0.0175716
778.895	0.0174256
778.973	0.0175248
779.051	0.0175177
779.129	0.0176180
779.207	0.0177085
779.285	0.0175103
779.363	0.0175838
779.442	0.0174420
779.520	0.0174833
779.598	0.0174814
779.676	0.0174488
779.754	0.0173534
779.832	0.0172688
779.910	0.0173107
779.988	0.0172994
780.067	0.0172993
780.145	0.0171767
780.223	0.0173206
780.301	0.0171823
780.379	0.0172017
780.457	0.0171873
780.535	0.0171430
780.613	0.0171168
780.692	0.0171555
780.770	0.0170013
780.848	0.0170721
780.926	0.0171340
781.004	0.0170576
781.082	0.0169716
781.160	0.0171480
781.238	0.0170161
781.317	0.0170280
781.395	0.0171376
781.473	0.0172092
781.551	0.0171690
781.629	0.0171986
781.707	0.0172210
781.785	0.0172762
781.863	0.0173717
781.942	0.0173405
782.020	0.0172609
782.098	0.0174515
782.176	0.0173348
782.254	0.0173465
782.332	0.0174003
782.410	0.0173909
782.488	0.0173660
782.567	0.0174806
782.645	0.0173355
782.723	0.0173432
782.801	0.0174511
782.879	0.0173318
782.957	0.0173682
783.035	0.0174238
783.113	0.0173760
783.192	0.0173103
783.270	0.0173818
783.348	0.0172789
783.426	0.0173086
783.504	0.0173319
783.582	0.0174342
783.660	0.0173431
783.738	0.0173534
783.817	0.0174313
783.895	0.0173481
783.973	0.0173716
784.051	0.0175736
784.129	0.0173391
784.207	0.0173634
784.285	0.0174029
784.363	0.0174033
784.442	0.0174474
784.520	0.0173730
784.598	0.0172660
784.676	0.0173402
784.754	0.0173964
784.832	0.0172322
784.910	0.0172591
784.988	0.0172514
785.067	0.0173853
785.145	0.0171324
785.223	0.0172284
785.301	0.0171329
785.379	0.0172124
785.457	0.0171578
785.535	0.0171456
785.613	0.0172513
785.692	0.0172414
785.770	0.0172086
785.848	0.0171564
785.926	0.0172038
786.004	0.0171133
786.082	0.0172922
786.160	0.0173775
786.238	0.0174630
786.317	0.0173701
786.395	0.0174843
786.473	0.0173714
786.551	0.0173650
786.629	0.0174432
786.707	0.0175022
786.785	0.0173252
786.863	0.0172849
786.942	0.0173591
787.020	0.0171736
787.098	0.0172582
787.176	0.0173840
787.254	0.0173017
787.332	0.0172497
787.410	0.0173294
787.488	0.0172407
787.567	0.0172163
787.645	0.0173512
787.723	0.0173054
787.801	0.0172390
787.879	0.0173004
787.957	0.0172839
788.035	0.0172729
788.113	0.0173306
788.192	0.0172920
788.270	0.0172825
788.348	0.0172295
788.426	0.0172787
788.504	0.0171982
788.582	0.0173218
788.660	0.0173798
788.738	0.0171632
788.817	0.0171086
788.895	0.0171656
788.973	0.0172088
789.051	0.0172974
789.129	0.0171279
789.207	0.0172802
789.285	0.0172398
789.363	0.0173807
789.442	0.0172849
789.520	0.0171879
789.598	0.0172846
789.676	0.0174443
789.754	0.0174475
789.832	0.0173161
789.910	0.0172864
789.988	0.0174191
790.067	0.0173655
790.145	0.0173998
790.223	0.0174561
790.301	0.0174165
790.379	0.0173914
790.457	0.0173260
790.535	0.0175129
790.613	0.0173969
790.692	0.0173714
790.770	0.0172552
790.848	0.0173023
790.926	0.0172708
791.004	0.0172506
791.082	0.0172421
791.160	0.0172338
791.238	0.0172501
791.317	0.0175378
791.395	0.0172398
791.473	0.0172600
791.551	0.0172469
791.629	0.0174355
791.707	0.0173820
791.785	0.0175166
791.863	0.0175760
791.942	0.0174818
792.020	0.0176230
792.098	0.0175700
792.176	0.0176352
792.254	0.0175979
792.332	0.0177174
792.410	0.0177033
792.488	0.0175557
792.567	0.0175694
792.645	0.0177071
792.723	0.0176129
792.801	0.0175732
792.879	0.0175500
792.957	0.0175150
793.035	0.0176440
793.113	0.0175798
793.192	0.0174487
793.270	0.0173358
793.348	0.0173611
793.426	0.0174384
793.504	0.0175204
793.582	0.0175027
793.660	0.0174686
793.738	0.0174899
793.817	0.0173705
793.895	0.0174152
793.973	0.0174656
794.051	0.0174594
794.129	0.0174328
794.207	0.0173843
794.285	0.0173462
794.363	0.0174628
794.442	0.0173447
794.520	0.0172424
794.598	0.0171518
794.676	0.0171781
794.754	0.0173354
794.832	0.0172540
794.910	0.0171783
794.988	0.0171189
795.067	0.0172627
795.145	0.0170404
795.223	0.0172639
795.301	0.0171358
795.379	0.0170052
795.457	0.0171880
795.535	0.0172623
795.613	0.0172668
795.692	0.0172573
795.770	0.0172370
795.848	0.0174712
795.926	0.0174340
796.004	0.0173345
796.082	0.0173833
796.160	0.0172610
796.238	0.0172790
796.317	0.0174062
796.395	0.0173672
796.473	0.0173777
796.551	0.0176384
796.629	0.0173639
796.707	0.0173229
796.785	0.0174835
796.863	0.0176209
796.942	0.0173894
797.020	0.0175291
797.098	0.0174689
797.176	0.0176834
797.254	0.0176888
797.332	0.0174845
797.410	0.0177228
797.488	0.0175708
797.567	0.0176178
797.645	0.0176948
797.723	0.0176190
797.801	0.0176633
797.879	0.0177245
797.957	0.0177751
798.035	0.0177985
798.113	0.0177425
798.192	0.0176324
798.270	0.0175594
798.348	0.0176300
798.426	0.0175523
798.504	0.0175919
798.582	0.0175970
798.660	0.0174060
798.738	0.0174295
798.817	0.0173255
798.895	0.0173692
798.973	0.0173559
799.051	0.0173072
799.129	0.0172015
799.207	0.0172182
799.285	0.0172854
799.363	0.0170258
799.442	0.0171793
799.520	0.0171696
799.598	0.0170603
799.676	0.0171796
799.754	0.0170641
799.832	0.0170819
799.910	0.0171030
799.988	0.0171214
800.067	0.0172332
800.145	0.0172247
800.223	0.0171638
800.301	0.0172342
800.379	0.0171999
800.457	0.0171375
800.535	0.0170414
800.613	0.0172031
800.692	0.0172157
800.770	0.0171123
800.848	0.0170999
800.926	0.0171298
801.004	0.0172952
801.082	0.0171198
801.160	0.0173841
801.238	0.0173952
801.317	0.0174052
801.395	0.0171582
801.473	0.0172334
801.551	0.0173486
801.629	0.0174972
801.707	0.0174950
801.785	0.0173032
801.863	0.0173074
801.942	0.0173837
802.020	0.0174844
802.098	0.0174948
802.176	0.0174847
802.254	0.0175902
802.332	0.0175124
802.410	0.0175158
802.488	0.0176334
802.567	0.0174750
802.645	0.0173675
802.723	0.0174529
802.801	0.0176109
802.879	0.0175435
802.957	0.0174368
803.035	0.0175926
803.113	0.0173271
803.192	0.0173752
803.270	0.0173048
803.348	0.0173499
803.426	0.0173320
803.504	0.0172218
803.582	0.0173804
803.660	0.0172005
803.738	0.0170285
803.817	0.0171105
803.895	0.0172252
803.973	0.0171637
804.051	0.0170103
804.129	0.0170821
804.207	0.0171054
804.285	0.0168369
804.363	0.0170388
804.442	0.0169751
804.520	0.0169357
804.598	0.0170096
804.676	0.0169594
804.754	0.0168877
804.832	0.0168279
804.910	0.0169033
804.988	0.0170430
805.067	0.0171102
805.145	0.0171267
805.223	0.0172263
805.301	0.0171696
805.379	0.0170866
805.457	0.0173520
805.535	0.0172498
805.613	0.0171134
805.692	0.0172219
805.770	0.0172310
805.848	0.0173219
805.926	0.0172722
806.004	0.0173194
806.082	0.0172697
806.160	0.0173461
806.238	0.0174110
806.317	0.0174311
806.395	0.0172274
806.473	0.0173431
806.551	0.0173647
806.629	0.0174342
806.707	0.0174204
806.785	0.0173711
806.863	0.0173541
806.942	0.0174693
807.020	0.0174114
807.098	0.0174502
807.176	0.0173679
807.254	0.0173305
807.332	0.0174494
807.410	0.0174912
807.488	0.0173913
807.567	0.0174281
807.645	0.0174107
807.723	0.0174367
807.801	0.0174516
807.879	0.0174844
807.957	0.0174769
808.035	0.0175718
808.113	0.0174075
808.192	0.0174204
808.270	0.0174241
808.348	0.0174319
808.426	0.0173708
808.504	0.0175739
808.582	0.0173534
808.660	0.0174238
808.738	0.0172481
808.817	0.0174809
808.895	0.0173720
808.973	0.0172341
809.051	0.0172445
809.129	0.0172272
809.207	0.0172592
809.285	0.0172024
809.363	0.0171709
809.442	0.0172276
809.520	0.0172742
809.598	0.0171756
809.676	0.0171739
809.754	0.0172409
809.832	0.0173195
809.910	0.0172659
809.988	0.0172136
810.067	0.0172802
810.145	0.0172181
810.223	0.0172745
810.301	0.0172593
810.379	0.0172577
810.457	0.0173841
810.535	0.0173307
810.613	0.0173212
810.692	0.0172437
810.770	0.0173489
810.848	0.0172034
810.926	0.0172703
811.004	0.0171494
811.082	0.0172861
811.160	0.0171629
811.238	0.0173379
811.317	0.0173464
811.395	0.0171543
811.473	0.0172524
811.551	0.0172617
811.629	0.0172366
811.707	0.0171693
811.785	0.0171488
811.863	0.0172659
811.942	0.0170831
812.020	0.0171651
812.098	0.0171241
812.176	0.0171692
812.254	0.0171747
812.332	0.0172089
812.410	0.0170896
812.488	0.0171884
812.567	0.0171613
812.645	0.0171314
812.723	0.0173174
812.801	0.0172370
812.879	0.0172462
812.957	0.0171193
813.035	0.0173368
813.113	0.0173023
813.192	0.0174220
813.270	0.0172268
813.348	0.0172134
813.426	0.0172058
813.504	0.0173698
813.582	0.0173438
813.660	0.0172513
813.738	0.0173220
813.817	0.0174661
813.895	0.0173191
813.973	0.0173000
814.051	0.0174000
814.129	0.0174070
814.207	0.0172703
814.285	0.0173196
814.363	0.0173533
814.442	0.0173586
814.520	0.0173868
814.598	0.0172589
814.676	0.0172586
814.754	0.0171816
814.832	0.0170649
814.910	0.0171625
814.988	0.0173085
815.067	0.0172355
815.145	0.0171484
815.223	0.0172593
815.301	0.0171013
815.379	0.0172876
815.457	0.0172329
815.535	0.0172604
815.613	0.0173566
815.692	0.0173792
815.770	0.0173323
815.848	0.0173378
815.926	0.0172401
816.004	0.0174021
816.082	0.0175335
816.160	0.0174632
816.238	0.0174669
816.317	0.0174800
816.395	0.0173492
816.473	0.0174671
816.551	0.0174892
816.629	0.0175036
816.707	0.0174253
816.785	0.0173983
816.863	0.0174750
816.942	0.0174427
817.020	0.0175155
817.098	0.0176257
817.176	0.0176142
817.254	0.0175056
817.332	0.0174319
817.410	0.0174924
817.488	0.0175999
817.567	0.0176140
817.645	0.0174561
817.723	0.0174622
817.801	0.0176186
817.879	0.0174718
817.957	0.0174487
818.035	0.0174261
818.113	0.0174586
818.192	0.0175809
818.270	0.0174286
818.348	0.0175176
818.426	0.0175108
818.504	0.0175174
818.582	0.0174744
818.660	0.0175639
818.738	0.0175874
818.817	0.0175363
818.895	0.0174547
818.973	0.0175183
819.051	0.0175737
819.129	0.0174121
819.207	0.0174255
819.285	0.0174933
819.363	0.0172397
819.442	0.0172653
819.520	0.0172355
819.598	0.0171623
819.676	0.0172260
819.754	0.0172340
819.832	0.0171255
819.910	0.0171371
819.988	0.0171128
820.067	0.0170808
820.145	0.0171984
820.223	0.0171551
820.301	0.0172066
820.379	0.0170648
820.457	0.0171393
820.535	0.0171046
820.613	0.0169301
820.692	0.0170017
820.770	0.0170331
820.848	0.0168123
820.926	0.0171005
821.004	0.0171212
821.082	0.0170749
821.160	0.0171309
821.238	0.0171889
821.317	0.0172014
821.395	0.0171508
821.473	0.0171057
821.551	0.0170821
821.629	0.0173657
821.707	0.0172144
821.785	0.0171877
821.863	0.0173190
821.942	0.0173484
822.020	0.0173671
822.098	0.0173760
822.176	0.0172791
822.254	0.0174450
822.332	0.0173938
822.410	0.0172958
822.488	0.0173437
822.567	0.0173358
822.645	0.0173829
822.723	0.0174539
822.801	0.0172212
822.879	0.0173367
822.957	0.0172799
823.035	0.0173067
823.113	0.0173531
823.192	0.0173837
823.270	0.0172697
823.348	0.0172183
823.426	0.0172757
823.504	0.0172625
823.582	0.0173642
823.660	0.0174048
823.738	0.0173696
823.817	0.0174032
823.895	0.0173986
823.973	0.0174229
824.051	0.0173489
824.129	0.0173975
824.207	0.0174319
824.285	0.0175064
824.363	0.0174786
824.442	0.0172861
824.520	0.0174294
824.598	0.0173717
824.676	0.0175763
824.754	0.0173316
824.832	0.0173554
824.910	0.0174687
824.988	0.0173525
825.067	0.0173218
825.145	0.0174639
825.223	0.0173701
825.301	0.0172675
825.379	0.0173758
825.457	0.0172231
825.535	0.0172237
825.613	0.0173526
825.692	0.0173661
825.770	0.0172817
825.848	0.0173409
825.926	0.0171207
826.004	0.0171999
826.082	0.0171759
826.160	0.0171921
826.238	0.0171307
826.317	0.0172883
826.395	0.0173156
826.473	0.0170518
826.551	0.0170971
826.629	0.0170494
826.707	0.0170580
826.785	0.0171600
826.863	0.0170483
826.942	0.0170234
827.020	0.0170339
827.098	0.0170389
827.176	0.0170467
827.254	0.0171358
827.332	0.0169212
827.410	0.0169975
827.488	0.0169800
827.567	0.0170065
827.645	0.0170421
827.723	0.0169749
827.801	0.0170609
827.879	0.0170270
827.957	0.0171194
828.035	0.0169518
828.113	0.0169549
828.192	0.0171084
828.270	0.0170951
828.348	0.0169592
828.426	0.0170858
828.504	0.0170431
828.582	0.0169077
828.660	0.0170957
828.738	0.0170848
828.817	0.0171999
828.895	0.0171973
828.973	0.0172797
829.051	0.0171596
829.129	0.0171271
829.207	0.0171249
829.285	0.0171834
829.363	0.0172653
829.442	0.0172144
829.520	0.0171915
829.598	0.0172919
829.676	0.0172123
829.754	0.0172157
829.832	0.0170502
829.910	0.0172359
829.988	0.0172675
830.067	0.0171853
830.145	0.0172043
830.223	0.0171873
830.301	0.0173085
830.379	0.0172584
830.457	0.0172880
830.535	0.0170839
830.613	0.0171765
830.692	0.0172720
830.770	0.0171425
830.848	0.0172053
830.926	0.0172456
831.004	0.0172305
831.082	0.0172111
831.160	0.0172634
831.238	0.0172518
831.317	0.0174070
831.395	0.0173183
831.473	0.0173429
831.551	0.0173968
831.629	0.0173663
831.707	0.0174080
831.785	0.0175095
831.863	0.0173637
831.942	0.0172649
832.020	0.0172735
832.098	0.0175418
832.176	0.0175036
832.254	0.0173493
832.332	0.0174408
832.410	0.0174215
832.488	0.0173554
832.567	0.0174744
832.645	0.0173705
832.723	0.0174397
832.801	0.0173974
832.879	0.0173801
832.957	0.0172941
833.035	0.0173450
833.113	0.0174837
833.192	0.0174614
833.270	0.0174062
833.348	0.0174661
833.426	0.0174333
833.504	0.0173741
833.582	0.0173734
833.660	0.0174361
833.738	0.0173340
833.817	0.0175751
833.895	0.0173985
833.973	0.0172090
834.051	0.0173272
834.129	0.0174117
834.207	0.0174229
834.285	0.0176093
834.363	0.0174486
834.442	0.0175286
834.520	0.0173875
834.598	0.0174813
834.676	0.0174937
834.754	0.0175007
834.832	0.0174040
834.910	0.0174641
834.988	0.0174146
835.067	0.0175063
835.145	0.0174070
835.223	0.0173003
835.301	0.0172444
835.379	0.0172507
835.457	0.0172123
835.535	0.0171616
835.613	0.0171791
835.692	0.0170932
835.770	0.0169517
835.848	0.0171055
835.926	0.0170767
836.004	0.0169952
836.082	0.0169520
836.160	0.0170564
836.238	0.0169912
836.317	0.0168994
836.395	0.0170287
836.473	0.0169084
836.551	0.0170309
836.629	0.0169688
836.707	0.0170652
836.785	0.0170579
836.863	0.0170092
836.942	0.0170068
837.020	0.0169820
837.098	0.0171260
837.176	0.0171680
837.254	0.0172322
837.332	0.0171547
837.410	0.0172124
837.488	0.0173463
837.567	0.0172520
837.645	0.0172087
837.723	0.0173350
837.801	0.0173955
837.879	0.0172511
837.957	0.0173004
838.035	0.0175378
838.113	0.0175976
838.192	0.0172268
838.270	0.0173585
838.348	0.0174664
838.426	0.0174354
838.504	0.0174426
838.582	0.0174305
838.660	0.0173047
838.738	0.0172150
838.817	0.0173652
838.895	0.0173434
838.973	0.0172810
839.051	0.0172742
839.129	0.0172163
839.207	0.0172895
839.285	0.0173560
839.363	0.0173645
839.442	0.0172318
839.520	0.0173586
839.598	0.0173907
839.676	0.0173811
839.754	0.0173649
839.832	0.0174400
839.910	0.0173509
839.988	0.0172906
840.067	0.0173573
840.145	0.0173682
840.223	0.0173204
840.301	0.0173660
840.379	0.0172903
840.457	0.0173156
840.535	0.0173617
840.613	0.0172166
840.692	0.0172066
840.770	0.0173457
840.848	0.0172228
840.926	0.0171779
841.004	0.0172551
841.082	0.0171040
841.160	0.0171484
841.238	0.0172313
841.317	0.0169804
841.395	0.0170425
841.473	0.0170838
841.551	0.0171214
841.629	0.0172496
841.707	0.0171427
841.785	0.0171326
841.863	0.0171425
841.942	0.0171788
842.020	0.0171332
842.098	0.0170318
842.176	0.0172324
842.254	0.0171845
842.332	0.0170754
842.410	0.0170847
842.488	0.0170359
842.567	0.0171157
842.645	0.0172586
842.723	0.0171779
842.801	0.0171223
842.879	0.0172753
842.957	0.0171880
843.035	0.0171651
843.113	0.0172655
843.192	0.0172209
843.270	0.0171633
843.348	0.0170303
843.426	0.0172398
843.504	0.0169305
843.582	0.0171433
843.660	0.0170844
843.738	0.0169606
843.817	0.0171006
843.895	0.0170336
843.973	0.0170634
844.051	0.0170060
844.129	0.0172407
844.207	0.0171506
844.285	0.0170697
844.363	0.0170863
844.442	0.0171250
844.520	0.0171325
844.598	0.0170844
844.676	0.0170451
844.754	0.0170625
844.832	0.0172225
844.910	0.0171288
844.988	0.0171427
845.067	0.0170405
845.145	0.0171209
845.223	0.0172081
845.301	0.0172694
845.379	0.0172899
845.457	0.0171967
845.535	0.0172598
845.613	0.0172282
845.692	0.0172166
845.770	0.0173637
845.848	0.0173800
845.926	0.0173733
846.004	0.0174379
846.082	0.0172279
846.160	0.0173520
846.238	0.0173586
846.317	0.0173243
846.395	0.0173077
846.473	0.0173824
846.551	0.0173691
846.629	0.0173785
846.707	0.0173473
846.785	0.0173193
846.863	0.0173096
846.942	0.0173614
847.020	0.0172443
847.098	0.0173605
847.176	0.0174532
847.254	0.0172719
847.332	0.0173094
847.410	0.0174259
847.488	0.0174207
847.567	0.0174731
847.645	0.0174870
847.723	0.0174723
847.801	0.0173889
847.879	0.0174091
847.957	0.0174107
848.035	0.0174986
848.113	0.0175570
848.192	0.0174839
848.270	0.0175583
848.348	0.0174452
848.426	0.0174905
848.504	0.0175075
848.582	0.0175223
848.660	0.0174635
848.738	0.0174908
848.817	0.0174986
848.895	0.0175333
848.973	0.0173972
849.051	0.0174615
849.129	0.0175314
849.207	0.0173888
849.285	0.0172215
849.363	0.0172359
849.442	0.0173834
849.520	0.0171510
849.598	0.0173396
849.676	0.0171825
849.754	0.0172227
849.832	0.0173782
849.910	0.0173667
849.988	0.0171201
850.067	0.0170395
850.145	0.0172826
850.223	0.0171639
850.301	0.0171316
850.379	0.0171400
850.457	0.0171449
850.535	0.0170352
850.613	0.0171168
850.692	0.0171774
850.770	0.0170792
850.848	0.0171256
850.926	0.0171059
851.004	0.0171117
851.082	0.0170550
851.160	0.0169939
851.238	0.0170392
851.317	0.0171194
851.395	0.0170555
851.473	0.0171659
851.551	0.0171851
851.629	0.0170965
851.707	0.0171520
851.785	0.0171249
851.863	0.0170764
851.942	0.0172035
852.020	0.0170300
852.098	0.0172160
852.176	0.0173904
852.254	0.0172316
852.332	0.0172302
852.410	0.0172768
852.488	0.0172543
852.567	0.0173962
852.645	0.0173618
852.723	0.0173271
852.801	0.0173497
852.879	0.0172916
852.957	0.0173071
853.035	0.0175146
853.113	0.0174103
853.192	0.0173144
853.270	0.0173399
853.348	0.0173779
853.426	0.0173867
853.504	0.0174751
853.582	0.0175201
853.660	0.0175605
853.738	0.0175462
853.817	0.0174268
853.895	0.0175349
853.973	0.0175640
854.051	0.0176692
854.129	0.0174488
854.207	0.0174818
854.285	0.0175880
854.363	0.0175471
854.442	0.0175471
854.520	0.0174949
854.598	0.0174295
854.676	0.0175172
854.754	0.0173987
854.832	0.0172648
854.910	0.0174122
854.988	0.0174606
855.067	0.0173534
855.145	0.0173846
855.223	0.0174591
855.301	0.0174561
855.379	0.0173233
855.457	0.0174261
855.535	0.0173863
855.613	0.0173622
855.692	0.0173396
855.770	0.0174729
855.848	0.0174184
855.926	0.0175041
856.004	0.0175877
856.082	0.0175204
856.160	0.0175479
856.238	0.0175145
856.317	0.0174757
856.395	0.0174799
856.473	0.0175429
856.551	0.0174471
856.629	0.0175403
856.707	0.0175243
856.785	0.0175284
856.863	0.0174460
856.942	0.0172758
857.020	0.0174333
857.098	0.0174528
857.176	0.0173321
857.254	0.0172732
857.332	0.0173406
857.410	0.0172247
857.488	0.0174420
857.567	0.0173554
857.645	0.0172822
857.723	0.0172548
857.801	0.0173731
857.879	0.0174028
857.957	0.0173021
858.035	0.0172114
858.113	0.0173606
858.192	0.0174318
858.270	0.0173535
858.348	0.0172619
858.426	0.0171955
858.504	0.0172595
858.582	0.0173452
858.660	0.0172211
858.738	0.0173212
858.817	0.0172278
858.895	0.0172534
858.973	0.0172952
859.051	0.0172531
859.129	0.0172221
859.207	0.0172874
859.285	0.0173262
859.363	0.0171186
859.442	0.0172294
859.520	0.0172027
859.598	0.0173860
859.676	0.0174165
859.754	0.0172187
859.832	0.0172885
859.910	0.0172560
859.988	0.0172665
860.067	0.0174168
860.145	0.0173060
860.223	0.0172114
860.301	0.0173341
860.379	0.0174350
860.457	0.0172675
860.535	0.0172766
860.613	0.0172453
860.692	0.0173788
860.770	0.0173045
860.848	0.0173148
860.926	0.0171075
861.004	0.0172784
861.082	0.0170200
861.160	0.0172792
861.238	0.0171402
861.317	0.0170564
861.395	0.0172110
861.473	0.0169768
861.551	0.0172119
861.629	0.0171465
861.707	0.0172306
861.785	0.0172224
861.863	0.0172707
861.942	0.0171744
862.020	0.0172761
862.098	0.0173089
862.176	0.0171627
862.254	0.0172842
862.332	0.0173594
862.410	0.0172617
862.488	0.0172655
862.567	0.0171861
862.645	0.0174165
862.723	0.0172903
862.801	0.0172762
862.879	0.0172730
862.957	0.0173598
863.035	0.0172482
863.113	0.0171532
863.192	0.0173000
863.270	0.0173479
863.348	0.0172998
863.426	0.0173988
863.504	0.0172568
863.582	0.0173660
863.660	0.0173244
863.738	0.0173735
863.817	0.0173866
863.895	0.0173627
863.973	0.0174393
864.051	0.0173605
864.129	0.0173512
864.207	0.0174060
864.285	0.0173756
864.363	0.0173811
864.442	0.0173667
864.520	0.0172492
864.598	0.0173352
864.676	0.0173601
864.754	0.0172872
864.832	0.0174462
864.910	0.0173156
864.988	0.0172689
865.067	0.0172379
865.145	0.0172510
865.223	0.0173355
865.301	0.0172733
865.379	0.0172337
865.457	0.0173434
865.535	0.0172456
865.613	0.0171790
865.692	0.0172684
865.770	0.0172500
865.848	0.0172388
865.926	0.0172923
866.004	0.0171140
866.082	0.0171336
866.160	0.0172824
866.238	0.0173577
866.317	0.0172014
866.395	0.0172728
866.473	0.0172767
866.551	0.0173343
866.629	0.0171824
866.707	0.0173577
866.785	0.0173354
866.863	0.0173232
866.942	0.0173452
867.020	0.0174274
867.098	0.0174654
867.176	0.0173579
867.254	0.0173579
867.332	0.0173663
867.410	0.0173481
867.488	0.0173558
867.567	0.0172926
867.645	0.0173792
867.723	0.0173869
867.801	0.0174273
867.879	0.0173539
867.957	0.0172743
868.035	0.0173680
868.113	0.0172853
868.192	0.0172135
868.270	0.0174303
868.348	0.0174443
868.426	0.0173479
868.504	0.0171556
868.582	0.0171677
868.660	0.0171734
868.738	0.0172700
868.817	0.0171960
868.895	0.0171468
868.973	0.0172411
869.051	0.0172140
869.129	0.0171988
869.207	0.0172620
869.285	0.0173338
869.363	0.0172749
869.442	0.0172881
869.520	0.0172346
869.598	0.0173273
869.676	0.0172723
869.754	0.0172321
869.832	0.0173003
869.910	0.0174632
869.988	0.0173571
870.067	0.0174629
870.145	0.0174099
870.223	0.0174675
870.301	0.0173938
870.379	0.0174648
870.457	0.0174236
870.535	0.0173667
870.613	0.0172717
870.692	0.0172507
870.770	0.0173516
870.848	0.0173968
870.926	0.0172507
871.004	0.0173096
871.082	0.0172955
871.160	0.0173802
871.238	0.0173464
871.317	0.0174381
871.395	0.0174222
871.473	0.0174349
871.551	0.0175069
871.629	0.0174464
871.707	0.0174384
871.785	0.0173806
871.863	0.0174374
871.942	0.0175734
872.020	0.0175948
872.098	0.0175643
872.176	0.0176927
872.254	0.0174041
872.332	0.0175040
872.410	0.0174396
872.488	0.0173817
872.567	0.0174512
872.645	0.0175535
872.723	0.0174588
872.801	0.0173868
872.879	0.0173861
872.957	0.0172460
873.035	0.0173233
873.113	0.0172253
873.192	0.0174107
873.270	0.0173100
873.348	0.0171975
873.426	0.0172487
873.504	0.0172117
873.582	0.0172205
873.660	0.0172395
873.738	0.0171802
873.817	0.0172327
873.895	0.0172523
873.973	0.0172948
874.051	0.0171363
874.129	0.0171391
874.207	0.0171640
874.285	0.0172216
874.363	0.0172246
874.442	0.0170718
874.520	0.0171882
874.598	0.0172775
874.676	0.0172583
874.754	0.0171687
874.832	0.0171667
874.910	0.0171540
874.988	0.0171409
875.067	0.0171982
875.145	0.0172395
875.223	0.0173500
875.301	0.0171849
875.379	0.0172847
875.457	0.0172550
875.535	0.0172549
875.613	0.0173447
875.692	0.0173882
875.770	0.0172587
875.848	0.0174051
875.926	0.0172982
876.004	0.0174884
876.082	0.0174989
876.160	0.0173933
876.238	0.0173067
876.317	0.0172757
876.395	0.0173757
876.473	0.0172680
876.551	0.0172867
876.629	0.0173351
876.707	0.0173775
876.785	0.0173721
876.863	0.0173801
876.942	0.0173149
877.020	0.0172691
877.098	0.0173849
877.176	0.0173183
877.254	0.0175131
877.332	0.0173863
877.410	0.0174174
877.488	0.0173357
877.567	0.0174011
877.645	0.0173707
877.723	0.0173297
877.801	0.0173807
877.879	0.0174039
877.957	0.0174113
878.035	0.0174921
878.113	0.0173798
878.192	0.0174429
878.270	0.0174596
878.348	0.0173909
878.426	0.0174882
878.504	0.0175245
878.582	0.0175652
878.660	0.0174185
878.738	0.0173990
878.817	0.0174310
878.895	0.0173344
878.973	0.0173269
879.051	0.0173872
879.129	0.0174328
879.207	0.0173679
879.285	0.0174843
879.363	0.0174079
879.442	0.0174710
879.520	0.0174122
879.598	0.0174691
879.676	0.0174323
879.754	0.0174987
879.832	0.0174760
879.910	0.0175401
879.988	0.0174906
880.067	0.0173469
880.145	0.0174210
880.223	0.0173644
880.301	0.0173906
880.379	0.0173692
880.457	0.0173067
880.535	0.0173380
880.613	0.0173969
880.692	0.0173386
880.770	0.0173421
880.848	0.0172759
880.926	0.0172939
881.004	0.0172925
881.082	0.0173407
881.160	0.0173871
881.238	0.0173220
881.317	0.0173163
881.395	0.0171403
881.473	0.0173714
881.551	0.0172522
881.629	0.0173742
881.707	0.0172575
881.785	0.0172501
881.863	0.0171838
881.942	0.0171900
882.020	0.0173023
882.098	0.0171593
882.176	0.0172409
882.254	0.0172754
882.332	0.0171499
882.410	0.0173988
882.488	0.0171448
882.567	0.0172150
882.645	0.0172478
882.723	0.0171358
882.801	0.0173467
882.879	0.0172630
882.957	0.0172370
883.035	0.0171847
883.113	0.0173065
883.192	0.0173262
883.270	0.0173788
883.348	0.0172929
883.426	0.0173009
883.504	0.0172713
883.582	0.0173225
883.660	0.0174210
883.738	0.0173451
883.817	0.0172826
883.895	0.0172702
883.973	0.0172905
884.051	0.0173450
884.129	0.0173206
884.207	0.0172630
884.285	0.0172117
884.363	0.0172249
884.442	0.0173847
884.520	0.0173287
884.598	0.0172726
884.676	0.0173311
884.754	0.0171704
884.832	0.0171558
884.910	0.0172755
884.988	0.0172134
885.067	0.0174218
885.145	0.0172926
885.223	0.0173373
885.301	0.0172798
885.379	0.0172295
885.457	0.0173591
885.535	0.0173270
885.613	0.0172732
885.692	0.0173500
885.770	0.0173775
885.848	0.0171645
885.926	0.0171679
886.004	0.0172540
886.082	0.0173211
886.160	0.0171536
886.238	0.0171059
886.317	0.0172644
886.395	0.0172127
886.473	0.0171880
886.551	0.0170741
886.629	0.0172115
886.707	0.0172227
886.785	0.0171548
886.863	0.0172104
886.942	0.0172938
887.020	0.0174620
887.098	0.0173721
887.176	0.0172958
887.254	0.0172731
887.332	0.0174064
887.410	0.0174252
887.488	0.0174816
887.567	0.0173551
887.645	0.0174322
887.723	0.0174431
887.801	0.0174326
887.879	0.0173679
887.957	0.0173898
888.035	0.0173724
888.113	0.0174652
888.192	0.0173267
888.270	0.0173833
888.348	0.0173688
888.426	0.0173248
888.504	0.0173674
888.582	0.0173748
888.660	0.0173210
888.738	0.0172955
888.817	0.0173560
888.895	0.0172166
888.973	0.0172264
889.051	0.0173186
889.129	0.0172595
889.207	0.0172192
889.285	0.0173086
889.363	0.0172870
889.442	0.0172875
889.520	0.0173045
889.598	0.0172622
889.676	0.0172868
889.754	0.0172558
889.832	0.0171685
889.910	0.0172585
889.988	0.0171719
890.067	0.0172469
890.145	0.0171152
890.223	0.0171329
890.301	0.0171503
890.379	0.0172453
890.457	0.0173002
890.535	0.0170973
890.613	0.0171445
890.692	0.0173096
890.770	0.0173682
890.848	0.0172879
890.926	0.0173398
891.004	0.0173415
891.082	0.0172569
891.160	0.0174861
891.238	0.0176576
891.317	0.0175948
891.395	0.0174101
891.473	0.0174847
891.551	0.0175909
891.629	0.0176375
891.707	0.0176752
891.785	0.0176077
891.863	0.0174431
891.942	0.0175608
892.020	0.0176129
892.098	0.0176894
892.176	0.0174477
892.254	0.0176302
892.332	0.0176106
892.410	0.0174517
892.488	0.0175877
892.567	0.0175584
892.645	0.0175121
892.723	0.0176065
892.801	0.0176054
892.879	0.0176118
892.957	0.0175692
893.035	0.0175191
893.113	0.0175837
893.192	0.0176160
893.270	0.0176530
893.348	0.0175876
893.426	0.0175750
893.504	0.0176376
893.582	0.0175423
893.660	0.0173895
893.738	0.0174818
893.817	0.0174060
893.895	0.0174949
893.973	0.0174708
894.051	0.0173613
894.129	0.0173627
894.207	0.0173680
894.285	0.0173815
894.363	0.0172054
894.442	0.0172045
894.520	0.0174432
894.598	0.0172820
894.676	0.0173724
894.754	0.0173161
894.832	0.0171992
894.910	0.0173156
894.988	0.0172221
895.067	0.0174288
895.145	0.0173790
895.223	0.0172906
895.301	0.0173622
895.379	0.0173160
895.457	0.0173440
895.535	0.0174128
895.613	0.0174036
895.692	0.0172094
895.770	0.0172893
895.848	0.0174406
895.926	0.0173149
896.004	0.0173219
896.082	0.0172998
896.160	0.0173859
896.238	0.0173700
896.317	0.0173309
896.395	0.0174068
896.473	0.0173602
896.551	0.0174075
896.629	0.0174736
896.707	0.0174954
896.785	0.0173038
896.863	0.0174157
896.942	0.0173090
897.020	0.0173386
897.098	0.0173420
897.176	0.0173433
897.254	0.0174456
897.332	0.0175208
897.410	0.0175482
897.488	0.0174199
897.567	0.0173761
897.645	0.0173068
897.723	0.0172740
897.801	0.0173254
897.879	0.0173523
897.957	0.0173093
898.035	0.0172568
898.113	0.0172936
898.192	0.0171819
898.270	0.0171878
898.348	0.0173138
898.426	0.0172775
898.504	0.0172363
898.582	0.0173158
898.660	0.0174505
898.738	0.0173463
898.817	0.0171535
898.895	0.0172380
898.973	0.0173471
899.051	0.0173083
899.129	0.0173370
899.207	0.0172157
899.285	0.0171840
899.363	0.0173730
899.442	0.0174768
899.520	0.0173437
899.598	0.0173818
899.676	0.0172675
899.754	0.0173222
899.832	0.0174296
899.910	0.0173400
899.988	0.0172865
900.067	0.0172979
900.145	0.0172250
900.223	0.0171601
900.301	0.0171616
900.379	0.0171873
900.457	0.0172174
900.535	0.0172163
900.613	0.0170951
900.692	0.0172173
900.770	0.0173555
900.848	0.0172675
900.926	0.0173388
901.004	0.0172272
901.082	0.0172733
901.160	0.0171828
901.238	0.0171986
901.317	0.0171619
901.395	0.0171098
901.473	0.0173141
901.551	0.0172444
901.629	0.0172211
901.707	0.0171310
901.785	0.0170584
901.863	0.0171936
901.942	0.0171804
902.020	0.0170185
902.098	0.0172466
902.176	0.0172766
902.254	0.0171082
902.332	0.0169975
902.410	0.0172515
902.488	0.0172256
902.567	0.0172746
902.645	0.0172023
902.723	0.0173336
902.801	0.0172430
902.879	0.0172726
902.957	0.0173555
903.035	0.0173357
903.113	0.0173544
903.192	0.0173454
903.270	0.0172846
903.348	0.0173857
903.426	0.0173600
903.504	0.0174435
903.582	0.0173207
903.660	0.0172331
903.738	0.0172939
903.817	0.0172382
903.895	0.0173726
903.973	0.0171390
904.051	0.0171439
904.129	0.0171504
904.207	0.0171290
904.285	0.0171157
904.363	0.0171590
904.442	0.0171320
904.520	0.0169942
904.598	0.0169975
904.676	0.0171665
904.754	0.0170811
904.832	0.0169547
904.910	0.0170540
904.988	0.0170776
905.067	0.0170705
905.145	0.0170249
905.223	0.0171215
905.301	0.0170827
905.379	0.0171812
905.457	0.0171045
905.535	0.0171772
905.613	0.0170957
905.692	0.0170419
905.770	0.0171354
905.848	0.0171942
905.926	0.0172187
906.004	0.0170942
906.082	0.0171844
906.160	0.0171191
906.238	0.0170954
906.317	0.0173183
906.395	0.0172985
906.473	0.0172856
906.551	0.0173298
906.629	0.0173267
906.707	0.0173296
906.785	0.0172548
906.863	0.0173917
906.942	0.0173975
907.020	0.0172700
907.098	0.0174185
907.176	0.0173939
907.254	0.0174579
907.332	0.0174944
907.410	0.0174310
907.488	0.0175242
907.567	0.0173730
907.645	0.0175066
907.723	0.0174579
907.801	0.0174777
907.879	0.0173692
907.957	0.0175513
908.035	0.0174917
908.113	0.0175537
908.192	0.0175331
908.270	0.0174199
908.348	0.0174390
908.426	0.0173313
908.504	0.0175235
908.582	0.0175166
908.660	0.0175673
908.738	0.0174297
908.817	0.0175791
908.895	0.0175246
908.973	0.0175352
909.051	0.0174530
909.129	0.0174531
909.207	0.0174926
909.285	0.0175797
909.363	0.0175189
909.442	0.0175074
909.520	0.0174518
909.598	0.0174432
909.676	0.0174992
909.754	0.0174672
909.832	0.0173322
909.910	0.0173859
909.988	0.0173508
910.067	0.0174561
910.145	0.0173328
910.223	0.0173846
910.301	0.0172968
910.379	0.0173360
910.457	0.0174689
910.535	0.0174136
910.613	0.0173341
910.692	0.0173563
910.770	0.0174188
910.848	0.0173875
910.926	0.0173592
911.004	0.0172237
911.082	0.0172803
911.160	0.0173283
911.238	0.0174305
911.317	0.0173256
911.395	0.0173706
911.473	0.0174178
911.551	0.0173884
911.629	0.0174358
911.707	0.0174101
911.785	0.0172973
911.863	0.0174530
911.942	0.0173268
912.020	0.0173535
912.098	0.0174332
912.176	0.0173575
912.254	0.0174252
912.332	0.0174396
912.410	0.0174857
912.488	0.0173756
912.567	0.0174996
912.645	0.0175088
912.723	0.0174565
912.801	0.0174407
912.879	0.0173953
912.957	0.0174943
913.035	0.0175265
913.113	0.0174529
913.192	0.0174529
913.270	0.0173879
913.348	0.0173579
913.426	0.0173247
913.504	0.0174260
913.582	0.0175178
913.660	0.0174284
913.738	0.0174072
913.817	0.0175143
913.895	0.0173758
913.973	0.0174109
914.051	0.0174741
914.129	0.0173254
914.207	0.0173640
914.285	0.0172853
914.363	0.0173451
914.442	0.0172803
914.520	0.0173519
914.598	0.0175199
914.676	0.0173500
914.754	0.0173918
914.832	0.0172540
914.910	0.0172800
914.988	0.0172887
915.067	0.0174014
915.145	0.0172977
915.223	0.0172682
915.301	0.0172988
915.379	0.0171616
915.457	0.0172267
915.535	0.0171812
915.613	0.0172288
915.692	0.0171050
915.770	0.0171461
915.848	0.0172098
915.926	0.0171676
916.004	0.0171268
916.082	0.0172922
916.160	0.0171446
916.238	0.0171809
916.317	0.0171528
916.395	0.0172733
916.473	0.0172793
916.551	0.0172057
916.629	0.0172029
916.707	0.0171870
916.785	0.0172711
916.863	0.0173365
916.942	0.0174091
917.020	0.0173611
917.098	0.0172957
917.176	0.0172032
917.254	0.0172810
917.332	0.0173186
917.410	0.0173532
917.488	0.0171835
917.567	0.0174407
917.645	0.0173888
917.723	0.0172971
917.801	0.0173039
917.879	0.0174104
917.957	0.0174121
918.035	0.0173636
918.113	0.0172641
918.192	0.0174793
918.270	0.0174115
918.348	0.0175040
918.426	0.0174889
918.504	0.0175078
918.582	0.0174871
918.660	0.0173346
918.738	0.0174277
918.817	0.0174288
918.895	0.0173199
918.973	0.0174348
919.051	0.0173976
919.129	0.0174117
919.207	0.0173265
919.285	0.0174161
919.363	0.0173615
919.442	0.0172064
919.520	0.0172176
919.598	0.0173019
919.676	0.0174139
919.754	0.0173121
919.832	0.0173424
919.910	0.0172277
