06/01/2022	22:06:49	Ver.	4.1	UNKNOWN
Optical Delay	599.988409	Delta X		0.078125	Sweeps	1	Scan Rate	0/0
Coordinates	Axis 1	NaN	Axis 2	NaN	Axis 3	NaN	Axis 4	NaN	Axis 5	NaN	Axis 6	0.000000
TX Power	0.000000	RX Power	0.000000

599.988	0.0174438
600.067	0.0175964
600.145	0.0174030
600.223	0.0174380
600.301	0.0174046
600.379	0.0176360
600.457	0.0173817
600.535	0.0174374
600.613	0.0175305
600.692	0.0175870
600.770	0.0174268
600.848	0.0174060
600.926	0.0175488
601.004	0.0175063
601.082	0.0174711
601.160	0.0175565
601.238	0.0174099
601.317	0.0177409
601.395	0.0174942
601.473	0.0174423
601.551	0.0174333
601.629	0.0174416
601.707	0.0174774
601.785	0.0174657
601.863	0.0175119
601.942	0.0176000
602.020	0.0175392
602.098	0.0172925
602.176	0.0173724
602.254	0.0174474
602.332	0.0175426
602.410	0.0174514
602.488	0.0174599
602.567	0.0175048
602.645	0.0173903
602.723	0.0174918
602.801	0.0175086
602.879	0.0175535
602.957	0.0174252
603.035	0.0175069
603.113	0.0175694
603.192	0.0174733
603.270	0.0174941
603.348	0.0174467
603.426	0.0174634
603.504	0.0175323
603.582	0.0174963
603.660	0.0174521
603.738	0.0172962
603.817	0.0176133
603.895	0.0175075
603.973	0.0174948
604.051	0.0174534
604.129	0.0174750
604.207	0.0175227
604.285	0.0175479
604.363	0.0174994
604.442	0.0175416
604.520	0.0174339
604.598	0.0173920
604.676	0.0174100
604.754	0.0174622
604.832	0.0173058
604.910	0.0174784
604.988	0.0174899
605.067	0.0174716
605.145	0.0175370
605.223	0.0172922
605.301	0.0173939
605.379	0.0173866
605.457	0.0174033
605.535	0.0174603
605.613	0.0175402
605.692	0.0174150
605.770	0.0174454
605.848	0.0175189
605.926	0.0174546
606.004	0.0174370
606.082	0.0174472
606.160	0.0175462
606.238	0.0174133
606.317	0.0174022
606.395	0.0175644
606.473	0.0174725
606.551	0.0174245
606.629	0.0175680
606.707	0.0174140
606.785	0.0174815
606.863	0.0175714
606.942	0.0174737
607.020	0.0175231
607.098	0.0174364
607.176	0.0175109
607.254	0.0176033
607.332	0.0174767
607.410	0.0175413
607.488	0.0176170
607.567	0.0174450
607.645	0.0175459
607.723	0.0176039
607.801	0.0175439
607.879	0.0175325
607.957	0.0176001
608.035	0.0175811
608.113	0.0176006
608.192	0.0175954
608.270	0.0174660
608.348	0.0176559
608.426	0.0176949
608.504	0.0176266
608.582	0.0175584
608.660	0.0175660
608.738	0.0175838
608.817	0.0175518
608.895	0.0176954
608.973	0.0176102
609.051	0.0176549
609.129	0.0175779
609.207	0.0176035
609.285	0.0175810
609.363	0.0174752
609.442	0.0177148
609.520	0.0175027
609.598	0.0174730
609.676	0.0175829
609.754	0.0175678
609.832	0.0176395
609.910	0.0175585
609.988	0.0176015
610.067	0.0174978
610.145	0.0176572
610.223	0.0175021
610.301	0.0176631
610.379	0.0175828
610.457	0.0175462
610.535	0.0176825
610.613	0.0175355
610.692	0.0175390
610.770	0.0176489
610.848	0.0176447
610.926	0.0176748
611.004	0.0175214
611.082	0.0174922
611.160	0.0173796
611.238	0.0176695
611.317	0.0176007
611.395	0.0175397
611.473	0.0175423
611.551	0.0175452
611.629	0.0175903
611.707	0.0174598
611.785	0.0174126
611.863	0.0174812
611.942	0.0174558
612.020	0.0174027
612.098	0.0174667
612.176	0.0175393
612.254	0.0174059
612.332	0.0174281
612.410	0.0174596
612.488	0.0175435
612.567	0.0175063
612.645	0.0174899
612.723	0.0175205
612.801	0.0175241
612.879	0.0173582
612.957	0.0173470
613.035	0.0175028
613.113	0.0174346
613.192	0.0174428
613.270	0.0174175
613.348	0.0173944
613.426	0.0172919
613.504	0.0173672
613.582	0.0172774
613.660	0.0173455
613.738	0.0175208
613.817	0.0174464
613.895	0.0173684
613.973	0.0172424
614.051	0.0173306
614.129	0.0174311
614.207	0.0172881
614.285	0.0173665
614.363	0.0173419
614.442	0.0175684
614.520	0.0172852
614.598	0.0172990
614.676	0.0174114
614.754	0.0173450
614.832	0.0173917
614.910	0.0174384
614.988	0.0173694
615.067	0.0173051
615.145	0.0173692
615.223	0.0173916
615.301	0.0173264
615.379	0.0172914
615.457	0.0173749
615.535	0.0172852
615.613	0.0173378
615.692	0.0174532
615.770	0.0173283
615.848	0.0173236
615.926	0.0173368
616.004	0.0173322
616.082	0.0174550
616.160	0.0173038
616.238	0.0173127
616.317	0.0174651
616.395	0.0175111
616.473	0.0175936
616.551	0.0176089
616.629	0.0173543
616.707	0.0174517
616.785	0.0174902
616.863	0.0174568
616.942	0.0175936
617.020	0.0175850
617.098	0.0175524
617.176	0.0175506
617.254	0.0176077
617.332	0.0175552
617.410	0.0175156
617.488	0.0174557
617.567	0.0176093
617.645	0.0175217
617.723	0.0177152
617.801	0.0176461
617.879	0.0176695
617.957	0.0176560
618.035	0.0173605
618.113	0.0176478
618.192	0.0175501
618.270	0.0174969
618.348	0.0175988
618.426	0.0176461
618.504	0.0176200
618.582	0.0175468
618.660	0.0175478
618.738	0.0176765
618.817	0.0176374
618.895	0.0174365
618.973	0.0174864
619.051	0.0175346
619.129	0.0176691
619.207	0.0174884
619.285	0.0175319
619.363	0.0174986
619.442	0.0176290
619.520	0.0176388
619.598	0.0175873
619.676	0.0176627
619.754	0.0174955
619.832	0.0177782
619.910	0.0176131
619.988	0.0175099
620.067	0.0174521
620.145	0.0176344
620.223	0.0177396
620.301	0.0176623
620.379	0.0174679
620.457	0.0174872
620.535	0.0176720
620.613	0.0174041
620.692	0.0176008
620.770	0.0176069
620.848	0.0176089
620.926	0.0174251
621.004	0.0174141
621.082	0.0175210
621.160	0.0175996
621.238	0.0174873
621.317	0.0174957
621.395	0.0174752
621.473	0.0175842
621.551	0.0175968
621.629	0.0174890
621.707	0.0174632
621.785	0.0174552
621.863	0.0175347
621.942	0.0176292
622.020	0.0174328
622.098	0.0174240
622.176	0.0175297
622.254	0.0174444
622.332	0.0173613
622.410	0.0173923
622.488	0.0175485
622.567	0.0174010
622.645	0.0173143
622.723	0.0174252
622.801	0.0174547
622.879	0.0173775
622.957	0.0172614
623.035	0.0174312
623.113	0.0173209
623.192	0.0173875
623.270	0.0173842
623.348	0.0172291
623.426	0.0173227
623.504	0.0174564
623.582	0.0173794
623.660	0.0173229
623.738	0.0173598
623.817	0.0174005
623.895	0.0174115
623.973	0.0172827
624.051	0.0173872
624.129	0.0175085
624.207	0.0174625
624.285	0.0175019
624.363	0.0174243
624.442	0.0173110
624.520	0.0175428
624.598	0.0174400
624.676	0.0172922
624.754	0.0173441
624.832	0.0174835
624.910	0.0174501
624.988	0.0172482
625.067	0.0173312
625.145	0.0173232
625.223	0.0173785
625.301	0.0173959
625.379	0.0174297
625.457	0.0174316
625.535	0.0174314
625.613	0.0173462
625.692	0.0174661
625.770	0.0173643
625.848	0.0174014
625.926	0.0173182
626.004	0.0174543
626.082	0.0173775
626.160	0.0174413
626.238	0.0174055
626.317	0.0174443
626.395	0.0174940
626.473	0.0175455
626.551	0.0174042
626.629	0.0173437
626.707	0.0175429
626.785	0.0174722
626.863	0.0174410
626.942	0.0175324
627.020	0.0174522
627.098	0.0174812
627.176	0.0175401
627.254	0.0174081
627.332	0.0175895
627.410	0.0174344
627.488	0.0174612
627.567	0.0175643
627.645	0.0174398
627.723	0.0174584
627.801	0.0176691
627.879	0.0174664
627.957	0.0174548
628.035	0.0175884
628.113	0.0173090
628.192	0.0173930
628.270	0.0175515
628.348	0.0174117
628.426	0.0175960
628.504	0.0173903
628.582	0.0175110
628.660	0.0174474
628.738	0.0176019
628.817	0.0174261
628.895	0.0175030
628.973	0.0175110
629.051	0.0175433
629.129	0.0175527
629.207	0.0174924
629.285	0.0175036
629.363	0.0174120
629.442	0.0176838
629.520	0.0176102
629.598	0.0173928
629.676	0.0174714
629.754	0.0174261
629.832	0.0175363
629.910	0.0175591
629.988	0.0174044
630.067	0.0174216
630.145	0.0174720
630.223	0.0174888
630.301	0.0174119
630.379	0.0175351
630.457	0.0174191
630.535	0.0174722
630.613	0.0174287
630.692	0.0172260
630.770	0.0174554
630.848	0.0175071
630.926	0.0173907
631.004	0.0175018
631.082	0.0174604
631.160	0.0174973
631.238	0.0173260
631.317	0.0174533
631.395	0.0174258
631.473	0.0173553
631.551	0.0174728
631.629	0.0175224
631.707	0.0174757
631.785	0.0175377
631.863	0.0174703
631.942	0.0174792
632.020	0.0174669
632.098	0.0174239
632.176	0.0173998
632.254	0.0174236
632.332	0.0174588
632.410	0.0174159
632.488	0.0174148
632.567	0.0175040
632.645	0.0174930
632.723	0.0175411
632.801	0.0174603
632.879	0.0175107
632.957	0.0174174
633.035	0.0173582
633.113	0.0172983
633.192	0.0175594
633.270	0.0175238
633.348	0.0175576
633.426	0.0175092
633.504	0.0174841
633.582	0.0175456
633.660	0.0175588
633.738	0.0174810
633.817	0.0174774
633.895	0.0175285
633.973	0.0174265
634.051	0.0174560
634.129	0.0176111
634.207	0.0175537
634.285	0.0175580
634.363	0.0174978
634.442	0.0176024
634.520	0.0175108
634.598	0.0176224
634.676	0.0175437
634.754	0.0174806
634.832	0.0174393
634.910	0.0175117
634.988	0.0175565
635.067	0.0174957
635.145	0.0174499
635.223	0.0174433
635.301	0.0175417
635.379	0.0172812
635.457	0.0173840
635.535	0.0174193
635.613	0.0174217
635.692	0.0175156
635.770	0.0173955
635.848	0.0174137
635.926	0.0175177
636.004	0.0175491
636.082	0.0174809
636.160	0.0174178
636.238	0.0173452
636.317	0.0174288
636.395	0.0173782
636.473	0.0174057
636.551	0.0174770
636.629	0.0174547
636.707	0.0174986
636.785	0.0173203
636.863	0.0173037
636.942	0.0174557
637.020	0.0174146
637.098	0.0174174
637.176	0.0175616
637.254	0.0175022
637.332	0.0174813
637.410	0.0174084
637.488	0.0175191
637.567	0.0175495
637.645	0.0175368
637.723	0.0174923
637.801	0.0175471
637.879	0.0173820
637.957	0.0175291
638.035	0.0174624
638.113	0.0173206
638.192	0.0174379
638.270	0.0175564
638.348	0.0174053
638.426	0.0174011
638.504	0.0174929
638.582	0.0175645
638.660	0.0175088
638.738	0.0173389
638.817	0.0174825
638.895	0.0175407
638.973	0.0174384
639.051	0.0173875
639.129	0.0173725
639.207	0.0175855
639.285	0.0175309
639.363	0.0174784
639.442	0.0174442
639.520	0.0174490
639.598	0.0174482
639.676	0.0175332
639.754	0.0174654
639.832	0.0174419
639.910	0.0176448
639.988	0.0176283
640.067	0.0175252
640.145	0.0174400
640.223	0.0176006
640.301	0.0175999
640.379	0.0174802
640.457	0.0175643
640.535	0.0176572
640.613	0.0175083
640.692	0.0174629
640.770	0.0175223
640.848	0.0174413
640.926	0.0173992
641.004	0.0173673
641.082	0.0174264
641.160	0.0175542
641.238	0.0174307
641.317	0.0174442
641.395	0.0174145
641.473	0.0174449
641.551	0.0175280
641.629	0.0174934
641.707	0.0173204
641.785	0.0175392
641.863	0.0173837
641.942	0.0173647
642.020	0.0175294
642.098	0.0174553
642.176	0.0174595
642.254	0.0174262
642.332	0.0173985
642.410	0.0174809
642.488	0.0174200
642.567	0.0174590
642.645	0.0174547
642.723	0.0174435
642.801	0.0174696
642.879	0.0174776
642.957	0.0175768
643.035	0.0174588
643.113	0.0175059
643.192	0.0174586
643.270	0.0175338
643.348	0.0174496
643.426	0.0175288
643.504	0.0175690
643.582	0.0174959
643.660	0.0175273
643.738	0.0174090
643.817	0.0174089
643.895	0.0174734
643.973	0.0174895
644.051	0.0174507
644.129	0.0175407
644.207	0.0174652
644.285	0.0176405
644.363	0.0175776
644.442	0.0175008
644.520	0.0174559
644.598	0.0174397
644.676	0.0174749
644.754	0.0175837
644.832	0.0174574
644.910	0.0176691
644.988	0.0175484
645.067	0.0175826
645.145	0.0174045
645.223	0.0176105
645.301	0.0176054
645.379	0.0175722
645.457	0.0176214
645.535	0.0176443
645.613	0.0175782
645.692	0.0175268
645.770	0.0177187
645.848	0.0176805
645.926	0.0175769
646.004	0.0176262
646.082	0.0174962
646.160	0.0175203
646.238	0.0175949
646.317	0.0174590
646.395	0.0174583
646.473	0.0174778
646.551	0.0176115
646.629	0.0175731
646.707	0.0172574
646.785	0.0173713
646.863	0.0175248
646.942	0.0173261
647.020	0.0175449
647.098	0.0174341
647.176	0.0174589
647.254	0.0173930
647.332	0.0175500
647.410	0.0173637
647.488	0.0173719
647.567	0.0173119
647.645	0.0173421
647.723	0.0173724
647.801	0.0172836
647.879	0.0174554
647.957	0.0173820
648.035	0.0173492
648.113	0.0174603
648.192	0.0172979
648.270	0.0174694
648.348	0.0174866
648.426	0.0176506
648.504	0.0174088
648.582	0.0174198
648.660	0.0173240
648.738	0.0174331
648.817	0.0174358
648.895	0.0175072
648.973	0.0175169
649.051	0.0175855
649.129	0.0175623
649.207	0.0174880
649.285	0.0174387
649.363	0.0176020
649.442	0.0174796
649.520	0.0175459
649.598	0.0175002
649.676	0.0175453
649.754	0.0175866
649.832	0.0174139
649.910	0.0174375
649.988	0.0173961
650.067	0.0173879
650.145	0.0174111
650.223	0.0173269
650.301	0.0173526
650.379	0.0173190
650.457	0.0174200
650.535	0.0172310
650.613	0.0173679
650.692	0.0173676
650.770	0.0172395
650.848	0.0172244
650.926	0.0172581
651.004	0.0172564
651.082	0.0173380
651.160	0.0173543
651.238	0.0173460
651.317	0.0172414
651.395	0.0173203
651.473	0.0173457
651.551	0.0173475
651.629	0.0173332
651.707	0.0173992
651.785	0.0174410
651.863	0.0174680
651.942	0.0173005
652.020	0.0173033
652.098	0.0173860
652.176	0.0174886
652.254	0.0174422
652.332	0.0174173
652.410	0.0174328
652.488	0.0175363
652.567	0.0174684
652.645	0.0175221
652.723	0.0174899
652.801	0.0174832
652.879	0.0174107
652.957	0.0175939
653.035	0.0174499
653.113	0.0174727
653.192	0.0174655
653.270	0.0175187
653.348	0.0175571
653.426	0.0175085
653.504	0.0176003
653.582	0.0173772
653.660	0.0175900
653.738	0.0176572
653.817	0.0175770
653.895	0.0176794
653.973	0.0176630
654.051	0.0177873
654.129	0.0177267
654.207	0.0176054
654.285	0.0176102
654.363	0.0176657
654.442	0.0176553
654.520	0.0176390
654.598	0.0176189
654.676	0.0177180
654.754	0.0176564
654.832	0.0176508
654.910	0.0176479
654.988	0.0175447
655.067	0.0175189
655.145	0.0175370
655.223	0.0175046
655.301	0.0176546
655.379	0.0176515
655.457	0.0176145
655.535	0.0176929
655.613	0.0176402
655.692	0.0175512
655.770	0.0176353
655.848	0.0175291
655.926	0.0176606
656.004	0.0177023
656.082	0.0174506
656.160	0.0176202
656.238	0.0177447
656.317	0.0177158
656.395	0.0176926
656.473	0.0177323
656.551	0.0176685
656.629	0.0176950
656.707	0.0175513
656.785	0.0177691
656.863	0.0176162
656.942	0.0175917
657.020	0.0177176
657.098	0.0176350
657.176	0.0176747
657.254	0.0177616
657.332	0.0177383
657.410	0.0175204
657.488	0.0175764
657.567	0.0175365
657.645	0.0177160
657.723	0.0177136
657.801	0.0176492
657.879	0.0177052
657.957	0.0175114
658.035	0.0176289
658.113	0.0175576
658.192	0.0175559
658.270	0.0176581
658.348	0.0175476
658.426	0.0176332
658.504	0.0176672
658.582	0.0176152
658.660	0.0176639
658.738	0.0175925
658.817	0.0176748
658.895	0.0176555
658.973	0.0177325
659.051	0.0177024
659.129	0.0176361
659.207	0.0175453
659.285	0.0177106
659.363	0.0176820
659.442	0.0176569
659.520	0.0176237
659.598	0.0175999
659.676	0.0176673
659.754	0.0175143
659.832	0.0175865
659.910	0.0174358
659.988	0.0175983
660.067	0.0175928
660.145	0.0175388
660.223	0.0175772
660.301	0.0176751
660.379	0.0175612
660.457	0.0173853
660.535	0.0174487
660.613	0.0176179
660.692	0.0174921
660.770	0.0174715
660.848	0.0175871
660.926	0.0175243
661.004	0.0174760
661.082	0.0173000
661.160	0.0175777
661.238	0.0176635
661.317	0.0174570
661.395	0.0175259
661.473	0.0175067
661.551	0.0176163
661.629	0.0174799
661.707	0.0175924
661.785	0.0175555
661.863	0.0175560
661.942	0.0176485
662.020	0.0175765
662.098	0.0174306
662.176	0.0175069
662.254	0.0176131
662.332	0.0174806
662.410	0.0175228
662.488	0.0174999
662.567	0.0174914
662.645	0.0175110
662.723	0.0175299
662.801	0.0173453
662.879	0.0173684
662.957	0.0174431
663.035	0.0174791
663.113	0.0174058
663.192	0.0174495
663.270	0.0175874
663.348	0.0175238
663.426	0.0175980
663.504	0.0174652
663.582	0.0173481
663.660	0.0175500
663.738	0.0174105
663.817	0.0175042
663.895	0.0175808
663.973	0.0174601
664.051	0.0175847
664.129	0.0174500
664.207	0.0174648
664.285	0.0174578
664.363	0.0174014
664.442	0.0175809
664.520	0.0173953
664.598	0.0174699
664.676	0.0174763
664.754	0.0174476
664.832	0.0173197
664.910	0.0173551
664.988	0.0174114
665.067	0.0173656
665.145	0.0172338
665.223	0.0172899
665.301	0.0172572
665.379	0.0171706
665.457	0.0173846
665.535	0.0173158
665.613	0.0173056
665.692	0.0172029
665.770	0.0173011
665.848	0.0172778
665.926	0.0171201
666.004	0.0171996
666.082	0.0171928
666.160	0.0172105
666.238	0.0172147
666.317	0.0172932
666.395	0.0172165
666.473	0.0172913
666.551	0.0172369
666.629	0.0174211
666.707	0.0174059
666.785	0.0174881
666.863	0.0172796
666.942	0.0174089
667.020	0.0175133
667.098	0.0174471
667.176	0.0174405
667.254	0.0175051
667.332	0.0175961
667.410	0.0173613
667.488	0.0174869
667.567	0.0174025
667.645	0.0173692
667.723	0.0175369
667.801	0.0173371
667.879	0.0172822
667.957	0.0174563
668.035	0.0173003
668.113	0.0172308
668.192	0.0171708
668.270	0.0172205
668.348	0.0172501
668.426	0.0173209
668.504	0.0172586
668.582	0.0172034
668.660	0.0172862
668.738	0.0172916
668.817	0.0172775
668.895	0.0173034
668.973	0.0175580
669.051	0.0173923
669.129	0.0173148
669.207	0.0174228
669.285	0.0174742
669.363	0.0176384
669.442	0.0173048
669.520	0.0174928
669.598	0.0175762
669.676	0.0173892
669.754	0.0175184
669.832	0.0174635
669.910	0.0174368
669.988	0.0174006
670.067	0.0174405
670.145	0.0173707
670.223	0.0174137
670.301	0.0173687
670.379	0.0174425
670.457	0.0174587
670.535	0.0174826
670.613	0.0174490
670.692	0.0174612
670.770	0.0174331
670.848	0.0176099
670.926	0.0174680
671.004	0.0174962
671.082	0.0176391
671.160	0.0176231
671.238	0.0175241
671.317	0.0175216
671.395	0.0175834
671.473	0.0175185
671.551	0.0176960
671.629	0.0174154
671.707	0.0174215
671.785	0.0176643
671.863	0.0176491
671.942	0.0174384
672.020	0.0174495
672.098	0.0174323
672.176	0.0174756
672.254	0.0173294
672.332	0.0173856
672.410	0.0172655
672.488	0.0173223
672.567	0.0173233
672.645	0.0173080
672.723	0.0174083
672.801	0.0173000
672.879	0.0173139
672.957	0.0175231
673.035	0.0173235
673.113	0.0172050
673.192	0.0175859
673.270	0.0174460
673.348	0.0174919
673.426	0.0176096
673.504	0.0176049
673.582	0.0176399
673.660	0.0177301
673.738	0.0176813
673.817	0.0175529
673.895	0.0176331
673.973	0.0176780
674.051	0.0176626
674.129	0.0176092
674.207	0.0176521
674.285	0.0175034
674.363	0.0174412
674.442	0.0175278
674.520	0.0174594
674.598	0.0173601
674.676	0.0173399
674.754	0.0174637
674.832	0.0173816
674.910	0.0173570
674.988	0.0174120
675.067	0.0172856
675.145	0.0174796
675.223	0.0174326
675.301	0.0175054
675.379	0.0175274
675.457	0.0174577
675.535	0.0176881
675.613	0.0177164
675.692	0.0178397
675.770	0.0178459
675.848	0.0178520
675.926	0.0177084
676.004	0.0177618
676.082	0.0177394
676.160	0.0177438
676.238	0.0176648
676.317	0.0175584
676.395	0.0176437
676.473	0.0174770
676.551	0.0175317
676.629	0.0175896
676.707	0.0174529
676.785	0.0174290
676.863	0.0173923
676.942	0.0175054
677.020	0.0176572
677.098	0.0175317
677.176	0.0176510
677.254	0.0177634
677.332	0.0176833
677.410	0.0178068
677.488	0.0177382
677.567	0.0178737
677.645	0.0179276
677.723	0.0178670
677.801	0.0179339
677.879	0.0180256
677.957	0.0178765
678.035	0.0178867
678.113	0.0179703
678.192	0.0178246
678.270	0.0178313
678.348	0.0177520
678.426	0.0177066
678.504	0.0176202
678.582	0.0174576
678.660	0.0173577
678.738	0.0172766
678.817	0.0173132
678.895	0.0172742
678.973	0.0173726
679.051	0.0174312
679.129	0.0173468
679.207	0.0172553
679.285	0.0173122
679.363	0.0174920
679.442	0.0173821
679.520	0.0173861
679.598	0.0174967
679.676	0.0174550
679.754	0.0174927
679.832	0.0174863
679.910	0.0175755
679.988	0.0174900
680.067	0.0175524
680.145	0.0177474
680.223	0.0176872
680.301	0.0175703
680.379	0.0176176
680.457	0.0176679
680.535	0.0177592
680.613	0.0178962
680.692	0.0178013
680.770	0.0177995
680.848	0.0179149
680.926	0.0179980
681.004	0.0179719
681.082	0.0178626
681.160	0.0179859
681.238	0.0178387
681.317	0.0178155
681.395	0.0177263
681.473	0.0178206
681.551	0.0176323
681.629	0.0174484
681.707	0.0176613
681.785	0.0174833
681.863	0.0175690
681.942	0.0174019
682.020	0.0174372
682.098	0.0172062
682.176	0.0173001
682.254	0.0171614
682.332	0.0172931
682.410	0.0172237
682.488	0.0171349
682.567	0.0170400
682.645	0.0169408
682.723	0.0171326
682.801	0.0171964
682.879	0.0172459
682.957	0.0171907
683.035	0.0171931
683.113	0.0173412
683.192	0.0175603
683.270	0.0175547
683.348	0.0175916
683.426	0.0175962
683.504	0.0177446
683.582	0.0178711
683.660	0.0179749
683.738	0.0179924
683.817	0.0180518
683.895	0.0182528
683.973	0.0182208
684.051	0.0182076
684.129	0.0181505
684.207	0.0180863
684.285	0.0180030
684.363	0.0180031
684.442	0.0177870
684.520	0.0177955
684.598	0.0178468
684.676	0.0176402
684.754	0.0176495
684.832	0.0174329
684.910	0.0173034
684.988	0.0172549
685.067	0.0172833
685.145	0.0172059
685.223	0.0172660
685.301	0.0170168
685.379	0.0169859
685.457	0.0169373
685.535	0.0169941
685.613	0.0169333
685.692	0.0169068
685.770	0.0169571
685.848	0.0168879
685.926	0.0169267
686.004	0.0170754
686.082	0.0170827
686.160	0.0171036
686.238	0.0172822
686.317	0.0171787
686.395	0.0173547
686.473	0.0174516
686.551	0.0176234
686.629	0.0178300
686.707	0.0177682
686.785	0.0178004
686.863	0.0178994
686.942	0.0179477
687.020	0.0181162
687.098	0.0182314
687.176	0.0184265
687.254	0.0182405
687.332	0.0182766
687.410	0.0182982
687.488	0.0180696
687.567	0.0182542
687.645	0.0183007
687.723	0.0180086
687.801	0.0180318
687.879	0.0180462
687.957	0.0179783
688.035	0.0177962
688.113	0.0177257
688.192	0.0174213
688.270	0.0174068
688.348	0.0173291
688.426	0.0171778
688.504	0.0169637
688.582	0.0168343
688.660	0.0167352
688.738	0.0166700
688.817	0.0164742
688.895	0.0165820
688.973	0.0164283
689.051	0.0161674
689.129	0.0162518
689.207	0.0164278
689.285	0.0163315
689.363	0.0163736
689.442	0.0163501
689.520	0.0165348
689.598	0.0166281
689.676	0.0166497
689.754	0.0168749
689.832	0.0168978
689.910	0.0171913
689.988	0.0171127
690.067	0.0171789
690.145	0.0174404
690.223	0.0174953
690.301	0.0175960
690.379	0.0176149
690.457	0.0175664
690.535	0.0177147
690.613	0.0176742
690.692	0.0177732
690.770	0.0177663
690.848	0.0176806
690.926	0.0176888
691.004	0.0177069
691.082	0.0178458
691.160	0.0177606
691.238	0.0177681
691.317	0.0178477
691.395	0.0178667
691.473	0.0179501
691.551	0.0179217
691.629	0.0178626
691.707	0.0179369
691.785	0.0180185
691.863	0.0181217
691.942	0.0180002
692.020	0.0180032
692.098	0.0179058
692.176	0.0180804
692.254	0.0179742
692.332	0.0178719
692.410	0.0179615
692.488	0.0178270
692.567	0.0179430
692.645	0.0177896
692.723	0.0175708
692.801	0.0175465
692.879	0.0173878
692.957	0.0173442
693.035	0.0171722
693.113	0.0170692
693.192	0.0169752
693.270	0.0168460
693.348	0.0168222
693.426	0.0167460
693.504	0.0167001
693.582	0.0167590
693.660	0.0165585
693.738	0.0166775
693.817	0.0166182
693.895	0.0165908
693.973	0.0167017
694.051	0.0166413
694.129	0.0165553
694.207	0.0165925
694.285	0.0165209
694.363	0.0166644
694.442	0.0167166
694.520	0.0167625
694.598	0.0168175
694.676	0.0168616
694.754	0.0169799
694.832	0.0171011
694.910	0.0173650
694.988	0.0171862
695.067	0.0173605
695.145	0.0176127
695.223	0.0176569
695.301	0.0177721
695.379	0.0179047
695.457	0.0178835
695.535	0.0180981
695.613	0.0182545
695.692	0.0182137
695.770	0.0183937
695.848	0.0183688
695.926	0.0184547
696.004	0.0187118
696.082	0.0187762
696.160	0.0187680
696.238	0.0188717
696.317	0.0190002
696.395	0.0188879
696.473	0.0189185
696.551	0.0188790
696.629	0.0188836
696.707	0.0190711
696.785	0.0188055
696.863	0.0188724
696.942	0.0187518
697.020	0.0185841
697.098	0.0184657
697.176	0.0183032
697.254	0.0181976
697.332	0.0180457
697.410	0.0177358
697.488	0.0174754
697.567	0.0173428
697.645	0.0171118
697.723	0.0169511
697.801	0.0165372
697.879	0.0164457
697.957	0.0161841
698.035	0.0160917
698.113	0.0159323
698.192	0.0157842
698.270	0.0156856
698.348	0.0156152
698.426	0.0154472
698.504	0.0156705
698.582	0.0156585
698.660	0.0157236
698.738	0.0159090
698.817	0.0159258
698.895	0.0158064
698.973	0.0161018
699.051	0.0161757
699.129	0.0164413
699.207	0.0164749
699.285	0.0166263
699.363	0.0167393
699.442	0.0169814
699.520	0.0171138
699.598	0.0172847
699.676	0.0174284
699.754	0.0176547
699.832	0.0178328
699.910	0.0180002
699.988	0.0180553
700.067	0.0183305
700.145	0.0184407
700.223	0.0185452
700.301	0.0186270
700.379	0.0187457
700.457	0.0187605
700.535	0.0187268
700.613	0.0188242
700.692	0.0189978
700.770	0.0189945
700.848	0.0188387
700.926	0.0188303
701.004	0.0188765
701.082	0.0189112
701.160	0.0188189
701.238	0.0188023
701.317	0.0185706
701.395	0.0185730
701.473	0.0187302
701.551	0.0187321
701.629	0.0185877
701.707	0.0183788
701.785	0.0182750
701.863	0.0183068
701.942	0.0180653
702.020	0.0180624
702.098	0.0179513
702.176	0.0178996
702.254	0.0176463
702.332	0.0174315
702.410	0.0173559
702.488	0.0173325
702.567	0.0172330
702.645	0.0170110
702.723	0.0169493
702.801	0.0166805
702.879	0.0166635
702.957	0.0164880
703.035	0.0164518
703.113	0.0163981
703.192	0.0161803
703.270	0.0161534
703.348	0.0161754
703.426	0.0159631
703.504	0.0160525
703.582	0.0160205
703.660	0.0160164
703.738	0.0160805
703.817	0.0161665
703.895	0.0161086
703.973	0.0161813
704.051	0.0161695
704.129	0.0163464
704.207	0.0166276
704.285	0.0165971
704.363	0.0166412
704.442	0.0167500
704.520	0.0171922
704.598	0.0170274
704.676	0.0169884
704.754	0.0174210
704.832	0.0174725
704.910	0.0177023
704.988	0.0178500
705.067	0.0180855
705.145	0.0182731
705.223	0.0185364
705.301	0.0186091
705.379	0.0187073
705.457	0.0188331
705.535	0.0188263
705.613	0.0190775
705.692	0.0191143
705.770	0.0190875
705.848	0.0192329
705.926	0.0192076
706.004	0.0190020
706.082	0.0189377
706.160	0.0188026
706.238	0.0187659
706.317	0.0188179
706.395	0.0186973
706.473	0.0185156
706.551	0.0184553
706.629	0.0183576
706.707	0.0182085
706.785	0.0181279
706.863	0.0179804
706.942	0.0179498
707.020	0.0178616
707.098	0.0177886
707.176	0.0176686
707.254	0.0176124
707.332	0.0173633
707.410	0.0172353
707.488	0.0172057
707.567	0.0170770
707.645	0.0173336
707.723	0.0170045
707.801	0.0169576
707.879	0.0169792
707.957	0.0169698
708.035	0.0167908
708.113	0.0166270
708.192	0.0167281
708.270	0.0166851
708.348	0.0166334
708.426	0.0165552
708.504	0.0165069
708.582	0.0162582
708.660	0.0162630
708.738	0.0162137
708.817	0.0163151
708.895	0.0160351
708.973	0.0161140
709.051	0.0160175
709.129	0.0160220
709.207	0.0161442
709.285	0.0161173
709.363	0.0163798
709.442	0.0163434
709.520	0.0164855
709.598	0.0167881
709.676	0.0168686
709.754	0.0170076
709.832	0.0170308
709.910	0.0172540
709.988	0.0173019
710.067	0.0174916
710.145	0.0174921
710.223	0.0175610
710.301	0.0176318
710.379	0.0177525
710.457	0.0176862
710.535	0.0179050
710.613	0.0180657
710.692	0.0182339
710.770	0.0182617
710.848	0.0185738
710.926	0.0187369
711.004	0.0188219
711.082	0.0190222
711.160	0.0190449
711.238	0.0192246
711.317	0.0191402
711.395	0.0191074
711.473	0.0192044
711.551	0.0192537
711.629	0.0189353
711.707	0.0189567
711.785	0.0188351
711.863	0.0187117
711.942	0.0184605
712.020	0.0183372
712.098	0.0182511
712.176	0.0180085
712.254	0.0178735
712.332	0.0177943
712.410	0.0175416
712.488	0.0174293
712.567	0.0173785
712.645	0.0172339
712.723	0.0168945
712.801	0.0166999
712.879	0.0166491
712.957	0.0165620
713.035	0.0164436
713.113	0.0164467
713.192	0.0163593
713.270	0.0162858
713.348	0.0162951
713.426	0.0163065
713.504	0.0162601
713.582	0.0161198
713.660	0.0162631
713.738	0.0163042
713.817	0.0163847
713.895	0.0165154
713.973	0.0163517
714.051	0.0164613
714.129	0.0164358
714.207	0.0164765
714.285	0.0165018
714.363	0.0164557
714.442	0.0166138
714.520	0.0167611
714.598	0.0168371
714.676	0.0168671
714.754	0.0170111
714.832	0.0169945
714.910	0.0171227
714.988	0.0172862
715.067	0.0172076
715.145	0.0174424
715.223	0.0175964
715.301	0.0177127
715.379	0.0177516
715.457	0.0178745
715.535	0.0180432
715.613	0.0179997
715.692	0.0179461
715.770	0.0182279
715.848	0.0182067
715.926	0.0181659
716.004	0.0182906
716.082	0.0181878
716.160	0.0182446
716.238	0.0182911
716.317	0.0180569
716.395	0.0183068
716.473	0.0181756
716.551	0.0180509
716.629	0.0180194
716.707	0.0179826
716.785	0.0179553
716.863	0.0178508
716.942	0.0178209
717.020	0.0178423
717.098	0.0178296
717.176	0.0177139
717.254	0.0176673
717.332	0.0178504
717.410	0.0177926
717.488	0.0175753
717.567	0.0176386
717.645	0.0176917
717.723	0.0177415
717.801	0.0176834
717.879	0.0175777
717.957	0.0176903
718.035	0.0177009
718.113	0.0174933
718.192	0.0174670
718.270	0.0173296
718.348	0.0173872
718.426	0.0172626
718.504	0.0172887
718.582	0.0169465
718.660	0.0171626
718.738	0.0169304
718.817	0.0169404
718.895	0.0170226
718.973	0.0170992
719.051	0.0169218
719.129	0.0170569
719.207	0.0170148
719.285	0.0171870
719.363	0.0174564
719.442	0.0171789
719.520	0.0172591
719.598	0.0174720
719.676	0.0176112
719.754	0.0176424
719.832	0.0177512
719.910	0.0177135
719.988	0.0176508
720.067	0.0176071
720.145	0.0177766
720.223	0.0177368
720.301	0.0175203
720.379	0.0173840
720.457	0.0173378
720.535	0.0172966
720.613	0.0170821
720.692	0.0171875
720.770	0.0170834
720.848	0.0171163
720.926	0.0172112
721.004	0.0171095
721.082	0.0172301
721.160	0.0174557
721.238	0.0175266
721.317	0.0177274
721.395	0.0177620
721.473	0.0178857
721.551	0.0178284
721.629	0.0181583
721.707	0.0180845
721.785	0.0180640
721.863	0.0180767
721.942	0.0180064
722.020	0.0181442
722.098	0.0181699
722.176	0.0180989
722.254	0.0180290
722.332	0.0178655
722.410	0.0178665
722.488	0.0176987
722.567	0.0175218
722.645	0.0177944
722.723	0.0178424
722.801	0.0176579
722.879	0.0176457
722.957	0.0176612
723.035	0.0177321
723.113	0.0176831
723.192	0.0177206
723.270	0.0177508
723.348	0.0176266
723.426	0.0176008
723.504	0.0176550
723.582	0.0174747
723.660	0.0175020
723.738	0.0173617
723.817	0.0173868
723.895	0.0174521
723.973	0.0173418
724.051	0.0173120
724.129	0.0171566
724.207	0.0173015
724.285	0.0172437
724.363	0.0171835
724.442	0.0173743
724.520	0.0171420
724.598	0.0171463
724.676	0.0172143
724.754	0.0175457
724.832	0.0172587
724.910	0.0174280
724.988	0.0175117
725.067	0.0173410
725.145	0.0174731
725.223	0.0174544
725.301	0.0174194
725.379	0.0176140
725.457	0.0176645
725.535	0.0175341
725.613	0.0175525
725.692	0.0174957
725.770	0.0175060
725.848	0.0176406
725.926	0.0175968
726.004	0.0175420
726.082	0.0175459
726.160	0.0174940
726.238	0.0174381
726.317	0.0176256
726.395	0.0174792
726.473	0.0173791
726.551	0.0174116
726.629	0.0174394
726.707	0.0173055
726.785	0.0173919
726.863	0.0172749
726.942	0.0173031
727.020	0.0173196
727.098	0.0172183
727.176	0.0172482
727.254	0.0171826
727.332	0.0172060
727.410	0.0171867
727.488	0.0171046
727.567	0.0172109
727.645	0.0171789
727.723	0.0171899
727.801	0.0172748
727.879	0.0171808
727.957	0.0172570
728.035	0.0172765
728.113	0.0173572
728.192	0.0176245
728.270	0.0174916
728.348	0.0175662
728.426	0.0175926
728.504	0.0174953
728.582	0.0176690
728.660	0.0176674
728.738	0.0176214
728.817	0.0177069
728.895	0.0177277
728.973	0.0176782
729.051	0.0175946
729.129	0.0174022
729.207	0.0175668
729.285	0.0176641
729.363	0.0174876
729.442	0.0173933
729.520	0.0174442
729.598	0.0173495
729.676	0.0175549
729.754	0.0173756
729.832	0.0173745
729.910	0.0172130
729.988	0.0171835
730.067	0.0172871
730.145	0.0171930
730.223	0.0172990
730.301	0.0173380
730.379	0.0171097
730.457	0.0172728
730.535	0.0172901
730.613	0.0173025
730.692	0.0174641
730.770	0.0173222
730.848	0.0173372
730.926	0.0174660
731.004	0.0174320
731.082	0.0175564
731.160	0.0175005
731.238	0.0173909
731.317	0.0174070
731.395	0.0173423
731.473	0.0175294
731.551	0.0174072
731.629	0.0175351
731.707	0.0174914
731.785	0.0173777
731.863	0.0173708
731.942	0.0173805
732.020	0.0174136
732.098	0.0173740
732.176	0.0174615
732.254	0.0173304
732.332	0.0172883
732.410	0.0171793
732.488	0.0171535
732.567	0.0171183
732.645	0.0172014
732.723	0.0172822
732.801	0.0172998
732.879	0.0172855
732.957	0.0172942
733.035	0.0173164
733.113	0.0173273
733.192	0.0173579
733.270	0.0175866
733.348	0.0174240
733.426	0.0175019
733.504	0.0175667
733.582	0.0174982
733.660	0.0175710
733.738	0.0174948
733.817	0.0175352
733.895	0.0176093
733.973	0.0175196
734.051	0.0174387
734.129	0.0173760
734.207	0.0175353
734.285	0.0174129
734.363	0.0173708
734.442	0.0173556
734.520	0.0173328
734.598	0.0171990
734.676	0.0172657
734.754	0.0173407
734.832	0.0174374
734.910	0.0174734
734.988	0.0175206
735.067	0.0175658
735.145	0.0176878
735.223	0.0177341
735.301	0.0177044
735.379	0.0177169
735.457	0.0176290
735.535	0.0177259
735.613	0.0175539
735.692	0.0176273
735.770	0.0175375
735.848	0.0175911
735.926	0.0174282
736.004	0.0175477
736.082	0.0175079
736.160	0.0172479
736.238	0.0173515
736.317	0.0173466
736.395	0.0173186
736.473	0.0173402
736.551	0.0172633
736.629	0.0171964
736.707	0.0172541
736.785	0.0173097
736.863	0.0173744
736.942	0.0172710
737.020	0.0174117
737.098	0.0172990
737.176	0.0173769
737.254	0.0174675
737.332	0.0174704
737.410	0.0174132
737.488	0.0174601
737.567	0.0172266
737.645	0.0172104
737.723	0.0173865
737.801	0.0173109
737.879	0.0172952
737.957	0.0172820
738.035	0.0173092
738.113	0.0172251
738.192	0.0172887
738.270	0.0171885
738.348	0.0172995
738.426	0.0172556
738.504	0.0172979
738.582	0.0173796
738.660	0.0175026
738.738	0.0176100
738.817	0.0175037
738.895	0.0175470
738.973	0.0175204
739.051	0.0177277
739.129	0.0177261
739.207	0.0176781
739.285	0.0176537
739.363	0.0177481
739.442	0.0176532
739.520	0.0178222
739.598	0.0177892
739.676	0.0178587
739.754	0.0177765
739.832	0.0180853
739.910	0.0179787
739.988	0.0177811
740.067	0.0177569
740.145	0.0177672
740.223	0.0178645
740.301	0.0176429
740.379	0.0179231
740.457	0.0177399
740.535	0.0176996
740.613	0.0176332
740.692	0.0176543
740.770	0.0176139
740.848	0.0176323
740.926	0.0176392
741.004	0.0174059
741.082	0.0175047
741.160	0.0175443
741.238	0.0174890
741.317	0.0174971
741.395	0.0175685
741.473	0.0174593
741.551	0.0174900
741.629	0.0174625
741.707	0.0174376
741.785	0.0175556
741.863	0.0173658
741.942	0.0175002
742.020	0.0175844
742.098	0.0176853
742.176	0.0176793
742.254	0.0176607
742.332	0.0176952
742.410	0.0176726
742.488	0.0176579
742.567	0.0177188
742.645	0.0177528
742.723	0.0176343
742.801	0.0175801
742.879	0.0175519
742.957	0.0176112
743.035	0.0174700
743.113	0.0174719
743.192	0.0174883
743.270	0.0173435
743.348	0.0172653
743.426	0.0173623
743.504	0.0173221
743.582	0.0174004
743.660	0.0175346
743.738	0.0175119
743.817	0.0174667
743.895	0.0175795
743.973	0.0177787
744.051	0.0177043
744.129	0.0177605
744.207	0.0177638
744.285	0.0176523
744.363	0.0177271
744.442	0.0176064
744.520	0.0175170
744.598	0.0174062
744.676	0.0173379
744.754	0.0173581
744.832	0.0172388
744.910	0.0174166
744.988	0.0173211
745.067	0.0172816
745.145	0.0174350
745.223	0.0172578
745.301	0.0173119
745.379	0.0175142
745.457	0.0174632
745.535	0.0175554
745.613	0.0175835
745.692	0.0175874
745.770	0.0176221
745.848	0.0176994
745.926	0.0178053
746.004	0.0177319
746.082	0.0177792
746.160	0.0178018
746.238	0.0176149
746.317	0.0175899
746.395	0.0177104
746.473	0.0176681
746.551	0.0174803
746.629	0.0175633
746.707	0.0175873
746.785	0.0176150
746.863	0.0175762
746.942	0.0175389
747.020	0.0175352
747.098	0.0175017
747.176	0.0176308
747.254	0.0176018
747.332	0.0176308
747.410	0.0174504
747.488	0.0173004
747.567	0.0173853
747.645	0.0173098
747.723	0.0172141
747.801	0.0173377
747.879	0.0172859
747.957	0.0173110
748.035	0.0171207
748.113	0.0172794
748.192	0.0171811
748.270	0.0170989
748.348	0.0172739
748.426	0.0171571
748.504	0.0171579
748.582	0.0172888
748.660	0.0172065
748.738	0.0172938
748.817	0.0172728
748.895	0.0174325
748.973	0.0173931
749.051	0.0173576
749.129	0.0175037
749.207	0.0176065
749.285	0.0175361
749.363	0.0174928
749.442	0.0175785
749.520	0.0176332
749.598	0.0175047
749.676	0.0176754
749.754	0.0177797
749.832	0.0176918
749.910	0.0176631
749.988	0.0177433
750.067	0.0175860
750.145	0.0177147
750.223	0.0176794
750.301	0.0175101
750.379	0.0175356
750.457	0.0174530
750.535	0.0175127
750.613	0.0173788
750.692	0.0172504
750.770	0.0173467
750.848	0.0174043
750.926	0.0173848
751.004	0.0173355
751.082	0.0174317
751.160	0.0172890
751.238	0.0173501
751.317	0.0172498
751.395	0.0172137
751.473	0.0173693
751.551	0.0174393
751.629	0.0172941
751.707	0.0172974
751.785	0.0174896
751.863	0.0174747
751.942	0.0176094
752.020	0.0175896
752.098	0.0174889
752.176	0.0177235
752.254	0.0176479
752.332	0.0176416
752.410	0.0176105
752.488	0.0175502
752.567	0.0174573
752.645	0.0175793
752.723	0.0175264
752.801	0.0175558
752.879	0.0175210
752.957	0.0174084
753.035	0.0173631
753.113	0.0174715
753.192	0.0172787
753.270	0.0173929
753.348	0.0173392
753.426	0.0174179
753.504	0.0173855
753.582	0.0173345
753.660	0.0174986
753.738	0.0174979
753.817	0.0175148
753.895	0.0173892
753.973	0.0174654
754.051	0.0175911
754.129	0.0175809
754.207	0.0174484
754.285	0.0173999
754.363	0.0175652
754.442	0.0173927
754.520	0.0174433
754.598	0.0175613
754.676	0.0173517
754.754	0.0172482
754.832	0.0172213
754.910	0.0173436
754.988	0.0172012
755.067	0.0172044
755.145	0.0172024
755.223	0.0172969
755.301	0.0173266
755.379	0.0173640
755.457	0.0173019
755.535	0.0173055
755.613	0.0173674
755.692	0.0174545
755.770	0.0174932
755.848	0.0175101
755.926	0.0175731
756.004	0.0175120
756.082	0.0175024
756.160	0.0176546
756.238	0.0176849
756.317	0.0176301
756.395	0.0176836
756.473	0.0175790
756.551	0.0175482
756.629	0.0176492
756.707	0.0176665
756.785	0.0176828
756.863	0.0177041
756.942	0.0178189
757.020	0.0175095
757.098	0.0176408
757.176	0.0177232
757.254	0.0177470
757.332	0.0177002
757.410	0.0176356
757.488	0.0175787
757.567	0.0177423
757.645	0.0176915
757.723	0.0176645
757.801	0.0176338
757.879	0.0174690
757.957	0.0174100
758.035	0.0175041
758.113	0.0175550
758.192	0.0173835
758.270	0.0173440
758.348	0.0172720
758.426	0.0172615
758.504	0.0172831
758.582	0.0172466
758.660	0.0172825
758.738	0.0171697
758.817	0.0171140
758.895	0.0171037
758.973	0.0170549
759.051	0.0170873
759.129	0.0171029
759.207	0.0171736
759.285	0.0171866
759.363	0.0172954
759.442	0.0172114
759.520	0.0171680
759.598	0.0173826
759.676	0.0172730
759.754	0.0172460
759.832	0.0172499
759.910	0.0172108
759.988	0.0172973
760.067	0.0174095
760.145	0.0173968
760.223	0.0172984
760.301	0.0172764
760.379	0.0172495
760.457	0.0173262
760.535	0.0173464
760.613	0.0173833
760.692	0.0173328
760.770	0.0172334
760.848	0.0172633
760.926	0.0173585
761.004	0.0174295
761.082	0.0173602
761.160	0.0174292
761.238	0.0175500
761.317	0.0175800
761.395	0.0174691
761.473	0.0174477
761.551	0.0175690
761.629	0.0176988
761.707	0.0176025
761.785	0.0176329
761.863	0.0177428
761.942	0.0176089
762.020	0.0176196
762.098	0.0176869
762.176	0.0178296
762.254	0.0176584
762.332	0.0178388
762.410	0.0176571
762.488	0.0176622
762.567	0.0177363
762.645	0.0176693
762.723	0.0175301
762.801	0.0175471
762.879	0.0174694
762.957	0.0175375
763.035	0.0175305
763.113	0.0175307
763.192	0.0175880
763.270	0.0175269
763.348	0.0175333
763.426	0.0175927
763.504	0.0174927
763.582	0.0175515
763.660	0.0175764
763.738	0.0174859
763.817	0.0175913
763.895	0.0175684
763.973	0.0175642
764.051	0.0176495
764.129	0.0176447
764.207	0.0174937
764.285	0.0176201
764.363	0.0176506
764.442	0.0175795
764.520	0.0175652
764.598	0.0175457
764.676	0.0174583
764.754	0.0174312
764.832	0.0173988
764.910	0.0175011
764.988	0.0174671
765.067	0.0174270
765.145	0.0174437
765.223	0.0172640
765.301	0.0173669
765.379	0.0173793
765.457	0.0173575
765.535	0.0173252
765.613	0.0175426
765.692	0.0173167
765.770	0.0173643
765.848	0.0175022
765.926	0.0173322
766.004	0.0173964
766.082	0.0174285
766.160	0.0173730
766.238	0.0173901
766.317	0.0174921
766.395	0.0172388
766.473	0.0173032
766.551	0.0173582
766.629	0.0174448
766.707	0.0173786
766.785	0.0174104
766.863	0.0174873
766.942	0.0173296
767.020	0.0174805
767.098	0.0175387
767.176	0.0175276
767.254	0.0175994
767.332	0.0177551
767.410	0.0176269
767.488	0.0176968
767.567	0.0177064
767.645	0.0176555
767.723	0.0176196
767.801	0.0176916
767.879	0.0176492
767.957	0.0175808
768.035	0.0174541
768.113	0.0175980
768.192	0.0176260
768.270	0.0173597
768.348	0.0173860
768.426	0.0173532
768.504	0.0175354
768.582	0.0173574
768.660	0.0174555
768.738	0.0175662
768.817	0.0175758
768.895	0.0175863
768.973	0.0175794
769.051	0.0176347
769.129	0.0176790
769.207	0.0178202
769.285	0.0177113
769.363	0.0176986
769.442	0.0177564
769.520	0.0178130
769.598	0.0177773
769.676	0.0177486
769.754	0.0179024
769.832	0.0176729
769.910	0.0176900
769.988	0.0177631
770.067	0.0178156
770.145	0.0176080
770.223	0.0177482
770.301	0.0175368
770.379	0.0174844
770.457	0.0174892
770.535	0.0174790
770.613	0.0174812
770.692	0.0174554
770.770	0.0174776
770.848	0.0175563
770.926	0.0176401
771.004	0.0175269
771.082	0.0175658
771.160	0.0176051
771.238	0.0175957
771.317	0.0174823
771.395	0.0175094
771.473	0.0176451
771.551	0.0174827
771.629	0.0175166
771.707	0.0174871
771.785	0.0174548
771.863	0.0174371
771.942	0.0175403
772.020	0.0175759
772.098	0.0173788
772.176	0.0173605
772.254	0.0172378
772.332	0.0174611
772.410	0.0173313
772.488	0.0172682
772.567	0.0171531
772.645	0.0171398
772.723	0.0170914
772.801	0.0170594
772.879	0.0169962
772.957	0.0171246
773.035	0.0171468
773.113	0.0172108
773.192	0.0170301
773.270	0.0172098
773.348	0.0172903
773.426	0.0173093
773.504	0.0172942
773.582	0.0173479
773.660	0.0174712
773.738	0.0174915
773.817	0.0174062
773.895	0.0174275
773.973	0.0175250
774.051	0.0175187
774.129	0.0174748
774.207	0.0173594
774.285	0.0174838
774.363	0.0175560
774.442	0.0175441
774.520	0.0173868
774.598	0.0173222
774.676	0.0174317
774.754	0.0173609
774.832	0.0174155
774.910	0.0173261
774.988	0.0174591
775.067	0.0174320
775.145	0.0174870
775.223	0.0176460
775.301	0.0175514
775.379	0.0176044
775.457	0.0175894
775.535	0.0177673
775.613	0.0178394
775.692	0.0178522
775.770	0.0177354
775.848	0.0178346
775.926	0.0178503
776.004	0.0177859
776.082	0.0179137
776.160	0.0178838
776.238	0.0177692
776.317	0.0177652
776.395	0.0176008
776.473	0.0177505
776.551	0.0175938
776.629	0.0176935
776.707	0.0177187
776.785	0.0176048
776.863	0.0177795
776.942	0.0177651
777.020	0.0178096
777.098	0.0176580
777.176	0.0175312
777.254	0.0176859
777.332	0.0175836
777.410	0.0176671
777.488	0.0175832
777.567	0.0175034
777.645	0.0176418
777.723	0.0177013
777.801	0.0176465
777.879	0.0176459
777.957	0.0176119
778.035	0.0176846
778.113	0.0175880
778.192	0.0175428
778.270	0.0176075
778.348	0.0176315
778.426	0.0176576
778.504	0.0175806
778.582	0.0176221
778.660	0.0175763
778.738	0.0176392
778.817	0.0177299
778.895	0.0176160
778.973	0.0176949
779.051	0.0176398
779.129	0.0175776
779.207	0.0175799
779.285	0.0175263
779.363	0.0176804
779.442	0.0175035
779.520	0.0176160
779.598	0.0175537
779.676	0.0176109
779.754	0.0175890
779.832	0.0175769
779.910	0.0176692
779.988	0.0175406
780.067	0.0174647
780.145	0.0173178
780.223	0.0174448
780.301	0.0174008
780.379	0.0175922
780.457	0.0173735
780.535	0.0174603
780.613	0.0174547
780.692	0.0174591
780.770	0.0175600
780.848	0.0175015
780.926	0.0174092
781.004	0.0175263
781.082	0.0175376
781.160	0.0175548
781.238	0.0175712
781.317	0.0176199
781.395	0.0176285
781.473	0.0175830
781.551	0.0176066
781.629	0.0177045
781.707	0.0176997
781.785	0.0177908
781.863	0.0176513
781.942	0.0178122
782.020	0.0178001
782.098	0.0178173
782.176	0.0177868
782.254	0.0178838
782.332	0.0178665
782.410	0.0178785
782.488	0.0178810
782.567	0.0178337
782.645	0.0178651
782.723	0.0178873
782.801	0.0178974
782.879	0.0178272
782.957	0.0178484
783.035	0.0179453
783.113	0.0177290
783.192	0.0176865
783.270	0.0179202
783.348	0.0177686
783.426	0.0176416
783.504	0.0176705
783.582	0.0175436
783.660	0.0175310
783.738	0.0176115
783.817	0.0174790
783.895	0.0175838
783.973	0.0175372
784.051	0.0175867
784.129	0.0176399
784.207	0.0175353
784.285	0.0175423
784.363	0.0175558
784.442	0.0176084
784.520	0.0175390
784.598	0.0176181
784.676	0.0174849
784.754	0.0174393
784.832	0.0175475
784.910	0.0175026
784.988	0.0176674
785.067	0.0175153
785.145	0.0174210
785.223	0.0174594
785.301	0.0174800
785.379	0.0173872
785.457	0.0175150
785.535	0.0173977
785.613	0.0172816
785.692	0.0172843
785.770	0.0172998
785.848	0.0173480
785.926	0.0173766
786.004	0.0173832
786.082	0.0173112
786.160	0.0173917
786.238	0.0175213
786.317	0.0174589
786.395	0.0174977
786.473	0.0174944
786.551	0.0175341
786.629	0.0175784
786.707	0.0174834
786.785	0.0175558
786.863	0.0175571
786.942	0.0177452
787.020	0.0175802
787.098	0.0174960
787.176	0.0175549
787.254	0.0175309
787.332	0.0175573
787.410	0.0175617
787.488	0.0176005
787.567	0.0175117
787.645	0.0174905
787.723	0.0173573
787.801	0.0174290
787.879	0.0173116
787.957	0.0173938
788.035	0.0174600
788.113	0.0175273
788.192	0.0173880
788.270	0.0174377
788.348	0.0176061
788.426	0.0175425
788.504	0.0173977
788.582	0.0174957
788.660	0.0174599
788.738	0.0175970
788.817	0.0174523
788.895	0.0175785
788.973	0.0176716
789.051	0.0174500
789.129	0.0174570
789.207	0.0176332
789.285	0.0174886
789.363	0.0175814
789.442	0.0177007
789.520	0.0176478
789.598	0.0176099
789.676	0.0176775
789.754	0.0176965
789.832	0.0175770
789.910	0.0176269
789.988	0.0177898
790.067	0.0175626
790.145	0.0176150
790.223	0.0175159
790.301	0.0177563
790.379	0.0176054
790.457	0.0174738
790.535	0.0174013
790.613	0.0175332
790.692	0.0175544
790.770	0.0175304
790.848	0.0175510
790.926	0.0175185
791.004	0.0175359
791.082	0.0174819
791.160	0.0174503
791.238	0.0173919
791.317	0.0173183
791.395	0.0173927
791.473	0.0172378
791.551	0.0175659
791.629	0.0176036
791.707	0.0173908
791.785	0.0175633
791.863	0.0174030
791.942	0.0175173
792.020	0.0174572
792.098	0.0174977
792.176	0.0174239
792.254	0.0175597
792.332	0.0175789
792.410	0.0175621
792.488	0.0174680
792.567	0.0174093
792.645	0.0175131
792.723	0.0175334
792.801	0.0175340
792.879	0.0174500
792.957	0.0176446
793.035	0.0176872
793.113	0.0175890
793.192	0.0176162
793.270	0.0175362
793.348	0.0174576
793.426	0.0175365
793.504	0.0174897
793.582	0.0174983
793.660	0.0175041
793.738	0.0174733
793.817	0.0175825
793.895	0.0175994
793.973	0.0175181
794.051	0.0175841
794.129	0.0175620
794.207	0.0175362
794.285	0.0174635
794.363	0.0174548
794.442	0.0174989
794.520	0.0173777
794.598	0.0173404
794.676	0.0172623
794.754	0.0172574
794.832	0.0172741
794.910	0.0173614
794.988	0.0172432
795.067	0.0172579
795.145	0.0171526
795.223	0.0171451
795.301	0.0172166
795.379	0.0171945
795.457	0.0170802
795.535	0.0171913
795.613	0.0171429
795.692	0.0170834
795.770	0.0171489
795.848	0.0172633
795.926	0.0172610
796.004	0.0173430
796.082	0.0171326
796.160	0.0171529
796.238	0.0172263
796.317	0.0173523
796.395	0.0174790
796.473	0.0174378
796.551	0.0173742
796.629	0.0173144
796.707	0.0175491
796.785	0.0174622
796.863	0.0175479
796.942	0.0174777
797.020	0.0177280
797.098	0.0176440
797.176	0.0174959
797.254	0.0176607
797.332	0.0178271
797.410	0.0176823
797.488	0.0177013
797.567	0.0177027
797.645	0.0176860
797.723	0.0178465
797.801	0.0178020
797.879	0.0178598
797.957	0.0177352
798.035	0.0177129
798.113	0.0176920
798.192	0.0176038
798.270	0.0177560
798.348	0.0175079
798.426	0.0175354
798.504	0.0175498
798.582	0.0175703
798.660	0.0175275
798.738	0.0175292
798.817	0.0174217
798.895	0.0173752
798.973	0.0174723
799.051	0.0173721
799.129	0.0174685
799.207	0.0174551
799.285	0.0172774
799.363	0.0174627
799.442	0.0174076
799.520	0.0173878
799.598	0.0173604
799.676	0.0174913
799.754	0.0175598
799.832	0.0174186
799.910	0.0174257
799.988	0.0175333
800.067	0.0175982
800.145	0.0176664
800.223	0.0175822
800.301	0.0174328
800.379	0.0174134
800.457	0.0175722
800.535	0.0175208
800.613	0.0174355
800.692	0.0175500
800.770	0.0174393
800.848	0.0174026
800.926	0.0176147
801.004	0.0174683
801.082	0.0174695
801.160	0.0174990
801.238	0.0176360
801.317	0.0176740
801.395	0.0176524
801.473	0.0177280
801.551	0.0178405
801.629	0.0178148
801.707	0.0179037
801.785	0.0177691
801.863	0.0180087
801.942	0.0179674
802.020	0.0180028
802.098	0.0179066
802.176	0.0179486
802.254	0.0179722
802.332	0.0179887
802.410	0.0177223
802.488	0.0178495
802.567	0.0178444
802.645	0.0177680
802.723	0.0177251
802.801	0.0177293
802.879	0.0178025
802.957	0.0177862
803.035	0.0175774
803.113	0.0177480
803.192	0.0176601
803.270	0.0177334
803.348	0.0176827
803.426	0.0175697
803.504	0.0176112
803.582	0.0175306
803.660	0.0175680
803.738	0.0176041
803.817	0.0173905
803.895	0.0174835
803.973	0.0174471
804.051	0.0175206
804.129	0.0174258
804.207	0.0172842
804.285	0.0173076
804.363	0.0173743
804.442	0.0173533
804.520	0.0173658
804.598	0.0171938
804.676	0.0172689
804.754	0.0172886
804.832	0.0172733
804.910	0.0172811
804.988	0.0172951
805.067	0.0172543
805.145	0.0173401
805.223	0.0173926
805.301	0.0173180
805.379	0.0173590
805.457	0.0173604
805.535	0.0174385
805.613	0.0173628
805.692	0.0174355
805.770	0.0174117
805.848	0.0175539
805.926	0.0175533
806.004	0.0175509
806.082	0.0174376
806.160	0.0174027
806.238	0.0174363
806.317	0.0175768
806.395	0.0174508
806.473	0.0172698
806.551	0.0174554
806.629	0.0175336
806.707	0.0174972
806.785	0.0175758
806.863	0.0175678
806.942	0.0175064
807.020	0.0174902
807.098	0.0176108
807.176	0.0176238
807.254	0.0175527
807.332	0.0177309
807.410	0.0175986
807.488	0.0176563
807.567	0.0176414
807.645	0.0177891
807.723	0.0175946
807.801	0.0177121
807.879	0.0177792
807.957	0.0176688
808.035	0.0176434
808.113	0.0177564
808.192	0.0176378
808.270	0.0175887
808.348	0.0175803
808.426	0.0175519
808.504	0.0174709
808.582	0.0174946
808.660	0.0176223
808.738	0.0175435
808.817	0.0175005
808.895	0.0175151
808.973	0.0174696
809.051	0.0175578
809.129	0.0175413
809.207	0.0174792
809.285	0.0174243
809.363	0.0174045
809.442	0.0176033
809.520	0.0174274
809.598	0.0174686
809.676	0.0175898
809.754	0.0174620
809.832	0.0174274
809.910	0.0175211
809.988	0.0174709
810.067	0.0174586
810.145	0.0174454
810.223	0.0173096
810.301	0.0174535
810.379	0.0174525
810.457	0.0173707
810.535	0.0175489
810.613	0.0174732
810.692	0.0174162
810.770	0.0172760
810.848	0.0174082
810.926	0.0173476
811.004	0.0174501
811.082	0.0174782
811.160	0.0173349
811.238	0.0173493
811.317	0.0173373
811.395	0.0172681
811.473	0.0172810
811.551	0.0172937
811.629	0.0173454
811.707	0.0172842
811.785	0.0173318
811.863	0.0173679
811.942	0.0172421
812.020	0.0172053
812.098	0.0172638
812.176	0.0172125
812.254	0.0171926
812.332	0.0172387
812.410	0.0171879
812.488	0.0172418
812.567	0.0172598
812.645	0.0173575
812.723	0.0173595
812.801	0.0173014
812.879	0.0172922
812.957	0.0173957
813.035	0.0174870
813.113	0.0175021
813.192	0.0174830
813.270	0.0173814
813.348	0.0173209
813.426	0.0175131
813.504	0.0175193
813.582	0.0175176
813.660	0.0174317
813.738	0.0175175
813.817	0.0174280
813.895	0.0174469
813.973	0.0174915
814.051	0.0176452
814.129	0.0175606
814.207	0.0174207
814.285	0.0174485
814.363	0.0174731
814.442	0.0175350
814.520	0.0173809
814.598	0.0173523
814.676	0.0173454
814.754	0.0173949
814.832	0.0174139
814.910	0.0172666
814.988	0.0172832
815.067	0.0174033
815.145	0.0174059
815.223	0.0172841
815.301	0.0173838
815.379	0.0173641
815.457	0.0174854
815.535	0.0174342
815.613	0.0174420
815.692	0.0175128
815.770	0.0175266
815.848	0.0174386
815.926	0.0174728
816.004	0.0176182
816.082	0.0176035
816.160	0.0175718
816.238	0.0175453
816.317	0.0174540
816.395	0.0176322
816.473	0.0176263
816.551	0.0176208
816.629	0.0177456
816.707	0.0178091
816.785	0.0175806
816.863	0.0176864
816.942	0.0175229
817.020	0.0176045
817.098	0.0175975
817.176	0.0176703
817.254	0.0175488
817.332	0.0177930
817.410	0.0176467
817.488	0.0176524
817.567	0.0177209
817.645	0.0176478
817.723	0.0175961
817.801	0.0176953
817.879	0.0177233
817.957	0.0176756
818.035	0.0177384
818.113	0.0178435
818.192	0.0177805
818.270	0.0176605
818.348	0.0176902
818.426	0.0175682
818.504	0.0175160
818.582	0.0175518
818.660	0.0175913
818.738	0.0176173
818.817	0.0174476
818.895	0.0175095
818.973	0.0174746
819.051	0.0173923
819.129	0.0175207
819.207	0.0173779
819.285	0.0172865
819.363	0.0172473
819.442	0.0172813
819.520	0.0173565
819.598	0.0173186
819.676	0.0172250
819.754	0.0172282
819.832	0.0171780
819.910	0.0171801
819.988	0.0171133
820.067	0.0172723
820.145	0.0171935
820.223	0.0170632
820.301	0.0171973
820.379	0.0172576
820.457	0.0173009
820.535	0.0172868
820.613	0.0172314
820.692	0.0173586
820.770	0.0172283
820.848	0.0172108
820.926	0.0172090
821.004	0.0173570
821.082	0.0174150
821.160	0.0173232
821.238	0.0172616
821.317	0.0174863
821.395	0.0173070
821.473	0.0173721
821.551	0.0175024
821.629	0.0174204
821.707	0.0176534
821.785	0.0175478
821.863	0.0175204
821.942	0.0175003
822.020	0.0175961
822.098	0.0175625
822.176	0.0174242
822.254	0.0176146
822.332	0.0175304
822.410	0.0175607
822.488	0.0175465
822.567	0.0175420
822.645	0.0175703
822.723	0.0176564
822.801	0.0174317
822.879	0.0176006
822.957	0.0175751
823.035	0.0175663
823.113	0.0175961
823.192	0.0174472
823.270	0.0174825
823.348	0.0175060
823.426	0.0175493
823.504	0.0175716
823.582	0.0176112
823.660	0.0175672
823.738	0.0176345
823.817	0.0175943
823.895	0.0175671
823.973	0.0175823
824.051	0.0176118
824.129	0.0176345
824.207	0.0176027
824.285	0.0175751
824.363	0.0176852
824.442	0.0176852
824.520	0.0175404
824.598	0.0175707
824.676	0.0176088
824.754	0.0175684
824.832	0.0174398
824.910	0.0176563
824.988	0.0174989
825.067	0.0175691
825.145	0.0175507
825.223	0.0175422
825.301	0.0175807
825.379	0.0174934
825.457	0.0172647
825.535	0.0174724
825.613	0.0175580
825.692	0.0174361
825.770	0.0173698
825.848	0.0174553
825.926	0.0173933
826.004	0.0174368
826.082	0.0174296
826.160	0.0174479
826.238	0.0174803
826.317	0.0175287
826.395	0.0173841
826.473	0.0174513
826.551	0.0174305
826.629	0.0175072
826.707	0.0173452
826.785	0.0175058
826.863	0.0172424
826.942	0.0175021
827.020	0.0173528
827.098	0.0173895
827.176	0.0173676
827.254	0.0175423
827.332	0.0174554
827.410	0.0172932
827.488	0.0173759
827.567	0.0173659
827.645	0.0172699
827.723	0.0173471
827.801	0.0171848
827.879	0.0172686
827.957	0.0173057
828.035	0.0172837
828.113	0.0173691
828.192	0.0174020
828.270	0.0173270
828.348	0.0173183
828.426	0.0174355
828.504	0.0174377
828.582	0.0174558
828.660	0.0173266
828.738	0.0175436
828.817	0.0175237
828.895	0.0174940
828.973	0.0175281
829.051	0.0175468
829.129	0.0173833
829.207	0.0175539
829.285	0.0176027
829.363	0.0175063
829.442	0.0176635
829.520	0.0176169
829.598	0.0174827
829.676	0.0174403
829.754	0.0174564
829.832	0.0174374
829.910	0.0174786
829.988	0.0174585
830.067	0.0173529
830.145	0.0173155
830.223	0.0172900
830.301	0.0172952
830.379	0.0172164
830.457	0.0172591
830.535	0.0172163
830.613	0.0172116
830.692	0.0172376
830.770	0.0172510
830.848	0.0173304
830.926	0.0171162
831.004	0.0171366
831.082	0.0172111
831.160	0.0171832
831.238	0.0172987
831.317	0.0172475
831.395	0.0173687
831.473	0.0173966
831.551	0.0173642
831.629	0.0174406
831.707	0.0173721
831.785	0.0173703
831.863	0.0174149
831.942	0.0174821
832.020	0.0174543
832.098	0.0174859
832.176	0.0175026
832.254	0.0172315
832.332	0.0174185
832.410	0.0174966
832.488	0.0175922
832.567	0.0174887
832.645	0.0172650
832.723	0.0174823
832.801	0.0173724
832.879	0.0173785
832.957	0.0173776
833.035	0.0174580
833.113	0.0174109
833.192	0.0174212
833.270	0.0173693
833.348	0.0173544
833.426	0.0174471
833.504	0.0175227
833.582	0.0174892
833.660	0.0175089
833.738	0.0175742
833.817	0.0176167
833.895	0.0176263
833.973	0.0175549
834.051	0.0176409
834.129	0.0175863
834.207	0.0176478
834.285	0.0176024
834.363	0.0176642
834.442	0.0175756
834.520	0.0176421
834.598	0.0177332
834.676	0.0176849
834.754	0.0177249
834.832	0.0177263
834.910	0.0175348
834.988	0.0175132
835.067	0.0175692
835.145	0.0175430
835.223	0.0174511
835.301	0.0175263
835.379	0.0176102
835.457	0.0174577
835.535	0.0174692
835.613	0.0174134
835.692	0.0174505
835.770	0.0173154
835.848	0.0173139
835.926	0.0173426
836.004	0.0173206
836.082	0.0173858
836.160	0.0173270
836.238	0.0173248
836.317	0.0173647
836.395	0.0173574
836.473	0.0174047
836.551	0.0174283
836.629	0.0172993
836.707	0.0174964
836.785	0.0174718
836.863	0.0175189
836.942	0.0174839
837.020	0.0173691
837.098	0.0174622
837.176	0.0176655
837.254	0.0174872
837.332	0.0175588
837.410	0.0175198
837.488	0.0174928
837.567	0.0177759
837.645	0.0177571
837.723	0.0175178
837.801	0.0174567
837.879	0.0176395
837.957	0.0175508
838.035	0.0176995
838.113	0.0174481
838.192	0.0175960
838.270	0.0177903
838.348	0.0175983
838.426	0.0175298
838.504	0.0176154
838.582	0.0175391
838.660	0.0176066
838.738	0.0176230
838.817	0.0176208
838.895	0.0177644
838.973	0.0175623
839.051	0.0176914
839.129	0.0176469
839.207	0.0176208
839.285	0.0174804
839.363	0.0175851
839.442	0.0175965
839.520	0.0175984
839.598	0.0177864
839.676	0.0176765
839.754	0.0177283
839.832	0.0177592
839.910	0.0176775
839.988	0.0176359
840.067	0.0175657
840.145	0.0175623
840.223	0.0177055
840.301	0.0177310
840.379	0.0175524
840.457	0.0174225
840.535	0.0175588
840.613	0.0176566
840.692	0.0176660
840.770	0.0174729
840.848	0.0175433
840.926	0.0176046
841.004	0.0176250
841.082	0.0174619
841.160	0.0175260
841.238	0.0175107
841.317	0.0173487
841.395	0.0173874
841.473	0.0174438
841.551	0.0173750
841.629	0.0174268
841.707	0.0174119
841.785	0.0174764
841.863	0.0176128
841.942	0.0174586
842.020	0.0173049
842.098	0.0174390
842.176	0.0173692
842.254	0.0174143
842.332	0.0174615
842.410	0.0174290
842.488	0.0173967
842.567	0.0174570
842.645	0.0175707
842.723	0.0174837
842.801	0.0174411
842.879	0.0174791
842.957	0.0175562
843.035	0.0175201
843.113	0.0173814
843.192	0.0174445
843.270	0.0174213
843.348	0.0173217
843.426	0.0174615
843.504	0.0172311
843.582	0.0173689
843.660	0.0171957
843.738	0.0173399
843.817	0.0174674
843.895	0.0173962
843.973	0.0173772
844.051	0.0173399
844.129	0.0174272
844.207	0.0173477
844.285	0.0173866
844.363	0.0173949
844.442	0.0173537
844.520	0.0174065
844.598	0.0173840
844.676	0.0173252
844.754	0.0174557
844.832	0.0173798
844.910	0.0174833
844.988	0.0174745
845.067	0.0174062
845.145	0.0174023
845.223	0.0175957
845.301	0.0176703
845.379	0.0175108
845.457	0.0175179
845.535	0.0176801
845.613	0.0176231
845.692	0.0176033
845.770	0.0175927
845.848	0.0175677
845.926	0.0175571
846.004	0.0175040
846.082	0.0175394
846.160	0.0174170
846.238	0.0175992
846.317	0.0175143
846.395	0.0174395
846.473	0.0175863
846.551	0.0175558
846.629	0.0174005
846.707	0.0175437
846.785	0.0174980
846.863	0.0174313
846.942	0.0176141
847.020	0.0174760
847.098	0.0175935
847.176	0.0175463
847.254	0.0174673
847.332	0.0175947
847.410	0.0176032
847.488	0.0176282
847.567	0.0175101
847.645	0.0174934
847.723	0.0175976
847.801	0.0177314
847.879	0.0176520
847.957	0.0175872
848.035	0.0175864
848.113	0.0176295
848.192	0.0176156
848.270	0.0177829
848.348	0.0176611
848.426	0.0175821
848.504	0.0176740
848.582	0.0177760
848.660	0.0176022
848.738	0.0177233
848.817	0.0178039
848.895	0.0176060
848.973	0.0175906
849.051	0.0176254
849.129	0.0176111
849.207	0.0177648
849.285	0.0176942
849.363	0.0176293
849.442	0.0174789
849.520	0.0175607
849.598	0.0176189
849.676	0.0175694
849.754	0.0174649
849.832	0.0175602
849.910	0.0175232
849.988	0.0174259
850.067	0.0174934
850.145	0.0175132
850.223	0.0174774
850.301	0.0174107
850.379	0.0175346
850.457	0.0175346
850.535	0.0173819
850.613	0.0173667
850.692	0.0175316
850.770	0.0174786
850.848	0.0173011
850.926	0.0172940
851.004	0.0175362
851.082	0.0175149
851.160	0.0174193
851.238	0.0173234
851.317	0.0174307
851.395	0.0172542
851.473	0.0172915
851.551	0.0174530
851.629	0.0174422
851.707	0.0172354
851.785	0.0172820
851.863	0.0173460
851.942	0.0172345
852.020	0.0172674
852.098	0.0172656
852.176	0.0172775
852.254	0.0171973
852.332	0.0173476
852.410	0.0173965
852.488	0.0172894
852.567	0.0173443
852.645	0.0173357
852.723	0.0175381
852.801	0.0173684
852.879	0.0172598
852.957	0.0175015
853.035	0.0175668
853.113	0.0174295
853.192	0.0175336
853.270	0.0174950
853.348	0.0175542
853.426	0.0174891
853.504	0.0174788
853.582	0.0175320
853.660	0.0174382
853.738	0.0175132
853.817	0.0175447
853.895	0.0174851
853.973	0.0175924
854.051	0.0175272
854.129	0.0175685
854.207	0.0175393
854.285	0.0174651
854.363	0.0174895
854.442	0.0174977
854.520	0.0176413
854.598	0.0174827
854.676	0.0174986
854.754	0.0174907
854.832	0.0175729
854.910	0.0175960
854.988	0.0177368
855.067	0.0176134
855.145	0.0176543
855.223	0.0177649
855.301	0.0176924
855.379	0.0176334
855.457	0.0176724
855.535	0.0176936
855.613	0.0175987
855.692	0.0176978
855.770	0.0176514
855.848	0.0175316
855.926	0.0177654
856.004	0.0176302
856.082	0.0176004
856.160	0.0176910
856.238	0.0176244
856.317	0.0175724
856.395	0.0175159
856.473	0.0175372
856.551	0.0176320
856.629	0.0175410
856.707	0.0176167
856.785	0.0176563
856.863	0.0174731
856.942	0.0173867
857.020	0.0175553
857.098	0.0174666
857.176	0.0175262
857.254	0.0174255
857.332	0.0174474
857.410	0.0175274
857.488	0.0174927
857.567	0.0174200
857.645	0.0174731
857.723	0.0174288
857.801	0.0173153
857.879	0.0174042
857.957	0.0174512
858.035	0.0175031
858.113	0.0173916
858.192	0.0175417
858.270	0.0176035
858.348	0.0175261
858.426	0.0174841
858.504	0.0174371
858.582	0.0175059
858.660	0.0175713
858.738	0.0175551
858.817	0.0175375
858.895	0.0175478
858.973	0.0174493
859.051	0.0175954
859.129	0.0175140
859.207	0.0173879
859.285	0.0174632
859.363	0.0174745
859.442	0.0174654
859.520	0.0175206
859.598	0.0174342
859.676	0.0173069
859.754	0.0174603
859.832	0.0174272
859.910	0.0174485
859.988	0.0174871
860.067	0.0174841
860.145	0.0174845
860.223	0.0176125
860.301	0.0175611
860.379	0.0174957
860.457	0.0175665
860.535	0.0174747
860.613	0.0175752
860.692	0.0175317
860.770	0.0175411
860.848	0.0175812
860.926	0.0175315
861.004	0.0176755
861.082	0.0176579
861.160	0.0176308
861.238	0.0176093
861.317	0.0174899
861.395	0.0175814
861.473	0.0176872
861.551	0.0176330
861.629	0.0176828
861.707	0.0174018
861.785	0.0177453
861.863	0.0177126
861.942	0.0175832
862.020	0.0176201
862.098	0.0176617
862.176	0.0175557
862.254	0.0176142
862.332	0.0174256
862.410	0.0175040
862.488	0.0175425
862.567	0.0176363
862.645	0.0176501
862.723	0.0174879
862.801	0.0174905
862.879	0.0174911
862.957	0.0174242
863.035	0.0174772
863.113	0.0176520
863.192	0.0175458
863.270	0.0175946
863.348	0.0175122
863.426	0.0175893
863.504	0.0175596
863.582	0.0174997
863.660	0.0174122
863.738	0.0175208
863.817	0.0174912
863.895	0.0175797
863.973	0.0176539
864.051	0.0174910
864.129	0.0175429
864.207	0.0175185
864.285	0.0175481
864.363	0.0174935
864.442	0.0175572
864.520	0.0176294
864.598	0.0176304
864.676	0.0175698
864.754	0.0174990
864.832	0.0176385
864.910	0.0175430
864.988	0.0174522
865.067	0.0174100
865.145	0.0172899
865.223	0.0173990
865.301	0.0174168
865.379	0.0175848
865.457	0.0173286
865.535	0.0173656
865.613	0.0174749
865.692	0.0173851
865.770	0.0174227
865.848	0.0173814
865.926	0.0174669
866.004	0.0173965
866.082	0.0172763
866.160	0.0173566
866.238	0.0174142
866.317	0.0173080
866.395	0.0173325
866.473	0.0174016
866.551	0.0173916
866.629	0.0173855
866.707	0.0175516
866.785	0.0175838
866.863	0.0175211
866.942	0.0175204
867.020	0.0174426
867.098	0.0174647
867.176	0.0175747
867.254	0.0175413
867.332	0.0176588
867.410	0.0175941
867.488	0.0175784
867.567	0.0175439
867.645	0.0176424
867.723	0.0175175
867.801	0.0175517
867.879	0.0176102
867.957	0.0176058
868.035	0.0175844
868.113	0.0176429
868.192	0.0174282
868.270	0.0175378
868.348	0.0175241
868.426	0.0175010
868.504	0.0175533
868.582	0.0175984
868.660	0.0174908
868.738	0.0174710
868.817	0.0175333
868.895	0.0175602
868.973	0.0176169
869.051	0.0175795
869.129	0.0177420
869.207	0.0176643
869.285	0.0177284
869.363	0.0177236
869.442	0.0176699
869.520	0.0175602
869.598	0.0177978
869.676	0.0176012
869.754	0.0176362
869.832	0.0176595
869.910	0.0177039
869.988	0.0176693
870.067	0.0175562
870.145	0.0175416
870.223	0.0176853
870.301	0.0176057
870.379	0.0175395
870.457	0.0175134
870.535	0.0176530
870.613	0.0174763
870.692	0.0175402
870.770	0.0175351
870.848	0.0175780
870.926	0.0176627
871.004	0.0177772
871.082	0.0175874
871.160	0.0175985
871.238	0.0175754
871.317	0.0177334
871.395	0.0176584
871.473	0.0177106
871.551	0.0177068
871.629	0.0176801
871.707	0.0175917
871.785	0.0175947
871.863	0.0176540
871.942	0.0175353
872.020	0.0176122
872.098	0.0176778
872.176	0.0175341
872.254	0.0175803
872.332	0.0177306
872.410	0.0176496
872.488	0.0176240
872.567	0.0175373
872.645	0.0176248
872.723	0.0176337
872.801	0.0176373
872.879	0.0175661
872.957	0.0176321
873.035	0.0175485
873.113	0.0176584
873.192	0.0176591
873.270	0.0175343
873.348	0.0175314
873.426	0.0175373
873.504	0.0175005
873.582	0.0175858
873.660	0.0175615
873.738	0.0174304
873.817	0.0175703
873.895	0.0174442
873.973	0.0175273
874.051	0.0174372
874.129	0.0174819
874.207	0.0174998
874.285	0.0175008
874.363	0.0174318
874.442	0.0174745
874.520	0.0175190
874.598	0.0175294
874.676	0.0175131
874.754	0.0174782
874.832	0.0174246
874.910	0.0175380
874.988	0.0173589
875.067	0.0174967
875.145	0.0175230
875.223	0.0175113
875.301	0.0174161
875.379	0.0174422
875.457	0.0175175
875.535	0.0175273
875.613	0.0175694
875.692	0.0174592
875.770	0.0174730
875.848	0.0175344
875.926	0.0173611
876.004	0.0175677
876.082	0.0175990
876.160	0.0174533
876.238	0.0173544
876.317	0.0173660
876.395	0.0175037
876.473	0.0175986
876.551	0.0174766
876.629	0.0174831
876.707	0.0174812
876.785	0.0173605
876.863	0.0176426
876.942	0.0176286
877.020	0.0174446
877.098	0.0175710
877.176	0.0175365
877.254	0.0175322
877.332	0.0175275
877.410	0.0176091
877.488	0.0175094
877.567	0.0175668
877.645	0.0175733
877.723	0.0176141
877.801	0.0175640
877.879	0.0175221
877.957	0.0175697
878.035	0.0176244
878.113	0.0176736
878.192	0.0177188
878.270	0.0176484
878.348	0.0176998
878.426	0.0176832
878.504	0.0177467
878.582	0.0176981
878.660	0.0176063
878.738	0.0177481
878.817	0.0176826
878.895	0.0177967
878.973	0.0175592
879.051	0.0176450
879.129	0.0177379
879.207	0.0178263
879.285	0.0176769
879.363	0.0176665
879.442	0.0176658
879.520	0.0177150
879.598	0.0176302
879.676	0.0176247
879.754	0.0175821
879.832	0.0176962
879.910	0.0176521
879.988	0.0175497
880.067	0.0176366
880.145	0.0175916
880.223	0.0176820
880.301	0.0174341
880.379	0.0174471
880.457	0.0175201
880.535	0.0175412
880.613	0.0173428
880.692	0.0174617
880.770	0.0175054
880.848	0.0175379
880.926	0.0172660
881.004	0.0174120
881.082	0.0171628
881.160	0.0173067
881.238	0.0173112
881.317	0.0173359
881.395	0.0173581
881.473	0.0173086
881.551	0.0173658
881.629	0.0174014
881.707	0.0174273
881.785	0.0174115
881.863	0.0175591
881.942	0.0174345
882.020	0.0174773
882.098	0.0175191
882.176	0.0173952
882.254	0.0174898
882.332	0.0175345
882.410	0.0174599
882.488	0.0176089
882.567	0.0177422
882.645	0.0175537
882.723	0.0176113
882.801	0.0174559
882.879	0.0176242
882.957	0.0174567
883.035	0.0174863
883.113	0.0176040
883.192	0.0176266
883.270	0.0175071
883.348	0.0175090
883.426	0.0175323
883.504	0.0175312
883.582	0.0173427
883.660	0.0174066
883.738	0.0174664
883.817	0.0175386
883.895	0.0175122
883.973	0.0173718
884.051	0.0174856
884.129	0.0174904
884.207	0.0174974
884.285	0.0175130
884.363	0.0174047
884.442	0.0173982
884.520	0.0174210
884.598	0.0174146
884.676	0.0174693
884.754	0.0175697
884.832	0.0175372
884.910	0.0175364
884.988	0.0174629
885.067	0.0174314
885.145	0.0174194
885.223	0.0174969
885.301	0.0175610
885.379	0.0174451
885.457	0.0174699
885.535	0.0174814
885.613	0.0174316
885.692	0.0172326
885.770	0.0175063
885.848	0.0174034
885.926	0.0172997
886.004	0.0173674
886.082	0.0172810
886.160	0.0174439
886.238	0.0175007
886.317	0.0173530
886.395	0.0173144
886.473	0.0173118
886.551	0.0172718
886.629	0.0173341
886.707	0.0173658
886.785	0.0173512
886.863	0.0173138
886.942	0.0172944
887.020	0.0171980
887.098	0.0171577
887.176	0.0172013
887.254	0.0173477
887.332	0.0172564
887.410	0.0172472
887.488	0.0172945
887.567	0.0174171
887.645	0.0174979
887.723	0.0174232
887.801	0.0174452
887.879	0.0173827
887.957	0.0174931
888.035	0.0175755
888.113	0.0175507
888.192	0.0174766
888.270	0.0174662
888.348	0.0175404
888.426	0.0175585
888.504	0.0175678
888.582	0.0175963
888.660	0.0176626
888.738	0.0176720
888.817	0.0176209
888.895	0.0175777
888.973	0.0176971
889.051	0.0176921
889.129	0.0175842
889.207	0.0174976
889.285	0.0175417
889.363	0.0175271
889.442	0.0175313
889.520	0.0172602
889.598	0.0174196
889.676	0.0174522
889.754	0.0174422
889.832	0.0172919
889.910	0.0174648
889.988	0.0174030
890.067	0.0174063
890.145	0.0173874
890.223	0.0173581
890.301	0.0174048
890.379	0.0173985
890.457	0.0174209
890.535	0.0174043
890.613	0.0174793
890.692	0.0173672
890.770	0.0172900
890.848	0.0175684
890.926	0.0174295
891.004	0.0174554
891.082	0.0174622
891.160	0.0175703
891.238	0.0175361
891.317	0.0175259
891.395	0.0175831
891.473	0.0175311
891.551	0.0176247
891.629	0.0174998
891.707	0.0176440
891.785	0.0176405
891.863	0.0175188
891.942	0.0176649
892.020	0.0178639
892.098	0.0177780
892.176	0.0175920
892.254	0.0176062
892.332	0.0177924
892.410	0.0176840
892.488	0.0177310
892.567	0.0177476
892.645	0.0176498
892.723	0.0177529
892.801	0.0178094
892.879	0.0177879
892.957	0.0178207
893.035	0.0176401
893.113	0.0176236
893.192	0.0175472
893.270	0.0176789
893.348	0.0176135
893.426	0.0174847
893.504	0.0176575
893.582	0.0175297
893.660	0.0175648
893.738	0.0176174
893.817	0.0175505
893.895	0.0176545
893.973	0.0177912
894.051	0.0176707
894.129	0.0176174
894.207	0.0176888
894.285	0.0176784
894.363	0.0176305
894.442	0.0174704
894.520	0.0175600
894.598	0.0175409
894.676	0.0174286
894.754	0.0175790
894.832	0.0174329
894.910	0.0172791
894.988	0.0174287
895.067	0.0174139
895.145	0.0173816
895.223	0.0174510
895.301	0.0173743
895.379	0.0173273
895.457	0.0173145
895.535	0.0174435
895.613	0.0173224
895.692	0.0172775
895.770	0.0173443
895.848	0.0173785
895.926	0.0173683
896.004	0.0173036
896.082	0.0173639
896.160	0.0173806
896.238	0.0174592
896.317	0.0174718
896.395	0.0172603
896.473	0.0174318
896.551	0.0175309
896.629	0.0174223
896.707	0.0174043
896.785	0.0174896
896.863	0.0173650
896.942	0.0174834
897.020	0.0175942
897.098	0.0175933
897.176	0.0174051
897.254	0.0174706
897.332	0.0175312
897.410	0.0175394
897.488	0.0175813
897.567	0.0175501
897.645	0.0176612
897.723	0.0176651
897.801	0.0175945
897.879	0.0175339
897.957	0.0175890
898.035	0.0175345
898.113	0.0174857
898.192	0.0176115
898.270	0.0175527
898.348	0.0176223
898.426	0.0175295
898.504	0.0176012
898.582	0.0175515
898.660	0.0175124
898.738	0.0174753
898.817	0.0175616
898.895	0.0173425
898.973	0.0174461
899.051	0.0174682
899.129	0.0174686
899.207	0.0174460
899.285	0.0174842
899.363	0.0173583
899.442	0.0176230
899.520	0.0174925
899.598	0.0175587
899.676	0.0173653
899.754	0.0176435
899.832	0.0175472
899.910	0.0176001
899.988	0.0175427
900.067	0.0175240
900.145	0.0174775
900.223	0.0174021
900.301	0.0174570
900.379	0.0174046
900.457	0.0174577
900.535	0.0175339
900.613	0.0174254
900.692	0.0173183
900.770	0.0173957
900.848	0.0173457
900.926	0.0173669
901.004	0.0173149
901.082	0.0172162
901.160	0.0173583
901.238	0.0174079
901.317	0.0174302
901.395	0.0173479
901.473	0.0173772
901.551	0.0174989
901.629	0.0173382
901.707	0.0173900
901.785	0.0174275
901.863	0.0174486
901.942	0.0173672
902.020	0.0173896
902.098	0.0173773
902.176	0.0173893
902.254	0.0174313
902.332	0.0174969
902.410	0.0174181
902.488	0.0174721
902.567	0.0175310
902.645	0.0173926
902.723	0.0174000
902.801	0.0174624
902.879	0.0175367
902.957	0.0176034
903.035	0.0174452
903.113	0.0174805
903.192	0.0175891
903.270	0.0176538
903.348	0.0174664
903.426	0.0174683
903.504	0.0175463
903.582	0.0174934
903.660	0.0174697
903.738	0.0175152
903.817	0.0175424
903.895	0.0174677
903.973	0.0173806
904.051	0.0174100
904.129	0.0174902
904.207	0.0175020
904.285	0.0172942
904.363	0.0173533
904.442	0.0173759
904.520	0.0175276
904.598	0.0173869
904.676	0.0174079
904.754	0.0173658
904.832	0.0173421
904.910	0.0174248
904.988	0.0174995
905.067	0.0173094
905.145	0.0173373
905.223	0.0175008
905.301	0.0174491
905.379	0.0172717
905.457	0.0173419
905.535	0.0174454
905.613	0.0173742
905.692	0.0174591
905.770	0.0172894
905.848	0.0173545
905.926	0.0174152
906.004	0.0172914
906.082	0.0174530
906.160	0.0174563
906.238	0.0174664
906.317	0.0174346
906.395	0.0175275
906.473	0.0175355
906.551	0.0175397
906.629	0.0173795
906.707	0.0174626
906.785	0.0174175
906.863	0.0175164
906.942	0.0174596
907.020	0.0174565
907.098	0.0175426
907.176	0.0175058
907.254	0.0175591
907.332	0.0175813
907.410	0.0174913
907.488	0.0176086
907.567	0.0174846
907.645	0.0174551
907.723	0.0175436
907.801	0.0175171
907.879	0.0175861
907.957	0.0174915
908.035	0.0175729
908.113	0.0176582
908.192	0.0174766
908.270	0.0174950
908.348	0.0176212
908.426	0.0175487
908.504	0.0173979
908.582	0.0174406
908.660	0.0176077
908.738	0.0174786
908.817	0.0174360
908.895	0.0174424
908.973	0.0174789
909.051	0.0175388
909.129	0.0174097
909.207	0.0175849
909.285	0.0175828
909.363	0.0175932
909.442	0.0175560
909.520	0.0174782
909.598	0.0176433
909.676	0.0173837
909.754	0.0175123
909.832	0.0173718
909.910	0.0175035
909.988	0.0173570
910.067	0.0174471
910.145	0.0175365
910.223	0.0175330
910.301	0.0175267
910.379	0.0174834
910.457	0.0174665
910.535	0.0173548
910.613	0.0173583
910.692	0.0173909
910.770	0.0171679
910.848	0.0172710
910.926	0.0173353
911.004	0.0172953
911.082	0.0173631
911.160	0.0172925
911.238	0.0173190
911.317	0.0173682
911.395	0.0171916
911.473	0.0173277
911.551	0.0173399
911.629	0.0174866
911.707	0.0174688
911.785	0.0173450
911.863	0.0173026
911.942	0.0172925
912.020	0.0175160
912.098	0.0173970
912.176	0.0171792
912.254	0.0173291
912.332	0.0173976
912.410	0.0173110
912.488	0.0174890
912.567	0.0175513
912.645	0.0174329
912.723	0.0175823
912.801	0.0176209
912.879	0.0174630
912.957	0.0176590
913.035	0.0176277
913.113	0.0175658
913.192	0.0176472
913.270	0.0175210
913.348	0.0177029
913.426	0.0176719
913.504	0.0176880
913.582	0.0176329
913.660	0.0177143
913.738	0.0176239
913.817	0.0175486
913.895	0.0176287
913.973	0.0176334
914.051	0.0175566
914.129	0.0175396
914.207	0.0177754
914.285	0.0175747
914.363	0.0175024
914.442	0.0175227
914.520	0.0176378
914.598	0.0175843
914.676	0.0174895
914.754	0.0174686
914.832	0.0174109
914.910	0.0176621
914.988	0.0175870
915.067	0.0175391
915.145	0.0175504
915.223	0.0176112
915.301	0.0175342
915.379	0.0176623
915.457	0.0174682
915.535	0.0174300
915.613	0.0175832
915.692	0.0174008
915.770	0.0175585
915.848	0.0176449
915.926	0.0175009
916.004	0.0173806
916.082	0.0173693
916.160	0.0173566
916.238	0.0174845
916.317	0.0175205
916.395	0.0173185
916.473	0.0173016
916.551	0.0173891
916.629	0.0173835
916.707	0.0174728
916.785	0.0173101
916.863	0.0174623
916.942	0.0174089
917.020	0.0174492
917.098	0.0174282
917.176	0.0174940
917.254	0.0173723
917.332	0.0173788
917.410	0.0175185
917.488	0.0175436
917.567	0.0175765
917.645	0.0175757
917.723	0.0175828
917.801	0.0176454
917.879	0.0175699
917.957	0.0174333
918.035	0.0175556
918.113	0.0175753
918.192	0.0176151
918.270	0.0176758
918.348	0.0176817
918.426	0.0176666
918.504	0.0173927
918.582	0.0177357
918.660	0.0176286
918.738	0.0176180
918.817	0.0176259
918.895	0.0174737
918.973	0.0174776
919.051	0.0176553
919.129	0.0175929
919.207	0.0175376
919.285	0.0175269
919.363	0.0175004
919.442	0.0174474
919.520	0.0175813
919.598	0.0175836
919.676	0.0174183
919.754	0.0175824
919.832	0.0175534
919.910	0.0175433
