06/01/2022	22:08:54	Ver.	4.1	UNKNOWN
Optical Delay	599.988409	Delta X		0.078125	Sweeps	1	Scan Rate	0/0
Coordinates	Axis 1	NaN	Axis 2	NaN	Axis 3	NaN	Axis 4	NaN	Axis 5	NaN	Axis 6	0.000000
TX Power	0.000000	RX Power	0.000000

599.988	0.0176316
600.067	0.0177602
600.145	0.0176209
600.223	0.0175431
600.301	0.0176412
600.379	0.0175599
600.457	0.0176641
600.535	0.0177777
600.613	0.0177233
600.692	0.0176183
600.770	0.0177574
600.848	0.0177491
600.926	0.0177834
601.004	0.0177618
601.082	0.0176688
601.160	0.0175095
601.238	0.0176654
601.317	0.0176700
601.395	0.0176287
601.473	0.0178049
601.551	0.0175796
601.629	0.0177212
601.707	0.0176280
601.785	0.0176640
601.863	0.0176015
601.942	0.0176296
602.020	0.0176057
602.098	0.0177917
602.176	0.0176776
602.254	0.0176816
602.332	0.0175607
602.410	0.0177636
602.488	0.0176797
602.567	0.0177318
602.645	0.0176402
602.723	0.0177817
602.801	0.0177003
602.879	0.0175350
602.957	0.0177167
603.035	0.0177704
603.113	0.0177324
603.192	0.0177003
603.270	0.0176031
603.348	0.0176412
603.426	0.0176835
603.504	0.0175992
603.582	0.0177639
603.660	0.0178047
603.738	0.0177260
603.817	0.0177574
603.895	0.0176115
603.973	0.0177156
604.051	0.0178301
604.129	0.0177630
604.207	0.0177576
604.285	0.0176251
604.363	0.0177822
604.442	0.0177132
604.520	0.0177376
604.598	0.0178612
604.676	0.0176661
604.754	0.0177602
604.832	0.0177440
604.910	0.0177696
604.988	0.0176664
605.067	0.0176148
605.145	0.0177851
605.223	0.0176723
605.301	0.0175597
605.379	0.0176001
605.457	0.0176656
605.535	0.0177122
605.613	0.0176726
605.692	0.0176397
605.770	0.0176929
605.848	0.0177683
605.926	0.0175859
606.004	0.0175638
606.082	0.0177222
606.160	0.0175581
606.238	0.0175889
606.317	0.0176835
606.395	0.0174966
606.473	0.0176122
606.551	0.0176436
606.629	0.0177068
606.707	0.0176866
606.785	0.0175900
606.863	0.0176266
606.942	0.0175611
607.020	0.0174918
607.098	0.0176511
607.176	0.0176220
607.254	0.0174361
607.332	0.0176295
607.410	0.0175587
607.488	0.0174309
607.567	0.0175664
607.645	0.0175709
607.723	0.0174893
607.801	0.0174032
607.879	0.0174648
607.957	0.0176100
608.035	0.0176756
608.113	0.0174941
608.192	0.0174212
608.270	0.0176028
608.348	0.0176185
608.426	0.0175948
608.504	0.0175170
608.582	0.0176392
608.660	0.0174796
608.738	0.0174999
608.817	0.0175192
608.895	0.0175053
608.973	0.0175077
609.051	0.0175083
609.129	0.0174131
609.207	0.0174078
609.285	0.0176360
609.363	0.0175661
609.442	0.0175857
609.520	0.0174830
609.598	0.0174852
609.676	0.0175557
609.754	0.0175066
609.832	0.0174386
609.910	0.0175029
609.988	0.0177020
610.067	0.0175050
610.145	0.0174319
610.223	0.0174913
610.301	0.0175419
610.379	0.0175338
610.457	0.0175700
610.535	0.0175121
610.613	0.0176202
610.692	0.0174917
610.770	0.0175277
610.848	0.0175356
610.926	0.0174262
611.004	0.0175177
611.082	0.0174219
611.160	0.0174913
611.238	0.0176054
611.317	0.0174683
611.395	0.0174487
611.473	0.0174779
611.551	0.0175153
611.629	0.0175900
611.707	0.0176333
611.785	0.0176842
611.863	0.0176038
611.942	0.0176295
612.020	0.0175462
612.098	0.0175390
612.176	0.0176125
612.254	0.0175193
612.332	0.0176991
612.410	0.0176585
612.488	0.0175740
612.567	0.0175294
612.645	0.0175726
612.723	0.0175016
612.801	0.0176401
612.879	0.0175451
612.957	0.0174663
613.035	0.0176159
613.113	0.0176082
613.192	0.0175912
613.270	0.0175874
613.348	0.0175412
613.426	0.0174665
613.504	0.0174879
613.582	0.0173869
613.660	0.0174101
613.738	0.0174072
613.817	0.0174642
613.895	0.0174709
613.973	0.0174583
614.051	0.0175921
614.129	0.0175248
614.207	0.0174623
614.285	0.0174625
614.363	0.0174757
614.442	0.0174967
614.520	0.0174098
614.598	0.0173985
614.676	0.0174824
614.754	0.0175986
614.832	0.0174046
614.910	0.0174455
614.988	0.0175063
615.067	0.0174379
615.145	0.0173353
615.223	0.0173866
615.301	0.0175930
615.379	0.0174426
615.457	0.0174029
615.535	0.0174419
615.613	0.0174018
615.692	0.0172525
615.770	0.0173099
615.848	0.0173491
615.926	0.0173082
616.004	0.0174477
616.082	0.0174294
616.160	0.0172849
616.238	0.0174616
616.317	0.0175149
616.395	0.0174001
616.473	0.0174448
616.551	0.0174151
616.629	0.0175002
616.707	0.0173143
616.785	0.0173792
616.863	0.0173680
616.942	0.0173903
617.020	0.0172400
617.098	0.0173833
617.176	0.0173795
617.254	0.0174026
617.332	0.0174989
617.410	0.0173831
617.488	0.0174010
617.567	0.0174191
617.645	0.0175551
617.723	0.0175161
617.801	0.0175582
617.879	0.0176078
617.957	0.0175005
618.035	0.0175267
618.113	0.0174792
618.192	0.0175535
618.270	0.0174574
618.348	0.0175779
618.426	0.0176977
618.504	0.0176232
618.582	0.0173914
618.660	0.0175523
618.738	0.0175639
618.817	0.0175494
618.895	0.0175211
618.973	0.0175510
619.051	0.0175153
619.129	0.0175169
619.207	0.0174583
619.285	0.0175246
619.363	0.0176402
619.442	0.0175949
619.520	0.0175072
619.598	0.0175336
619.676	0.0176192
619.754	0.0175100
619.832	0.0177217
619.910	0.0176054
619.988	0.0175820
620.067	0.0176208
620.145	0.0176797
620.223	0.0175488
620.301	0.0174837
620.379	0.0177482
620.457	0.0177626
620.535	0.0177081
620.613	0.0176958
620.692	0.0175358
620.770	0.0176349
620.848	0.0175137
620.926	0.0175313
621.004	0.0176247
621.082	0.0175900
621.160	0.0175114
621.238	0.0176085
621.317	0.0175166
621.395	0.0176197
621.473	0.0176814
621.551	0.0174721
621.629	0.0175715
621.707	0.0175674
621.785	0.0175159
621.863	0.0175517
621.942	0.0176560
622.020	0.0176249
622.098	0.0177914
622.176	0.0175576
622.254	0.0174464
622.332	0.0177103
622.410	0.0176180
622.488	0.0176501
622.567	0.0174788
622.645	0.0174819
622.723	0.0176385
622.801	0.0175314
622.879	0.0175858
622.957	0.0175476
623.035	0.0174664
623.113	0.0176094
623.192	0.0175357
623.270	0.0176198
623.348	0.0175580
623.426	0.0175245
623.504	0.0174395
623.582	0.0174206
623.660	0.0176955
623.738	0.0177238
623.817	0.0176393
623.895	0.0175953
623.973	0.0176057
624.051	0.0175683
624.129	0.0176614
624.207	0.0175603
624.285	0.0177292
624.363	0.0176270
624.442	0.0175304
624.520	0.0176286
624.598	0.0176706
624.676	0.0175352
624.754	0.0175137
624.832	0.0176731
624.910	0.0175883
624.988	0.0175092
625.067	0.0176227
625.145	0.0174630
625.223	0.0175839
625.301	0.0176392
625.379	0.0175606
625.457	0.0176347
625.535	0.0177394
625.613	0.0175531
625.692	0.0176323
625.770	0.0176355
625.848	0.0176048
625.926	0.0176274
626.004	0.0176288
626.082	0.0176780
626.160	0.0177943
626.238	0.0176604
626.317	0.0176553
626.395	0.0176580
626.473	0.0177378
626.551	0.0176738
626.629	0.0176601
626.707	0.0177238
626.785	0.0177235
626.863	0.0177218
626.942	0.0177603
627.020	0.0176729
627.098	0.0176851
627.176	0.0177277
627.254	0.0177383
627.332	0.0175877
627.410	0.0174998
627.488	0.0177242
627.567	0.0177090
627.645	0.0176883
627.723	0.0176831
627.801	0.0177928
627.879	0.0175407
627.957	0.0175744
628.035	0.0175590
628.113	0.0176943
628.192	0.0176096
628.270	0.0175247
628.348	0.0177802
628.426	0.0176790
628.504	0.0176541
628.582	0.0176802
628.660	0.0176715
628.738	0.0177445
628.817	0.0176327
628.895	0.0176228
628.973	0.0176186
629.051	0.0175999
629.129	0.0174644
629.207	0.0177379
629.285	0.0175954
629.363	0.0176112
629.442	0.0175371
629.520	0.0175653
629.598	0.0175340
629.676	0.0176667
629.754	0.0176334
629.832	0.0175579
629.910	0.0175980
629.988	0.0175300
630.067	0.0174572
630.145	0.0176491
630.223	0.0175728
630.301	0.0176498
630.379	0.0176704
630.457	0.0175744
630.535	0.0175429
630.613	0.0174366
630.692	0.0174666
630.770	0.0175609
630.848	0.0175661
630.926	0.0174873
631.004	0.0175891
631.082	0.0175730
631.160	0.0175446
631.238	0.0175334
631.317	0.0176022
631.395	0.0176048
631.473	0.0175867
631.551	0.0174506
631.629	0.0175314
631.707	0.0175203
631.785	0.0175022
631.863	0.0175581
631.942	0.0174091
632.020	0.0175916
632.098	0.0176041
632.176	0.0174809
632.254	0.0174935
632.332	0.0175806
632.410	0.0175224
632.488	0.0174850
632.567	0.0175364
632.645	0.0174784
632.723	0.0176006
632.801	0.0175559
632.879	0.0176217
632.957	0.0176416
633.035	0.0176250
633.113	0.0175771
633.192	0.0175629
633.270	0.0176783
633.348	0.0176486
633.426	0.0176086
633.504	0.0175150
633.582	0.0176022
633.660	0.0175266
633.738	0.0174963
633.817	0.0175509
633.895	0.0174046
633.973	0.0174409
634.051	0.0175826
634.129	0.0174062
634.207	0.0175409
634.285	0.0174665
634.363	0.0175134
634.442	0.0174992
634.520	0.0174293
634.598	0.0175034
634.676	0.0174712
634.754	0.0174178
634.832	0.0174428
634.910	0.0174487
634.988	0.0175526
635.067	0.0176447
635.145	0.0175663
635.223	0.0175456
635.301	0.0174038
635.379	0.0175613
635.457	0.0177120
635.535	0.0175706
635.613	0.0175141
635.692	0.0175668
635.770	0.0176120
635.848	0.0175053
635.926	0.0175798
636.004	0.0176231
636.082	0.0176004
636.160	0.0176243
636.238	0.0176613
636.317	0.0175719
636.395	0.0175073
636.473	0.0176730
636.551	0.0175635
636.629	0.0176122
636.707	0.0175520
636.785	0.0175980
636.863	0.0177190
636.942	0.0174972
637.020	0.0175451
637.098	0.0174714
637.176	0.0174995
637.254	0.0176128
637.332	0.0174190
637.410	0.0175967
637.488	0.0176006
637.567	0.0175625
637.645	0.0174661
637.723	0.0176216
637.801	0.0175446
637.879	0.0176213
637.957	0.0175600
638.035	0.0175976
638.113	0.0176507
638.192	0.0175494
638.270	0.0175552
638.348	0.0176146
638.426	0.0176522
638.504	0.0177331
638.582	0.0176630
638.660	0.0175516
638.738	0.0175598
638.817	0.0177078
638.895	0.0176337
638.973	0.0176440
639.051	0.0176265
639.129	0.0176283
639.207	0.0175999
639.285	0.0175308
639.363	0.0176440
639.442	0.0176327
639.520	0.0177837
639.598	0.0176324
639.676	0.0175402
639.754	0.0175704
639.832	0.0176697
639.910	0.0175712
639.988	0.0176613
640.067	0.0175546
640.145	0.0175481
640.223	0.0175266
640.301	0.0176336
640.379	0.0175346
640.457	0.0177933
640.535	0.0177083
640.613	0.0174407
640.692	0.0177297
640.770	0.0177242
640.848	0.0176962
640.926	0.0175786
641.004	0.0175879
641.082	0.0176824
641.160	0.0176132
641.238	0.0176263
641.317	0.0176977
641.395	0.0176860
641.473	0.0177959
641.551	0.0177338
641.629	0.0176147
641.707	0.0177130
641.785	0.0176495
641.863	0.0177003
641.942	0.0177649
642.020	0.0178220
642.098	0.0176866
642.176	0.0177134
642.254	0.0175957
642.332	0.0176952
642.410	0.0177178
642.488	0.0176083
642.567	0.0176444
642.645	0.0178234
642.723	0.0176612
642.801	0.0176444
642.879	0.0176654
642.957	0.0176495
643.035	0.0176369
643.113	0.0178776
643.192	0.0176561
643.270	0.0177159
643.348	0.0175615
643.426	0.0174972
643.504	0.0176695
643.582	0.0176807
643.660	0.0174956
643.738	0.0175138
643.817	0.0176266
643.895	0.0175480
643.973	0.0176967
644.051	0.0176688
644.129	0.0175894
644.207	0.0177001
644.285	0.0177671
644.363	0.0176957
644.442	0.0175746
644.520	0.0176201
644.598	0.0178149
644.676	0.0178735
644.754	0.0178336
644.832	0.0177260
644.910	0.0176582
644.988	0.0179248
645.067	0.0178129
645.145	0.0177769
645.223	0.0178001
645.301	0.0177111
645.379	0.0177470
645.457	0.0177312
645.535	0.0178880
645.613	0.0178275
645.692	0.0176491
645.770	0.0177177
645.848	0.0177303
645.926	0.0176745
646.004	0.0176540
646.082	0.0175102
646.160	0.0177147
646.238	0.0177722
646.317	0.0175694
646.395	0.0176327
646.473	0.0177250
646.551	0.0175558
646.629	0.0176614
646.707	0.0177007
646.785	0.0175770
646.863	0.0175510
646.942	0.0177101
647.020	0.0176019
647.098	0.0176377
647.176	0.0177261
647.254	0.0177348
647.332	0.0178706
647.410	0.0176720
647.488	0.0177972
647.567	0.0178723
647.645	0.0176909
647.723	0.0177882
647.801	0.0178804
647.879	0.0178234
647.957	0.0178033
648.035	0.0179076
648.113	0.0178421
648.192	0.0178586
648.270	0.0179229
648.348	0.0177660
648.426	0.0178615
648.504	0.0176781
648.582	0.0177967
648.660	0.0178290
648.738	0.0178465
648.817	0.0176599
648.895	0.0177513
648.973	0.0177621
649.051	0.0176096
649.129	0.0176501
649.207	0.0175480
649.285	0.0176724
649.363	0.0176701
649.442	0.0176691
649.520	0.0176974
649.598	0.0176174
649.676	0.0175310
649.754	0.0174442
649.832	0.0175467
649.910	0.0175434
649.988	0.0175854
650.067	0.0176044
650.145	0.0174637
650.223	0.0174121
650.301	0.0175261
650.379	0.0174856
650.457	0.0175884
650.535	0.0175903
650.613	0.0173997
650.692	0.0174287
650.770	0.0174049
650.848	0.0176719
650.926	0.0175024
651.004	0.0175946
651.082	0.0174926
651.160	0.0176130
651.238	0.0176193
651.317	0.0175470
651.395	0.0175974
651.473	0.0176426
651.551	0.0175109
651.629	0.0176234
651.707	0.0176333
651.785	0.0175667
651.863	0.0175674
651.942	0.0177125
652.020	0.0174956
652.098	0.0175434
652.176	0.0175666
652.254	0.0176788
652.332	0.0176384
652.410	0.0176858
652.488	0.0177642
652.567	0.0175093
652.645	0.0175781
652.723	0.0176353
652.801	0.0177087
652.879	0.0174846
652.957	0.0176015
653.035	0.0175115
653.113	0.0176375
653.192	0.0174190
653.270	0.0175770
653.348	0.0176778
653.426	0.0175229
653.504	0.0174957
653.582	0.0175835
653.660	0.0174970
653.738	0.0175402
653.817	0.0175065
653.895	0.0174651
653.973	0.0174836
654.051	0.0174281
654.129	0.0174683
654.207	0.0173827
654.285	0.0173405
654.363	0.0174317
654.442	0.0175251
654.520	0.0173981
654.598	0.0172938
654.676	0.0173497
654.754	0.0174206
654.832	0.0174738
654.910	0.0176476
654.988	0.0174466
655.067	0.0174612
655.145	0.0175000
655.223	0.0174609
655.301	0.0174898
655.379	0.0176069
655.457	0.0174592
655.535	0.0176352
655.613	0.0175867
655.692	0.0175237
655.770	0.0176031
655.848	0.0177621
655.926	0.0174854
656.004	0.0175815
656.082	0.0176771
656.160	0.0175829
656.238	0.0176516
656.317	0.0177073
656.395	0.0176145
656.473	0.0175166
656.551	0.0177848
656.629	0.0176942
656.707	0.0176566
656.785	0.0175287
656.863	0.0177223
656.942	0.0175650
657.020	0.0176077
657.098	0.0176025
657.176	0.0176334
657.254	0.0176035
657.332	0.0176408
657.410	0.0174911
657.488	0.0175784
657.567	0.0176350
657.645	0.0176463
657.723	0.0177667
657.801	0.0176018
657.879	0.0175311
657.957	0.0175488
658.035	0.0175594
658.113	0.0176329
658.192	0.0175435
658.270	0.0177061
658.348	0.0176886
658.426	0.0175758
658.504	0.0177006
658.582	0.0177878
658.660	0.0177746
658.738	0.0176989
658.817	0.0177114
658.895	0.0176153
658.973	0.0176978
659.051	0.0177153
659.129	0.0177175
659.207	0.0176285
659.285	0.0175871
659.363	0.0175366
659.442	0.0175666
659.520	0.0176509
659.598	0.0175610
659.676	0.0176261
659.754	0.0176671
659.832	0.0175594
659.910	0.0175817
659.988	0.0175497
660.067	0.0177305
660.145	0.0175336
660.223	0.0175959
660.301	0.0173151
660.379	0.0176408
660.457	0.0177707
660.535	0.0176917
660.613	0.0175987
660.692	0.0175365
660.770	0.0177796
660.848	0.0176958
660.926	0.0176702
661.004	0.0176587
661.082	0.0177879
661.160	0.0176533
661.238	0.0176176
661.317	0.0176967
661.395	0.0176488
661.473	0.0176224
661.551	0.0176690
661.629	0.0176888
661.707	0.0176731
661.785	0.0175220
661.863	0.0175642
661.942	0.0176651
662.020	0.0176556
662.098	0.0176311
662.176	0.0175658
662.254	0.0176872
662.332	0.0177344
662.410	0.0177541
662.488	0.0178155
662.567	0.0177002
662.645	0.0176624
662.723	0.0177602
662.801	0.0178716
662.879	0.0177362
662.957	0.0177564
663.035	0.0177608
663.113	0.0176274
663.192	0.0176381
663.270	0.0177691
663.348	0.0176768
663.426	0.0176345
663.504	0.0177338
663.582	0.0176164
663.660	0.0174828
663.738	0.0177135
663.817	0.0176066
663.895	0.0176414
663.973	0.0176360
664.051	0.0176392
664.129	0.0176334
664.207	0.0176637
664.285	0.0174961
664.363	0.0175343
664.442	0.0176163
664.520	0.0175278
664.598	0.0175988
664.676	0.0175482
664.754	0.0173648
664.832	0.0175083
664.910	0.0176150
664.988	0.0176023
665.067	0.0175273
665.145	0.0175919
665.223	0.0175928
665.301	0.0175710
665.379	0.0175771
665.457	0.0175366
665.535	0.0176497
665.613	0.0176020
665.692	0.0175819
665.770	0.0177441
665.848	0.0176483
665.926	0.0175807
666.004	0.0175966
666.082	0.0176391
666.160	0.0176979
666.238	0.0175936
666.317	0.0178079
666.395	0.0177557
666.473	0.0176724
666.551	0.0176481
666.629	0.0178341
666.707	0.0178034
666.785	0.0179167
666.863	0.0179298
666.942	0.0179636
667.020	0.0179556
667.098	0.0178068
667.176	0.0178576
667.254	0.0179131
667.332	0.0180128
667.410	0.0179003
667.488	0.0178648
667.567	0.0179108
667.645	0.0179303
667.723	0.0177619
667.801	0.0179969
667.879	0.0178498
667.957	0.0177508
668.035	0.0177931
668.113	0.0177155
668.192	0.0176598
668.270	0.0175396
668.348	0.0175728
668.426	0.0176836
668.504	0.0177084
668.582	0.0176525
668.660	0.0176742
668.738	0.0175532
668.817	0.0176417
668.895	0.0176364
668.973	0.0175806
669.051	0.0176798
669.129	0.0176329
669.207	0.0176690
669.285	0.0176294
669.363	0.0177052
669.442	0.0176684
669.520	0.0176048
669.598	0.0177206
669.676	0.0178063
669.754	0.0178397
669.832	0.0176853
669.910	0.0177191
669.988	0.0176991
670.067	0.0177596
670.145	0.0177128
670.223	0.0176812
670.301	0.0175723
670.379	0.0176372
670.457	0.0176485
670.535	0.0175690
670.613	0.0175285
670.692	0.0175956
670.770	0.0175110
670.848	0.0177099
670.926	0.0175024
671.004	0.0175305
671.082	0.0176129
671.160	0.0176855
671.238	0.0175063
671.317	0.0176545
671.395	0.0175803
671.473	0.0175468
671.551	0.0177568
671.629	0.0176653
671.707	0.0176512
671.785	0.0177088
671.863	0.0177339
671.942	0.0178636
672.020	0.0176807
672.098	0.0175710
672.176	0.0176007
672.254	0.0176007
672.332	0.0175597
672.410	0.0176353
672.488	0.0175212
672.567	0.0175718
672.645	0.0175062
672.723	0.0175116
672.801	0.0174062
672.879	0.0173861
672.957	0.0174135
673.035	0.0173462
673.113	0.0172796
673.192	0.0174670
673.270	0.0173856
673.348	0.0173682
673.426	0.0174178
673.504	0.0174147
673.582	0.0175678
673.660	0.0176009
673.738	0.0176867
673.817	0.0176160
673.895	0.0175960
673.973	0.0176884
674.051	0.0177551
674.129	0.0177563
674.207	0.0177752
674.285	0.0176702
674.363	0.0176771
674.442	0.0177628
674.520	0.0177018
674.598	0.0176279
674.676	0.0176141
674.754	0.0176345
674.832	0.0175243
674.910	0.0174436
674.988	0.0173315
675.067	0.0174099
675.145	0.0172709
675.223	0.0172927
675.301	0.0173542
675.379	0.0173387
675.457	0.0173678
675.535	0.0173002
675.613	0.0172241
675.692	0.0173000
675.770	0.0174354
675.848	0.0175191
675.926	0.0174644
676.004	0.0176187
676.082	0.0176424
676.160	0.0177708
676.238	0.0175700
676.317	0.0176786
676.395	0.0178140
676.473	0.0177713
676.551	0.0179267
676.629	0.0177940
676.707	0.0177296
676.785	0.0177262
676.863	0.0178583
676.942	0.0177301
677.020	0.0176818
677.098	0.0175931
677.176	0.0176022
677.254	0.0177786
677.332	0.0176031
677.410	0.0176443
677.488	0.0175581
677.567	0.0176165
677.645	0.0176797
677.723	0.0177966
677.801	0.0176965
677.879	0.0177773
677.957	0.0177522
678.035	0.0177366
678.113	0.0177708
678.192	0.0179070
678.270	0.0179868
678.348	0.0179527
678.426	0.0178432
678.504	0.0178412
678.582	0.0179517
678.660	0.0179476
678.738	0.0177538
678.817	0.0178810
678.895	0.0177637
678.973	0.0176712
679.051	0.0177543
679.129	0.0177736
679.207	0.0176284
679.285	0.0175380
679.363	0.0175070
679.442	0.0174295
679.520	0.0175617
679.598	0.0176175
679.676	0.0174214
679.754	0.0175628
679.832	0.0175159
679.910	0.0174754
679.988	0.0175148
680.067	0.0176338
680.145	0.0175803
680.223	0.0176776
680.301	0.0175090
680.379	0.0174469
680.457	0.0176288
680.535	0.0176884
680.613	0.0176191
680.692	0.0176884
680.770	0.0176835
680.848	0.0175505
680.926	0.0175983
681.004	0.0175156
681.082	0.0175949
681.160	0.0179208
681.238	0.0177435
681.317	0.0178094
681.395	0.0179952
681.473	0.0179444
681.551	0.0178994
681.629	0.0178947
681.707	0.0180019
681.785	0.0180336
681.863	0.0179431
681.942	0.0179034
682.020	0.0178590
682.098	0.0178324
682.176	0.0178201
682.254	0.0177570
682.332	0.0177038
682.410	0.0175260
682.488	0.0175589
682.567	0.0173949
682.645	0.0173219
682.723	0.0172693
682.801	0.0172112
682.879	0.0171640
682.957	0.0170516
683.035	0.0170009
683.113	0.0170383
683.192	0.0170175
683.270	0.0171214
683.348	0.0170662
683.426	0.0170933
683.504	0.0171278
683.582	0.0172401
683.660	0.0173574
683.738	0.0174221
683.817	0.0173370
683.895	0.0174638
683.973	0.0175713
684.051	0.0175747
684.129	0.0176719
684.207	0.0178651
684.285	0.0179212
684.363	0.0179942
684.442	0.0181183
684.520	0.0180926
684.598	0.0181998
684.676	0.0182753
684.754	0.0182423
684.832	0.0181619
684.910	0.0179706
684.988	0.0180554
685.067	0.0179519
685.145	0.0178144
685.223	0.0179166
685.301	0.0178005
685.379	0.0175687
685.457	0.0176710
685.535	0.0175548
685.613	0.0175017
685.692	0.0173392
685.770	0.0172872
685.848	0.0172369
685.926	0.0172291
686.004	0.0171249
686.082	0.0170292
686.160	0.0169999
686.238	0.0169740
686.317	0.0170304
686.395	0.0170709
686.473	0.0169304
686.551	0.0170110
686.629	0.0171788
686.707	0.0171243
686.785	0.0173277
686.863	0.0172474
686.942	0.0173695
687.020	0.0173402
687.098	0.0175590
687.176	0.0176147
687.254	0.0177007
687.332	0.0176676
687.410	0.0177412
687.488	0.0179257
687.567	0.0180034
687.645	0.0179614
687.723	0.0181409
687.801	0.0180538
687.879	0.0179819
687.957	0.0182664
688.035	0.0182393
688.113	0.0183848
688.192	0.0184557
688.270	0.0182925
688.348	0.0181988
688.426	0.0182126
688.504	0.0181258
688.582	0.0180342
688.660	0.0180092
688.738	0.0179322
688.817	0.0177892
688.895	0.0177946
688.973	0.0175244
689.051	0.0175047
689.129	0.0174067
689.207	0.0172823
689.285	0.0170934
689.363	0.0170114
689.442	0.0168357
689.520	0.0169130
689.598	0.0167450
689.676	0.0168214
689.754	0.0167960
689.832	0.0167276
689.910	0.0168375
689.988	0.0167520
690.067	0.0167767
690.145	0.0168044
690.223	0.0168496
690.301	0.0170668
690.379	0.0171156
690.457	0.0172112
690.535	0.0172943
690.613	0.0174757
690.692	0.0176492
690.770	0.0176765
690.848	0.0176551
690.926	0.0178498
691.004	0.0179455
691.082	0.0180245
691.160	0.0180186
691.238	0.0180554
691.317	0.0181747
691.395	0.0182317
691.473	0.0183001
691.551	0.0182944
691.629	0.0183267
691.707	0.0182955
691.785	0.0182191
691.863	0.0181714
691.942	0.0181547
692.020	0.0180843
692.098	0.0181042
692.176	0.0181104
692.254	0.0181432
692.332	0.0181598
692.410	0.0180307
692.488	0.0179604
692.567	0.0178992
692.645	0.0178433
692.723	0.0179583
692.801	0.0177828
692.879	0.0178355
692.957	0.0177404
693.035	0.0176316
693.113	0.0176504
693.192	0.0175534
693.270	0.0175520
693.348	0.0176495
693.426	0.0174745
693.504	0.0173691
693.582	0.0174738
693.660	0.0172978
693.738	0.0172557
693.817	0.0171812
693.895	0.0172441
693.973	0.0170979
694.051	0.0170957
694.129	0.0171864
694.207	0.0170314
694.285	0.0170115
694.363	0.0170799
694.442	0.0170336
694.520	0.0168893
694.598	0.0169435
694.676	0.0168455
694.754	0.0170355
694.832	0.0169406
694.910	0.0169234
694.988	0.0169429
695.067	0.0170120
695.145	0.0171301
695.223	0.0170015
695.301	0.0170898
695.379	0.0170418
695.457	0.0170803
695.535	0.0170965
695.613	0.0172469
695.692	0.0173360
695.770	0.0173571
695.848	0.0172709
695.926	0.0173936
696.004	0.0175969
696.082	0.0176967
696.160	0.0177326
696.238	0.0177540
696.317	0.0178904
696.395	0.0181577
696.473	0.0181805
696.551	0.0183112
696.629	0.0182937
696.707	0.0185266
696.785	0.0184230
696.863	0.0184033
696.942	0.0186697
697.020	0.0188171
697.098	0.0188926
697.176	0.0188749
697.254	0.0187724
697.332	0.0190144
697.410	0.0190144
697.488	0.0189388
697.567	0.0189286
697.645	0.0189610
697.723	0.0187746
697.801	0.0186961
697.879	0.0185239
697.957	0.0183150
698.035	0.0181939
698.113	0.0179736
698.192	0.0176694
698.270	0.0176028
698.348	0.0174696
698.426	0.0172280
698.504	0.0169806
698.582	0.0166624
698.660	0.0164747
698.738	0.0164629
698.817	0.0163515
698.895	0.0161401
698.973	0.0161101
699.051	0.0161674
699.129	0.0159779
699.207	0.0160528
699.285	0.0160729
699.363	0.0161687
699.442	0.0161416
699.520	0.0162572
699.598	0.0161156
699.676	0.0162824
699.754	0.0163945
699.832	0.0165652
699.910	0.0168083
699.988	0.0169022
700.067	0.0169414
700.145	0.0171201
700.223	0.0173225
700.301	0.0174843
700.379	0.0174498
700.457	0.0176387
700.535	0.0177648
700.613	0.0178963
700.692	0.0181417
700.770	0.0181490
700.848	0.0183036
700.926	0.0183488
701.004	0.0184975
701.082	0.0185956
701.160	0.0186108
701.238	0.0188112
701.317	0.0188643
701.395	0.0188482
701.473	0.0189484
701.551	0.0189511
701.629	0.0189057
701.707	0.0188854
701.785	0.0188450
701.863	0.0187636
701.942	0.0187842
702.020	0.0187067
702.098	0.0186829
702.176	0.0184711
702.254	0.0185945
702.332	0.0184190
702.410	0.0184631
702.488	0.0182395
702.567	0.0180814
702.645	0.0181825
702.723	0.0180270
702.801	0.0179169
702.879	0.0178467
702.957	0.0177342
703.035	0.0176730
703.113	0.0175112
703.192	0.0174661
703.270	0.0174685
703.348	0.0171265
703.426	0.0170802
703.504	0.0170346
703.582	0.0169094
703.660	0.0166698
703.738	0.0166138
703.817	0.0166942
703.895	0.0163665
703.973	0.0162886
704.051	0.0165121
704.129	0.0163990
704.207	0.0162228
704.285	0.0162740
704.363	0.0163469
704.442	0.0163591
704.520	0.0163432
704.598	0.0162913
704.676	0.0164675
704.754	0.0163116
704.832	0.0164641
704.910	0.0165062
704.988	0.0167625
705.067	0.0168669
705.145	0.0167989
705.223	0.0169587
705.301	0.0172798
705.379	0.0172581
705.457	0.0173463
705.535	0.0173238
705.613	0.0175749
705.692	0.0176930
705.770	0.0178973
705.848	0.0180428
705.926	0.0181640
706.004	0.0183598
706.082	0.0184914
706.160	0.0187811
706.238	0.0186588
706.317	0.0188040
706.395	0.0188779
706.473	0.0191039
706.551	0.0189991
706.629	0.0189534
706.707	0.0191618
706.785	0.0191817
706.863	0.0190610
706.942	0.0189259
707.020	0.0188711
707.098	0.0188486
707.176	0.0186411
707.254	0.0185064
707.332	0.0183143
707.410	0.0180810
707.488	0.0182121
707.567	0.0179503
707.645	0.0179298
707.723	0.0178217
707.801	0.0179733
707.879	0.0177628
707.957	0.0175599
708.035	0.0176049
708.113	0.0176859
708.192	0.0175832
708.270	0.0177015
708.348	0.0175598
708.426	0.0177509
708.504	0.0176445
708.582	0.0176292
708.660	0.0174790
708.738	0.0173560
708.817	0.0174851
708.895	0.0173301
708.973	0.0171854
709.051	0.0171453
709.129	0.0170041
709.207	0.0169212
709.285	0.0168366
709.363	0.0164993
709.442	0.0164493
709.520	0.0163468
709.598	0.0163720
709.676	0.0162599
709.754	0.0162901
709.832	0.0163651
709.910	0.0163976
709.988	0.0164654
710.067	0.0166566
710.145	0.0166103
710.223	0.0166041
710.301	0.0168656
710.379	0.0168123
710.457	0.0168303
710.535	0.0170033
710.613	0.0170967
710.692	0.0172121
710.770	0.0171113
710.848	0.0172110
710.926	0.0172367
711.004	0.0174004
711.082	0.0174693
711.160	0.0175481
711.238	0.0176782
711.317	0.0177200
711.395	0.0179073
711.473	0.0178855
711.551	0.0180782
711.629	0.0181702
711.707	0.0185065
711.785	0.0186346
711.863	0.0185468
711.942	0.0187318
712.020	0.0188566
712.098	0.0190163
712.176	0.0189243
712.254	0.0190588
712.332	0.0190854
712.410	0.0190691
712.488	0.0189662
712.567	0.0190994
712.645	0.0189199
712.723	0.0189120
712.801	0.0187552
712.879	0.0185634
712.957	0.0183378
713.035	0.0180240
713.113	0.0179819
713.192	0.0180770
713.270	0.0176488
713.348	0.0175549
713.426	0.0176431
713.504	0.0171747
713.582	0.0172079
713.660	0.0172061
713.738	0.0170908
713.817	0.0169608
713.895	0.0168793
713.973	0.0168945
714.051	0.0166557
714.129	0.0167102
714.207	0.0167877
714.285	0.0168053
714.363	0.0167736
714.442	0.0166734
714.520	0.0168018
714.598	0.0167711
714.676	0.0167100
714.754	0.0166892
714.832	0.0167264
714.910	0.0166048
714.988	0.0167130
715.067	0.0167601
715.145	0.0167319
715.223	0.0166951
715.301	0.0166839
715.379	0.0166826
715.457	0.0168073
715.535	0.0167612
715.613	0.0168018
715.692	0.0169827
715.770	0.0170889
715.848	0.0172042
715.926	0.0173135
716.004	0.0173696
716.082	0.0173438
716.160	0.0174679
716.238	0.0177543
716.317	0.0177729
716.395	0.0178371
716.473	0.0179145
716.551	0.0179087
716.629	0.0181147
716.707	0.0181519
716.785	0.0182461
716.863	0.0183294
716.942	0.0183668
717.020	0.0182685
717.098	0.0183949
717.176	0.0184001
717.254	0.0184114
717.332	0.0182236
717.410	0.0183583
717.488	0.0183279
717.567	0.0182533
717.645	0.0182393
717.723	0.0182302
717.801	0.0181329
717.879	0.0181041
717.957	0.0181727
718.035	0.0181276
718.113	0.0180511
718.192	0.0178962
718.270	0.0179639
718.348	0.0180168
718.426	0.0180003
718.504	0.0178344
718.582	0.0178798
718.660	0.0178906
718.738	0.0178055
718.817	0.0177355
718.895	0.0175592
718.973	0.0175716
719.051	0.0175254
719.129	0.0174076
719.207	0.0172793
719.285	0.0171855
719.363	0.0172360
719.442	0.0170675
719.520	0.0170918
719.598	0.0168349
719.676	0.0169161
719.754	0.0169071
719.832	0.0168573
719.910	0.0169250
719.988	0.0167590
720.067	0.0169286
720.145	0.0169569
720.223	0.0171034
720.301	0.0170397
720.379	0.0172684
720.457	0.0172199
720.535	0.0172218
720.613	0.0172961
720.692	0.0173746
720.770	0.0173003
720.848	0.0174094
720.926	0.0173468
721.004	0.0172964
721.082	0.0173973
721.160	0.0173708
721.238	0.0172993
721.317	0.0175263
721.395	0.0175403
721.473	0.0174557
721.551	0.0173273
721.629	0.0174406
721.707	0.0175431
721.785	0.0175306
721.863	0.0176045
721.942	0.0176641
722.020	0.0178882
722.098	0.0179489
722.176	0.0178550
722.254	0.0178513
722.332	0.0180148
722.410	0.0180103
722.488	0.0180117
722.567	0.0179993
722.645	0.0180743
722.723	0.0181020
722.801	0.0180990
722.879	0.0180116
722.957	0.0180255
723.035	0.0181483
723.113	0.0180931
723.192	0.0179002
723.270	0.0179230
723.348	0.0179496
723.426	0.0177985
723.504	0.0180218
723.582	0.0178473
723.660	0.0178440
723.738	0.0177164
723.817	0.0178316
723.895	0.0178549
723.973	0.0178793
724.051	0.0179073
724.129	0.0177601
724.207	0.0177869
724.285	0.0177623
724.363	0.0176612
724.442	0.0175983
724.520	0.0176807
724.598	0.0175899
724.676	0.0174238
724.754	0.0174062
724.832	0.0173659
724.910	0.0174512
724.988	0.0174413
725.067	0.0173658
725.145	0.0174083
725.223	0.0173317
725.301	0.0173329
725.379	0.0174121
725.457	0.0172722
725.535	0.0174091
725.613	0.0176326
725.692	0.0175733
725.770	0.0176305
725.848	0.0176380
725.926	0.0176996
726.004	0.0177987
726.082	0.0178008
726.160	0.0177075
726.238	0.0178266
726.317	0.0179114
726.395	0.0177171
726.473	0.0177473
726.551	0.0177946
726.629	0.0177855
726.707	0.0177800
726.785	0.0177544
726.863	0.0177780
726.942	0.0177835
727.020	0.0178645
727.098	0.0178907
727.176	0.0177970
727.254	0.0178267
727.332	0.0178912
727.410	0.0178100
727.488	0.0178294
727.567	0.0177736
727.645	0.0177671
727.723	0.0178647
727.801	0.0175657
727.879	0.0175991
727.957	0.0175529
728.035	0.0174718
728.113	0.0173495
728.192	0.0173491
728.270	0.0173308
728.348	0.0173139
728.426	0.0173550
728.504	0.0173664
728.582	0.0172073
728.660	0.0173472
728.738	0.0172282
728.817	0.0175053
728.895	0.0174937
728.973	0.0175721
729.051	0.0175385
729.129	0.0177049
729.207	0.0176633
729.285	0.0176676
729.363	0.0178596
729.442	0.0177448
729.520	0.0175590
729.598	0.0176678
729.676	0.0176337
729.754	0.0175902
729.832	0.0175146
729.910	0.0176134
729.988	0.0174316
730.067	0.0174126
730.145	0.0175503
730.223	0.0175549
730.301	0.0174162
730.379	0.0174100
730.457	0.0174904
730.535	0.0173904
730.613	0.0174180
730.692	0.0175397
730.770	0.0176193
730.848	0.0176024
730.926	0.0175871
731.004	0.0176385
731.082	0.0176857
731.160	0.0175092
731.238	0.0175246
731.317	0.0175529
731.395	0.0175452
731.473	0.0175903
731.551	0.0175323
731.629	0.0174861
731.707	0.0173942
731.785	0.0173704
731.863	0.0173669
731.942	0.0173190
732.020	0.0172810
732.098	0.0172530
732.176	0.0172501
732.254	0.0173367
732.332	0.0171991
732.410	0.0173929
732.488	0.0173071
732.567	0.0172188
732.645	0.0173627
732.723	0.0173541
732.801	0.0176610
732.879	0.0176259
732.957	0.0176993
733.035	0.0176456
733.113	0.0176582
733.192	0.0177892
733.270	0.0177074
733.348	0.0177235
733.426	0.0176904
733.504	0.0177231
733.582	0.0176821
733.660	0.0177915
733.738	0.0176484
733.817	0.0176471
733.895	0.0175893
733.973	0.0177430
734.051	0.0176835
734.129	0.0175461
734.207	0.0176860
734.285	0.0176823
734.363	0.0178461
734.442	0.0178088
734.520	0.0179124
734.598	0.0177462
734.676	0.0178273
734.754	0.0176859
734.832	0.0176885
734.910	0.0175021
734.988	0.0176581
735.067	0.0174890
735.145	0.0173857
735.223	0.0174360
735.301	0.0173491
735.379	0.0173740
735.457	0.0173538
735.535	0.0174084
735.613	0.0173858
735.692	0.0173706
735.770	0.0174944
735.848	0.0176691
735.926	0.0177633
736.004	0.0179438
736.082	0.0181202
736.160	0.0179840
736.238	0.0180682
736.317	0.0181771
736.395	0.0182277
736.473	0.0180797
736.551	0.0180612
736.629	0.0179849
736.707	0.0178868
736.785	0.0176310
736.863	0.0177381
736.942	0.0175857
737.020	0.0176328
737.098	0.0174766
737.176	0.0174846
737.254	0.0175636
737.332	0.0174146
737.410	0.0173175
737.488	0.0174267
737.567	0.0175530
737.645	0.0174059
737.723	0.0174183
737.801	0.0174310
737.879	0.0174783
737.957	0.0174122
738.035	0.0174107
738.113	0.0172361
738.192	0.0173125
738.270	0.0174061
738.348	0.0175056
738.426	0.0172378
738.504	0.0174545
738.582	0.0173293
738.660	0.0174086
738.738	0.0175211
738.817	0.0175205
738.895	0.0176514
738.973	0.0176115
739.051	0.0176563
739.129	0.0176651
739.207	0.0176875
739.285	0.0177180
739.363	0.0177196
739.442	0.0177309
739.520	0.0177033
739.598	0.0176656
739.676	0.0176393
739.754	0.0176878
739.832	0.0175489
739.910	0.0175744
739.988	0.0176852
740.067	0.0177410
740.145	0.0177193
740.223	0.0177587
740.301	0.0176989
740.379	0.0176233
740.457	0.0176884
740.535	0.0177061
740.613	0.0176717
740.692	0.0176759
740.770	0.0177740
740.848	0.0176646
740.926	0.0175739
741.004	0.0175875
741.082	0.0176557
741.160	0.0176578
741.238	0.0175742
741.317	0.0174615
741.395	0.0174724
741.473	0.0176026
741.551	0.0176279
741.629	0.0177036
741.707	0.0175271
741.785	0.0176199
741.863	0.0176333
741.942	0.0174380
742.020	0.0176304
742.098	0.0174591
742.176	0.0176007
742.254	0.0175207
742.332	0.0175291
742.410	0.0176122
742.488	0.0175245
742.567	0.0175998
742.645	0.0177374
742.723	0.0177721
742.801	0.0177692
742.879	0.0176796
742.957	0.0176950
743.035	0.0177402
743.113	0.0177742
743.192	0.0176876
743.270	0.0176528
743.348	0.0176274
743.426	0.0175440
743.504	0.0175861
743.582	0.0175640
743.660	0.0175096
743.738	0.0176749
743.817	0.0176041
743.895	0.0173891
743.973	0.0173878
744.051	0.0175124
744.129	0.0174989
744.207	0.0175565
744.285	0.0175549
744.363	0.0176041
744.442	0.0174992
744.520	0.0176886
744.598	0.0176981
744.676	0.0178336
744.754	0.0177996
744.832	0.0178261
744.910	0.0176772
744.988	0.0177498
745.067	0.0178407
745.145	0.0177568
745.223	0.0177658
745.301	0.0175654
745.379	0.0174945
745.457	0.0176425
745.535	0.0176609
745.613	0.0175478
745.692	0.0175514
745.770	0.0175212
745.848	0.0173935
745.926	0.0175361
746.004	0.0176043
746.082	0.0175076
746.160	0.0176166
746.238	0.0176898
746.317	0.0176749
746.395	0.0178921
746.473	0.0177148
746.551	0.0177843
746.629	0.0180389
746.707	0.0179444
746.785	0.0178793
746.863	0.0179398
746.942	0.0178580
747.020	0.0178413
747.098	0.0178963
747.176	0.0180283
747.254	0.0178665
747.332	0.0179077
747.410	0.0179543
747.488	0.0177633
747.567	0.0177409
747.645	0.0176859
747.723	0.0175394
747.801	0.0175826
747.879	0.0176556
747.957	0.0175378
748.035	0.0175383
748.113	0.0173836
748.192	0.0173470
748.270	0.0174223
748.348	0.0173327
748.426	0.0171864
748.504	0.0172516
748.582	0.0174381
748.660	0.0173134
748.738	0.0173335
748.817	0.0172693
748.895	0.0172675
748.973	0.0172591
749.051	0.0171922
749.129	0.0171789
749.207	0.0172137
749.285	0.0173220
749.363	0.0172440
749.442	0.0172381
749.520	0.0174118
749.598	0.0173302
749.676	0.0174160
749.754	0.0173713
749.832	0.0174670
749.910	0.0175475
749.988	0.0175613
750.067	0.0175092
750.145	0.0176434
750.223	0.0177235
750.301	0.0176674
750.379	0.0175715
750.457	0.0177491
750.535	0.0175606
750.613	0.0177292
750.692	0.0178577
750.770	0.0176530
750.848	0.0176395
750.926	0.0176209
751.004	0.0174623
751.082	0.0175275
751.160	0.0175194
751.238	0.0175262
751.317	0.0175589
751.395	0.0176204
751.473	0.0175646
751.551	0.0175218
751.629	0.0174643
751.707	0.0176141
751.785	0.0174873
751.863	0.0174244
751.942	0.0174811
752.020	0.0175133
752.098	0.0175391
752.176	0.0175116
752.254	0.0174505
752.332	0.0176260
752.410	0.0175745
752.488	0.0176937
752.567	0.0177252
752.645	0.0177011
752.723	0.0177396
752.801	0.0178283
752.879	0.0179179
752.957	0.0177457
753.035	0.0178057
753.113	0.0176160
753.192	0.0178313
753.270	0.0177292
753.348	0.0177045
753.426	0.0175123
753.504	0.0176276
753.582	0.0176493
753.660	0.0175698
753.738	0.0177232
753.817	0.0175951
753.895	0.0175814
753.973	0.0174921
754.051	0.0175183
754.129	0.0175587
754.207	0.0175362
754.285	0.0177265
754.363	0.0177364
754.442	0.0178173
754.520	0.0177877
754.598	0.0178178
754.676	0.0179103
754.754	0.0179151
754.832	0.0177666
754.910	0.0178670
754.988	0.0179317
755.067	0.0178271
755.145	0.0179779
755.223	0.0178045
755.301	0.0178349
755.379	0.0178298
755.457	0.0175852
755.535	0.0176286
755.613	0.0176758
755.692	0.0176830
755.770	0.0175340
755.848	0.0174792
755.926	0.0176048
756.004	0.0174886
756.082	0.0173284
756.160	0.0175130
756.238	0.0174897
756.317	0.0173281
756.395	0.0174912
756.473	0.0174502
756.551	0.0174914
756.629	0.0174954
756.707	0.0174578
756.785	0.0175348
756.863	0.0174711
756.942	0.0176218
757.020	0.0177173
757.098	0.0176061
757.176	0.0177979
757.254	0.0176572
757.332	0.0176215
757.410	0.0177152
757.488	0.0177961
757.567	0.0178970
757.645	0.0177463
757.723	0.0177210
757.801	0.0178857
757.879	0.0179126
757.957	0.0180606
758.035	0.0179709
758.113	0.0180349
758.192	0.0179588
758.270	0.0179464
758.348	0.0180260
758.426	0.0178873
758.504	0.0178995
758.582	0.0180300
758.660	0.0179942
758.738	0.0177561
758.817	0.0177776
758.895	0.0177452
758.973	0.0177862
759.051	0.0177248
759.129	0.0176424
759.207	0.0178626
759.285	0.0177041
759.363	0.0176547
759.442	0.0176006
759.520	0.0177565
759.598	0.0176367
759.676	0.0175986
759.754	0.0175326
759.832	0.0176253
759.910	0.0176627
759.988	0.0176559
760.067	0.0175726
760.145	0.0174570
760.223	0.0176764
760.301	0.0175078
760.379	0.0175336
760.457	0.0175596
760.535	0.0177558
760.613	0.0176683
760.692	0.0176485
760.770	0.0177961
760.848	0.0176331
760.926	0.0177119
761.004	0.0176825
761.082	0.0177418
761.160	0.0176414
761.238	0.0176133
761.317	0.0177142
761.395	0.0176271
761.473	0.0176238
761.551	0.0175850
761.629	0.0176102
761.707	0.0176115
761.785	0.0177203
761.863	0.0175875
761.942	0.0174642
762.020	0.0175264
762.098	0.0176293
762.176	0.0177733
762.254	0.0177738
762.332	0.0176172
762.410	0.0176807
762.488	0.0176221
762.567	0.0177200
762.645	0.0176715
762.723	0.0177401
762.801	0.0177288
762.879	0.0177435
762.957	0.0178018
763.035	0.0176258
763.113	0.0176691
763.192	0.0178488
763.270	0.0176994
763.348	0.0177088
763.426	0.0176060
763.504	0.0177326
763.582	0.0175831
763.660	0.0175124
763.738	0.0176355
763.817	0.0175870
763.895	0.0176001
763.973	0.0177519
764.051	0.0175785
764.129	0.0176659
764.207	0.0174558
764.285	0.0175661
764.363	0.0176329
764.442	0.0175237
764.520	0.0175409
764.598	0.0175932
764.676	0.0177966
764.754	0.0176435
764.832	0.0176064
764.910	0.0176906
764.988	0.0176698
765.067	0.0177454
765.145	0.0177175
765.223	0.0176715
765.301	0.0177699
765.379	0.0177461
765.457	0.0175817
765.535	0.0177383
765.613	0.0178065
765.692	0.0176832
765.770	0.0177557
765.848	0.0177328
765.926	0.0176221
766.004	0.0176701
766.082	0.0177841
766.160	0.0175355
766.238	0.0174532
766.317	0.0175380
766.395	0.0175431
766.473	0.0175860
766.551	0.0174635
766.629	0.0175016
766.707	0.0175035
766.785	0.0174505
766.863	0.0174309
766.942	0.0174138
767.020	0.0175230
767.098	0.0173150
767.176	0.0173459
767.254	0.0174546
767.332	0.0174588
767.410	0.0174692
767.488	0.0174374
767.567	0.0175254
767.645	0.0174687
767.723	0.0175217
767.801	0.0175878
767.879	0.0175343
767.957	0.0176400
768.035	0.0176575
768.113	0.0175891
768.192	0.0176735
768.270	0.0176604
768.348	0.0176233
768.426	0.0175489
768.504	0.0175999
768.582	0.0176115
768.660	0.0174971
768.738	0.0175633
768.817	0.0175727
768.895	0.0175274
768.973	0.0175551
769.051	0.0174342
769.129	0.0174532
769.207	0.0173541
769.285	0.0174511
769.363	0.0175864
769.442	0.0174982
769.520	0.0176622
769.598	0.0176763
769.676	0.0177905
769.754	0.0175758
769.832	0.0177948
769.910	0.0178333
769.988	0.0177701
770.067	0.0179053
770.145	0.0179556
770.223	0.0178157
770.301	0.0177258
770.379	0.0177565
770.457	0.0177949
770.535	0.0177673
770.613	0.0177057
770.692	0.0176027
770.770	0.0176868
770.848	0.0176322
770.926	0.0175795
771.004	0.0176225
771.082	0.0177308
771.160	0.0176237
771.238	0.0177280
771.317	0.0177975
771.395	0.0176830
771.473	0.0178780
771.551	0.0177122
771.629	0.0177335
771.707	0.0177399
771.785	0.0177458
771.863	0.0178338
771.942	0.0177526
772.020	0.0177557
772.098	0.0178586
772.176	0.0177282
772.254	0.0176440
772.332	0.0177076
772.410	0.0176784
772.488	0.0177665
772.567	0.0176869
772.645	0.0177937
772.723	0.0177258
772.801	0.0176521
772.879	0.0177477
772.957	0.0177473
773.035	0.0176488
773.113	0.0175678
773.192	0.0175667
773.270	0.0177344
773.348	0.0176768
773.426	0.0177132
773.504	0.0176229
773.582	0.0175838
773.660	0.0176382
773.738	0.0176725
773.817	0.0175994
773.895	0.0177233
773.973	0.0176352
774.051	0.0175739
774.129	0.0175687
774.207	0.0175887
774.285	0.0174622
774.363	0.0175172
774.442	0.0175137
774.520	0.0174840
774.598	0.0174228
774.676	0.0174641
774.754	0.0175370
774.832	0.0173428
774.910	0.0174580
774.988	0.0174603
775.067	0.0174593
775.145	0.0175072
775.223	0.0174347
775.301	0.0174744
775.379	0.0174810
775.457	0.0175052
775.535	0.0174629
775.613	0.0176517
775.692	0.0174577
775.770	0.0175355
775.848	0.0176596
775.926	0.0177876
776.004	0.0176651
776.082	0.0177061
776.160	0.0177209
776.238	0.0177856
776.317	0.0176761
776.395	0.0177203
776.473	0.0177244
776.551	0.0176498
776.629	0.0177666
776.707	0.0177075
776.785	0.0177931
776.863	0.0176970
776.942	0.0176704
777.020	0.0177596
777.098	0.0176833
777.176	0.0177172
777.254	0.0176923
777.332	0.0176913
777.410	0.0177837
777.488	0.0175767
777.567	0.0176152
777.645	0.0175913
777.723	0.0176881
777.801	0.0176752
777.879	0.0177631
777.957	0.0177514
778.035	0.0177460
778.113	0.0176572
778.192	0.0175971
778.270	0.0176566
778.348	0.0176310
778.426	0.0176108
778.504	0.0175753
778.582	0.0177007
778.660	0.0176938
778.738	0.0175177
778.817	0.0175660
778.895	0.0177086
778.973	0.0175611
779.051	0.0176646
779.129	0.0176933
779.207	0.0176136
779.285	0.0176675
779.363	0.0178628
779.442	0.0177657
779.520	0.0178751
779.598	0.0176161
779.676	0.0177308
779.754	0.0176991
779.832	0.0176879
779.910	0.0178654
779.988	0.0178316
780.067	0.0178224
780.145	0.0177242
780.223	0.0178033
780.301	0.0178821
780.379	0.0176940
780.457	0.0177474
780.535	0.0176405
780.613	0.0175751
780.692	0.0176533
780.770	0.0175574
780.848	0.0175116
780.926	0.0175839
781.004	0.0176506
781.082	0.0174800
781.160	0.0175434
781.238	0.0175568
781.317	0.0175417
781.395	0.0174823
781.473	0.0174180
781.551	0.0176442
781.629	0.0175858
781.707	0.0176691
781.785	0.0175670
781.863	0.0176458
781.942	0.0175814
782.020	0.0175926
782.098	0.0175822
782.176	0.0176556
782.254	0.0176780
782.332	0.0175745
782.410	0.0175475
782.488	0.0175711
782.567	0.0177368
782.645	0.0175922
782.723	0.0176688
782.801	0.0177390
782.879	0.0176527
782.957	0.0177690
783.035	0.0178044
783.113	0.0178609
783.192	0.0178944
783.270	0.0178816
783.348	0.0178014
783.426	0.0178814
783.504	0.0179684
783.582	0.0180444
783.660	0.0178259
783.738	0.0178856
783.817	0.0178759
783.895	0.0178958
783.973	0.0179719
784.051	0.0179025
784.129	0.0178378
784.207	0.0178304
784.285	0.0178175
784.363	0.0177090
784.442	0.0176857
784.520	0.0178288
784.598	0.0176947
784.676	0.0177086
784.754	0.0176548
784.832	0.0175710
784.910	0.0176118
784.988	0.0177309
785.067	0.0176936
785.145	0.0176938
785.223	0.0176405
785.301	0.0175345
785.379	0.0176519
785.457	0.0177577
785.535	0.0177686
785.613	0.0176997
785.692	0.0175653
785.770	0.0176909
785.848	0.0175952
785.926	0.0176984
786.004	0.0177938
786.082	0.0175710
786.160	0.0175220
786.238	0.0175587
786.317	0.0174415
786.395	0.0176205
786.473	0.0176286
786.551	0.0175197
786.629	0.0174617
786.707	0.0174879
786.785	0.0176055
786.863	0.0175172
786.942	0.0174011
787.020	0.0174229
787.098	0.0175796
787.176	0.0174348
787.254	0.0174867
787.332	0.0175364
787.410	0.0175175
787.488	0.0175248
787.567	0.0175178
787.645	0.0176656
787.723	0.0174446
787.801	0.0175546
787.879	0.0174643
787.957	0.0174106
788.035	0.0175475
788.113	0.0174544
788.192	0.0175597
788.270	0.0174322
788.348	0.0175011
788.426	0.0173738
788.504	0.0174254
788.582	0.0173675
788.660	0.0173457
788.738	0.0173015
788.817	0.0174246
788.895	0.0174159
788.973	0.0171999
789.051	0.0173276
789.129	0.0172577
789.207	0.0174422
789.285	0.0173635
789.363	0.0173726
789.442	0.0173117
789.520	0.0173916
789.598	0.0174159
789.676	0.0172765
789.754	0.0173999
789.832	0.0174790
789.910	0.0174773
789.988	0.0174708
790.067	0.0174625
790.145	0.0176035
790.223	0.0176473
790.301	0.0176122
790.379	0.0175426
790.457	0.0176280
790.535	0.0177267
790.613	0.0177373
790.692	0.0175859
790.770	0.0176833
790.848	0.0175469
790.926	0.0175733
791.004	0.0176860
791.082	0.0176601
791.160	0.0176573
791.238	0.0176077
791.317	0.0176106
791.395	0.0174937
791.473	0.0175626
791.551	0.0176065
791.629	0.0178091
791.707	0.0175813
791.785	0.0175732
791.863	0.0176435
791.942	0.0175677
792.020	0.0175319
792.098	0.0175788
792.176	0.0176192
792.254	0.0176998
792.332	0.0176038
792.410	0.0176759
792.488	0.0177718
792.567	0.0176616
792.645	0.0174718
792.723	0.0174461
792.801	0.0176520
792.879	0.0175770
792.957	0.0175789
793.035	0.0175445
793.113	0.0176040
793.192	0.0174871
793.270	0.0174087
793.348	0.0175581
793.426	0.0176530
793.504	0.0175854
793.582	0.0176113
793.660	0.0176924
793.738	0.0175955
793.817	0.0175538
793.895	0.0177007
793.973	0.0177914
794.051	0.0177472
794.129	0.0176994
794.207	0.0177195
794.285	0.0177640
794.363	0.0176242
794.442	0.0178264
794.520	0.0176898
794.598	0.0177354
794.676	0.0176585
794.754	0.0175890
794.832	0.0177354
794.910	0.0176225
794.988	0.0175577
795.067	0.0174410
795.145	0.0175333
795.223	0.0175261
795.301	0.0174463
795.379	0.0174064
795.457	0.0173362
795.535	0.0173933
795.613	0.0172817
795.692	0.0173747
795.770	0.0175377
795.848	0.0174149
795.926	0.0173285
796.004	0.0173231
796.082	0.0174094
796.160	0.0173100
796.238	0.0173062
796.317	0.0173488
796.395	0.0173904
796.473	0.0172829
796.551	0.0173722
796.629	0.0174043
796.707	0.0172916
796.785	0.0173959
796.863	0.0173519
796.942	0.0174603
797.020	0.0173136
797.098	0.0173450
797.176	0.0174420
797.254	0.0176512
797.332	0.0174971
797.410	0.0175668
797.488	0.0176341
797.567	0.0176492
797.645	0.0175826
797.723	0.0176708
797.801	0.0176767
797.879	0.0177883
797.957	0.0177764
798.035	0.0176913
798.113	0.0178026
798.192	0.0177440
798.270	0.0176639
798.348	0.0177644
798.426	0.0176707
798.504	0.0177483
798.582	0.0175428
798.660	0.0177302
798.738	0.0177544
798.817	0.0176857
798.895	0.0175643
798.973	0.0176920
799.051	0.0176101
799.129	0.0177412
799.207	0.0175418
799.285	0.0175141
799.363	0.0174982
799.442	0.0175790
799.520	0.0175346
799.598	0.0174953
799.676	0.0176605
799.754	0.0175961
799.832	0.0174354
799.910	0.0172731
799.988	0.0174943
800.067	0.0174328
800.145	0.0173498
800.223	0.0174251
800.301	0.0174421
800.379	0.0175023
800.457	0.0175338
800.535	0.0174026
800.613	0.0173941
800.692	0.0174212
800.770	0.0175043
800.848	0.0174914
800.926	0.0177375
801.004	0.0175338
801.082	0.0174484
801.160	0.0176287
801.238	0.0175932
801.317	0.0174907
801.395	0.0175090
801.473	0.0175869
801.551	0.0176013
801.629	0.0176432
801.707	0.0176089
801.785	0.0175246
801.863	0.0176792
801.942	0.0176598
802.020	0.0176515
802.098	0.0176904
802.176	0.0178757
802.254	0.0178457
802.332	0.0179604
802.410	0.0180036
802.488	0.0179549
802.567	0.0179813
802.645	0.0181013
802.723	0.0179350
802.801	0.0180428
802.879	0.0181512
802.957	0.0179472
803.035	0.0179180
803.113	0.0180510
803.192	0.0179542
803.270	0.0178130
803.348	0.0178456
803.426	0.0176764
803.504	0.0177646
803.582	0.0177908
803.660	0.0177086
803.738	0.0176295
803.817	0.0176646
803.895	0.0174621
803.973	0.0177075
804.051	0.0175515
804.129	0.0176131
804.207	0.0176011
804.285	0.0174968
804.363	0.0175379
804.442	0.0175294
804.520	0.0175288
804.598	0.0175930
804.676	0.0174793
804.754	0.0173429
804.832	0.0174032
804.910	0.0175069
804.988	0.0174390
805.067	0.0174046
805.145	0.0175563
805.223	0.0175014
805.301	0.0174872
805.379	0.0174573
805.457	0.0173114
805.535	0.0173887
805.613	0.0174266
805.692	0.0173476
805.770	0.0174172
805.848	0.0174421
805.926	0.0173817
806.004	0.0174435
806.082	0.0175821
806.160	0.0174754
806.238	0.0174511
806.317	0.0175094
806.395	0.0174003
806.473	0.0176342
806.551	0.0174664
806.629	0.0175409
806.707	0.0175199
806.785	0.0175475
806.863	0.0175897
806.942	0.0175779
807.020	0.0175924
807.098	0.0175400
807.176	0.0177278
807.254	0.0175114
807.332	0.0175748
807.410	0.0176115
807.488	0.0176073
807.567	0.0178332
807.645	0.0177435
807.723	0.0174953
807.801	0.0177561
807.879	0.0177573
807.957	0.0176060
808.035	0.0176801
808.113	0.0175744
808.192	0.0175762
808.270	0.0178221
808.348	0.0177769
808.426	0.0177402
808.504	0.0176007
808.582	0.0176664
808.660	0.0175780
808.738	0.0177887
808.817	0.0176940
808.895	0.0176790
808.973	0.0176223
809.051	0.0176688
809.129	0.0176604
809.207	0.0176079
809.285	0.0175926
809.363	0.0176308
809.442	0.0177132
809.520	0.0175375
809.598	0.0176129
809.676	0.0174977
809.754	0.0177747
809.832	0.0176874
809.910	0.0176702
809.988	0.0176682
810.067	0.0178832
810.145	0.0178078
810.223	0.0177156
810.301	0.0177237
810.379	0.0176283
810.457	0.0176348
810.535	0.0175975
810.613	0.0174734
810.692	0.0176641
810.770	0.0175140
810.848	0.0173953
810.926	0.0175504
811.004	0.0174944
811.082	0.0174235
811.160	0.0175014
811.238	0.0174144
811.317	0.0173203
811.395	0.0173707
811.473	0.0172624
811.551	0.0172855
811.629	0.0172440
811.707	0.0172944
811.785	0.0173017
811.863	0.0172050
811.942	0.0172401
812.020	0.0174506
812.098	0.0174249
812.176	0.0173205
812.254	0.0171739
812.332	0.0172104
812.410	0.0171237
812.488	0.0173043
812.567	0.0171712
812.645	0.0172016
812.723	0.0172539
812.801	0.0172301
812.879	0.0172839
812.957	0.0172900
813.035	0.0173496
813.113	0.0173156
813.192	0.0172368
813.270	0.0173930
813.348	0.0174825
813.426	0.0174578
813.504	0.0175322
813.582	0.0175853
813.660	0.0174097
813.738	0.0174902
813.817	0.0176020
813.895	0.0175891
813.973	0.0175808
814.051	0.0176348
814.129	0.0174503
814.207	0.0173769
814.285	0.0176707
814.363	0.0174821
814.442	0.0174564
814.520	0.0175716
814.598	0.0174979
814.676	0.0175599
814.754	0.0175631
814.832	0.0176201
814.910	0.0175816
814.988	0.0175905
815.067	0.0174772
815.145	0.0174818
815.223	0.0175421
815.301	0.0175793
815.379	0.0175673
815.457	0.0175005
815.535	0.0176407
815.613	0.0176717
815.692	0.0174569
815.770	0.0175874
815.848	0.0175741
815.926	0.0176138
816.004	0.0175520
816.082	0.0175868
816.160	0.0176042
816.238	0.0176082
816.317	0.0175546
816.395	0.0176584
816.473	0.0174510
816.551	0.0176078
816.629	0.0176652
816.707	0.0175102
816.785	0.0175380
816.863	0.0175927
816.942	0.0174854
817.020	0.0174510
817.098	0.0175520
817.176	0.0176312
817.254	0.0175153
817.332	0.0174837
817.410	0.0175154
817.488	0.0177333
817.567	0.0176862
817.645	0.0178008
817.723	0.0178108
817.801	0.0176211
817.879	0.0179710
817.957	0.0179015
818.035	0.0178332
818.113	0.0178159
818.192	0.0179163
818.270	0.0178593
818.348	0.0178448
818.426	0.0179716
818.504	0.0179975
818.582	0.0179917
818.660	0.0178821
818.738	0.0178990
818.817	0.0179376
818.895	0.0178239
818.973	0.0178033
819.051	0.0177905
819.129	0.0178429
819.207	0.0177809
819.285	0.0178676
819.363	0.0177804
819.442	0.0177989
819.520	0.0177316
819.598	0.0178507
819.676	0.0177876
819.754	0.0176950
819.832	0.0176826
819.910	0.0176675
819.988	0.0177460
820.067	0.0176143
820.145	0.0174947
820.223	0.0175412
820.301	0.0173981
820.379	0.0175302
820.457	0.0175500
820.535	0.0174720
820.613	0.0173905
820.692	0.0174081
820.770	0.0174693
820.848	0.0176599
820.926	0.0172852
821.004	0.0174577
821.082	0.0174953
821.160	0.0174323
821.238	0.0174191
821.317	0.0175104
821.395	0.0174731
821.473	0.0172433
821.551	0.0173811
821.629	0.0174171
821.707	0.0173433
821.785	0.0173446
821.863	0.0173093
821.942	0.0173592
822.020	0.0172677
822.098	0.0173478
822.176	0.0173509
822.254	0.0174069
822.332	0.0174851
822.410	0.0175368
822.488	0.0173018
822.567	0.0174805
822.645	0.0174129
822.723	0.0174593
822.801	0.0174461
822.879	0.0175484
822.957	0.0175104
823.035	0.0175010
823.113	0.0173912
823.192	0.0175214
823.270	0.0176192
823.348	0.0175745
823.426	0.0175906
823.504	0.0176772
823.582	0.0176293
823.660	0.0174677
823.738	0.0176266
823.817	0.0177591
823.895	0.0176712
823.973	0.0177497
824.051	0.0176850
824.129	0.0176375
824.207	0.0174998
824.285	0.0176218
824.363	0.0175995
824.442	0.0175713
824.520	0.0176164
824.598	0.0176790
824.676	0.0178013
824.754	0.0175569
824.832	0.0176484
824.910	0.0176360
824.988	0.0175956
825.067	0.0175931
825.145	0.0176563
825.223	0.0177355
825.301	0.0176041
825.379	0.0175312
825.457	0.0176557
825.535	0.0178278
825.613	0.0176707
825.692	0.0176585
825.770	0.0177867
825.848	0.0177254
825.926	0.0177336
826.004	0.0176231
826.082	0.0176588
826.160	0.0175983
826.238	0.0176566
826.317	0.0176697
826.395	0.0176020
826.473	0.0176134
826.551	0.0176150
826.629	0.0175539
826.707	0.0174046
826.785	0.0175916
826.863	0.0174493
826.942	0.0174850
827.020	0.0174829
827.098	0.0175571
827.176	0.0175698
827.254	0.0174104
827.332	0.0173997
827.410	0.0175205
827.488	0.0174413
827.567	0.0174796
827.645	0.0174533
827.723	0.0175291
827.801	0.0173917
827.879	0.0173756
827.957	0.0174329
828.035	0.0173155
828.113	0.0172704
828.192	0.0172843
828.270	0.0172246
828.348	0.0173945
828.426	0.0174915
828.504	0.0173251
828.582	0.0173943
828.660	0.0173337
828.738	0.0174451
828.817	0.0174464
828.895	0.0175835
828.973	0.0175266
829.051	0.0174564
829.129	0.0175987
829.207	0.0177605
829.285	0.0177240
829.363	0.0176662
829.442	0.0177563
829.520	0.0178085
829.598	0.0176685
829.676	0.0177177
829.754	0.0178307
829.832	0.0177550
829.910	0.0178227
829.988	0.0176672
830.067	0.0177203
830.145	0.0176357
830.223	0.0177208
830.301	0.0176804
830.379	0.0174681
830.457	0.0175848
830.535	0.0174787
830.613	0.0173592
830.692	0.0175385
830.770	0.0174275
830.848	0.0174666
830.926	0.0174898
831.004	0.0175227
831.082	0.0175180
831.160	0.0175294
831.238	0.0175055
831.317	0.0174100
831.395	0.0173814
831.473	0.0173319
831.551	0.0175479
831.629	0.0174967
831.707	0.0175209
831.785	0.0173080
831.863	0.0175892
831.942	0.0175356
832.020	0.0174682
832.098	0.0176342
832.176	0.0175274
832.254	0.0176398
832.332	0.0175004
832.410	0.0176163
832.488	0.0176211
832.567	0.0177798
832.645	0.0175673
832.723	0.0175138
832.801	0.0176245
832.879	0.0175734
832.957	0.0176195
833.035	0.0176992
833.113	0.0176416
833.192	0.0176568
833.270	0.0175810
833.348	0.0177600
833.426	0.0175900
833.504	0.0177074
833.582	0.0174887
833.660	0.0176123
833.738	0.0176881
833.817	0.0175657
833.895	0.0175833
833.973	0.0175745
834.051	0.0175320
834.129	0.0176299
834.207	0.0175475
834.285	0.0175111
834.363	0.0176811
834.442	0.0175017
834.520	0.0176783
834.598	0.0177147
834.676	0.0176276
834.754	0.0176448
834.832	0.0176782
834.910	0.0177151
834.988	0.0177070
835.067	0.0175412
835.145	0.0176302
835.223	0.0176500
835.301	0.0174798
835.379	0.0176644
835.457	0.0176701
835.535	0.0175338
835.613	0.0175246
835.692	0.0174973
835.770	0.0174277
835.848	0.0174052
835.926	0.0175519
836.004	0.0173325
836.082	0.0174306
836.160	0.0175030
836.238	0.0174277
836.317	0.0173737
836.395	0.0173830
836.473	0.0173694
836.551	0.0174352
836.629	0.0172963
836.707	0.0173431
836.785	0.0174830
836.863	0.0174245
836.942	0.0174407
837.020	0.0174051
837.098	0.0175366
837.176	0.0175432
837.254	0.0174239
837.332	0.0174915
837.410	0.0175507
837.488	0.0175291
837.567	0.0174402
837.645	0.0175867
837.723	0.0175861
837.801	0.0174779
837.879	0.0175022
837.957	0.0174822
838.035	0.0175864
838.113	0.0176517
838.192	0.0175659
838.270	0.0177560
838.348	0.0176549
838.426	0.0175875
838.504	0.0177042
838.582	0.0176887
838.660	0.0176271
838.738	0.0177274
838.817	0.0176788
838.895	0.0176778
838.973	0.0177185
839.051	0.0175593
839.129	0.0177467
839.207	0.0177432
839.285	0.0177259
839.363	0.0177268
839.442	0.0179179
839.520	0.0177582
839.598	0.0178059
839.676	0.0178555
839.754	0.0178004
839.832	0.0178070
839.910	0.0178925
839.988	0.0178541
840.067	0.0179573
840.145	0.0178325
840.223	0.0179006
840.301	0.0179191
840.379	0.0179216
840.457	0.0180644
840.535	0.0180251
840.613	0.0179589
840.692	0.0180191
840.770	0.0180692
840.848	0.0179894
840.926	0.0179375
841.004	0.0178952
841.082	0.0178535
841.160	0.0178232
841.238	0.0178432
841.317	0.0178747
841.395	0.0178262
841.473	0.0179133
841.551	0.0178021
841.629	0.0179436
841.707	0.0178693
841.785	0.0177679
841.863	0.0178117
841.942	0.0178764
842.020	0.0178623
842.098	0.0179667
842.176	0.0178429
842.254	0.0178573
842.332	0.0177908
842.410	0.0176869
842.488	0.0177535
842.567	0.0178091
842.645	0.0176936
842.723	0.0178129
842.801	0.0176735
842.879	0.0177088
842.957	0.0176311
843.035	0.0175409
843.113	0.0177512
843.192	0.0177427
843.270	0.0176020
843.348	0.0176658
843.426	0.0174999
843.504	0.0176047
843.582	0.0175715
843.660	0.0175905
843.738	0.0174905
843.817	0.0176215
843.895	0.0174605
843.973	0.0174257
844.051	0.0174601
844.129	0.0173657
844.207	0.0174619
844.285	0.0175671
844.363	0.0173224
844.442	0.0174100
844.520	0.0173933
844.598	0.0174618
844.676	0.0174876
844.754	0.0174546
844.832	0.0174265
844.910	0.0174672
844.988	0.0173907
845.067	0.0173969
845.145	0.0174408
845.223	0.0174803
845.301	0.0173915
845.379	0.0174222
845.457	0.0174818
845.535	0.0175848
845.613	0.0175294
845.692	0.0174862
845.770	0.0174756
845.848	0.0174457
845.926	0.0175676
846.004	0.0174306
846.082	0.0175488
846.160	0.0174721
846.238	0.0174716
846.317	0.0175793
846.395	0.0174671
846.473	0.0175085
846.551	0.0174730
846.629	0.0175012
846.707	0.0175334
846.785	0.0175749
846.863	0.0176130
846.942	0.0174968
847.020	0.0174180
847.098	0.0175529
847.176	0.0175401
847.254	0.0175769
847.332	0.0175375
847.410	0.0174899
847.488	0.0175005
847.567	0.0174739
847.645	0.0176546
847.723	0.0176997
847.801	0.0175009
847.879	0.0176024
847.957	0.0176338
848.035	0.0176395
848.113	0.0176773
848.192	0.0175568
848.270	0.0176772
848.348	0.0176781
848.426	0.0177954
848.504	0.0177034
848.582	0.0176006
848.660	0.0176963
848.738	0.0176733
848.817	0.0177774
848.895	0.0175835
848.973	0.0174349
849.051	0.0176197
849.129	0.0177321
849.207	0.0176633
849.285	0.0177628
849.363	0.0175925
849.442	0.0175424
849.520	0.0176878
849.598	0.0176541
849.676	0.0176862
849.754	0.0177489
849.832	0.0175909
849.910	0.0177145
849.988	0.0176612
850.067	0.0177111
850.145	0.0176950
850.223	0.0175193
850.301	0.0175549
850.379	0.0176634
850.457	0.0176639
850.535	0.0175777
850.613	0.0175748
850.692	0.0175420
850.770	0.0173510
850.848	0.0175270
850.926	0.0176172
851.004	0.0176757
851.082	0.0177066
851.160	0.0175835
851.238	0.0175204
851.317	0.0175988
851.395	0.0174573
851.473	0.0175605
851.551	0.0175274
851.629	0.0175584
851.707	0.0174363
851.785	0.0174489
851.863	0.0173015
851.942	0.0174174
852.020	0.0174458
852.098	0.0175727
852.176	0.0173620
852.254	0.0174418
852.332	0.0174306
852.410	0.0174341
852.488	0.0173737
852.567	0.0173569
852.645	0.0174979
852.723	0.0173553
852.801	0.0173514
852.879	0.0174686
852.957	0.0175274
853.035	0.0173441
853.113	0.0173985
853.192	0.0175182
853.270	0.0175002
853.348	0.0175397
853.426	0.0176022
853.504	0.0175842
853.582	0.0176248
853.660	0.0176880
853.738	0.0176054
853.817	0.0176653
853.895	0.0176617
853.973	0.0177874
854.051	0.0176706
854.129	0.0175872
854.207	0.0177702
854.285	0.0177543
854.363	0.0177441
854.442	0.0176563
854.520	0.0176681
854.598	0.0176276
854.676	0.0175654
854.754	0.0175210
854.832	0.0176966
854.910	0.0176151
854.988	0.0176262
855.067	0.0177274
855.145	0.0175877
855.223	0.0176202
855.301	0.0175909
855.379	0.0176850
855.457	0.0176211
855.535	0.0176776
855.613	0.0177197
855.692	0.0176855
855.770	0.0178208
855.848	0.0177971
855.926	0.0177271
856.004	0.0176704
856.082	0.0178378
856.160	0.0177998
856.238	0.0177647
856.317	0.0178696
856.395	0.0178426
856.473	0.0178344
856.551	0.0178725
856.629	0.0177761
856.707	0.0178206
856.785	0.0176117
856.863	0.0178167
856.942	0.0177538
857.020	0.0177590
857.098	0.0177769
857.176	0.0177425
857.254	0.0176693
857.332	0.0176591
857.410	0.0176429
857.488	0.0176889
857.567	0.0176787
857.645	0.0176645
857.723	0.0178577
857.801	0.0176755
857.879	0.0175423
857.957	0.0176144
858.035	0.0174937
858.113	0.0174279
858.192	0.0176455
858.270	0.0175163
858.348	0.0175625
858.426	0.0176392
858.504	0.0176701
858.582	0.0176620
858.660	0.0174971
858.738	0.0175579
858.817	0.0176826
858.895	0.0176106
858.973	0.0177885
859.051	0.0177000
859.129	0.0176741
859.207	0.0176799
859.285	0.0176356
859.363	0.0176287
859.442	0.0176496
859.520	0.0176676
859.598	0.0175857
859.676	0.0177456
859.754	0.0175771
859.832	0.0176170
859.910	0.0176503
859.988	0.0174909
860.067	0.0176355
860.145	0.0176503
860.223	0.0175396
860.301	0.0175806
860.379	0.0175993
860.457	0.0175363
860.535	0.0175571
860.613	0.0175880
860.692	0.0176608
860.770	0.0175631
860.848	0.0176032
860.926	0.0176395
861.004	0.0175014
861.082	0.0176709
861.160	0.0175456
861.238	0.0176718
861.317	0.0176432
861.395	0.0177406
861.473	0.0176298
861.551	0.0177990
861.629	0.0177488
861.707	0.0177222
861.785	0.0177821
861.863	0.0177052
861.942	0.0176896
862.020	0.0176593
862.098	0.0176786
862.176	0.0177258
862.254	0.0178485
862.332	0.0177984
862.410	0.0179034
862.488	0.0178267
862.567	0.0177402
862.645	0.0178107
862.723	0.0177668
862.801	0.0178352
862.879	0.0177763
862.957	0.0175861
863.035	0.0176880
863.113	0.0176495
863.192	0.0176479
863.270	0.0176780
863.348	0.0176040
863.426	0.0177180
863.504	0.0176900
863.582	0.0176708
863.660	0.0176398
863.738	0.0176590
863.817	0.0174161
863.895	0.0176080
863.973	0.0175793
864.051	0.0176015
864.129	0.0177198
864.207	0.0176052
864.285	0.0176128
864.363	0.0175557
864.442	0.0176256
864.520	0.0176463
864.598	0.0178033
864.676	0.0176752
864.754	0.0177019
864.832	0.0176075
864.910	0.0177598
864.988	0.0176846
865.067	0.0177769
865.145	0.0177658
865.223	0.0176113
865.301	0.0177617
865.379	0.0175558
865.457	0.0176372
865.535	0.0176227
865.613	0.0176913
865.692	0.0177381
865.770	0.0176297
865.848	0.0176623
865.926	0.0177284
866.004	0.0176807
866.082	0.0174688
866.160	0.0177267
866.238	0.0175542
866.317	0.0175320
866.395	0.0174982
866.473	0.0176547
866.551	0.0175537
866.629	0.0175576
866.707	0.0174428
866.785	0.0174995
866.863	0.0176573
866.942	0.0175722
867.020	0.0174805
867.098	0.0174757
867.176	0.0175515
867.254	0.0175852
867.332	0.0176189
867.410	0.0175967
867.488	0.0176696
867.567	0.0176887
867.645	0.0176307
867.723	0.0176144
867.801	0.0176068
867.879	0.0175323
867.957	0.0176381
868.035	0.0176474
868.113	0.0175871
868.192	0.0175361
868.270	0.0177385
868.348	0.0176072
868.426	0.0175667
868.504	0.0175924
868.582	0.0176701
868.660	0.0175850
868.738	0.0175105
868.817	0.0175404
868.895	0.0173677
868.973	0.0175039
869.051	0.0174634
869.129	0.0175694
869.207	0.0174472
869.285	0.0174564
869.363	0.0175529
869.442	0.0175080
869.520	0.0173974
869.598	0.0174992
869.676	0.0174388
869.754	0.0175044
869.832	0.0176248
869.910	0.0176125
869.988	0.0175217
870.067	0.0175966
870.145	0.0176321
870.223	0.0177138
870.301	0.0177259
870.379	0.0175764
870.457	0.0175743
870.535	0.0177553
870.613	0.0176008
870.692	0.0176669
870.770	0.0176218
870.848	0.0176398
870.926	0.0176321
871.004	0.0175239
871.082	0.0176105
871.160	0.0176836
871.238	0.0175661
871.317	0.0175671
871.395	0.0177303
871.473	0.0175632
871.551	0.0176940
871.629	0.0175568
871.707	0.0175864
871.785	0.0177660
871.863	0.0176938
871.942	0.0176589
872.020	0.0176805
872.098	0.0177688
872.176	0.0176732
872.254	0.0175909
872.332	0.0175602
872.410	0.0175815
872.488	0.0175991
872.567	0.0175378
872.645	0.0176500
872.723	0.0176517
872.801	0.0175677
872.879	0.0175687
872.957	0.0176463
873.035	0.0177131
873.113	0.0175751
873.192	0.0175773
873.270	0.0176003
873.348	0.0177319
873.426	0.0176850
873.504	0.0178372
873.582	0.0178574
873.660	0.0177204
873.738	0.0177666
873.817	0.0178465
873.895	0.0176366
873.973	0.0177154
874.051	0.0176529
874.129	0.0177140
874.207	0.0176633
874.285	0.0176236
874.363	0.0177264
874.442	0.0176641
874.520	0.0175381
874.598	0.0175739
874.676	0.0176638
874.754	0.0175834
874.832	0.0176261
874.910	0.0175892
874.988	0.0177306
875.067	0.0176199
875.145	0.0176810
875.223	0.0176282
875.301	0.0176459
875.379	0.0176180
875.457	0.0176159
875.535	0.0177409
875.613	0.0177340
875.692	0.0176243
875.770	0.0176276
875.848	0.0177921
875.926	0.0176781
876.004	0.0177428
876.082	0.0176632
876.160	0.0177563
876.238	0.0177670
876.317	0.0176448
876.395	0.0176946
876.473	0.0177660
876.551	0.0176376
876.629	0.0175931
876.707	0.0175227
876.785	0.0174796
876.863	0.0174968
876.942	0.0175915
877.020	0.0175539
877.098	0.0174161
877.176	0.0175431
877.254	0.0175919
877.332	0.0176248
877.410	0.0176015
877.488	0.0174537
877.567	0.0174693
877.645	0.0174769
877.723	0.0175838
877.801	0.0175953
877.879	0.0175492
877.957	0.0175365
878.035	0.0174484
878.113	0.0175751
878.192	0.0174189
878.270	0.0175478
878.348	0.0175948
878.426	0.0176081
878.504	0.0173869
878.582	0.0177807
878.660	0.0175651
878.738	0.0175048
878.817	0.0174529
878.895	0.0175372
878.973	0.0175232
879.051	0.0174509
879.129	0.0176237
879.207	0.0174765
879.285	0.0175059
879.363	0.0176309
879.442	0.0176626
879.520	0.0176643
879.598	0.0175953
879.676	0.0176488
879.754	0.0176084
879.832	0.0177077
879.910	0.0177478
879.988	0.0177342
880.067	0.0177142
880.145	0.0177518
880.223	0.0177516
880.301	0.0177661
880.379	0.0176763
880.457	0.0177454
880.535	0.0177308
880.613	0.0176416
880.692	0.0177545
880.770	0.0177506
880.848	0.0177619
880.926	0.0177541
881.004	0.0177689
881.082	0.0178322
881.160	0.0177731
881.238	0.0178275
881.317	0.0177354
881.395	0.0176305
881.473	0.0177469
881.551	0.0176183
881.629	0.0176535
881.707	0.0177077
881.785	0.0177006
881.863	0.0176009
881.942	0.0177891
882.020	0.0176370
882.098	0.0175945
882.176	0.0176231
882.254	0.0177054
882.332	0.0176080
882.410	0.0177457
882.488	0.0176674
882.567	0.0175942
882.645	0.0176685
882.723	0.0178178
882.801	0.0176923
882.879	0.0178182
882.957	0.0176988
883.035	0.0177602
883.113	0.0176435
883.192	0.0177753
883.270	0.0176825
883.348	0.0177719
883.426	0.0177127
883.504	0.0177496
883.582	0.0178109
883.660	0.0177441
883.738	0.0175909
883.817	0.0176117
883.895	0.0176314
883.973	0.0177518
884.051	0.0175500
884.129	0.0175468
884.207	0.0174751
884.285	0.0176282
884.363	0.0175270
884.442	0.0174659
884.520	0.0176170
884.598	0.0176279
884.676	0.0176231
884.754	0.0176162
884.832	0.0175214
884.910	0.0175473
884.988	0.0176089
885.067	0.0175750
885.145	0.0176122
885.223	0.0176788
885.301	0.0177600
885.379	0.0175196
885.457	0.0175903
885.535	0.0175529
885.613	0.0174791
885.692	0.0176363
885.770	0.0175544
885.848	0.0176630
885.926	0.0176335
886.004	0.0176790
886.082	0.0178075
886.160	0.0177415
886.238	0.0175236
886.317	0.0177568
886.395	0.0177595
886.473	0.0176828
886.551	0.0176788
886.629	0.0176975
886.707	0.0178236
886.785	0.0177378
886.863	0.0176241
886.942	0.0176440
887.020	0.0175919
887.098	0.0175433
887.176	0.0175060
887.254	0.0174619
887.332	0.0174711
887.410	0.0175089
887.488	0.0174310
887.567	0.0172813
887.645	0.0174439
887.723	0.0174316
887.801	0.0174549
887.879	0.0175544
887.957	0.0174975
888.035	0.0174603
888.113	0.0174450
888.192	0.0175037
888.270	0.0174699
888.348	0.0174522
888.426	0.0174411
888.504	0.0174577
888.582	0.0175691
888.660	0.0174825
888.738	0.0174446
888.817	0.0175079
888.895	0.0175713
888.973	0.0175607
889.051	0.0174656
889.129	0.0175069
889.207	0.0175832
889.285	0.0175766
889.363	0.0177024
889.442	0.0175426
889.520	0.0175264
889.598	0.0176204
889.676	0.0174874
889.754	0.0175304
889.832	0.0174633
889.910	0.0174549
889.988	0.0174517
890.067	0.0174024
890.145	0.0174020
890.223	0.0173507
890.301	0.0172627
890.379	0.0173407
890.457	0.0172133
890.535	0.0173443
890.613	0.0174227
890.692	0.0173946
890.770	0.0173569
890.848	0.0173534
890.926	0.0172665
891.004	0.0173895
891.082	0.0172486
891.160	0.0173162
891.238	0.0173135
891.317	0.0173217
891.395	0.0172398
891.473	0.0173907
891.551	0.0173830
891.629	0.0172989
891.707	0.0174010
891.785	0.0172731
891.863	0.0173588
891.942	0.0174957
892.020	0.0174059
892.098	0.0174783
892.176	0.0174759
892.254	0.0175084
892.332	0.0175528
892.410	0.0174812
892.488	0.0174215
892.567	0.0175079
892.645	0.0175716
892.723	0.0176825
892.801	0.0175856
892.879	0.0174702
892.957	0.0177082
893.035	0.0176800
893.113	0.0175902
893.192	0.0176749
893.270	0.0175482
893.348	0.0177242
893.426	0.0177699
893.504	0.0177068
893.582	0.0176715
893.660	0.0177719
893.738	0.0176217
893.817	0.0176323
893.895	0.0176850
893.973	0.0177881
894.051	0.0176991
894.129	0.0177478
894.207	0.0176109
894.285	0.0176170
894.363	0.0177219
894.442	0.0176835
894.520	0.0177184
894.598	0.0178004
894.676	0.0175032
894.754	0.0176847
894.832	0.0177377
894.910	0.0175545
894.988	0.0175330
895.067	0.0176369
895.145	0.0176694
895.223	0.0175900
895.301	0.0177030
895.379	0.0175310
895.457	0.0176374
895.535	0.0177626
895.613	0.0174635
895.692	0.0174561
895.770	0.0174173
895.848	0.0176062
895.926	0.0175049
896.004	0.0175512
896.082	0.0174644
896.160	0.0175000
896.238	0.0175211
896.317	0.0175323
896.395	0.0176118
896.473	0.0175703
896.551	0.0175799
896.629	0.0174850
896.707	0.0175676
896.785	0.0175383
896.863	0.0177069
896.942	0.0175644
897.020	0.0176411
897.098	0.0177229
897.176	0.0175662
897.254	0.0175923
897.332	0.0175865
897.410	0.0174955
897.488	0.0177381
897.567	0.0175661
897.645	0.0175768
897.723	0.0177689
897.801	0.0177537
897.879	0.0177332
897.957	0.0178429
898.035	0.0176576
898.113	0.0177165
898.192	0.0176585
898.270	0.0176752
898.348	0.0178400
898.426	0.0177853
898.504	0.0176656
898.582	0.0177461
898.660	0.0177833
898.738	0.0177351
898.817	0.0176260
898.895	0.0177991
898.973	0.0177134
899.051	0.0177303
899.129	0.0177487
899.207	0.0178731
899.285	0.0177124
899.363	0.0176136
899.442	0.0177562
899.520	0.0178670
899.598	0.0178196
899.676	0.0177914
899.754	0.0177473
899.832	0.0177650
899.910	0.0176537
899.988	0.0176611
900.067	0.0177247
900.145	0.0177541
900.223	0.0177844
900.301	0.0176823
900.379	0.0176470
900.457	0.0175858
900.535	0.0176015
900.613	0.0175911
900.692	0.0175626
900.770	0.0176284
900.848	0.0177639
900.926	0.0176636
901.004	0.0175636
901.082	0.0177493
901.160	0.0176775
901.238	0.0175129
901.317	0.0175022
901.395	0.0175703
901.473	0.0177068
901.551	0.0177325
901.629	0.0176182
901.707	0.0176679
901.785	0.0175955
901.863	0.0177666
901.942	0.0175544
902.020	0.0175908
902.098	0.0176646
902.176	0.0175996
902.254	0.0175520
902.332	0.0175265
902.410	0.0176515
902.488	0.0175503
902.567	0.0176064
902.645	0.0176485
902.723	0.0175256
902.801	0.0176102
902.879	0.0174885
902.957	0.0177026
903.035	0.0176532
903.113	0.0174503
903.192	0.0175140
903.270	0.0175050
903.348	0.0176588
903.426	0.0177806
903.504	0.0176947
903.582	0.0176806
903.660	0.0178168
903.738	0.0176839
903.817	0.0176171
903.895	0.0176431
903.973	0.0177174
904.051	0.0176497
904.129	0.0176341
904.207	0.0177496
904.285	0.0176425
904.363	0.0177080
904.442	0.0177030
904.520	0.0176882
904.598	0.0176287
904.676	0.0175896
904.754	0.0176037
904.832	0.0175912
904.910	0.0175170
904.988	0.0176666
905.067	0.0175364
905.145	0.0175613
905.223	0.0175614
905.301	0.0175261
905.379	0.0174928
905.457	0.0176421
905.535	0.0176266
905.613	0.0176293
905.692	0.0174506
905.770	0.0175753
905.848	0.0175912
905.926	0.0176198
906.004	0.0175519
906.082	0.0174394
906.160	0.0176355
906.238	0.0175642
906.317	0.0175268
906.395	0.0176087
906.473	0.0175414
906.551	0.0175645
906.629	0.0176725
906.707	0.0176043
906.785	0.0176145
906.863	0.0175407
906.942	0.0176958
907.020	0.0176018
907.098	0.0175328
907.176	0.0175454
907.254	0.0175192
907.332	0.0176960
907.410	0.0176100
907.488	0.0176082
907.567	0.0177328
907.645	0.0176467
907.723	0.0175289
907.801	0.0177966
907.879	0.0175842
907.957	0.0175549
908.035	0.0175793
908.113	0.0176385
908.192	0.0176233
908.270	0.0176450
908.348	0.0176107
908.426	0.0175572
908.504	0.0175896
908.582	0.0174833
908.660	0.0176193
908.738	0.0175361
908.817	0.0175843
908.895	0.0175707
908.973	0.0175616
909.051	0.0176170
909.129	0.0176524
909.207	0.0176404
909.285	0.0176597
909.363	0.0174995
909.442	0.0176438
909.520	0.0177620
909.598	0.0177078
909.676	0.0176410
909.754	0.0176511
909.832	0.0175657
909.910	0.0177043
909.988	0.0176278
910.067	0.0177081
910.145	0.0177139
910.223	0.0175210
910.301	0.0174892
910.379	0.0176048
910.457	0.0175905
910.535	0.0175725
910.613	0.0175436
910.692	0.0174640
910.770	0.0174274
910.848	0.0175164
910.926	0.0175402
911.004	0.0175714
911.082	0.0174058
911.160	0.0173566
911.238	0.0173697
911.317	0.0173577
911.395	0.0175549
911.473	0.0174551
911.551	0.0172572
911.629	0.0174443
911.707	0.0174872
911.785	0.0174184
911.863	0.0172795
911.942	0.0173846
912.020	0.0174099
912.098	0.0173536
912.176	0.0174391
912.254	0.0174699
912.332	0.0174053
912.410	0.0173721
912.488	0.0174583
912.567	0.0174278
912.645	0.0175789
912.723	0.0176027
912.801	0.0174438
912.879	0.0175510
912.957	0.0176122
913.035	0.0177203
913.113	0.0175418
913.192	0.0176451
913.270	0.0175586
913.348	0.0174979
913.426	0.0175974
913.504	0.0175980
913.582	0.0177304
913.660	0.0175884
913.738	0.0177225
913.817	0.0177670
913.895	0.0175743
913.973	0.0176323
914.051	0.0177778
914.129	0.0176774
914.207	0.0176852
914.285	0.0176854
914.363	0.0175952
914.442	0.0176574
914.520	0.0175690
914.598	0.0177451
914.676	0.0176654
914.754	0.0175815
914.832	0.0176520
914.910	0.0176691
914.988	0.0176389
915.067	0.0176349
915.145	0.0176083
915.223	0.0176001
915.301	0.0175678
915.379	0.0176176
915.457	0.0176908
915.535	0.0175517
915.613	0.0175875
915.692	0.0175912
915.770	0.0176508
915.848	0.0176865
915.926	0.0175568
916.004	0.0174810
916.082	0.0175138
916.160	0.0177675
916.238	0.0176800
916.317	0.0176871
916.395	0.0177795
916.473	0.0175559
916.551	0.0176018
916.629	0.0176389
916.707	0.0176408
916.785	0.0175189
916.863	0.0176419
916.942	0.0176801
917.020	0.0176270
917.098	0.0178294
917.176	0.0177499
917.254	0.0176720
917.332	0.0178065
917.410	0.0176867
917.488	0.0176619
917.567	0.0176324
917.645	0.0177504
917.723	0.0176525
917.801	0.0177729
917.879	0.0178249
917.957	0.0177169
918.035	0.0176907
918.113	0.0177351
918.192	0.0176473
918.270	0.0177299
918.348	0.0178310
918.426	0.0177519
918.504	0.0176889
918.582	0.0176206
918.660	0.0177265
918.738	0.0179173
918.817	0.0177792
918.895	0.0177769
918.973	0.0178446
919.051	0.0177982
919.129	0.0177699
919.207	0.0177617
919.285	0.0177332
919.363	0.0178089
919.442	0.0177792
919.520	0.0177589
919.598	0.0177873
919.676	0.0176087
919.754	0.0175954
919.832	0.0176682
919.910	0.0175491
