06/01/2022	22:09:34	Ver.	4.1	UNKNOWN
Optical Delay	599.988409	Delta X		0.078125	Sweeps	1	Scan Rate	0/0
Coordinates	Axis 1	NaN	Axis 2	NaN	Axis 3	NaN	Axis 4	NaN	Axis 5	NaN	Axis 6	0.000000
TX Power	0.000000	RX Power	0.000000

599.988	0.0169965
600.067	0.0169495
600.145	0.0168467
600.223	0.0169436
600.301	0.0169706
600.379	0.0168950
600.457	0.0168170
600.535	0.0167952
600.613	0.0168465
600.692	0.0169274
600.770	0.0169093
600.848	0.0169331
600.926	0.0168128
601.004	0.0168370
601.082	0.0168626
601.160	0.0168122
601.238	0.0169495
601.317	0.0167612
601.395	0.0168262
601.473	0.0169280
601.551	0.0168350
601.629	0.0168227
601.707	0.0169135
601.785	0.0167113
601.863	0.0167672
601.942	0.0168330
602.020	0.0169083
602.098	0.0169006
602.176	0.0169312
602.254	0.0167852
602.332	0.0169894
602.410	0.0168422
602.488	0.0168602
602.567	0.0168760
602.645	0.0168987
602.723	0.0168658
602.801	0.0169753
602.879	0.0169733
602.957	0.0170025
603.035	0.0169111
603.113	0.0169057
603.192	0.0168460
603.270	0.0169063
603.348	0.0169235
603.426	0.0168116
603.504	0.0168265
603.582	0.0167702
603.660	0.0167732
603.738	0.0168198
603.817	0.0169395
603.895	0.0168220
603.973	0.0168125
604.051	0.0169267
604.129	0.0168715
604.207	0.0169836
604.285	0.0169036
604.363	0.0168098
604.442	0.0168822
604.520	0.0169618
604.598	0.0170438
604.676	0.0169022
604.754	0.0167528
604.832	0.0169884
604.910	0.0170275
604.988	0.0169772
605.067	0.0169370
605.145	0.0170156
605.223	0.0169138
605.301	0.0170085
605.379	0.0169682
605.457	0.0168793
605.535	0.0169455
605.613	0.0169360
605.692	0.0169036
605.770	0.0169151
605.848	0.0169148
605.926	0.0169160
606.004	0.0169965
606.082	0.0169216
606.160	0.0168755
606.238	0.0169356
606.317	0.0169257
606.395	0.0171021
606.473	0.0169812
606.551	0.0169665
606.629	0.0169946
606.707	0.0169927
606.785	0.0171381
606.863	0.0170116
606.942	0.0168664
607.020	0.0169910
607.098	0.0169692
607.176	0.0169637
607.254	0.0170258
607.332	0.0169611
607.410	0.0169698
607.488	0.0168785
607.567	0.0170411
607.645	0.0171046
607.723	0.0168907
607.801	0.0168687
607.879	0.0168789
607.957	0.0171176
608.035	0.0169751
608.113	0.0169693
608.192	0.0169595
608.270	0.0170120
608.348	0.0168697
608.426	0.0169133
608.504	0.0169405
608.582	0.0170305
608.660	0.0169315
608.738	0.0169640
608.817	0.0170328
608.895	0.0169588
608.973	0.0169525
609.051	0.0169183
609.129	0.0168416
609.207	0.0169014
609.285	0.0170426
609.363	0.0170501
609.442	0.0167400
609.520	0.0169118
609.598	0.0169255
609.676	0.0168850
609.754	0.0169140
609.832	0.0170248
609.910	0.0168301
609.988	0.0168523
610.067	0.0168784
610.145	0.0169719
610.223	0.0170181
610.301	0.0169589
610.379	0.0169528
610.457	0.0170171
610.535	0.0169073
610.613	0.0168254
610.692	0.0169736
610.770	0.0167937
610.848	0.0169656
610.926	0.0169641
611.004	0.0168523
611.082	0.0167763
611.160	0.0168685
611.238	0.0168443
611.317	0.0166708
611.395	0.0168015
611.473	0.0169212
611.551	0.0169939
611.629	0.0169794
611.707	0.0169510
611.785	0.0168696
611.863	0.0169765
611.942	0.0168987
612.020	0.0169281
612.098	0.0169487
612.176	0.0169759
612.254	0.0169981
612.332	0.0168031
612.410	0.0170013
612.488	0.0169572
612.567	0.0169671
612.645	0.0169764
612.723	0.0168368
612.801	0.0169957
612.879	0.0169758
612.957	0.0169418
613.035	0.0169424
613.113	0.0169587
613.192	0.0167737
613.270	0.0168592
613.348	0.0169003
613.426	0.0168668
613.504	0.0170844
613.582	0.0168420
613.660	0.0167911
613.738	0.0169911
613.817	0.0170194
613.895	0.0169844
613.973	0.0170096
614.051	0.0168270
614.129	0.0169041
614.207	0.0170562
614.285	0.0170018
614.363	0.0169762
614.442	0.0169713
614.520	0.0169647
614.598	0.0170048
614.676	0.0169691
614.754	0.0170601
614.832	0.0170554
614.910	0.0169928
614.988	0.0169800
615.067	0.0168893
615.145	0.0168779
615.223	0.0170074
615.301	0.0170367
615.379	0.0170255
615.457	0.0169438
615.535	0.0169996
615.613	0.0170388
615.692	0.0170441
615.770	0.0169286
615.848	0.0169845
615.926	0.0170802
616.004	0.0169383
616.082	0.0170503
616.160	0.0170704
616.238	0.0170448
616.317	0.0170115
616.395	0.0171002
616.473	0.0171354
616.551	0.0170291
616.629	0.0170246
616.707	0.0171783
616.785	0.0170879
616.863	0.0170955
616.942	0.0169556
617.020	0.0170451
617.098	0.0170654
617.176	0.0170790
617.254	0.0170696
617.332	0.0170202
617.410	0.0169469
617.488	0.0170841
617.567	0.0169292
617.645	0.0170502
617.723	0.0170145
617.801	0.0170312
617.879	0.0170228
617.957	0.0170940
618.035	0.0171606
618.113	0.0171342
618.192	0.0169835
618.270	0.0170255
618.348	0.0170171
618.426	0.0169411
618.504	0.0171382
618.582	0.0171313
618.660	0.0169921
618.738	0.0171202
618.817	0.0171335
618.895	0.0170045
618.973	0.0169666
619.051	0.0171107
619.129	0.0171307
619.207	0.0169329
619.285	0.0170541
619.363	0.0169147
619.442	0.0169473
619.520	0.0170675
619.598	0.0168364
619.676	0.0169743
619.754	0.0171870
619.832	0.0169755
619.910	0.0169867
619.988	0.0169614
620.067	0.0169684
620.145	0.0170122
620.223	0.0169704
620.301	0.0168824
620.379	0.0169997
620.457	0.0169862
620.535	0.0170007
620.613	0.0169505
620.692	0.0170420
620.770	0.0169691
620.848	0.0168871
620.926	0.0170330
621.004	0.0171690
621.082	0.0170369
621.160	0.0169991
621.238	0.0170206
621.317	0.0169433
621.395	0.0169152
621.473	0.0170605
621.551	0.0169832
621.629	0.0169355
621.707	0.0168967
621.785	0.0169553
621.863	0.0170172
621.942	0.0171065
622.020	0.0169569
622.098	0.0169117
622.176	0.0170433
622.254	0.0169875
622.332	0.0168657
622.410	0.0169176
622.488	0.0171039
622.567	0.0169704
622.645	0.0169039
622.723	0.0170595
622.801	0.0170652
622.879	0.0169559
622.957	0.0169692
623.035	0.0169384
623.113	0.0170726
623.192	0.0169540
623.270	0.0169898
623.348	0.0169455
623.426	0.0172197
623.504	0.0170742
623.582	0.0168594
623.660	0.0171331
623.738	0.0172008
623.817	0.0169443
623.895	0.0170712
623.973	0.0171783
624.051	0.0170180
624.129	0.0170777
624.207	0.0171133
624.285	0.0170667
624.363	0.0171223
624.442	0.0170272
624.520	0.0172067
624.598	0.0171848
624.676	0.0171056
624.754	0.0170663
624.832	0.0169400
624.910	0.0170309
624.988	0.0169144
625.067	0.0169579
625.145	0.0170230
625.223	0.0170036
625.301	0.0170372
625.379	0.0169833
625.457	0.0168172
625.535	0.0169604
625.613	0.0168277
625.692	0.0168336
625.770	0.0168335
625.848	0.0169236
625.926	0.0168245
626.004	0.0169455
626.082	0.0169691
626.160	0.0168683
626.238	0.0167490
626.317	0.0169505
626.395	0.0169931
626.473	0.0167834
626.551	0.0168842
626.629	0.0169597
626.707	0.0168394
626.785	0.0168089
626.863	0.0168234
626.942	0.0169513
627.020	0.0168762
627.098	0.0169461
627.176	0.0167983
627.254	0.0167607
627.332	0.0169418
627.410	0.0168506
627.488	0.0166965
627.567	0.0168747
627.645	0.0169615
627.723	0.0167957
627.801	0.0168674
627.879	0.0169482
627.957	0.0169551
628.035	0.0169249
628.113	0.0168682
628.192	0.0168780
628.270	0.0167556
628.348	0.0167756
628.426	0.0169077
628.504	0.0168025
628.582	0.0169085
628.660	0.0168269
628.738	0.0168186
628.817	0.0168926
628.895	0.0168029
628.973	0.0167880
629.051	0.0168139
629.129	0.0169189
629.207	0.0168619
629.285	0.0168507
629.363	0.0168119
629.442	0.0168426
629.520	0.0168935
629.598	0.0169147
629.676	0.0167566
629.754	0.0168955
629.832	0.0167654
629.910	0.0167233
629.988	0.0167899
630.067	0.0169808
630.145	0.0168804
630.223	0.0169057
630.301	0.0168564
630.379	0.0168616
630.457	0.0168796
630.535	0.0168935
630.613	0.0169853
630.692	0.0169463
630.770	0.0170306
630.848	0.0168718
630.926	0.0169123
631.004	0.0169950
631.082	0.0170231
631.160	0.0169953
631.238	0.0169614
631.317	0.0171159
631.395	0.0170395
631.473	0.0169281
631.551	0.0169236
631.629	0.0169805
631.707	0.0171143
631.785	0.0170560
631.863	0.0171290
631.942	0.0171654
632.020	0.0169930
632.098	0.0170142
632.176	0.0171432
632.254	0.0170557
632.332	0.0171871
632.410	0.0169632
632.488	0.0172051
632.567	0.0170164
632.645	0.0171104
632.723	0.0170702
632.801	0.0171835
632.879	0.0171674
632.957	0.0172153
633.035	0.0171603
633.113	0.0170949
633.192	0.0169872
633.270	0.0170636
633.348	0.0171108
633.426	0.0172007
633.504	0.0171679
633.582	0.0171937
633.660	0.0171381
633.738	0.0171839
633.817	0.0170480
633.895	0.0171733
633.973	0.0169568
634.051	0.0171925
634.129	0.0170970
634.207	0.0171083
634.285	0.0171999
634.363	0.0171654
634.442	0.0170598
634.520	0.0170394
634.598	0.0171664
634.676	0.0170740
634.754	0.0170341
634.832	0.0172305
634.910	0.0171162
634.988	0.0169013
635.067	0.0171001
635.145	0.0170686
635.223	0.0170774
635.301	0.0171418
635.379	0.0171944
635.457	0.0170869
635.535	0.0171985
635.613	0.0170390
635.692	0.0169203
635.770	0.0170441
635.848	0.0170433
635.926	0.0170131
636.004	0.0169575
636.082	0.0170869
636.160	0.0169672
636.238	0.0170052
636.317	0.0168873
636.395	0.0169534
636.473	0.0170142
636.551	0.0168553
636.629	0.0169587
636.707	0.0169347
636.785	0.0169540
636.863	0.0169585
636.942	0.0170007
637.020	0.0169284
637.098	0.0169720
637.176	0.0170226
637.254	0.0169606
637.332	0.0170016
637.410	0.0169701
637.488	0.0169270
637.567	0.0169109
637.645	0.0169746
637.723	0.0170710
637.801	0.0170185
637.879	0.0170005
637.957	0.0170271
638.035	0.0171254
638.113	0.0169855
638.192	0.0170300
638.270	0.0171374
638.348	0.0170206
638.426	0.0170784
638.504	0.0170735
638.582	0.0170854
638.660	0.0169755
638.738	0.0169870
638.817	0.0170826
638.895	0.0171948
638.973	0.0171111
639.051	0.0171561
639.129	0.0169985
639.207	0.0170026
639.285	0.0169750
639.363	0.0171525
639.442	0.0170036
639.520	0.0169061
639.598	0.0171469
639.676	0.0171256
639.754	0.0170186
639.832	0.0170640
639.910	0.0170558
639.988	0.0169939
640.067	0.0169653
640.145	0.0170401
640.223	0.0168816
640.301	0.0169386
640.379	0.0170817
640.457	0.0170530
640.535	0.0170869
640.613	0.0169459
640.692	0.0170309
640.770	0.0169499
640.848	0.0169571
640.926	0.0171238
641.004	0.0171729
641.082	0.0169983
641.160	0.0170705
641.238	0.0170770
641.317	0.0171853
641.395	0.0171515
641.473	0.0171195
641.551	0.0172196
641.629	0.0170503
641.707	0.0171716
641.785	0.0172347
641.863	0.0171200
641.942	0.0171384
642.020	0.0171165
642.098	0.0169794
642.176	0.0171250
642.254	0.0170487
642.332	0.0171621
642.410	0.0171096
642.488	0.0170448
642.567	0.0169555
642.645	0.0171214
642.723	0.0170406
642.801	0.0169988
642.879	0.0169912
642.957	0.0170433
643.035	0.0169805
643.113	0.0170163
643.192	0.0169526
643.270	0.0169963
643.348	0.0169014
643.426	0.0169797
643.504	0.0170220
643.582	0.0170761
643.660	0.0168740
643.738	0.0168985
643.817	0.0170430
643.895	0.0169273
643.973	0.0168378
644.051	0.0170779
644.129	0.0169421
644.207	0.0170390
644.285	0.0170356
644.363	0.0169476
644.442	0.0169474
644.520	0.0170367
644.598	0.0170623
644.676	0.0169981
644.754	0.0170433
644.832	0.0170927
644.910	0.0169978
644.988	0.0170632
645.067	0.0169963
645.145	0.0168960
645.223	0.0170665
645.301	0.0169725
645.379	0.0169425
645.457	0.0168278
645.535	0.0170131
645.613	0.0170567
645.692	0.0167611
645.770	0.0167666
645.848	0.0168574
645.926	0.0169629
646.004	0.0169630
646.082	0.0167787
646.160	0.0170094
646.238	0.0169662
646.317	0.0168574
646.395	0.0169360
646.473	0.0169665
646.551	0.0169511
646.629	0.0169527
646.707	0.0170324
646.785	0.0170432
646.863	0.0170277
646.942	0.0172115
647.020	0.0171930
647.098	0.0170869
647.176	0.0171691
647.254	0.0171600
647.332	0.0170435
647.410	0.0170858
647.488	0.0170761
647.567	0.0169961
647.645	0.0169994
647.723	0.0171021
647.801	0.0172213
647.879	0.0171275
647.957	0.0170412
648.035	0.0171338
648.113	0.0170786
648.192	0.0171688
648.270	0.0171830
648.348	0.0171355
648.426	0.0170147
648.504	0.0171060
648.582	0.0171633
648.660	0.0171214
648.738	0.0169891
648.817	0.0170821
648.895	0.0170817
648.973	0.0170155
649.051	0.0169753
649.129	0.0170275
649.207	0.0169711
649.285	0.0169884
649.363	0.0168217
649.442	0.0169976
649.520	0.0169852
649.598	0.0168465
649.676	0.0167171
649.754	0.0168393
649.832	0.0169144
649.910	0.0168393
649.988	0.0168339
650.067	0.0168635
650.145	0.0168795
650.223	0.0168466
650.301	0.0167838
650.379	0.0167687
650.457	0.0168053
650.535	0.0168597
650.613	0.0168140
650.692	0.0168345
650.770	0.0169045
650.848	0.0169550
650.926	0.0168777
651.004	0.0170848
651.082	0.0169768
651.160	0.0170039
651.238	0.0170638
651.317	0.0169283
651.395	0.0169129
651.473	0.0169439
651.551	0.0169335
651.629	0.0169830
651.707	0.0169658
651.785	0.0170334
651.863	0.0169879
651.942	0.0169793
652.020	0.0168961
652.098	0.0170305
652.176	0.0171061
652.254	0.0169740
652.332	0.0168977
652.410	0.0170609
652.488	0.0170425
652.567	0.0169248
652.645	0.0170408
652.723	0.0169714
652.801	0.0171176
652.879	0.0169473
652.957	0.0169328
653.035	0.0170012
653.113	0.0169491
653.192	0.0170392
653.270	0.0169803
653.348	0.0168365
653.426	0.0169981
653.504	0.0170438
653.582	0.0168407
653.660	0.0169102
653.738	0.0168770
653.817	0.0169057
653.895	0.0169094
653.973	0.0169279
654.051	0.0169530
654.129	0.0169047
654.207	0.0169396
654.285	0.0169743
654.363	0.0170679
654.442	0.0169324
654.520	0.0170648
654.598	0.0169967
654.676	0.0169682
654.754	0.0169099
654.832	0.0169595
654.910	0.0171383
654.988	0.0170641
655.067	0.0169071
655.145	0.0171440
655.223	0.0170750
655.301	0.0170477
655.379	0.0170590
655.457	0.0171295
655.535	0.0170500
655.613	0.0171227
655.692	0.0171243
655.770	0.0171749
655.848	0.0171634
655.926	0.0171226
656.004	0.0170853
656.082	0.0170310
656.160	0.0171117
656.238	0.0170770
656.317	0.0171313
656.395	0.0171967
656.473	0.0171401
656.551	0.0172174
656.629	0.0171278
656.707	0.0171129
656.785	0.0172408
656.863	0.0170712
656.942	0.0170492
657.020	0.0170255
657.098	0.0172099
657.176	0.0170657
657.254	0.0170223
657.332	0.0170486
657.410	0.0170706
657.488	0.0171319
657.567	0.0170254
657.645	0.0170119
657.723	0.0171143
657.801	0.0171912
657.879	0.0171505
657.957	0.0170801
658.035	0.0170496
658.113	0.0170996
658.192	0.0170966
658.270	0.0170529
658.348	0.0169555
658.426	0.0171580
658.504	0.0170467
658.582	0.0170144
658.660	0.0170181
658.738	0.0169357
658.817	0.0169909
658.895	0.0169724
658.973	0.0168921
659.051	0.0169164
659.129	0.0168857
659.207	0.0169086
659.285	0.0168525
659.363	0.0169357
659.442	0.0167818
659.520	0.0168327
659.598	0.0168884
659.676	0.0169389
659.754	0.0168075
659.832	0.0168757
659.910	0.0167113
659.988	0.0168655
660.067	0.0167574
660.145	0.0169038
660.223	0.0169011
660.301	0.0170214
660.379	0.0169259
660.457	0.0169187
660.535	0.0168037
660.613	0.0169205
660.692	0.0171128
660.770	0.0169218
660.848	0.0170253
660.926	0.0170750
661.004	0.0170313
661.082	0.0169660
661.160	0.0169728
661.238	0.0170406
661.317	0.0169958
661.395	0.0170684
661.473	0.0169968
661.551	0.0169799
661.629	0.0169814
661.707	0.0170145
661.785	0.0168851
661.863	0.0170341
661.942	0.0169177
662.020	0.0169134
662.098	0.0169894
662.176	0.0168710
662.254	0.0168056
662.332	0.0169446
662.410	0.0169586
662.488	0.0169843
662.567	0.0170187
662.645	0.0170035
662.723	0.0168982
662.801	0.0171251
662.879	0.0171505
662.957	0.0171013
663.035	0.0170484
663.113	0.0169317
663.192	0.0171025
663.270	0.0169176
663.348	0.0170774
663.426	0.0169716
663.504	0.0170093
663.582	0.0170840
663.660	0.0171085
663.738	0.0169762
663.817	0.0169382
663.895	0.0169906
663.973	0.0168733
664.051	0.0169163
664.129	0.0170947
664.207	0.0170126
664.285	0.0169760
664.363	0.0170451
664.442	0.0169382
664.520	0.0168895
664.598	0.0168952
664.676	0.0169074
664.754	0.0169749
664.832	0.0170597
664.910	0.0168518
664.988	0.0168671
665.067	0.0169753
665.145	0.0167898
665.223	0.0167461
665.301	0.0167602
665.379	0.0168824
665.457	0.0168502
665.535	0.0168330
665.613	0.0168194
665.692	0.0167645
665.770	0.0168210
665.848	0.0168600
665.926	0.0169800
666.004	0.0170306
666.082	0.0169741
666.160	0.0169166
666.238	0.0167838
666.317	0.0167776
666.395	0.0167584
666.473	0.0167776
666.551	0.0169585
666.629	0.0168298
666.707	0.0169079
666.785	0.0170138
666.863	0.0169173
666.942	0.0168819
667.020	0.0169881
667.098	0.0171242
667.176	0.0170785
667.254	0.0170185
667.332	0.0171861
667.410	0.0171682
667.488	0.0168629
667.567	0.0169228
667.645	0.0171410
667.723	0.0169863
667.801	0.0169881
667.879	0.0169765
667.957	0.0169369
668.035	0.0169307
668.113	0.0169659
668.192	0.0168899
668.270	0.0170091
668.348	0.0168148
668.426	0.0168240
668.504	0.0168999
668.582	0.0170030
668.660	0.0169380
668.738	0.0171009
668.817	0.0169375
668.895	0.0169147
668.973	0.0172256
669.051	0.0169611
669.129	0.0171217
669.207	0.0170364
669.285	0.0171391
669.363	0.0171952
669.442	0.0172692
669.520	0.0172691
669.598	0.0171524
669.676	0.0172791
669.754	0.0173409
669.832	0.0172902
669.910	0.0171486
669.988	0.0171064
670.067	0.0171511
670.145	0.0171902
670.223	0.0171941
670.301	0.0172520
670.379	0.0172556
670.457	0.0172619
670.535	0.0171758
670.613	0.0171880
670.692	0.0171136
670.770	0.0172475
670.848	0.0171111
670.926	0.0171776
671.004	0.0170982
671.082	0.0172497
671.160	0.0170435
671.238	0.0170254
671.317	0.0173466
671.395	0.0172124
671.473	0.0171466
671.551	0.0172186
671.629	0.0172708
671.707	0.0172532
671.785	0.0171776
671.863	0.0173202
671.942	0.0172427
672.020	0.0170781
672.098	0.0172018
672.176	0.0172861
672.254	0.0171552
672.332	0.0172321
672.410	0.0171589
672.488	0.0171302
672.567	0.0170286
672.645	0.0169076
672.723	0.0170671
672.801	0.0170920
672.879	0.0171564
672.957	0.0170904
673.035	0.0169940
673.113	0.0167864
673.192	0.0167283
673.270	0.0169244
673.348	0.0169936
673.426	0.0169673
673.504	0.0169444
673.582	0.0168832
673.660	0.0168990
673.738	0.0170255
673.817	0.0170438
673.895	0.0170120
673.973	0.0170181
674.051	0.0170282
674.129	0.0171332
674.207	0.0172054
674.285	0.0172238
674.363	0.0173192
674.442	0.0171542
674.520	0.0172620
674.598	0.0172197
674.676	0.0170895
674.754	0.0171169
674.832	0.0169723
674.910	0.0169798
674.988	0.0169344
675.067	0.0168649
675.145	0.0166653
675.223	0.0167259
675.301	0.0166435
675.379	0.0168545
675.457	0.0167793
675.535	0.0166494
675.613	0.0165150
675.692	0.0166022
675.770	0.0165700
675.848	0.0166317
675.926	0.0166493
676.004	0.0168391
676.082	0.0167426
676.160	0.0167724
676.238	0.0168967
676.317	0.0169598
676.395	0.0169682
676.473	0.0170078
676.551	0.0169756
676.629	0.0170865
676.707	0.0169623
676.785	0.0170288
676.863	0.0170452
676.942	0.0171101
677.020	0.0169566
677.098	0.0170709
677.176	0.0168174
677.254	0.0168142
677.332	0.0167489
677.410	0.0167854
677.488	0.0167484
677.567	0.0168185
677.645	0.0166949
677.723	0.0165694
677.801	0.0166316
677.879	0.0167178
677.957	0.0167163
678.035	0.0167764
678.113	0.0167021
678.192	0.0167817
678.270	0.0167889
678.348	0.0167995
678.426	0.0168570
678.504	0.0169953
678.582	0.0168867
678.660	0.0168752
678.738	0.0169209
678.817	0.0170405
678.895	0.0169910
678.973	0.0169705
679.051	0.0168714
679.129	0.0169637
679.207	0.0168947
679.285	0.0169933
679.363	0.0168023
679.442	0.0167257
679.520	0.0169158
679.598	0.0168045
679.676	0.0167387
679.754	0.0165485
679.832	0.0167313
679.910	0.0168795
679.988	0.0166521
680.067	0.0168546
680.145	0.0167902
680.223	0.0168525
680.301	0.0168365
680.379	0.0168000
680.457	0.0169619
680.535	0.0168734
680.613	0.0168639
680.692	0.0169321
680.770	0.0169630
680.848	0.0170467
680.926	0.0169800
681.004	0.0169627
681.082	0.0168475
681.160	0.0170472
681.238	0.0170269
681.317	0.0170046
681.395	0.0172219
681.473	0.0170792
681.551	0.0171722
681.629	0.0173688
681.707	0.0171719
681.785	0.0173640
681.863	0.0173643
681.942	0.0173386
682.020	0.0175126
682.098	0.0172873
682.176	0.0173502
682.254	0.0173106
682.332	0.0173299
682.410	0.0173472
682.488	0.0172484
682.567	0.0172157
682.645	0.0171119
682.723	0.0171404
682.801	0.0170013
682.879	0.0169163
682.957	0.0169495
683.035	0.0167387
683.113	0.0167896
683.192	0.0166174
683.270	0.0164706
683.348	0.0165848
683.426	0.0165895
683.504	0.0167025
683.582	0.0165507
683.660	0.0166287
683.738	0.0166494
683.817	0.0166181
683.895	0.0167774
683.973	0.0167912
684.051	0.0167607
684.129	0.0168745
684.207	0.0168741
684.285	0.0169401
684.363	0.0170311
684.442	0.0171017
684.520	0.0172325
684.598	0.0172247
684.676	0.0172122
684.754	0.0173433
684.832	0.0174114
684.910	0.0173968
684.988	0.0173347
685.067	0.0173482
685.145	0.0174931
685.223	0.0173275
685.301	0.0173344
685.379	0.0173839
685.457	0.0172169
685.535	0.0174046
685.613	0.0172011
685.692	0.0171140
685.770	0.0171990
685.848	0.0170838
685.926	0.0170049
686.004	0.0168600
686.082	0.0167508
686.160	0.0168322
686.238	0.0167116
686.317	0.0166210
686.395	0.0165669
686.473	0.0164444
686.551	0.0163833
686.629	0.0164864
686.707	0.0164864
686.785	0.0164009
686.863	0.0163912
686.942	0.0164060
687.020	0.0164864
687.098	0.0166142
687.176	0.0165836
687.254	0.0166107
687.332	0.0168451
687.410	0.0168310
687.488	0.0167821
687.567	0.0167906
687.645	0.0169041
687.723	0.0169880
687.801	0.0171451
687.879	0.0172088
687.957	0.0172549
688.035	0.0172521
688.113	0.0173273
688.192	0.0174231
688.270	0.0175295
688.348	0.0175568
688.426	0.0175363
688.504	0.0176797
688.582	0.0175009
688.660	0.0176949
688.738	0.0176194
688.817	0.0175901
688.895	0.0176080
688.973	0.0173573
689.051	0.0173737
689.129	0.0173933
689.207	0.0171853
689.285	0.0171574
689.363	0.0170979
689.442	0.0169431
689.520	0.0168777
689.598	0.0165705
689.676	0.0165983
689.754	0.0164602
689.832	0.0163054
689.910	0.0163733
689.988	0.0162904
690.067	0.0162656
690.145	0.0162704
690.223	0.0162543
690.301	0.0162834
690.379	0.0163157
690.457	0.0162723
690.535	0.0162835
690.613	0.0164375
690.692	0.0163909
690.770	0.0164942
690.848	0.0165512
690.926	0.0167545
691.004	0.0168541
691.082	0.0168517
691.160	0.0168378
691.238	0.0171780
691.317	0.0171736
691.395	0.0171516
691.473	0.0172815
691.551	0.0173848
691.629	0.0173737
691.707	0.0174607
691.785	0.0175579
691.863	0.0175809
691.942	0.0176319
692.020	0.0175426
692.098	0.0175420
692.176	0.0175900
692.254	0.0175652
692.332	0.0175061
692.410	0.0175015
692.488	0.0175594
692.567	0.0174044
692.645	0.0173201
692.723	0.0173866
692.801	0.0173124
692.879	0.0171429
692.957	0.0173237
693.035	0.0172366
693.113	0.0170291
693.192	0.0169830
693.270	0.0169138
693.348	0.0168872
693.426	0.0168893
693.504	0.0166882
693.582	0.0168671
693.660	0.0167733
693.738	0.0167731
693.817	0.0168443
693.895	0.0167422
693.973	0.0168170
694.051	0.0167531
694.129	0.0168330
694.207	0.0168273
694.285	0.0166820
694.363	0.0167649
694.442	0.0167769
694.520	0.0165913
694.598	0.0166056
694.676	0.0165872
694.754	0.0166155
694.832	0.0165424
694.910	0.0164799
694.988	0.0165916
695.067	0.0164011
695.145	0.0164085
695.223	0.0163983
695.301	0.0164841
695.379	0.0165117
695.457	0.0165332
695.535	0.0165991
695.613	0.0165797
695.692	0.0166426
695.770	0.0167135
695.848	0.0166383
695.926	0.0166649
696.004	0.0168484
696.082	0.0168322
696.160	0.0168338
696.238	0.0169981
696.317	0.0169432
696.395	0.0168967
696.473	0.0171030
696.551	0.0172755
696.629	0.0173016
696.707	0.0173605
696.785	0.0176401
696.863	0.0177574
696.942	0.0178063
697.020	0.0176134
697.098	0.0180083
697.176	0.0180468
697.254	0.0180333
697.332	0.0182549
697.410	0.0183251
697.488	0.0183836
697.567	0.0182421
697.645	0.0183109
697.723	0.0183464
697.801	0.0182738
697.879	0.0184473
697.957	0.0183128
698.035	0.0182912
698.113	0.0180235
698.192	0.0179429
698.270	0.0179582
698.348	0.0176608
698.426	0.0173301
698.504	0.0173952
698.582	0.0171996
698.660	0.0170033
698.738	0.0169032
698.817	0.0164552
698.895	0.0164072
698.973	0.0161918
699.051	0.0159982
699.129	0.0158504
699.207	0.0156757
699.285	0.0155692
699.363	0.0155759
699.442	0.0156199
699.520	0.0155792
699.598	0.0156715
699.676	0.0155676
699.754	0.0156400
699.832	0.0157188
699.910	0.0157876
699.988	0.0157221
700.067	0.0158413
700.145	0.0160370
700.223	0.0161009
700.301	0.0161495
700.379	0.0162765
700.457	0.0164579
700.535	0.0164735
700.613	0.0166364
700.692	0.0167784
700.770	0.0168102
700.848	0.0170344
700.926	0.0171537
701.004	0.0171891
701.082	0.0172793
701.160	0.0173569
701.238	0.0175283
701.317	0.0175331
701.395	0.0176514
701.473	0.0177158
701.551	0.0178588
701.629	0.0178534
701.707	0.0180564
701.785	0.0179729
701.863	0.0179591
701.942	0.0181743
702.020	0.0181889
702.098	0.0183421
702.176	0.0182572
702.254	0.0183970
702.332	0.0181963
702.410	0.0180800
702.488	0.0179404
702.567	0.0179127
702.645	0.0178527
702.723	0.0176568
702.801	0.0176447
702.879	0.0175548
702.957	0.0175168
703.035	0.0172316
703.113	0.0172877
703.192	0.0170438
703.270	0.0170782
703.348	0.0169818
703.426	0.0168019
703.504	0.0167352
703.582	0.0165455
703.660	0.0165671
703.738	0.0164757
703.817	0.0162866
703.895	0.0162962
703.973	0.0160618
704.051	0.0160303
704.129	0.0159338
704.207	0.0158143
704.285	0.0158721
704.363	0.0159855
704.442	0.0156901
704.520	0.0156503
704.598	0.0157609
704.676	0.0155729
704.754	0.0157723
704.832	0.0157968
704.910	0.0157362
704.988	0.0157278
705.067	0.0158114
705.145	0.0158277
705.223	0.0157638
705.301	0.0159143
705.379	0.0160372
705.457	0.0162077
705.535	0.0162090
705.613	0.0161692
705.692	0.0165421
705.770	0.0167326
705.848	0.0167880
705.926	0.0167643
706.004	0.0169470
706.082	0.0170177
706.160	0.0172577
706.238	0.0172823
706.317	0.0173396
706.395	0.0175206
706.473	0.0176060
706.551	0.0178060
706.629	0.0178837
706.707	0.0178608
706.785	0.0180892
706.863	0.0180810
706.942	0.0182101
707.020	0.0182954
707.098	0.0181652
707.176	0.0181506
707.254	0.0182745
707.332	0.0182391
707.410	0.0180782
707.488	0.0180451
707.567	0.0180401
707.645	0.0179760
707.723	0.0177515
707.801	0.0176215
707.879	0.0175945
707.957	0.0175870
708.035	0.0173772
708.113	0.0172847
708.192	0.0170845
708.270	0.0172311
708.348	0.0171432
708.426	0.0169572
708.504	0.0169994
708.582	0.0168674
708.660	0.0168394
708.738	0.0169453
708.817	0.0169222
708.895	0.0168627
708.973	0.0169446
709.051	0.0169727
709.129	0.0167480
709.207	0.0170071
709.285	0.0168475
709.363	0.0168246
709.442	0.0166885
709.520	0.0166823
709.598	0.0165969
709.676	0.0164265
709.754	0.0164128
709.832	0.0163187
709.910	0.0161452
709.988	0.0162332
710.067	0.0161323
710.145	0.0160800
710.223	0.0159701
710.301	0.0160001
710.379	0.0159450
710.457	0.0160329
710.535	0.0161951
710.613	0.0162054
710.692	0.0161945
710.770	0.0161355
710.848	0.0163113
710.926	0.0163556
711.004	0.0164629
711.082	0.0163777
711.160	0.0164767
711.238	0.0166263
711.317	0.0166266
711.395	0.0168682
711.473	0.0169444
711.551	0.0167603
711.629	0.0169239
711.707	0.0170752
711.785	0.0172115
711.863	0.0172601
711.942	0.0173030
712.020	0.0176292
712.098	0.0176627
712.176	0.0177690
712.254	0.0178721
712.332	0.0179993
712.410	0.0181160
712.488	0.0182505
712.567	0.0182648
712.645	0.0183659
712.723	0.0184579
712.801	0.0182958
712.879	0.0183630
712.957	0.0184920
713.035	0.0183099
713.113	0.0183543
713.192	0.0180750
713.270	0.0181003
713.348	0.0178281
713.426	0.0177503
713.504	0.0177204
713.582	0.0175043
713.660	0.0172796
713.738	0.0173313
713.817	0.0172103
713.895	0.0170632
713.973	0.0170375
714.051	0.0170283
714.129	0.0168338
714.207	0.0167245
714.285	0.0166168
714.363	0.0165417
714.442	0.0165324
714.520	0.0164364
714.598	0.0164323
714.676	0.0163732
714.754	0.0163567
714.832	0.0162728
714.910	0.0162756
714.988	0.0161855
715.067	0.0161620
715.145	0.0161111
715.223	0.0162048
715.301	0.0162498
715.379	0.0161429
715.457	0.0160449
715.535	0.0160298
715.613	0.0160471
715.692	0.0161567
715.770	0.0162682
715.848	0.0162322
715.926	0.0163457
716.004	0.0163164
716.082	0.0163829
716.160	0.0163091
716.238	0.0163668
716.317	0.0164523
716.395	0.0165884
716.473	0.0166909
716.551	0.0167330
716.629	0.0168348
716.707	0.0169075
716.785	0.0170711
716.863	0.0169502
716.942	0.0171550
717.020	0.0173360
717.098	0.0174026
717.176	0.0173022
717.254	0.0174244
717.332	0.0174919
717.410	0.0174815
717.488	0.0176598
717.567	0.0177983
717.645	0.0176759
717.723	0.0175473
717.801	0.0176598
717.879	0.0176083
717.957	0.0176850
718.035	0.0175199
718.113	0.0175430
718.192	0.0176610
718.270	0.0176479
718.348	0.0177252
718.426	0.0177952
718.504	0.0177243
718.582	0.0174995
718.660	0.0177087
718.738	0.0174754
718.817	0.0174641
718.895	0.0174113
718.973	0.0174435
719.051	0.0172457
719.129	0.0172639
719.207	0.0171848
719.285	0.0170229
719.363	0.0168719
719.442	0.0167631
719.520	0.0168983
719.598	0.0167616
719.676	0.0166180
719.754	0.0165600
719.832	0.0165601
719.910	0.0165780
719.988	0.0165367
720.067	0.0165676
720.145	0.0166357
720.223	0.0165903
720.301	0.0165189
720.379	0.0166615
720.457	0.0167049
720.535	0.0168188
720.613	0.0168006
720.692	0.0168090
720.770	0.0170029
720.848	0.0168082
720.926	0.0168420
721.004	0.0168489
721.082	0.0168269
721.160	0.0166888
721.238	0.0165790
721.317	0.0167398
721.395	0.0167018
721.473	0.0165846
721.551	0.0165268
721.629	0.0166179
721.707	0.0165783
721.785	0.0166070
721.863	0.0164500
721.942	0.0165015
722.020	0.0165500
722.098	0.0165619
722.176	0.0166201
722.254	0.0168060
722.332	0.0169639
722.410	0.0169422
722.488	0.0171838
722.567	0.0171479
722.645	0.0174176
722.723	0.0172993
722.801	0.0173832
722.879	0.0175206
722.957	0.0175008
723.035	0.0175522
723.113	0.0174713
723.192	0.0175659
723.270	0.0175471
723.348	0.0173895
723.426	0.0173479
723.504	0.0172729
723.582	0.0172282
723.660	0.0171954
723.738	0.0171675
723.817	0.0172324
723.895	0.0171455
723.973	0.0170966
724.051	0.0169713
724.129	0.0170752
724.207	0.0170569
724.285	0.0169878
724.363	0.0170828
724.442	0.0170124
724.520	0.0170244
724.598	0.0171159
724.676	0.0171159
724.754	0.0170903
724.832	0.0170372
724.910	0.0169785
724.988	0.0169734
725.067	0.0168127
725.145	0.0169276
725.223	0.0168346
725.301	0.0166550
725.379	0.0167165
725.457	0.0166411
725.535	0.0167400
725.613	0.0166752
725.692	0.0166930
725.770	0.0166012
725.848	0.0167232
725.926	0.0166390
726.004	0.0167776
726.082	0.0167280
726.160	0.0166576
726.238	0.0166851
726.317	0.0169198
726.395	0.0169133
726.473	0.0167319
726.551	0.0168282
726.629	0.0168900
726.707	0.0169128
726.785	0.0168268
726.863	0.0167955
726.942	0.0168578
727.020	0.0169351
727.098	0.0168060
727.176	0.0169650
727.254	0.0169317
727.332	0.0171156
727.410	0.0170540
727.488	0.0170041
727.567	0.0171562
727.645	0.0171983
727.723	0.0171651
727.801	0.0171889
727.879	0.0170530
727.957	0.0169962
728.035	0.0171355
728.113	0.0169627
728.192	0.0169188
728.270	0.0169317
728.348	0.0169812
728.426	0.0168066
728.504	0.0167896
728.582	0.0168327
728.660	0.0169404
728.738	0.0169759
728.817	0.0168172
728.895	0.0169173
728.973	0.0170613
729.051	0.0171270
729.129	0.0170643
729.207	0.0169824
729.285	0.0172022
729.363	0.0172745
729.442	0.0171377
729.520	0.0172738
729.598	0.0173038
729.676	0.0173713
729.754	0.0173872
729.832	0.0173794
729.910	0.0172016
729.988	0.0173729
730.067	0.0172681
730.145	0.0171816
730.223	0.0171721
730.301	0.0172180
730.379	0.0170824
730.457	0.0170470
730.535	0.0170232
730.613	0.0167805
730.692	0.0169086
730.770	0.0169907
730.848	0.0167897
730.926	0.0168949
731.004	0.0168336
731.082	0.0169760
731.160	0.0168626
731.238	0.0170267
731.317	0.0169477
731.395	0.0170414
731.473	0.0171110
731.551	0.0170364
731.629	0.0170866
731.707	0.0170666
731.785	0.0171069
731.863	0.0170847
731.942	0.0170132
732.020	0.0170080
732.098	0.0171295
732.176	0.0169393
732.254	0.0169986
732.332	0.0170266
732.410	0.0170531
732.488	0.0169820
732.567	0.0169438
732.645	0.0168636
732.723	0.0169662
732.801	0.0169704
732.879	0.0168200
732.957	0.0170335
733.035	0.0169391
733.113	0.0170515
733.192	0.0169762
733.270	0.0170481
733.348	0.0170876
733.426	0.0170971
733.504	0.0169345
733.582	0.0170314
733.660	0.0169860
733.738	0.0169379
733.817	0.0168778
733.895	0.0168978
733.973	0.0169069
734.051	0.0169755
734.129	0.0168712
734.207	0.0169605
734.285	0.0170541
734.363	0.0168767
734.442	0.0170307
734.520	0.0170718
734.598	0.0170081
734.676	0.0170118
734.754	0.0171905
734.832	0.0171493
734.910	0.0172189
734.988	0.0172014
735.067	0.0172129
735.145	0.0171207
735.223	0.0170700
735.301	0.0170367
735.379	0.0170499
735.457	0.0169241
735.535	0.0168223
735.613	0.0168069
735.692	0.0167267
735.770	0.0169308
735.848	0.0168410
735.926	0.0167699
736.004	0.0168462
736.082	0.0169975
736.160	0.0168639
736.238	0.0170499
736.317	0.0170213
736.395	0.0170574
736.473	0.0171127
736.551	0.0170612
736.629	0.0171104
736.707	0.0171870
736.785	0.0172227
736.863	0.0171969
736.942	0.0171928
737.020	0.0170734
737.098	0.0170271
737.176	0.0170473
737.254	0.0169795
737.332	0.0171581
737.410	0.0169212
737.488	0.0167751
737.567	0.0168195
737.645	0.0168421
737.723	0.0170038
737.801	0.0167478
737.879	0.0167844
737.957	0.0169241
738.035	0.0169143
738.113	0.0169535
738.192	0.0168231
738.270	0.0169102
738.348	0.0169919
738.426	0.0167701
738.504	0.0167818
738.582	0.0169215
738.660	0.0167268
738.738	0.0167044
738.817	0.0167305
738.895	0.0167697
738.973	0.0166460
739.051	0.0168039
739.129	0.0167735
739.207	0.0165343
739.285	0.0167179
739.363	0.0169028
739.442	0.0167429
739.520	0.0167931
739.598	0.0168444
739.676	0.0169227
739.754	0.0170014
739.832	0.0170402
739.910	0.0170040
739.988	0.0170773
740.067	0.0171999
740.145	0.0171636
740.223	0.0171349
740.301	0.0171833
740.379	0.0170134
740.457	0.0171726
740.535	0.0172931
740.613	0.0171494
740.692	0.0171598
740.770	0.0171333
740.848	0.0171046
740.926	0.0172614
741.004	0.0171548
741.082	0.0172021
741.160	0.0170711
741.238	0.0170505
741.317	0.0171229
741.395	0.0170134
741.473	0.0170940
741.551	0.0169474
741.629	0.0169618
741.707	0.0170072
741.785	0.0169515
741.863	0.0169614
741.942	0.0169577
742.020	0.0168575
742.098	0.0169910
742.176	0.0168720
742.254	0.0168822
742.332	0.0169033
742.410	0.0167835
742.488	0.0168092
742.567	0.0170049
742.645	0.0169086
742.723	0.0168089
742.801	0.0168144
742.879	0.0168632
742.957	0.0168878
743.035	0.0166953
743.113	0.0166808
743.192	0.0168820
743.270	0.0169955
743.348	0.0168579
743.426	0.0168374
743.504	0.0170475
743.582	0.0169061
743.660	0.0169031
743.738	0.0169935
743.817	0.0170478
743.895	0.0168937
743.973	0.0169331
744.051	0.0169521
744.129	0.0168195
744.207	0.0170020
744.285	0.0168260
744.363	0.0169040
744.442	0.0168743
744.520	0.0167873
744.598	0.0169022
744.676	0.0169176
744.754	0.0170191
744.832	0.0169631
744.910	0.0169354
744.988	0.0169756
745.067	0.0170064
745.145	0.0169373
745.223	0.0169923
745.301	0.0171310
745.379	0.0171159
745.457	0.0170101
745.535	0.0170636
745.613	0.0170308
745.692	0.0171084
745.770	0.0170579
745.848	0.0168893
745.926	0.0170116
746.004	0.0168661
746.082	0.0169926
746.160	0.0170355
746.238	0.0170252
746.317	0.0170680
746.395	0.0171295
746.473	0.0171692
746.551	0.0171416
746.629	0.0170592
746.707	0.0172018
746.785	0.0172753
746.863	0.0172325
746.942	0.0172961
747.020	0.0172640
747.098	0.0173136
747.176	0.0172267
747.254	0.0171959
747.332	0.0172499
747.410	0.0171772
747.488	0.0172258
747.567	0.0172023
747.645	0.0172191
747.723	0.0172511
747.801	0.0171590
747.879	0.0171408
747.957	0.0170666
748.035	0.0172573
748.113	0.0171442
748.192	0.0171275
748.270	0.0170686
748.348	0.0171261
748.426	0.0171402
748.504	0.0169447
748.582	0.0171042
748.660	0.0171555
748.738	0.0171742
748.817	0.0170440
748.895	0.0169233
748.973	0.0169756
749.051	0.0169865
749.129	0.0171126
749.207	0.0169592
749.285	0.0169053
749.363	0.0169300
749.442	0.0170492
749.520	0.0169198
749.598	0.0168497
749.676	0.0168281
749.754	0.0168080
749.832	0.0169128
749.910	0.0170127
749.988	0.0167947
750.067	0.0168702
750.145	0.0167572
750.223	0.0168108
750.301	0.0167786
750.379	0.0169912
750.457	0.0169604
750.535	0.0167083
750.613	0.0169387
750.692	0.0170982
750.770	0.0168526
750.848	0.0169044
750.926	0.0170791
751.004	0.0169884
751.082	0.0170736
751.160	0.0169271
751.238	0.0169942
751.317	0.0169848
751.395	0.0169030
751.473	0.0170189
751.551	0.0170370
751.629	0.0169750
751.707	0.0167897
751.785	0.0171317
751.863	0.0169329
751.942	0.0170647
752.020	0.0170300
752.098	0.0169699
752.176	0.0170128
752.254	0.0168923
752.332	0.0169617
752.410	0.0169943
752.488	0.0171368
752.567	0.0169934
752.645	0.0170499
752.723	0.0169781
752.801	0.0171439
752.879	0.0170988
752.957	0.0170700
753.035	0.0169588
753.113	0.0171069
753.192	0.0169515
753.270	0.0171267
753.348	0.0170731
753.426	0.0171052
753.504	0.0172275
753.582	0.0170974
753.660	0.0170895
753.738	0.0170089
753.817	0.0170232
753.895	0.0172139
753.973	0.0172392
754.051	0.0171836
754.129	0.0170686
754.207	0.0171925
754.285	0.0172442
754.363	0.0170570
754.442	0.0171084
754.520	0.0171806
754.598	0.0173274
754.676	0.0171917
754.754	0.0171362
754.832	0.0171827
754.910	0.0171391
754.988	0.0171156
755.067	0.0171378
755.145	0.0170027
755.223	0.0171200
755.301	0.0172105
755.379	0.0170796
755.457	0.0169929
755.535	0.0169154
755.613	0.0170913
755.692	0.0170071
755.770	0.0169073
755.848	0.0169171
755.926	0.0168703
756.004	0.0169283
756.082	0.0168323
756.160	0.0168243
756.238	0.0167410
756.317	0.0166312
756.395	0.0168547
756.473	0.0168189
756.551	0.0167721
756.629	0.0168501
756.707	0.0169965
756.785	0.0169614
756.863	0.0167464
756.942	0.0169053
757.020	0.0169617
757.098	0.0168948
757.176	0.0169276
757.254	0.0168116
757.332	0.0172477
757.410	0.0170818
757.488	0.0169781
757.567	0.0170177
757.645	0.0171085
757.723	0.0170540
757.801	0.0169333
757.879	0.0169933
757.957	0.0169735
758.035	0.0170612
758.113	0.0170920
758.192	0.0170272
758.270	0.0168132
758.348	0.0169868
758.426	0.0168529
758.504	0.0169348
758.582	0.0168782
758.660	0.0170461
758.738	0.0170108
758.817	0.0168308
758.895	0.0168988
758.973	0.0168001
759.051	0.0167763
759.129	0.0168616
759.207	0.0167809
759.285	0.0169935
759.363	0.0168336
759.442	0.0169070
759.520	0.0169923
759.598	0.0169089
759.676	0.0170943
759.754	0.0170856
759.832	0.0169711
759.910	0.0170174
759.988	0.0170051
760.067	0.0169408
760.145	0.0170541
760.223	0.0169495
760.301	0.0168746
760.379	0.0168523
760.457	0.0168797
760.535	0.0168243
760.613	0.0170715
760.692	0.0168906
760.770	0.0169209
760.848	0.0169473
760.926	0.0168380
761.004	0.0170472
761.082	0.0170296
761.160	0.0170422
761.238	0.0170150
761.317	0.0170750
761.395	0.0169460
761.473	0.0171723
761.551	0.0170409
761.629	0.0170287
761.707	0.0170950
761.785	0.0170809
761.863	0.0171136
761.942	0.0170734
762.020	0.0170076
762.098	0.0169757
762.176	0.0170156
762.254	0.0169488
762.332	0.0169947
762.410	0.0169746
762.488	0.0168851
762.567	0.0170240
762.645	0.0168936
762.723	0.0168453
762.801	0.0168606
762.879	0.0169050
762.957	0.0168676
763.035	0.0168307
763.113	0.0170101
763.192	0.0168732
763.270	0.0169034
763.348	0.0170213
763.426	0.0169546
763.504	0.0169110
763.582	0.0170474
763.660	0.0168433
763.738	0.0169068
763.817	0.0169529
763.895	0.0168727
763.973	0.0169953
764.051	0.0169790
764.129	0.0168758
764.207	0.0169709
764.285	0.0169985
764.363	0.0167986
764.442	0.0168745
764.520	0.0169138
764.598	0.0167779
764.676	0.0167719
764.754	0.0168619
764.832	0.0168839
764.910	0.0168848
764.988	0.0168485
765.067	0.0169045
765.145	0.0169598
765.223	0.0169950
765.301	0.0170217
765.379	0.0169541
765.457	0.0171258
765.535	0.0169533
765.613	0.0171103
765.692	0.0171479
765.770	0.0172911
765.848	0.0171734
765.926	0.0171243
766.004	0.0172716
766.082	0.0173741
766.160	0.0172542
766.238	0.0171851
766.317	0.0171475
766.395	0.0173229
766.473	0.0170417
766.551	0.0170809
766.629	0.0172587
766.707	0.0171389
766.785	0.0171626
766.863	0.0171138
766.942	0.0171283
767.020	0.0171715
767.098	0.0171078
767.176	0.0169836
767.254	0.0169714
767.332	0.0170070
767.410	0.0171017
767.488	0.0171105
767.567	0.0171577
767.645	0.0171411
767.723	0.0171494
767.801	0.0170771
767.879	0.0171246
767.957	0.0172535
768.035	0.0171446
768.113	0.0172844
768.192	0.0172415
768.270	0.0172678
768.348	0.0171712
768.426	0.0172047
768.504	0.0174223
768.582	0.0173147
768.660	0.0172827
768.738	0.0171939
768.817	0.0171491
768.895	0.0170922
768.973	0.0171290
769.051	0.0170634
769.129	0.0170512
769.207	0.0171623
769.285	0.0170557
769.363	0.0170524
769.442	0.0170528
769.520	0.0170542
769.598	0.0170813
769.676	0.0171351
769.754	0.0172094
769.832	0.0171429
769.910	0.0171949
769.988	0.0172610
770.067	0.0171037
770.145	0.0170377
770.223	0.0170901
770.301	0.0172370
770.379	0.0171873
770.457	0.0171618
770.535	0.0171655
770.613	0.0171381
770.692	0.0170056
770.770	0.0170821
770.848	0.0170499
770.926	0.0170721
771.004	0.0169570
771.082	0.0169646
771.160	0.0169296
771.238	0.0170489
771.317	0.0169946
771.395	0.0169186
771.473	0.0168286
771.551	0.0169294
771.629	0.0168843
771.707	0.0169560
771.785	0.0169894
771.863	0.0169817
771.942	0.0169042
772.020	0.0169510
772.098	0.0170800
772.176	0.0170687
772.254	0.0170806
772.332	0.0170469
772.410	0.0171011
772.488	0.0170676
772.567	0.0170868
772.645	0.0169893
772.723	0.0171478
772.801	0.0171019
772.879	0.0170340
772.957	0.0170056
773.035	0.0170206
773.113	0.0171233
773.192	0.0169857
773.270	0.0170711
773.348	0.0171046
773.426	0.0171527
773.504	0.0170780
773.582	0.0171020
773.660	0.0169960
773.738	0.0169443
773.817	0.0170576
773.895	0.0169391
773.973	0.0171219
774.051	0.0170013
774.129	0.0169448
774.207	0.0170851
774.285	0.0171210
774.363	0.0170918
774.442	0.0170636
774.520	0.0170515
774.598	0.0170170
774.676	0.0171026
774.754	0.0170230
774.832	0.0169946
774.910	0.0169866
774.988	0.0169644
775.067	0.0169008
775.145	0.0170623
775.223	0.0170394
775.301	0.0169838
775.379	0.0170825
775.457	0.0170256
775.535	0.0169527
775.613	0.0172260
775.692	0.0170084
775.770	0.0172757
775.848	0.0170634
775.926	0.0171687
776.004	0.0171850
776.082	0.0170758
776.160	0.0171900
776.238	0.0171195
776.317	0.0172695
776.395	0.0172517
776.473	0.0171087
776.551	0.0171768
776.629	0.0171118
776.707	0.0171726
776.785	0.0169461
776.863	0.0169588
776.942	0.0170934
777.020	0.0171158
777.098	0.0169515
777.176	0.0171771
777.254	0.0168900
777.332	0.0170605
777.410	0.0169863
777.488	0.0169398
777.567	0.0169698
777.645	0.0170329
777.723	0.0171445
777.801	0.0170512
777.879	0.0169898
777.957	0.0170422
778.035	0.0170634
778.113	0.0170763
778.192	0.0170340
778.270	0.0170285
778.348	0.0170114
778.426	0.0169849
778.504	0.0170975
778.582	0.0169529
778.660	0.0169957
778.738	0.0169763
778.817	0.0169674
778.895	0.0169037
778.973	0.0167924
779.051	0.0169019
779.129	0.0169923
779.207	0.0170502
779.285	0.0168255
779.363	0.0168251
779.442	0.0170393
779.520	0.0170170
779.598	0.0168575
779.676	0.0169568
779.754	0.0171077
779.832	0.0169743
779.910	0.0169731
779.988	0.0168587
780.067	0.0168702
780.145	0.0169147
780.223	0.0169635
780.301	0.0169143
780.379	0.0169643
780.457	0.0169301
780.535	0.0169306
780.613	0.0167615
780.692	0.0167995
780.770	0.0167817
780.848	0.0167072
780.926	0.0167078
781.004	0.0167006
781.082	0.0167136
781.160	0.0169048
781.238	0.0166462
781.317	0.0168330
781.395	0.0167820
781.473	0.0167058
781.551	0.0168293
781.629	0.0167529
781.707	0.0166992
781.785	0.0168278
781.863	0.0168520
781.942	0.0168694
782.020	0.0167738
782.098	0.0167828
782.176	0.0166528
782.254	0.0168714
782.332	0.0167249
782.410	0.0167699
782.488	0.0167718
782.567	0.0167944
782.645	0.0166611
782.723	0.0165456
782.801	0.0168272
782.879	0.0166234
782.957	0.0167436
783.035	0.0167548
783.113	0.0167652
783.192	0.0168099
783.270	0.0169483
783.348	0.0168383
783.426	0.0168437
783.504	0.0170271
783.582	0.0170187
783.660	0.0169384
783.738	0.0171759
783.817	0.0171141
783.895	0.0170318
783.973	0.0174137
784.051	0.0170950
784.129	0.0172672
784.207	0.0171626
784.285	0.0171481
784.363	0.0171053
784.442	0.0170922
784.520	0.0170807
784.598	0.0170464
784.676	0.0170991
784.754	0.0168941
784.832	0.0168099
784.910	0.0170119
784.988	0.0169480
785.067	0.0167966
785.145	0.0169075
785.223	0.0169876
785.301	0.0169135
785.379	0.0170038
785.457	0.0168525
785.535	0.0169196
785.613	0.0171379
785.692	0.0170605
785.770	0.0172009
785.848	0.0171661
785.926	0.0171322
786.004	0.0170323
786.082	0.0171743
786.160	0.0171601
786.238	0.0171392
786.317	0.0171811
786.395	0.0170425
786.473	0.0170539
786.551	0.0170477
786.629	0.0168552
786.707	0.0170061
786.785	0.0168626
786.863	0.0169131
786.942	0.0168217
787.020	0.0169897
787.098	0.0170084
787.176	0.0169329
787.254	0.0170419
787.332	0.0170339
787.410	0.0169601
787.488	0.0169994
787.567	0.0170000
787.645	0.0169263
787.723	0.0169868
787.801	0.0169913
787.879	0.0171044
787.957	0.0171220
788.035	0.0170828
788.113	0.0171476
788.192	0.0169978
788.270	0.0170047
788.348	0.0169855
788.426	0.0171857
788.504	0.0170541
788.582	0.0168603
788.660	0.0169545
788.738	0.0170176
788.817	0.0169743
788.895	0.0170377
788.973	0.0169199
789.051	0.0170114
789.129	0.0170258
789.207	0.0170179
789.285	0.0169845
789.363	0.0169677
789.442	0.0170264
789.520	0.0170463
789.598	0.0171011
789.676	0.0169482
789.754	0.0168653
789.832	0.0169214
789.910	0.0170486
789.988	0.0168385
790.067	0.0167917
790.145	0.0169051
790.223	0.0168818
790.301	0.0169339
790.379	0.0169466
790.457	0.0170412
790.535	0.0168783
790.613	0.0170049
790.692	0.0169429
790.770	0.0169638
790.848	0.0169547
790.926	0.0170080
791.004	0.0169379
791.082	0.0169341
791.160	0.0170795
791.238	0.0170052
791.317	0.0169827
791.395	0.0171165
791.473	0.0171271
791.551	0.0169263
791.629	0.0169846
791.707	0.0169382
791.785	0.0170309
791.863	0.0170793
791.942	0.0170614
792.020	0.0169595
792.098	0.0170229
792.176	0.0169331
792.254	0.0170936
792.332	0.0170596
792.410	0.0169888
792.488	0.0170641
792.567	0.0169112
792.645	0.0169181
792.723	0.0169566
792.801	0.0169042
792.879	0.0169068
792.957	0.0168655
793.035	0.0169042
793.113	0.0170888
793.192	0.0169086
793.270	0.0170100
793.348	0.0169279
793.426	0.0168703
793.504	0.0169632
793.582	0.0169530
793.660	0.0169740
793.738	0.0169208
793.817	0.0169171
793.895	0.0168816
793.973	0.0170004
794.051	0.0171049
794.129	0.0170152
794.207	0.0169863
794.285	0.0169622
794.363	0.0171157
794.442	0.0170411
794.520	0.0170495
794.598	0.0170338
794.676	0.0170338
794.754	0.0171882
794.832	0.0170507
794.910	0.0169950
794.988	0.0171078
795.067	0.0170808
795.145	0.0170383
795.223	0.0169798
795.301	0.0170644
795.379	0.0170547
795.457	0.0170715
795.535	0.0169608
795.613	0.0168482
795.692	0.0168923
795.770	0.0169087
795.848	0.0168862
795.926	0.0168674
796.004	0.0167867
796.082	0.0169236
796.160	0.0168726
796.238	0.0169890
796.317	0.0170025
796.395	0.0170325
796.473	0.0168466
796.551	0.0167914
796.629	0.0167570
796.707	0.0168959
796.785	0.0168780
796.863	0.0170535
796.942	0.0169926
797.020	0.0169382
797.098	0.0169054
797.176	0.0169238
797.254	0.0169329
797.332	0.0169666
797.410	0.0171072
797.488	0.0169230
797.567	0.0169736
797.645	0.0169282
797.723	0.0169099
797.801	0.0170252
797.879	0.0171400
797.957	0.0170335
798.035	0.0171016
798.113	0.0170948
798.192	0.0171502
798.270	0.0171207
798.348	0.0172097
798.426	0.0172546
798.504	0.0171616
798.582	0.0170887
798.660	0.0170168
798.738	0.0170348
798.817	0.0171496
798.895	0.0170489
798.973	0.0171114
799.051	0.0168968
799.129	0.0170825
799.207	0.0169437
799.285	0.0170837
799.363	0.0169863
799.442	0.0168949
799.520	0.0170290
799.598	0.0169950
799.676	0.0168879
799.754	0.0168703
799.832	0.0168352
799.910	0.0168021
799.988	0.0169076
800.067	0.0167511
800.145	0.0167269
800.223	0.0167831
800.301	0.0169651
800.379	0.0168433
800.457	0.0167477
800.535	0.0166792
800.613	0.0167319
800.692	0.0166927
800.770	0.0166874
800.848	0.0167405
800.926	0.0167264
801.004	0.0167332
801.082	0.0166424
801.160	0.0166695
801.238	0.0166236
801.317	0.0165922
801.395	0.0167562
801.473	0.0167474
801.551	0.0168080
801.629	0.0166592
801.707	0.0166706
801.785	0.0167317
801.863	0.0168082
801.942	0.0167747
802.020	0.0168511
802.098	0.0168555
802.176	0.0168706
802.254	0.0170256
802.332	0.0169694
802.410	0.0170479
802.488	0.0171184
802.567	0.0170627
802.645	0.0170608
802.723	0.0171643
802.801	0.0172066
802.879	0.0170972
802.957	0.0173255
803.035	0.0173267
803.113	0.0173698
803.192	0.0173369
803.270	0.0172039
803.348	0.0171887
803.426	0.0171780
803.504	0.0171943
803.582	0.0171181
803.660	0.0171764
803.738	0.0171087
803.817	0.0171242
803.895	0.0170072
803.973	0.0170813
804.051	0.0171593
804.129	0.0170724
804.207	0.0169287
804.285	0.0172654
804.363	0.0170348
804.442	0.0168233
804.520	0.0169633
804.598	0.0169312
804.676	0.0169576
804.754	0.0169882
804.832	0.0169073
804.910	0.0169423
804.988	0.0169350
805.067	0.0169427
805.145	0.0168380
805.223	0.0168691
805.301	0.0169226
805.379	0.0170716
805.457	0.0169044
805.535	0.0168476
805.613	0.0168053
805.692	0.0167728
805.770	0.0168758
805.848	0.0168292
805.926	0.0169011
806.004	0.0169179
806.082	0.0166702
806.160	0.0166890
806.238	0.0168074
806.317	0.0167809
806.395	0.0166768
806.473	0.0166888
806.551	0.0167530
806.629	0.0166836
806.707	0.0166391
806.785	0.0167879
806.863	0.0167933
806.942	0.0166029
807.020	0.0166786
807.098	0.0167956
807.176	0.0168956
807.254	0.0168439
807.332	0.0167343
807.410	0.0166906
807.488	0.0167387
807.567	0.0168645
807.645	0.0168322
807.723	0.0168573
807.801	0.0168584
807.879	0.0169025
807.957	0.0167751
808.035	0.0167712
808.113	0.0168976
808.192	0.0169563
808.270	0.0168880
808.348	0.0167374
808.426	0.0168333
808.504	0.0170213
808.582	0.0170541
808.660	0.0168687
808.738	0.0169385
808.817	0.0169106
808.895	0.0168098
808.973	0.0170154
809.051	0.0171416
809.129	0.0170131
809.207	0.0169360
809.285	0.0168066
809.363	0.0169007
809.442	0.0170156
809.520	0.0169387
809.598	0.0168873
809.676	0.0168945
809.754	0.0169621
809.832	0.0169544
809.910	0.0169080
809.988	0.0169817
810.067	0.0171231
810.145	0.0171198
810.223	0.0170638
810.301	0.0169563
810.379	0.0171760
810.457	0.0170291
810.535	0.0171023
810.613	0.0170496
810.692	0.0170636
810.770	0.0169149
810.848	0.0169547
810.926	0.0170628
811.004	0.0171088
811.082	0.0169957
811.160	0.0170747
811.238	0.0169786
811.317	0.0169977
811.395	0.0168513
811.473	0.0168641
811.551	0.0169604
811.629	0.0169860
811.707	0.0168507
811.785	0.0168304
811.863	0.0169547
811.942	0.0168884
812.020	0.0168446
812.098	0.0168903
812.176	0.0168474
812.254	0.0169769
812.332	0.0168230
812.410	0.0168645
812.488	0.0169081
812.567	0.0169542
812.645	0.0168636
812.723	0.0171191
812.801	0.0170128
812.879	0.0171618
812.957	0.0170645
813.035	0.0169723
813.113	0.0170537
813.192	0.0170226
813.270	0.0168782
813.348	0.0169598
813.426	0.0172489
813.504	0.0170372
813.582	0.0170258
813.660	0.0170465
813.738	0.0169966
813.817	0.0171507
813.895	0.0171358
813.973	0.0171398
814.051	0.0171144
814.129	0.0170875
814.207	0.0172260
814.285	0.0170862
814.363	0.0170602
814.442	0.0171062
814.520	0.0171507
814.598	0.0171878
814.676	0.0171389
814.754	0.0172636
814.832	0.0171783
814.910	0.0169866
814.988	0.0170538
815.067	0.0171027
815.145	0.0170757
815.223	0.0170390
815.301	0.0169615
815.379	0.0169487
815.457	0.0169575
815.535	0.0170256
815.613	0.0170609
815.692	0.0169412
815.770	0.0170296
815.848	0.0170119
815.926	0.0168804
816.004	0.0168356
816.082	0.0169145
816.160	0.0167654
816.238	0.0167877
816.317	0.0167519
816.395	0.0165939
816.473	0.0168531
816.551	0.0168376
816.629	0.0167037
816.707	0.0167961
816.785	0.0167593
816.863	0.0168115
816.942	0.0166589
817.020	0.0167170
817.098	0.0167278
817.176	0.0167024
817.254	0.0169114
817.332	0.0165446
817.410	0.0166806
817.488	0.0167648
817.567	0.0166558
817.645	0.0167154
817.723	0.0167569
817.801	0.0168070
817.879	0.0167525
817.957	0.0168121
818.035	0.0167953
818.113	0.0168687
818.192	0.0167648
818.270	0.0169621
818.348	0.0169759
818.426	0.0169818
818.504	0.0170090
818.582	0.0170832
818.660	0.0171039
818.738	0.0169924
818.817	0.0170127
818.895	0.0169849
818.973	0.0169000
819.051	0.0169964
819.129	0.0170371
819.207	0.0169669
819.285	0.0169864
819.363	0.0169405
819.442	0.0169342
819.520	0.0167936
819.598	0.0168705
819.676	0.0168631
819.754	0.0169317
819.832	0.0168195
819.910	0.0168332
819.988	0.0167870
820.067	0.0169402
820.145	0.0168734
820.223	0.0167139
820.301	0.0169048
820.379	0.0168533
820.457	0.0166872
820.535	0.0166505
820.613	0.0168360
820.692	0.0167775
820.770	0.0166563
820.848	0.0169176
820.926	0.0168085
821.004	0.0169053
821.082	0.0166382
821.160	0.0168443
821.238	0.0168666
821.317	0.0167961
821.395	0.0167788
821.473	0.0167618
821.551	0.0168182
821.629	0.0169757
821.707	0.0169637
821.785	0.0168848
821.863	0.0168133
821.942	0.0168795
822.020	0.0169066
822.098	0.0169578
822.176	0.0169321
822.254	0.0168646
822.332	0.0168932
822.410	0.0167907
822.488	0.0168337
822.567	0.0169019
822.645	0.0167576
822.723	0.0167889
822.801	0.0167675
822.879	0.0168642
822.957	0.0169538
823.035	0.0168734
823.113	0.0167631
823.192	0.0167758
823.270	0.0169127
823.348	0.0170208
823.426	0.0169624
823.504	0.0168872
823.582	0.0167454
823.660	0.0169070
823.738	0.0169330
823.817	0.0169612
823.895	0.0169035
823.973	0.0168452
824.051	0.0169524
824.129	0.0169542
824.207	0.0169740
824.285	0.0169258
824.363	0.0169608
824.442	0.0169370
824.520	0.0170240
824.598	0.0170116
824.676	0.0169025
824.754	0.0170422
824.832	0.0169992
824.910	0.0169754
824.988	0.0170529
825.067	0.0168703
825.145	0.0169418
825.223	0.0169602
825.301	0.0170278
825.379	0.0170840
825.457	0.0170940
825.535	0.0169922
825.613	0.0169270
825.692	0.0170696
825.770	0.0170685
825.848	0.0170819
825.926	0.0171834
826.004	0.0171245
826.082	0.0171467
826.160	0.0170387
826.238	0.0171801
826.317	0.0172410
826.395	0.0170163
826.473	0.0171006
826.551	0.0171586
826.629	0.0170972
826.707	0.0169540
826.785	0.0170190
826.863	0.0170001
826.942	0.0169113
827.020	0.0170183
827.098	0.0168719
827.176	0.0170530
827.254	0.0168398
827.332	0.0167410
827.410	0.0168060
827.488	0.0169732
827.567	0.0169105
827.645	0.0168606
827.723	0.0168092
827.801	0.0167787
827.879	0.0168834
827.957	0.0168192
828.035	0.0167046
828.113	0.0168168
828.192	0.0166421
828.270	0.0166892
828.348	0.0167838
828.426	0.0167451
828.504	0.0166648
828.582	0.0167650
828.660	0.0168275
828.738	0.0167402
828.817	0.0165858
828.895	0.0167508
828.973	0.0167316
829.051	0.0167798
829.129	0.0168476
829.207	0.0169197
829.285	0.0169221
829.363	0.0170324
829.442	0.0169866
829.520	0.0169875
829.598	0.0170072
829.676	0.0170245
829.754	0.0169862
829.832	0.0170979
829.910	0.0172556
829.988	0.0170987
830.067	0.0171465
830.145	0.0171813
830.223	0.0172236
830.301	0.0172237
830.379	0.0171041
830.457	0.0171488
830.535	0.0170307
830.613	0.0170630
830.692	0.0171095
830.770	0.0171091
830.848	0.0170019
830.926	0.0169377
831.004	0.0171557
831.082	0.0171751
831.160	0.0171704
831.238	0.0169405
831.317	0.0169457
831.395	0.0169543
831.473	0.0167917
831.551	0.0169434
831.629	0.0169121
831.707	0.0168365
831.785	0.0167743
831.863	0.0170942
831.942	0.0170465
832.020	0.0169408
832.098	0.0170490
832.176	0.0168988
832.254	0.0169414
832.332	0.0169981
832.410	0.0168481
832.488	0.0170385
832.567	0.0170749
832.645	0.0170145
832.723	0.0169946
832.801	0.0170468
832.879	0.0171128
832.957	0.0169333
833.035	0.0170882
833.113	0.0171489
833.192	0.0171657
833.270	0.0169719
833.348	0.0171284
833.426	0.0172584
833.504	0.0170140
833.582	0.0170541
833.660	0.0171724
833.738	0.0170938
833.817	0.0168935
833.895	0.0171645
833.973	0.0171428
834.051	0.0171569
834.129	0.0172067
834.207	0.0171594
834.285	0.0171715
834.363	0.0170621
834.442	0.0172725
834.520	0.0171376
834.598	0.0171699
834.676	0.0173434
834.754	0.0173589
834.832	0.0172276
834.910	0.0172241
834.988	0.0173785
835.067	0.0172749
835.145	0.0172624
835.223	0.0171681
835.301	0.0172326
835.379	0.0172795
835.457	0.0172150
835.535	0.0171698
835.613	0.0172490
835.692	0.0172603
835.770	0.0171137
835.848	0.0172843
835.926	0.0171917
836.004	0.0170782
836.082	0.0171454
836.160	0.0171224
836.238	0.0172189
836.317	0.0170760
836.395	0.0168981
836.473	0.0169579
836.551	0.0171513
836.629	0.0169664
836.707	0.0170048
836.785	0.0171348
836.863	0.0171557
836.942	0.0171208
837.020	0.0170233
837.098	0.0171087
837.176	0.0170538
837.254	0.0170163
837.332	0.0169862
837.410	0.0170458
837.488	0.0170087
837.567	0.0170137
837.645	0.0169221
837.723	0.0169109
837.801	0.0169886
837.879	0.0172470
837.957	0.0169582
838.035	0.0170425
838.113	0.0169926
838.192	0.0169660
838.270	0.0170253
838.348	0.0169890
838.426	0.0170092
838.504	0.0170629
838.582	0.0169055
838.660	0.0167547
838.738	0.0168627
838.817	0.0168799
838.895	0.0169525
838.973	0.0167850
839.051	0.0168925
839.129	0.0168234
839.207	0.0168597
839.285	0.0168253
839.363	0.0170359
839.442	0.0168480
839.520	0.0167770
839.598	0.0168155
839.676	0.0167180
839.754	0.0169212
839.832	0.0168475
839.910	0.0167832
839.988	0.0168209
840.067	0.0168158
840.145	0.0167782
840.223	0.0169452
840.301	0.0167884
840.379	0.0167915
840.457	0.0167137
840.535	0.0168617
840.613	0.0166611
840.692	0.0168649
840.770	0.0168941
840.848	0.0167860
840.926	0.0169318
841.004	0.0168904
841.082	0.0168230
841.160	0.0169901
841.238	0.0169405
841.317	0.0168921
841.395	0.0169227
841.473	0.0169379
841.551	0.0168972
841.629	0.0168990
841.707	0.0169005
841.785	0.0170039
841.863	0.0170432
841.942	0.0168216
842.020	0.0167692
842.098	0.0168720
842.176	0.0167816
842.254	0.0169606
842.332	0.0170406
842.410	0.0168655
842.488	0.0168899
842.567	0.0168746
842.645	0.0168514
842.723	0.0168421
842.801	0.0169360
842.879	0.0169873
842.957	0.0168636
843.035	0.0168638
843.113	0.0168212
843.192	0.0169181
843.270	0.0169091
843.348	0.0168456
843.426	0.0169250
843.504	0.0167889
843.582	0.0168508
843.660	0.0169649
843.738	0.0168264
843.817	0.0168330
843.895	0.0167752
843.973	0.0169092
844.051	0.0168122
844.129	0.0167838
844.207	0.0168235
844.285	0.0168002
844.363	0.0168197
844.442	0.0169476
844.520	0.0168989
844.598	0.0168806
844.676	0.0169673
844.754	0.0169784
844.832	0.0169969
844.910	0.0169090
844.988	0.0170765
845.067	0.0170679
845.145	0.0171628
845.223	0.0169833
845.301	0.0170509
845.379	0.0170634
845.457	0.0170341
845.535	0.0172460
845.613	0.0171514
845.692	0.0170527
845.770	0.0169730
845.848	0.0170848
845.926	0.0169617
846.004	0.0169693
846.082	0.0169127
846.160	0.0170364
846.238	0.0170217
846.317	0.0170729
846.395	0.0171083
846.473	0.0170052
846.551	0.0171011
846.629	0.0170653
846.707	0.0168468
846.785	0.0170364
846.863	0.0170076
846.942	0.0171838
847.020	0.0168652
847.098	0.0170562
847.176	0.0170512
847.254	0.0169971
847.332	0.0169626
847.410	0.0168575
847.488	0.0169887
847.567	0.0170988
847.645	0.0169753
847.723	0.0168525
847.801	0.0167979
847.879	0.0168880
847.957	0.0169965
848.035	0.0169539
848.113	0.0169122
848.192	0.0170114
848.270	0.0169519
848.348	0.0168085
848.426	0.0170080
848.504	0.0168638
848.582	0.0169067
848.660	0.0169775
848.738	0.0169627
848.817	0.0169142
848.895	0.0168618
848.973	0.0169649
849.051	0.0170251
849.129	0.0171149
849.207	0.0169118
849.285	0.0169708
849.363	0.0172432
849.442	0.0170367
849.520	0.0171130
849.598	0.0172213
849.676	0.0170001
849.754	0.0172002
849.832	0.0170245
849.910	0.0169525
849.988	0.0171263
850.067	0.0171063
850.145	0.0171018
850.223	0.0169974
850.301	0.0170615
850.379	0.0169182
850.457	0.0171252
850.535	0.0169518
850.613	0.0169404
850.692	0.0170164
850.770	0.0169884
850.848	0.0169749
850.926	0.0168819
851.004	0.0170039
851.082	0.0170881
851.160	0.0170467
851.238	0.0170454
851.317	0.0169628
851.395	0.0169401
851.473	0.0170120
851.551	0.0169357
851.629	0.0168542
851.707	0.0168398
851.785	0.0170065
851.863	0.0168690
851.942	0.0167970
852.020	0.0168006
852.098	0.0167082
852.176	0.0168620
852.254	0.0168588
852.332	0.0167938
852.410	0.0168665
852.488	0.0168645
852.567	0.0169615
852.645	0.0169043
852.723	0.0169350
852.801	0.0169447
852.879	0.0169400
852.957	0.0168073
853.035	0.0171028
853.113	0.0168444
853.192	0.0168726
853.270	0.0169588
853.348	0.0169161
853.426	0.0169875
853.504	0.0171049
853.582	0.0170881
853.660	0.0169743
853.738	0.0170063
853.817	0.0170892
853.895	0.0171507
853.973	0.0170821
854.051	0.0170778
854.129	0.0171932
854.207	0.0170591
854.285	0.0171272
854.363	0.0170659
854.442	0.0171210
854.520	0.0171644
854.598	0.0170859
854.676	0.0171065
854.754	0.0172585
854.832	0.0171317
854.910	0.0172056
854.988	0.0170695
855.067	0.0171049
855.145	0.0171169
855.223	0.0170535
855.301	0.0170605
855.379	0.0171507
855.457	0.0171459
855.535	0.0171426
855.613	0.0171230
855.692	0.0170980
855.770	0.0172588
855.848	0.0172083
855.926	0.0171997
856.004	0.0170855
856.082	0.0172330
856.160	0.0172594
856.238	0.0171026
856.317	0.0171891
856.395	0.0172000
856.473	0.0172504
856.551	0.0171866
856.629	0.0170781
856.707	0.0172401
856.785	0.0172272
856.863	0.0171831
856.942	0.0171935
857.020	0.0173014
857.098	0.0172519
857.176	0.0171990
857.254	0.0172652
857.332	0.0171703
857.410	0.0171381
857.488	0.0171986
857.567	0.0171607
857.645	0.0172098
857.723	0.0170573
857.801	0.0170861
857.879	0.0170016
857.957	0.0171032
858.035	0.0169698
858.113	0.0169663
858.192	0.0169373
858.270	0.0170541
858.348	0.0169637
858.426	0.0168967
858.504	0.0170203
858.582	0.0169987
858.660	0.0169151
858.738	0.0168641
858.817	0.0167782
858.895	0.0169555
858.973	0.0171091
859.051	0.0169889
859.129	0.0167394
859.207	0.0169656
859.285	0.0170621
859.363	0.0170275
859.442	0.0169433
859.520	0.0169510
859.598	0.0168127
859.676	0.0170876
859.754	0.0169683
859.832	0.0168671
859.910	0.0168913
859.988	0.0168442
860.067	0.0169353
860.145	0.0167354
860.223	0.0167322
860.301	0.0168887
860.379	0.0167710
860.457	0.0167731
860.535	0.0169011
860.613	0.0167108
860.692	0.0167437
860.770	0.0167297
860.848	0.0167808
860.926	0.0167742
861.004	0.0167597
861.082	0.0167626
861.160	0.0168293
861.238	0.0170522
861.317	0.0169674
861.395	0.0170815
861.473	0.0169373
861.551	0.0168716
861.629	0.0168503
861.707	0.0169775
861.785	0.0170825
861.863	0.0169174
861.942	0.0168459
862.020	0.0169971
862.098	0.0169152
862.176	0.0170628
862.254	0.0170300
862.332	0.0169460
862.410	0.0170305
862.488	0.0170641
862.567	0.0170186
862.645	0.0169939
862.723	0.0170197
862.801	0.0170051
862.879	0.0168919
862.957	0.0169417
863.035	0.0169756
863.113	0.0168613
863.192	0.0167935
863.270	0.0168720
863.348	0.0168176
863.426	0.0169606
863.504	0.0170068
863.582	0.0169181
863.660	0.0170056
863.738	0.0166828
863.817	0.0169970
863.895	0.0170397
863.973	0.0167514
864.051	0.0169066
864.129	0.0169739
864.207	0.0169255
864.285	0.0168929
864.363	0.0169003
864.442	0.0169051
864.520	0.0171094
864.598	0.0170884
864.676	0.0169638
864.754	0.0170388
864.832	0.0170131
864.910	0.0171644
864.988	0.0171885
865.067	0.0170166
865.145	0.0169841
865.223	0.0170855
865.301	0.0170630
865.379	0.0171819
865.457	0.0171548
865.535	0.0171423
865.613	0.0170554
865.692	0.0171819
865.770	0.0169423
865.848	0.0171200
865.926	0.0170358
866.004	0.0169727
866.082	0.0170964
866.160	0.0170818
866.238	0.0170107
866.317	0.0170570
866.395	0.0170583
866.473	0.0169620
866.551	0.0169627
866.629	0.0169459
866.707	0.0169299
866.785	0.0169500
866.863	0.0169383
866.942	0.0168534
867.020	0.0169807
867.098	0.0169773
867.176	0.0169951
867.254	0.0169151
867.332	0.0168053
867.410	0.0170583
867.488	0.0169066
867.567	0.0167786
867.645	0.0170518
867.723	0.0170467
867.801	0.0169984
867.879	0.0169375
867.957	0.0169474
868.035	0.0169749
868.113	0.0169032
868.192	0.0169595
868.270	0.0169587
868.348	0.0170572
868.426	0.0170666
868.504	0.0170006
868.582	0.0169698
868.660	0.0170882
868.738	0.0169881
868.817	0.0169292
868.895	0.0169508
868.973	0.0171030
869.051	0.0171211
869.129	0.0169948
869.207	0.0169171
869.285	0.0169462
869.363	0.0169858
869.442	0.0171112
869.520	0.0170684
869.598	0.0169743
869.676	0.0170138
869.754	0.0169719
869.832	0.0171165
869.910	0.0171497
869.988	0.0171830
870.067	0.0171040
870.145	0.0169711
870.223	0.0172163
870.301	0.0171976
870.379	0.0171393
870.457	0.0171632
870.535	0.0171708
870.613	0.0170088
870.692	0.0171201
870.770	0.0170689
870.848	0.0170196
870.926	0.0170369
871.004	0.0170621
871.082	0.0170610
871.160	0.0168819
871.238	0.0170144
871.317	0.0169599
871.395	0.0169130
871.473	0.0169926
871.551	0.0169292
871.629	0.0169463
871.707	0.0169199
871.785	0.0169312
871.863	0.0168672
871.942	0.0169298
872.020	0.0169847
872.098	0.0169707
872.176	0.0169377
872.254	0.0169247
872.332	0.0167816
872.410	0.0169119
872.488	0.0168929
872.567	0.0167012
872.645	0.0169545
872.723	0.0169011
872.801	0.0166703
872.879	0.0168333
872.957	0.0167097
873.035	0.0168714
873.113	0.0167982
873.192	0.0167873
873.270	0.0167943
873.348	0.0168098
873.426	0.0168277
873.504	0.0168404
873.582	0.0168468
873.660	0.0168376
873.738	0.0168532
873.817	0.0169725
873.895	0.0168720
873.973	0.0169530
874.051	0.0168720
874.129	0.0167412
874.207	0.0168849
874.285	0.0168386
874.363	0.0168678
874.442	0.0168084
874.520	0.0169129
874.598	0.0168724
874.676	0.0168724
874.754	0.0169835
874.832	0.0168578
874.910	0.0169099
874.988	0.0167567
875.067	0.0168359
875.145	0.0169080
875.223	0.0170603
875.301	0.0169533
875.379	0.0168899
875.457	0.0169181
875.535	0.0169370
875.613	0.0170655
875.692	0.0169596
875.770	0.0169748
875.848	0.0170062
875.926	0.0169380
876.004	0.0171276
876.082	0.0171056
876.160	0.0170696
876.238	0.0169820
876.317	0.0170691
876.395	0.0170795
876.473	0.0170838
876.551	0.0170581
876.629	0.0169684
876.707	0.0169093
876.785	0.0168514
876.863	0.0169843
876.942	0.0169804
877.020	0.0169688
877.098	0.0169012
877.176	0.0168894
877.254	0.0169090
877.332	0.0170007
877.410	0.0169395
877.488	0.0169589
877.567	0.0169758
877.645	0.0170857
877.723	0.0169611
877.801	0.0168774
877.879	0.0168282
877.957	0.0168647
878.035	0.0170218
878.113	0.0170340
878.192	0.0170515
878.270	0.0171809
878.348	0.0170382
878.426	0.0169286
878.504	0.0170646
878.582	0.0171547
878.660	0.0170806
878.738	0.0170733
878.817	0.0170187
878.895	0.0171664
878.973	0.0171167
879.051	0.0169820
879.129	0.0170268
879.207	0.0169659
879.285	0.0169169
879.363	0.0170851
879.442	0.0169987
879.520	0.0169775
879.598	0.0169418
879.676	0.0168783
879.754	0.0170348
879.832	0.0170407
879.910	0.0169210
879.988	0.0170319
880.067	0.0170960
880.145	0.0170943
880.223	0.0169561
880.301	0.0171193
880.379	0.0169569
880.457	0.0169614
880.535	0.0171324
880.613	0.0172206
880.692	0.0171192
880.770	0.0170895
880.848	0.0171249
880.926	0.0171938
881.004	0.0172018
881.082	0.0171304
881.160	0.0169568
881.238	0.0169483
881.317	0.0170967
881.395	0.0170817
881.473	0.0170011
881.551	0.0170293
881.629	0.0170088
881.707	0.0169166
881.785	0.0168616
881.863	0.0168836
881.942	0.0168925
882.020	0.0166825
882.098	0.0166916
882.176	0.0167214
882.254	0.0167800
882.332	0.0167498
882.410	0.0166142
882.488	0.0168161
882.567	0.0168418
882.645	0.0166634
882.723	0.0167074
882.801	0.0167057
882.879	0.0167023
882.957	0.0166151
883.035	0.0165532
883.113	0.0166606
883.192	0.0167487
883.270	0.0167073
883.348	0.0168147
883.426	0.0166941
883.504	0.0168150
883.582	0.0168433
883.660	0.0168578
883.738	0.0167274
883.817	0.0168423
883.895	0.0168112
883.973	0.0168720
884.051	0.0168549
884.129	0.0167960
884.207	0.0169521
884.285	0.0168734
884.363	0.0167542
884.442	0.0166642
884.520	0.0168331
884.598	0.0168350
884.676	0.0168534
884.754	0.0168472
884.832	0.0166892
884.910	0.0168353
884.988	0.0168325
885.067	0.0167017
885.145	0.0166829
885.223	0.0167610
885.301	0.0168825
885.379	0.0168142
885.457	0.0167275
885.535	0.0166692
885.613	0.0168073
885.692	0.0169460
885.770	0.0166991
885.848	0.0168143
885.926	0.0169807
886.004	0.0170011
886.082	0.0168900
886.160	0.0168583
886.238	0.0170052
886.317	0.0169205
886.395	0.0168410
886.473	0.0169286
886.551	0.0169034
886.629	0.0169532
886.707	0.0169530
886.785	0.0167992
886.863	0.0169452
886.942	0.0169630
887.020	0.0169794
887.098	0.0168480
887.176	0.0169524
887.254	0.0168412
887.332	0.0170090
887.410	0.0168608
887.488	0.0169035
887.567	0.0168920
887.645	0.0169025
887.723	0.0170461
887.801	0.0170094
887.879	0.0169405
887.957	0.0170761
888.035	0.0168703
888.113	0.0170049
888.192	0.0170226
888.270	0.0171552
888.348	0.0171184
888.426	0.0171191
888.504	0.0171184
888.582	0.0172336
888.660	0.0171066
888.738	0.0171455
888.817	0.0171754
888.895	0.0171722
888.973	0.0170458
889.051	0.0171555
889.129	0.0171980
889.207	0.0172146
889.285	0.0170961
889.363	0.0172005
889.442	0.0172107
889.520	0.0172247
889.598	0.0171478
889.676	0.0172790
889.754	0.0171366
889.832	0.0171570
889.910	0.0172160
889.988	0.0172030
890.067	0.0170539
890.145	0.0171276
890.223	0.0169775
890.301	0.0171356
890.379	0.0170548
890.457	0.0170579
890.535	0.0169640
890.613	0.0171743
890.692	0.0171423
890.770	0.0171546
890.848	0.0170213
890.926	0.0170327
891.004	0.0169685
891.082	0.0168925
891.160	0.0170394
891.238	0.0170674
891.317	0.0169347
891.395	0.0170766
891.473	0.0169511
891.551	0.0169550
891.629	0.0167474
891.707	0.0168779
891.785	0.0170136
891.863	0.0168341
891.942	0.0168727
892.020	0.0169180
892.098	0.0169505
892.176	0.0169775
892.254	0.0169169
892.332	0.0170362
892.410	0.0168472
892.488	0.0168682
892.567	0.0168893
892.645	0.0170073
892.723	0.0171259
892.801	0.0171043
892.879	0.0169141
892.957	0.0170533
893.035	0.0170125
893.113	0.0170586
893.192	0.0171536
893.270	0.0172174
893.348	0.0170547
893.426	0.0170589
893.504	0.0171175
893.582	0.0170577
893.660	0.0170886
893.738	0.0170696
893.817	0.0170309
893.895	0.0170407
893.973	0.0171275
894.051	0.0171075
894.129	0.0170768
894.207	0.0169061
894.285	0.0169511
894.363	0.0169965
894.442	0.0170748
894.520	0.0170364
894.598	0.0169781
894.676	0.0168978
894.754	0.0169729
894.832	0.0170809
894.910	0.0171581
894.988	0.0169989
895.067	0.0171519
895.145	0.0170411
895.223	0.0169444
895.301	0.0169652
895.379	0.0170009
895.457	0.0167955
895.535	0.0169614
895.613	0.0169564
895.692	0.0169875
895.770	0.0169099
895.848	0.0168908
895.926	0.0168198
896.004	0.0168754
896.082	0.0170196
896.160	0.0169279
896.238	0.0169863
896.317	0.0169469
896.395	0.0167738
896.473	0.0170338
896.551	0.0169562
896.629	0.0169690
896.707	0.0168332
896.785	0.0168764
896.863	0.0171072
896.942	0.0169731
897.020	0.0169645
897.098	0.0168678
897.176	0.0169910
897.254	0.0170143
897.332	0.0169143
897.410	0.0168076
897.488	0.0167489
897.567	0.0168656
897.645	0.0168945
897.723	0.0168375
897.801	0.0169166
897.879	0.0169305
897.957	0.0168122
898.035	0.0168282
898.113	0.0169463
898.192	0.0168633
898.270	0.0169792
898.348	0.0168646
898.426	0.0168604
898.504	0.0169128
898.582	0.0167951
898.660	0.0168516
898.738	0.0168987
898.817	0.0170261
898.895	0.0168520
898.973	0.0168712
899.051	0.0167885
899.129	0.0169166
899.207	0.0167854
899.285	0.0169323
899.363	0.0168745
899.442	0.0168410
899.520	0.0168421
899.598	0.0168295
899.676	0.0168288
899.754	0.0167835
899.832	0.0169538
899.910	0.0168517
899.988	0.0169569
900.067	0.0169104
900.145	0.0169370
900.223	0.0168208
900.301	0.0169152
900.379	0.0168606
900.457	0.0168156
900.535	0.0169388
900.613	0.0170164
900.692	0.0169657
900.770	0.0169448
900.848	0.0168967
900.926	0.0169982
901.004	0.0170667
901.082	0.0168444
901.160	0.0169044
901.238	0.0168854
901.317	0.0169746
901.395	0.0168916
901.473	0.0170199
901.551	0.0169364
901.629	0.0170327
901.707	0.0168037
901.785	0.0169572
901.863	0.0169148
901.942	0.0169415
902.020	0.0169156
902.098	0.0168211
902.176	0.0169545
902.254	0.0169981
902.332	0.0168153
902.410	0.0169292
902.488	0.0171015
902.567	0.0169802
902.645	0.0169156
902.723	0.0170696
902.801	0.0170506
902.879	0.0168897
902.957	0.0168439
903.035	0.0168865
903.113	0.0169232
903.192	0.0169627
903.270	0.0170315
903.348	0.0169427
903.426	0.0168968
903.504	0.0168988
903.582	0.0168862
903.660	0.0170450
903.738	0.0169143
903.817	0.0170196
903.895	0.0170660
903.973	0.0170650
904.051	0.0169411
904.129	0.0170741
904.207	0.0169179
904.285	0.0170235
904.363	0.0170955
904.442	0.0172443
904.520	0.0170837
904.598	0.0170782
904.676	0.0170187
904.754	0.0169839
904.832	0.0171316
904.910	0.0171255
904.988	0.0169962
905.067	0.0170417
905.145	0.0169673
905.223	0.0171281
905.301	0.0170762
905.379	0.0170671
905.457	0.0169449
905.535	0.0170070
905.613	0.0170005
905.692	0.0170188
905.770	0.0170480
905.848	0.0169431
905.926	0.0169675
906.004	0.0169058
906.082	0.0170418
906.160	0.0171128
906.238	0.0168504
906.317	0.0169855
906.395	0.0169666
906.473	0.0169994
906.551	0.0170880
906.629	0.0171448
906.707	0.0168811
906.785	0.0170361
906.863	0.0169987
906.942	0.0170344
907.020	0.0169481
907.098	0.0168874
907.176	0.0168996
907.254	0.0168533
907.332	0.0169327
907.410	0.0169448
907.488	0.0168786
907.567	0.0170451
907.645	0.0168070
907.723	0.0167266
907.801	0.0168256
907.879	0.0169776
907.957	0.0168974
908.035	0.0169463
908.113	0.0169968
908.192	0.0168683
908.270	0.0168816
908.348	0.0170486
908.426	0.0169636
908.504	0.0168858
908.582	0.0170050
908.660	0.0170255
908.738	0.0170000
908.817	0.0171004
908.895	0.0170563
908.973	0.0170096
909.051	0.0170360
909.129	0.0170211
909.207	0.0170549
909.285	0.0170388
909.363	0.0170729
909.442	0.0170551
909.520	0.0170827
909.598	0.0171294
909.676	0.0170411
909.754	0.0170705
909.832	0.0170583
909.910	0.0171780
909.988	0.0170699
910.067	0.0171236
910.145	0.0170405
910.223	0.0170582
910.301	0.0171932
910.379	0.0170909
910.457	0.0172355
910.535	0.0169586
910.613	0.0170880
910.692	0.0171889
910.770	0.0170712
910.848	0.0169594
910.926	0.0170190
911.004	0.0170770
911.082	0.0171341
911.160	0.0169450
911.238	0.0171088
911.317	0.0170647
911.395	0.0171003
911.473	0.0170953
911.551	0.0171191
911.629	0.0172164
911.707	0.0170438
911.785	0.0170902
911.863	0.0171098
911.942	0.0171716
912.020	0.0172054
912.098	0.0170296
912.176	0.0170618
912.254	0.0171683
912.332	0.0170095
912.410	0.0171082
912.488	0.0171841
912.567	0.0170000
912.645	0.0171757
912.723	0.0172729
912.801	0.0170757
912.879	0.0171404
912.957	0.0172063
913.035	0.0170788
913.113	0.0170708
913.192	0.0171320
913.270	0.0169001
913.348	0.0170432
913.426	0.0172002
913.504	0.0171196
913.582	0.0170033
913.660	0.0171915
913.738	0.0171407
913.817	0.0170691
913.895	0.0170725
913.973	0.0168642
914.051	0.0171461
914.129	0.0171742
914.207	0.0170758
914.285	0.0171005
914.363	0.0170937
914.442	0.0170514
914.520	0.0170404
914.598	0.0171193
914.676	0.0170029
914.754	0.0171008
914.832	0.0170940
914.910	0.0170908
914.988	0.0170173
915.067	0.0171214
915.145	0.0170870
915.223	0.0170335
915.301	0.0170404
915.379	0.0169121
915.457	0.0169440
915.535	0.0169761
915.613	0.0168932
915.692	0.0169371
915.770	0.0169518
915.848	0.0167251
915.926	0.0169104
916.004	0.0169329
916.082	0.0168995
916.160	0.0167861
916.238	0.0167403
916.317	0.0168317
916.395	0.0166849
916.473	0.0167184
916.551	0.0168931
916.629	0.0169222
916.707	0.0167989
916.785	0.0168096
916.863	0.0168123
916.942	0.0167713
917.020	0.0168726
917.098	0.0167266
917.176	0.0167565
917.254	0.0167878
917.332	0.0168175
917.410	0.0168900
917.488	0.0166544
917.567	0.0168417
917.645	0.0167874
917.723	0.0168750
917.801	0.0169463
917.879	0.0168358
917.957	0.0168231
918.035	0.0168459
918.113	0.0167289
918.192	0.0168178
918.270	0.0168185
918.348	0.0168832
918.426	0.0167722
918.504	0.0169104
918.582	0.0167564
918.660	0.0168502
918.738	0.0167385
918.817	0.0168546
918.895	0.0168987
918.973	0.0167995
919.051	0.0169987
919.129	0.0169030
919.207	0.0169629
919.285	0.0169888
919.363	0.0169951
919.442	0.0170122
919.520	0.0168796
919.598	0.0169886
919.676	0.0169466
919.754	0.0169137
919.832	0.0169266
919.910	0.0170914
