06/01/2022	22:10:54	Ver.	4.1	UNKNOWN
Optical Delay	599.988409	Delta X		0.078125	Sweeps	1	Scan Rate	0/0
Coordinates	Axis 1	NaN	Axis 2	NaN	Axis 3	NaN	Axis 4	NaN	Axis 5	NaN	Axis 6	0.000000
TX Power	0.000000	RX Power	0.000000

599.988	0.0179507
600.067	0.0179761
600.145	0.0178706
600.223	0.0179236
600.301	0.0178954
600.379	0.0180238
600.457	0.0179094
600.535	0.0180112
600.613	0.0178870
600.692	0.0179647
600.770	0.0178893
600.848	0.0178349
600.926	0.0178876
601.004	0.0179873
601.082	0.0178558
601.160	0.0178273
601.238	0.0178925
601.317	0.0177998
601.395	0.0178946
601.473	0.0180157
601.551	0.0179851
601.629	0.0179456
601.707	0.0179877
601.785	0.0179745
601.863	0.0178962
601.942	0.0178751
602.020	0.0180099
602.098	0.0179369
602.176	0.0180489
602.254	0.0179870
602.332	0.0178432
602.410	0.0179853
602.488	0.0180262
602.567	0.0178108
602.645	0.0178783
602.723	0.0179324
602.801	0.0179262
602.879	0.0179085
602.957	0.0180061
603.035	0.0178529
603.113	0.0180069
603.192	0.0178897
603.270	0.0179185
603.348	0.0179102
603.426	0.0179042
603.504	0.0178613
603.582	0.0179031
603.660	0.0178855
603.738	0.0180016
603.817	0.0180360
603.895	0.0179067
603.973	0.0179465
604.051	0.0178117
604.129	0.0178356
604.207	0.0178214
604.285	0.0179270
604.363	0.0179234
604.442	0.0180232
604.520	0.0179860
604.598	0.0179382
604.676	0.0179527
604.754	0.0179372
604.832	0.0180807
604.910	0.0180058
604.988	0.0180511
605.067	0.0179573
605.145	0.0179699
605.223	0.0179784
605.301	0.0178674
605.379	0.0178207
605.457	0.0179489
605.535	0.0180045
605.613	0.0179261
605.692	0.0179345
605.770	0.0178617
605.848	0.0178671
605.926	0.0179796
606.004	0.0180010
606.082	0.0177818
606.160	0.0179984
606.238	0.0179910
606.317	0.0179232
606.395	0.0178867
606.473	0.0179648
606.551	0.0178440
606.629	0.0179764
606.707	0.0179932
606.785	0.0178986
606.863	0.0177914
606.942	0.0179735
607.020	0.0177925
607.098	0.0177959
607.176	0.0177717
607.254	0.0178106
607.332	0.0178439
607.410	0.0178377
607.488	0.0179342
607.567	0.0178371
607.645	0.0178599
607.723	0.0178456
607.801	0.0177864
607.879	0.0178165
607.957	0.0177550
608.035	0.0178287
608.113	0.0178624
608.192	0.0179707
608.270	0.0178219
608.348	0.0178946
608.426	0.0178811
608.504	0.0177959
608.582	0.0177505
608.660	0.0177900
608.738	0.0178267
608.817	0.0177026
608.895	0.0177320
608.973	0.0177452
609.051	0.0178774
609.129	0.0177332
609.207	0.0178352
609.285	0.0177293
609.363	0.0177209
609.442	0.0177724
609.520	0.0178046
609.598	0.0177816
609.676	0.0176654
609.754	0.0178035
609.832	0.0179403
609.910	0.0178651
609.988	0.0177914
610.067	0.0176357
610.145	0.0178487
610.223	0.0178841
610.301	0.0178271
610.379	0.0178635
610.457	0.0178691
610.535	0.0177520
610.613	0.0178866
610.692	0.0177444
610.770	0.0179082
610.848	0.0179741
610.926	0.0177989
611.004	0.0178382
611.082	0.0178053
611.160	0.0177113
611.238	0.0178279
611.317	0.0179191
611.395	0.0178324
611.473	0.0177872
611.551	0.0177642
611.629	0.0177569
611.707	0.0177918
611.785	0.0178894
611.863	0.0178210
611.942	0.0179019
612.020	0.0178114
612.098	0.0176493
612.176	0.0178407
612.254	0.0178240
612.332	0.0179218
612.410	0.0178905
612.488	0.0179744
612.567	0.0178303
612.645	0.0178954
612.723	0.0177755
612.801	0.0178860
612.879	0.0178234
612.957	0.0178378
613.035	0.0178661
613.113	0.0178504
613.192	0.0179118
613.270	0.0177697
613.348	0.0179185
613.426	0.0178564
613.504	0.0179122
613.582	0.0178935
613.660	0.0178018
613.738	0.0178883
613.817	0.0180058
613.895	0.0179667
613.973	0.0177506
614.051	0.0178930
614.129	0.0179375
614.207	0.0179592
614.285	0.0179531
614.363	0.0179711
614.442	0.0180099
614.520	0.0179833
614.598	0.0178879
614.676	0.0179929
614.754	0.0179737
614.832	0.0178209
614.910	0.0179218
614.988	0.0177743
615.067	0.0178848
615.145	0.0177838
615.223	0.0179603
615.301	0.0180087
615.379	0.0178277
615.457	0.0178499
615.535	0.0178995
615.613	0.0179082
615.692	0.0178554
615.770	0.0179614
615.848	0.0178169
615.926	0.0178658
616.004	0.0178332
616.082	0.0178149
616.160	0.0179301
616.238	0.0179646
616.317	0.0179250
616.395	0.0177608
616.473	0.0178711
616.551	0.0179349
616.629	0.0178121
616.707	0.0179561
616.785	0.0180013
616.863	0.0179264
616.942	0.0177976
617.020	0.0178381
617.098	0.0178746
617.176	0.0178296
617.254	0.0178190
617.332	0.0178469
617.410	0.0177039
617.488	0.0179154
617.567	0.0178352
617.645	0.0179375
617.723	0.0178336
617.801	0.0177533
617.879	0.0178915
617.957	0.0178799
618.035	0.0179961
618.113	0.0178580
618.192	0.0178772
618.270	0.0178751
618.348	0.0180303
618.426	0.0179399
618.504	0.0179119
618.582	0.0179492
618.660	0.0180431
618.738	0.0179874
618.817	0.0178532
618.895	0.0180456
618.973	0.0178378
619.051	0.0179765
619.129	0.0179298
619.207	0.0178259
619.285	0.0179469
619.363	0.0179889
619.442	0.0179352
619.520	0.0179381
619.598	0.0179881
619.676	0.0180063
619.754	0.0180299
619.832	0.0178923
619.910	0.0178640
619.988	0.0179805
620.067	0.0179189
620.145	0.0179642
620.223	0.0179937
620.301	0.0178996
620.379	0.0179151
620.457	0.0180219
620.535	0.0180408
620.613	0.0182431
620.692	0.0180829
620.770	0.0179825
620.848	0.0177972
620.926	0.0180218
621.004	0.0181747
621.082	0.0181159
621.160	0.0179251
621.238	0.0180898
621.317	0.0181995
621.395	0.0181267
621.473	0.0179829
621.551	0.0180709
621.629	0.0181410
621.707	0.0179433
621.785	0.0180922
621.863	0.0181410
621.942	0.0180952
622.020	0.0180733
622.098	0.0180522
622.176	0.0179926
622.254	0.0180179
622.332	0.0180481
622.410	0.0180320
622.488	0.0180533
622.567	0.0180205
622.645	0.0180346
622.723	0.0182211
622.801	0.0180141
622.879	0.0180197
622.957	0.0180213
623.035	0.0180254
623.113	0.0179984
623.192	0.0180359
623.270	0.0179860
623.348	0.0179243
623.426	0.0180519
623.504	0.0179738
623.582	0.0180233
623.660	0.0179916
623.738	0.0181128
623.817	0.0180154
623.895	0.0180608
623.973	0.0179765
624.051	0.0179124
624.129	0.0179195
624.207	0.0180327
624.285	0.0179147
624.363	0.0180157
624.442	0.0179076
624.520	0.0178959
624.598	0.0180342
624.676	0.0178871
624.754	0.0179597
624.832	0.0179012
624.910	0.0179865
624.988	0.0180007
625.067	0.0179134
625.145	0.0178787
625.223	0.0179613
625.301	0.0178329
625.379	0.0177724
625.457	0.0178312
625.535	0.0178970
625.613	0.0178130
625.692	0.0178484
625.770	0.0178120
625.848	0.0177593
625.926	0.0177847
626.004	0.0177717
626.082	0.0177261
626.160	0.0178518
626.238	0.0180051
626.317	0.0178094
626.395	0.0177422
626.473	0.0178331
626.551	0.0177161
626.629	0.0178278
626.707	0.0178071
626.785	0.0178329
626.863	0.0177292
626.942	0.0177961
627.020	0.0178813
627.098	0.0178431
627.176	0.0177036
627.254	0.0178085
627.332	0.0178168
627.410	0.0178515
627.488	0.0175178
627.567	0.0178403
627.645	0.0178304
627.723	0.0178645
627.801	0.0178262
627.879	0.0177154
627.957	0.0177070
628.035	0.0178194
628.113	0.0177306
628.192	0.0178262
628.270	0.0177520
628.348	0.0178473
628.426	0.0178164
628.504	0.0178577
628.582	0.0177885
628.660	0.0177518
628.738	0.0179211
628.817	0.0179634
628.895	0.0178713
628.973	0.0178683
629.051	0.0178987
629.129	0.0180865
629.207	0.0178141
629.285	0.0178162
629.363	0.0179124
629.442	0.0178747
629.520	0.0180227
629.598	0.0178429
629.676	0.0178394
629.754	0.0178623
629.832	0.0178237
629.910	0.0178761
629.988	0.0178584
630.067	0.0178497
630.145	0.0180561
630.223	0.0179421
630.301	0.0179725
630.379	0.0178133
630.457	0.0179309
630.535	0.0180417
630.613	0.0180417
630.692	0.0180047
630.770	0.0179509
630.848	0.0180591
630.926	0.0180120
631.004	0.0179086
631.082	0.0180543
631.160	0.0179657
631.238	0.0179820
631.317	0.0179535
631.395	0.0179016
631.473	0.0178114
631.551	0.0179839
631.629	0.0179914
631.707	0.0180125
631.785	0.0179973
631.863	0.0180409
631.942	0.0179657
632.020	0.0179852
632.098	0.0178764
632.176	0.0180871
632.254	0.0179514
632.332	0.0179603
632.410	0.0178523
632.488	0.0179700
632.567	0.0179780
632.645	0.0180797
632.723	0.0179359
632.801	0.0180237
632.879	0.0180222
632.957	0.0178968
633.035	0.0179226
633.113	0.0180698
633.192	0.0180370
633.270	0.0180432
633.348	0.0179526
633.426	0.0178281
633.504	0.0179709
633.582	0.0180556
633.660	0.0178920
633.738	0.0179154
633.817	0.0179462
633.895	0.0180351
633.973	0.0179335
634.051	0.0180254
634.129	0.0178719
634.207	0.0179395
634.285	0.0180930
634.363	0.0179759
634.442	0.0179467
634.520	0.0180163
634.598	0.0178294
634.676	0.0179716
634.754	0.0179624
634.832	0.0180340
634.910	0.0180065
634.988	0.0179366
635.067	0.0179752
635.145	0.0179719
635.223	0.0178732
635.301	0.0180606
635.379	0.0179241
635.457	0.0179980
635.535	0.0178745
635.613	0.0179950
635.692	0.0179688
635.770	0.0179730
635.848	0.0179664
635.926	0.0179267
636.004	0.0179700
636.082	0.0179397
636.160	0.0179218
636.238	0.0178889
636.317	0.0180856
636.395	0.0179066
636.473	0.0179508
636.551	0.0180949
636.629	0.0180176
636.707	0.0180158
636.785	0.0180602
636.863	0.0180431
636.942	0.0179349
637.020	0.0178799
637.098	0.0179829
637.176	0.0180072
637.254	0.0178934
637.332	0.0178954
637.410	0.0181296
637.488	0.0181174
637.567	0.0179189
637.645	0.0179378
637.723	0.0179034
637.801	0.0180627
637.879	0.0179657
637.957	0.0179524
638.035	0.0179715
638.113	0.0179848
638.192	0.0179893
638.270	0.0179803
638.348	0.0179967
638.426	0.0179256
638.504	0.0178867
638.582	0.0179092
638.660	0.0179366
638.738	0.0179411
638.817	0.0178259
638.895	0.0179709
638.973	0.0177897
639.051	0.0177577
639.129	0.0178966
639.207	0.0179216
639.285	0.0178529
639.363	0.0177917
639.442	0.0179143
639.520	0.0179398
639.598	0.0179449
639.676	0.0179392
639.754	0.0179689
639.832	0.0178638
639.910	0.0178642
639.988	0.0177550
640.067	0.0178990
640.145	0.0179619
640.223	0.0179777
640.301	0.0179097
640.379	0.0180413
640.457	0.0181438
640.535	0.0180283
640.613	0.0180045
640.692	0.0179863
640.770	0.0181133
640.848	0.0178905
640.926	0.0178674
641.004	0.0179565
641.082	0.0179267
641.160	0.0178578
641.238	0.0179977
641.317	0.0177756
641.395	0.0178581
641.473	0.0179520
641.551	0.0178802
641.629	0.0179842
641.707	0.0177026
641.785	0.0176334
641.863	0.0177624
641.942	0.0178737
642.020	0.0176899
642.098	0.0177057
642.176	0.0177452
642.254	0.0175710
642.332	0.0177512
642.410	0.0177075
642.488	0.0177678
642.567	0.0178127
642.645	0.0177843
642.723	0.0178201
642.801	0.0177300
642.879	0.0177650
642.957	0.0178297
643.035	0.0178413
643.113	0.0178272
643.192	0.0178342
643.270	0.0177089
643.348	0.0178949
643.426	0.0178191
643.504	0.0177677
643.582	0.0178006
643.660	0.0178258
643.738	0.0178604
643.817	0.0177895
643.895	0.0179540
643.973	0.0178348
644.051	0.0180011
644.129	0.0178852
644.207	0.0179609
644.285	0.0178690
644.363	0.0179053
644.442	0.0179206
644.520	0.0178203
644.598	0.0178175
644.676	0.0178181
644.754	0.0178369
644.832	0.0177966
644.910	0.0178268
644.988	0.0177966
645.067	0.0179059
645.145	0.0178177
645.223	0.0177792
645.301	0.0179133
645.379	0.0178699
645.457	0.0178274
645.535	0.0178451
645.613	0.0178880
645.692	0.0178423
645.770	0.0177933
645.848	0.0178902
645.926	0.0178743
646.004	0.0177969
646.082	0.0179659
646.160	0.0179563
646.238	0.0180095
646.317	0.0180158
646.395	0.0178876
646.473	0.0181234
646.551	0.0180798
646.629	0.0179565
646.707	0.0180598
646.785	0.0180320
646.863	0.0181464
646.942	0.0179532
647.020	0.0180000
647.098	0.0179809
647.176	0.0178725
647.254	0.0179496
647.332	0.0180606
647.410	0.0178663
647.488	0.0178278
647.567	0.0178144
647.645	0.0178668
647.723	0.0177954
647.801	0.0177545
647.879	0.0178347
647.957	0.0175627
648.035	0.0176684
648.113	0.0176141
648.192	0.0176633
648.270	0.0176591
648.348	0.0175166
648.426	0.0175650
648.504	0.0175651
648.582	0.0174965
648.660	0.0175433
648.738	0.0175576
648.817	0.0174175
648.895	0.0176802
648.973	0.0175700
649.051	0.0175363
649.129	0.0175768
649.207	0.0175155
649.285	0.0174583
649.363	0.0175088
649.442	0.0175706
649.520	0.0176945
649.598	0.0176043
649.676	0.0175947
649.754	0.0176302
649.832	0.0176985
649.910	0.0176337
649.988	0.0175345
650.067	0.0176762
650.145	0.0176922
650.223	0.0177084
650.301	0.0177499
650.379	0.0179468
650.457	0.0178989
650.535	0.0178568
650.613	0.0179780
650.692	0.0179986
650.770	0.0179473
650.848	0.0179741
650.926	0.0180206
651.004	0.0179592
651.082	0.0180656
651.160	0.0180922
651.238	0.0180243
651.317	0.0180294
651.395	0.0179932
651.473	0.0181450
651.551	0.0180645
651.629	0.0181367
651.707	0.0181181
651.785	0.0181059
651.863	0.0180830
651.942	0.0180567
652.020	0.0181625
652.098	0.0181220
652.176	0.0180061
652.254	0.0180969
652.332	0.0180267
652.410	0.0180672
652.488	0.0181527
652.567	0.0180188
652.645	0.0180552
652.723	0.0179703
652.801	0.0179713
652.879	0.0180408
652.957	0.0181519
653.035	0.0179884
653.113	0.0181005
653.192	0.0179430
653.270	0.0180016
653.348	0.0179855
653.426	0.0180264
653.504	0.0180042
653.582	0.0179189
653.660	0.0179633
653.738	0.0179204
653.817	0.0180195
653.895	0.0180208
653.973	0.0180901
654.051	0.0181626
654.129	0.0179144
654.207	0.0179998
654.285	0.0181196
654.363	0.0180534
654.442	0.0179903
654.520	0.0179252
654.598	0.0179544
654.676	0.0181358
654.754	0.0179977
654.832	0.0179340
654.910	0.0180127
654.988	0.0180116
655.067	0.0178031
655.145	0.0179852
655.223	0.0180223
655.301	0.0179977
655.379	0.0179054
655.457	0.0180367
655.535	0.0179355
655.613	0.0179174
655.692	0.0178443
655.770	0.0180048
655.848	0.0179490
655.926	0.0179342
656.004	0.0179118
656.082	0.0178238
656.160	0.0178969
656.238	0.0179935
656.317	0.0178444
656.395	0.0179327
656.473	0.0180347
656.551	0.0178373
656.629	0.0179192
656.707	0.0179761
656.785	0.0177203
656.863	0.0179129
656.942	0.0179893
657.020	0.0178239
657.098	0.0179237
657.176	0.0180005
657.254	0.0179245
657.332	0.0179713
657.410	0.0180655
657.488	0.0179445
657.567	0.0179216
657.645	0.0179020
657.723	0.0178576
657.801	0.0179725
657.879	0.0179378
657.957	0.0179725
658.035	0.0179441
658.113	0.0179044
658.192	0.0179066
658.270	0.0180730
658.348	0.0179173
658.426	0.0179372
658.504	0.0180362
658.582	0.0180349
658.660	0.0178654
658.738	0.0179177
658.817	0.0178857
658.895	0.0178848
658.973	0.0178460
659.051	0.0178278
659.129	0.0179073
659.207	0.0178758
659.285	0.0178219
659.363	0.0178551
659.442	0.0179464
659.520	0.0179601
659.598	0.0178831
659.676	0.0179136
659.754	0.0178605
659.832	0.0179433
659.910	0.0180506
659.988	0.0178773
660.067	0.0178750
660.145	0.0179696
660.223	0.0179783
660.301	0.0180272
660.379	0.0179208
660.457	0.0180669
660.535	0.0180393
660.613	0.0180923
660.692	0.0180775
660.770	0.0179598
660.848	0.0179010
660.926	0.0181351
661.004	0.0181068
661.082	0.0178796
661.160	0.0180579
661.238	0.0181446
661.317	0.0180238
661.395	0.0180531
661.473	0.0180318
661.551	0.0179925
661.629	0.0179247
661.707	0.0180715
661.785	0.0178018
661.863	0.0178624
661.942	0.0179009
662.020	0.0178197
662.098	0.0178664
662.176	0.0179265
662.254	0.0178212
662.332	0.0180284
662.410	0.0179162
662.488	0.0178561
662.567	0.0179305
662.645	0.0179533
662.723	0.0178838
662.801	0.0179045
662.879	0.0180043
662.957	0.0180071
663.035	0.0179626
663.113	0.0179787
663.192	0.0179803
663.270	0.0178926
663.348	0.0179148
663.426	0.0179353
663.504	0.0178905
663.582	0.0180658
663.660	0.0179549
663.738	0.0179219
663.817	0.0179229
663.895	0.0179536
663.973	0.0179065
664.051	0.0178886
664.129	0.0178841
664.207	0.0179047
664.285	0.0179401
664.363	0.0178928
664.442	0.0177744
664.520	0.0177705
664.598	0.0178410
664.676	0.0177794
664.754	0.0177841
664.832	0.0177972
664.910	0.0178378
664.988	0.0178600
665.067	0.0177375
665.145	0.0177069
665.223	0.0178182
665.301	0.0176470
665.379	0.0177044
665.457	0.0178361
665.535	0.0176821
665.613	0.0178013
665.692	0.0177489
665.770	0.0176830
665.848	0.0178327
665.926	0.0177463
666.004	0.0176610
666.082	0.0176650
666.160	0.0177751
666.238	0.0176699
666.317	0.0177961
666.395	0.0177361
666.473	0.0176412
666.551	0.0176566
666.629	0.0178288
666.707	0.0177902
666.785	0.0177444
666.863	0.0177974
666.942	0.0178197
667.020	0.0176712
667.098	0.0177364
667.176	0.0177563
667.254	0.0177328
667.332	0.0176785
667.410	0.0177872
667.488	0.0178046
667.567	0.0178291
667.645	0.0178388
667.723	0.0179827
667.801	0.0177794
667.879	0.0178806
667.957	0.0177622
668.035	0.0177682
668.113	0.0178020
668.192	0.0177457
668.270	0.0177035
668.348	0.0178301
668.426	0.0176677
668.504	0.0177133
668.582	0.0176196
668.660	0.0176763
668.738	0.0178864
668.817	0.0177784
668.895	0.0176257
668.973	0.0178326
669.051	0.0176517
669.129	0.0176529
669.207	0.0176730
669.285	0.0176064
669.363	0.0176897
669.442	0.0176206
669.520	0.0177383
669.598	0.0177128
669.676	0.0177359
669.754	0.0176587
669.832	0.0176789
669.910	0.0176888
669.988	0.0178723
670.067	0.0178140
670.145	0.0178022
670.223	0.0178443
670.301	0.0178557
670.379	0.0179307
670.457	0.0178022
670.535	0.0178637
670.613	0.0177533
670.692	0.0178378
670.770	0.0177440
670.848	0.0176849
670.926	0.0178366
671.004	0.0178862
671.082	0.0178611
671.160	0.0178491
671.238	0.0178419
671.317	0.0178676
671.395	0.0178226
671.473	0.0178249
671.551	0.0177554
671.629	0.0179398
671.707	0.0178708
671.785	0.0177246
671.863	0.0178175
671.942	0.0179173
672.020	0.0179758
672.098	0.0178639
672.176	0.0179239
672.254	0.0180328
672.332	0.0178321
672.410	0.0179117
672.488	0.0179055
672.567	0.0179398
672.645	0.0178991
672.723	0.0179223
672.801	0.0177946
672.879	0.0178763
672.957	0.0178673
673.035	0.0178291
673.113	0.0178788
673.192	0.0177880
673.270	0.0179189
673.348	0.0177942
673.426	0.0176660
673.504	0.0177367
673.582	0.0178390
673.660	0.0177493
673.738	0.0178477
673.817	0.0178567
673.895	0.0177510
673.973	0.0177400
674.051	0.0178584
674.129	0.0178436
674.207	0.0179045
674.285	0.0178143
674.363	0.0179343
674.442	0.0177637
674.520	0.0178850
674.598	0.0179288
674.676	0.0179184
674.754	0.0180032
674.832	0.0180494
674.910	0.0179803
674.988	0.0179952
675.067	0.0179969
675.145	0.0180069
675.223	0.0178855
675.301	0.0179999
675.379	0.0181268
675.457	0.0181206
675.535	0.0179622
675.613	0.0179744
675.692	0.0180164
675.770	0.0177928
675.848	0.0178917
675.926	0.0178651
676.004	0.0178381
676.082	0.0177012
676.160	0.0176505
676.238	0.0176579
676.317	0.0178014
676.395	0.0176624
676.473	0.0177067
676.551	0.0177104
676.629	0.0176476
676.707	0.0176225
676.785	0.0176907
676.863	0.0176841
676.942	0.0178951
677.020	0.0179819
677.098	0.0179595
677.176	0.0179713
677.254	0.0180999
677.332	0.0180793
677.410	0.0180096
677.488	0.0180976
677.567	0.0181155
677.645	0.0180763
677.723	0.0181314
677.801	0.0180524
677.879	0.0181705
677.957	0.0180584
678.035	0.0179806
678.113	0.0180467
678.192	0.0179971
678.270	0.0179187
678.348	0.0178390
678.426	0.0177535
678.504	0.0179546
678.582	0.0179698
678.660	0.0179075
678.738	0.0177079
678.817	0.0177431
678.895	0.0177981
678.973	0.0178688
679.051	0.0177197
679.129	0.0178743
679.207	0.0179623
679.285	0.0180592
679.363	0.0179648
679.442	0.0178924
679.520	0.0178461
679.598	0.0179665
679.676	0.0180733
679.754	0.0180405
679.832	0.0180882
679.910	0.0180627
679.988	0.0180032
680.067	0.0180391
680.145	0.0180653
680.223	0.0181404
680.301	0.0181499
680.379	0.0181905
680.457	0.0181110
680.535	0.0179611
680.613	0.0179373
680.692	0.0179440
680.770	0.0180256
680.848	0.0179707
680.926	0.0181205
681.004	0.0179492
681.082	0.0177834
681.160	0.0178251
681.238	0.0179044
681.317	0.0177962
681.395	0.0178680
681.473	0.0178964
681.551	0.0179753
681.629	0.0179862
681.707	0.0180051
681.785	0.0178271
681.863	0.0178756
681.942	0.0180379
682.020	0.0179460
682.098	0.0179421
682.176	0.0180458
682.254	0.0180362
682.332	0.0180129
682.410	0.0179525
682.488	0.0181400
682.567	0.0182270
682.645	0.0181113
682.723	0.0180563
682.801	0.0181803
682.879	0.0182731
682.957	0.0182878
683.035	0.0183523
683.113	0.0183106
683.192	0.0183652
683.270	0.0182474
683.348	0.0182539
683.426	0.0181441
683.504	0.0181448
683.582	0.0179591
683.660	0.0179214
683.738	0.0177764
683.817	0.0178748
683.895	0.0177078
683.973	0.0177399
684.051	0.0175765
684.129	0.0175096
684.207	0.0174664
684.285	0.0173952
684.363	0.0175596
684.442	0.0172994
684.520	0.0174589
684.598	0.0173564
684.676	0.0175002
684.754	0.0176415
684.832	0.0175722
684.910	0.0174590
684.988	0.0177657
685.067	0.0177184
685.145	0.0178445
685.223	0.0177225
685.301	0.0177641
685.379	0.0179258
685.457	0.0179084
685.535	0.0180367
685.613	0.0182848
685.692	0.0182133
685.770	0.0183022
685.848	0.0181518
685.926	0.0183325
686.004	0.0182425
686.082	0.0183987
686.160	0.0183249
686.238	0.0183011
686.317	0.0183228
686.395	0.0183858
686.473	0.0181957
686.551	0.0181838
686.629	0.0181037
686.707	0.0180103
686.785	0.0181224
686.863	0.0179762
686.942	0.0179906
687.020	0.0179173
687.098	0.0178551
687.176	0.0177924
687.254	0.0177756
687.332	0.0175533
687.410	0.0175979
687.488	0.0174420
687.567	0.0174535
687.645	0.0174048
687.723	0.0174088
687.801	0.0173553
687.879	0.0173983
687.957	0.0172387
688.035	0.0173375
688.113	0.0174574
688.192	0.0170583
688.270	0.0173486
688.348	0.0174907
688.426	0.0174604
688.504	0.0175346
688.582	0.0176011
688.660	0.0177052
688.738	0.0177941
688.817	0.0177932
688.895	0.0178439
688.973	0.0179563
689.051	0.0181406
689.129	0.0182359
689.207	0.0182523
689.285	0.0182059
689.363	0.0183081
689.442	0.0185370
689.520	0.0185011
689.598	0.0185107
689.676	0.0185338
689.754	0.0184732
689.832	0.0184263
689.910	0.0184304
689.988	0.0182710
690.067	0.0182901
690.145	0.0182272
690.223	0.0181752
690.301	0.0180602
690.379	0.0179327
690.457	0.0178075
690.535	0.0177281
690.613	0.0176295
690.692	0.0176110
690.770	0.0174283
690.848	0.0171810
690.926	0.0171529
691.004	0.0172539
691.082	0.0171014
691.160	0.0171532
691.238	0.0170786
691.317	0.0170699
691.395	0.0170503
691.473	0.0172770
691.551	0.0171714
691.629	0.0170507
691.707	0.0172124
691.785	0.0172972
691.863	0.0172420
691.942	0.0174411
692.020	0.0175866
692.098	0.0175051
692.176	0.0176891
692.254	0.0177322
692.332	0.0179337
692.410	0.0178533
692.488	0.0178545
692.567	0.0180048
692.645	0.0179899
692.723	0.0181113
692.801	0.0180872
692.879	0.0182072
692.957	0.0182479
693.035	0.0183665
693.113	0.0184374
693.192	0.0183565
693.270	0.0185136
693.348	0.0185051
693.426	0.0185834
693.504	0.0186252
693.582	0.0185732
693.660	0.0185268
693.738	0.0183444
693.817	0.0184779
693.895	0.0183770
693.973	0.0183417
694.051	0.0182752
694.129	0.0181356
694.207	0.0179379
694.285	0.0179297
694.363	0.0178459
694.442	0.0178295
694.520	0.0176645
694.598	0.0176772
694.676	0.0177554
694.754	0.0175706
694.832	0.0176667
694.910	0.0176949
694.988	0.0176247
695.067	0.0175809
695.145	0.0176398
695.223	0.0176639
695.301	0.0176293
695.379	0.0174660
695.457	0.0175356
695.535	0.0178016
695.613	0.0177010
695.692	0.0176598
695.770	0.0175925
695.848	0.0175850
695.926	0.0176910
696.004	0.0176392
696.082	0.0175483
696.160	0.0175577
696.238	0.0176167
696.317	0.0176411
696.395	0.0176427
696.473	0.0175900
696.551	0.0177283
696.629	0.0177524
696.707	0.0177322
696.785	0.0179020
696.863	0.0178893
696.942	0.0177852
697.020	0.0178363
697.098	0.0179065
697.176	0.0180340
697.254	0.0179310
697.332	0.0179610
697.410	0.0182053
697.488	0.0182438
697.567	0.0181479
697.645	0.0181926
697.723	0.0184158
697.801	0.0183871
697.879	0.0184195
697.957	0.0185294
698.035	0.0184437
698.113	0.0185455
698.192	0.0185988
698.270	0.0185661
698.348	0.0186492
698.426	0.0186977
698.504	0.0186069
698.582	0.0188427
698.660	0.0186834
698.738	0.0186797
698.817	0.0187702
698.895	0.0188808
698.973	0.0187821
699.051	0.0187002
699.129	0.0187727
699.207	0.0185970
699.285	0.0188696
699.363	0.0186181
699.442	0.0184567
699.520	0.0184589
699.598	0.0184020
699.676	0.0182128
699.754	0.0181795
699.832	0.0180582
699.910	0.0178331
699.988	0.0174812
700.067	0.0175945
700.145	0.0173607
700.223	0.0170011
700.301	0.0169511
700.379	0.0168912
700.457	0.0166739
700.535	0.0165413
700.613	0.0166724
700.692	0.0165039
700.770	0.0165607
700.848	0.0167472
700.926	0.0166771
701.004	0.0168385
701.082	0.0169149
701.160	0.0171295
701.238	0.0171507
701.317	0.0172200
701.395	0.0174483
701.473	0.0175912
701.551	0.0175747
701.629	0.0176602
701.707	0.0177485
701.785	0.0178364
701.863	0.0179832
701.942	0.0179057
702.020	0.0179224
702.098	0.0181643
702.176	0.0183014
702.254	0.0181641
702.332	0.0182756
702.410	0.0183426
702.488	0.0184203
702.567	0.0184109
702.645	0.0185392
702.723	0.0184984
702.801	0.0184372
702.879	0.0186523
702.957	0.0188074
703.035	0.0188699
703.113	0.0190343
703.192	0.0188770
703.270	0.0188390
703.348	0.0187730
703.426	0.0188683
703.504	0.0188955
703.582	0.0189997
703.660	0.0188179
703.738	0.0188077
703.817	0.0187521
703.895	0.0187073
703.973	0.0186922
704.051	0.0186472
704.129	0.0184344
704.207	0.0182940
704.285	0.0183331
704.363	0.0182079
704.442	0.0180367
704.520	0.0178462
704.598	0.0179051
704.676	0.0177289
704.754	0.0176384
704.832	0.0175268
704.910	0.0173943
704.988	0.0173323
705.067	0.0172017
705.145	0.0171310
705.223	0.0170622
705.301	0.0169811
705.379	0.0168997
705.457	0.0169585
705.535	0.0168378
705.613	0.0167822
705.692	0.0168374
705.770	0.0167003
705.848	0.0167268
705.926	0.0168122
706.004	0.0165530
706.082	0.0167737
706.160	0.0168273
706.238	0.0167147
706.317	0.0169590
706.395	0.0170631
706.473	0.0171173
706.551	0.0172629
706.629	0.0173203
706.707	0.0174357
706.785	0.0175811
706.863	0.0175716
706.942	0.0179046
707.020	0.0178964
707.098	0.0180347
707.176	0.0181050
707.254	0.0183014
707.332	0.0183594
707.410	0.0184417
707.488	0.0184878
707.567	0.0185516
707.645	0.0186317
707.723	0.0185961
707.801	0.0188171
707.879	0.0187290
707.957	0.0187705
708.035	0.0187473
708.113	0.0187344
708.192	0.0186821
708.270	0.0186829
708.348	0.0188525
708.426	0.0187466
708.504	0.0187526
708.582	0.0187643
708.660	0.0187398
708.738	0.0185368
708.817	0.0183924
708.895	0.0182150
708.973	0.0183408
709.051	0.0181890
709.129	0.0180703
709.207	0.0180924
709.285	0.0179281
709.363	0.0179704
709.442	0.0178489
709.520	0.0177645
709.598	0.0176819
709.676	0.0178796
709.754	0.0178557
709.832	0.0178349
709.910	0.0178784
709.988	0.0180004
710.067	0.0179680
710.145	0.0179966
710.223	0.0180335
710.301	0.0178873
710.379	0.0178277
710.457	0.0176714
710.535	0.0177514
710.613	0.0176487
710.692	0.0174958
710.770	0.0175629
710.848	0.0175063
710.926	0.0173286
711.004	0.0174284
711.082	0.0174699
711.160	0.0170789
711.238	0.0170362
711.317	0.0171722
711.395	0.0171436
711.473	0.0170061
711.551	0.0171179
711.629	0.0171125
711.707	0.0173205
711.785	0.0172514
711.863	0.0174191
711.942	0.0173859
712.020	0.0175179
712.098	0.0174893
712.176	0.0174460
712.254	0.0175258
712.332	0.0174340
712.410	0.0173604
712.488	0.0174911
712.567	0.0174992
712.645	0.0176585
712.723	0.0175425
712.801	0.0176398
712.879	0.0178132
712.957	0.0177241
713.035	0.0179240
713.113	0.0179469
713.192	0.0181639
713.270	0.0182206
713.348	0.0183366
713.426	0.0183402
713.504	0.0184318
713.582	0.0183453
713.660	0.0185640
713.738	0.0186526
713.817	0.0185455
713.895	0.0185091
713.973	0.0184965
714.051	0.0185653
714.129	0.0186985
714.207	0.0185938
714.285	0.0187135
714.363	0.0186414
714.442	0.0185921
714.520	0.0187238
714.598	0.0186114
714.676	0.0184772
714.754	0.0183935
714.832	0.0184280
714.910	0.0182455
714.988	0.0182264
715.067	0.0180129
715.145	0.0180672
715.223	0.0179822
715.301	0.0178098
715.379	0.0178309
715.457	0.0179323
715.535	0.0177831
715.613	0.0177697
715.692	0.0175088
715.770	0.0175665
715.848	0.0174769
715.926	0.0175293
716.004	0.0175488
716.082	0.0173965
716.160	0.0173924
716.238	0.0173141
716.317	0.0173214
716.395	0.0173411
716.473	0.0171949
716.551	0.0173075
716.629	0.0172162
716.707	0.0169983
716.785	0.0169704
716.863	0.0170269
716.942	0.0171357
717.020	0.0170513
717.098	0.0170312
717.176	0.0171925
717.254	0.0171747
717.332	0.0172284
717.410	0.0173624
717.488	0.0172546
717.567	0.0175217
717.645	0.0176562
717.723	0.0177070
717.801	0.0177786
717.879	0.0177682
717.957	0.0177891
718.035	0.0179050
718.113	0.0180061
718.192	0.0178959
718.270	0.0179552
718.348	0.0180310
718.426	0.0179696
718.504	0.0179613
718.582	0.0180742
718.660	0.0181136
718.738	0.0182585
718.817	0.0181746
718.895	0.0182046
718.973	0.0183158
719.051	0.0183176
719.129	0.0182978
719.207	0.0182258
719.285	0.0184123
719.363	0.0183643
719.442	0.0185523
719.520	0.0186331
719.598	0.0185251
719.676	0.0186937
719.754	0.0188269
719.832	0.0187450
719.910	0.0187704
719.988	0.0188216
720.067	0.0187130
720.145	0.0187106
720.223	0.0185862
720.301	0.0185602
720.379	0.0186356
720.457	0.0183621
720.535	0.0184245
720.613	0.0182188
720.692	0.0180632
720.770	0.0180417
720.848	0.0180872
720.926	0.0178477
721.004	0.0178802
721.082	0.0178583
721.160	0.0177377
721.238	0.0177353
721.317	0.0176228
721.395	0.0176286
721.473	0.0175391
721.551	0.0175902
721.629	0.0175746
721.707	0.0175381
721.785	0.0176064
721.863	0.0176411
721.942	0.0176109
722.020	0.0176852
722.098	0.0177256
722.176	0.0177678
722.254	0.0176072
722.332	0.0176451
722.410	0.0176517
722.488	0.0175986
722.567	0.0177030
722.645	0.0175223
722.723	0.0175308
722.801	0.0175028
722.879	0.0174200
722.957	0.0174660
723.035	0.0175991
723.113	0.0175620
723.192	0.0174274
723.270	0.0174168
723.348	0.0176614
723.426	0.0175345
723.504	0.0176486
723.582	0.0176486
723.660	0.0178011
723.738	0.0177290
723.817	0.0178155
723.895	0.0178402
723.973	0.0178823
724.051	0.0178135
724.129	0.0179059
724.207	0.0181329
724.285	0.0182272
724.363	0.0181440
724.442	0.0182094
724.520	0.0181494
724.598	0.0182199
724.676	0.0182114
724.754	0.0182210
724.832	0.0183936
724.910	0.0181557
724.988	0.0182055
725.067	0.0181702
725.145	0.0182887
725.223	0.0183667
725.301	0.0181715
725.379	0.0182812
725.457	0.0181539
725.535	0.0182708
725.613	0.0183804
725.692	0.0180787
725.770	0.0180956
725.848	0.0181772
725.926	0.0180603
726.004	0.0181424
726.082	0.0180433
726.160	0.0180241
726.238	0.0179189
726.317	0.0178358
726.395	0.0178224
726.473	0.0177895
726.551	0.0178300
726.629	0.0177481
726.707	0.0179183
726.785	0.0178515
726.863	0.0176543
726.942	0.0176115
727.020	0.0177971
727.098	0.0177344
727.176	0.0177431
727.254	0.0176716
727.332	0.0175323
727.410	0.0177435
727.488	0.0175186
727.567	0.0176016
727.645	0.0173808
727.723	0.0176225
727.801	0.0176217
727.879	0.0175448
727.957	0.0176037
728.035	0.0176672
728.113	0.0176317
728.192	0.0176667
728.270	0.0178678
728.348	0.0177285
728.426	0.0177760
728.504	0.0178561
728.582	0.0178709
728.660	0.0179671
728.738	0.0179406
728.817	0.0180831
728.895	0.0179894
728.973	0.0178632
729.051	0.0179471
729.129	0.0178831
729.207	0.0180280
729.285	0.0179810
729.363	0.0180877
729.442	0.0180157
729.520	0.0180685
729.598	0.0180019
729.676	0.0179849
729.754	0.0180746
729.832	0.0179302
729.910	0.0178486
729.988	0.0179703
730.067	0.0179217
730.145	0.0178909
730.223	0.0178435
730.301	0.0180302
730.379	0.0179681
730.457	0.0177982
730.535	0.0179818
730.613	0.0180035
730.692	0.0179650
730.770	0.0178343
730.848	0.0179386
730.926	0.0178181
731.004	0.0179773
731.082	0.0179575
731.160	0.0179050
731.238	0.0178897
731.317	0.0180247
731.395	0.0178930
731.473	0.0179549
731.551	0.0177505
731.629	0.0177542
731.707	0.0178181
731.785	0.0177967
731.863	0.0177094
731.942	0.0177243
732.020	0.0176059
732.098	0.0176471
732.176	0.0177975
732.254	0.0178040
732.332	0.0179142
732.410	0.0176241
732.488	0.0177966
732.567	0.0176903
732.645	0.0176730
732.723	0.0176383
732.801	0.0175885
732.879	0.0176638
732.957	0.0176865
733.035	0.0176347
733.113	0.0177665
733.192	0.0176595
733.270	0.0176855
733.348	0.0178156
733.426	0.0176943
733.504	0.0177678
733.582	0.0177907
733.660	0.0177740
733.738	0.0178895
733.817	0.0179813
733.895	0.0178405
733.973	0.0180071
734.051	0.0178836
734.129	0.0180971
734.207	0.0180750
734.285	0.0180858
734.363	0.0181116
734.442	0.0182236
734.520	0.0182502
734.598	0.0180348
734.676	0.0180967
734.754	0.0180174
734.832	0.0181512
734.910	0.0180735
734.988	0.0181570
735.067	0.0181003
735.145	0.0181647
735.223	0.0180781
735.301	0.0179671
735.379	0.0179659
735.457	0.0178983
735.535	0.0180462
735.613	0.0179135
735.692	0.0178819
735.770	0.0178413
735.848	0.0177042
735.926	0.0177242
736.004	0.0177318
736.082	0.0175822
736.160	0.0175825
736.238	0.0175304
736.317	0.0175385
736.395	0.0175098
736.473	0.0174761
736.551	0.0174421
736.629	0.0176190
736.707	0.0176002
736.785	0.0176160
736.863	0.0175750
736.942	0.0175639
737.020	0.0175615
737.098	0.0177932
737.176	0.0176495
737.254	0.0177962
737.332	0.0178367
737.410	0.0179102
737.488	0.0179462
737.567	0.0180448
737.645	0.0180412
737.723	0.0180370
737.801	0.0181429
737.879	0.0181203
737.957	0.0181676
738.035	0.0182030
738.113	0.0181271
738.192	0.0181360
738.270	0.0179988
738.348	0.0179484
738.426	0.0180556
738.504	0.0179590
738.582	0.0179453
738.660	0.0178610
738.738	0.0177760
738.817	0.0176804
738.895	0.0177896
738.973	0.0177200
739.051	0.0177969
739.129	0.0178862
739.207	0.0177765
739.285	0.0178552
739.363	0.0180025
739.442	0.0179668
739.520	0.0178197
739.598	0.0179404
739.676	0.0180228
739.754	0.0179039
739.832	0.0181317
739.910	0.0181364
739.988	0.0179067
740.067	0.0179569
740.145	0.0179423
740.223	0.0179498
740.301	0.0179131
740.379	0.0178415
740.457	0.0177821
740.535	0.0177250
740.613	0.0177900
740.692	0.0178340
740.770	0.0177366
740.848	0.0177070
740.926	0.0177157
741.004	0.0178571
741.082	0.0177643
741.160	0.0177814
741.238	0.0178111
741.317	0.0178322
741.395	0.0180446
741.473	0.0179163
741.551	0.0181267
741.629	0.0181406
741.707	0.0181203
741.785	0.0180138
741.863	0.0181913
741.942	0.0181496
742.020	0.0180952
742.098	0.0182269
742.176	0.0182336
742.254	0.0180792
742.332	0.0179735
742.410	0.0180484
742.488	0.0179446
742.567	0.0179146
742.645	0.0178442
742.723	0.0177998
742.801	0.0177007
742.879	0.0177660
742.957	0.0178002
743.035	0.0177042
743.113	0.0176138
743.192	0.0178229
743.270	0.0177926
743.348	0.0177385
743.426	0.0179225
743.504	0.0178931
743.582	0.0178717
743.660	0.0178457
743.738	0.0180238
743.817	0.0179142
743.895	0.0179923
743.973	0.0176969
744.051	0.0178953
744.129	0.0179221
744.207	0.0178856
744.285	0.0177126
744.363	0.0178239
744.442	0.0178833
744.520	0.0179729
744.598	0.0179266
744.676	0.0177471
744.754	0.0179396
744.832	0.0177629
744.910	0.0179896
744.988	0.0178587
745.067	0.0179369
745.145	0.0178919
745.223	0.0178640
745.301	0.0178186
745.379	0.0177791
745.457	0.0178022
745.535	0.0176613
745.613	0.0177949
745.692	0.0178315
745.770	0.0176785
745.848	0.0176831
745.926	0.0175683
746.004	0.0174963
746.082	0.0176369
746.160	0.0176110
746.238	0.0177414
746.317	0.0176814
746.395	0.0176289
746.473	0.0175832
746.551	0.0177348
746.629	0.0177229
746.707	0.0176918
746.785	0.0177139
746.863	0.0178539
746.942	0.0178330
747.020	0.0178905
747.098	0.0178694
747.176	0.0177259
747.254	0.0179594
747.332	0.0180868
747.410	0.0180052
747.488	0.0180149
747.567	0.0180970
747.645	0.0180753
747.723	0.0181801
747.801	0.0181483
747.879	0.0181996
747.957	0.0181667
748.035	0.0182764
748.113	0.0182096
748.192	0.0181487
748.270	0.0180672
748.348	0.0180761
748.426	0.0180910
748.504	0.0180251
748.582	0.0181153
748.660	0.0180430
748.738	0.0180905
748.817	0.0181206
748.895	0.0178507
748.973	0.0178755
749.051	0.0180813
749.129	0.0180079
749.207	0.0177671
749.285	0.0179751
749.363	0.0178673
749.442	0.0178520
749.520	0.0180296
749.598	0.0178171
749.676	0.0178671
749.754	0.0177719
749.832	0.0177689
749.910	0.0176836
749.988	0.0177099
750.067	0.0176688
750.145	0.0176777
750.223	0.0176961
750.301	0.0178064
750.379	0.0176646
750.457	0.0177346
750.535	0.0176900
750.613	0.0177631
750.692	0.0177483
750.770	0.0177251
750.848	0.0177088
750.926	0.0176623
751.004	0.0175484
751.082	0.0176815
751.160	0.0176163
751.238	0.0176237
751.317	0.0176221
751.395	0.0177737
751.473	0.0177120
751.551	0.0176754
751.629	0.0177081
751.707	0.0178093
751.785	0.0177914
751.863	0.0178027
751.942	0.0179017
752.020	0.0179900
752.098	0.0178576
752.176	0.0179060
752.254	0.0179555
752.332	0.0179191
752.410	0.0178556
752.488	0.0179015
752.567	0.0179797
752.645	0.0179743
752.723	0.0179571
752.801	0.0178159
752.879	0.0179279
752.957	0.0178974
753.035	0.0177752
753.113	0.0177407
753.192	0.0177797
753.270	0.0176689
753.348	0.0178037
753.426	0.0178197
753.504	0.0178674
753.582	0.0177308
753.660	0.0178173
753.738	0.0179554
753.817	0.0179581
753.895	0.0178917
753.973	0.0178522
754.051	0.0181023
754.129	0.0179188
754.207	0.0180319
754.285	0.0179614
754.363	0.0180318
754.442	0.0181467
754.520	0.0181499
754.598	0.0182059
754.676	0.0181545
754.754	0.0181931
754.832	0.0180168
754.910	0.0180785
754.988	0.0181127
755.067	0.0181747
755.145	0.0182198
755.223	0.0182813
755.301	0.0182658
755.379	0.0182325
755.457	0.0181437
755.535	0.0182970
755.613	0.0182948
755.692	0.0181591
755.770	0.0183510
755.848	0.0182219
755.926	0.0182454
756.004	0.0183505
756.082	0.0181728
756.160	0.0181009
756.238	0.0182043
756.317	0.0180845
756.395	0.0181533
756.473	0.0180390
756.551	0.0180477
756.629	0.0180693
756.707	0.0178279
756.785	0.0179346
756.863	0.0178676
756.942	0.0179555
757.020	0.0179214
757.098	0.0177288
757.176	0.0178130
757.254	0.0177001
757.332	0.0176157
757.410	0.0176691
757.488	0.0176315
757.567	0.0175713
757.645	0.0175704
757.723	0.0175586
757.801	0.0176360
757.879	0.0176636
757.957	0.0177128
758.035	0.0176804
758.113	0.0177428
758.192	0.0177136
758.270	0.0178500
758.348	0.0179143
758.426	0.0178691
758.504	0.0179211
758.582	0.0179485
758.660	0.0180524
758.738	0.0180070
758.817	0.0180407
758.895	0.0180482
758.973	0.0180291
759.051	0.0179782
759.129	0.0181147
759.207	0.0181049
759.285	0.0180116
759.363	0.0180020
759.442	0.0180124
759.520	0.0179340
759.598	0.0179333
759.676	0.0180216
759.754	0.0179581
759.832	0.0180366
759.910	0.0179224
759.988	0.0180860
760.067	0.0180283
760.145	0.0180328
760.223	0.0179860
760.301	0.0179309
760.379	0.0181809
760.457	0.0181991
760.535	0.0181458
760.613	0.0179878
760.692	0.0180659
760.770	0.0180832
760.848	0.0179868
760.926	0.0181009
761.004	0.0179433
761.082	0.0180278
761.160	0.0179973
761.238	0.0180348
761.317	0.0179510
761.395	0.0178835
761.473	0.0177435
761.551	0.0179607
761.629	0.0178824
761.707	0.0179395
761.785	0.0179664
761.863	0.0179424
761.942	0.0179015
762.020	0.0180437
762.098	0.0179515
762.176	0.0179105
762.254	0.0179230
762.332	0.0181025
762.410	0.0180623
762.488	0.0181414
762.567	0.0180559
762.645	0.0180809
762.723	0.0181676
762.801	0.0181123
762.879	0.0180670
762.957	0.0180135
763.035	0.0181100
763.113	0.0180537
763.192	0.0180486
763.270	0.0180457
763.348	0.0179117
763.426	0.0179378
763.504	0.0180807
763.582	0.0179092
763.660	0.0180341
763.738	0.0179791
763.817	0.0179089
763.895	0.0178217
763.973	0.0178257
764.051	0.0179916
764.129	0.0179991
764.207	0.0179541
764.285	0.0179732
764.363	0.0178912
764.442	0.0177737
764.520	0.0178083
764.598	0.0178367
764.676	0.0178814
764.754	0.0177674
764.832	0.0178863
764.910	0.0178070
764.988	0.0177280
765.067	0.0177003
765.145	0.0177628
765.223	0.0178907
765.301	0.0178515
765.379	0.0178850
765.457	0.0177738
765.535	0.0178458
765.613	0.0179294
765.692	0.0177580
765.770	0.0178008
765.848	0.0178601
765.926	0.0179581
766.004	0.0178724
766.082	0.0178708
766.160	0.0180128
766.238	0.0179248
766.317	0.0179219
766.395	0.0180431
766.473	0.0181987
766.551	0.0180761
766.629	0.0181747
766.707	0.0182742
766.785	0.0181752
766.863	0.0181265
766.942	0.0181621
767.020	0.0182748
767.098	0.0181325
767.176	0.0180318
767.254	0.0180038
767.332	0.0180198
767.410	0.0180627
767.488	0.0180849
767.567	0.0181669
767.645	0.0179697
767.723	0.0179485
767.801	0.0179681
767.879	0.0178637
767.957	0.0178630
768.035	0.0179588
768.113	0.0178197
768.192	0.0178294
768.270	0.0178274
768.348	0.0178720
768.426	0.0177807
768.504	0.0178384
768.582	0.0177398
768.660	0.0177060
768.738	0.0178202
768.817	0.0178295
768.895	0.0177777
768.973	0.0178162
769.051	0.0177951
769.129	0.0176669
769.207	0.0178453
769.285	0.0178683
769.363	0.0177841
769.442	0.0177601
769.520	0.0177711
769.598	0.0179070
769.676	0.0177165
769.754	0.0176855
769.832	0.0177715
769.910	0.0178804
769.988	0.0177657
770.067	0.0178088
770.145	0.0176701
770.223	0.0178060
770.301	0.0177947
770.379	0.0177996
770.457	0.0177747
770.535	0.0179280
770.613	0.0178400
770.692	0.0179106
770.770	0.0178403
770.848	0.0176537
770.926	0.0177952
771.004	0.0178462
771.082	0.0179510
771.160	0.0178001
771.238	0.0178350
771.317	0.0178397
771.395	0.0178791
771.473	0.0179234
771.551	0.0177844
771.629	0.0177571
771.707	0.0177172
771.785	0.0176802
771.863	0.0176626
771.942	0.0176750
772.020	0.0176060
772.098	0.0176575
772.176	0.0176704
772.254	0.0174430
772.332	0.0174274
772.410	0.0174654
772.488	0.0173954
772.567	0.0176923
772.645	0.0176806
772.723	0.0176037
772.801	0.0176800
772.879	0.0177739
772.957	0.0178333
773.035	0.0178480
773.113	0.0177841
773.192	0.0180354
773.270	0.0180399
773.348	0.0178386
773.426	0.0180292
773.504	0.0180197
773.582	0.0178496
773.660	0.0179736
773.738	0.0181409
773.817	0.0178899
773.895	0.0177868
773.973	0.0179440
774.051	0.0180096
774.129	0.0179230
774.207	0.0177921
774.285	0.0179824
774.363	0.0178581
774.442	0.0179760
774.520	0.0178738
774.598	0.0179279
774.676	0.0180202
774.754	0.0179355
774.832	0.0179073
774.910	0.0180688
774.988	0.0180891
775.067	0.0180135
775.145	0.0178989
775.223	0.0179814
775.301	0.0179579
775.379	0.0180050
775.457	0.0180762
775.535	0.0179703
775.613	0.0180376
775.692	0.0179881
775.770	0.0179359
775.848	0.0179301
775.926	0.0179514
776.004	0.0179148
776.082	0.0179625
776.160	0.0180451
776.238	0.0179207
776.317	0.0180153
776.395	0.0179652
776.473	0.0179555
776.551	0.0179987
776.629	0.0180963
776.707	0.0180142
776.785	0.0181215
776.863	0.0180299
776.942	0.0181944
777.020	0.0180228
777.098	0.0182036
777.176	0.0181679
777.254	0.0182321
777.332	0.0180905
777.410	0.0180147
777.488	0.0181146
777.567	0.0179887
777.645	0.0180324
777.723	0.0179333
777.801	0.0179700
777.879	0.0180608
777.957	0.0179618
778.035	0.0178861
778.113	0.0179475
778.192	0.0179877
778.270	0.0179160
778.348	0.0180246
778.426	0.0179756
778.504	0.0180224
778.582	0.0179675
778.660	0.0179424
778.738	0.0178535
778.817	0.0178059
778.895	0.0180029
778.973	0.0180145
779.051	0.0178814
779.129	0.0177123
779.207	0.0179753
779.285	0.0179073
779.363	0.0178379
779.442	0.0177880
779.520	0.0178675
779.598	0.0178174
779.676	0.0177592
779.754	0.0178475
779.832	0.0177171
779.910	0.0177240
779.988	0.0177921
780.067	0.0177896
780.145	0.0178043
780.223	0.0177509
780.301	0.0176669
780.379	0.0178286
780.457	0.0177507
780.535	0.0178062
780.613	0.0177890
780.692	0.0178314
780.770	0.0178387
780.848	0.0177116
780.926	0.0177560
781.004	0.0177943
781.082	0.0178484
781.160	0.0178482
781.238	0.0178716
781.317	0.0180061
781.395	0.0179427
781.473	0.0179774
781.551	0.0180516
781.629	0.0180391
781.707	0.0178203
781.785	0.0180326
781.863	0.0181169
781.942	0.0179053
782.020	0.0180730
782.098	0.0179885
782.176	0.0179362
782.254	0.0178987
782.332	0.0180080
782.410	0.0179246
782.488	0.0179354
782.567	0.0179713
782.645	0.0179375
782.723	0.0180257
782.801	0.0180026
782.879	0.0181026
782.957	0.0179865
783.035	0.0180378
783.113	0.0179267
783.192	0.0178838
783.270	0.0179280
783.348	0.0179557
783.426	0.0178568
783.504	0.0180481
783.582	0.0180715
783.660	0.0179340
783.738	0.0179366
783.817	0.0179710
783.895	0.0179432
783.973	0.0179280
784.051	0.0180182
784.129	0.0179365
784.207	0.0180885
784.285	0.0180225
784.363	0.0180434
784.442	0.0181739
784.520	0.0182243
784.598	0.0180757
784.676	0.0181590
784.754	0.0182668
784.832	0.0181657
784.910	0.0182034
784.988	0.0182885
785.067	0.0180837
785.145	0.0180506
785.223	0.0180898
785.301	0.0180711
785.379	0.0179906
785.457	0.0178934
785.535	0.0179292
785.613	0.0179044
785.692	0.0179289
785.770	0.0179053
785.848	0.0178181
785.926	0.0178106
786.004	0.0178375
786.082	0.0178448
786.160	0.0178995
786.238	0.0179838
786.317	0.0180839
786.395	0.0179404
786.473	0.0179225
786.551	0.0180653
786.629	0.0180318
786.707	0.0179696
786.785	0.0180375
786.863	0.0181506
786.942	0.0180003
787.020	0.0178623
787.098	0.0178403
787.176	0.0179819
787.254	0.0179604
787.332	0.0180702
787.410	0.0178510
787.488	0.0177541
787.567	0.0178555
787.645	0.0177379
787.723	0.0177544
787.801	0.0176522
787.879	0.0178869
787.957	0.0178473
788.035	0.0177441
788.113	0.0177193
788.192	0.0177963
788.270	0.0176021
788.348	0.0176405
788.426	0.0178592
788.504	0.0178771
788.582	0.0177492
788.660	0.0177542
788.738	0.0178621
788.817	0.0178218
788.895	0.0177212
788.973	0.0178156
789.051	0.0179531
789.129	0.0178476
789.207	0.0178591
789.285	0.0178133
789.363	0.0177305
789.442	0.0177492
789.520	0.0178760
789.598	0.0178804
789.676	0.0177687
789.754	0.0178811
789.832	0.0177802
789.910	0.0177805
789.988	0.0177338
790.067	0.0178532
790.145	0.0179413
790.223	0.0178149
790.301	0.0178307
790.379	0.0177833
790.457	0.0177263
790.535	0.0178057
790.613	0.0178746
790.692	0.0178355
790.770	0.0177000
790.848	0.0177120
790.926	0.0177578
791.004	0.0176967
791.082	0.0177724
791.160	0.0176500
791.238	0.0176702
791.317	0.0176580
791.395	0.0177366
791.473	0.0176573
791.551	0.0175264
791.629	0.0176097
791.707	0.0177029
791.785	0.0177391
791.863	0.0177600
791.942	0.0177314
792.020	0.0177206
792.098	0.0178929
792.176	0.0178225
792.254	0.0177408
792.332	0.0178096
792.410	0.0179189
792.488	0.0177943
792.567	0.0180281
792.645	0.0178674
792.723	0.0179640
792.801	0.0178925
792.879	0.0179463
792.957	0.0178045
793.035	0.0179342
793.113	0.0178383
793.192	0.0178580
793.270	0.0179608
793.348	0.0179436
793.426	0.0177448
793.504	0.0178807
793.582	0.0178690
793.660	0.0178341
793.738	0.0178331
793.817	0.0177925
793.895	0.0178643
793.973	0.0179984
794.051	0.0179366
794.129	0.0177908
794.207	0.0178585
794.285	0.0179772
794.363	0.0180688
794.442	0.0181355
794.520	0.0180285
794.598	0.0180483
794.676	0.0180187
794.754	0.0180520
794.832	0.0180531
794.910	0.0181070
794.988	0.0180485
795.067	0.0180352
795.145	0.0179561
795.223	0.0178992
795.301	0.0181528
795.379	0.0180305
795.457	0.0179594
795.535	0.0179480
795.613	0.0179222
795.692	0.0179131
795.770	0.0179819
795.848	0.0180042
795.926	0.0178743
796.004	0.0178548
796.082	0.0177923
796.160	0.0179594
796.238	0.0178436
796.317	0.0177248
796.395	0.0178118
796.473	0.0178986
796.551	0.0178999
796.629	0.0177797
796.707	0.0177142
796.785	0.0177005
796.863	0.0177757
796.942	0.0178934
797.020	0.0177385
797.098	0.0176847
797.176	0.0177017
797.254	0.0176945
797.332	0.0177772
797.410	0.0176962
797.488	0.0177080
797.567	0.0178255
797.645	0.0178128
797.723	0.0175337
797.801	0.0177454
797.879	0.0177647
797.957	0.0177932
798.035	0.0179448
798.113	0.0177620
798.192	0.0178086
798.270	0.0177478
798.348	0.0177292
798.426	0.0177704
798.504	0.0178088
798.582	0.0178400
798.660	0.0178478
798.738	0.0177733
798.817	0.0177057
798.895	0.0177951
798.973	0.0177839
799.051	0.0179707
799.129	0.0179290
799.207	0.0179042
799.285	0.0178704
799.363	0.0178883
799.442	0.0178387
799.520	0.0179760
799.598	0.0179001
799.676	0.0179381
799.754	0.0178653
799.832	0.0180205
799.910	0.0179564
799.988	0.0181042
800.067	0.0178497
800.145	0.0179801
800.223	0.0180747
800.301	0.0179599
800.379	0.0180243
800.457	0.0180410
800.535	0.0180689
800.613	0.0178938
800.692	0.0179780
800.770	0.0180159
800.848	0.0178448
800.926	0.0178980
801.004	0.0179306
801.082	0.0178577
801.160	0.0178459
801.238	0.0178265
801.317	0.0178424
801.395	0.0177661
801.473	0.0177676
801.551	0.0178625
801.629	0.0177524
801.707	0.0178619
801.785	0.0176992
801.863	0.0177482
801.942	0.0176859
802.020	0.0176663
802.098	0.0177003
802.176	0.0177420
802.254	0.0178232
802.332	0.0176976
802.410	0.0177328
802.488	0.0178652
802.567	0.0178404
802.645	0.0179274
802.723	0.0179198
802.801	0.0179066
802.879	0.0178729
802.957	0.0180890
803.035	0.0179751
803.113	0.0180203
803.192	0.0181227
803.270	0.0180473
803.348	0.0180051
803.426	0.0180689
803.504	0.0180403
803.582	0.0180419
803.660	0.0181517
803.738	0.0181469
803.817	0.0180914
803.895	0.0182370
803.973	0.0181765
804.051	0.0180655
804.129	0.0182362
804.207	0.0182147
804.285	0.0182009
804.363	0.0181336
804.442	0.0181127
804.520	0.0180825
804.598	0.0180505
804.676	0.0180179
804.754	0.0180713
804.832	0.0180443
804.910	0.0180156
804.988	0.0180726
805.067	0.0181724
805.145	0.0181374
805.223	0.0178825
805.301	0.0179341
805.379	0.0180409
805.457	0.0179044
805.535	0.0178821
805.613	0.0180104
805.692	0.0178796
805.770	0.0179234
805.848	0.0177642
805.926	0.0178829
806.004	0.0180145
806.082	0.0178656
806.160	0.0178681
806.238	0.0178402
806.317	0.0179414
806.395	0.0177946
806.473	0.0177041
806.551	0.0178516
806.629	0.0178275
806.707	0.0178479
806.785	0.0177116
806.863	0.0177141
806.942	0.0175646
807.020	0.0177314
807.098	0.0176965
807.176	0.0176017
807.254	0.0176834
807.332	0.0174931
807.410	0.0175343
807.488	0.0176925
807.567	0.0176646
807.645	0.0176321
807.723	0.0175589
807.801	0.0176179
807.879	0.0176704
807.957	0.0176444
808.035	0.0177354
808.113	0.0178413
808.192	0.0179004
808.270	0.0178638
808.348	0.0178458
808.426	0.0178070
808.504	0.0175976
808.582	0.0178432
808.660	0.0178556
808.738	0.0179118
808.817	0.0179594
808.895	0.0180247
808.973	0.0178951
809.051	0.0178030
809.129	0.0177284
809.207	0.0177756
809.285	0.0178461
809.363	0.0177308
809.442	0.0177869
809.520	0.0178261
809.598	0.0177577
809.676	0.0178114
809.754	0.0177267
809.832	0.0177272
809.910	0.0178441
809.988	0.0177847
810.067	0.0178614
810.145	0.0178950
810.223	0.0179805
810.301	0.0179411
810.379	0.0178571
810.457	0.0180012
810.535	0.0178657
810.613	0.0179161
810.692	0.0180096
810.770	0.0179631
810.848	0.0180618
810.926	0.0180650
811.004	0.0179970
811.082	0.0180459
811.160	0.0178695
811.238	0.0180167
811.317	0.0181375
811.395	0.0180138
811.473	0.0179350
811.551	0.0179922
811.629	0.0180551
811.707	0.0179160
811.785	0.0179250
811.863	0.0179248
811.942	0.0179420
812.020	0.0178899
812.098	0.0178122
812.176	0.0178114
812.254	0.0176713
812.332	0.0176217
812.410	0.0177503
812.488	0.0175277
812.567	0.0176527
812.645	0.0177367
812.723	0.0176198
812.801	0.0176827
812.879	0.0177117
812.957	0.0176173
813.035	0.0176946
813.113	0.0177545
813.192	0.0176170
813.270	0.0175577
813.348	0.0176852
813.426	0.0178564
813.504	0.0177462
813.582	0.0177394
813.660	0.0178168
813.738	0.0179071
813.817	0.0178042
813.895	0.0178499
813.973	0.0177824
814.051	0.0178822
814.129	0.0179188
814.207	0.0178050
814.285	0.0177869
814.363	0.0176884
814.442	0.0178579
814.520	0.0177361
814.598	0.0178432
814.676	0.0178683
814.754	0.0177978
814.832	0.0178806
814.910	0.0176962
814.988	0.0178188
815.067	0.0179152
815.145	0.0178642
815.223	0.0180292
815.301	0.0178484
815.379	0.0180245
815.457	0.0177960
815.535	0.0179350
815.613	0.0179562
815.692	0.0180350
815.770	0.0180654
815.848	0.0178418
815.926	0.0177915
816.004	0.0178756
816.082	0.0180305
816.160	0.0178936
816.238	0.0179449
816.317	0.0179818
816.395	0.0179229
816.473	0.0179433
816.551	0.0179311
816.629	0.0178989
816.707	0.0179203
816.785	0.0178966
816.863	0.0179743
816.942	0.0180108
817.020	0.0178522
817.098	0.0177913
817.176	0.0178349
817.254	0.0179772
817.332	0.0180578
817.410	0.0178235
817.488	0.0179358
817.567	0.0180569
817.645	0.0179742
817.723	0.0179388
817.801	0.0179813
817.879	0.0179562
817.957	0.0180751
818.035	0.0180983
818.113	0.0179531
818.192	0.0179508
818.270	0.0180186
818.348	0.0179271
818.426	0.0180253
818.504	0.0179462
818.582	0.0180354
818.660	0.0179937
818.738	0.0180355
818.817	0.0179799
818.895	0.0178815
818.973	0.0180149
819.051	0.0180264
819.129	0.0179816
819.207	0.0180161
819.285	0.0180456
819.363	0.0178991
819.442	0.0180350
819.520	0.0180407
819.598	0.0180344
819.676	0.0180343
819.754	0.0178872
819.832	0.0180124
819.910	0.0179181
819.988	0.0179294
820.067	0.0177807
820.145	0.0177875
820.223	0.0178830
820.301	0.0178451
820.379	0.0178697
820.457	0.0177647
820.535	0.0177518
820.613	0.0178088
820.692	0.0178191
820.770	0.0178238
820.848	0.0178077
820.926	0.0179796
821.004	0.0178014
821.082	0.0177593
821.160	0.0176591
821.238	0.0178313
821.317	0.0179206
821.395	0.0178381
821.473	0.0178261
821.551	0.0178620
821.629	0.0179325
821.707	0.0179304
821.785	0.0179456
821.863	0.0178946
821.942	0.0179092
822.020	0.0179402
822.098	0.0179093
822.176	0.0178647
822.254	0.0178734
822.332	0.0179634
822.410	0.0179140
822.488	0.0178376
822.567	0.0179330
822.645	0.0179014
822.723	0.0180386
822.801	0.0179591
822.879	0.0178584
822.957	0.0179820
823.035	0.0178543
823.113	0.0179333
823.192	0.0178645
823.270	0.0178673
823.348	0.0178303
823.426	0.0179215
823.504	0.0179147
823.582	0.0179204
823.660	0.0179366
823.738	0.0180164
823.817	0.0178925
823.895	0.0179874
823.973	0.0179768
824.051	0.0177994
824.129	0.0181199
824.207	0.0178722
824.285	0.0178747
824.363	0.0179060
824.442	0.0180105
824.520	0.0179917
824.598	0.0178742
824.676	0.0179597
824.754	0.0181185
824.832	0.0179928
824.910	0.0180537
824.988	0.0177763
825.067	0.0179195
825.145	0.0178393
825.223	0.0180252
825.301	0.0180609
825.379	0.0179583
825.457	0.0178882
825.535	0.0180514
825.613	0.0179944
825.692	0.0179874
825.770	0.0179864
825.848	0.0180382
825.926	0.0182644
826.004	0.0179710
826.082	0.0180280
826.160	0.0180058
826.238	0.0180556
826.317	0.0180692
826.395	0.0181566
826.473	0.0182126
826.551	0.0182884
826.629	0.0182211
826.707	0.0183112
826.785	0.0181803
826.863	0.0182695
826.942	0.0183369
827.020	0.0184588
827.098	0.0182660
827.176	0.0182504
827.254	0.0182867
827.332	0.0181101
827.410	0.0182167
827.488	0.0182536
827.567	0.0180961
827.645	0.0181039
827.723	0.0182494
827.801	0.0179127
827.879	0.0181262
827.957	0.0179175
828.035	0.0177760
828.113	0.0178931
828.192	0.0177662
828.270	0.0178039
828.348	0.0177101
828.426	0.0177430
828.504	0.0178109
828.582	0.0176776
828.660	0.0175624
828.738	0.0177868
828.817	0.0177343
828.895	0.0178063
828.973	0.0176346
829.051	0.0176737
829.129	0.0177012
829.207	0.0176979
829.285	0.0177423
829.363	0.0176750
829.442	0.0176006
829.520	0.0175547
829.598	0.0176216
829.676	0.0176884
829.754	0.0176811
829.832	0.0177458
829.910	0.0176637
829.988	0.0176620
830.067	0.0177082
830.145	0.0177390
830.223	0.0177688
830.301	0.0178458
830.379	0.0179032
830.457	0.0178383
830.535	0.0179866
830.613	0.0179623
830.692	0.0178873
830.770	0.0178444
830.848	0.0179133
830.926	0.0178310
831.004	0.0179259
831.082	0.0179961
831.160	0.0180141
831.238	0.0179369
831.317	0.0180083
831.395	0.0179765
831.473	0.0179324
831.551	0.0179813
831.629	0.0179319
831.707	0.0180182
831.785	0.0179913
831.863	0.0177802
831.942	0.0178684
832.020	0.0179440
832.098	0.0178624
832.176	0.0178507
832.254	0.0177321
832.332	0.0177068
832.410	0.0177664
832.488	0.0177413
832.567	0.0177151
832.645	0.0177651
832.723	0.0176883
832.801	0.0176376
832.879	0.0177627
832.957	0.0178159
833.035	0.0178130
833.113	0.0177736
833.192	0.0178753
833.270	0.0177277
833.348	0.0177857
833.426	0.0177551
833.504	0.0178294
833.582	0.0178159
833.660	0.0178470
833.738	0.0177951
833.817	0.0178397
833.895	0.0179607
833.973	0.0180122
834.051	0.0179891
834.129	0.0179690
834.207	0.0179475
834.285	0.0180240
834.363	0.0181165
834.442	0.0182233
834.520	0.0181265
834.598	0.0180799
834.676	0.0181155
834.754	0.0180740
834.832	0.0180688
834.910	0.0181011
834.988	0.0181430
835.067	0.0181376
835.145	0.0182758
835.223	0.0181798
835.301	0.0181844
835.379	0.0180547
835.457	0.0181313
835.535	0.0181065
835.613	0.0180186
835.692	0.0181677
835.770	0.0181071
835.848	0.0179660
835.926	0.0182095
836.004	0.0179816
836.082	0.0179783
836.160	0.0182375
836.238	0.0180770
836.317	0.0179900
836.395	0.0179621
836.473	0.0179617
836.551	0.0180218
836.629	0.0181133
836.707	0.0179755
836.785	0.0179291
836.863	0.0180131
836.942	0.0179364
837.020	0.0179516
837.098	0.0178814
837.176	0.0179349
837.254	0.0178648
837.332	0.0179651
837.410	0.0179673
837.488	0.0178486
837.567	0.0178445
837.645	0.0178881
837.723	0.0178722
837.801	0.0178138
837.879	0.0177641
837.957	0.0178440
838.035	0.0177919
838.113	0.0179928
838.192	0.0178215
838.270	0.0179010
838.348	0.0178581
838.426	0.0178273
838.504	0.0179360
838.582	0.0180608
838.660	0.0179662
838.738	0.0178808
838.817	0.0177528
838.895	0.0178159
838.973	0.0179416
839.051	0.0179290
839.129	0.0177087
839.207	0.0180154
839.285	0.0179551
839.363	0.0177130
839.442	0.0177897
839.520	0.0177697
839.598	0.0177256
839.676	0.0177824
839.754	0.0178667
839.832	0.0177900
839.910	0.0177030
839.988	0.0177888
840.067	0.0178835
840.145	0.0179027
840.223	0.0178436
840.301	0.0178104
840.379	0.0177460
840.457	0.0178821
840.535	0.0178751
840.613	0.0178170
840.692	0.0178247
840.770	0.0179328
840.848	0.0179775
840.926	0.0178144
841.004	0.0177541
841.082	0.0178680
841.160	0.0178925
841.238	0.0178902
841.317	0.0178717
841.395	0.0179200
841.473	0.0179632
841.551	0.0178944
841.629	0.0178999
841.707	0.0179779
841.785	0.0179469
841.863	0.0179336
841.942	0.0179134
842.020	0.0179910
842.098	0.0179836
842.176	0.0179217
842.254	0.0180769
842.332	0.0179668
842.410	0.0180724
842.488	0.0180022
842.567	0.0181799
842.645	0.0180033
842.723	0.0180122
842.801	0.0181464
842.879	0.0181780
842.957	0.0180431
843.035	0.0180829
843.113	0.0181088
843.192	0.0180543
843.270	0.0179106
843.348	0.0180918
843.426	0.0180275
843.504	0.0180666
843.582	0.0179479
843.660	0.0178481
843.738	0.0179829
843.817	0.0179424
843.895	0.0178671
843.973	0.0178025
844.051	0.0178001
844.129	0.0177914
844.207	0.0180228
844.285	0.0177242
844.363	0.0178691
844.442	0.0178886
844.520	0.0180036
844.598	0.0178697
844.676	0.0179401
844.754	0.0177934
844.832	0.0177920
844.910	0.0177299
844.988	0.0179027
845.067	0.0179441
845.145	0.0179759
845.223	0.0179355
845.301	0.0179857
845.379	0.0179413
845.457	0.0180045
845.535	0.0178696
845.613	0.0179764
845.692	0.0179557
845.770	0.0180649
845.848	0.0180574
845.926	0.0179933
846.004	0.0179817
846.082	0.0180062
846.160	0.0180067
846.238	0.0180494
846.317	0.0180915
846.395	0.0180836
846.473	0.0180098
846.551	0.0180518
846.629	0.0179495
846.707	0.0180387
846.785	0.0180000
846.863	0.0179076
846.942	0.0179704
847.020	0.0179601
847.098	0.0178309
847.176	0.0181123
847.254	0.0180894
847.332	0.0178023
847.410	0.0178796
847.488	0.0179082
847.567	0.0177964
847.645	0.0179657
847.723	0.0177948
847.801	0.0178461
847.879	0.0177486
847.957	0.0178455
848.035	0.0176713
848.113	0.0177211
848.192	0.0178677
848.270	0.0177114
848.348	0.0176733
848.426	0.0177193
848.504	0.0176864
848.582	0.0176923
848.660	0.0176616
848.738	0.0177001
848.817	0.0176514
848.895	0.0177423
848.973	0.0177616
849.051	0.0176307
849.129	0.0177641
849.207	0.0178507
849.285	0.0177502
849.363	0.0177837
849.442	0.0177622
849.520	0.0178822
849.598	0.0178958
849.676	0.0177612
849.754	0.0178587
849.832	0.0177734
849.910	0.0179010
849.988	0.0178761
850.067	0.0177710
850.145	0.0179407
850.223	0.0179243
850.301	0.0180065
850.379	0.0178951
850.457	0.0180065
850.535	0.0177934
850.613	0.0178254
850.692	0.0179458
850.770	0.0178104
850.848	0.0178538
850.926	0.0179984
851.004	0.0177111
851.082	0.0177679
851.160	0.0178975
851.238	0.0180379
851.317	0.0179595
851.395	0.0178314
851.473	0.0179326
851.551	0.0179242
851.629	0.0179751
851.707	0.0179105
851.785	0.0179897
851.863	0.0178838
851.942	0.0179259
852.020	0.0178655
852.098	0.0180949
852.176	0.0179293
852.254	0.0178304
852.332	0.0178683
852.410	0.0178957
852.488	0.0178976
852.567	0.0178231
852.645	0.0177500
852.723	0.0176449
852.801	0.0176983
852.879	0.0178220
852.957	0.0176722
853.035	0.0177635
853.113	0.0176934
853.192	0.0177238
853.270	0.0178149
853.348	0.0176703
853.426	0.0176010
853.504	0.0175788
853.582	0.0177319
853.660	0.0176075
853.738	0.0177057
853.817	0.0176044
853.895	0.0178139
853.973	0.0177876
854.051	0.0177869
854.129	0.0177097
854.207	0.0178162
854.285	0.0177773
854.363	0.0178030
854.442	0.0177418
854.520	0.0178777
854.598	0.0177506
854.676	0.0177470
854.754	0.0178918
854.832	0.0178274
854.910	0.0177374
854.988	0.0177948
855.067	0.0177985
855.145	0.0178600
855.223	0.0176995
855.301	0.0179616
855.379	0.0178921
855.457	0.0179447
855.535	0.0177972
855.613	0.0178455
855.692	0.0177925
855.770	0.0179897
855.848	0.0179542
855.926	0.0178769
856.004	0.0179742
856.082	0.0179549
856.160	0.0178770
856.238	0.0180063
856.317	0.0178420
856.395	0.0178716
856.473	0.0178604
856.551	0.0179268
856.629	0.0178899
856.707	0.0179899
856.785	0.0180237
856.863	0.0181322
856.942	0.0179255
857.020	0.0180505
857.098	0.0179848
857.176	0.0179456
857.254	0.0180070
857.332	0.0181638
857.410	0.0181641
857.488	0.0181001
857.567	0.0181270
857.645	0.0180427
857.723	0.0181525
857.801	0.0180790
857.879	0.0182152
857.957	0.0181770
858.035	0.0183031
858.113	0.0182475
858.192	0.0182131
858.270	0.0182085
858.348	0.0182671
858.426	0.0183920
858.504	0.0182967
858.582	0.0182149
858.660	0.0183218
858.738	0.0183836
858.817	0.0182770
858.895	0.0182089
858.973	0.0181680
859.051	0.0180393
859.129	0.0180652
859.207	0.0181467
859.285	0.0179916
859.363	0.0180709
859.442	0.0179385
859.520	0.0179837
859.598	0.0181511
859.676	0.0180796
859.754	0.0180379
859.832	0.0179372
859.910	0.0179629
859.988	0.0179018
860.067	0.0178712
860.145	0.0180148
860.223	0.0179931
860.301	0.0179956
860.379	0.0179144
860.457	0.0178825
860.535	0.0179916
860.613	0.0179723
860.692	0.0181350
860.770	0.0181379
860.848	0.0179476
860.926	0.0181308
861.004	0.0180239
861.082	0.0180671
861.160	0.0177937
861.238	0.0179484
861.317	0.0179892
861.395	0.0178428
861.473	0.0177278
861.551	0.0178193
861.629	0.0178535
861.707	0.0178214
861.785	0.0177496
861.863	0.0177700
861.942	0.0176978
862.020	0.0176758
862.098	0.0176472
862.176	0.0176518
862.254	0.0175340
862.332	0.0177237
862.410	0.0177471
862.488	0.0175091
862.567	0.0175536
862.645	0.0177013
862.723	0.0177458
862.801	0.0176344
862.879	0.0176573
862.957	0.0177143
863.035	0.0177396
863.113	0.0175488
863.192	0.0175971
863.270	0.0176571
863.348	0.0177057
863.426	0.0177455
863.504	0.0176900
863.582	0.0177493
863.660	0.0177688
863.738	0.0178465
863.817	0.0178823
863.895	0.0177085
863.973	0.0175836
864.051	0.0178126
864.129	0.0178934
864.207	0.0178664
864.285	0.0178445
864.363	0.0178767
864.442	0.0178555
864.520	0.0179135
864.598	0.0178407
864.676	0.0179446
864.754	0.0179782
864.832	0.0179323
864.910	0.0179888
864.988	0.0179504
865.067	0.0179567
865.145	0.0180334
865.223	0.0179247
865.301	0.0180171
865.379	0.0180201
865.457	0.0179127
865.535	0.0181644
865.613	0.0179809
865.692	0.0180783
865.770	0.0181233
865.848	0.0180100
865.926	0.0179442
866.004	0.0181365
866.082	0.0179718
866.160	0.0179858
866.238	0.0180626
866.317	0.0179993
866.395	0.0181259
866.473	0.0180347
866.551	0.0179768
866.629	0.0180146
866.707	0.0179237
866.785	0.0180200
866.863	0.0179925
866.942	0.0179861
867.020	0.0180347
867.098	0.0179919
867.176	0.0179344
867.254	0.0179223
867.332	0.0180827
867.410	0.0178014
867.488	0.0179329
867.567	0.0179662
867.645	0.0179924
867.723	0.0178975
867.801	0.0178484
867.879	0.0178750
867.957	0.0179243
868.035	0.0179501
868.113	0.0178525
868.192	0.0178647
868.270	0.0178655
868.348	0.0178062
868.426	0.0177939
868.504	0.0178119
868.582	0.0177610
868.660	0.0178948
868.738	0.0177679
868.817	0.0176533
868.895	0.0177917
868.973	0.0178645
869.051	0.0177764
869.129	0.0178686
869.207	0.0178199
869.285	0.0177438
869.363	0.0178548
869.442	0.0178684
869.520	0.0177925
869.598	0.0177433
869.676	0.0178905
869.754	0.0178267
869.832	0.0178982
869.910	0.0177970
869.988	0.0178127
870.067	0.0177505
870.145	0.0177797
870.223	0.0177931
870.301	0.0176566
870.379	0.0178299
870.457	0.0178172
870.535	0.0177615
870.613	0.0177959
870.692	0.0178386
870.770	0.0178772
870.848	0.0177288
870.926	0.0176726
871.004	0.0178519
871.082	0.0177342
871.160	0.0177509
871.238	0.0177036
871.317	0.0178719
871.395	0.0176440
871.473	0.0176831
871.551	0.0176166
871.629	0.0176824
871.707	0.0177131
871.785	0.0177227
871.863	0.0177377
871.942	0.0176685
872.020	0.0176675
872.098	0.0177214
872.176	0.0176940
872.254	0.0175937
872.332	0.0176155
872.410	0.0176042
872.488	0.0177496
872.567	0.0176770
872.645	0.0176322
872.723	0.0175603
872.801	0.0178265
872.879	0.0179606
872.957	0.0178613
873.035	0.0177784
873.113	0.0178722
873.192	0.0178719
873.270	0.0178370
873.348	0.0179035
873.426	0.0179116
873.504	0.0178852
873.582	0.0179533
873.660	0.0179592
873.738	0.0179487
873.817	0.0179406
873.895	0.0177268
873.973	0.0178355
874.051	0.0177761
874.129	0.0178594
874.207	0.0178833
874.285	0.0178799
874.363	0.0178603
874.442	0.0178789
874.520	0.0178773
874.598	0.0178848
874.676	0.0178928
874.754	0.0179379
874.832	0.0177573
874.910	0.0178653
874.988	0.0178671
875.067	0.0178903
875.145	0.0178681
875.223	0.0178362
875.301	0.0177827
875.379	0.0178047
875.457	0.0177217
875.535	0.0177771
875.613	0.0177762
875.692	0.0176450
875.770	0.0176129
875.848	0.0176547
875.926	0.0177596
876.004	0.0176903
876.082	0.0176151
876.160	0.0177642
876.238	0.0178438
876.317	0.0177542
876.395	0.0177666
876.473	0.0176961
876.551	0.0177596
876.629	0.0179369
876.707	0.0177992
876.785	0.0177132
876.863	0.0177279
876.942	0.0178275
877.020	0.0179186
877.098	0.0178008
877.176	0.0178237
877.254	0.0179010
877.332	0.0177842
877.410	0.0178608
877.488	0.0178790
877.567	0.0179962
877.645	0.0179342
877.723	0.0178373
877.801	0.0178124
877.879	0.0177406
877.957	0.0178905
878.035	0.0179195
878.113	0.0177088
878.192	0.0178923
878.270	0.0179310
878.348	0.0179221
878.426	0.0178194
878.504	0.0179257
878.582	0.0179940
878.660	0.0179679
878.738	0.0179921
878.817	0.0179165
878.895	0.0180401
878.973	0.0180326
879.051	0.0178886
879.129	0.0179733
879.207	0.0178395
879.285	0.0179726
879.363	0.0178753
879.442	0.0178915
879.520	0.0179762
879.598	0.0179527
879.676	0.0178376
879.754	0.0180041
879.832	0.0179642
879.910	0.0179321
879.988	0.0180143
880.067	0.0178719
880.145	0.0179076
880.223	0.0181080
880.301	0.0178856
880.379	0.0180056
880.457	0.0180621
880.535	0.0181037
880.613	0.0179798
880.692	0.0179317
880.770	0.0180899
880.848	0.0180512
880.926	0.0181421
881.004	0.0181073
881.082	0.0180718
881.160	0.0179656
881.238	0.0180935
881.317	0.0181985
881.395	0.0182467
881.473	0.0180365
881.551	0.0181516
881.629	0.0182484
881.707	0.0183206
881.785	0.0181415
881.863	0.0182816
881.942	0.0182121
882.020	0.0180506
882.098	0.0181193
882.176	0.0182485
882.254	0.0181709
882.332	0.0181280
882.410	0.0181338
882.488	0.0180320
882.567	0.0180161
882.645	0.0181375
882.723	0.0180558
882.801	0.0181412
882.879	0.0179696
882.957	0.0180686
883.035	0.0178514
883.113	0.0178926
883.192	0.0179243
883.270	0.0178666
883.348	0.0179787
883.426	0.0179665
883.504	0.0178946
883.582	0.0180006
883.660	0.0178423
883.738	0.0178220
883.817	0.0179270
883.895	0.0178214
883.973	0.0178642
884.051	0.0178779
884.129	0.0178751
884.207	0.0179511
884.285	0.0178331
884.363	0.0178576
884.442	0.0180292
884.520	0.0178548
884.598	0.0177973
884.676	0.0179285
884.754	0.0179570
884.832	0.0178155
884.910	0.0179113
884.988	0.0180749
885.067	0.0177821
885.145	0.0178989
885.223	0.0178604
885.301	0.0178886
885.379	0.0177517
885.457	0.0178931
885.535	0.0179151
885.613	0.0178459
885.692	0.0178451
885.770	0.0178634
885.848	0.0178936
885.926	0.0178322
886.004	0.0177859
886.082	0.0178771
886.160	0.0178558
886.238	0.0178728
886.317	0.0177853
886.395	0.0177626
886.473	0.0178519
886.551	0.0178942
886.629	0.0179323
886.707	0.0179647
886.785	0.0178958
886.863	0.0177947
886.942	0.0178790
887.020	0.0178725
887.098	0.0178411
887.176	0.0178837
887.254	0.0180045
887.332	0.0179507
887.410	0.0180138
887.488	0.0178619
887.567	0.0178989
887.645	0.0178756
887.723	0.0179178
887.801	0.0179443
887.879	0.0179347
887.957	0.0177959
888.035	0.0177579
888.113	0.0179561
888.192	0.0178644
888.270	0.0177512
888.348	0.0178544
888.426	0.0177626
888.504	0.0179211
888.582	0.0177736
888.660	0.0177644
888.738	0.0179345
888.817	0.0178710
888.895	0.0179035
888.973	0.0178223
889.051	0.0178510
889.129	0.0178551
889.207	0.0179431
889.285	0.0179600
889.363	0.0179175
889.442	0.0180522
889.520	0.0180042
889.598	0.0179063
889.676	0.0179826
889.754	0.0180187
889.832	0.0179764
889.910	0.0181082
889.988	0.0181144
890.067	0.0180759
890.145	0.0178854
890.223	0.0179192
890.301	0.0180302
890.379	0.0179675
890.457	0.0180731
890.535	0.0179929
890.613	0.0179699
890.692	0.0180763
890.770	0.0180513
890.848	0.0181104
890.926	0.0179075
891.004	0.0179758
891.082	0.0178496
891.160	0.0177702
891.238	0.0178424
891.317	0.0178960
891.395	0.0178271
891.473	0.0178870
891.551	0.0180264
891.629	0.0178326
891.707	0.0178513
891.785	0.0178078
891.863	0.0177892
891.942	0.0177639
892.020	0.0177412
892.098	0.0177830
892.176	0.0175478
892.254	0.0176577
892.332	0.0176178
892.410	0.0176776
892.488	0.0177235
892.567	0.0177035
892.645	0.0176427
892.723	0.0176465
892.801	0.0176473
892.879	0.0176677
892.957	0.0176810
893.035	0.0176509
893.113	0.0176122
893.192	0.0175491
893.270	0.0176690
893.348	0.0176659
893.426	0.0175522
893.504	0.0175804
893.582	0.0177118
893.660	0.0176391
893.738	0.0177656
893.817	0.0176995
893.895	0.0176510
893.973	0.0177184
894.051	0.0177785
894.129	0.0177552
894.207	0.0177689
894.285	0.0179340
894.363	0.0180199
894.442	0.0178584
894.520	0.0178136
894.598	0.0179082
894.676	0.0180573
894.754	0.0179996
894.832	0.0179483
894.910	0.0179145
894.988	0.0179691
895.067	0.0180761
895.145	0.0179694
895.223	0.0180270
895.301	0.0180596
895.379	0.0180164
895.457	0.0179918
895.535	0.0179678
895.613	0.0180225
895.692	0.0179738
895.770	0.0180888
895.848	0.0179972
895.926	0.0179543
896.004	0.0180247
896.082	0.0179974
896.160	0.0179835
896.238	0.0180167
896.317	0.0180161
896.395	0.0178949
896.473	0.0177853
896.551	0.0179098
896.629	0.0180808
896.707	0.0180585
896.785	0.0179540
896.863	0.0180521
896.942	0.0179746
897.020	0.0179416
897.098	0.0178912
897.176	0.0179746
897.254	0.0178908
897.332	0.0178637
897.410	0.0180343
897.488	0.0180077
897.567	0.0179875
897.645	0.0179623
897.723	0.0180305
897.801	0.0179266
897.879	0.0179572
897.957	0.0179896
898.035	0.0180151
898.113	0.0179184
898.192	0.0180340
898.270	0.0178143
898.348	0.0179511
898.426	0.0178680
898.504	0.0178347
898.582	0.0179573
898.660	0.0180258
898.738	0.0179209
898.817	0.0178520
898.895	0.0178922
898.973	0.0179955
899.051	0.0179529
899.129	0.0179250
899.207	0.0179354
899.285	0.0178601
899.363	0.0178330
899.442	0.0179163
899.520	0.0177316
899.598	0.0178970
899.676	0.0178754
899.754	0.0177699
899.832	0.0179974
899.910	0.0178951
899.988	0.0178876
900.067	0.0178053
900.145	0.0177668
900.223	0.0177612
900.301	0.0179057
900.379	0.0177341
900.457	0.0178764
900.535	0.0178375
900.613	0.0178755
900.692	0.0178578
900.770	0.0180140
900.848	0.0177123
900.926	0.0176981
901.004	0.0179414
901.082	0.0178175
901.160	0.0178604
901.238	0.0177810
901.317	0.0178725
901.395	0.0178423
901.473	0.0178414
901.551	0.0178839
901.629	0.0176678
901.707	0.0178008
901.785	0.0178162
901.863	0.0178417
901.942	0.0177197
902.020	0.0177914
902.098	0.0179446
902.176	0.0179028
902.254	0.0176833
902.332	0.0178990
902.410	0.0178770
902.488	0.0178465
902.567	0.0179468
902.645	0.0177612
902.723	0.0177893
902.801	0.0179613
902.879	0.0180441
902.957	0.0180489
903.035	0.0179990
903.113	0.0181523
903.192	0.0180269
903.270	0.0180132
903.348	0.0180513
903.426	0.0180886
903.504	0.0179327
903.582	0.0180879
903.660	0.0180759
903.738	0.0179984
903.817	0.0180842
903.895	0.0180003
903.973	0.0180109
904.051	0.0178368
904.129	0.0179730
904.207	0.0179369
904.285	0.0179067
904.363	0.0178199
904.442	0.0179053
904.520	0.0179408
904.598	0.0179343
904.676	0.0179636
904.754	0.0179596
904.832	0.0179379
904.910	0.0179347
904.988	0.0179990
905.067	0.0179347
905.145	0.0180151
905.223	0.0179271
905.301	0.0180233
905.379	0.0180718
905.457	0.0181406
905.535	0.0180909
905.613	0.0180272
905.692	0.0180161
905.770	0.0180227
905.848	0.0180353
905.926	0.0179108
906.004	0.0179357
906.082	0.0180471
906.160	0.0179212
906.238	0.0180457
906.317	0.0179688
906.395	0.0179257
906.473	0.0178214
906.551	0.0178694
906.629	0.0178770
906.707	0.0178290
906.785	0.0178983
906.863	0.0177908
906.942	0.0176968
907.020	0.0177449
907.098	0.0179484
907.176	0.0179308
907.254	0.0176674
907.332	0.0178489
907.410	0.0177197
907.488	0.0178965
907.567	0.0178748
907.645	0.0177821
907.723	0.0177906
907.801	0.0178286
907.879	0.0177100
907.957	0.0178819
908.035	0.0178113
908.113	0.0177713
908.192	0.0179525
908.270	0.0178571
908.348	0.0177757
908.426	0.0178259
908.504	0.0179196
908.582	0.0176929
908.660	0.0178888
908.738	0.0178951
908.817	0.0177624
908.895	0.0177655
908.973	0.0177607
909.051	0.0178720
909.129	0.0177659
909.207	0.0177412
909.285	0.0177760
909.363	0.0177535
909.442	0.0178709
909.520	0.0177503
909.598	0.0177457
909.676	0.0176936
909.754	0.0176973
909.832	0.0175809
909.910	0.0177341
909.988	0.0175898
910.067	0.0176603
910.145	0.0178486
910.223	0.0177639
910.301	0.0176808
910.379	0.0176015
910.457	0.0176437
910.535	0.0178341
910.613	0.0178457
910.692	0.0178413
910.770	0.0179280
910.848	0.0178100
910.926	0.0179023
911.004	0.0178732
911.082	0.0178966
911.160	0.0177811
911.238	0.0178984
911.317	0.0178361
911.395	0.0178781
911.473	0.0177563
911.551	0.0177819
911.629	0.0179785
911.707	0.0178600
911.785	0.0177941
911.863	0.0180086
911.942	0.0178812
912.020	0.0177914
912.098	0.0179936
912.176	0.0178352
912.254	0.0177764
912.332	0.0178336
912.410	0.0179009
912.488	0.0178185
912.567	0.0177118
912.645	0.0176647
912.723	0.0177139
912.801	0.0177374
912.879	0.0177023
912.957	0.0177425
913.035	0.0176581
913.113	0.0177293
913.192	0.0178465
913.270	0.0176439
913.348	0.0177471
913.426	0.0177374
913.504	0.0177329
913.582	0.0176453
913.660	0.0177559
913.738	0.0177245
913.817	0.0177846
913.895	0.0177238
913.973	0.0176348
914.051	0.0178158
914.129	0.0176257
914.207	0.0175923
914.285	0.0177335
914.363	0.0176340
914.442	0.0177118
914.520	0.0175869
914.598	0.0177321
914.676	0.0177478
914.754	0.0178834
914.832	0.0177110
914.910	0.0175998
914.988	0.0176715
915.067	0.0176351
915.145	0.0177526
915.223	0.0176663
915.301	0.0178059
915.379	0.0177392
915.457	0.0176373
915.535	0.0177444
915.613	0.0177379
915.692	0.0176940
915.770	0.0177733
915.848	0.0178528
915.926	0.0178807
916.004	0.0178237
916.082	0.0179594
916.160	0.0179115
916.238	0.0179319
916.317	0.0179063
916.395	0.0178489
916.473	0.0179057
916.551	0.0179711
916.629	0.0180030
916.707	0.0179623
916.785	0.0177487
916.863	0.0179526
916.942	0.0178890
917.020	0.0179273
917.098	0.0177789
917.176	0.0178203
917.254	0.0178899
917.332	0.0178381
917.410	0.0178253
917.488	0.0178545
917.567	0.0177639
917.645	0.0179224
917.723	0.0178468
917.801	0.0178145
917.879	0.0178784
917.957	0.0178810
918.035	0.0179218
918.113	0.0179002
918.192	0.0178072
918.270	0.0178532
918.348	0.0179533
918.426	0.0179041
918.504	0.0178564
918.582	0.0179736
918.660	0.0178300
918.738	0.0177423
918.817	0.0179257
918.895	0.0179002
918.973	0.0178460
919.051	0.0178269
919.129	0.0179549
919.207	0.0180064
919.285	0.0179904
919.363	0.0179174
919.442	0.0180089
919.520	0.0179516
919.598	0.0178799
919.676	0.0180507
919.754	0.0181206
919.832	0.0180334
919.910	0.0179113
