06/01/2022	22:11:14	Ver.	4.1	UNKNOWN
Optical Delay	599.988409	Delta X		0.078125	Sweeps	1	Scan Rate	0/0
Coordinates	Axis 1	NaN	Axis 2	NaN	Axis 3	NaN	Axis 4	NaN	Axis 5	NaN	Axis 6	0.000000
TX Power	0.000000	RX Power	0.000000

599.988	0.0181309
600.067	0.0180362
600.145	0.0181685
600.223	0.0182769
600.301	0.0181034
600.379	0.0181616
600.457	0.0181340
600.535	0.0180943
600.613	0.0181655
600.692	0.0181592
600.770	0.0181320
600.848	0.0181477
600.926	0.0181400
601.004	0.0182141
601.082	0.0181858
601.160	0.0181343
601.238	0.0181165
601.317	0.0180548
601.395	0.0182222
601.473	0.0181419
601.551	0.0181641
601.629	0.0181084
601.707	0.0181889
601.785	0.0181037
601.863	0.0182059
601.942	0.0180901
602.020	0.0180486
602.098	0.0181534
602.176	0.0179577
602.254	0.0180967
602.332	0.0179559
602.410	0.0181097
602.488	0.0181939
602.567	0.0179849
602.645	0.0181477
602.723	0.0180983
602.801	0.0180653
602.879	0.0180613
602.957	0.0181226
603.035	0.0180280
603.113	0.0180450
603.192	0.0181442
603.270	0.0180758
603.348	0.0180080
603.426	0.0180507
603.504	0.0180437
603.582	0.0181338
603.660	0.0180912
603.738	0.0179224
603.817	0.0180899
603.895	0.0179826
603.973	0.0180624
604.051	0.0180931
604.129	0.0180257
604.207	0.0178743
604.285	0.0178180
604.363	0.0180730
604.442	0.0179401
604.520	0.0179989
604.598	0.0180061
604.676	0.0179480
604.754	0.0180094
604.832	0.0179701
604.910	0.0179108
604.988	0.0180700
605.067	0.0180766
605.145	0.0179675
605.223	0.0178793
605.301	0.0179823
605.379	0.0180774
605.457	0.0181261
605.535	0.0178683
605.613	0.0179219
605.692	0.0179704
605.770	0.0179489
605.848	0.0180073
605.926	0.0180117
606.004	0.0180042
606.082	0.0180566
606.160	0.0178535
606.238	0.0179674
606.317	0.0178985
606.395	0.0180527
606.473	0.0179976
606.551	0.0180301
606.629	0.0181191
606.707	0.0180186
606.785	0.0178812
606.863	0.0180434
606.942	0.0181026
607.020	0.0180766
607.098	0.0180029
607.176	0.0182173
607.254	0.0179784
607.332	0.0181700
607.410	0.0181107
607.488	0.0181011
607.567	0.0180653
607.645	0.0180063
607.723	0.0181319
607.801	0.0180204
607.879	0.0181553
607.957	0.0181518
608.035	0.0181102
608.113	0.0179923
608.192	0.0179526
608.270	0.0180131
608.348	0.0180699
608.426	0.0180895
608.504	0.0181455
608.582	0.0180839
608.660	0.0180727
608.738	0.0180988
608.817	0.0181287
608.895	0.0180942
608.973	0.0181135
609.051	0.0181259
609.129	0.0182222
609.207	0.0180495
609.285	0.0181861
609.363	0.0180607
609.442	0.0181899
609.520	0.0182993
609.598	0.0182460
609.676	0.0181884
609.754	0.0183070
609.832	0.0181673
609.910	0.0181959
609.988	0.0181779
610.067	0.0182851
610.145	0.0183221
610.223	0.0182413
610.301	0.0182154
610.379	0.0183171
610.457	0.0182607
610.535	0.0181898
610.613	0.0182214
610.692	0.0183039
610.770	0.0182499
610.848	0.0183006
610.926	0.0182720
611.004	0.0181808
611.082	0.0181797
611.160	0.0180627
611.238	0.0181754
611.317	0.0182974
611.395	0.0182428
611.473	0.0182052
611.551	0.0181609
611.629	0.0182172
611.707	0.0182298
611.785	0.0182898
611.863	0.0180590
611.942	0.0181695
612.020	0.0181715
612.098	0.0182118
612.176	0.0180634
612.254	0.0181538
612.332	0.0181709
612.410	0.0180307
612.488	0.0181412
612.567	0.0180246
612.645	0.0180959
612.723	0.0180637
612.801	0.0180609
612.879	0.0181034
612.957	0.0179984
613.035	0.0181145
613.113	0.0181025
613.192	0.0181348
613.270	0.0182523
613.348	0.0181902
613.426	0.0179527
613.504	0.0181593
613.582	0.0181306
613.660	0.0179552
613.738	0.0180906
613.817	0.0179474
613.895	0.0180598
613.973	0.0180545
614.051	0.0180665
614.129	0.0180988
614.207	0.0181522
614.285	0.0181252
614.363	0.0181425
614.442	0.0181359
614.520	0.0181401
614.598	0.0181458
614.676	0.0181425
614.754	0.0181094
614.832	0.0180758
614.910	0.0180947
614.988	0.0181551
615.067	0.0181152
615.145	0.0181979
615.223	0.0181741
615.301	0.0181953
615.379	0.0180949
615.457	0.0180748
615.535	0.0181588
615.613	0.0179541
615.692	0.0181545
615.770	0.0181811
615.848	0.0181239
615.926	0.0182243
616.004	0.0182915
616.082	0.0182354
616.160	0.0181478
616.238	0.0182344
616.317	0.0183576
616.395	0.0181519
616.473	0.0181292
616.551	0.0181008
616.629	0.0180315
616.707	0.0181438
616.785	0.0181299
616.863	0.0182107
616.942	0.0181051
617.020	0.0179932
617.098	0.0181184
617.176	0.0180803
617.254	0.0182941
617.332	0.0180666
617.410	0.0181326
617.488	0.0180879
617.567	0.0182299
617.645	0.0182191
617.723	0.0181402
617.801	0.0181839
617.879	0.0183183
617.957	0.0180765
618.035	0.0180624
618.113	0.0181586
618.192	0.0181477
618.270	0.0182056
618.348	0.0181284
618.426	0.0180636
618.504	0.0182746
618.582	0.0182415
618.660	0.0183520
618.738	0.0182011
618.817	0.0181429
618.895	0.0182937
618.973	0.0181572
619.051	0.0181965
619.129	0.0181446
619.207	0.0181090
619.285	0.0182397
619.363	0.0182091
619.442	0.0181592
619.520	0.0181339
619.598	0.0181979
619.676	0.0181374
619.754	0.0181470
619.832	0.0180384
619.910	0.0182180
619.988	0.0181281
620.067	0.0182697
620.145	0.0181591
620.223	0.0180789
620.301	0.0180845
620.379	0.0180342
620.457	0.0181612
620.535	0.0179859
620.613	0.0180749
620.692	0.0179627
620.770	0.0179886
620.848	0.0180269
620.926	0.0182281
621.004	0.0181255
621.082	0.0180592
621.160	0.0182389
621.238	0.0181509
621.317	0.0181335
621.395	0.0181470
621.473	0.0181921
621.551	0.0180009
621.629	0.0180962
621.707	0.0180576
621.785	0.0181398
621.863	0.0182397
621.942	0.0181442
622.020	0.0181444
622.098	0.0182394
622.176	0.0181758
622.254	0.0179719
622.332	0.0180493
622.410	0.0180079
622.488	0.0181476
622.567	0.0181776
622.645	0.0181013
622.723	0.0180603
622.801	0.0181854
622.879	0.0181411
622.957	0.0179500
623.035	0.0180502
623.113	0.0180234
623.192	0.0181984
623.270	0.0180796
623.348	0.0182071
623.426	0.0180987
623.504	0.0180633
623.582	0.0181007
623.660	0.0181730
623.738	0.0182639
623.817	0.0181016
623.895	0.0180680
623.973	0.0180328
624.051	0.0181898
624.129	0.0181759
624.207	0.0181658
624.285	0.0181356
624.363	0.0181659
624.442	0.0180624
624.520	0.0181371
624.598	0.0180304
624.676	0.0180113
624.754	0.0180968
624.832	0.0181734
624.910	0.0181161
624.988	0.0181772
625.067	0.0182000
625.145	0.0180571
625.223	0.0180794
625.301	0.0179846
625.379	0.0181836
625.457	0.0182073
625.535	0.0182260
625.613	0.0181047
625.692	0.0180691
625.770	0.0181293
625.848	0.0180742
625.926	0.0181942
626.004	0.0180298
626.082	0.0180994
626.160	0.0180993
626.238	0.0181642
626.317	0.0182197
626.395	0.0181091
626.473	0.0181335
626.551	0.0181169
626.629	0.0181296
626.707	0.0181163
626.785	0.0182022
626.863	0.0182207
626.942	0.0180524
627.020	0.0180149
627.098	0.0180742
627.176	0.0182271
627.254	0.0181060
627.332	0.0180775
627.410	0.0180898
627.488	0.0181306
627.567	0.0181010
627.645	0.0180360
627.723	0.0180734
627.801	0.0181880
627.879	0.0182188
627.957	0.0180953
628.035	0.0182291
628.113	0.0181063
628.192	0.0181417
628.270	0.0181214
628.348	0.0181940
628.426	0.0180031
628.504	0.0181308
628.582	0.0181341
628.660	0.0181149
628.738	0.0181567
628.817	0.0181104
628.895	0.0181689
628.973	0.0180862
629.051	0.0181753
629.129	0.0181593
629.207	0.0182150
629.285	0.0180376
629.363	0.0182227
629.442	0.0182957
629.520	0.0182064
629.598	0.0181785
629.676	0.0182145
629.754	0.0181258
629.832	0.0179676
629.910	0.0181163
629.988	0.0181354
630.067	0.0181132
630.145	0.0181068
630.223	0.0181631
630.301	0.0181413
630.379	0.0180254
630.457	0.0181876
630.535	0.0181558
630.613	0.0181814
630.692	0.0181351
630.770	0.0180187
630.848	0.0181342
630.926	0.0183025
631.004	0.0183141
631.082	0.0181544
631.160	0.0182457
631.238	0.0182578
631.317	0.0181409
631.395	0.0182063
631.473	0.0181670
631.551	0.0181590
631.629	0.0182237
631.707	0.0181014
631.785	0.0181599
631.863	0.0182600
631.942	0.0181763
632.020	0.0181602
632.098	0.0182204
632.176	0.0181754
632.254	0.0182008
632.332	0.0181174
632.410	0.0182395
632.488	0.0181923
632.567	0.0182971
632.645	0.0181815
632.723	0.0181209
632.801	0.0182149
632.879	0.0183208
632.957	0.0181402
633.035	0.0182446
633.113	0.0181452
633.192	0.0181718
633.270	0.0182377
633.348	0.0182367
633.426	0.0182807
633.504	0.0182547
633.582	0.0181345
633.660	0.0181261
633.738	0.0183163
633.817	0.0181811
633.895	0.0182054
633.973	0.0182436
634.051	0.0181789
634.129	0.0183033
634.207	0.0181769
634.285	0.0182761
634.363	0.0181981
634.442	0.0180798
634.520	0.0181818
634.598	0.0181541
634.676	0.0182185
634.754	0.0180639
634.832	0.0181452
634.910	0.0180733
634.988	0.0181833
635.067	0.0182294
635.145	0.0181227
635.223	0.0181226
635.301	0.0180627
635.379	0.0181301
635.457	0.0182317
635.535	0.0182248
635.613	0.0180299
635.692	0.0179840
635.770	0.0180751
635.848	0.0181397
635.926	0.0180490
636.004	0.0180265
636.082	0.0180648
636.160	0.0179987
636.238	0.0179860
636.317	0.0181100
636.395	0.0179993
636.473	0.0181309
636.551	0.0181261
636.629	0.0179297
636.707	0.0182016
636.785	0.0181153
636.863	0.0180484
636.942	0.0181066
637.020	0.0181202
637.098	0.0181422
637.176	0.0180743
637.254	0.0180772
637.332	0.0181220
637.410	0.0181096
637.488	0.0179806
637.567	0.0181541
637.645	0.0179041
637.723	0.0182143
637.801	0.0180385
637.879	0.0181312
637.957	0.0181264
638.035	0.0179291
638.113	0.0180408
638.192	0.0180733
638.270	0.0181318
638.348	0.0180618
638.426	0.0179526
638.504	0.0179971
638.582	0.0180099
638.660	0.0180037
638.738	0.0180799
638.817	0.0179590
638.895	0.0180083
638.973	0.0180705
639.051	0.0180679
639.129	0.0181125
639.207	0.0179127
639.285	0.0178915
639.363	0.0180212
639.442	0.0180271
639.520	0.0181008
639.598	0.0180987
639.676	0.0181964
639.754	0.0181161
639.832	0.0181722
639.910	0.0180993
639.988	0.0182011
640.067	0.0180647
640.145	0.0181309
640.223	0.0180761
640.301	0.0181735
640.379	0.0180899
640.457	0.0181207
640.535	0.0180928
640.613	0.0181578
640.692	0.0180444
640.770	0.0181337
640.848	0.0180595
640.926	0.0181503
641.004	0.0180276
641.082	0.0181830
641.160	0.0180245
641.238	0.0181297
641.317	0.0180495
641.395	0.0179841
641.473	0.0178428
641.551	0.0179293
641.629	0.0180172
641.707	0.0180024
641.785	0.0179587
641.863	0.0180036
641.942	0.0179904
642.020	0.0178794
642.098	0.0179797
642.176	0.0179328
642.254	0.0179078
642.332	0.0178433
642.410	0.0179626
642.488	0.0179049
642.567	0.0180272
642.645	0.0180616
642.723	0.0180824
642.801	0.0178902
642.879	0.0180584
642.957	0.0180698
643.035	0.0180941
643.113	0.0179559
643.192	0.0181926
643.270	0.0181202
643.348	0.0180451
643.426	0.0181171
643.504	0.0181044
643.582	0.0181248
643.660	0.0180173
643.738	0.0179989
643.817	0.0181293
643.895	0.0181384
643.973	0.0181321
644.051	0.0179360
644.129	0.0179934
644.207	0.0179392
644.285	0.0179044
644.363	0.0179943
644.442	0.0180148
644.520	0.0179423
644.598	0.0178468
644.676	0.0178479
644.754	0.0178039
644.832	0.0177261
644.910	0.0178535
644.988	0.0179019
645.067	0.0178422
645.145	0.0179155
645.223	0.0178251
645.301	0.0179463
645.379	0.0180533
645.457	0.0179372
645.535	0.0178998
645.613	0.0180226
645.692	0.0180724
645.770	0.0179540
645.848	0.0180502
645.926	0.0180455
646.004	0.0180855
646.082	0.0179842
646.160	0.0179574
646.238	0.0181385
646.317	0.0181334
646.395	0.0182232
646.473	0.0180683
646.551	0.0181902
646.629	0.0182563
646.707	0.0181747
646.785	0.0181542
646.863	0.0182536
646.942	0.0183358
647.020	0.0181935
647.098	0.0181112
647.176	0.0180943
647.254	0.0182192
647.332	0.0182954
647.410	0.0183836
647.488	0.0182803
647.567	0.0182170
647.645	0.0183242
647.723	0.0182747
647.801	0.0182270
647.879	0.0181216
647.957	0.0182484
648.035	0.0183253
648.113	0.0182307
648.192	0.0181879
648.270	0.0183326
648.348	0.0181646
648.426	0.0182731
648.504	0.0181493
648.582	0.0181077
648.660	0.0181937
648.738	0.0182919
648.817	0.0181533
648.895	0.0183121
648.973	0.0182275
649.051	0.0181637
649.129	0.0182082
649.207	0.0180909
649.285	0.0180769
649.363	0.0182233
649.442	0.0181725
649.520	0.0181085
649.598	0.0182363
649.676	0.0180873
649.754	0.0182426
649.832	0.0184249
649.910	0.0181863
649.988	0.0181773
650.067	0.0181213
650.145	0.0182854
650.223	0.0182145
650.301	0.0183976
650.379	0.0181796
650.457	0.0181358
650.535	0.0183447
650.613	0.0183574
650.692	0.0182380
650.770	0.0183946
650.848	0.0182818
650.926	0.0182893
651.004	0.0182027
651.082	0.0182369
651.160	0.0183222
651.238	0.0182976
651.317	0.0183598
651.395	0.0182971
651.473	0.0182861
651.551	0.0181830
651.629	0.0182066
651.707	0.0181402
651.785	0.0181747
651.863	0.0181020
651.942	0.0181605
652.020	0.0181031
652.098	0.0180923
652.176	0.0181306
652.254	0.0181136
652.332	0.0180188
652.410	0.0179259
652.488	0.0179813
652.567	0.0179050
652.645	0.0179199
652.723	0.0180787
652.801	0.0180403
652.879	0.0180257
652.957	0.0180464
653.035	0.0180398
653.113	0.0180216
653.192	0.0181062
653.270	0.0180006
653.348	0.0180680
653.426	0.0182484
653.504	0.0182152
653.582	0.0180624
653.660	0.0181523
653.738	0.0181110
653.817	0.0181438
653.895	0.0181299
653.973	0.0180840
654.051	0.0182674
654.129	0.0182351
654.207	0.0181193
654.285	0.0182291
654.363	0.0182288
654.442	0.0182376
654.520	0.0181660
654.598	0.0182476
654.676	0.0182059
654.754	0.0182098
654.832	0.0181342
654.910	0.0180524
654.988	0.0180984
655.067	0.0180421
655.145	0.0180338
655.223	0.0180641
655.301	0.0180457
655.379	0.0182025
655.457	0.0182745
655.535	0.0181179
655.613	0.0180934
655.692	0.0180853
655.770	0.0181848
655.848	0.0181756
655.926	0.0181166
656.004	0.0182559
656.082	0.0181527
656.160	0.0181644
656.238	0.0180585
656.317	0.0181336
656.395	0.0181406
656.473	0.0179861
656.551	0.0180816
656.629	0.0181941
656.707	0.0181047
656.785	0.0182246
656.863	0.0182030
656.942	0.0180993
657.020	0.0182803
657.098	0.0181403
657.176	0.0182423
657.254	0.0181731
657.332	0.0184116
657.410	0.0183143
657.488	0.0182683
657.567	0.0182316
657.645	0.0183598
657.723	0.0183060
657.801	0.0183823
657.879	0.0181700
657.957	0.0181798
658.035	0.0183092
658.113	0.0183483
658.192	0.0183329
658.270	0.0182021
658.348	0.0183112
658.426	0.0183414
658.504	0.0181388
658.582	0.0181552
658.660	0.0181541
658.738	0.0181667
658.817	0.0182156
658.895	0.0181612
658.973	0.0181614
659.051	0.0181343
659.129	0.0180978
659.207	0.0180148
659.285	0.0180373
659.363	0.0182342
659.442	0.0181406
659.520	0.0180356
659.598	0.0181705
659.676	0.0181128
659.754	0.0180469
659.832	0.0180815
659.910	0.0181065
659.988	0.0181400
660.067	0.0180952
660.145	0.0180735
660.223	0.0181511
660.301	0.0182026
660.379	0.0180506
660.457	0.0180455
660.535	0.0180844
660.613	0.0179627
660.692	0.0181386
660.770	0.0180673
660.848	0.0181284
660.926	0.0180933
661.004	0.0181504
661.082	0.0180071
661.160	0.0180503
661.238	0.0181361
661.317	0.0180280
661.395	0.0180153
661.473	0.0180342
661.551	0.0179747
661.629	0.0179319
661.707	0.0178619
661.785	0.0178990
661.863	0.0180490
661.942	0.0178623
662.020	0.0178640
662.098	0.0179193
662.176	0.0179472
662.254	0.0177839
662.332	0.0178388
662.410	0.0178738
662.488	0.0178876
662.567	0.0178565
662.645	0.0178969
662.723	0.0181365
662.801	0.0180511
662.879	0.0178663
662.957	0.0178420
663.035	0.0179366
663.113	0.0180659
663.192	0.0179813
663.270	0.0178404
663.348	0.0179543
663.426	0.0179319
663.504	0.0178963
663.582	0.0179124
663.660	0.0179583
663.738	0.0178010
663.817	0.0178127
663.895	0.0179779
663.973	0.0178459
664.051	0.0179222
664.129	0.0180911
664.207	0.0180063
664.285	0.0179758
664.363	0.0178209
664.442	0.0179192
664.520	0.0178719
664.598	0.0177979
664.676	0.0179491
664.754	0.0179675
664.832	0.0178360
664.910	0.0178522
664.988	0.0180243
665.067	0.0179467
665.145	0.0179268
665.223	0.0180263
665.301	0.0180640
665.379	0.0179539
665.457	0.0179788
665.535	0.0180545
665.613	0.0182130
665.692	0.0180680
665.770	0.0180538
665.848	0.0180669
665.926	0.0180079
666.004	0.0180381
666.082	0.0180860
666.160	0.0180899
666.238	0.0182334
666.317	0.0180994
666.395	0.0180289
666.473	0.0179943
666.551	0.0182324
666.629	0.0181895
666.707	0.0181171
666.785	0.0180090
666.863	0.0181004
666.942	0.0180711
667.020	0.0180981
667.098	0.0181439
667.176	0.0181289
667.254	0.0181017
667.332	0.0182254
667.410	0.0181663
667.488	0.0181755
667.567	0.0182079
667.645	0.0180740
667.723	0.0181005
667.801	0.0181921
667.879	0.0182095
667.957	0.0183811
668.035	0.0181979
668.113	0.0180491
668.192	0.0183778
668.270	0.0182831
668.348	0.0181770
668.426	0.0181590
668.504	0.0181270
668.582	0.0180597
668.660	0.0180519
668.738	0.0180063
668.817	0.0180473
668.895	0.0181922
668.973	0.0180791
669.051	0.0180752
669.129	0.0180157
669.207	0.0180338
669.285	0.0180346
669.363	0.0180482
669.442	0.0180838
669.520	0.0180409
669.598	0.0181548
669.676	0.0182055
669.754	0.0180978
669.832	0.0182373
669.910	0.0180854
669.988	0.0182156
670.067	0.0182397
670.145	0.0181341
670.223	0.0181609
670.301	0.0182488
670.379	0.0181601
670.457	0.0181551
670.535	0.0182645
670.613	0.0182648
670.692	0.0182533
670.770	0.0181173
670.848	0.0181930
670.926	0.0182327
671.004	0.0181847
671.082	0.0181242
671.160	0.0181639
671.238	0.0181896
671.317	0.0180721
671.395	0.0181013
671.473	0.0180885
671.551	0.0180676
671.629	0.0181352
671.707	0.0182587
671.785	0.0181870
671.863	0.0180570
671.942	0.0180760
672.020	0.0182944
672.098	0.0183414
672.176	0.0182108
672.254	0.0182322
672.332	0.0182657
672.410	0.0180978
672.488	0.0181202
672.567	0.0181865
672.645	0.0181838
672.723	0.0182510
672.801	0.0181927
672.879	0.0180611
672.957	0.0182381
673.035	0.0181617
673.113	0.0181586
673.192	0.0181565
673.270	0.0181618
673.348	0.0181322
673.426	0.0180515
673.504	0.0180278
673.582	0.0180943
673.660	0.0181474
673.738	0.0182270
673.817	0.0182054
673.895	0.0181583
673.973	0.0180791
674.051	0.0182681
674.129	0.0181710
674.207	0.0182293
674.285	0.0182603
674.363	0.0182233
674.442	0.0182426
674.520	0.0183020
674.598	0.0183456
674.676	0.0183662
674.754	0.0183727
674.832	0.0184120
674.910	0.0184776
674.988	0.0183482
675.067	0.0183901
675.145	0.0184189
675.223	0.0183429
675.301	0.0183249
675.379	0.0183446
675.457	0.0183371
675.535	0.0183061
675.613	0.0183071
675.692	0.0181899
675.770	0.0182983
675.848	0.0182021
675.926	0.0183204
676.004	0.0182788
676.082	0.0180476
676.160	0.0180782
676.238	0.0181408
676.317	0.0181183
676.395	0.0180256
676.473	0.0181080
676.551	0.0180510
676.629	0.0180969
676.707	0.0180463
676.785	0.0182448
676.863	0.0182761
676.942	0.0180897
677.020	0.0182011
677.098	0.0182790
677.176	0.0184563
677.254	0.0184102
677.332	0.0184801
677.410	0.0184828
677.488	0.0183332
677.567	0.0185349
677.645	0.0184618
677.723	0.0184769
677.801	0.0183900
677.879	0.0182925
677.957	0.0183517
678.035	0.0183540
678.113	0.0183741
678.192	0.0181012
678.270	0.0180602
678.348	0.0180592
678.426	0.0181660
678.504	0.0180075
678.582	0.0180566
678.660	0.0179635
678.738	0.0180682
678.817	0.0179199
678.895	0.0178276
678.973	0.0178813
679.051	0.0180412
679.129	0.0180374
679.207	0.0179755
679.285	0.0180303
679.363	0.0180842
679.442	0.0181528
679.520	0.0180555
679.598	0.0180717
679.676	0.0181751
679.754	0.0180394
679.832	0.0182259
679.910	0.0182048
679.988	0.0181427
680.067	0.0180865
680.145	0.0181601
680.223	0.0182198
680.301	0.0181503
680.379	0.0182637
680.457	0.0180978
680.535	0.0181957
680.613	0.0180951
680.692	0.0180688
680.770	0.0180117
680.848	0.0177512
680.926	0.0179541
681.004	0.0179776
681.082	0.0178471
681.160	0.0179070
681.238	0.0180134
681.317	0.0179845
681.395	0.0180767
681.473	0.0178028
681.551	0.0179585
681.629	0.0179165
681.707	0.0180251
681.785	0.0180817
681.863	0.0180890
681.942	0.0180674
682.020	0.0179733
682.098	0.0181460
682.176	0.0182391
682.254	0.0181183
682.332	0.0180024
682.410	0.0181141
682.488	0.0181348
682.567	0.0181124
682.645	0.0182678
682.723	0.0183421
682.801	0.0182915
682.879	0.0184011
682.957	0.0181539
683.035	0.0182565
683.113	0.0181996
683.192	0.0182819
683.270	0.0183360
683.348	0.0181990
683.426	0.0181606
683.504	0.0180948
683.582	0.0181193
683.660	0.0180327
683.738	0.0180640
683.817	0.0179138
683.895	0.0178056
683.973	0.0177191
684.051	0.0176647
684.129	0.0176270
684.207	0.0176530
684.285	0.0175990
684.363	0.0175327
684.442	0.0175993
684.520	0.0176550
684.598	0.0174973
684.676	0.0175554
684.754	0.0177579
684.832	0.0177537
684.910	0.0178045
684.988	0.0178505
685.067	0.0178140
685.145	0.0179476
685.223	0.0179634
685.301	0.0181780
685.379	0.0181149
685.457	0.0181188
685.535	0.0182555
685.613	0.0182835
685.692	0.0183238
685.770	0.0184620
685.848	0.0184835
685.926	0.0183364
686.004	0.0184844
686.082	0.0184017
686.160	0.0184090
686.238	0.0184690
686.317	0.0184599
686.395	0.0186270
686.473	0.0184235
686.551	0.0183717
686.629	0.0185024
686.707	0.0183881
686.785	0.0182458
686.863	0.0182979
686.942	0.0182011
687.020	0.0183204
687.098	0.0182387
687.176	0.0179745
687.254	0.0179829
687.332	0.0181242
687.410	0.0179616
687.488	0.0178093
687.567	0.0178131
687.645	0.0177094
687.723	0.0176674
687.801	0.0176495
687.879	0.0176419
687.957	0.0175523
688.035	0.0176058
688.113	0.0175775
688.192	0.0175516
688.270	0.0176801
688.348	0.0175796
688.426	0.0177287
688.504	0.0178667
688.582	0.0178458
688.660	0.0179425
688.738	0.0180168
688.817	0.0181362
688.895	0.0182375
688.973	0.0183457
689.051	0.0184179
689.129	0.0186318
689.207	0.0185922
689.285	0.0185944
689.363	0.0185941
689.442	0.0187701
689.520	0.0187589
689.598	0.0188120
689.676	0.0187650
689.754	0.0187760
689.832	0.0187979
689.910	0.0186439
689.988	0.0187025
690.067	0.0186868
690.145	0.0185638
690.223	0.0185625
690.301	0.0184600
690.379	0.0183296
690.457	0.0183042
690.535	0.0180994
690.613	0.0181176
690.692	0.0180658
690.770	0.0178933
690.848	0.0178311
690.926	0.0178208
691.004	0.0177305
691.082	0.0177939
691.160	0.0175768
691.238	0.0175899
691.317	0.0176642
691.395	0.0174979
691.473	0.0175626
691.551	0.0177615
691.629	0.0175981
691.707	0.0175518
691.785	0.0177082
691.863	0.0177578
691.942	0.0179198
692.020	0.0178977
692.098	0.0180264
692.176	0.0179915
692.254	0.0181743
692.332	0.0182398
692.410	0.0181683
692.488	0.0183514
692.567	0.0184250
692.645	0.0184631
692.723	0.0185968
692.801	0.0186127
692.879	0.0186638
692.957	0.0186076
693.035	0.0186597
693.113	0.0187283
693.192	0.0186692
693.270	0.0188354
693.348	0.0188400
693.426	0.0187495
693.504	0.0187246
693.582	0.0189027
693.660	0.0190150
693.738	0.0189188
693.817	0.0187981
693.895	0.0188538
693.973	0.0187660
694.051	0.0186158
694.129	0.0184303
694.207	0.0184459
694.285	0.0184200
694.363	0.0183395
694.442	0.0181666
694.520	0.0182178
694.598	0.0179783
694.676	0.0181040
694.754	0.0178386
694.832	0.0179279
694.910	0.0179691
694.988	0.0177951
695.067	0.0178395
695.145	0.0179602
695.223	0.0177613
695.301	0.0177758
695.379	0.0180201
695.457	0.0178788
695.535	0.0179548
695.613	0.0178526
695.692	0.0179486
695.770	0.0180045
695.848	0.0179138
695.926	0.0178091
696.004	0.0178429
696.082	0.0179734
696.160	0.0178508
696.238	0.0178852
696.317	0.0180031
696.395	0.0178657
696.473	0.0176885
696.551	0.0179134
696.629	0.0179871
696.707	0.0179855
696.785	0.0179038
696.863	0.0179951
696.942	0.0179576
697.020	0.0180437
697.098	0.0181470
697.176	0.0180471
697.254	0.0181263
697.332	0.0182561
697.410	0.0181701
697.488	0.0182403
697.567	0.0184115
697.645	0.0183356
697.723	0.0183782
697.801	0.0185349
697.879	0.0184599
697.957	0.0185851
698.035	0.0185581
698.113	0.0185165
698.192	0.0185091
698.270	0.0185999
698.348	0.0186517
698.426	0.0186978
698.504	0.0185940
698.582	0.0186744
698.660	0.0187820
698.738	0.0186734
698.817	0.0186219
698.895	0.0187714
698.973	0.0187074
699.051	0.0187688
699.129	0.0188765
699.207	0.0188725
699.285	0.0188605
699.363	0.0188386
699.442	0.0187392
699.520	0.0187447
699.598	0.0185873
699.676	0.0185063
699.754	0.0184327
699.832	0.0184449
699.910	0.0183332
699.988	0.0180231
700.067	0.0178606
700.145	0.0178223
700.223	0.0176828
700.301	0.0174355
700.379	0.0172796
700.457	0.0172935
700.535	0.0171803
700.613	0.0171054
700.692	0.0170167
700.770	0.0169933
700.848	0.0170676
700.926	0.0169450
701.004	0.0170545
701.082	0.0171045
701.160	0.0171537
701.238	0.0172682
701.317	0.0173978
701.395	0.0175012
701.473	0.0174989
701.551	0.0176002
701.629	0.0178094
701.707	0.0177507
701.785	0.0179092
701.863	0.0180784
701.942	0.0181243
702.020	0.0180080
702.098	0.0182433
702.176	0.0182137
702.254	0.0182750
702.332	0.0182327
702.410	0.0183418
702.488	0.0183295
702.567	0.0185237
702.645	0.0184207
702.723	0.0185956
702.801	0.0186575
702.879	0.0186764
702.957	0.0187011
703.035	0.0188387
703.113	0.0187400
703.192	0.0188997
703.270	0.0190231
703.348	0.0189283
703.426	0.0190658
703.504	0.0188818
703.582	0.0189568
703.660	0.0190430
703.738	0.0190379
703.817	0.0190224
703.895	0.0188559
703.973	0.0187824
704.051	0.0187103
704.129	0.0187354
704.207	0.0186346
704.285	0.0184538
704.363	0.0184547
704.442	0.0183617
704.520	0.0182304
704.598	0.0180409
704.676	0.0180471
704.754	0.0178954
704.832	0.0178378
704.910	0.0176129
704.988	0.0174847
705.067	0.0174464
705.145	0.0174561
705.223	0.0173193
705.301	0.0172332
705.379	0.0171928
705.457	0.0172295
705.535	0.0170308
705.613	0.0170560
705.692	0.0168275
705.770	0.0167506
705.848	0.0169122
705.926	0.0168631
706.004	0.0169317
706.082	0.0169364
706.160	0.0169431
706.238	0.0170084
706.317	0.0172153
706.395	0.0173537
706.473	0.0173442
706.551	0.0175342
706.629	0.0177380
706.707	0.0178737
706.785	0.0179843
706.863	0.0180688
706.942	0.0182204
707.020	0.0183069
707.098	0.0182954
707.176	0.0183734
707.254	0.0186848
707.332	0.0186981
707.410	0.0186431
707.488	0.0189609
707.567	0.0188407
707.645	0.0189668
707.723	0.0190746
707.801	0.0190986
707.879	0.0191081
707.957	0.0192181
708.035	0.0192404
708.113	0.0190534
708.192	0.0191367
708.270	0.0190369
708.348	0.0190228
708.426	0.0190688
708.504	0.0189117
708.582	0.0188979
708.660	0.0188004
708.738	0.0188967
708.817	0.0188250
708.895	0.0185313
708.973	0.0184879
709.051	0.0184740
709.129	0.0183382
709.207	0.0183144
709.285	0.0179407
709.363	0.0181593
709.442	0.0179864
709.520	0.0179458
709.598	0.0179467
709.676	0.0178589
709.754	0.0177459
709.832	0.0178121
709.910	0.0179325
709.988	0.0178799
710.067	0.0180154
710.145	0.0178716
710.223	0.0179729
710.301	0.0179598
710.379	0.0179799
710.457	0.0180455
710.535	0.0179443
710.613	0.0179166
710.692	0.0178507
710.770	0.0179352
710.848	0.0178390
710.926	0.0176465
711.004	0.0176550
711.082	0.0175813
711.160	0.0176711
711.238	0.0176076
711.317	0.0175740
711.395	0.0175974
711.473	0.0176382
711.551	0.0175697
711.629	0.0174250
711.707	0.0174502
711.785	0.0176691
711.863	0.0175562
711.942	0.0175114
712.020	0.0176833
712.098	0.0176472
712.176	0.0177936
712.254	0.0179227
712.332	0.0180524
712.410	0.0178608
712.488	0.0180334
712.567	0.0179822
712.645	0.0180085
712.723	0.0180595
712.801	0.0180512
712.879	0.0180741
712.957	0.0181318
713.035	0.0180811
713.113	0.0181877
713.192	0.0182047
713.270	0.0183288
713.348	0.0182820
713.426	0.0185497
713.504	0.0187231
713.582	0.0185852
713.660	0.0185647
713.738	0.0187020
713.817	0.0186630
713.895	0.0186308
713.973	0.0187246
714.051	0.0188490
714.129	0.0190398
714.207	0.0187825
714.285	0.0189265
714.363	0.0189026
714.442	0.0189397
714.520	0.0189417
714.598	0.0189816
714.676	0.0189960
714.754	0.0187944
714.832	0.0188458
714.910	0.0187372
714.988	0.0186864
715.067	0.0186378
715.145	0.0186798
715.223	0.0186177
715.301	0.0185043
715.379	0.0183537
715.457	0.0182331
715.535	0.0182383
715.613	0.0181593
715.692	0.0180385
715.770	0.0179470
715.848	0.0178883
715.926	0.0179074
716.004	0.0178755
716.082	0.0178764
716.160	0.0179707
716.238	0.0176775
716.317	0.0178883
716.395	0.0177827
716.473	0.0177872
716.551	0.0178350
716.629	0.0177913
716.707	0.0176634
716.785	0.0176747
716.863	0.0176395
716.942	0.0176123
717.020	0.0174968
717.098	0.0174862
717.176	0.0174673
717.254	0.0173997
717.332	0.0174495
717.410	0.0175261
717.488	0.0175678
717.567	0.0176994
717.645	0.0177010
717.723	0.0175407
717.801	0.0176458
717.879	0.0178271
717.957	0.0178517
718.035	0.0178280
718.113	0.0180516
718.192	0.0181882
718.270	0.0180538
718.348	0.0180460
718.426	0.0181464
718.504	0.0181078
718.582	0.0181825
718.660	0.0181946
718.738	0.0181763
718.817	0.0181754
718.895	0.0182133
718.973	0.0182664
719.051	0.0184090
719.129	0.0184486
719.207	0.0183264
719.285	0.0183397
719.363	0.0183404
719.442	0.0183819
719.520	0.0185691
719.598	0.0183825
719.676	0.0185350
719.754	0.0185649
719.832	0.0186639
719.910	0.0187824
719.988	0.0187807
720.067	0.0188754
720.145	0.0188263
720.223	0.0188088
720.301	0.0187044
720.379	0.0187531
720.457	0.0187515
720.535	0.0186977
720.613	0.0186000
720.692	0.0184089
720.770	0.0184976
720.848	0.0183113
720.926	0.0183448
721.004	0.0181197
721.082	0.0181377
721.160	0.0181115
721.238	0.0180557
721.317	0.0180434
721.395	0.0180453
721.473	0.0179743
721.551	0.0178795
721.629	0.0180449
721.707	0.0178881
721.785	0.0177982
721.863	0.0180815
721.942	0.0178421
722.020	0.0179617
722.098	0.0178990
722.176	0.0179173
722.254	0.0178889
722.332	0.0177722
722.410	0.0178748
722.488	0.0177957
722.567	0.0177366
722.645	0.0176977
722.723	0.0175642
722.801	0.0176569
722.879	0.0177979
722.957	0.0175168
723.035	0.0175356
723.113	0.0176057
723.192	0.0175011
723.270	0.0178922
723.348	0.0176312
723.426	0.0178070
723.504	0.0178111
723.582	0.0178635
723.660	0.0179851
723.738	0.0179383
723.817	0.0180518
723.895	0.0180766
723.973	0.0180544
724.051	0.0182275
724.129	0.0182710
724.207	0.0181886
724.285	0.0182461
724.363	0.0181792
724.442	0.0184284
724.520	0.0182674
724.598	0.0184563
724.676	0.0185852
724.754	0.0185294
724.832	0.0185627
724.910	0.0186469
724.988	0.0185760
725.067	0.0186864
725.145	0.0184947
725.223	0.0186037
725.301	0.0186234
725.379	0.0185251
725.457	0.0186028
725.535	0.0186593
725.613	0.0184673
725.692	0.0186536
725.770	0.0185109
725.848	0.0185117
725.926	0.0184483
726.004	0.0183324
726.082	0.0183288
726.160	0.0183842
726.238	0.0184207
726.317	0.0183351
726.395	0.0181568
726.473	0.0181979
726.551	0.0180574
726.629	0.0179604
726.707	0.0180308
726.785	0.0179985
726.863	0.0179665
726.942	0.0179419
727.020	0.0179236
727.098	0.0178312
727.176	0.0178397
727.254	0.0179036
727.332	0.0177642
727.410	0.0177081
727.488	0.0177299
727.567	0.0177770
727.645	0.0177686
727.723	0.0177795
727.801	0.0176837
727.879	0.0177406
727.957	0.0177933
728.035	0.0177935
728.113	0.0178341
728.192	0.0177122
728.270	0.0178845
728.348	0.0179197
728.426	0.0179079
728.504	0.0178909
728.582	0.0179363
728.660	0.0180854
728.738	0.0181491
728.817	0.0181795
728.895	0.0181825
728.973	0.0181697
729.051	0.0181487
729.129	0.0181592
729.207	0.0182584
729.285	0.0181426
729.363	0.0180943
729.442	0.0180302
729.520	0.0180332
729.598	0.0179977
729.676	0.0181175
729.754	0.0181574
729.832	0.0180759
729.910	0.0180345
729.988	0.0180439
730.067	0.0180847
730.145	0.0180480
730.223	0.0179398
730.301	0.0181086
730.379	0.0180930
730.457	0.0180662
730.535	0.0180521
730.613	0.0179850
730.692	0.0180834
730.770	0.0180982
730.848	0.0180700
730.926	0.0179871
731.004	0.0180507
731.082	0.0180363
731.160	0.0181725
731.238	0.0181582
731.317	0.0181406
731.395	0.0183105
731.473	0.0182104
731.551	0.0180122
731.629	0.0180099
731.707	0.0180435
731.785	0.0180412
731.863	0.0180622
731.942	0.0179655
732.020	0.0179730
732.098	0.0179126
732.176	0.0178720
732.254	0.0179451
732.332	0.0178646
732.410	0.0177854
732.488	0.0180759
732.567	0.0180571
732.645	0.0179802
732.723	0.0180568
732.801	0.0180901
732.879	0.0179911
732.957	0.0180723
733.035	0.0181602
733.113	0.0180943
733.192	0.0180898
733.270	0.0181763
733.348	0.0181461
733.426	0.0181263
733.504	0.0180624
733.582	0.0180266
733.660	0.0181763
733.738	0.0181792
733.817	0.0181824
733.895	0.0181515
733.973	0.0182278
734.051	0.0184013
734.129	0.0181792
734.207	0.0183376
734.285	0.0184087
734.363	0.0183738
734.442	0.0184657
734.520	0.0183360
734.598	0.0184386
734.676	0.0185014
734.754	0.0185620
734.832	0.0183701
734.910	0.0183427
734.988	0.0184784
735.067	0.0184167
735.145	0.0184943
735.223	0.0184117
735.301	0.0183356
735.379	0.0182171
735.457	0.0184377
735.535	0.0183527
735.613	0.0184248
735.692	0.0182420
735.770	0.0183324
735.848	0.0183122
735.926	0.0180807
736.004	0.0181490
736.082	0.0180164
736.160	0.0180025
736.238	0.0180073
736.317	0.0178908
736.395	0.0179134
736.473	0.0177543
736.551	0.0176861
736.629	0.0178293
736.707	0.0176122
736.785	0.0175390
736.863	0.0177368
736.942	0.0177483
737.020	0.0176514
737.098	0.0177780
737.176	0.0178674
737.254	0.0179102
737.332	0.0178895
737.410	0.0179620
737.488	0.0181130
737.567	0.0180998
737.645	0.0181064
737.723	0.0180089
737.801	0.0181569
737.879	0.0182950
737.957	0.0182753
738.035	0.0184551
738.113	0.0184705
738.192	0.0181345
738.270	0.0182546
738.348	0.0182622
738.426	0.0181453
738.504	0.0182890
738.582	0.0182442
738.660	0.0182620
738.738	0.0180936
738.817	0.0181302
738.895	0.0180833
738.973	0.0180303
739.051	0.0180783
739.129	0.0181914
739.207	0.0180293
739.285	0.0180085
739.363	0.0181319
739.442	0.0180467
739.520	0.0182461
739.598	0.0181144
739.676	0.0180410
739.754	0.0182433
739.832	0.0182809
739.910	0.0181905
739.988	0.0181454
740.067	0.0182918
740.145	0.0183850
740.223	0.0181125
740.301	0.0181048
740.379	0.0180811
740.457	0.0179984
740.535	0.0181293
740.613	0.0181467
740.692	0.0179878
740.770	0.0179269
740.848	0.0178942
740.926	0.0180340
741.004	0.0179765
741.082	0.0178304
741.160	0.0179022
741.238	0.0180001
741.317	0.0180280
741.395	0.0179184
741.473	0.0181071
741.551	0.0179143
741.629	0.0180672
741.707	0.0181831
741.785	0.0181826
741.863	0.0181908
741.942	0.0182454
742.020	0.0181973
742.098	0.0181882
742.176	0.0181207
742.254	0.0181762
742.332	0.0181544
742.410	0.0179369
742.488	0.0179900
742.567	0.0181606
742.645	0.0181239
742.723	0.0180178
742.801	0.0179971
742.879	0.0180833
742.957	0.0178943
743.035	0.0180132
743.113	0.0180031
743.192	0.0179383
743.270	0.0179894
743.348	0.0180769
743.426	0.0180454
743.504	0.0179930
743.582	0.0179655
743.660	0.0179765
743.738	0.0180394
743.817	0.0180299
743.895	0.0180940
743.973	0.0181333
744.051	0.0181870
744.129	0.0180581
744.207	0.0180392
744.285	0.0181292
744.363	0.0180069
744.442	0.0180739
744.520	0.0181570
744.598	0.0181639
744.676	0.0182853
744.754	0.0181195
744.832	0.0182017
744.910	0.0181885
744.988	0.0182469
745.067	0.0182941
745.145	0.0181457
745.223	0.0183196
745.301	0.0181559
745.379	0.0181326
745.457	0.0182735
745.535	0.0182565
745.613	0.0183396
745.692	0.0182738
745.770	0.0180381
745.848	0.0180866
745.926	0.0182542
746.004	0.0181193
746.082	0.0181139
746.160	0.0180942
746.238	0.0181321
746.317	0.0180605
746.395	0.0178117
746.473	0.0180006
746.551	0.0179208
746.629	0.0179190
746.707	0.0179146
746.785	0.0180306
746.863	0.0179551
746.942	0.0180424
747.020	0.0180215
747.098	0.0181748
747.176	0.0181190
747.254	0.0181269
747.332	0.0182012
747.410	0.0181808
747.488	0.0182986
747.567	0.0183535
747.645	0.0183541
747.723	0.0182243
747.801	0.0183486
747.879	0.0182664
747.957	0.0183020
748.035	0.0182793
748.113	0.0184756
748.192	0.0183015
748.270	0.0182401
748.348	0.0183665
748.426	0.0182466
748.504	0.0181839
748.582	0.0181973
748.660	0.0182096
748.738	0.0182292
748.817	0.0182126
748.895	0.0180312
748.973	0.0180022
749.051	0.0180228
749.129	0.0180575
749.207	0.0180692
749.285	0.0181262
749.363	0.0180177
749.442	0.0180845
749.520	0.0180040
749.598	0.0180202
749.676	0.0179395
749.754	0.0178410
749.832	0.0180155
749.910	0.0180099
749.988	0.0178795
750.067	0.0179443
750.145	0.0180231
750.223	0.0180311
750.301	0.0180713
750.379	0.0181680
750.457	0.0180461
750.535	0.0180566
750.613	0.0180344
750.692	0.0180123
750.770	0.0181310
750.848	0.0181548
750.926	0.0180891
751.004	0.0182151
751.082	0.0180706
751.160	0.0181190
751.238	0.0183057
751.317	0.0181557
751.395	0.0181448
751.473	0.0181019
751.551	0.0181310
751.629	0.0181248
751.707	0.0181299
751.785	0.0182404
751.863	0.0181928
751.942	0.0181836
752.020	0.0181779
752.098	0.0183289
752.176	0.0182335
752.254	0.0182996
752.332	0.0183099
752.410	0.0182030
752.488	0.0183360
752.567	0.0182758
752.645	0.0181824
752.723	0.0185031
752.801	0.0183677
752.879	0.0181614
752.957	0.0182413
753.035	0.0182611
753.113	0.0182616
753.192	0.0182084
753.270	0.0181493
753.348	0.0181799
753.426	0.0181763
753.504	0.0182811
753.582	0.0181846
753.660	0.0183017
753.738	0.0182801
753.817	0.0182674
753.895	0.0182290
753.973	0.0182719
754.051	0.0182837
754.129	0.0182948
754.207	0.0182782
754.285	0.0182993
754.363	0.0182737
754.442	0.0182827
754.520	0.0184214
754.598	0.0183780
754.676	0.0182513
754.754	0.0183836
754.832	0.0183167
754.910	0.0182837
754.988	0.0182587
755.067	0.0183015
755.145	0.0182897
755.223	0.0182356
755.301	0.0179691
755.379	0.0180025
755.457	0.0182993
755.535	0.0183378
755.613	0.0182349
755.692	0.0182608
755.770	0.0182152
755.848	0.0182973
755.926	0.0183260
756.004	0.0183500
756.082	0.0183047
756.160	0.0183038
756.238	0.0182956
756.317	0.0182557
756.395	0.0182725
756.473	0.0182142
756.551	0.0183799
756.629	0.0182869
756.707	0.0182159
756.785	0.0180798
756.863	0.0181672
756.942	0.0181329
757.020	0.0181032
757.098	0.0180701
757.176	0.0181170
757.254	0.0180824
757.332	0.0180002
757.410	0.0179578
757.488	0.0178913
757.567	0.0178631
757.645	0.0178442
757.723	0.0177864
757.801	0.0178874
757.879	0.0177910
757.957	0.0178231
758.035	0.0178435
758.113	0.0178964
758.192	0.0177392
758.270	0.0179111
758.348	0.0178483
758.426	0.0179160
758.504	0.0180679
758.582	0.0182011
758.660	0.0180664
758.738	0.0181163
758.817	0.0181422
758.895	0.0182122
758.973	0.0181617
759.051	0.0181741
759.129	0.0181590
759.207	0.0181476
759.285	0.0182403
759.363	0.0180765
759.442	0.0182380
759.520	0.0182467
759.598	0.0182558
759.676	0.0182214
759.754	0.0181428
759.832	0.0181631
759.910	0.0180833
759.988	0.0181430
760.067	0.0181842
760.145	0.0180679
760.223	0.0180320
760.301	0.0180730
760.379	0.0182506
760.457	0.0181296
760.535	0.0181750
760.613	0.0182019
760.692	0.0182661
760.770	0.0183102
760.848	0.0183022
760.926	0.0181226
761.004	0.0183562
761.082	0.0183681
761.160	0.0183012
761.238	0.0181425
761.317	0.0181689
761.395	0.0182367
761.473	0.0181008
761.551	0.0179970
761.629	0.0181414
761.707	0.0181248
761.785	0.0181401
761.863	0.0181905
761.942	0.0181463
762.020	0.0182422
762.098	0.0181300
762.176	0.0182143
762.254	0.0182335
762.332	0.0183618
762.410	0.0183241
762.488	0.0182463
762.567	0.0183653
762.645	0.0183382
762.723	0.0184872
762.801	0.0184399
762.879	0.0183528
762.957	0.0184328
763.035	0.0185838
763.113	0.0183788
763.192	0.0182452
763.270	0.0183586
763.348	0.0184220
763.426	0.0183047
763.504	0.0182068
763.582	0.0181508
763.660	0.0183167
763.738	0.0181989
763.817	0.0180719
763.895	0.0182104
763.973	0.0182132
764.051	0.0182955
764.129	0.0180275
764.207	0.0181440
764.285	0.0180628
764.363	0.0179507
764.442	0.0179857
764.520	0.0178808
764.598	0.0178066
764.676	0.0178926
764.754	0.0179185
764.832	0.0179298
764.910	0.0178989
764.988	0.0177915
765.067	0.0179624
765.145	0.0178839
765.223	0.0178041
765.301	0.0176611
765.379	0.0177177
765.457	0.0178160
765.535	0.0178683
765.613	0.0176545
765.692	0.0177620
765.770	0.0178424
765.848	0.0179600
765.926	0.0178577
766.004	0.0179073
766.082	0.0179857
766.160	0.0179448
766.238	0.0178951
766.317	0.0180417
766.395	0.0179955
766.473	0.0179510
766.551	0.0180433
766.629	0.0181125
766.707	0.0180666
766.785	0.0182435
766.863	0.0182224
766.942	0.0180437
767.020	0.0180873
767.098	0.0181665
767.176	0.0181311
767.254	0.0180718
767.332	0.0180829
767.410	0.0179985
767.488	0.0178685
767.567	0.0180097
767.645	0.0180604
767.723	0.0179932
767.801	0.0179675
767.879	0.0179290
767.957	0.0180584
768.035	0.0179989
768.113	0.0179951
768.192	0.0180405
768.270	0.0180775
768.348	0.0180715
768.426	0.0181153
768.504	0.0179845
768.582	0.0180650
768.660	0.0181470
768.738	0.0180603
768.817	0.0182188
768.895	0.0182203
768.973	0.0182003
769.051	0.0181590
769.129	0.0183089
769.207	0.0181878
769.285	0.0181667
769.363	0.0181420
769.442	0.0182526
769.520	0.0181846
769.598	0.0181448
769.676	0.0181245
769.754	0.0182370
769.832	0.0181827
769.910	0.0181991
769.988	0.0181518
770.067	0.0180685
770.145	0.0180367
770.223	0.0181425
770.301	0.0179475
770.379	0.0180475
770.457	0.0181025
770.535	0.0181195
770.613	0.0182362
770.692	0.0181042
770.770	0.0181037
770.848	0.0183029
770.926	0.0183337
771.004	0.0182863
771.082	0.0182826
771.160	0.0182119
771.238	0.0182870
771.317	0.0182146
771.395	0.0182607
771.473	0.0183354
771.551	0.0184595
771.629	0.0182048
771.707	0.0182539
771.785	0.0183659
771.863	0.0181825
771.942	0.0180319
772.020	0.0180457
772.098	0.0180701
772.176	0.0179424
772.254	0.0179390
772.332	0.0180458
772.410	0.0180383
772.488	0.0178551
772.567	0.0180138
772.645	0.0179321
772.723	0.0178735
772.801	0.0179176
772.879	0.0180412
772.957	0.0179523
773.035	0.0180373
773.113	0.0181463
773.192	0.0181168
773.270	0.0181108
773.348	0.0181878
773.426	0.0182928
773.504	0.0181629
773.582	0.0182399
773.660	0.0182333
773.738	0.0182997
773.817	0.0182516
773.895	0.0183433
773.973	0.0185226
774.051	0.0183074
774.129	0.0182985
774.207	0.0182380
774.285	0.0183549
774.363	0.0181784
774.442	0.0183402
774.520	0.0182337
774.598	0.0181561
774.676	0.0181978
774.754	0.0182447
774.832	0.0181842
774.910	0.0181552
774.988	0.0181599
775.067	0.0179771
775.145	0.0180261
775.223	0.0182585
775.301	0.0182365
775.379	0.0181783
775.457	0.0180827
775.535	0.0181576
775.613	0.0181110
775.692	0.0181018
775.770	0.0180777
775.848	0.0181552
775.926	0.0181388
776.004	0.0181020
776.082	0.0180691
776.160	0.0181726
776.238	0.0182219
776.317	0.0180672
776.395	0.0181837
776.473	0.0181131
776.551	0.0181879
776.629	0.0182265
776.707	0.0181927
776.785	0.0182715
776.863	0.0182853
776.942	0.0183368
777.020	0.0183703
777.098	0.0181811
777.176	0.0182367
777.254	0.0182432
777.332	0.0181805
777.410	0.0183154
777.488	0.0182220
777.567	0.0182751
777.645	0.0182591
777.723	0.0182158
777.801	0.0182294
777.879	0.0183352
777.957	0.0181655
778.035	0.0181424
778.113	0.0181781
778.192	0.0182078
778.270	0.0180881
778.348	0.0182276
778.426	0.0180566
778.504	0.0180390
778.582	0.0181408
778.660	0.0181530
778.738	0.0181559
778.817	0.0180522
778.895	0.0181882
778.973	0.0180787
779.051	0.0180962
779.129	0.0180646
779.207	0.0179257
779.285	0.0179501
779.363	0.0180495
779.442	0.0178806
779.520	0.0179699
779.598	0.0179639
779.676	0.0179930
779.754	0.0179446
779.832	0.0177757
779.910	0.0179874
779.988	0.0179174
780.067	0.0179028
780.145	0.0179104
780.223	0.0179561
780.301	0.0179297
780.379	0.0179413
780.457	0.0180739
780.535	0.0179896
780.613	0.0179109
780.692	0.0180958
780.770	0.0181839
780.848	0.0181207
780.926	0.0179885
781.004	0.0181869
781.082	0.0181345
781.160	0.0180862
781.238	0.0181725
781.317	0.0182143
781.395	0.0181824
781.473	0.0182599
781.551	0.0182233
781.629	0.0183422
781.707	0.0182572
781.785	0.0182380
781.863	0.0183143
781.942	0.0183064
782.020	0.0182542
782.098	0.0183190
782.176	0.0184142
782.254	0.0182514
782.332	0.0181947
782.410	0.0181785
782.488	0.0182919
782.567	0.0181537
782.645	0.0181750
782.723	0.0181918
782.801	0.0181646
782.879	0.0183100
782.957	0.0182119
783.035	0.0181046
783.113	0.0181470
783.192	0.0182498
783.270	0.0180813
783.348	0.0182734
783.426	0.0181084
783.504	0.0180680
783.582	0.0180602
783.660	0.0180830
783.738	0.0181190
783.817	0.0180088
783.895	0.0181245
783.973	0.0179939
784.051	0.0180756
784.129	0.0180626
784.207	0.0181194
784.285	0.0180450
784.363	0.0180999
784.442	0.0182018
784.520	0.0183047
784.598	0.0182008
784.676	0.0182130
784.754	0.0182122
784.832	0.0182368
784.910	0.0182044
784.988	0.0182950
785.067	0.0182460
785.145	0.0181878
785.223	0.0182069
785.301	0.0182101
785.379	0.0179725
785.457	0.0179506
785.535	0.0179696
785.613	0.0179160
785.692	0.0178851
785.770	0.0178125
785.848	0.0177557
785.926	0.0177139
786.004	0.0179211
786.082	0.0178278
786.160	0.0178101
786.238	0.0178590
786.317	0.0178829
786.395	0.0178448
786.473	0.0180457
786.551	0.0180689
786.629	0.0179247
786.707	0.0180222
786.785	0.0180307
786.863	0.0180997
786.942	0.0179841
787.020	0.0180118
787.098	0.0180379
787.176	0.0180379
787.254	0.0182645
787.332	0.0180452
787.410	0.0178236
787.488	0.0180711
787.567	0.0178841
787.645	0.0179434
787.723	0.0178586
787.801	0.0178593
787.879	0.0178785
787.957	0.0179507
788.035	0.0178395
788.113	0.0179172
788.192	0.0179074
788.270	0.0179606
788.348	0.0178879
788.426	0.0179448
788.504	0.0180332
788.582	0.0179678
788.660	0.0179900
788.738	0.0180273
788.817	0.0180639
788.895	0.0180960
788.973	0.0181521
789.051	0.0181909
789.129	0.0182704
789.207	0.0182836
789.285	0.0181756
789.363	0.0182775
789.442	0.0180505
789.520	0.0182126
789.598	0.0182205
789.676	0.0182700
789.754	0.0180949
789.832	0.0181630
789.910	0.0181398
789.988	0.0180979
790.067	0.0181766
790.145	0.0182165
790.223	0.0184384
790.301	0.0183122
790.379	0.0182463
790.457	0.0182211
790.535	0.0183296
790.613	0.0182694
790.692	0.0182858
790.770	0.0183846
790.848	0.0183938
790.926	0.0182563
791.004	0.0181006
791.082	0.0181357
791.160	0.0181355
791.238	0.0183575
791.317	0.0181479
791.395	0.0180386
791.473	0.0182561
791.551	0.0181712
791.629	0.0181774
791.707	0.0180694
791.785	0.0181522
791.863	0.0181037
791.942	0.0182108
792.020	0.0180946
792.098	0.0181057
792.176	0.0180592
792.254	0.0179713
792.332	0.0180294
792.410	0.0179662
792.488	0.0180228
792.567	0.0182227
792.645	0.0180779
792.723	0.0180605
792.801	0.0180840
792.879	0.0181413
792.957	0.0182394
793.035	0.0180364
793.113	0.0178977
793.192	0.0180007
793.270	0.0179845
793.348	0.0179580
793.426	0.0178631
793.504	0.0179182
793.582	0.0178596
793.660	0.0177900
793.738	0.0179903
793.817	0.0179151
793.895	0.0178522
793.973	0.0178429
794.051	0.0179447
794.129	0.0179828
794.207	0.0179304
794.285	0.0179369
794.363	0.0178436
794.442	0.0180606
794.520	0.0180035
794.598	0.0180438
794.676	0.0180254
794.754	0.0180139
794.832	0.0181463
794.910	0.0180471
794.988	0.0181699
795.067	0.0182044
795.145	0.0181604
795.223	0.0180523
795.301	0.0182035
795.379	0.0181829
795.457	0.0182051
795.535	0.0182286
795.613	0.0181705
795.692	0.0182352
795.770	0.0179602
795.848	0.0181354
795.926	0.0181234
796.004	0.0180022
796.082	0.0181373
796.160	0.0180978
796.238	0.0180485
796.317	0.0180170
796.395	0.0180662
796.473	0.0181270
796.551	0.0181795
796.629	0.0180346
796.707	0.0180785
796.785	0.0180402
796.863	0.0180040
796.942	0.0181392
797.020	0.0179970
797.098	0.0179861
797.176	0.0180265
797.254	0.0178200
797.332	0.0179477
797.410	0.0180396
797.488	0.0180399
797.567	0.0179663
797.645	0.0180128
797.723	0.0180349
797.801	0.0180151
797.879	0.0179975
797.957	0.0180288
798.035	0.0179863
798.113	0.0180131
798.192	0.0181818
798.270	0.0179887
798.348	0.0181341
798.426	0.0181084
798.504	0.0181108
798.582	0.0180655
798.660	0.0179945
798.738	0.0181604
798.817	0.0181583
798.895	0.0181094
798.973	0.0183376
799.051	0.0182674
799.129	0.0182094
799.207	0.0182551
799.285	0.0181943
799.363	0.0181632
799.442	0.0181792
799.520	0.0181123
799.598	0.0181677
799.676	0.0184023
799.754	0.0183059
799.832	0.0183185
799.910	0.0182249
799.988	0.0183620
800.067	0.0183443
800.145	0.0183299
800.223	0.0183273
800.301	0.0183305
800.379	0.0182573
800.457	0.0182916
800.535	0.0184178
800.613	0.0183979
800.692	0.0182895
800.770	0.0182415
800.848	0.0183752
800.926	0.0183060
801.004	0.0183646
801.082	0.0182507
801.160	0.0181584
801.238	0.0182492
801.317	0.0182342
801.395	0.0182185
801.473	0.0180818
801.551	0.0180676
801.629	0.0179633
801.707	0.0180057
801.785	0.0180922
801.863	0.0179351
801.942	0.0181058
802.020	0.0179514
802.098	0.0181873
802.176	0.0179707
802.254	0.0180279
802.332	0.0180243
802.410	0.0179449
802.488	0.0178728
802.567	0.0181040
802.645	0.0181503
802.723	0.0180453
802.801	0.0180711
802.879	0.0181122
802.957	0.0181039
803.035	0.0181192
803.113	0.0180627
803.192	0.0180028
803.270	0.0179392
803.348	0.0179860
803.426	0.0180196
803.504	0.0180152
803.582	0.0181684
803.660	0.0181776
803.738	0.0181081
803.817	0.0182157
803.895	0.0181340
803.973	0.0181638
804.051	0.0182442
804.129	0.0181767
804.207	0.0182645
804.285	0.0181368
804.363	0.0181277
804.442	0.0181791
804.520	0.0181457
804.598	0.0180606
804.676	0.0181220
804.754	0.0181538
804.832	0.0180206
804.910	0.0180638
804.988	0.0180214
805.067	0.0179977
805.145	0.0181555
805.223	0.0179794
805.301	0.0179321
805.379	0.0179903
805.457	0.0179812
805.535	0.0178165
805.613	0.0180505
805.692	0.0179291
805.770	0.0179417
805.848	0.0179778
805.926	0.0179638
806.004	0.0180981
806.082	0.0179733
806.160	0.0180184
806.238	0.0178796
806.317	0.0178047
806.395	0.0180217
806.473	0.0179377
806.551	0.0179344
806.629	0.0178271
806.707	0.0178938
806.785	0.0180440
806.863	0.0180671
806.942	0.0178698
807.020	0.0177876
807.098	0.0179704
807.176	0.0179015
807.254	0.0179475
807.332	0.0179926
807.410	0.0180428
807.488	0.0180506
807.567	0.0180117
807.645	0.0180713
807.723	0.0180942
807.801	0.0180369
807.879	0.0180194
807.957	0.0181849
808.035	0.0180116
808.113	0.0181332
808.192	0.0181654
808.270	0.0181512
808.348	0.0181836
808.426	0.0182353
808.504	0.0181810
808.582	0.0180713
808.660	0.0179876
808.738	0.0180228
808.817	0.0180459
808.895	0.0180878
808.973	0.0181229
809.051	0.0181624
809.129	0.0181636
809.207	0.0179453
809.285	0.0179005
809.363	0.0180721
809.442	0.0181573
809.520	0.0181770
809.598	0.0181332
809.676	0.0180772
809.754	0.0180957
809.832	0.0180833
809.910	0.0183201
809.988	0.0181982
810.067	0.0181499
810.145	0.0181796
810.223	0.0182687
810.301	0.0182389
810.379	0.0182220
810.457	0.0182020
810.535	0.0182121
810.613	0.0182298
810.692	0.0182335
810.770	0.0180476
810.848	0.0181963
810.926	0.0183951
811.004	0.0181174
811.082	0.0182169
811.160	0.0182035
811.238	0.0182208
811.317	0.0181673
811.395	0.0181558
811.473	0.0182198
811.551	0.0179980
811.629	0.0181137
811.707	0.0181771
811.785	0.0181618
811.863	0.0180847
811.942	0.0180605
812.020	0.0180036
812.098	0.0180663
812.176	0.0179341
812.254	0.0180820
812.332	0.0179145
812.410	0.0179110
812.488	0.0179568
812.567	0.0177541
812.645	0.0179133
812.723	0.0179280
812.801	0.0179308
812.879	0.0179078
812.957	0.0178075
813.035	0.0179115
813.113	0.0179726
813.192	0.0179924
813.270	0.0179039
813.348	0.0179732
813.426	0.0179710
813.504	0.0180155
813.582	0.0180550
813.660	0.0179314
813.738	0.0180093
813.817	0.0179142
813.895	0.0179272
813.973	0.0180282
814.051	0.0179089
814.129	0.0179976
814.207	0.0180859
814.285	0.0180645
814.363	0.0181181
814.442	0.0179315
814.520	0.0181474
814.598	0.0181102
814.676	0.0181267
814.754	0.0181838
814.832	0.0180797
814.910	0.0180840
814.988	0.0181468
815.067	0.0181124
815.145	0.0180494
815.223	0.0181590
815.301	0.0180732
815.379	0.0181455
815.457	0.0181002
815.535	0.0183859
815.613	0.0181831
815.692	0.0181248
815.770	0.0183085
815.848	0.0180401
815.926	0.0182912
816.004	0.0182533
816.082	0.0179376
816.160	0.0181526
816.238	0.0182059
816.317	0.0182469
816.395	0.0181008
816.473	0.0182051
816.551	0.0182564
816.629	0.0181628
816.707	0.0181359
816.785	0.0181060
816.863	0.0181280
816.942	0.0180544
817.020	0.0180495
817.098	0.0183036
817.176	0.0180965
817.254	0.0180405
817.332	0.0182159
817.410	0.0179475
817.488	0.0179008
817.567	0.0181538
817.645	0.0179399
817.723	0.0178854
817.801	0.0179777
817.879	0.0181945
817.957	0.0180916
818.035	0.0180755
818.113	0.0180731
818.192	0.0181716
818.270	0.0182245
818.348	0.0182519
818.426	0.0182228
818.504	0.0182029
818.582	0.0182522
818.660	0.0181780
818.738	0.0182294
818.817	0.0180547
818.895	0.0181282
818.973	0.0181865
819.051	0.0182190
819.129	0.0183028
819.207	0.0182362
819.285	0.0181258
819.363	0.0180952
819.442	0.0181036
819.520	0.0180576
819.598	0.0181039
819.676	0.0180130
819.754	0.0179765
819.832	0.0179539
819.910	0.0180493
819.988	0.0181062
820.067	0.0180328
820.145	0.0181939
820.223	0.0180130
820.301	0.0180340
820.379	0.0181251
820.457	0.0181078
820.535	0.0182899
820.613	0.0181136
820.692	0.0182161
820.770	0.0181769
820.848	0.0181313
820.926	0.0180756
821.004	0.0181839
821.082	0.0181474
821.160	0.0181700
821.238	0.0182357
821.317	0.0181253
821.395	0.0182697
821.473	0.0182893
821.551	0.0181709
821.629	0.0181779
821.707	0.0182378
821.785	0.0182549
821.863	0.0183570
821.942	0.0182799
822.020	0.0183028
822.098	0.0183228
822.176	0.0184245
822.254	0.0183476
822.332	0.0184094
822.410	0.0183148
822.488	0.0183230
822.567	0.0182288
822.645	0.0182571
822.723	0.0183335
822.801	0.0183575
822.879	0.0184599
822.957	0.0183361
823.035	0.0181977
823.113	0.0182604
823.192	0.0181612
823.270	0.0182965
823.348	0.0183575
823.426	0.0182994
823.504	0.0182355
823.582	0.0183911
823.660	0.0183138
823.738	0.0183374
823.817	0.0183224
823.895	0.0182639
823.973	0.0182259
824.051	0.0180995
824.129	0.0182446
824.207	0.0183391
824.285	0.0182133
824.363	0.0182906
824.442	0.0183604
824.520	0.0182609
824.598	0.0181509
824.676	0.0180918
824.754	0.0179868
824.832	0.0182578
824.910	0.0181109
824.988	0.0180765
825.067	0.0180598
825.145	0.0181110
825.223	0.0181315
825.301	0.0181000
825.379	0.0179251
825.457	0.0180959
825.535	0.0180872
825.613	0.0180827
825.692	0.0180635
825.770	0.0178898
825.848	0.0178711
825.926	0.0180385
826.004	0.0179207
826.082	0.0180211
826.160	0.0181783
826.238	0.0180911
826.317	0.0178955
826.395	0.0180620
826.473	0.0180850
826.551	0.0180099
826.629	0.0181873
826.707	0.0181379
826.785	0.0180766
826.863	0.0180958
826.942	0.0182449
827.020	0.0182446
827.098	0.0182384
827.176	0.0181214
827.254	0.0181958
827.332	0.0181139
827.410	0.0181078
827.488	0.0181394
827.567	0.0181723
827.645	0.0181364
827.723	0.0181284
827.801	0.0181804
827.879	0.0181452
827.957	0.0180428
828.035	0.0179556
828.113	0.0179619
828.192	0.0179588
828.270	0.0180585
828.348	0.0180834
828.426	0.0179303
828.504	0.0179958
828.582	0.0179547
828.660	0.0179112
828.738	0.0180144
828.817	0.0179272
828.895	0.0178053
828.973	0.0179099
829.051	0.0180644
829.129	0.0178473
829.207	0.0180645
829.285	0.0179691
829.363	0.0180711
829.442	0.0180476
829.520	0.0179860
829.598	0.0178934
829.676	0.0179847
829.754	0.0181018
829.832	0.0180384
829.910	0.0179504
829.988	0.0179906
830.067	0.0180774
830.145	0.0182423
830.223	0.0180244
830.301	0.0181111
830.379	0.0180604
830.457	0.0180469
830.535	0.0182360
830.613	0.0182463
830.692	0.0181876
830.770	0.0182845
830.848	0.0181931
830.926	0.0181713
831.004	0.0182547
831.082	0.0181909
831.160	0.0182750
831.238	0.0182729
831.317	0.0182151
831.395	0.0182320
831.473	0.0182800
831.551	0.0183937
831.629	0.0182741
831.707	0.0182801
831.785	0.0181981
831.863	0.0182098
831.942	0.0181468
832.020	0.0182113
832.098	0.0181425
832.176	0.0181558
832.254	0.0180962
832.332	0.0181133
832.410	0.0181512
832.488	0.0180413
832.567	0.0180447
832.645	0.0181342
832.723	0.0180488
832.801	0.0182207
832.879	0.0180622
832.957	0.0180678
833.035	0.0179436
833.113	0.0180340
833.192	0.0180640
833.270	0.0180868
833.348	0.0181184
833.426	0.0181742
833.504	0.0181971
833.582	0.0181057
833.660	0.0182308
833.738	0.0182079
833.817	0.0182487
833.895	0.0180904
833.973	0.0181490
834.051	0.0182040
834.129	0.0181894
834.207	0.0182473
834.285	0.0180992
834.363	0.0182510
834.442	0.0181995
834.520	0.0181818
834.598	0.0182345
834.676	0.0183856
834.754	0.0182404
834.832	0.0181703
834.910	0.0182583
834.988	0.0182730
835.067	0.0181374
835.145	0.0180282
835.223	0.0183216
835.301	0.0182043
835.379	0.0181321
835.457	0.0182145
835.535	0.0181403
835.613	0.0181348
835.692	0.0181490
835.770	0.0181211
835.848	0.0181082
835.926	0.0180428
836.004	0.0181190
836.082	0.0180067
836.160	0.0181018
836.238	0.0179787
836.317	0.0181065
836.395	0.0181656
836.473	0.0180025
836.551	0.0178987
836.629	0.0180150
836.707	0.0179781
836.785	0.0180634
836.863	0.0180299
836.942	0.0179771
837.020	0.0179495
837.098	0.0179612
837.176	0.0180419
837.254	0.0179455
837.332	0.0179391
837.410	0.0180402
837.488	0.0179433
837.567	0.0178673
837.645	0.0178455
837.723	0.0179425
837.801	0.0179601
837.879	0.0178849
837.957	0.0181738
838.035	0.0180117
838.113	0.0179702
838.192	0.0180704
838.270	0.0181113
838.348	0.0179848
838.426	0.0179856
838.504	0.0180101
838.582	0.0181249
838.660	0.0180592
838.738	0.0181317
838.817	0.0181081
838.895	0.0180087
838.973	0.0181313
839.051	0.0181261
839.129	0.0181554
839.207	0.0179957
839.285	0.0180135
839.363	0.0181291
839.442	0.0182890
839.520	0.0180572
839.598	0.0182293
839.676	0.0182584
839.754	0.0182025
839.832	0.0181012
839.910	0.0181116
839.988	0.0181474
840.067	0.0182472
840.145	0.0181973
840.223	0.0182208
840.301	0.0181447
840.379	0.0181577
840.457	0.0182558
840.535	0.0181570
840.613	0.0181183
840.692	0.0181459
840.770	0.0181761
840.848	0.0181593
840.926	0.0180843
841.004	0.0180265
841.082	0.0180192
841.160	0.0181390
841.238	0.0181311
841.317	0.0182603
841.395	0.0181779
841.473	0.0179861
841.551	0.0181377
841.629	0.0180653
841.707	0.0180965
841.785	0.0182396
841.863	0.0183085
841.942	0.0183484
842.020	0.0182264
842.098	0.0182553
842.176	0.0182082
842.254	0.0182863
842.332	0.0182083
842.410	0.0182246
842.488	0.0183270
842.567	0.0183230
842.645	0.0183427
842.723	0.0183218
842.801	0.0182381
842.879	0.0182919
842.957	0.0181940
843.035	0.0183794
843.113	0.0181815
843.192	0.0181803
843.270	0.0182288
843.348	0.0181757
843.426	0.0182961
843.504	0.0180424
843.582	0.0181721
843.660	0.0181964
843.738	0.0180730
843.817	0.0181586
843.895	0.0180797
843.973	0.0181153
844.051	0.0179745
844.129	0.0181134
844.207	0.0180496
844.285	0.0180495
844.363	0.0180483
844.442	0.0180565
844.520	0.0179802
844.598	0.0180373
844.676	0.0178786
844.754	0.0180432
844.832	0.0179292
844.910	0.0180199
844.988	0.0179422
845.067	0.0180254
845.145	0.0181065
845.223	0.0181036
845.301	0.0179556
845.379	0.0179433
845.457	0.0180978
845.535	0.0180163
845.613	0.0179752
845.692	0.0179369
845.770	0.0180627
845.848	0.0180696
845.926	0.0181514
846.004	0.0180692
846.082	0.0181753
846.160	0.0180236
846.238	0.0180535
846.317	0.0180904
846.395	0.0181011
846.473	0.0181897
846.551	0.0181335
846.629	0.0180334
846.707	0.0180528
846.785	0.0181631
846.863	0.0181569
846.942	0.0180999
847.020	0.0181420
847.098	0.0181367
847.176	0.0180681
847.254	0.0180423
847.332	0.0181076
847.410	0.0181633
847.488	0.0180476
847.567	0.0179042
847.645	0.0179528
847.723	0.0180579
847.801	0.0181461
847.879	0.0180450
847.957	0.0180099
848.035	0.0180022
848.113	0.0180677
848.192	0.0182446
848.270	0.0180196
848.348	0.0180499
848.426	0.0180166
848.504	0.0180326
848.582	0.0180544
848.660	0.0181893
848.738	0.0181025
848.817	0.0181149
848.895	0.0181482
848.973	0.0181560
849.051	0.0180189
849.129	0.0180276
849.207	0.0181712
849.285	0.0181168
849.363	0.0180331
849.442	0.0181355
849.520	0.0180875
849.598	0.0181476
849.676	0.0180152
849.754	0.0180161
849.832	0.0181169
849.910	0.0180508
849.988	0.0180538
850.067	0.0181683
850.145	0.0181360
850.223	0.0180479
850.301	0.0181953
850.379	0.0180972
850.457	0.0181756
850.535	0.0181282
850.613	0.0181813
850.692	0.0182582
850.770	0.0182377
850.848	0.0181403
850.926	0.0182542
851.004	0.0183624
851.082	0.0182346
851.160	0.0181725
851.238	0.0182658
851.317	0.0182297
851.395	0.0182650
851.473	0.0181754
851.551	0.0183374
851.629	0.0182053
851.707	0.0182642
851.785	0.0182658
851.863	0.0183223
851.942	0.0183098
852.020	0.0183305
852.098	0.0181877
852.176	0.0180664
852.254	0.0182040
852.332	0.0182329
852.410	0.0181602
852.488	0.0180778
852.567	0.0181798
852.645	0.0180566
852.723	0.0181760
852.801	0.0180310
852.879	0.0180817
852.957	0.0181595
853.035	0.0181155
853.113	0.0179808
853.192	0.0180954
853.270	0.0180477
853.348	0.0182124
853.426	0.0181290
853.504	0.0180938
853.582	0.0180647
853.660	0.0181582
853.738	0.0181198
853.817	0.0180412
853.895	0.0181441
853.973	0.0182135
854.051	0.0182050
854.129	0.0182836
854.207	0.0182388
854.285	0.0181394
854.363	0.0183315
854.442	0.0183140
854.520	0.0181113
854.598	0.0181342
854.676	0.0182079
854.754	0.0183166
854.832	0.0182364
854.910	0.0183366
854.988	0.0182787
855.067	0.0183389
855.145	0.0182561
855.223	0.0183127
855.301	0.0183942
855.379	0.0181928
855.457	0.0181144
855.535	0.0182268
855.613	0.0182881
855.692	0.0181015
855.770	0.0181174
855.848	0.0181794
855.926	0.0182114
856.004	0.0182362
856.082	0.0183087
856.160	0.0182025
856.238	0.0181209
856.317	0.0181632
856.395	0.0181618
856.473	0.0180921
856.551	0.0180981
856.629	0.0183067
856.707	0.0181725
856.785	0.0182994
856.863	0.0182952
856.942	0.0182816
857.020	0.0183047
857.098	0.0183829
857.176	0.0183936
857.254	0.0182880
857.332	0.0183905
857.410	0.0184817
857.488	0.0183131
857.567	0.0183068
857.645	0.0184319
857.723	0.0184737
857.801	0.0184597
857.879	0.0183591
857.957	0.0183834
858.035	0.0182757
858.113	0.0184825
858.192	0.0184438
858.270	0.0183125
858.348	0.0182800
858.426	0.0183208
858.504	0.0181632
858.582	0.0181651
858.660	0.0180822
858.738	0.0181054
858.817	0.0179766
858.895	0.0178667
858.973	0.0178843
859.051	0.0179164
859.129	0.0178616
859.207	0.0178598
859.285	0.0177888
859.363	0.0179292
859.442	0.0177445
859.520	0.0178440
859.598	0.0177593
859.676	0.0177510
859.754	0.0177819
859.832	0.0177809
859.910	0.0178786
859.988	0.0177683
860.067	0.0178039
860.145	0.0177515
860.223	0.0178017
860.301	0.0178808
860.379	0.0178791
860.457	0.0177936
860.535	0.0177638
860.613	0.0179231
860.692	0.0180374
860.770	0.0179572
860.848	0.0179637
860.926	0.0178486
861.004	0.0179251
861.082	0.0181309
861.160	0.0180961
861.238	0.0181272
861.317	0.0180915
861.395	0.0179655
861.473	0.0181371
861.551	0.0180781
861.629	0.0182188
861.707	0.0181073
861.785	0.0180116
861.863	0.0181128
861.942	0.0180936
862.020	0.0180263
862.098	0.0181148
862.176	0.0181419
862.254	0.0181770
862.332	0.0181647
862.410	0.0182257
862.488	0.0179930
862.567	0.0182024
862.645	0.0182010
862.723	0.0182600
862.801	0.0180562
862.879	0.0180765
862.957	0.0182590
863.035	0.0180914
863.113	0.0181225
863.192	0.0180942
863.270	0.0180819
863.348	0.0181240
863.426	0.0180150
863.504	0.0181231
863.582	0.0180739
863.660	0.0180813
863.738	0.0180563
863.817	0.0180067
863.895	0.0182516
863.973	0.0181503
864.051	0.0180212
864.129	0.0181053
864.207	0.0181476
864.285	0.0181984
864.363	0.0182158
864.442	0.0181815
864.520	0.0181650
864.598	0.0181351
864.676	0.0181499
864.754	0.0183402
864.832	0.0183110
864.910	0.0182510
864.988	0.0182199
865.067	0.0183316
865.145	0.0183456
865.223	0.0182473
865.301	0.0182880
865.379	0.0182981
865.457	0.0182185
865.535	0.0183750
865.613	0.0181966
865.692	0.0182363
865.770	0.0183775
865.848	0.0182190
865.926	0.0182912
866.004	0.0182808
866.082	0.0183485
866.160	0.0182414
866.238	0.0182713
866.317	0.0181618
866.395	0.0181567
866.473	0.0183266
866.551	0.0182861
866.629	0.0182796
866.707	0.0181962
866.785	0.0181428
866.863	0.0182644
866.942	0.0182322
867.020	0.0181223
867.098	0.0181741
867.176	0.0181871
867.254	0.0181800
867.332	0.0181269
867.410	0.0182024
867.488	0.0180738
867.567	0.0181001
867.645	0.0180159
867.723	0.0180315
867.801	0.0180139
867.879	0.0178316
867.957	0.0180138
868.035	0.0180344
868.113	0.0177981
868.192	0.0179908
868.270	0.0178448
868.348	0.0179057
868.426	0.0178286
868.504	0.0178309
868.582	0.0178732
868.660	0.0179806
868.738	0.0179466
868.817	0.0178527
868.895	0.0179263
868.973	0.0177621
869.051	0.0177988
869.129	0.0178896
869.207	0.0178999
869.285	0.0178529
869.363	0.0179227
869.442	0.0178838
869.520	0.0178517
869.598	0.0178524
869.676	0.0179175
869.754	0.0179642
869.832	0.0179288
869.910	0.0178330
869.988	0.0178817
870.067	0.0180334
870.145	0.0179202
870.223	0.0179707
870.301	0.0179462
870.379	0.0180512
870.457	0.0179006
870.535	0.0179176
870.613	0.0180212
870.692	0.0180262
870.770	0.0180479
870.848	0.0180544
870.926	0.0179566
871.004	0.0180215
871.082	0.0181773
871.160	0.0180449
871.238	0.0180466
871.317	0.0180843
871.395	0.0178713
871.473	0.0181285
871.551	0.0179319
871.629	0.0179607
871.707	0.0180869
871.785	0.0180690
871.863	0.0180937
871.942	0.0180375
872.020	0.0180094
872.098	0.0180062
872.176	0.0179242
872.254	0.0180290
872.332	0.0180207
872.410	0.0179926
872.488	0.0180375
872.567	0.0181224
872.645	0.0180870
872.723	0.0181852
872.801	0.0181791
872.879	0.0181286
872.957	0.0181673
873.035	0.0180647
873.113	0.0181959
873.192	0.0181517
873.270	0.0181886
873.348	0.0182486
873.426	0.0182842
873.504	0.0181225
873.582	0.0181265
873.660	0.0181126
873.738	0.0182082
873.817	0.0182745
873.895	0.0182056
873.973	0.0181576
874.051	0.0183234
874.129	0.0182063
874.207	0.0182784
874.285	0.0182133
874.363	0.0181684
874.442	0.0182751
874.520	0.0181681
874.598	0.0181239
874.676	0.0181744
874.754	0.0182458
874.832	0.0182907
874.910	0.0181880
874.988	0.0182146
875.067	0.0182543
875.145	0.0181436
875.223	0.0183021
875.301	0.0182125
875.379	0.0181620
875.457	0.0181023
875.535	0.0181440
875.613	0.0182468
875.692	0.0180906
875.770	0.0180175
875.848	0.0181575
875.926	0.0181135
876.004	0.0179697
876.082	0.0181060
876.160	0.0180976
876.238	0.0180112
876.317	0.0181616
876.395	0.0181969
876.473	0.0181722
876.551	0.0181062
876.629	0.0181095
876.707	0.0180478
876.785	0.0180288
876.863	0.0180165
876.942	0.0181507
877.020	0.0183002
877.098	0.0181418
877.176	0.0182352
877.254	0.0181495
877.332	0.0181533
877.410	0.0183264
877.488	0.0183062
877.567	0.0181750
877.645	0.0182233
877.723	0.0182333
877.801	0.0181999
877.879	0.0183992
877.957	0.0182744
878.035	0.0181482
878.113	0.0182201
878.192	0.0183035
878.270	0.0183141
878.348	0.0183272
878.426	0.0182500
878.504	0.0183188
878.582	0.0183988
878.660	0.0183697
878.738	0.0182513
878.817	0.0183186
878.895	0.0182611
878.973	0.0183250
879.051	0.0183266
879.129	0.0182234
879.207	0.0181457
879.285	0.0181791
879.363	0.0183493
879.442	0.0182990
879.520	0.0181765
879.598	0.0181664
879.676	0.0182511
879.754	0.0182148
879.832	0.0181687
879.910	0.0181233
879.988	0.0182169
880.067	0.0181482
880.145	0.0180485
880.223	0.0180972
880.301	0.0181832
880.379	0.0180927
880.457	0.0181770
880.535	0.0181838
880.613	0.0182982
880.692	0.0182550
880.770	0.0182651
880.848	0.0181721
880.926	0.0181680
881.004	0.0182148
881.082	0.0181550
881.160	0.0182584
881.238	0.0182616
881.317	0.0181715
881.395	0.0181658
881.473	0.0183199
881.551	0.0182932
881.629	0.0182657
881.707	0.0183028
881.785	0.0183488
881.863	0.0182162
881.942	0.0182719
882.020	0.0184801
882.098	0.0182377
882.176	0.0180865
882.254	0.0182331
882.332	0.0182364
882.410	0.0181398
882.488	0.0183064
882.567	0.0182953
882.645	0.0182280
882.723	0.0182967
882.801	0.0181727
882.879	0.0181512
882.957	0.0182453
883.035	0.0181054
883.113	0.0181287
883.192	0.0180082
883.270	0.0180132
883.348	0.0180703
883.426	0.0181503
883.504	0.0180318
883.582	0.0181668
883.660	0.0180769
883.738	0.0180047
883.817	0.0180143
883.895	0.0179847
883.973	0.0179780
884.051	0.0179945
884.129	0.0180310
884.207	0.0178800
884.285	0.0179515
884.363	0.0179851
884.442	0.0179778
884.520	0.0180537
884.598	0.0181339
884.676	0.0181377
884.754	0.0180780
884.832	0.0180618
884.910	0.0181178
884.988	0.0181540
885.067	0.0180414
885.145	0.0179763
885.223	0.0181081
885.301	0.0179936
885.379	0.0180157
885.457	0.0180460
885.535	0.0178970
885.613	0.0180735
885.692	0.0180309
885.770	0.0180102
885.848	0.0180468
885.926	0.0179423
886.004	0.0180593
886.082	0.0181093
886.160	0.0179650
886.238	0.0180141
886.317	0.0181749
886.395	0.0180821
886.473	0.0180251
886.551	0.0179513
886.629	0.0180205
886.707	0.0181965
886.785	0.0181123
886.863	0.0180512
886.942	0.0181052
887.020	0.0181599
887.098	0.0180665
887.176	0.0180417
887.254	0.0181433
887.332	0.0180619
887.410	0.0179793
887.488	0.0180848
887.567	0.0180931
887.645	0.0180776
887.723	0.0181514
887.801	0.0179829
887.879	0.0180881
887.957	0.0180225
888.035	0.0180044
888.113	0.0181627
888.192	0.0182402
888.270	0.0181544
888.348	0.0179875
888.426	0.0180278
888.504	0.0181197
888.582	0.0180949
888.660	0.0180154
888.738	0.0182303
888.817	0.0180770
888.895	0.0181378
888.973	0.0180969
889.051	0.0182801
889.129	0.0182941
889.207	0.0181781
889.285	0.0182818
889.363	0.0181060
889.442	0.0182249
889.520	0.0182983
889.598	0.0183717
889.676	0.0182198
889.754	0.0182695
889.832	0.0181180
889.910	0.0181792
889.988	0.0182531
890.067	0.0183231
890.145	0.0181873
890.223	0.0183191
890.301	0.0183455
890.379	0.0182448
890.457	0.0181764
890.535	0.0181149
890.613	0.0182623
890.692	0.0184413
890.770	0.0182769
890.848	0.0184071
890.926	0.0182393
891.004	0.0181493
891.082	0.0182821
891.160	0.0182565
891.238	0.0182811
891.317	0.0183224
891.395	0.0181696
891.473	0.0181654
891.551	0.0181934
891.629	0.0181885
891.707	0.0182256
891.785	0.0181462
891.863	0.0180101
891.942	0.0180355
892.020	0.0180438
892.098	0.0180603
892.176	0.0180949
892.254	0.0180032
892.332	0.0179883
892.410	0.0180135
892.488	0.0178755
892.567	0.0180695
892.645	0.0179454
892.723	0.0179176
892.801	0.0180184
892.879	0.0179964
892.957	0.0180218
893.035	0.0179948
893.113	0.0178554
893.192	0.0179664
893.270	0.0181159
893.348	0.0178759
893.426	0.0179769
893.504	0.0180735
893.582	0.0180963
893.660	0.0180591
893.738	0.0179602
893.817	0.0178362
893.895	0.0179774
893.973	0.0180446
894.051	0.0181512
894.129	0.0181433
894.207	0.0179916
894.285	0.0181504
894.363	0.0181824
894.442	0.0180270
894.520	0.0182035
894.598	0.0181049
894.676	0.0182067
894.754	0.0182460
894.832	0.0181198
894.910	0.0181300
894.988	0.0184071
895.067	0.0183752
895.145	0.0181969
895.223	0.0180686
895.301	0.0182557
895.379	0.0181457
895.457	0.0181226
895.535	0.0181686
895.613	0.0181655
895.692	0.0182093
895.770	0.0182264
895.848	0.0181579
895.926	0.0181429
896.004	0.0180783
896.082	0.0181322
896.160	0.0180429
896.238	0.0181983
896.317	0.0180743
896.395	0.0181272
896.473	0.0182231
896.551	0.0181659
896.629	0.0180807
896.707	0.0180462
896.785	0.0181444
896.863	0.0182572
896.942	0.0182827
897.020	0.0180745
897.098	0.0180523
897.176	0.0182442
897.254	0.0182295
897.332	0.0182598
897.410	0.0181892
897.488	0.0181124
897.567	0.0181667
897.645	0.0182287
897.723	0.0180051
897.801	0.0182715
897.879	0.0183558
897.957	0.0181317
898.035	0.0181057
898.113	0.0182675
898.192	0.0180862
898.270	0.0182274
898.348	0.0181787
898.426	0.0181519
898.504	0.0180685
898.582	0.0183459
898.660	0.0182226
898.738	0.0181981
898.817	0.0180768
898.895	0.0182197
898.973	0.0181382
899.051	0.0182469
899.129	0.0182175
899.207	0.0182224
899.285	0.0183446
899.363	0.0184176
899.442	0.0181914
899.520	0.0182413
899.598	0.0184176
899.676	0.0182999
899.754	0.0183609
899.832	0.0182994
899.910	0.0181703
899.988	0.0183006
900.067	0.0182595
900.145	0.0182479
900.223	0.0180616
900.301	0.0182072
900.379	0.0180894
900.457	0.0180266
900.535	0.0181249
900.613	0.0181871
900.692	0.0180425
900.770	0.0180400
900.848	0.0179514
900.926	0.0179679
901.004	0.0181252
901.082	0.0181287
901.160	0.0179938
901.238	0.0179919
901.317	0.0181952
901.395	0.0180509
901.473	0.0181700
901.551	0.0180136
901.629	0.0180670
901.707	0.0179136
901.785	0.0178526
901.863	0.0180413
901.942	0.0180279
902.020	0.0179318
902.098	0.0179760
902.176	0.0180199
902.254	0.0179766
902.332	0.0180953
902.410	0.0180456
902.488	0.0180785
902.567	0.0180688
902.645	0.0179783
902.723	0.0180466
902.801	0.0179727
902.879	0.0180839
902.957	0.0182504
903.035	0.0181205
903.113	0.0181911
903.192	0.0181482
903.270	0.0182269
903.348	0.0181246
903.426	0.0180324
903.504	0.0181213
903.582	0.0180682
903.660	0.0180700
903.738	0.0180391
903.817	0.0179414
903.895	0.0180351
903.973	0.0180820
904.051	0.0181551
904.129	0.0180150
904.207	0.0179879
904.285	0.0179606
904.363	0.0180565
904.442	0.0180675
904.520	0.0179726
904.598	0.0180608
904.676	0.0181251
904.754	0.0181121
904.832	0.0181028
904.910	0.0180086
904.988	0.0179520
905.067	0.0180491
905.145	0.0182154
905.223	0.0180854
905.301	0.0180167
905.379	0.0180971
905.457	0.0181030
905.535	0.0179955
905.613	0.0179774
905.692	0.0181411
905.770	0.0181232
905.848	0.0180096
905.926	0.0180576
906.004	0.0180628
906.082	0.0180598
906.160	0.0180853
906.238	0.0180785
906.317	0.0179930
906.395	0.0180845
906.473	0.0181150
906.551	0.0182297
906.629	0.0179580
906.707	0.0180715
906.785	0.0180623
906.863	0.0179255
906.942	0.0180845
907.020	0.0179659
907.098	0.0181448
907.176	0.0179991
907.254	0.0179602
907.332	0.0180648
907.410	0.0180942
907.488	0.0180405
907.567	0.0180550
907.645	0.0181091
907.723	0.0179366
907.801	0.0180250
907.879	0.0180607
907.957	0.0179918
908.035	0.0178928
908.113	0.0179166
908.192	0.0180180
908.270	0.0180091
908.348	0.0180245
908.426	0.0179839
908.504	0.0179408
908.582	0.0179205
908.660	0.0179894
908.738	0.0179557
908.817	0.0180870
908.895	0.0179886
908.973	0.0180621
909.051	0.0180152
909.129	0.0180598
909.207	0.0180725
909.285	0.0178472
909.363	0.0179244
909.442	0.0179383
909.520	0.0179233
909.598	0.0179240
909.676	0.0180590
909.754	0.0179857
909.832	0.0178705
909.910	0.0179449
909.988	0.0178483
910.067	0.0178944
910.145	0.0178842
910.223	0.0179932
910.301	0.0180196
910.379	0.0179896
910.457	0.0179366
910.535	0.0179932
910.613	0.0179281
910.692	0.0181235
910.770	0.0179709
910.848	0.0181931
910.926	0.0180949
911.004	0.0181664
911.082	0.0181808
911.160	0.0180785
911.238	0.0180760
911.317	0.0182649
911.395	0.0180865
911.473	0.0182970
911.551	0.0182217
911.629	0.0181266
911.707	0.0180935
911.785	0.0181915
911.863	0.0181306
911.942	0.0181126
912.020	0.0181154
912.098	0.0181593
912.176	0.0181284
912.254	0.0181749
912.332	0.0181713
912.410	0.0181105
912.488	0.0180199
912.567	0.0181100
912.645	0.0180284
912.723	0.0180148
912.801	0.0180813
912.879	0.0181204
912.957	0.0181651
913.035	0.0181884
913.113	0.0180373
913.192	0.0180579
913.270	0.0179525
913.348	0.0182072
913.426	0.0181420
913.504	0.0182102
913.582	0.0181747
913.660	0.0181007
913.738	0.0180815
913.817	0.0181409
913.895	0.0181640
913.973	0.0181255
914.051	0.0182120
914.129	0.0180830
914.207	0.0182097
914.285	0.0181976
914.363	0.0181654
914.442	0.0179936
914.520	0.0178698
914.598	0.0180534
914.676	0.0181293
914.754	0.0180875
914.832	0.0181723
914.910	0.0181393
914.988	0.0181827
915.067	0.0180595
915.145	0.0180522
915.223	0.0181404
915.301	0.0183156
915.379	0.0182542
915.457	0.0182594
915.535	0.0182059
915.613	0.0181564
915.692	0.0183012
915.770	0.0182019
915.848	0.0182531
915.926	0.0182883
916.004	0.0182525
916.082	0.0182685
916.160	0.0181377
916.238	0.0181394
916.317	0.0182303
916.395	0.0183150
916.473	0.0183607
916.551	0.0183781
916.629	0.0182298
916.707	0.0182189
916.785	0.0181365
916.863	0.0182135
916.942	0.0182259
917.020	0.0182120
917.098	0.0181792
917.176	0.0182303
917.254	0.0182180
917.332	0.0179871
917.410	0.0180651
917.488	0.0182927
917.567	0.0181274
917.645	0.0180569
917.723	0.0180518
917.801	0.0179565
917.879	0.0182262
917.957	0.0180843
918.035	0.0180107
918.113	0.0180370
918.192	0.0180531
918.270	0.0181401
918.348	0.0179838
918.426	0.0179631
918.504	0.0180679
918.582	0.0180632
918.660	0.0181710
918.738	0.0179816
918.817	0.0180428
918.895	0.0181309
918.973	0.0180590
919.051	0.0180306
919.129	0.0180869
919.207	0.0180918
919.285	0.0180584
919.363	0.0181070
919.442	0.0180920
919.520	0.0181167
919.598	0.0182408
919.676	0.0180998
919.754	0.0180486
919.832	0.0180157
919.910	0.0181577
