06/01/2022	22:13:14	Ver.	4.1	UNKNOWN
Optical Delay	599.988409	Delta X		0.078125	Sweeps	1	Scan Rate	0/0
Coordinates	Axis 1	NaN	Axis 2	NaN	Axis 3	NaN	Axis 4	NaN	Axis 5	NaN	Axis 6	0.000000
TX Power	0.000000	RX Power	0.000000

599.988	0.0179346
600.067	0.0177963
600.145	0.0178844
600.223	0.0180372
600.301	0.0179213
600.379	0.0178922
600.457	0.0180103
600.535	0.0179444
600.613	0.0179105
600.692	0.0177821
600.770	0.0180095
600.848	0.0180297
600.926	0.0180419
601.004	0.0180676
601.082	0.0179183
601.160	0.0180385
601.238	0.0179700
601.317	0.0179965
601.395	0.0180627
601.473	0.0181935
601.551	0.0180618
601.629	0.0180359
601.707	0.0180532
601.785	0.0180518
601.863	0.0181517
601.942	0.0180375
602.020	0.0180973
602.098	0.0180123
602.176	0.0181180
602.254	0.0182335
602.332	0.0181242
602.410	0.0181161
602.488	0.0182238
602.567	0.0180878
602.645	0.0181168
602.723	0.0181186
602.801	0.0182035
602.879	0.0182098
602.957	0.0181020
603.035	0.0181096
603.113	0.0181996
603.192	0.0182057
603.270	0.0181409
603.348	0.0182285
603.426	0.0183132
603.504	0.0181711
603.582	0.0183040
603.660	0.0182590
603.738	0.0182047
603.817	0.0182211
603.895	0.0182208
603.973	0.0183171
604.051	0.0183925
604.129	0.0183177
604.207	0.0181944
604.285	0.0182511
604.363	0.0181282
604.442	0.0183839
604.520	0.0182035
604.598	0.0182642
604.676	0.0182518
604.754	0.0183614
604.832	0.0183678
604.910	0.0181451
604.988	0.0181997
605.067	0.0182809
605.145	0.0183757
605.223	0.0182041
605.301	0.0183447
605.379	0.0183359
605.457	0.0182209
605.535	0.0182306
605.613	0.0182646
605.692	0.0183382
605.770	0.0183617
605.848	0.0182468
605.926	0.0182709
606.004	0.0182764
606.082	0.0180945
606.160	0.0181570
606.238	0.0183249
606.317	0.0182748
606.395	0.0182132
606.473	0.0181251
606.551	0.0182097
606.629	0.0183426
606.707	0.0182897
606.785	0.0182019
606.863	0.0182563
606.942	0.0183155
607.020	0.0182767
607.098	0.0180541
607.176	0.0181699
607.254	0.0181181
607.332	0.0181940
607.410	0.0181493
607.488	0.0182097
607.567	0.0181786
607.645	0.0182038
607.723	0.0181429
607.801	0.0182571
607.879	0.0182026
607.957	0.0182360
608.035	0.0182334
608.113	0.0182644
608.192	0.0181468
608.270	0.0182488
608.348	0.0181857
608.426	0.0182370
608.504	0.0182008
608.582	0.0182098
608.660	0.0180820
608.738	0.0181596
608.817	0.0181417
608.895	0.0181399
608.973	0.0180623
609.051	0.0180837
609.129	0.0181647
609.207	0.0180276
609.285	0.0180879
609.363	0.0180257
609.442	0.0180996
609.520	0.0180856
609.598	0.0179949
609.676	0.0179831
609.754	0.0181003
609.832	0.0179787
609.910	0.0180730
609.988	0.0178531
610.067	0.0180452
610.145	0.0181889
610.223	0.0179662
610.301	0.0180215
610.379	0.0179947
610.457	0.0180643
610.535	0.0180698
610.613	0.0179622
610.692	0.0180692
610.770	0.0181763
610.848	0.0180573
610.926	0.0180224
611.004	0.0178914
611.082	0.0180386
611.160	0.0181278
611.238	0.0179678
611.317	0.0179637
611.395	0.0180171
611.473	0.0179971
611.551	0.0180354
611.629	0.0182290
611.707	0.0181691
611.785	0.0179549
611.863	0.0179795
611.942	0.0180994
612.020	0.0180607
612.098	0.0180486
612.176	0.0179930
612.254	0.0181483
612.332	0.0179807
612.410	0.0179641
612.488	0.0178835
612.567	0.0179684
612.645	0.0179304
612.723	0.0179643
612.801	0.0180630
612.879	0.0179728
612.957	0.0179185
613.035	0.0179007
613.113	0.0179057
613.192	0.0179151
613.270	0.0179738
613.348	0.0180624
613.426	0.0181042
613.504	0.0179368
613.582	0.0179342
613.660	0.0179484
613.738	0.0178661
613.817	0.0178683
613.895	0.0179625
613.973	0.0179686
614.051	0.0179196
614.129	0.0178017
614.207	0.0180573
614.285	0.0180439
614.363	0.0179135
614.442	0.0179533
614.520	0.0179820
614.598	0.0180468
614.676	0.0178091
614.754	0.0179963
614.832	0.0181432
614.910	0.0180178
614.988	0.0178324
615.067	0.0179361
615.145	0.0179800
615.223	0.0180596
615.301	0.0180299
615.379	0.0179932
615.457	0.0179844
615.535	0.0179523
615.613	0.0179692
615.692	0.0179812
615.770	0.0180136
615.848	0.0180672
615.926	0.0179979
616.004	0.0179243
616.082	0.0180062
616.160	0.0180985
616.238	0.0179912
616.317	0.0181294
616.395	0.0179925
616.473	0.0178705
616.551	0.0179847
616.629	0.0181377
616.707	0.0179649
616.785	0.0180564
616.863	0.0179459
616.942	0.0180772
617.020	0.0179281
617.098	0.0179359
617.176	0.0179591
617.254	0.0179696
617.332	0.0180291
617.410	0.0180052
617.488	0.0182207
617.567	0.0180971
617.645	0.0179707
617.723	0.0178970
617.801	0.0180161
617.879	0.0181626
617.957	0.0182166
618.035	0.0181237
618.113	0.0179846
618.192	0.0179755
618.270	0.0180133
618.348	0.0181266
618.426	0.0181319
618.504	0.0180466
618.582	0.0179238
618.660	0.0181206
618.738	0.0182396
618.817	0.0181975
618.895	0.0180811
618.973	0.0182170
619.051	0.0180990
619.129	0.0182231
619.207	0.0182008
619.285	0.0181637
619.363	0.0180801
619.442	0.0180421
619.520	0.0181263
619.598	0.0181470
619.676	0.0181538
619.754	0.0183026
619.832	0.0181328
619.910	0.0181972
619.988	0.0180601
620.067	0.0183321
620.145	0.0181994
620.223	0.0180102
620.301	0.0181622
620.379	0.0180554
620.457	0.0181484
620.535	0.0181653
620.613	0.0180701
620.692	0.0181074
620.770	0.0180797
620.848	0.0182283
620.926	0.0181458
621.004	0.0180956
621.082	0.0180987
621.160	0.0181717
621.238	0.0180943
621.317	0.0180267
621.395	0.0181078
621.473	0.0181692
621.551	0.0181129
621.629	0.0179990
621.707	0.0180345
621.785	0.0181425
621.863	0.0180713
621.942	0.0180630
622.020	0.0180608
622.098	0.0179903
622.176	0.0180939
622.254	0.0181017
622.332	0.0179889
622.410	0.0179541
622.488	0.0180266
622.567	0.0180090
622.645	0.0179774
622.723	0.0180502
622.801	0.0179943
622.879	0.0179800
622.957	0.0179722
623.035	0.0179842
623.113	0.0179477
623.192	0.0180552
623.270	0.0179744
623.348	0.0178902
623.426	0.0180933
623.504	0.0180393
623.582	0.0180415
623.660	0.0179832
623.738	0.0179290
623.817	0.0178873
623.895	0.0178971
623.973	0.0180305
624.051	0.0179401
624.129	0.0179545
624.207	0.0178518
624.285	0.0179070
624.363	0.0179498
624.442	0.0179948
624.520	0.0179213
624.598	0.0180648
624.676	0.0179272
624.754	0.0179054
624.832	0.0179476
624.910	0.0178016
624.988	0.0177894
625.067	0.0180082
625.145	0.0177847
625.223	0.0179510
625.301	0.0180196
625.379	0.0178767
625.457	0.0179404
625.535	0.0178148
625.613	0.0180714
625.692	0.0180681
625.770	0.0178645
625.848	0.0179696
625.926	0.0180503
626.004	0.0179990
626.082	0.0178356
626.160	0.0182584
626.238	0.0179824
626.317	0.0180454
626.395	0.0180486
626.473	0.0180357
626.551	0.0179849
626.629	0.0180126
626.707	0.0180604
626.785	0.0181050
626.863	0.0181067
626.942	0.0179740
627.020	0.0180353
627.098	0.0179668
627.176	0.0179024
627.254	0.0179906
627.332	0.0182909
627.410	0.0181151
627.488	0.0181901
627.567	0.0180430
627.645	0.0180800
627.723	0.0179996
627.801	0.0180187
627.879	0.0180377
627.957	0.0179218
628.035	0.0179787
628.113	0.0180246
628.192	0.0180860
628.270	0.0180972
628.348	0.0180069
628.426	0.0181435
628.504	0.0180503
628.582	0.0180621
628.660	0.0181927
628.738	0.0180517
628.817	0.0182456
628.895	0.0182514
628.973	0.0180799
629.051	0.0182152
629.129	0.0182517
629.207	0.0181306
629.285	0.0183177
629.363	0.0183121
629.442	0.0182285
629.520	0.0181432
629.598	0.0180957
629.676	0.0183066
629.754	0.0182450
629.832	0.0183172
629.910	0.0182410
629.988	0.0181636
630.067	0.0183024
630.145	0.0183158
630.223	0.0181401
630.301	0.0181168
630.379	0.0182178
630.457	0.0181186
630.535	0.0182745
630.613	0.0181742
630.692	0.0182880
630.770	0.0182781
630.848	0.0181434
630.926	0.0181416
631.004	0.0182982
631.082	0.0180634
631.160	0.0180609
631.238	0.0181886
631.317	0.0182230
631.395	0.0181405
631.473	0.0182256
631.551	0.0181004
631.629	0.0181032
631.707	0.0182089
631.785	0.0181326
631.863	0.0182122
631.942	0.0182566
632.020	0.0179890
632.098	0.0181077
632.176	0.0181540
632.254	0.0180762
632.332	0.0180271
632.410	0.0180630
632.488	0.0183239
632.567	0.0181214
632.645	0.0181390
632.723	0.0180754
632.801	0.0181509
632.879	0.0182130
632.957	0.0180828
633.035	0.0181020
633.113	0.0181138
633.192	0.0179522
633.270	0.0181750
633.348	0.0180733
633.426	0.0181158
633.504	0.0180100
633.582	0.0180891
633.660	0.0180489
633.738	0.0178883
633.817	0.0180183
633.895	0.0180350
633.973	0.0179690
634.051	0.0179020
634.129	0.0180193
634.207	0.0181076
634.285	0.0179678
634.363	0.0178902
634.442	0.0177721
634.520	0.0178393
634.598	0.0179810
634.676	0.0179773
634.754	0.0178240
634.832	0.0179317
634.910	0.0179944
634.988	0.0179791
635.067	0.0178667
635.145	0.0178091
635.223	0.0180154
635.301	0.0178361
635.379	0.0179293
635.457	0.0179908
635.535	0.0179549
635.613	0.0177674
635.692	0.0179531
635.770	0.0179108
635.848	0.0178484
635.926	0.0178511
636.004	0.0179387
636.082	0.0179141
636.160	0.0178007
636.238	0.0179647
636.317	0.0180042
636.395	0.0178669
636.473	0.0179842
636.551	0.0179372
636.629	0.0179390
636.707	0.0179025
636.785	0.0179828
636.863	0.0180013
636.942	0.0180827
637.020	0.0179219
637.098	0.0179940
637.176	0.0179885
637.254	0.0180213
637.332	0.0179945
637.410	0.0180485
637.488	0.0180431
637.567	0.0180901
637.645	0.0180003
637.723	0.0179360
637.801	0.0180707
637.879	0.0180889
637.957	0.0179393
638.035	0.0179986
638.113	0.0180252
638.192	0.0179510
638.270	0.0180168
638.348	0.0179436
638.426	0.0180059
638.504	0.0179884
638.582	0.0180105
638.660	0.0181896
638.738	0.0180324
638.817	0.0179310
638.895	0.0179407
638.973	0.0180001
639.051	0.0179874
639.129	0.0180170
639.207	0.0181461
639.285	0.0180218
639.363	0.0180302
639.442	0.0180635
639.520	0.0179900
639.598	0.0180466
639.676	0.0180546
639.754	0.0179996
639.832	0.0180574
639.910	0.0180429
639.988	0.0181347
640.067	0.0180290
640.145	0.0180334
640.223	0.0182041
640.301	0.0181020
640.379	0.0180116
640.457	0.0181303
640.535	0.0181535
640.613	0.0181743
640.692	0.0181308
640.770	0.0181126
640.848	0.0182168
640.926	0.0182616
641.004	0.0182702
641.082	0.0183700
641.160	0.0182436
641.238	0.0181884
641.317	0.0182160
641.395	0.0182525
641.473	0.0181842
641.551	0.0180801
641.629	0.0181997
641.707	0.0182131
641.785	0.0183406
641.863	0.0182043
641.942	0.0182561
642.020	0.0182227
642.098	0.0182138
642.176	0.0182465
642.254	0.0182260
642.332	0.0181988
642.410	0.0180943
642.488	0.0182706
642.567	0.0181948
642.645	0.0181360
642.723	0.0181377
642.801	0.0182032
642.879	0.0180564
642.957	0.0183126
643.035	0.0183011
643.113	0.0180776
643.192	0.0179503
643.270	0.0181690
643.348	0.0181870
643.426	0.0180618
643.504	0.0181449
643.582	0.0180299
643.660	0.0181066
643.738	0.0180081
643.817	0.0180833
643.895	0.0182362
643.973	0.0180949
644.051	0.0179528
644.129	0.0179377
644.207	0.0181629
644.285	0.0180946
644.363	0.0180740
644.442	0.0181316
644.520	0.0180389
644.598	0.0181439
644.676	0.0181803
644.754	0.0181949
644.832	0.0182162
644.910	0.0181461
644.988	0.0181309
645.067	0.0180941
645.145	0.0181837
645.223	0.0182234
645.301	0.0182222
645.379	0.0180991
645.457	0.0182101
645.535	0.0181680
645.613	0.0182089
645.692	0.0181203
645.770	0.0181565
645.848	0.0180424
645.926	0.0180727
646.004	0.0181602
646.082	0.0182350
646.160	0.0181417
646.238	0.0180085
646.317	0.0180759
646.395	0.0179778
646.473	0.0181205
646.551	0.0180376
646.629	0.0179593
646.707	0.0181312
646.785	0.0180294
646.863	0.0180800
646.942	0.0180534
647.020	0.0180334
647.098	0.0180634
647.176	0.0180629
647.254	0.0181635
647.332	0.0181120
647.410	0.0180476
647.488	0.0180180
647.567	0.0180407
647.645	0.0181029
647.723	0.0179094
647.801	0.0179680
647.879	0.0181306
647.957	0.0182494
648.035	0.0181072
648.113	0.0180322
648.192	0.0179282
648.270	0.0181377
648.348	0.0181219
648.426	0.0180685
648.504	0.0181631
648.582	0.0181073
648.660	0.0180954
648.738	0.0181573
648.817	0.0182307
648.895	0.0182548
648.973	0.0181234
649.051	0.0182587
649.129	0.0183054
649.207	0.0182306
649.285	0.0182171
649.363	0.0181483
649.442	0.0184144
649.520	0.0183110
649.598	0.0183984
649.676	0.0183685
649.754	0.0182544
649.832	0.0182881
649.910	0.0183791
649.988	0.0182583
650.067	0.0183571
650.145	0.0182088
650.223	0.0182669
650.301	0.0183133
650.379	0.0183084
650.457	0.0182495
650.535	0.0180985
650.613	0.0181829
650.692	0.0182111
650.770	0.0182213
650.848	0.0180664
650.926	0.0182637
651.004	0.0180532
651.082	0.0179865
651.160	0.0181757
651.238	0.0180499
651.317	0.0180121
651.395	0.0180586
651.473	0.0180284
651.551	0.0179529
651.629	0.0180064
651.707	0.0179770
651.785	0.0178693
651.863	0.0179724
651.942	0.0180134
652.020	0.0177857
652.098	0.0179492
652.176	0.0179872
652.254	0.0181300
652.332	0.0179480
652.410	0.0179691
652.488	0.0179479
652.567	0.0180901
652.645	0.0180045
652.723	0.0181045
652.801	0.0180013
652.879	0.0180011
652.957	0.0180698
653.035	0.0181448
653.113	0.0181676
653.192	0.0180492
653.270	0.0179913
653.348	0.0180370
653.426	0.0180799
653.504	0.0180663
653.582	0.0181131
653.660	0.0181031
653.738	0.0181235
653.817	0.0179968
653.895	0.0180859
653.973	0.0180529
654.051	0.0179748
654.129	0.0181075
654.207	0.0180006
654.285	0.0180437
654.363	0.0179496
654.442	0.0180177
654.520	0.0179995
654.598	0.0179794
654.676	0.0179929
654.754	0.0180635
654.832	0.0180034
654.910	0.0181799
654.988	0.0179955
655.067	0.0179427
655.145	0.0180283
655.223	0.0179507
655.301	0.0181126
655.379	0.0180647
655.457	0.0179411
655.535	0.0180927
655.613	0.0181361
655.692	0.0181470
655.770	0.0181671
655.848	0.0181518
655.926	0.0180370
656.004	0.0180643
656.082	0.0182036
656.160	0.0181864
656.238	0.0181647
656.317	0.0181677
656.395	0.0180357
656.473	0.0182045
656.551	0.0180235
656.629	0.0181020
656.707	0.0180714
656.785	0.0180906
656.863	0.0179912
656.942	0.0180658
657.020	0.0180550
657.098	0.0180997
657.176	0.0181396
657.254	0.0182960
657.332	0.0181720
657.410	0.0180593
657.488	0.0180829
657.567	0.0182246
657.645	0.0181006
657.723	0.0180876
657.801	0.0179757
657.879	0.0181812
657.957	0.0181892
658.035	0.0182398
658.113	0.0180356
658.192	0.0179914
658.270	0.0180608
658.348	0.0181290
658.426	0.0180935
658.504	0.0181117
658.582	0.0181335
658.660	0.0180622
658.738	0.0181299
658.817	0.0181501
658.895	0.0180628
658.973	0.0180125
659.051	0.0181345
659.129	0.0180747
659.207	0.0182475
659.285	0.0180305
659.363	0.0178850
659.442	0.0180484
659.520	0.0180395
659.598	0.0180228
659.676	0.0181039
659.754	0.0181041
659.832	0.0180684
659.910	0.0182214
659.988	0.0181413
660.067	0.0181242
660.145	0.0181369
660.223	0.0181976
660.301	0.0181185
660.379	0.0182051
660.457	0.0181918
660.535	0.0181414
660.613	0.0180753
660.692	0.0180688
660.770	0.0181165
660.848	0.0181824
660.926	0.0181541
661.004	0.0181328
661.082	0.0179982
661.160	0.0180988
661.238	0.0180257
661.317	0.0180669
661.395	0.0181771
661.473	0.0180439
661.551	0.0180097
661.629	0.0180944
661.707	0.0180715
661.785	0.0181673
661.863	0.0180737
661.942	0.0182063
662.020	0.0181004
662.098	0.0181281
662.176	0.0182154
662.254	0.0181836
662.332	0.0180433
662.410	0.0181804
662.488	0.0181023
662.567	0.0180991
662.645	0.0182901
662.723	0.0181718
662.801	0.0181780
662.879	0.0180457
662.957	0.0181602
663.035	0.0181895
663.113	0.0182739
663.192	0.0182438
663.270	0.0180670
663.348	0.0182288
663.426	0.0181560
663.504	0.0181025
663.582	0.0182502
663.660	0.0182375
663.738	0.0180060
663.817	0.0179988
663.895	0.0181815
663.973	0.0181889
664.051	0.0181224
664.129	0.0182123
664.207	0.0183163
664.285	0.0182262
664.363	0.0180586
664.442	0.0181028
664.520	0.0181251
664.598	0.0181828
664.676	0.0182450
664.754	0.0180490
664.832	0.0180865
664.910	0.0181580
664.988	0.0181206
665.067	0.0181133
665.145	0.0180038
665.223	0.0181549
665.301	0.0182892
665.379	0.0180833
665.457	0.0181059
665.535	0.0181374
665.613	0.0181824
665.692	0.0181728
665.770	0.0182783
665.848	0.0182130
665.926	0.0180644
666.004	0.0182273
666.082	0.0181636
666.160	0.0180984
666.238	0.0180875
666.317	0.0181528
666.395	0.0181890
666.473	0.0182539
666.551	0.0181937
666.629	0.0181396
666.707	0.0181443
666.785	0.0181414
666.863	0.0181554
666.942	0.0181293
667.020	0.0180129
667.098	0.0181128
667.176	0.0181364
667.254	0.0180201
667.332	0.0182559
667.410	0.0180409
667.488	0.0180179
667.567	0.0182070
667.645	0.0181556
667.723	0.0179337
667.801	0.0182713
667.879	0.0181381
667.957	0.0181626
668.035	0.0183367
668.113	0.0181906
668.192	0.0180381
668.270	0.0181953
668.348	0.0182262
668.426	0.0182486
668.504	0.0181261
668.582	0.0180869
668.660	0.0181482
668.738	0.0180161
668.817	0.0180615
668.895	0.0181116
668.973	0.0181169
669.051	0.0180075
669.129	0.0178451
669.207	0.0179775
669.285	0.0180978
669.363	0.0180248
669.442	0.0179642
669.520	0.0179729
669.598	0.0181156
669.676	0.0180515
669.754	0.0180502
669.832	0.0179134
669.910	0.0180592
669.988	0.0180218
670.067	0.0180079
670.145	0.0178896
670.223	0.0179635
670.301	0.0181705
670.379	0.0180897
670.457	0.0181450
670.535	0.0180166
670.613	0.0181840
670.692	0.0181341
670.770	0.0180983
670.848	0.0181546
670.926	0.0182039
671.004	0.0180952
671.082	0.0181526
671.160	0.0182790
671.238	0.0182314
671.317	0.0181351
671.395	0.0181515
671.473	0.0182633
671.551	0.0182156
671.629	0.0181867
671.707	0.0181699
671.785	0.0180445
671.863	0.0181171
671.942	0.0181100
672.020	0.0181168
672.098	0.0180119
672.176	0.0179756
672.254	0.0181712
672.332	0.0181041
672.410	0.0182314
672.488	0.0178678
672.567	0.0179877
672.645	0.0178754
672.723	0.0178074
672.801	0.0181302
672.879	0.0177488
672.957	0.0178912
673.035	0.0178218
673.113	0.0179895
673.192	0.0180689
673.270	0.0180228
673.348	0.0178732
673.426	0.0179473
673.504	0.0180056
673.582	0.0179440
673.660	0.0178299
673.738	0.0179700
673.817	0.0179085
673.895	0.0179603
673.973	0.0178787
674.051	0.0177071
674.129	0.0179644
674.207	0.0180585
674.285	0.0179226
674.363	0.0178418
674.442	0.0178529
674.520	0.0180288
674.598	0.0179848
674.676	0.0180443
674.754	0.0179630
674.832	0.0179143
674.910	0.0179227
674.988	0.0179408
675.067	0.0179897
675.145	0.0179078
675.223	0.0178901
675.301	0.0179626
675.379	0.0181075
675.457	0.0179893
675.535	0.0181067
675.613	0.0181485
675.692	0.0181934
675.770	0.0181297
675.848	0.0181861
675.926	0.0182389
676.004	0.0182146
676.082	0.0183301
676.160	0.0181451
676.238	0.0182551
676.317	0.0181728
676.395	0.0182256
676.473	0.0182300
676.551	0.0182557
676.629	0.0182718
676.707	0.0181826
676.785	0.0182645
676.863	0.0182038
676.942	0.0181667
677.020	0.0181697
677.098	0.0182425
677.176	0.0183242
677.254	0.0182069
677.332	0.0180998
677.410	0.0182182
677.488	0.0181694
677.567	0.0181717
677.645	0.0180991
677.723	0.0180937
677.801	0.0181658
677.879	0.0182313
677.957	0.0181832
678.035	0.0182169
678.113	0.0182886
678.192	0.0182445
678.270	0.0182027
678.348	0.0183389
678.426	0.0183074
678.504	0.0184095
678.582	0.0183545
678.660	0.0184286
678.738	0.0183488
678.817	0.0183632
678.895	0.0184431
678.973	0.0184988
679.051	0.0185933
679.129	0.0185040
679.207	0.0183914
679.285	0.0183976
679.363	0.0183153
679.442	0.0184626
679.520	0.0182793
679.598	0.0183636
679.676	0.0182721
679.754	0.0181075
679.832	0.0180340
679.910	0.0179370
679.988	0.0180812
680.067	0.0179351
680.145	0.0179205
680.223	0.0180058
680.301	0.0177648
680.379	0.0177403
680.457	0.0177892
680.535	0.0179405
680.613	0.0179347
680.692	0.0179743
680.770	0.0180209
680.848	0.0180907
680.926	0.0181097
681.004	0.0181723
681.082	0.0181902
681.160	0.0180901
681.238	0.0182011
681.317	0.0183133
681.395	0.0183157
681.473	0.0182635
681.551	0.0181606
681.629	0.0182996
681.707	0.0181527
681.785	0.0181635
681.863	0.0181158
681.942	0.0181864
682.020	0.0180981
682.098	0.0181570
682.176	0.0180479
682.254	0.0177587
682.332	0.0178769
682.410	0.0178342
682.488	0.0178802
682.567	0.0179360
682.645	0.0179203
682.723	0.0179228
682.801	0.0178273
682.879	0.0179306
682.957	0.0179276
683.035	0.0179816
683.113	0.0179774
683.192	0.0180774
683.270	0.0181017
683.348	0.0181620
683.426	0.0180608
683.504	0.0182323
683.582	0.0182021
683.660	0.0181551
683.738	0.0182629
683.817	0.0181345
683.895	0.0182919
683.973	0.0180998
684.051	0.0181761
684.129	0.0181344
684.207	0.0180359
684.285	0.0181165
684.363	0.0181129
684.442	0.0180212
684.520	0.0180880
684.598	0.0180439
684.676	0.0181160
684.754	0.0181227
684.832	0.0181219
684.910	0.0181342
684.988	0.0181206
685.067	0.0182007
685.145	0.0180422
685.223	0.0181753
685.301	0.0180608
685.379	0.0179784
685.457	0.0179822
685.535	0.0177811
685.613	0.0179997
685.692	0.0179958
685.770	0.0177911
685.848	0.0178473
685.926	0.0179156
686.004	0.0178529
686.082	0.0178027
686.160	0.0177978
686.238	0.0177946
686.317	0.0178324
686.395	0.0179838
686.473	0.0179081
686.551	0.0179256
686.629	0.0179652
686.707	0.0178768
686.785	0.0178748
686.863	0.0180732
686.942	0.0179837
687.020	0.0178381
687.098	0.0180003
687.176	0.0180421
687.254	0.0179473
687.332	0.0178925
687.410	0.0181127
687.488	0.0179829
687.567	0.0178807
687.645	0.0181368
687.723	0.0181045
687.801	0.0180363
687.879	0.0181608
687.957	0.0182432
688.035	0.0182408
688.113	0.0182983
688.192	0.0181594
688.270	0.0182543
688.348	0.0182922
688.426	0.0183749
688.504	0.0182784
688.582	0.0181863
688.660	0.0181859
688.738	0.0181302
688.817	0.0181626
688.895	0.0181311
688.973	0.0179746
689.051	0.0179784
689.129	0.0180293
689.207	0.0178288
689.285	0.0176427
689.363	0.0177403
689.442	0.0176675
689.520	0.0175845
689.598	0.0174379
689.676	0.0174530
689.754	0.0174968
689.832	0.0175219
689.910	0.0175471
689.988	0.0175169
690.067	0.0175175
690.145	0.0176149
690.223	0.0177025
690.301	0.0177660
690.379	0.0177615
690.457	0.0177815
690.535	0.0178252
690.613	0.0180494
690.692	0.0182898
690.770	0.0181496
690.848	0.0181186
690.926	0.0183409
691.004	0.0182437
691.082	0.0182984
691.160	0.0183359
691.238	0.0183741
691.317	0.0184166
691.395	0.0183988
691.473	0.0183519
691.551	0.0182196
691.629	0.0182710
691.707	0.0183079
691.785	0.0183828
691.863	0.0182699
691.942	0.0181480
692.020	0.0182739
692.098	0.0181071
692.176	0.0180855
692.254	0.0181458
692.332	0.0181054
692.410	0.0180564
692.488	0.0178624
692.567	0.0178636
692.645	0.0180375
692.723	0.0178888
692.801	0.0178873
692.879	0.0177847
692.957	0.0178722
693.035	0.0178519
693.113	0.0176273
693.192	0.0178538
693.270	0.0179160
693.348	0.0177438
693.426	0.0178074
693.504	0.0177525
693.582	0.0177935
693.660	0.0178144
693.738	0.0178042
693.817	0.0178214
693.895	0.0176849
693.973	0.0175652
694.051	0.0176660
694.129	0.0177135
694.207	0.0177744
694.285	0.0176887
694.363	0.0179577
694.442	0.0180765
694.520	0.0179482
694.598	0.0179448
694.676	0.0178954
694.754	0.0180394
694.832	0.0180194
694.910	0.0182359
694.988	0.0181251
695.067	0.0182510
695.145	0.0184048
695.223	0.0183253
695.301	0.0182581
695.379	0.0183891
695.457	0.0183772
695.535	0.0183443
695.613	0.0184173
695.692	0.0183352
695.770	0.0184575
695.848	0.0185020
695.926	0.0183777
696.004	0.0184237
696.082	0.0184370
696.160	0.0184436
696.238	0.0184166
696.317	0.0183637
696.395	0.0183793
696.473	0.0181706
696.551	0.0181301
696.629	0.0179659
696.707	0.0179734
696.785	0.0179018
696.863	0.0177983
696.942	0.0177024
697.020	0.0176441
697.098	0.0175797
697.176	0.0175112
697.254	0.0174781
697.332	0.0175436
697.410	0.0175475
697.488	0.0175077
697.567	0.0176729
697.645	0.0176657
697.723	0.0175741
697.801	0.0176413
697.879	0.0175214
697.957	0.0176318
698.035	0.0177975
698.113	0.0176385
698.192	0.0177708
698.270	0.0178735
698.348	0.0178263
698.426	0.0179810
698.504	0.0179328
698.582	0.0179768
698.660	0.0179789
698.738	0.0181141
698.817	0.0182275
698.895	0.0181512
698.973	0.0181477
699.051	0.0180302
699.129	0.0180025
699.207	0.0180395
699.285	0.0181365
699.363	0.0180402
699.442	0.0181751
699.520	0.0181235
699.598	0.0181395
699.676	0.0180286
699.754	0.0181908
699.832	0.0181850
699.910	0.0180896
699.988	0.0182013
700.067	0.0182249
700.145	0.0182558
700.223	0.0184235
700.301	0.0182574
700.379	0.0182780
700.457	0.0183346
700.535	0.0185272
700.613	0.0186280
700.692	0.0185377
700.770	0.0185455
700.848	0.0185774
700.926	0.0186292
701.004	0.0186295
701.082	0.0184632
701.160	0.0183866
701.238	0.0186709
701.317	0.0183944
701.395	0.0183530
701.473	0.0183313
701.551	0.0182956
701.629	0.0182244
701.707	0.0181561
701.785	0.0180503
701.863	0.0178296
701.942	0.0177966
702.020	0.0177558
702.098	0.0176514
702.176	0.0176743
702.254	0.0174533
702.332	0.0173331
702.410	0.0175119
702.488	0.0173511
702.567	0.0175410
702.645	0.0173960
702.723	0.0173318
702.801	0.0173582
702.879	0.0174470
702.957	0.0174909
703.035	0.0174570
703.113	0.0174052
703.192	0.0175774
703.270	0.0174361
703.348	0.0175401
703.426	0.0176641
703.504	0.0175672
703.582	0.0177220
703.660	0.0177065
703.738	0.0176772
703.817	0.0177241
703.895	0.0179887
703.973	0.0180615
704.051	0.0179234
704.129	0.0180498
704.207	0.0181773
704.285	0.0182108
704.363	0.0183459
704.442	0.0183933
704.520	0.0185301
704.598	0.0184731
704.676	0.0185828
704.754	0.0187200
704.832	0.0187636
704.910	0.0188654
704.988	0.0188532
705.067	0.0189103
705.145	0.0188943
705.223	0.0190675
705.301	0.0189789
705.379	0.0189637
705.457	0.0189048
705.535	0.0189145
705.613	0.0188220
705.692	0.0187271
705.770	0.0186969
705.848	0.0185700
705.926	0.0185995
706.004	0.0185802
706.082	0.0185852
706.160	0.0184977
706.238	0.0184360
706.317	0.0184800
706.395	0.0183958
706.473	0.0183264
706.551	0.0182243
706.629	0.0181921
706.707	0.0181248
706.785	0.0180759
706.863	0.0179243
706.942	0.0177860
707.020	0.0178445
707.098	0.0176514
707.176	0.0176248
707.254	0.0173608
707.332	0.0173537
707.410	0.0172815
707.488	0.0171295
707.567	0.0171526
707.645	0.0171088
707.723	0.0169228
707.801	0.0171822
707.879	0.0171397
707.957	0.0171135
708.035	0.0171865
708.113	0.0172057
708.192	0.0171832
708.270	0.0172636
708.348	0.0174054
708.426	0.0174850
708.504	0.0175850
708.582	0.0178539
708.660	0.0179165
708.738	0.0180816
708.817	0.0181147
708.895	0.0181635
708.973	0.0182561
709.051	0.0185384
709.129	0.0186021
709.207	0.0187489
709.285	0.0186785
709.363	0.0187261
709.442	0.0188451
709.520	0.0189486
709.598	0.0189246
709.676	0.0187578
709.754	0.0189447
709.832	0.0188258
709.910	0.0185706
709.988	0.0186166
710.067	0.0187963
710.145	0.0186230
710.223	0.0184066
710.301	0.0183866
710.379	0.0184250
710.457	0.0184412
710.535	0.0183813
710.613	0.0182465
710.692	0.0181557
710.770	0.0182877
710.848	0.0181438
710.926	0.0181200
711.004	0.0180651
711.082	0.0179961
711.160	0.0179603
711.238	0.0178086
711.317	0.0178204
711.395	0.0178311
711.473	0.0177869
711.551	0.0178382
711.629	0.0176723
711.707	0.0175109
711.785	0.0176761
711.863	0.0174934
711.942	0.0175280
712.020	0.0175732
712.098	0.0174763
712.176	0.0173211
712.254	0.0173008
712.332	0.0174739
712.410	0.0174568
712.488	0.0174249
712.567	0.0175183
712.645	0.0175770
712.723	0.0176501
712.801	0.0175521
712.879	0.0175696
712.957	0.0177583
713.035	0.0177479
713.113	0.0177667
713.192	0.0177889
713.270	0.0178728
713.348	0.0177370
713.426	0.0177080
713.504	0.0179186
713.582	0.0178182
713.660	0.0178076
713.738	0.0178178
713.817	0.0178008
713.895	0.0177610
713.973	0.0177589
714.051	0.0176147
714.129	0.0176796
714.207	0.0177397
714.285	0.0177887
714.363	0.0177144
714.442	0.0176511
714.520	0.0178178
714.598	0.0179568
714.676	0.0177669
714.754	0.0180721
714.832	0.0180056
714.910	0.0178930
714.988	0.0178526
715.067	0.0178980
715.145	0.0179739
715.223	0.0180325
715.301	0.0181122
715.379	0.0179892
715.457	0.0181378
715.535	0.0184383
715.613	0.0182532
715.692	0.0182071
715.770	0.0183743
715.848	0.0183492
715.926	0.0184126
716.004	0.0184229
716.082	0.0184142
716.160	0.0185617
716.238	0.0185909
716.317	0.0185323
716.395	0.0185718
716.473	0.0186615
716.551	0.0185352
716.629	0.0184730
716.707	0.0185387
716.785	0.0182259
716.863	0.0183211
716.942	0.0182906
717.020	0.0183890
717.098	0.0183226
717.176	0.0183724
717.254	0.0181686
717.332	0.0181495
717.410	0.0181687
717.488	0.0179853
717.567	0.0179544
717.645	0.0179401
717.723	0.0179253
717.801	0.0179427
717.879	0.0181004
717.957	0.0179082
718.035	0.0178017
718.113	0.0178616
718.192	0.0179204
718.270	0.0179221
718.348	0.0181040
718.426	0.0180843
718.504	0.0178537
718.582	0.0181541
718.660	0.0180169
718.738	0.0180280
718.817	0.0180550
718.895	0.0181509
718.973	0.0182311
719.051	0.0180618
719.129	0.0178616
719.207	0.0178915
719.285	0.0180905
719.363	0.0178957
719.442	0.0177420
719.520	0.0177422
719.598	0.0178060
719.676	0.0176486
719.754	0.0175562
719.832	0.0175302
719.910	0.0174753
719.988	0.0176267
720.067	0.0176794
720.145	0.0176331
720.223	0.0177440
720.301	0.0176377
720.379	0.0175661
720.457	0.0176743
720.535	0.0177875
720.613	0.0178505
720.692	0.0180594
720.770	0.0180378
720.848	0.0178888
720.926	0.0179142
721.004	0.0179217
721.082	0.0181449
721.160	0.0181729
721.238	0.0180946
721.317	0.0182548
721.395	0.0181248
721.473	0.0182417
721.551	0.0182702
721.629	0.0182338
721.707	0.0183958
721.785	0.0184293
721.863	0.0182926
721.942	0.0183382
722.020	0.0182922
722.098	0.0184313
722.176	0.0183763
722.254	0.0182174
722.332	0.0182848
722.410	0.0184158
722.488	0.0182342
722.567	0.0183612
722.645	0.0183914
722.723	0.0183916
722.801	0.0182688
722.879	0.0184928
722.957	0.0183414
723.035	0.0182291
723.113	0.0181985
723.192	0.0181398
723.270	0.0183405
723.348	0.0183656
723.426	0.0181561
723.504	0.0182555
723.582	0.0181976
723.660	0.0183463
723.738	0.0182474
723.817	0.0181090
723.895	0.0181020
723.973	0.0182588
724.051	0.0182261
724.129	0.0181039
724.207	0.0181293
724.285	0.0179843
724.363	0.0180754
724.442	0.0180909
724.520	0.0178824
724.598	0.0179964
724.676	0.0179343
724.754	0.0178755
724.832	0.0177242
724.910	0.0177241
724.988	0.0177372
725.067	0.0177634
725.145	0.0176688
725.223	0.0176900
725.301	0.0175391
725.379	0.0176337
725.457	0.0176472
725.535	0.0175517
725.613	0.0175652
725.692	0.0176511
725.770	0.0174885
725.848	0.0176791
725.926	0.0177017
726.004	0.0176670
726.082	0.0177209
726.160	0.0176664
726.238	0.0177296
726.317	0.0179041
726.395	0.0178682
726.473	0.0177747
726.551	0.0179534
726.629	0.0178928
726.707	0.0178070
726.785	0.0179252
726.863	0.0178201
726.942	0.0179416
727.020	0.0179659
727.098	0.0180606
727.176	0.0181707
727.254	0.0180309
727.332	0.0180679
727.410	0.0180525
727.488	0.0180202
727.567	0.0182147
727.645	0.0182382
727.723	0.0180519
727.801	0.0182072
727.879	0.0181797
727.957	0.0183566
728.035	0.0183919
728.113	0.0182619
728.192	0.0184319
728.270	0.0185165
728.348	0.0183154
728.426	0.0184162
728.504	0.0184923
728.582	0.0184873
728.660	0.0184511
728.738	0.0184906
728.817	0.0184198
728.895	0.0183790
728.973	0.0184451
729.051	0.0185467
729.129	0.0184048
729.207	0.0184641
729.285	0.0182587
729.363	0.0183119
729.442	0.0181257
729.520	0.0182563
729.598	0.0181583
729.676	0.0180489
729.754	0.0180629
729.832	0.0180682
729.910	0.0180640
729.988	0.0181946
730.067	0.0181259
730.145	0.0181348
730.223	0.0181394
730.301	0.0180653
730.379	0.0180746
730.457	0.0181746
730.535	0.0180989
730.613	0.0181209
730.692	0.0178767
730.770	0.0179229
730.848	0.0180399
730.926	0.0180421
731.004	0.0178690
731.082	0.0180209
731.160	0.0178056
731.238	0.0177949
731.317	0.0179403
731.395	0.0177944
731.473	0.0177506
731.551	0.0177987
731.629	0.0177102
731.707	0.0178343
731.785	0.0178696
731.863	0.0177239
731.942	0.0178236
732.020	0.0179307
732.098	0.0180535
732.176	0.0180698
732.254	0.0180745
732.332	0.0181122
732.410	0.0182841
732.488	0.0181450
732.567	0.0182138
732.645	0.0181406
732.723	0.0185114
732.801	0.0185435
732.879	0.0184740
732.957	0.0185883
733.035	0.0184445
733.113	0.0184383
733.192	0.0183675
733.270	0.0183920
733.348	0.0184239
733.426	0.0183828
733.504	0.0184095
733.582	0.0183459
733.660	0.0185297
733.738	0.0183956
733.817	0.0183536
733.895	0.0182600
733.973	0.0182581
734.051	0.0183590
734.129	0.0182944
734.207	0.0184164
734.285	0.0182864
734.363	0.0181738
734.442	0.0181463
734.520	0.0182415
734.598	0.0182790
734.676	0.0182591
734.754	0.0181178
734.832	0.0181348
734.910	0.0182372
734.988	0.0182228
735.067	0.0182780
735.145	0.0180811
735.223	0.0182549
735.301	0.0183221
735.379	0.0181603
735.457	0.0182571
735.535	0.0182037
735.613	0.0182782
735.692	0.0182398
735.770	0.0181146
735.848	0.0181786
735.926	0.0182245
736.004	0.0181200
736.082	0.0181270
736.160	0.0182611
736.238	0.0182747
736.317	0.0182388
736.395	0.0180895
736.473	0.0182968
736.551	0.0181577
736.629	0.0182337
736.707	0.0182151
736.785	0.0181854
736.863	0.0182820
736.942	0.0182278
737.020	0.0181233
737.098	0.0182724
737.176	0.0181404
737.254	0.0181790
737.332	0.0182603
737.410	0.0181133
737.488	0.0181324
737.567	0.0181767
737.645	0.0182121
737.723	0.0180840
737.801	0.0180867
737.879	0.0180241
737.957	0.0178934
738.035	0.0181302
738.113	0.0182315
738.192	0.0179560
738.270	0.0181133
738.348	0.0181163
738.426	0.0180081
738.504	0.0180362
738.582	0.0180370
738.660	0.0179835
738.738	0.0181171
738.817	0.0179327
738.895	0.0179044
738.973	0.0179207
739.051	0.0178718
739.129	0.0179460
739.207	0.0178020
739.285	0.0178716
739.363	0.0178774
739.442	0.0179030
739.520	0.0177728
739.598	0.0177852
739.676	0.0179198
739.754	0.0179234
739.832	0.0178772
739.910	0.0178246
739.988	0.0178607
740.067	0.0179066
740.145	0.0178415
740.223	0.0180647
740.301	0.0179567
740.379	0.0178622
740.457	0.0178580
740.535	0.0180301
740.613	0.0180840
740.692	0.0179636
740.770	0.0180297
740.848	0.0180955
740.926	0.0181059
741.004	0.0181422
741.082	0.0182439
741.160	0.0183275
741.238	0.0183037
741.317	0.0183507
741.395	0.0183325
741.473	0.0184710
741.551	0.0184879
741.629	0.0184539
741.707	0.0183762
741.785	0.0184446
741.863	0.0184356
741.942	0.0186185
742.020	0.0185271
742.098	0.0184561
742.176	0.0184206
742.254	0.0184118
742.332	0.0184531
742.410	0.0185494
742.488	0.0184239
742.567	0.0182828
742.645	0.0185010
742.723	0.0184539
742.801	0.0182810
742.879	0.0183643
742.957	0.0183642
743.035	0.0183540
743.113	0.0182404
743.192	0.0183881
743.270	0.0183451
743.348	0.0183706
743.426	0.0183732
743.504	0.0182785
743.582	0.0183709
743.660	0.0182785
743.738	0.0182811
743.817	0.0183820
743.895	0.0182129
743.973	0.0181445
744.051	0.0184508
744.129	0.0181896
744.207	0.0181838
744.285	0.0182638
744.363	0.0180875
744.442	0.0179403
744.520	0.0178616
744.598	0.0179536
744.676	0.0177824
744.754	0.0178301
744.832	0.0177106
744.910	0.0177348
744.988	0.0177921
745.067	0.0176997
745.145	0.0176951
745.223	0.0178323
745.301	0.0177518
745.379	0.0178265
745.457	0.0177007
745.535	0.0179221
745.613	0.0178916
745.692	0.0178163
745.770	0.0179337
745.848	0.0180129
745.926	0.0180840
746.004	0.0182005
746.082	0.0180781
746.160	0.0182153
746.238	0.0182773
746.317	0.0182571
746.395	0.0184116
746.473	0.0181866
746.551	0.0182489
746.629	0.0182893
746.707	0.0184782
746.785	0.0183813
746.863	0.0184110
746.942	0.0183096
747.020	0.0184480
747.098	0.0184732
747.176	0.0183121
747.254	0.0183970
747.332	0.0183675
747.410	0.0181499
747.488	0.0182101
747.567	0.0181206
747.645	0.0182161
747.723	0.0180309
747.801	0.0179846
747.879	0.0179800
747.957	0.0180660
748.035	0.0180485
748.113	0.0180454
748.192	0.0179393
748.270	0.0178573
748.348	0.0180274
748.426	0.0179224
748.504	0.0180500
748.582	0.0179897
748.660	0.0179025
748.738	0.0181210
748.817	0.0182092
748.895	0.0180319
748.973	0.0181062
749.051	0.0181595
749.129	0.0181276
749.207	0.0180512
749.285	0.0180511
749.363	0.0181434
749.442	0.0180875
749.520	0.0180380
749.598	0.0180614
749.676	0.0180431
749.754	0.0180890
749.832	0.0181219
749.910	0.0181168
749.988	0.0181588
750.067	0.0182217
750.145	0.0181399
750.223	0.0180346
750.301	0.0181280
750.379	0.0181760
750.457	0.0182705
750.535	0.0181055
750.613	0.0181577
750.692	0.0182742
750.770	0.0182437
750.848	0.0182127
750.926	0.0182648
751.004	0.0181803
751.082	0.0180999
751.160	0.0181419
751.238	0.0183147
751.317	0.0181703
751.395	0.0181310
751.473	0.0181874
751.551	0.0181529
751.629	0.0180634
751.707	0.0180128
751.785	0.0180087
751.863	0.0179891
751.942	0.0179022
752.020	0.0178567
752.098	0.0180645
752.176	0.0178116
752.254	0.0177473
752.332	0.0179406
752.410	0.0179867
752.488	0.0178384
752.567	0.0178036
752.645	0.0179015
752.723	0.0178278
752.801	0.0177830
752.879	0.0177962
752.957	0.0177954
753.035	0.0178701
753.113	0.0179614
753.192	0.0180077
753.270	0.0180002
753.348	0.0180672
753.426	0.0181548
753.504	0.0180492
753.582	0.0180404
753.660	0.0181821
753.738	0.0181050
753.817	0.0180077
753.895	0.0181630
753.973	0.0181654
754.051	0.0181667
754.129	0.0181890
754.207	0.0181281
754.285	0.0181398
754.363	0.0181594
754.442	0.0181774
754.520	0.0181999
754.598	0.0180835
754.676	0.0182329
754.754	0.0180872
754.832	0.0180448
754.910	0.0180267
754.988	0.0181379
755.067	0.0182013
755.145	0.0182659
755.223	0.0181551
755.301	0.0180689
755.379	0.0182542
755.457	0.0182198
755.535	0.0183238
755.613	0.0182026
755.692	0.0180881
755.770	0.0182738
755.848	0.0182033
755.926	0.0183578
756.004	0.0181606
756.082	0.0181868
756.160	0.0183421
756.238	0.0183534
756.317	0.0183566
756.395	0.0182785
756.473	0.0181997
756.551	0.0182789
756.629	0.0182488
756.707	0.0182195
756.785	0.0181849
756.863	0.0181811
756.942	0.0182128
757.020	0.0181464
757.098	0.0182504
757.176	0.0182792
757.254	0.0182565
757.332	0.0182442
757.410	0.0183373
757.488	0.0181060
757.567	0.0181627
757.645	0.0182202
757.723	0.0182778
757.801	0.0183181
757.879	0.0181791
757.957	0.0181590
758.035	0.0181490
758.113	0.0182353
758.192	0.0180885
758.270	0.0178684
758.348	0.0179933
758.426	0.0179777
758.504	0.0179251
758.582	0.0179532
758.660	0.0178693
758.738	0.0179176
758.817	0.0180046
758.895	0.0178103
758.973	0.0179889
759.051	0.0179478
759.129	0.0178229
759.207	0.0179182
759.285	0.0179301
759.363	0.0179762
759.442	0.0179691
759.520	0.0179438
759.598	0.0180756
759.676	0.0178189
759.754	0.0179264
759.832	0.0178854
759.910	0.0179419
759.988	0.0180428
760.067	0.0180579
760.145	0.0178091
760.223	0.0180821
760.301	0.0180544
760.379	0.0180631
760.457	0.0179203
760.535	0.0181239
760.613	0.0181463
760.692	0.0180643
760.770	0.0180340
760.848	0.0180942
760.926	0.0179691
761.004	0.0179794
761.082	0.0179964
761.160	0.0180186
761.238	0.0178828
761.317	0.0179835
761.395	0.0180280
761.473	0.0180225
761.551	0.0179595
761.629	0.0179188
761.707	0.0179625
761.785	0.0178355
761.863	0.0180059
761.942	0.0179941
762.020	0.0180860
762.098	0.0180540
762.176	0.0181943
762.254	0.0179902
762.332	0.0180792
762.410	0.0180851
762.488	0.0180187
762.567	0.0179537
762.645	0.0179623
762.723	0.0180680
762.801	0.0181174
762.879	0.0180285
762.957	0.0179437
763.035	0.0180507
763.113	0.0181213
763.192	0.0179677
763.270	0.0180589
763.348	0.0181305
763.426	0.0180249
763.504	0.0181121
763.582	0.0180666
763.660	0.0180249
763.738	0.0180953
763.817	0.0183377
763.895	0.0182117
763.973	0.0182685
764.051	0.0183521
764.129	0.0183871
764.207	0.0183597
764.285	0.0183221
764.363	0.0184562
764.442	0.0185017
764.520	0.0184668
764.598	0.0183533
764.676	0.0184081
764.754	0.0184016
764.832	0.0184766
764.910	0.0183823
764.988	0.0184251
765.067	0.0183961
765.145	0.0183412
765.223	0.0182472
765.301	0.0183936
765.379	0.0183755
765.457	0.0182690
765.535	0.0182700
765.613	0.0182299
765.692	0.0182356
765.770	0.0182769
765.848	0.0183238
765.926	0.0182199
766.004	0.0182484
766.082	0.0182693
766.160	0.0182707
766.238	0.0182642
766.317	0.0182166
766.395	0.0181953
766.473	0.0181779
766.551	0.0183138
766.629	0.0183869
766.707	0.0182661
766.785	0.0181566
766.863	0.0181248
766.942	0.0182142
767.020	0.0182025
767.098	0.0182295
767.176	0.0180257
767.254	0.0181189
767.332	0.0178944
767.410	0.0180036
767.488	0.0180173
767.567	0.0179116
767.645	0.0179858
767.723	0.0178475
767.801	0.0178960
767.879	0.0178521
767.957	0.0178530
768.035	0.0178744
768.113	0.0179516
768.192	0.0177885
768.270	0.0176990
768.348	0.0177355
768.426	0.0178779
768.504	0.0176582
768.582	0.0177859
768.660	0.0177656
768.738	0.0178365
768.817	0.0179694
768.895	0.0180179
768.973	0.0177899
769.051	0.0178906
769.129	0.0178513
769.207	0.0180072
769.285	0.0179371
769.363	0.0179144
769.442	0.0179412
769.520	0.0179516
769.598	0.0179640
769.676	0.0179633
769.754	0.0178014
769.832	0.0179061
769.910	0.0178238
769.988	0.0179760
770.067	0.0179848
770.145	0.0178467
770.223	0.0178621
770.301	0.0178022
770.379	0.0179197
770.457	0.0178548
770.535	0.0179434
770.613	0.0178758
770.692	0.0178806
770.770	0.0179422
770.848	0.0181815
770.926	0.0180093
771.004	0.0181433
771.082	0.0183414
771.160	0.0182058
771.238	0.0182856
771.317	0.0183395
771.395	0.0181602
771.473	0.0183381
771.551	0.0183730
771.629	0.0182212
771.707	0.0183076
771.785	0.0185249
771.863	0.0182664
771.942	0.0181629
772.020	0.0182538
772.098	0.0181528
772.176	0.0182100
772.254	0.0182454
772.332	0.0181232
772.410	0.0182057
772.488	0.0182516
772.567	0.0182094
772.645	0.0181780
772.723	0.0181558
772.801	0.0183618
772.879	0.0183642
772.957	0.0182423
773.035	0.0184171
773.113	0.0183814
773.192	0.0182761
773.270	0.0183169
773.348	0.0183048
773.426	0.0182562
773.504	0.0183156
773.582	0.0182343
773.660	0.0180003
773.738	0.0180242
773.817	0.0179973
773.895	0.0181026
773.973	0.0179295
774.051	0.0179364
774.129	0.0178076
774.207	0.0178391
774.285	0.0178745
774.363	0.0178493
774.442	0.0177415
774.520	0.0178815
774.598	0.0178097
774.676	0.0178162
774.754	0.0178584
774.832	0.0178206
774.910	0.0178941
774.988	0.0179409
775.067	0.0178686
775.145	0.0179759
775.223	0.0181111
775.301	0.0179765
775.379	0.0180151
775.457	0.0180085
775.535	0.0180772
775.613	0.0180649
775.692	0.0181059
775.770	0.0181707
775.848	0.0180220
775.926	0.0181620
776.004	0.0180173
776.082	0.0180812
776.160	0.0181255
776.238	0.0180482
776.317	0.0181050
776.395	0.0178136
776.473	0.0179244
776.551	0.0179150
776.629	0.0179172
776.707	0.0178548
776.785	0.0179958
776.863	0.0177705
776.942	0.0178660
777.020	0.0177722
777.098	0.0178280
777.176	0.0180273
777.254	0.0177145
777.332	0.0178851
777.410	0.0179861
777.488	0.0178558
777.567	0.0178979
777.645	0.0179111
777.723	0.0179874
777.801	0.0178885
777.879	0.0178828
777.957	0.0179064
778.035	0.0179158
778.113	0.0178994
778.192	0.0180232
778.270	0.0179087
778.348	0.0179375
778.426	0.0179134
778.504	0.0178014
778.582	0.0177720
778.660	0.0180039
778.738	0.0179510
778.817	0.0178742
778.895	0.0178796
778.973	0.0179890
779.051	0.0179169
779.129	0.0180099
779.207	0.0179604
779.285	0.0180990
779.363	0.0182191
779.442	0.0180099
779.520	0.0180748
779.598	0.0180885
779.676	0.0183075
779.754	0.0182642
779.832	0.0181205
779.910	0.0181693
779.988	0.0181654
780.067	0.0182324
780.145	0.0181638
780.223	0.0180876
780.301	0.0182124
780.379	0.0181516
780.457	0.0181792
780.535	0.0181117
780.613	0.0180853
780.692	0.0180708
780.770	0.0179518
780.848	0.0180333
780.926	0.0179899
781.004	0.0178648
781.082	0.0178246
781.160	0.0177518
781.238	0.0178767
781.317	0.0179357
781.395	0.0178209
781.473	0.0177190
781.551	0.0177428
781.629	0.0177672
781.707	0.0178494
781.785	0.0177046
781.863	0.0177230
781.942	0.0177869
782.020	0.0176672
782.098	0.0176006
782.176	0.0177278
782.254	0.0177607
782.332	0.0176586
782.410	0.0176822
782.488	0.0177074
782.567	0.0177232
782.645	0.0177917
782.723	0.0178422
782.801	0.0177267
782.879	0.0178625
782.957	0.0179339
783.035	0.0179703
783.113	0.0180590
783.192	0.0178902
783.270	0.0179986
783.348	0.0180999
783.426	0.0181264
783.504	0.0179568
783.582	0.0180848
783.660	0.0181416
783.738	0.0180751
783.817	0.0181184
783.895	0.0181071
783.973	0.0181656
784.051	0.0181245
784.129	0.0181274
784.207	0.0181702
784.285	0.0181879
784.363	0.0182403
784.442	0.0180980
784.520	0.0181601
784.598	0.0182478
784.676	0.0182066
784.754	0.0182787
784.832	0.0181721
784.910	0.0182857
784.988	0.0182747
785.067	0.0184853
785.145	0.0182532
785.223	0.0183212
785.301	0.0183601
785.379	0.0182941
785.457	0.0181995
785.535	0.0183762
785.613	0.0183257
785.692	0.0182076
785.770	0.0183044
785.848	0.0182928
785.926	0.0182301
786.004	0.0182410
786.082	0.0183429
786.160	0.0184028
786.238	0.0183569
786.317	0.0182594
786.395	0.0182944
786.473	0.0182785
786.551	0.0181805
786.629	0.0182503
786.707	0.0183828
786.785	0.0183108
786.863	0.0183053
786.942	0.0181499
787.020	0.0183392
787.098	0.0182415
787.176	0.0181892
787.254	0.0181586
787.332	0.0181535
787.410	0.0182086
787.488	0.0181531
787.567	0.0180693
787.645	0.0182095
787.723	0.0181678
787.801	0.0179449
787.879	0.0180305
787.957	0.0181769
788.035	0.0180956
788.113	0.0180701
788.192	0.0180103
788.270	0.0181224
788.348	0.0178692
788.426	0.0179245
788.504	0.0178506
788.582	0.0178268
788.660	0.0178982
788.738	0.0178734
788.817	0.0178693
788.895	0.0177856
788.973	0.0178496
789.051	0.0178145
789.129	0.0178526
789.207	0.0179161
789.285	0.0177457
789.363	0.0177742
789.442	0.0176588
789.520	0.0178328
789.598	0.0176972
789.676	0.0178515
789.754	0.0178458
789.832	0.0178244
789.910	0.0178989
789.988	0.0178273
790.067	0.0176773
790.145	0.0179099
790.223	0.0177251
790.301	0.0178635
790.379	0.0179456
790.457	0.0179781
790.535	0.0179818
790.613	0.0179839
790.692	0.0180024
790.770	0.0179148
790.848	0.0179250
790.926	0.0179802
791.004	0.0178659
791.082	0.0180888
791.160	0.0180663
791.238	0.0180415
791.317	0.0181829
791.395	0.0179940
791.473	0.0180640
791.551	0.0181820
791.629	0.0181551
791.707	0.0181377
791.785	0.0180595
791.863	0.0181664
791.942	0.0181039
792.020	0.0181393
792.098	0.0182475
792.176	0.0181660
792.254	0.0180423
792.332	0.0181158
792.410	0.0181347
792.488	0.0181046
792.567	0.0181287
792.645	0.0180885
792.723	0.0181236
792.801	0.0180195
792.879	0.0180452
792.957	0.0180473
793.035	0.0181837
793.113	0.0181104
793.192	0.0180866
793.270	0.0182062
793.348	0.0182767
793.426	0.0181556
793.504	0.0180863
793.582	0.0181552
793.660	0.0182434
793.738	0.0182277
793.817	0.0181230
793.895	0.0182069
793.973	0.0181491
794.051	0.0181497
794.129	0.0180510
794.207	0.0181346
794.285	0.0180716
794.363	0.0180833
794.442	0.0182426
794.520	0.0180427
794.598	0.0181153
794.676	0.0181356
794.754	0.0181972
794.832	0.0181083
794.910	0.0180725
794.988	0.0181597
795.067	0.0181661
795.145	0.0182864
795.223	0.0181322
795.301	0.0182449
795.379	0.0181759
795.457	0.0181795
795.535	0.0181277
795.613	0.0180573
795.692	0.0181008
795.770	0.0181188
795.848	0.0178671
795.926	0.0179562
796.004	0.0179913
796.082	0.0179995
796.160	0.0179549
796.238	0.0179505
796.317	0.0178554
796.395	0.0179868
796.473	0.0178500
796.551	0.0179312
796.629	0.0178525
796.707	0.0179398
796.785	0.0178947
796.863	0.0177934
796.942	0.0179681
797.020	0.0178896
797.098	0.0177955
797.176	0.0177785
797.254	0.0178873
797.332	0.0179287
797.410	0.0177794
797.488	0.0178817
797.567	0.0179696
797.645	0.0178350
797.723	0.0177847
797.801	0.0177274
797.879	0.0179848
797.957	0.0180532
798.035	0.0178169
798.113	0.0178580
798.192	0.0179044
798.270	0.0179745
798.348	0.0180148
798.426	0.0179959
798.504	0.0179475
798.582	0.0180158
798.660	0.0180080
798.738	0.0180346
798.817	0.0181255
798.895	0.0179570
798.973	0.0181242
799.051	0.0181219
799.129	0.0179973
799.207	0.0179740
799.285	0.0180344
799.363	0.0181905
799.442	0.0181093
799.520	0.0181920
799.598	0.0180574
799.676	0.0181292
799.754	0.0180509
799.832	0.0180212
799.910	0.0181817
799.988	0.0182690
800.067	0.0180547
800.145	0.0181338
800.223	0.0181535
800.301	0.0181752
800.379	0.0181364
800.457	0.0181715
800.535	0.0182829
800.613	0.0182742
800.692	0.0182029
800.770	0.0181847
800.848	0.0183584
800.926	0.0182822
801.004	0.0183463
801.082	0.0182946
801.160	0.0182337
801.238	0.0184075
801.317	0.0184045
801.395	0.0182312
801.473	0.0183042
801.551	0.0183151
801.629	0.0183145
801.707	0.0182365
801.785	0.0183605
801.863	0.0181683
801.942	0.0181858
802.020	0.0183836
802.098	0.0182335
802.176	0.0181558
802.254	0.0181213
802.332	0.0182508
802.410	0.0183292
802.488	0.0181574
802.567	0.0181269
802.645	0.0181282
802.723	0.0180568
802.801	0.0179913
802.879	0.0179031
802.957	0.0180748
803.035	0.0180993
803.113	0.0179354
803.192	0.0180566
803.270	0.0179579
803.348	0.0179508
803.426	0.0179839
803.504	0.0178841
803.582	0.0178701
803.660	0.0180451
803.738	0.0179240
803.817	0.0179602
803.895	0.0180270
803.973	0.0179718
804.051	0.0179944
804.129	0.0180067
804.207	0.0180447
804.285	0.0179381
804.363	0.0179771
804.442	0.0180949
804.520	0.0181815
804.598	0.0180145
804.676	0.0181701
804.754	0.0180993
804.832	0.0181183
804.910	0.0180776
804.988	0.0181750
805.067	0.0181436
805.145	0.0181256
805.223	0.0181058
805.301	0.0180409
805.379	0.0181834
805.457	0.0181739
805.535	0.0179642
805.613	0.0182670
805.692	0.0183504
805.770	0.0182378
805.848	0.0183669
805.926	0.0182767
806.004	0.0183502
806.082	0.0183279
806.160	0.0183316
806.238	0.0183610
806.317	0.0183215
806.395	0.0184417
806.473	0.0184910
806.551	0.0184902
806.629	0.0184431
806.707	0.0184071
806.785	0.0185714
806.863	0.0185684
806.942	0.0183745
807.020	0.0184340
807.098	0.0185893
807.176	0.0185076
807.254	0.0183099
807.332	0.0181769
807.410	0.0183291
807.488	0.0183383
807.567	0.0184525
807.645	0.0183245
807.723	0.0183363
807.801	0.0182997
807.879	0.0181103
807.957	0.0182051
808.035	0.0183501
808.113	0.0182919
808.192	0.0182108
808.270	0.0180793
808.348	0.0182226
808.426	0.0182101
808.504	0.0180431
808.582	0.0181908
808.660	0.0182088
808.738	0.0180830
808.817	0.0181542
808.895	0.0182408
808.973	0.0180717
809.051	0.0180994
809.129	0.0180804
809.207	0.0180790
809.285	0.0180850
809.363	0.0180812
809.442	0.0182323
809.520	0.0180272
809.598	0.0181667
809.676	0.0183380
809.754	0.0181012
809.832	0.0180238
809.910	0.0180148
809.988	0.0180583
810.067	0.0181654
810.145	0.0180927
810.223	0.0180592
810.301	0.0180898
810.379	0.0180049
810.457	0.0179108
810.535	0.0179629
810.613	0.0179507
810.692	0.0177615
810.770	0.0178559
810.848	0.0179837
810.926	0.0178873
811.004	0.0178085
811.082	0.0178787
811.160	0.0179032
811.238	0.0177970
811.317	0.0178829
811.395	0.0179249
811.473	0.0179440
811.551	0.0179030
811.629	0.0179702
811.707	0.0180879
811.785	0.0179562
811.863	0.0179878
811.942	0.0179945
812.020	0.0180318
812.098	0.0180968
812.176	0.0179025
812.254	0.0180480
812.332	0.0181448
812.410	0.0179004
812.488	0.0178687
812.567	0.0181033
812.645	0.0180318
812.723	0.0179916
812.801	0.0179642
812.879	0.0179694
812.957	0.0180148
813.035	0.0179961
813.113	0.0180335
813.192	0.0180588
813.270	0.0180634
813.348	0.0179514
813.426	0.0180018
813.504	0.0181779
813.582	0.0180952
813.660	0.0179753
813.738	0.0179630
813.817	0.0180731
813.895	0.0179750
813.973	0.0180862
814.051	0.0180142
814.129	0.0180127
814.207	0.0180443
814.285	0.0180177
814.363	0.0179938
814.442	0.0181168
814.520	0.0179926
814.598	0.0179682
814.676	0.0179989
814.754	0.0180689
814.832	0.0181866
814.910	0.0181413
814.988	0.0182289
815.067	0.0180466
815.145	0.0180530
815.223	0.0181461
815.301	0.0181818
815.379	0.0180497
815.457	0.0180897
815.535	0.0179606
815.613	0.0180324
815.692	0.0181699
815.770	0.0181489
815.848	0.0180263
815.926	0.0181441
816.004	0.0179002
816.082	0.0179803
816.160	0.0179454
816.238	0.0180627
816.317	0.0179482
816.395	0.0178222
816.473	0.0179334
816.551	0.0178957
816.629	0.0178782
816.707	0.0179308
816.785	0.0179288
816.863	0.0179079
816.942	0.0179590
817.020	0.0179877
817.098	0.0180473
817.176	0.0180187
817.254	0.0180829
817.332	0.0180718
817.410	0.0180385
817.488	0.0181264
817.567	0.0180236
817.645	0.0181521
817.723	0.0180109
817.801	0.0180408
817.879	0.0180761
817.957	0.0181182
818.035	0.0181246
818.113	0.0180488
818.192	0.0180921
818.270	0.0179856
818.348	0.0178951
818.426	0.0179610
818.504	0.0180801
818.582	0.0180753
818.660	0.0180743
818.738	0.0180563
818.817	0.0179719
818.895	0.0179881
818.973	0.0179030
819.051	0.0178271
819.129	0.0179863
819.207	0.0180653
819.285	0.0181434
819.363	0.0180346
819.442	0.0181381
819.520	0.0180296
819.598	0.0179299
819.676	0.0180318
819.754	0.0181110
819.832	0.0181640
819.910	0.0182099
819.988	0.0181734
820.067	0.0180061
820.145	0.0181284
820.223	0.0181147
820.301	0.0180963
820.379	0.0180547
820.457	0.0180749
820.535	0.0181745
820.613	0.0179854
820.692	0.0181545
820.770	0.0180544
820.848	0.0179982
820.926	0.0181210
821.004	0.0180180
821.082	0.0179710
821.160	0.0179681
821.238	0.0180058
821.317	0.0180696
821.395	0.0180381
821.473	0.0180816
821.551	0.0180230
821.629	0.0180810
821.707	0.0178038
821.785	0.0179219
821.863	0.0179097
821.942	0.0178757
822.020	0.0180556
822.098	0.0179572
822.176	0.0180866
822.254	0.0180186
822.332	0.0181480
822.410	0.0179875
822.488	0.0180746
822.567	0.0180344
822.645	0.0181421
822.723	0.0180712
822.801	0.0183613
822.879	0.0182485
822.957	0.0180640
823.035	0.0181884
823.113	0.0182014
823.192	0.0180843
823.270	0.0181689
823.348	0.0180626
823.426	0.0180367
823.504	0.0180854
823.582	0.0180696
823.660	0.0180484
823.738	0.0180302
823.817	0.0181142
823.895	0.0179870
823.973	0.0181338
824.051	0.0180630
824.129	0.0180381
824.207	0.0180230
824.285	0.0180796
824.363	0.0179916
824.442	0.0178870
824.520	0.0180870
824.598	0.0180041
824.676	0.0180271
824.754	0.0179942
824.832	0.0180794
824.910	0.0181590
824.988	0.0181737
825.067	0.0181433
825.145	0.0180820
825.223	0.0181590
825.301	0.0181318
825.379	0.0181467
825.457	0.0180163
825.535	0.0180963
825.613	0.0182243
825.692	0.0183370
825.770	0.0182518
825.848	0.0182399
825.926	0.0182978
826.004	0.0183849
826.082	0.0182298
826.160	0.0181922
826.238	0.0181348
826.317	0.0180921
826.395	0.0182169
826.473	0.0180835
826.551	0.0181403
826.629	0.0181248
826.707	0.0181817
826.785	0.0180904
826.863	0.0181071
826.942	0.0181458
827.020	0.0180996
827.098	0.0181359
827.176	0.0180749
827.254	0.0180221
827.332	0.0181330
827.410	0.0181431
827.488	0.0180414
827.567	0.0180569
827.645	0.0182294
827.723	0.0181434
827.801	0.0179733
827.879	0.0181068
827.957	0.0182130
828.035	0.0182258
828.113	0.0182426
828.192	0.0180644
828.270	0.0181460
828.348	0.0182809
828.426	0.0180798
828.504	0.0181386
828.582	0.0181654
828.660	0.0179964
828.738	0.0180533
828.817	0.0181624
828.895	0.0181983
828.973	0.0181649
829.051	0.0181285
829.129	0.0180782
829.207	0.0182047
829.285	0.0181964
829.363	0.0181603
829.442	0.0181888
829.520	0.0182137
829.598	0.0181721
829.676	0.0181386
829.754	0.0182238
829.832	0.0181812
829.910	0.0180884
829.988	0.0181201
830.067	0.0183183
830.145	0.0183117
830.223	0.0181921
830.301	0.0182223
830.379	0.0181168
830.457	0.0181526
830.535	0.0182176
830.613	0.0182841
830.692	0.0181564
830.770	0.0184680
830.848	0.0182242
830.926	0.0182335
831.004	0.0182464
831.082	0.0182539
831.160	0.0182105
831.238	0.0183193
831.317	0.0183862
831.395	0.0182134
831.473	0.0184070
831.551	0.0182290
831.629	0.0181879
831.707	0.0181797
831.785	0.0179439
831.863	0.0180637
831.942	0.0181556
832.020	0.0181818
832.098	0.0180751
832.176	0.0181284
832.254	0.0180853
832.332	0.0181792
832.410	0.0181187
832.488	0.0179587
832.567	0.0180935
832.645	0.0182442
832.723	0.0181094
832.801	0.0181078
832.879	0.0180257
832.957	0.0180546
833.035	0.0180298
833.113	0.0181760
833.192	0.0180428
833.270	0.0181318
833.348	0.0180707
833.426	0.0179848
833.504	0.0179688
833.582	0.0181816
833.660	0.0181458
833.738	0.0180568
833.817	0.0180492
833.895	0.0179928
833.973	0.0179694
834.051	0.0179787
834.129	0.0177790
834.207	0.0178845
834.285	0.0180596
834.363	0.0180758
834.442	0.0179800
834.520	0.0179749
834.598	0.0178490
834.676	0.0179610
834.754	0.0178088
834.832	0.0178316
834.910	0.0178965
834.988	0.0178538
835.067	0.0179307
835.145	0.0178801
835.223	0.0178086
835.301	0.0178177
835.379	0.0177889
835.457	0.0178669
835.535	0.0177832
835.613	0.0178040
835.692	0.0177648
835.770	0.0179044
835.848	0.0177876
835.926	0.0179082
836.004	0.0179871
836.082	0.0179346
836.160	0.0179983
836.238	0.0178778
836.317	0.0177731
836.395	0.0178838
836.473	0.0179848
836.551	0.0179425
836.629	0.0178946
836.707	0.0180886
836.785	0.0179760
836.863	0.0180475
836.942	0.0180025
837.020	0.0182085
837.098	0.0180859
837.176	0.0179937
837.254	0.0181384
837.332	0.0180736
837.410	0.0180389
837.488	0.0180564
837.567	0.0181284
837.645	0.0181575
837.723	0.0182086
837.801	0.0181703
837.879	0.0182045
837.957	0.0182581
838.035	0.0182435
838.113	0.0181274
838.192	0.0182633
838.270	0.0182246
838.348	0.0181934
838.426	0.0181994
838.504	0.0183149
838.582	0.0182825
838.660	0.0181735
838.738	0.0181300
838.817	0.0182270
838.895	0.0181172
838.973	0.0182766
839.051	0.0182832
839.129	0.0182960
839.207	0.0181023
839.285	0.0179939
839.363	0.0181965
839.442	0.0182195
839.520	0.0181551
839.598	0.0181070
839.676	0.0182041
839.754	0.0180137
839.832	0.0182925
839.910	0.0181893
839.988	0.0182230
840.067	0.0182053
840.145	0.0180457
840.223	0.0182903
840.301	0.0182432
840.379	0.0181887
840.457	0.0181927
840.535	0.0181803
840.613	0.0180497
840.692	0.0182661
840.770	0.0181400
840.848	0.0182671
840.926	0.0180843
841.004	0.0179752
841.082	0.0180865
841.160	0.0180761
841.238	0.0180258
841.317	0.0179424
841.395	0.0178497
841.473	0.0179538
841.551	0.0181156
841.629	0.0178964
841.707	0.0178754
841.785	0.0177740
841.863	0.0179300
841.942	0.0180059
842.020	0.0179711
842.098	0.0178586
842.176	0.0179433
842.254	0.0178709
842.332	0.0177105
842.410	0.0178558
842.488	0.0179780
842.567	0.0177997
842.645	0.0177901
842.723	0.0179478
842.801	0.0178583
842.879	0.0178566
842.957	0.0177943
843.035	0.0179626
843.113	0.0178514
843.192	0.0178458
843.270	0.0178928
843.348	0.0178488
843.426	0.0179655
843.504	0.0178836
843.582	0.0180882
843.660	0.0180425
843.738	0.0180262
843.817	0.0181315
843.895	0.0180727
843.973	0.0180608
844.051	0.0179855
844.129	0.0181358
844.207	0.0181224
844.285	0.0179610
844.363	0.0181451
844.442	0.0181584
844.520	0.0181261
844.598	0.0180302
844.676	0.0182387
844.754	0.0180898
844.832	0.0181497
844.910	0.0182608
844.988	0.0180952
845.067	0.0182693
845.145	0.0182787
845.223	0.0181951
845.301	0.0181837
845.379	0.0182127
845.457	0.0182046
845.535	0.0182138
845.613	0.0182486
845.692	0.0181847
845.770	0.0180008
845.848	0.0181834
845.926	0.0181705
846.004	0.0182325
846.082	0.0181203
846.160	0.0181059
846.238	0.0182965
846.317	0.0183068
846.395	0.0181216
846.473	0.0182097
846.551	0.0184027
846.629	0.0182050
846.707	0.0182433
846.785	0.0183305
846.863	0.0181908
846.942	0.0184142
847.020	0.0182169
847.098	0.0186279
847.176	0.0183459
847.254	0.0182752
847.332	0.0182536
847.410	0.0183402
847.488	0.0182631
847.567	0.0182520
847.645	0.0182639
847.723	0.0182171
847.801	0.0183609
847.879	0.0183730
847.957	0.0183482
848.035	0.0183102
848.113	0.0183345
848.192	0.0183210
848.270	0.0182480
848.348	0.0181824
848.426	0.0184074
848.504	0.0182793
848.582	0.0182659
848.660	0.0183575
848.738	0.0182500
848.817	0.0182671
848.895	0.0184054
848.973	0.0183398
849.051	0.0183896
849.129	0.0182916
849.207	0.0182185
849.285	0.0183713
849.363	0.0182126
849.442	0.0182948
849.520	0.0184591
849.598	0.0183310
849.676	0.0183471
849.754	0.0182501
849.832	0.0183523
849.910	0.0184012
849.988	0.0183482
850.067	0.0182452
850.145	0.0180613
850.223	0.0181693
850.301	0.0181946
850.379	0.0181670
850.457	0.0181030
850.535	0.0182459
850.613	0.0180630
850.692	0.0179013
850.770	0.0179832
850.848	0.0181060
850.926	0.0178854
851.004	0.0180640
851.082	0.0179042
851.160	0.0179752
851.238	0.0179276
851.317	0.0179731
851.395	0.0179523
851.473	0.0178723
851.551	0.0178160
851.629	0.0178362
851.707	0.0177467
851.785	0.0178124
851.863	0.0178175
851.942	0.0179124
852.020	0.0177626
852.098	0.0179315
852.176	0.0179656
852.254	0.0178362
852.332	0.0179018
852.410	0.0177342
852.488	0.0177304
852.567	0.0179645
852.645	0.0180006
852.723	0.0179835
852.801	0.0179096
852.879	0.0179768
852.957	0.0179472
853.035	0.0178217
853.113	0.0179336
853.192	0.0179726
853.270	0.0179089
853.348	0.0178919
853.426	0.0178989
853.504	0.0179264
853.582	0.0180544
853.660	0.0179332
853.738	0.0179794
853.817	0.0179627
853.895	0.0179547
853.973	0.0179066
854.051	0.0179291
854.129	0.0178215
854.207	0.0179671
854.285	0.0179643
854.363	0.0178082
854.442	0.0178761
854.520	0.0178500
854.598	0.0178692
854.676	0.0180392
854.754	0.0179890
854.832	0.0178348
854.910	0.0179397
854.988	0.0179234
855.067	0.0177645
855.145	0.0179688
855.223	0.0179459
855.301	0.0181007
855.379	0.0181133
855.457	0.0177864
855.535	0.0178856
855.613	0.0178918
855.692	0.0179169
855.770	0.0179736
855.848	0.0179763
855.926	0.0179705
856.004	0.0179432
856.082	0.0180082
856.160	0.0180029
856.238	0.0179883
856.317	0.0178575
856.395	0.0177818
856.473	0.0179230
856.551	0.0179851
856.629	0.0178835
856.707	0.0178903
856.785	0.0181147
856.863	0.0180071
856.942	0.0179127
857.020	0.0178024
857.098	0.0179041
857.176	0.0178430
857.254	0.0178977
857.332	0.0179224
857.410	0.0178620
857.488	0.0178504
857.567	0.0179677
857.645	0.0179485
857.723	0.0179473
857.801	0.0178906
857.879	0.0178650
857.957	0.0178716
858.035	0.0178642
858.113	0.0179637
858.192	0.0179920
858.270	0.0179234
858.348	0.0179332
858.426	0.0178023
858.504	0.0178356
858.582	0.0180528
858.660	0.0178867
858.738	0.0178923
858.817	0.0179372
858.895	0.0180944
858.973	0.0180032
859.051	0.0180018
859.129	0.0178905
859.207	0.0178705
859.285	0.0180678
859.363	0.0180305
859.442	0.0179549
859.520	0.0179817
859.598	0.0181306
859.676	0.0181138
859.754	0.0180668
859.832	0.0181030
859.910	0.0181152
859.988	0.0181403
860.067	0.0182346
860.145	0.0183055
860.223	0.0181196
860.301	0.0182442
860.379	0.0182114
860.457	0.0182748
860.535	0.0183726
860.613	0.0182785
860.692	0.0181962
860.770	0.0182858
860.848	0.0181644
860.926	0.0182733
861.004	0.0182113
861.082	0.0181253
861.160	0.0181521
861.238	0.0182501
861.317	0.0182139
861.395	0.0181736
861.473	0.0183166
861.551	0.0181624
861.629	0.0182181
861.707	0.0182417
861.785	0.0181367
861.863	0.0182111
861.942	0.0182920
862.020	0.0182395
862.098	0.0182744
862.176	0.0182473
862.254	0.0182541
862.332	0.0180145
862.410	0.0183804
862.488	0.0182349
862.567	0.0182254
862.645	0.0180832
862.723	0.0182520
862.801	0.0182512
862.879	0.0181739
862.957	0.0181837
863.035	0.0183176
863.113	0.0181519
863.192	0.0182413
863.270	0.0182841
863.348	0.0182095
863.426	0.0182185
863.504	0.0182535
863.582	0.0182800
863.660	0.0182483
863.738	0.0180196
863.817	0.0181633
863.895	0.0183511
863.973	0.0182455
864.051	0.0181707
864.129	0.0181026
864.207	0.0181187
864.285	0.0182559
864.363	0.0181100
864.442	0.0180634
864.520	0.0181445
864.598	0.0181682
864.676	0.0181609
864.754	0.0179573
864.832	0.0180375
864.910	0.0180152
864.988	0.0180507
865.067	0.0181943
865.145	0.0180394
865.223	0.0180617
865.301	0.0181667
865.379	0.0182156
865.457	0.0179918
865.535	0.0180807
865.613	0.0181416
865.692	0.0181960
865.770	0.0180605
865.848	0.0180630
865.926	0.0180634
866.004	0.0182564
866.082	0.0181570
866.160	0.0182805
866.238	0.0181608
866.317	0.0182758
866.395	0.0182243
866.473	0.0181757
866.551	0.0182478
866.629	0.0181584
866.707	0.0181729
866.785	0.0183065
866.863	0.0183197
866.942	0.0181851
867.020	0.0183411
867.098	0.0182097
867.176	0.0182084
867.254	0.0182347
867.332	0.0181110
867.410	0.0181571
867.488	0.0182622
867.567	0.0181961
867.645	0.0180986
867.723	0.0181732
867.801	0.0182461
867.879	0.0181665
867.957	0.0181104
868.035	0.0181380
868.113	0.0182043
868.192	0.0184224
868.270	0.0182093
868.348	0.0181297
868.426	0.0180228
868.504	0.0179926
868.582	0.0181359
868.660	0.0180935
868.738	0.0180995
868.817	0.0181375
868.895	0.0180727
868.973	0.0182170
869.051	0.0181079
869.129	0.0181528
869.207	0.0181099
869.285	0.0179408
869.363	0.0179514
869.442	0.0180894
869.520	0.0181039
869.598	0.0180413
869.676	0.0179991
869.754	0.0181429
869.832	0.0181151
869.910	0.0182140
869.988	0.0182062
870.067	0.0181822
870.145	0.0181798
870.223	0.0181457
870.301	0.0181666
870.379	0.0180506
870.457	0.0181369
870.535	0.0182994
870.613	0.0181460
870.692	0.0182932
870.770	0.0182419
870.848	0.0182868
870.926	0.0182375
871.004	0.0181992
871.082	0.0182146
871.160	0.0182658
871.238	0.0183259
871.317	0.0182792
871.395	0.0183943
871.473	0.0183283
871.551	0.0182683
871.629	0.0182133
871.707	0.0184338
871.785	0.0183826
871.863	0.0182581
871.942	0.0182257
872.020	0.0182397
872.098	0.0183158
872.176	0.0182724
872.254	0.0182609
872.332	0.0182574
872.410	0.0180979
872.488	0.0181583
872.567	0.0182521
872.645	0.0180484
872.723	0.0183083
872.801	0.0180203
872.879	0.0180352
872.957	0.0180952
873.035	0.0179774
873.113	0.0180378
873.192	0.0179705
873.270	0.0180084
873.348	0.0179623
873.426	0.0179828
873.504	0.0179758
873.582	0.0179694
873.660	0.0180486
873.738	0.0178869
873.817	0.0177522
873.895	0.0178788
873.973	0.0178296
874.051	0.0179390
874.129	0.0179974
874.207	0.0177997
874.285	0.0179280
874.363	0.0179214
874.442	0.0178064
874.520	0.0179036
874.598	0.0178413
874.676	0.0179226
874.754	0.0179777
874.832	0.0178910
874.910	0.0179431
874.988	0.0178851
875.067	0.0179684
875.145	0.0181823
875.223	0.0178963
875.301	0.0178407
875.379	0.0178529
875.457	0.0180679
875.535	0.0179923
875.613	0.0179282
875.692	0.0178539
875.770	0.0180169
875.848	0.0180302
875.926	0.0178748
876.004	0.0180079
876.082	0.0177957
876.160	0.0179496
876.238	0.0179768
876.317	0.0177586
876.395	0.0179349
876.473	0.0179198
876.551	0.0178191
876.629	0.0178400
876.707	0.0179960
876.785	0.0180305
876.863	0.0178719
876.942	0.0180816
877.020	0.0180605
877.098	0.0180758
877.176	0.0179129
877.254	0.0180041
877.332	0.0180747
877.410	0.0179237
877.488	0.0179879
877.567	0.0180102
877.645	0.0179911
877.723	0.0179624
877.801	0.0179521
877.879	0.0179384
877.957	0.0179963
878.035	0.0180306
878.113	0.0178538
878.192	0.0177265
878.270	0.0178996
878.348	0.0179465
878.426	0.0178476
878.504	0.0179736
878.582	0.0179724
878.660	0.0179008
878.738	0.0180988
878.817	0.0181149
878.895	0.0181990
878.973	0.0180523
879.051	0.0179613
879.129	0.0180500
879.207	0.0181097
879.285	0.0182304
879.363	0.0181452
879.442	0.0180923
879.520	0.0181096
879.598	0.0180774
879.676	0.0181148
879.754	0.0181969
879.832	0.0182906
879.910	0.0180989
879.988	0.0181828
880.067	0.0181300
880.145	0.0181124
880.223	0.0180832
880.301	0.0182119
880.379	0.0181799
880.457	0.0182386
880.535	0.0181361
880.613	0.0180927
880.692	0.0180782
880.770	0.0180638
880.848	0.0181630
880.926	0.0181917
881.004	0.0181606
881.082	0.0180138
881.160	0.0180787
881.238	0.0180533
881.317	0.0180671
881.395	0.0180959
881.473	0.0181470
881.551	0.0181149
881.629	0.0181112
881.707	0.0180607
881.785	0.0181171
881.863	0.0182169
881.942	0.0180529
882.020	0.0181086
882.098	0.0182401
882.176	0.0181797
882.254	0.0182335
882.332	0.0181158
882.410	0.0180997
882.488	0.0183082
882.567	0.0181645
882.645	0.0180569
882.723	0.0181152
882.801	0.0183053
882.879	0.0181934
882.957	0.0181026
883.035	0.0181447
883.113	0.0180975
883.192	0.0182164
883.270	0.0181472
883.348	0.0182179
883.426	0.0181958
883.504	0.0181669
883.582	0.0182887
883.660	0.0181351
883.738	0.0181708
883.817	0.0182394
883.895	0.0180926
883.973	0.0182039
884.051	0.0181904
884.129	0.0181074
884.207	0.0181828
884.285	0.0181559
884.363	0.0181380
884.442	0.0181089
884.520	0.0180988
884.598	0.0181536
884.676	0.0180888
884.754	0.0181522
884.832	0.0180994
884.910	0.0181445
884.988	0.0179782
885.067	0.0179060
885.145	0.0181527
885.223	0.0180683
885.301	0.0178850
885.379	0.0178781
885.457	0.0181090
885.535	0.0181541
885.613	0.0179903
885.692	0.0179320
885.770	0.0179353
885.848	0.0179134
885.926	0.0178547
886.004	0.0179168
886.082	0.0179848
886.160	0.0180346
886.238	0.0180077
886.317	0.0180428
886.395	0.0179370
886.473	0.0181021
886.551	0.0180243
886.629	0.0179484
886.707	0.0181325
886.785	0.0182143
886.863	0.0181697
886.942	0.0181865
887.020	0.0180522
887.098	0.0182268
887.176	0.0182567
887.254	0.0181600
887.332	0.0182073
887.410	0.0182327
887.488	0.0183392
887.567	0.0183320
887.645	0.0183192
887.723	0.0181520
887.801	0.0181960
887.879	0.0183164
887.957	0.0182821
888.035	0.0183365
888.113	0.0183002
888.192	0.0182178
888.270	0.0182781
888.348	0.0181402
888.426	0.0181442
888.504	0.0181756
888.582	0.0182681
888.660	0.0180529
888.738	0.0181303
888.817	0.0180907
888.895	0.0180150
888.973	0.0180261
889.051	0.0181096
889.129	0.0181386
889.207	0.0179198
889.285	0.0179432
889.363	0.0179362
889.442	0.0180576
889.520	0.0180502
889.598	0.0180482
889.676	0.0181108
889.754	0.0180041
889.832	0.0181385
889.910	0.0181000
889.988	0.0180643
890.067	0.0179717
890.145	0.0180754
890.223	0.0179840
890.301	0.0180109
890.379	0.0180527
890.457	0.0180103
890.535	0.0179890
890.613	0.0179611
890.692	0.0178804
890.770	0.0181255
890.848	0.0179681
890.926	0.0178405
891.004	0.0179622
891.082	0.0179190
891.160	0.0178796
891.238	0.0181416
891.317	0.0181171
891.395	0.0179942
891.473	0.0180644
891.551	0.0180626
891.629	0.0180547
891.707	0.0181731
891.785	0.0181287
891.863	0.0181480
891.942	0.0181486
892.020	0.0182047
892.098	0.0180911
892.176	0.0179978
892.254	0.0181065
892.332	0.0181435
892.410	0.0181280
892.488	0.0181388
892.567	0.0183125
892.645	0.0182712
892.723	0.0182236
892.801	0.0182128
892.879	0.0181201
892.957	0.0181253
893.035	0.0178970
893.113	0.0180511
893.192	0.0181175
893.270	0.0180548
893.348	0.0181811
893.426	0.0181493
893.504	0.0181049
893.582	0.0180956
893.660	0.0179776
893.738	0.0180121
893.817	0.0181722
893.895	0.0181090
893.973	0.0180996
894.051	0.0179435
894.129	0.0180119
894.207	0.0180112
894.285	0.0180791
894.363	0.0179263
894.442	0.0181393
894.520	0.0182034
894.598	0.0179353
894.676	0.0180566
894.754	0.0179565
894.832	0.0180457
894.910	0.0179527
894.988	0.0179485
895.067	0.0179962
895.145	0.0179723
895.223	0.0180712
895.301	0.0180282
895.379	0.0178844
895.457	0.0180344
895.535	0.0179717
895.613	0.0179089
895.692	0.0179263
895.770	0.0178753
895.848	0.0178793
895.926	0.0179571
896.004	0.0178441
896.082	0.0178754
896.160	0.0179190
896.238	0.0179086
896.317	0.0180028
896.395	0.0178407
896.473	0.0178894
896.551	0.0178394
896.629	0.0179222
896.707	0.0178443
896.785	0.0178448
896.863	0.0179679
896.942	0.0179224
897.020	0.0179881
897.098	0.0178744
897.176	0.0180943
897.254	0.0177736
897.332	0.0179126
897.410	0.0178580
897.488	0.0179330
897.567	0.0177998
897.645	0.0179875
897.723	0.0179163
897.801	0.0179424
897.879	0.0179094
897.957	0.0179759
898.035	0.0180997
898.113	0.0179092
898.192	0.0179721
898.270	0.0178457
898.348	0.0178850
898.426	0.0178472
898.504	0.0178822
898.582	0.0178445
898.660	0.0179706
898.738	0.0178859
898.817	0.0178407
898.895	0.0178473
898.973	0.0178735
899.051	0.0179006
899.129	0.0178380
899.207	0.0177536
899.285	0.0178848
899.363	0.0179665
899.442	0.0178697
899.520	0.0179820
899.598	0.0178503
899.676	0.0179075
899.754	0.0178157
899.832	0.0178906
899.910	0.0178854
899.988	0.0179276
900.067	0.0180511
900.145	0.0180225
900.223	0.0180487
900.301	0.0179514
900.379	0.0180119
900.457	0.0180234
900.535	0.0180767
900.613	0.0180499
900.692	0.0181030
900.770	0.0180836
900.848	0.0179993
900.926	0.0179888
901.004	0.0180730
901.082	0.0181139
901.160	0.0180029
901.238	0.0181490
901.317	0.0182440
901.395	0.0181316
901.473	0.0181762
901.551	0.0181638
901.629	0.0182848
901.707	0.0181744
901.785	0.0182764
901.863	0.0183224
901.942	0.0183271
902.020	0.0183128
902.098	0.0181148
902.176	0.0181960
902.254	0.0182849
902.332	0.0182045
902.410	0.0182567
902.488	0.0182299
902.567	0.0182294
902.645	0.0181651
902.723	0.0182581
902.801	0.0182197
902.879	0.0183339
902.957	0.0182208
903.035	0.0182404
903.113	0.0181720
903.192	0.0180907
903.270	0.0182789
903.348	0.0183060
903.426	0.0181184
903.504	0.0181316
903.582	0.0182037
903.660	0.0180829
903.738	0.0180276
903.817	0.0181097
903.895	0.0179787
903.973	0.0179392
904.051	0.0180656
904.129	0.0180806
904.207	0.0181065
904.285	0.0181802
904.363	0.0180390
904.442	0.0180169
904.520	0.0180087
904.598	0.0182355
904.676	0.0183474
904.754	0.0182421
904.832	0.0181577
904.910	0.0181362
904.988	0.0182612
905.067	0.0183373
905.145	0.0183153
905.223	0.0182278
905.301	0.0181948
905.379	0.0182366
905.457	0.0183273
905.535	0.0182114
905.613	0.0183042
905.692	0.0182889
905.770	0.0183132
905.848	0.0181939
905.926	0.0182059
906.004	0.0182772
906.082	0.0182331
906.160	0.0182514
906.238	0.0183350
906.317	0.0182455
906.395	0.0181887
906.473	0.0182441
906.551	0.0183533
906.629	0.0182606
906.707	0.0183447
906.785	0.0183733
906.863	0.0182925
906.942	0.0183653
907.020	0.0182165
907.098	0.0184172
907.176	0.0183102
907.254	0.0183087
907.332	0.0183463
907.410	0.0184089
907.488	0.0185162
907.567	0.0182985
907.645	0.0184482
907.723	0.0185435
907.801	0.0184423
907.879	0.0184697
907.957	0.0184039
908.035	0.0182800
908.113	0.0182773
908.192	0.0183456
908.270	0.0184502
908.348	0.0182004
908.426	0.0183951
908.504	0.0183451
908.582	0.0183619
908.660	0.0183169
908.738	0.0183176
908.817	0.0183195
908.895	0.0184027
908.973	0.0183665
909.051	0.0181730
909.129	0.0183488
909.207	0.0183281
909.285	0.0182264
909.363	0.0182275
909.442	0.0181478
909.520	0.0183331
909.598	0.0181802
909.676	0.0182061
909.754	0.0182458
909.832	0.0182013
909.910	0.0181650
909.988	0.0182412
910.067	0.0182935
910.145	0.0182835
910.223	0.0182387
910.301	0.0182751
910.379	0.0181158
910.457	0.0181445
910.535	0.0182109
910.613	0.0181364
910.692	0.0182652
910.770	0.0182107
910.848	0.0181295
910.926	0.0181857
911.004	0.0182331
911.082	0.0180884
911.160	0.0181558
911.238	0.0181052
911.317	0.0181085
911.395	0.0179948
911.473	0.0181638
911.551	0.0181152
911.629	0.0182658
911.707	0.0180325
911.785	0.0180792
911.863	0.0179659
911.942	0.0180411
912.020	0.0181921
912.098	0.0179115
912.176	0.0181113
912.254	0.0180560
912.332	0.0180289
912.410	0.0180061
912.488	0.0180614
912.567	0.0179488
912.645	0.0179328
912.723	0.0179576
912.801	0.0180511
912.879	0.0179607
912.957	0.0179611
913.035	0.0180856
913.113	0.0179531
913.192	0.0179449
913.270	0.0180730
913.348	0.0179491
913.426	0.0180505
913.504	0.0179751
913.582	0.0180556
913.660	0.0180961
913.738	0.0180540
913.817	0.0181438
913.895	0.0181967
913.973	0.0181039
914.051	0.0182143
914.129	0.0182378
914.207	0.0182155
914.285	0.0181003
914.363	0.0181814
914.442	0.0181120
914.520	0.0182432
914.598	0.0182133
914.676	0.0182216
914.754	0.0182184
914.832	0.0180910
914.910	0.0183723
914.988	0.0182276
915.067	0.0180939
915.145	0.0181830
915.223	0.0183873
915.301	0.0182896
915.379	0.0182530
915.457	0.0181433
915.535	0.0182001
915.613	0.0181200
915.692	0.0181127
915.770	0.0180119
915.848	0.0180440
915.926	0.0180557
916.004	0.0180537
916.082	0.0181289
916.160	0.0181408
916.238	0.0182246
916.317	0.0180295
916.395	0.0180391
916.473	0.0180292
916.551	0.0179599
916.629	0.0180692
916.707	0.0179310
916.785	0.0180042
916.863	0.0179107
916.942	0.0178744
917.020	0.0179564
917.098	0.0180116
917.176	0.0178825
917.254	0.0179301
917.332	0.0179454
917.410	0.0178841
917.488	0.0179145
917.567	0.0179864
917.645	0.0179860
917.723	0.0180317
917.801	0.0180460
917.879	0.0180627
917.957	0.0179604
918.035	0.0180690
918.113	0.0179193
918.192	0.0179649
918.270	0.0180190
918.348	0.0181268
918.426	0.0180150
918.504	0.0179887
918.582	0.0181481
918.660	0.0182080
918.738	0.0179663
918.817	0.0180451
918.895	0.0180584
918.973	0.0180077
919.051	0.0180297
919.129	0.0180152
919.207	0.0180909
919.285	0.0180045
919.363	0.0179905
919.442	0.0180796
919.520	0.0180714
919.598	0.0181040
919.676	0.0179896
919.754	0.0180122
919.832	0.0180379
919.910	0.0179889
