06/01/2022	22:13:29	Ver.	4.1	UNKNOWN
Optical Delay	599.988409	Delta X		0.078125	Sweeps	1	Scan Rate	0/0
Coordinates	Axis 1	NaN	Axis 2	NaN	Axis 3	NaN	Axis 4	NaN	Axis 5	NaN	Axis 6	0.000000
TX Power	0.000000	RX Power	0.000000

599.988	0.0180526
600.067	0.0181570
600.145	0.0181053
600.223	0.0181244
600.301	0.0182511
600.379	0.0182111
600.457	0.0181463
600.535	0.0181686
600.613	0.0181165
600.692	0.0183244
600.770	0.0183501
600.848	0.0181924
600.926	0.0181313
601.004	0.0181633
601.082	0.0183584
601.160	0.0181612
601.238	0.0182180
601.317	0.0182406
601.395	0.0182658
601.473	0.0182029
601.551	0.0181319
601.629	0.0182238
601.707	0.0183450
601.785	0.0183230
601.863	0.0183008
601.942	0.0183035
602.020	0.0184035
602.098	0.0182827
602.176	0.0183376
602.254	0.0182803
602.332	0.0182363
602.410	0.0182711
602.488	0.0183279
602.567	0.0181683
602.645	0.0185233
602.723	0.0183205
602.801	0.0182990
602.879	0.0183115
602.957	0.0184023
603.035	0.0182919
603.113	0.0182174
603.192	0.0181809
603.270	0.0183536
603.348	0.0182655
603.426	0.0182510
603.504	0.0182343
603.582	0.0182308
603.660	0.0181590
603.738	0.0182592
603.817	0.0182314
603.895	0.0181583
603.973	0.0181847
604.051	0.0181638
604.129	0.0179878
604.207	0.0181773
604.285	0.0181091
604.363	0.0180914
604.442	0.0180436
604.520	0.0180806
604.598	0.0181133
604.676	0.0180701
604.754	0.0182059
604.832	0.0179307
604.910	0.0180153
604.988	0.0181510
605.067	0.0180839
605.145	0.0180432
605.223	0.0181068
605.301	0.0180221
605.379	0.0181403
605.457	0.0181803
605.535	0.0181879
605.613	0.0180582
605.692	0.0181334
605.770	0.0181443
605.848	0.0180414
605.926	0.0180726
606.004	0.0180650
606.082	0.0181969
606.160	0.0181306
606.238	0.0179848
606.317	0.0179906
606.395	0.0181693
606.473	0.0181473
606.551	0.0181673
606.629	0.0181594
606.707	0.0181221
606.785	0.0182431
606.863	0.0179939
606.942	0.0181238
607.020	0.0182809
607.098	0.0182250
607.176	0.0181127
607.254	0.0181005
607.332	0.0180733
607.410	0.0182200
607.488	0.0182864
607.567	0.0180868
607.645	0.0180675
607.723	0.0181356
607.801	0.0180624
607.879	0.0181457
607.957	0.0179209
608.035	0.0179514
608.113	0.0180405
608.192	0.0179865
608.270	0.0181192
608.348	0.0179485
608.426	0.0179338
608.504	0.0179107
608.582	0.0178949
608.660	0.0180333
608.738	0.0179378
608.817	0.0180167
608.895	0.0178461
608.973	0.0178806
609.051	0.0178568
609.129	0.0179637
609.207	0.0179515
609.285	0.0179070
609.363	0.0179046
609.442	0.0179272
609.520	0.0178422
609.598	0.0178872
609.676	0.0177334
609.754	0.0178215
609.832	0.0178511
609.910	0.0178062
609.988	0.0177346
610.067	0.0176544
610.145	0.0178807
610.223	0.0177612
610.301	0.0177367
610.379	0.0177307
610.457	0.0176004
610.535	0.0177657
610.613	0.0178035
610.692	0.0178590
610.770	0.0178130
610.848	0.0177891
610.926	0.0178390
611.004	0.0178725
611.082	0.0177635
611.160	0.0178709
611.238	0.0177869
611.317	0.0179184
611.395	0.0179513
611.473	0.0179703
611.551	0.0179564
611.629	0.0177868
611.707	0.0178870
611.785	0.0178845
611.863	0.0178738
611.942	0.0178752
612.020	0.0180363
612.098	0.0179791
612.176	0.0179417
612.254	0.0179437
612.332	0.0180244
612.410	0.0180396
612.488	0.0179993
612.567	0.0179482
612.645	0.0179187
612.723	0.0179749
612.801	0.0178897
612.879	0.0180885
612.957	0.0179411
613.035	0.0179993
613.113	0.0179682
613.192	0.0179908
613.270	0.0179684
613.348	0.0180193
613.426	0.0179652
613.504	0.0180819
613.582	0.0180321
613.660	0.0179946
613.738	0.0179682
613.817	0.0179453
613.895	0.0180071
613.973	0.0180487
614.051	0.0180676
614.129	0.0180366
614.207	0.0180360
614.285	0.0180290
614.363	0.0181247
614.442	0.0179768
614.520	0.0181543
614.598	0.0179755
614.676	0.0180037
614.754	0.0180978
614.832	0.0181514
614.910	0.0181887
614.988	0.0180782
615.067	0.0181453
615.145	0.0181014
615.223	0.0181973
615.301	0.0181401
615.379	0.0180806
615.457	0.0180489
615.535	0.0181428
615.613	0.0181945
615.692	0.0181423
615.770	0.0181738
615.848	0.0179700
615.926	0.0181342
616.004	0.0182304
616.082	0.0181364
616.160	0.0180790
616.238	0.0180342
616.317	0.0181058
616.395	0.0180915
616.473	0.0181181
616.551	0.0180627
616.629	0.0180311
616.707	0.0180244
616.785	0.0180178
616.863	0.0180367
616.942	0.0181326
617.020	0.0180713
617.098	0.0181796
617.176	0.0180100
617.254	0.0180849
617.332	0.0180281
617.410	0.0181053
617.488	0.0179841
617.567	0.0179038
617.645	0.0180061
617.723	0.0180685
617.801	0.0179881
617.879	0.0180004
617.957	0.0181022
618.035	0.0180329
618.113	0.0178838
618.192	0.0181065
618.270	0.0180052
618.348	0.0178688
618.426	0.0179218
618.504	0.0179265
618.582	0.0180013
618.660	0.0179414
618.738	0.0178930
618.817	0.0179530
618.895	0.0179333
618.973	0.0181296
619.051	0.0179844
619.129	0.0180867
619.207	0.0180470
619.285	0.0179250
619.363	0.0179559
619.442	0.0179194
619.520	0.0180406
619.598	0.0180167
619.676	0.0181129
619.754	0.0178338
619.832	0.0181514
619.910	0.0179958
619.988	0.0180206
620.067	0.0179630
620.145	0.0180907
620.223	0.0180571
620.301	0.0178828
620.379	0.0180802
620.457	0.0179671
620.535	0.0180009
620.613	0.0180779
620.692	0.0180840
620.770	0.0180346
620.848	0.0180615
620.926	0.0180613
621.004	0.0180569
621.082	0.0179831
621.160	0.0179075
621.238	0.0180396
621.317	0.0180253
621.395	0.0179863
621.473	0.0180503
621.551	0.0178598
621.629	0.0178649
621.707	0.0180931
621.785	0.0179821
621.863	0.0178582
621.942	0.0180012
622.020	0.0178528
622.098	0.0179422
622.176	0.0179719
622.254	0.0179533
622.332	0.0179984
622.410	0.0179417
622.488	0.0179762
622.567	0.0178715
622.645	0.0178360
622.723	0.0179970
622.801	0.0178801
622.879	0.0180106
622.957	0.0181501
623.035	0.0180777
623.113	0.0179678
623.192	0.0179427
623.270	0.0180822
623.348	0.0179826
623.426	0.0179613
623.504	0.0180511
623.582	0.0179572
623.660	0.0181068
623.738	0.0181651
623.817	0.0180319
623.895	0.0179437
623.973	0.0180177
624.051	0.0181907
624.129	0.0182359
624.207	0.0182291
624.285	0.0181521
624.363	0.0181447
624.442	0.0181120
624.520	0.0181037
624.598	0.0182106
624.676	0.0180651
624.754	0.0181848
624.832	0.0180994
624.910	0.0180846
624.988	0.0180959
625.067	0.0180790
625.145	0.0182193
625.223	0.0182556
625.301	0.0182278
625.379	0.0180204
625.457	0.0180012
625.535	0.0180128
625.613	0.0182217
625.692	0.0180183
625.770	0.0181417
625.848	0.0181376
625.926	0.0178696
626.004	0.0179765
626.082	0.0181070
626.160	0.0181551
626.238	0.0181052
626.317	0.0181158
626.395	0.0180606
626.473	0.0181570
626.551	0.0180580
626.629	0.0180894
626.707	0.0181515
626.785	0.0180834
626.863	0.0180896
626.942	0.0182291
627.020	0.0181321
627.098	0.0182903
627.176	0.0182258
627.254	0.0182613
627.332	0.0182175
627.410	0.0182413
627.488	0.0180922
627.567	0.0181851
627.645	0.0181398
627.723	0.0182151
627.801	0.0183154
627.879	0.0181670
627.957	0.0182868
628.035	0.0182362
628.113	0.0182657
628.192	0.0182666
628.270	0.0182302
628.348	0.0182009
628.426	0.0181102
628.504	0.0181288
628.582	0.0181385
628.660	0.0180769
628.738	0.0181612
628.817	0.0181820
628.895	0.0180902
628.973	0.0182101
629.051	0.0180692
629.129	0.0181117
629.207	0.0180327
629.285	0.0180805
629.363	0.0181290
629.442	0.0179849
629.520	0.0181831
629.598	0.0180350
629.676	0.0180997
629.754	0.0179491
629.832	0.0180428
629.910	0.0180080
629.988	0.0179919
630.067	0.0179261
630.145	0.0180559
630.223	0.0179109
630.301	0.0177518
630.379	0.0178641
630.457	0.0179696
630.535	0.0178078
630.613	0.0179642
630.692	0.0180596
630.770	0.0178393
630.848	0.0178514
630.926	0.0179592
631.004	0.0179256
631.082	0.0179845
631.160	0.0180299
631.238	0.0179436
631.317	0.0178619
631.395	0.0178368
631.473	0.0179410
631.551	0.0177365
631.629	0.0179322
631.707	0.0180297
631.785	0.0179624
631.863	0.0179193
631.942	0.0179753
632.020	0.0178954
632.098	0.0178294
632.176	0.0177768
632.254	0.0179926
632.332	0.0178509
632.410	0.0178289
632.488	0.0179238
632.567	0.0179887
632.645	0.0177911
632.723	0.0178712
632.801	0.0178420
632.879	0.0177904
632.957	0.0178206
633.035	0.0179071
633.113	0.0179800
633.192	0.0178788
633.270	0.0179127
633.348	0.0178943
633.426	0.0179967
633.504	0.0179404
633.582	0.0176068
633.660	0.0178153
633.738	0.0178024
633.817	0.0179911
633.895	0.0179661
633.973	0.0179169
634.051	0.0178738
634.129	0.0179362
634.207	0.0179224
634.285	0.0180187
634.363	0.0178857
634.442	0.0179228
634.520	0.0179283
634.598	0.0178807
634.676	0.0179559
634.754	0.0179324
634.832	0.0178043
634.910	0.0178990
634.988	0.0178819
635.067	0.0180254
635.145	0.0180100
635.223	0.0179303
635.301	0.0180052
635.379	0.0180408
635.457	0.0179293
635.535	0.0179153
635.613	0.0180112
635.692	0.0181109
635.770	0.0181620
635.848	0.0180060
635.926	0.0180437
636.004	0.0179741
636.082	0.0180243
636.160	0.0181841
636.238	0.0180624
636.317	0.0181135
636.395	0.0179847
636.473	0.0180976
636.551	0.0180592
636.629	0.0178710
636.707	0.0179787
636.785	0.0180843
636.863	0.0180255
636.942	0.0181047
637.020	0.0180411
637.098	0.0180857
637.176	0.0180645
637.254	0.0180818
637.332	0.0179951
637.410	0.0181979
637.488	0.0181569
637.567	0.0182095
637.645	0.0179671
637.723	0.0181032
637.801	0.0182614
637.879	0.0181934
637.957	0.0180926
638.035	0.0180664
638.113	0.0181316
638.192	0.0180598
638.270	0.0182548
638.348	0.0181960
638.426	0.0182113
638.504	0.0182108
638.582	0.0181944
638.660	0.0181831
638.738	0.0182869
638.817	0.0182167
638.895	0.0181322
638.973	0.0181851
639.051	0.0181554
639.129	0.0181240
639.207	0.0182753
639.285	0.0181912
639.363	0.0182788
639.442	0.0181754
639.520	0.0181534
639.598	0.0183114
639.676	0.0180753
639.754	0.0180417
639.832	0.0180663
639.910	0.0179723
639.988	0.0182397
640.067	0.0180806
640.145	0.0180882
640.223	0.0181470
640.301	0.0181768
640.379	0.0181307
640.457	0.0181602
640.535	0.0180997
640.613	0.0180077
640.692	0.0180515
640.770	0.0181886
640.848	0.0180828
640.926	0.0180631
641.004	0.0181319
641.082	0.0180271
641.160	0.0178745
641.238	0.0181013
641.317	0.0180762
641.395	0.0181443
641.473	0.0182024
641.551	0.0180650
641.629	0.0181880
641.707	0.0181415
641.785	0.0182452
641.863	0.0180999
641.942	0.0181808
642.020	0.0182860
642.098	0.0181507
642.176	0.0180334
642.254	0.0181641
642.332	0.0182678
642.410	0.0182390
642.488	0.0182597
642.567	0.0181171
642.645	0.0180677
642.723	0.0180844
642.801	0.0181121
642.879	0.0181529
642.957	0.0180976
643.035	0.0181151
643.113	0.0180325
643.192	0.0182105
643.270	0.0180397
643.348	0.0182187
643.426	0.0179794
643.504	0.0178968
643.582	0.0179704
643.660	0.0181080
643.738	0.0179414
643.817	0.0180751
643.895	0.0180303
643.973	0.0180008
644.051	0.0180090
644.129	0.0181542
644.207	0.0180574
644.285	0.0179939
644.363	0.0180067
644.442	0.0181360
644.520	0.0181888
644.598	0.0179485
644.676	0.0181670
644.754	0.0182470
644.832	0.0181160
644.910	0.0181471
644.988	0.0181584
645.067	0.0181951
645.145	0.0181789
645.223	0.0180323
645.301	0.0181933
645.379	0.0182284
645.457	0.0182032
645.535	0.0181832
645.613	0.0181955
645.692	0.0181870
645.770	0.0182726
645.848	0.0182347
645.926	0.0181794
646.004	0.0182496
646.082	0.0183178
646.160	0.0180913
646.238	0.0181401
646.317	0.0182186
646.395	0.0181879
646.473	0.0181597
646.551	0.0181203
646.629	0.0182414
646.707	0.0180389
646.785	0.0180715
646.863	0.0180944
646.942	0.0180971
647.020	0.0181535
647.098	0.0181268
647.176	0.0180311
647.254	0.0181742
647.332	0.0182021
647.410	0.0181585
647.488	0.0180621
647.567	0.0181336
647.645	0.0181562
647.723	0.0180399
647.801	0.0180663
647.879	0.0180539
647.957	0.0181234
648.035	0.0180617
648.113	0.0180167
648.192	0.0181557
648.270	0.0180102
648.348	0.0179578
648.426	0.0180181
648.504	0.0180368
648.582	0.0181181
648.660	0.0180683
648.738	0.0180200
648.817	0.0180241
648.895	0.0181145
648.973	0.0182467
649.051	0.0179972
649.129	0.0181721
649.207	0.0179956
649.285	0.0181451
649.363	0.0181223
649.442	0.0181680
649.520	0.0181304
649.598	0.0181323
649.676	0.0181528
649.754	0.0179549
649.832	0.0180585
649.910	0.0180172
649.988	0.0181134
650.067	0.0179207
650.145	0.0179646
650.223	0.0179187
650.301	0.0180122
650.379	0.0179725
650.457	0.0179391
650.535	0.0178336
650.613	0.0179965
650.692	0.0179898
650.770	0.0178619
650.848	0.0177978
650.926	0.0178508
651.004	0.0178928
651.082	0.0179613
651.160	0.0179427
651.238	0.0177911
651.317	0.0178459
651.395	0.0179201
651.473	0.0177838
651.551	0.0177542
651.629	0.0178437
651.707	0.0177693
651.785	0.0177257
651.863	0.0178221
651.942	0.0178608
652.020	0.0178664
652.098	0.0178233
652.176	0.0177631
652.254	0.0179343
652.332	0.0179218
652.410	0.0178497
652.488	0.0179833
652.567	0.0177737
652.645	0.0178822
652.723	0.0180170
652.801	0.0179870
652.879	0.0178690
652.957	0.0179333
653.035	0.0179291
653.113	0.0180161
653.192	0.0181354
653.270	0.0180729
653.348	0.0180556
653.426	0.0180898
653.504	0.0181593
653.582	0.0180383
653.660	0.0181699
653.738	0.0181280
653.817	0.0180664
653.895	0.0180676
653.973	0.0181748
654.051	0.0181245
654.129	0.0180700
654.207	0.0180362
654.285	0.0180701
654.363	0.0180291
654.442	0.0181304
654.520	0.0182010
654.598	0.0180882
654.676	0.0180637
654.754	0.0179671
654.832	0.0181245
654.910	0.0180714
654.988	0.0180641
655.067	0.0181210
655.145	0.0182129
655.223	0.0181787
655.301	0.0180770
655.379	0.0181323
655.457	0.0181426
655.535	0.0181704
655.613	0.0180785
655.692	0.0182637
655.770	0.0182525
655.848	0.0181867
655.926	0.0180904
656.004	0.0183336
656.082	0.0181554
656.160	0.0181569
656.238	0.0182331
656.317	0.0182487
656.395	0.0181676
656.473	0.0182042
656.551	0.0181046
656.629	0.0181366
656.707	0.0182622
656.785	0.0183627
656.863	0.0182611
656.942	0.0182130
657.020	0.0181424
657.098	0.0181600
657.176	0.0181202
657.254	0.0181300
657.332	0.0180618
657.410	0.0180180
657.488	0.0180754
657.567	0.0182314
657.645	0.0183125
657.723	0.0181606
657.801	0.0181594
657.879	0.0182189
657.957	0.0181253
658.035	0.0181883
658.113	0.0181685
658.192	0.0181532
658.270	0.0181535
658.348	0.0181242
658.426	0.0181080
658.504	0.0179874
658.582	0.0182249
658.660	0.0181236
658.738	0.0181709
658.817	0.0181274
658.895	0.0180871
658.973	0.0180345
659.051	0.0181274
659.129	0.0180763
659.207	0.0179990
659.285	0.0179944
659.363	0.0180284
659.442	0.0179911
659.520	0.0181328
659.598	0.0180500
659.676	0.0180741
659.754	0.0180427
659.832	0.0179703
659.910	0.0180104
659.988	0.0180436
660.067	0.0180624
660.145	0.0181071
660.223	0.0182081
660.301	0.0180576
660.379	0.0181533
660.457	0.0180889
660.535	0.0181752
660.613	0.0180482
660.692	0.0181432
660.770	0.0179691
660.848	0.0180364
660.926	0.0181242
661.004	0.0182157
661.082	0.0181333
661.160	0.0180306
661.238	0.0180504
661.317	0.0179311
661.395	0.0180210
661.473	0.0179716
661.551	0.0180479
661.629	0.0181432
661.707	0.0181198
661.785	0.0180436
661.863	0.0181804
661.942	0.0180954
662.020	0.0180772
662.098	0.0181277
662.176	0.0180915
662.254	0.0180964
662.332	0.0181020
662.410	0.0181949
662.488	0.0182112
662.567	0.0182565
662.645	0.0181071
662.723	0.0181458
662.801	0.0181831
662.879	0.0180843
662.957	0.0180590
663.035	0.0181515
663.113	0.0181712
663.192	0.0180626
663.270	0.0180035
663.348	0.0181794
663.426	0.0181090
663.504	0.0180317
663.582	0.0181026
663.660	0.0181113
663.738	0.0181740
663.817	0.0181258
663.895	0.0180807
663.973	0.0180968
664.051	0.0180080
664.129	0.0181676
664.207	0.0180815
664.285	0.0180656
664.363	0.0180038
664.442	0.0180150
664.520	0.0180267
664.598	0.0180676
664.676	0.0180022
664.754	0.0180228
664.832	0.0180195
664.910	0.0180072
664.988	0.0181369
665.067	0.0180741
665.145	0.0180380
665.223	0.0179871
665.301	0.0181133
665.379	0.0181764
665.457	0.0179886
665.535	0.0179725
665.613	0.0180466
665.692	0.0181370
665.770	0.0180164
665.848	0.0181239
665.926	0.0180021
666.004	0.0179989
666.082	0.0179899
666.160	0.0180894
666.238	0.0180991
666.317	0.0181719
666.395	0.0180857
666.473	0.0180280
666.551	0.0180904
666.629	0.0181563
666.707	0.0181852
666.785	0.0180327
666.863	0.0179949
666.942	0.0181512
667.020	0.0180431
667.098	0.0181120
667.176	0.0181375
667.254	0.0181023
667.332	0.0180556
667.410	0.0181162
667.488	0.0180974
667.567	0.0180596
667.645	0.0180846
667.723	0.0179936
667.801	0.0179936
667.879	0.0180366
667.957	0.0181027
668.035	0.0181096
668.113	0.0180234
668.192	0.0180574
668.270	0.0180861
668.348	0.0180708
668.426	0.0181528
668.504	0.0180721
668.582	0.0181799
668.660	0.0180853
668.738	0.0180145
668.817	0.0180914
668.895	0.0182099
668.973	0.0181837
669.051	0.0181181
669.129	0.0181171
669.207	0.0180956
669.285	0.0180348
669.363	0.0179771
669.442	0.0179561
669.520	0.0179014
669.598	0.0180159
669.676	0.0180577
669.754	0.0178539
669.832	0.0179167
669.910	0.0180254
669.988	0.0181721
670.067	0.0178933
670.145	0.0180199
670.223	0.0180048
670.301	0.0178127
670.379	0.0179909
670.457	0.0180378
670.535	0.0179897
670.613	0.0180879
670.692	0.0180024
670.770	0.0181008
670.848	0.0179910
670.926	0.0180098
671.004	0.0180737
671.082	0.0180653
671.160	0.0181529
671.238	0.0181921
671.317	0.0181808
671.395	0.0180608
671.473	0.0180125
671.551	0.0180975
671.629	0.0179620
671.707	0.0180518
671.785	0.0180273
671.863	0.0179018
671.942	0.0179054
672.020	0.0180746
672.098	0.0177513
672.176	0.0179891
672.254	0.0179928
672.332	0.0180447
672.410	0.0179678
672.488	0.0179750
672.567	0.0179236
672.645	0.0178407
672.723	0.0178997
672.801	0.0179763
672.879	0.0178534
672.957	0.0178976
673.035	0.0180412
673.113	0.0180054
673.192	0.0179301
673.270	0.0180722
673.348	0.0179974
673.426	0.0179692
673.504	0.0179618
673.582	0.0182292
673.660	0.0180424
673.738	0.0181212
673.817	0.0180011
673.895	0.0182683
673.973	0.0181049
674.051	0.0180512
674.129	0.0181239
674.207	0.0181693
674.285	0.0180687
674.363	0.0180505
674.442	0.0182032
674.520	0.0180616
674.598	0.0181676
674.676	0.0182478
674.754	0.0181990
674.832	0.0181815
674.910	0.0181292
674.988	0.0181126
675.067	0.0183289
675.145	0.0182740
675.223	0.0182139
675.301	0.0182214
675.379	0.0183137
675.457	0.0181812
675.535	0.0183353
675.613	0.0183545
675.692	0.0183059
675.770	0.0182535
675.848	0.0183228
675.926	0.0182025
676.004	0.0183302
676.082	0.0182951
676.160	0.0183144
676.238	0.0183234
676.317	0.0183088
676.395	0.0183753
676.473	0.0181470
676.551	0.0181954
676.629	0.0182761
676.707	0.0182536
676.785	0.0183638
676.863	0.0182454
676.942	0.0181280
677.020	0.0181518
677.098	0.0179923
677.176	0.0180582
677.254	0.0181812
677.332	0.0181130
677.410	0.0179696
677.488	0.0180684
677.567	0.0180628
677.645	0.0178503
677.723	0.0178933
677.801	0.0180847
677.879	0.0178385
677.957	0.0178480
678.035	0.0179831
678.113	0.0179352
678.192	0.0179359
678.270	0.0178056
678.348	0.0181335
678.426	0.0179877
678.504	0.0179791
678.582	0.0178822
678.660	0.0180215
678.738	0.0180308
678.817	0.0181176
678.895	0.0182437
678.973	0.0181297
679.051	0.0182127
679.129	0.0180791
679.207	0.0180053
679.285	0.0182400
679.363	0.0182245
679.442	0.0181900
679.520	0.0181924
679.598	0.0182316
679.676	0.0183479
679.754	0.0180390
679.832	0.0179919
679.910	0.0179478
679.988	0.0178937
680.067	0.0180231
680.145	0.0179208
680.223	0.0179930
680.301	0.0179316
680.379	0.0177931
680.457	0.0178385
680.535	0.0177032
680.613	0.0179015
680.692	0.0178813
680.770	0.0178640
680.848	0.0180062
680.926	0.0179910
681.004	0.0180151
681.082	0.0179888
681.160	0.0182417
681.238	0.0182001
681.317	0.0182180
681.395	0.0181230
681.473	0.0182382
681.551	0.0182001
681.629	0.0183001
681.707	0.0183009
681.785	0.0181328
681.863	0.0181471
681.942	0.0181509
682.020	0.0182722
682.098	0.0180917
682.176	0.0180535
682.254	0.0181944
682.332	0.0178901
682.410	0.0180605
682.488	0.0178753
682.567	0.0177925
682.645	0.0178600
682.723	0.0178928
682.801	0.0178522
682.879	0.0177971
682.957	0.0178493
683.035	0.0178336
683.113	0.0179548
683.192	0.0179288
683.270	0.0179184
683.348	0.0180527
683.426	0.0181165
683.504	0.0180137
683.582	0.0181639
683.660	0.0182043
683.738	0.0181282
683.817	0.0180604
683.895	0.0182435
683.973	0.0182415
684.051	0.0180730
684.129	0.0181003
684.207	0.0181440
684.285	0.0181792
684.363	0.0180872
684.442	0.0180675
684.520	0.0181532
684.598	0.0179859
684.676	0.0180135
684.754	0.0179795
684.832	0.0179301
684.910	0.0179881
684.988	0.0179292
685.067	0.0179471
685.145	0.0179135
685.223	0.0178140
685.301	0.0178583
685.379	0.0178772
685.457	0.0178848
685.535	0.0178809
685.613	0.0178619
685.692	0.0178337
685.770	0.0177075
685.848	0.0176527
685.926	0.0176195
686.004	0.0176205
686.082	0.0178041
686.160	0.0178085
686.238	0.0176566
686.317	0.0177023
686.395	0.0176917
686.473	0.0179049
686.551	0.0178288
686.629	0.0177313
686.707	0.0179147
686.785	0.0178691
686.863	0.0179459
686.942	0.0179203
687.020	0.0178339
687.098	0.0178582
687.176	0.0179526
687.254	0.0178291
687.332	0.0179076
687.410	0.0178235
687.488	0.0179489
687.567	0.0178695
687.645	0.0180031
687.723	0.0179681
687.801	0.0180558
687.879	0.0180108
687.957	0.0181847
688.035	0.0181441
688.113	0.0181745
688.192	0.0182813
688.270	0.0182520
688.348	0.0182188
688.426	0.0183762
688.504	0.0180845
688.582	0.0181731
688.660	0.0183446
688.738	0.0183424
688.817	0.0181852
688.895	0.0181211
688.973	0.0182263
689.051	0.0180291
689.129	0.0179829
689.207	0.0179858
689.285	0.0178763
689.363	0.0179230
689.442	0.0177070
689.520	0.0178006
689.598	0.0176670
689.676	0.0175375
689.754	0.0175377
689.832	0.0174770
689.910	0.0174136
689.988	0.0172852
690.067	0.0174226
690.145	0.0174960
690.223	0.0175672
690.301	0.0175591
690.379	0.0176364
690.457	0.0176461
690.535	0.0176991
690.613	0.0176775
690.692	0.0177392
690.770	0.0178290
690.848	0.0181007
690.926	0.0181147
691.004	0.0180238
691.082	0.0180853
691.160	0.0181570
691.238	0.0183175
691.317	0.0183392
691.395	0.0183976
691.473	0.0183986
691.551	0.0184249
691.629	0.0184590
691.707	0.0183421
691.785	0.0183117
691.863	0.0183888
691.942	0.0184022
692.020	0.0183973
692.098	0.0183489
692.176	0.0183324
692.254	0.0182314
692.332	0.0181451
692.410	0.0180483
692.488	0.0179831
692.567	0.0180910
692.645	0.0180527
692.723	0.0179887
692.801	0.0180869
692.879	0.0178333
692.957	0.0177126
693.035	0.0177098
693.113	0.0176668
693.192	0.0176990
693.270	0.0177112
693.348	0.0176508
693.426	0.0177596
693.504	0.0178664
693.582	0.0176726
693.660	0.0176796
693.738	0.0177454
693.817	0.0177464
693.895	0.0176882
693.973	0.0175986
694.051	0.0176236
694.129	0.0176556
694.207	0.0175116
694.285	0.0176117
694.363	0.0176536
694.442	0.0177370
694.520	0.0176543
694.598	0.0176968
694.676	0.0177213
694.754	0.0177132
694.832	0.0178780
694.910	0.0179600
694.988	0.0180811
695.067	0.0181308
695.145	0.0180877
695.223	0.0180144
695.301	0.0180581
695.379	0.0183443
695.457	0.0183882
695.535	0.0184666
695.613	0.0183801
695.692	0.0185040
695.770	0.0186325
695.848	0.0183875
695.926	0.0184553
696.004	0.0186094
696.082	0.0185228
696.160	0.0183804
696.238	0.0183963
696.317	0.0183247
696.395	0.0183530
696.473	0.0184435
696.551	0.0182333
696.629	0.0184467
696.707	0.0182691
696.785	0.0181626
696.863	0.0180389
696.942	0.0180054
697.020	0.0179285
697.098	0.0177628
697.176	0.0176776
697.254	0.0177436
697.332	0.0176146
697.410	0.0176966
697.488	0.0177140
697.567	0.0176408
697.645	0.0177778
697.723	0.0176865
697.801	0.0177460
697.879	0.0177573
697.957	0.0177641
698.035	0.0176575
698.113	0.0176601
698.192	0.0176700
698.270	0.0177219
698.348	0.0178210
698.426	0.0177689
698.504	0.0177834
698.582	0.0179070
698.660	0.0180408
698.738	0.0180708
698.817	0.0180088
698.895	0.0179690
698.973	0.0181116
699.051	0.0180200
699.129	0.0181444
699.207	0.0181202
699.285	0.0181493
699.363	0.0181587
699.442	0.0180949
699.520	0.0180169
699.598	0.0180730
699.676	0.0180674
699.754	0.0179910
699.832	0.0179866
699.910	0.0180907
699.988	0.0180558
700.067	0.0180655
700.145	0.0179492
700.223	0.0180270
700.301	0.0180991
700.379	0.0181120
700.457	0.0181138
700.535	0.0181270
700.613	0.0182410
700.692	0.0181933
700.770	0.0182822
700.848	0.0182465
700.926	0.0182485
701.004	0.0182571
701.082	0.0183901
701.160	0.0184528
701.238	0.0183521
701.317	0.0184304
701.395	0.0183701
701.473	0.0183601
701.551	0.0183638
701.629	0.0183744
701.707	0.0182648
701.785	0.0182408
701.863	0.0182129
701.942	0.0181624
702.020	0.0179132
702.098	0.0180159
702.176	0.0179955
702.254	0.0177964
702.332	0.0177945
702.410	0.0178078
702.488	0.0177702
702.567	0.0175559
702.645	0.0174178
702.723	0.0175513
702.801	0.0175654
702.879	0.0175361
702.957	0.0175479
703.035	0.0174160
703.113	0.0175134
703.192	0.0176238
703.270	0.0176463
703.348	0.0177376
703.426	0.0177182
703.504	0.0177169
703.582	0.0178465
703.660	0.0177706
703.738	0.0176894
703.817	0.0178634
703.895	0.0178751
703.973	0.0179784
704.051	0.0180683
704.129	0.0179085
704.207	0.0180460
704.285	0.0180074
704.363	0.0181284
704.442	0.0180328
704.520	0.0181653
704.598	0.0181943
704.676	0.0182621
704.754	0.0183482
704.832	0.0184367
704.910	0.0184560
704.988	0.0185893
705.067	0.0186711
705.145	0.0187458
705.223	0.0186005
705.301	0.0188179
705.379	0.0186752
705.457	0.0187386
705.535	0.0187727
705.613	0.0188181
705.692	0.0189846
705.770	0.0187041
705.848	0.0187122
705.926	0.0186349
706.004	0.0186356
706.082	0.0185530
706.160	0.0184265
706.238	0.0183965
706.317	0.0184375
706.395	0.0182948
706.473	0.0181756
706.551	0.0181828
706.629	0.0182117
706.707	0.0180945
706.785	0.0180694
706.863	0.0179896
706.942	0.0178677
707.020	0.0177998
707.098	0.0177258
707.176	0.0175619
707.254	0.0176107
707.332	0.0175478
707.410	0.0173867
707.488	0.0174250
707.567	0.0172964
707.645	0.0171103
707.723	0.0169117
707.801	0.0169569
707.879	0.0168671
707.957	0.0168549
708.035	0.0169866
708.113	0.0169342
708.192	0.0168270
708.270	0.0169230
708.348	0.0170082
708.426	0.0169582
708.504	0.0170637
708.582	0.0173264
708.660	0.0173338
708.738	0.0173373
708.817	0.0174121
708.895	0.0176137
708.973	0.0176905
709.051	0.0178207
709.129	0.0179027
709.207	0.0179770
709.285	0.0181022
709.363	0.0181741
709.442	0.0183665
709.520	0.0183138
709.598	0.0183985
709.676	0.0183818
709.754	0.0185780
709.832	0.0184772
709.910	0.0184978
709.988	0.0184849
710.067	0.0184502
710.145	0.0183611
710.223	0.0184544
710.301	0.0182518
710.379	0.0182105
710.457	0.0182072
710.535	0.0181548
710.613	0.0181857
710.692	0.0182132
710.770	0.0180803
710.848	0.0181793
710.926	0.0182597
711.004	0.0181109
711.082	0.0182219
711.160	0.0180989
711.238	0.0181383
711.317	0.0180274
711.395	0.0181211
711.473	0.0179132
711.551	0.0179733
711.629	0.0179827
711.707	0.0178876
711.785	0.0178062
711.863	0.0177937
711.942	0.0177874
712.020	0.0177330
712.098	0.0176610
712.176	0.0176611
712.254	0.0175295
712.332	0.0176181
712.410	0.0176436
712.488	0.0175355
712.567	0.0175690
712.645	0.0176888
712.723	0.0176453
712.801	0.0175550
712.879	0.0177650
712.957	0.0176977
713.035	0.0178458
713.113	0.0178748
713.192	0.0178076
713.270	0.0177967
713.348	0.0180148
713.426	0.0179837
713.504	0.0178947
713.582	0.0178837
713.660	0.0178522
713.738	0.0178680
713.817	0.0179780
713.895	0.0178522
713.973	0.0177641
714.051	0.0178896
714.129	0.0178834
714.207	0.0180074
714.285	0.0177888
714.363	0.0176998
714.442	0.0177568
714.520	0.0176804
714.598	0.0177778
714.676	0.0177502
714.754	0.0179031
714.832	0.0178574
714.910	0.0177218
714.988	0.0178722
715.067	0.0178397
715.145	0.0178602
715.223	0.0178705
715.301	0.0178692
715.379	0.0178853
715.457	0.0179816
715.535	0.0179573
715.613	0.0179230
715.692	0.0179800
715.770	0.0181113
715.848	0.0179900
715.926	0.0179208
716.004	0.0179510
716.082	0.0181599
716.160	0.0181283
716.238	0.0181801
716.317	0.0182082
716.395	0.0182275
716.473	0.0182398
716.551	0.0182766
716.629	0.0183888
716.707	0.0182102
716.785	0.0183090
716.863	0.0183226
716.942	0.0183344
717.020	0.0182954
717.098	0.0182430
717.176	0.0183778
717.254	0.0182740
717.332	0.0181870
717.410	0.0181875
717.488	0.0182232
717.567	0.0182502
717.645	0.0182126
717.723	0.0181750
717.801	0.0181895
717.879	0.0180717
717.957	0.0179639
718.035	0.0180538
718.113	0.0181007
718.192	0.0180170
718.270	0.0179202
718.348	0.0179001
718.426	0.0179572
718.504	0.0180169
718.582	0.0179068
718.660	0.0180160
718.738	0.0180577
718.817	0.0179839
718.895	0.0180378
718.973	0.0180828
719.051	0.0180347
719.129	0.0179774
719.207	0.0181188
719.285	0.0180995
719.363	0.0178658
719.442	0.0178312
719.520	0.0179283
719.598	0.0179192
719.676	0.0177628
719.754	0.0177008
719.832	0.0177431
719.910	0.0176044
719.988	0.0175606
720.067	0.0175266
720.145	0.0176807
720.223	0.0175907
720.301	0.0174792
720.379	0.0174799
720.457	0.0174622
720.535	0.0176195
720.613	0.0176563
720.692	0.0176115
720.770	0.0177320
720.848	0.0178309
720.926	0.0177605
721.004	0.0177546
721.082	0.0176897
721.160	0.0179867
721.238	0.0181021
721.317	0.0180919
721.395	0.0178964
721.473	0.0181595
721.551	0.0182036
721.629	0.0183450
721.707	0.0184611
721.785	0.0182243
721.863	0.0184050
721.942	0.0184234
722.020	0.0184863
722.098	0.0185056
722.176	0.0184628
722.254	0.0184134
722.332	0.0185160
722.410	0.0185089
722.488	0.0184402
722.567	0.0183850
722.645	0.0183677
722.723	0.0182571
722.801	0.0183423
722.879	0.0183651
722.957	0.0183468
723.035	0.0182442
723.113	0.0182577
723.192	0.0183546
723.270	0.0183636
723.348	0.0182983
723.426	0.0182544
723.504	0.0183237
723.582	0.0182117
723.660	0.0182343
723.738	0.0182064
723.817	0.0183086
723.895	0.0182599
723.973	0.0181644
724.051	0.0182375
724.129	0.0180989
724.207	0.0181349
724.285	0.0180837
724.363	0.0180898
724.442	0.0181242
724.520	0.0181467
724.598	0.0180579
724.676	0.0179834
724.754	0.0178841
724.832	0.0178063
724.910	0.0179201
724.988	0.0176976
725.067	0.0176472
725.145	0.0178252
725.223	0.0177877
725.301	0.0177062
725.379	0.0176534
725.457	0.0174383
725.535	0.0174511
725.613	0.0173956
725.692	0.0174638
725.770	0.0174068
725.848	0.0174150
725.926	0.0175217
726.004	0.0174555
726.082	0.0172984
726.160	0.0175730
726.238	0.0175752
726.317	0.0174719
726.395	0.0175256
726.473	0.0174864
726.551	0.0176623
726.629	0.0175362
726.707	0.0178286
726.785	0.0178000
726.863	0.0177922
726.942	0.0178400
727.020	0.0179678
727.098	0.0180098
727.176	0.0178220
727.254	0.0179404
727.332	0.0179395
727.410	0.0179570
727.488	0.0180479
727.567	0.0180977
727.645	0.0181351
727.723	0.0179856
727.801	0.0182764
727.879	0.0181715
727.957	0.0181292
728.035	0.0181855
728.113	0.0182427
728.192	0.0182995
728.270	0.0182994
728.348	0.0182407
728.426	0.0184306
728.504	0.0184670
728.582	0.0185014
728.660	0.0184496
728.738	0.0185359
728.817	0.0186598
728.895	0.0185671
728.973	0.0186053
729.051	0.0184493
729.129	0.0185394
729.207	0.0184751
729.285	0.0184946
729.363	0.0183604
729.442	0.0184267
729.520	0.0183460
729.598	0.0182551
729.676	0.0184245
729.754	0.0183040
729.832	0.0180835
729.910	0.0182178
729.988	0.0183212
730.067	0.0182832
730.145	0.0182577
730.223	0.0182834
730.301	0.0182708
730.379	0.0182868
730.457	0.0182368
730.535	0.0180650
730.613	0.0181976
730.692	0.0181216
730.770	0.0181194
730.848	0.0181439
730.926	0.0180936
731.004	0.0180316
731.082	0.0180237
731.160	0.0180132
731.238	0.0179241
731.317	0.0178502
731.395	0.0177839
731.473	0.0178617
731.551	0.0178872
731.629	0.0177126
731.707	0.0176266
731.785	0.0178829
731.863	0.0178782
731.942	0.0176031
732.020	0.0176933
732.098	0.0177658
732.176	0.0177793
732.254	0.0176588
732.332	0.0177967
732.410	0.0179006
732.488	0.0177938
732.567	0.0179797
732.645	0.0179330
732.723	0.0181255
732.801	0.0181541
732.879	0.0181240
732.957	0.0180811
733.035	0.0181826
733.113	0.0181776
733.192	0.0181699
733.270	0.0181467
733.348	0.0182357
733.426	0.0180146
733.504	0.0181504
733.582	0.0181213
733.660	0.0180658
733.738	0.0181095
733.817	0.0181571
733.895	0.0181832
733.973	0.0182240
734.051	0.0182363
734.129	0.0182599
734.207	0.0182382
734.285	0.0181809
734.363	0.0181642
734.442	0.0181253
734.520	0.0182127
734.598	0.0181579
734.676	0.0182194
734.754	0.0182097
734.832	0.0180293
734.910	0.0180507
734.988	0.0181857
735.067	0.0181172
735.145	0.0179865
735.223	0.0180577
735.301	0.0180206
735.379	0.0180423
735.457	0.0180606
735.535	0.0178487
735.613	0.0180795
735.692	0.0179293
735.770	0.0179935
735.848	0.0181609
735.926	0.0180153
736.004	0.0180568
736.082	0.0181821
736.160	0.0181702
736.238	0.0180941
736.317	0.0180148
736.395	0.0180266
736.473	0.0181393
736.551	0.0180473
736.629	0.0182788
736.707	0.0181517
736.785	0.0182329
736.863	0.0182690
736.942	0.0182120
737.020	0.0183672
737.098	0.0181839
737.176	0.0183521
737.254	0.0182476
737.332	0.0184232
737.410	0.0183610
737.488	0.0183168
737.567	0.0181260
737.645	0.0182545
737.723	0.0181598
737.801	0.0182335
737.879	0.0181003
737.957	0.0181261
738.035	0.0181284
738.113	0.0180737
738.192	0.0180094
738.270	0.0180924
738.348	0.0180203
738.426	0.0180437
738.504	0.0179547
738.582	0.0178967
738.660	0.0177581
738.738	0.0178486
738.817	0.0177987
738.895	0.0178120
738.973	0.0178815
739.051	0.0179280
739.129	0.0178486
739.207	0.0178239
739.285	0.0178091
739.363	0.0179343
739.442	0.0179141
739.520	0.0179575
739.598	0.0180972
739.676	0.0181420
739.754	0.0180228
739.832	0.0179961
739.910	0.0180606
739.988	0.0180580
740.067	0.0181091
740.145	0.0180509
740.223	0.0180219
740.301	0.0180563
740.379	0.0179337
740.457	0.0179630
740.535	0.0180000
740.613	0.0180257
740.692	0.0179797
740.770	0.0179899
740.848	0.0179792
740.926	0.0178040
741.004	0.0179339
741.082	0.0181402
741.160	0.0180702
741.238	0.0180759
741.317	0.0181184
741.395	0.0181031
741.473	0.0182034
741.551	0.0182747
741.629	0.0184164
741.707	0.0182404
741.785	0.0184222
741.863	0.0185451
741.942	0.0183981
742.020	0.0184820
742.098	0.0184138
742.176	0.0184676
742.254	0.0184863
742.332	0.0185272
742.410	0.0185275
742.488	0.0184116
742.567	0.0184882
742.645	0.0184035
742.723	0.0183158
742.801	0.0183521
742.879	0.0184472
742.957	0.0183726
743.035	0.0182772
743.113	0.0182732
743.192	0.0182734
743.270	0.0183395
743.348	0.0182279
743.426	0.0181051
743.504	0.0181525
743.582	0.0181936
743.660	0.0182245
743.738	0.0182529
743.817	0.0181189
743.895	0.0182020
743.973	0.0181757
744.051	0.0181546
744.129	0.0182503
744.207	0.0181882
744.285	0.0182458
744.363	0.0182089
744.442	0.0181316
744.520	0.0181139
744.598	0.0181577
744.676	0.0178939
744.754	0.0181207
744.832	0.0178767
744.910	0.0177847
744.988	0.0178082
745.067	0.0179848
745.145	0.0178349
745.223	0.0177551
745.301	0.0177193
745.379	0.0177489
745.457	0.0176573
745.535	0.0176292
745.613	0.0177644
745.692	0.0175936
745.770	0.0176096
745.848	0.0177907
745.926	0.0178162
746.004	0.0177250
746.082	0.0177509
746.160	0.0179700
746.238	0.0179423
746.317	0.0179582
746.395	0.0180391
746.473	0.0179494
746.551	0.0180455
746.629	0.0181316
746.707	0.0181327
746.785	0.0181936
746.863	0.0183492
746.942	0.0181754
747.020	0.0181971
747.098	0.0184003
747.176	0.0183009
747.254	0.0182180
747.332	0.0182279
747.410	0.0180840
747.488	0.0181813
747.567	0.0181754
747.645	0.0181932
747.723	0.0181950
747.801	0.0182299
747.879	0.0180591
747.957	0.0181832
748.035	0.0180531
748.113	0.0180452
748.192	0.0181104
748.270	0.0179848
748.348	0.0179014
748.426	0.0179752
748.504	0.0180832
748.582	0.0179420
748.660	0.0177482
748.738	0.0178380
748.817	0.0180618
748.895	0.0179434
748.973	0.0179747
749.051	0.0179397
749.129	0.0179964
749.207	0.0177853
749.285	0.0180460
749.363	0.0180002
749.442	0.0179633
749.520	0.0181529
749.598	0.0179589
749.676	0.0179756
749.754	0.0180585
749.832	0.0180772
749.910	0.0180009
749.988	0.0179973
750.067	0.0179466
750.145	0.0179293
750.223	0.0178931
750.301	0.0179918
750.379	0.0179323
750.457	0.0178460
750.535	0.0179444
750.613	0.0180584
750.692	0.0179977
750.770	0.0179623
750.848	0.0179420
750.926	0.0179110
751.004	0.0178918
751.082	0.0180577
751.160	0.0181772
751.238	0.0181570
751.317	0.0180231
751.395	0.0179699
751.473	0.0181219
751.551	0.0179914
751.629	0.0180658
751.707	0.0180448
751.785	0.0180570
751.863	0.0178762
751.942	0.0179942
752.020	0.0178923
752.098	0.0180746
752.176	0.0179146
752.254	0.0179300
752.332	0.0178838
752.410	0.0179894
752.488	0.0180588
752.567	0.0181595
752.645	0.0179628
752.723	0.0179173
752.801	0.0179665
752.879	0.0181187
752.957	0.0180873
753.035	0.0179906
753.113	0.0180839
753.192	0.0179388
753.270	0.0180320
753.348	0.0181275
753.426	0.0181202
753.504	0.0181213
753.582	0.0180209
753.660	0.0181601
753.738	0.0180846
753.817	0.0180342
753.895	0.0180975
753.973	0.0182851
754.051	0.0181341
754.129	0.0181430
754.207	0.0181064
754.285	0.0181326
754.363	0.0180706
754.442	0.0181611
754.520	0.0181686
754.598	0.0181017
754.676	0.0182452
754.754	0.0180874
754.832	0.0182526
754.910	0.0182824
754.988	0.0180685
755.067	0.0180834
755.145	0.0182967
755.223	0.0180689
755.301	0.0181141
755.379	0.0180836
755.457	0.0180744
755.535	0.0179401
755.613	0.0179858
755.692	0.0180727
755.770	0.0179556
755.848	0.0178864
755.926	0.0181091
756.004	0.0180936
756.082	0.0181800
756.160	0.0181863
756.238	0.0180492
756.317	0.0180788
756.395	0.0181736
756.473	0.0182489
756.551	0.0181464
756.629	0.0181060
756.707	0.0181621
756.785	0.0181987
756.863	0.0180937
756.942	0.0181100
757.020	0.0181061
757.098	0.0181254
757.176	0.0181776
757.254	0.0181344
757.332	0.0180482
757.410	0.0180730
757.488	0.0179330
757.567	0.0180265
757.645	0.0180781
757.723	0.0179547
757.801	0.0180038
757.879	0.0178857
757.957	0.0180857
758.035	0.0180859
758.113	0.0179790
758.192	0.0179912
758.270	0.0178854
758.348	0.0178607
758.426	0.0179621
758.504	0.0179106
758.582	0.0178259
758.660	0.0179250
758.738	0.0178383
758.817	0.0177473
758.895	0.0179056
758.973	0.0178172
759.051	0.0177653
759.129	0.0176958
759.207	0.0176241
759.285	0.0176682
759.363	0.0178072
759.442	0.0178149
759.520	0.0177717
759.598	0.0177360
759.676	0.0177694
759.754	0.0177354
759.832	0.0178444
759.910	0.0178967
759.988	0.0179581
760.067	0.0178559
760.145	0.0177847
760.223	0.0180167
760.301	0.0179044
760.379	0.0178403
760.457	0.0179633
760.535	0.0180656
760.613	0.0179646
760.692	0.0181256
760.770	0.0180009
760.848	0.0180621
760.926	0.0181113
761.004	0.0181425
761.082	0.0181081
761.160	0.0182086
761.238	0.0182368
761.317	0.0181823
761.395	0.0180264
761.473	0.0182470
761.551	0.0181133
761.629	0.0181776
761.707	0.0181391
761.785	0.0180873
761.863	0.0182520
761.942	0.0180513
762.020	0.0180541
762.098	0.0181164
762.176	0.0180624
762.254	0.0182148
762.332	0.0179942
762.410	0.0181250
762.488	0.0181473
762.567	0.0181567
762.645	0.0181886
762.723	0.0180211
762.801	0.0180260
762.879	0.0180656
762.957	0.0181435
763.035	0.0183205
763.113	0.0182437
763.192	0.0182050
763.270	0.0182581
763.348	0.0181871
763.426	0.0180624
763.504	0.0181028
763.582	0.0181239
763.660	0.0182743
763.738	0.0179697
763.817	0.0181305
763.895	0.0181341
763.973	0.0179778
764.051	0.0181427
764.129	0.0181109
764.207	0.0181873
764.285	0.0181532
764.363	0.0180567
764.442	0.0182135
764.520	0.0182165
764.598	0.0181847
764.676	0.0182932
764.754	0.0183488
764.832	0.0181982
764.910	0.0182130
764.988	0.0182808
765.067	0.0183489
765.145	0.0182851
765.223	0.0181422
765.301	0.0184157
765.379	0.0183337
765.457	0.0182067
765.535	0.0182590
765.613	0.0181844
765.692	0.0182359
765.770	0.0183189
765.848	0.0182953
765.926	0.0181258
766.004	0.0181153
766.082	0.0179590
766.160	0.0180913
766.238	0.0180651
766.317	0.0182008
766.395	0.0181030
766.473	0.0180887
766.551	0.0181441
766.629	0.0180517
766.707	0.0180452
766.785	0.0181049
766.863	0.0181593
766.942	0.0180415
767.020	0.0179402
767.098	0.0179821
767.176	0.0181571
767.254	0.0178364
767.332	0.0179556
767.410	0.0180350
767.488	0.0179100
767.567	0.0179307
767.645	0.0179002
767.723	0.0179668
767.801	0.0179146
767.879	0.0177173
767.957	0.0177859
768.035	0.0176842
768.113	0.0178069
768.192	0.0178761
768.270	0.0177428
768.348	0.0176627
768.426	0.0177077
768.504	0.0175816
768.582	0.0177076
768.660	0.0176560
768.738	0.0176403
768.817	0.0176483
768.895	0.0176691
768.973	0.0176005
769.051	0.0176814
769.129	0.0177414
769.207	0.0175606
769.285	0.0175852
769.363	0.0176952
769.442	0.0177631
769.520	0.0177592
769.598	0.0178115
769.676	0.0177222
769.754	0.0177604
769.832	0.0179364
769.910	0.0178426
769.988	0.0179529
770.067	0.0179339
770.145	0.0179320
770.223	0.0178863
770.301	0.0179601
770.379	0.0179715
770.457	0.0179025
770.535	0.0178531
770.613	0.0181018
770.692	0.0181239
770.770	0.0181104
770.848	0.0179990
770.926	0.0181393
771.004	0.0181203
771.082	0.0181049
771.160	0.0182573
771.238	0.0184953
771.317	0.0183481
771.395	0.0183279
771.473	0.0185531
771.551	0.0184160
771.629	0.0184008
771.707	0.0184602
771.785	0.0186115
771.863	0.0183643
771.942	0.0184490
772.020	0.0183271
772.098	0.0183069
772.176	0.0183263
772.254	0.0182867
772.332	0.0184409
772.410	0.0182706
772.488	0.0181780
772.567	0.0183718
772.645	0.0181406
772.723	0.0182333
772.801	0.0181738
772.879	0.0182001
772.957	0.0181494
773.035	0.0181263
773.113	0.0181892
773.192	0.0182098
773.270	0.0181377
773.348	0.0181511
773.426	0.0181006
773.504	0.0181040
773.582	0.0180573
773.660	0.0179134
773.738	0.0180041
773.817	0.0179369
773.895	0.0178364
773.973	0.0178181
774.051	0.0178843
774.129	0.0178383
774.207	0.0177377
774.285	0.0176469
774.363	0.0176825
774.442	0.0176762
774.520	0.0177200
774.598	0.0175623
774.676	0.0173732
774.754	0.0176125
774.832	0.0175710
774.910	0.0175609
774.988	0.0175895
775.067	0.0177054
775.145	0.0176115
775.223	0.0175415
775.301	0.0176057
775.379	0.0177176
775.457	0.0176765
775.535	0.0176244
775.613	0.0176272
775.692	0.0177637
775.770	0.0178091
775.848	0.0175159
775.926	0.0178143
776.004	0.0178403
776.082	0.0176937
776.160	0.0176720
776.238	0.0177592
776.317	0.0176420
776.395	0.0177242
776.473	0.0175659
776.551	0.0178235
776.629	0.0179195
776.707	0.0177032
776.785	0.0176115
776.863	0.0177242
776.942	0.0178178
777.020	0.0177626
777.098	0.0177293
777.176	0.0179083
777.254	0.0178513
777.332	0.0178125
777.410	0.0178107
777.488	0.0179739
777.567	0.0179455
777.645	0.0179404
777.723	0.0180109
777.801	0.0181258
777.879	0.0180751
777.957	0.0179939
778.035	0.0180330
778.113	0.0180500
778.192	0.0178838
778.270	0.0179987
778.348	0.0181296
778.426	0.0179800
778.504	0.0178989
778.582	0.0179562
778.660	0.0181210
778.738	0.0180628
778.817	0.0180449
778.895	0.0179980
778.973	0.0179141
779.051	0.0180342
779.129	0.0179702
779.207	0.0180002
779.285	0.0180123
779.363	0.0181034
779.442	0.0181357
779.520	0.0182790
779.598	0.0181239
779.676	0.0181358
779.754	0.0182865
779.832	0.0181712
779.910	0.0182512
779.988	0.0184100
780.067	0.0183433
780.145	0.0182372
780.223	0.0181934
780.301	0.0183184
780.379	0.0182296
780.457	0.0183466
780.535	0.0182977
780.613	0.0182627
780.692	0.0182938
780.770	0.0183095
780.848	0.0183347
780.926	0.0181819
781.004	0.0181339
781.082	0.0180404
781.160	0.0181210
781.238	0.0179690
781.317	0.0179247
781.395	0.0179162
781.473	0.0179464
781.551	0.0179009
781.629	0.0176953
781.707	0.0177029
781.785	0.0177895
781.863	0.0177504
781.942	0.0176175
782.020	0.0177684
782.098	0.0176936
782.176	0.0178197
782.254	0.0176015
782.332	0.0177890
782.410	0.0177094
782.488	0.0177838
782.567	0.0177267
782.645	0.0178464
782.723	0.0179582
782.801	0.0178226
782.879	0.0178603
782.957	0.0179420
783.035	0.0179087
783.113	0.0178152
783.192	0.0178850
783.270	0.0180693
783.348	0.0178042
783.426	0.0177912
783.504	0.0178078
783.582	0.0179296
783.660	0.0179866
783.738	0.0178942
783.817	0.0180313
783.895	0.0179527
783.973	0.0178965
784.051	0.0179282
784.129	0.0179875
784.207	0.0179314
784.285	0.0179855
784.363	0.0179445
784.442	0.0179105
784.520	0.0179889
784.598	0.0181194
784.676	0.0181555
784.754	0.0180472
784.832	0.0180492
784.910	0.0179120
784.988	0.0181741
785.067	0.0182710
785.145	0.0181557
785.223	0.0181313
785.301	0.0181569
785.379	0.0183537
785.457	0.0182400
785.535	0.0181074
785.613	0.0183389
785.692	0.0184268
785.770	0.0183076
785.848	0.0182278
785.926	0.0181616
786.004	0.0182058
786.082	0.0182139
786.160	0.0181898
786.238	0.0181989
786.317	0.0181390
786.395	0.0181006
786.473	0.0181949
786.551	0.0181775
786.629	0.0181436
786.707	0.0183003
786.785	0.0183004
786.863	0.0181040
786.942	0.0181955
787.020	0.0181528
787.098	0.0182025
787.176	0.0181244
787.254	0.0181462
787.332	0.0179951
787.410	0.0180144
787.488	0.0179796
787.567	0.0179527
787.645	0.0180748
787.723	0.0179305
787.801	0.0180145
787.879	0.0179053
787.957	0.0179469
788.035	0.0178810
788.113	0.0178870
788.192	0.0178376
788.270	0.0177546
788.348	0.0179332
788.426	0.0179147
788.504	0.0179513
788.582	0.0177613
788.660	0.0177567
788.738	0.0177277
788.817	0.0177681
788.895	0.0177592
788.973	0.0177867
789.051	0.0178822
789.129	0.0177426
789.207	0.0177018
789.285	0.0176299
789.363	0.0177214
789.442	0.0175733
789.520	0.0176361
789.598	0.0178792
789.676	0.0177626
789.754	0.0176263
789.832	0.0176048
789.910	0.0177658
789.988	0.0176487
790.067	0.0176054
790.145	0.0176842
790.223	0.0177334
790.301	0.0177713
790.379	0.0178227
790.457	0.0177383
790.535	0.0178616
790.613	0.0176876
790.692	0.0177766
790.770	0.0178891
790.848	0.0179247
790.926	0.0178612
791.004	0.0177452
791.082	0.0179269
791.160	0.0179965
791.238	0.0179356
791.317	0.0179567
791.395	0.0180756
791.473	0.0180154
791.551	0.0180125
791.629	0.0181061
791.707	0.0182125
791.785	0.0180733
791.863	0.0179893
791.942	0.0180816
792.020	0.0180298
792.098	0.0181375
792.176	0.0181705
792.254	0.0180585
792.332	0.0179421
792.410	0.0179791
792.488	0.0180509
792.567	0.0180190
792.645	0.0180631
792.723	0.0179386
792.801	0.0179944
792.879	0.0179808
792.957	0.0179576
793.035	0.0180683
793.113	0.0180547
793.192	0.0178316
793.270	0.0181805
793.348	0.0181155
793.426	0.0180485
793.504	0.0182188
793.582	0.0183230
793.660	0.0181779
793.738	0.0180454
793.817	0.0182280
793.895	0.0181371
793.973	0.0181387
794.051	0.0181079
794.129	0.0181974
794.207	0.0182701
794.285	0.0180870
794.363	0.0179969
794.442	0.0182590
794.520	0.0182314
794.598	0.0180399
794.676	0.0180023
794.754	0.0181830
794.832	0.0180096
794.910	0.0181485
794.988	0.0180180
795.067	0.0179330
795.145	0.0179435
795.223	0.0181115
795.301	0.0179212
795.379	0.0179607
795.457	0.0181744
795.535	0.0180426
795.613	0.0179408
795.692	0.0179317
795.770	0.0180447
795.848	0.0180967
795.926	0.0179995
796.004	0.0178832
796.082	0.0179391
796.160	0.0179803
796.238	0.0178643
796.317	0.0178786
796.395	0.0178683
796.473	0.0177524
796.551	0.0178880
796.629	0.0178236
796.707	0.0178529
796.785	0.0178545
796.863	0.0177663
796.942	0.0178404
797.020	0.0177374
797.098	0.0178209
797.176	0.0177078
797.254	0.0177264
797.332	0.0178537
797.410	0.0178278
797.488	0.0178232
797.567	0.0179390
797.645	0.0178506
797.723	0.0177615
797.801	0.0178671
797.879	0.0180293
797.957	0.0178369
798.035	0.0178596
798.113	0.0179606
798.192	0.0178307
798.270	0.0176664
798.348	0.0179553
798.426	0.0179795
798.504	0.0179607
798.582	0.0179865
798.660	0.0180790
798.738	0.0180299
798.817	0.0181657
798.895	0.0180158
798.973	0.0180061
799.051	0.0181291
799.129	0.0180081
799.207	0.0180340
799.285	0.0180815
799.363	0.0181126
799.442	0.0179784
799.520	0.0181122
799.598	0.0180454
799.676	0.0181165
799.754	0.0181017
799.832	0.0181722
799.910	0.0180585
799.988	0.0181647
800.067	0.0180788
800.145	0.0179462
800.223	0.0180472
800.301	0.0180643
800.379	0.0180652
800.457	0.0180306
800.535	0.0182149
800.613	0.0180430
800.692	0.0181839
800.770	0.0180781
800.848	0.0181530
800.926	0.0182473
801.004	0.0183308
801.082	0.0182907
801.160	0.0181740
801.238	0.0181477
801.317	0.0182305
801.395	0.0181625
801.473	0.0183686
801.551	0.0182430
801.629	0.0182117
801.707	0.0180743
801.785	0.0181648
801.863	0.0181604
801.942	0.0183049
802.020	0.0183506
802.098	0.0183263
802.176	0.0182623
802.254	0.0184355
802.332	0.0182249
802.410	0.0183071
802.488	0.0182921
802.567	0.0181123
802.645	0.0181088
802.723	0.0181082
802.801	0.0182319
802.879	0.0181986
802.957	0.0181498
803.035	0.0180621
803.113	0.0181541
803.192	0.0181007
803.270	0.0181066
803.348	0.0179811
803.426	0.0180959
803.504	0.0180656
803.582	0.0179864
803.660	0.0179384
803.738	0.0179829
803.817	0.0181029
803.895	0.0179543
803.973	0.0179006
804.051	0.0180882
804.129	0.0179372
804.207	0.0180000
804.285	0.0179691
804.363	0.0179124
804.442	0.0180223
804.520	0.0179929
804.598	0.0179114
804.676	0.0180443
804.754	0.0179135
804.832	0.0180873
804.910	0.0179289
804.988	0.0179563
805.067	0.0178432
805.145	0.0179385
805.223	0.0179392
805.301	0.0179733
805.379	0.0178503
805.457	0.0179177
805.535	0.0180100
805.613	0.0179301
805.692	0.0181157
805.770	0.0180775
805.848	0.0180248
805.926	0.0181563
806.004	0.0182499
806.082	0.0181536
806.160	0.0181347
806.238	0.0180499
806.317	0.0182040
806.395	0.0182255
806.473	0.0181519
806.551	0.0182065
806.629	0.0183318
806.707	0.0182630
806.785	0.0182810
806.863	0.0181606
806.942	0.0182024
807.020	0.0181796
807.098	0.0183209
807.176	0.0182314
807.254	0.0182571
807.332	0.0181620
807.410	0.0181264
807.488	0.0181152
807.567	0.0180902
807.645	0.0182745
807.723	0.0181405
807.801	0.0180306
807.879	0.0181029
807.957	0.0180460
808.035	0.0180443
808.113	0.0180690
808.192	0.0181799
808.270	0.0181921
808.348	0.0181142
808.426	0.0181048
808.504	0.0179852
808.582	0.0178972
808.660	0.0179870
808.738	0.0180298
808.817	0.0179704
808.895	0.0179298
808.973	0.0179332
809.051	0.0178985
809.129	0.0179456
809.207	0.0179941
809.285	0.0179114
809.363	0.0180087
809.442	0.0180754
809.520	0.0180108
809.598	0.0180106
809.676	0.0179298
809.754	0.0179736
809.832	0.0178990
809.910	0.0179434
809.988	0.0180060
810.067	0.0180185
810.145	0.0180646
810.223	0.0178620
810.301	0.0179884
810.379	0.0179847
810.457	0.0180273
810.535	0.0179772
810.613	0.0177879
810.692	0.0178568
810.770	0.0177459
810.848	0.0177787
810.926	0.0178898
811.004	0.0177017
811.082	0.0176623
811.160	0.0175959
811.238	0.0177103
811.317	0.0177902
811.395	0.0178320
811.473	0.0179805
811.551	0.0178979
811.629	0.0177717
811.707	0.0179527
811.785	0.0179585
811.863	0.0179875
811.942	0.0180028
812.020	0.0178931
812.098	0.0179604
812.176	0.0180262
812.254	0.0179594
812.332	0.0179307
812.410	0.0179015
812.488	0.0180708
812.567	0.0179398
812.645	0.0178613
812.723	0.0178354
812.801	0.0179346
812.879	0.0179322
812.957	0.0177493
813.035	0.0178649
813.113	0.0180030
813.192	0.0178719
813.270	0.0178958
813.348	0.0178736
813.426	0.0178156
813.504	0.0179436
813.582	0.0180785
813.660	0.0179975
813.738	0.0178685
813.817	0.0179459
813.895	0.0180880
813.973	0.0181206
814.051	0.0179874
814.129	0.0179235
814.207	0.0179552
814.285	0.0181189
814.363	0.0180376
814.442	0.0181577
814.520	0.0181631
814.598	0.0180949
814.676	0.0179993
814.754	0.0181786
814.832	0.0180734
814.910	0.0179932
814.988	0.0180249
815.067	0.0180994
815.145	0.0180584
815.223	0.0179816
815.301	0.0180112
815.379	0.0178953
815.457	0.0180629
815.535	0.0180260
815.613	0.0180828
815.692	0.0179156
815.770	0.0179981
815.848	0.0180903
815.926	0.0180832
816.004	0.0179392
816.082	0.0179332
816.160	0.0180057
816.238	0.0178720
816.317	0.0178610
816.395	0.0177984
816.473	0.0178712
816.551	0.0179584
816.629	0.0179551
816.707	0.0178577
816.785	0.0178952
816.863	0.0178423
816.942	0.0178184
817.020	0.0180424
817.098	0.0178539
817.176	0.0179711
817.254	0.0179636
817.332	0.0179420
817.410	0.0179752
817.488	0.0180124
817.567	0.0180155
817.645	0.0181198
817.723	0.0182764
817.801	0.0181857
817.879	0.0181097
817.957	0.0181791
818.035	0.0183163
818.113	0.0181466
818.192	0.0182635
818.270	0.0183036
818.348	0.0180909
818.426	0.0181152
818.504	0.0180352
818.582	0.0181239
818.660	0.0181767
818.738	0.0181324
818.817	0.0180834
818.895	0.0181688
818.973	0.0180148
819.051	0.0179947
819.129	0.0179671
819.207	0.0180534
819.285	0.0180321
819.363	0.0181248
819.442	0.0179031
819.520	0.0179778
819.598	0.0180486
819.676	0.0180204
819.754	0.0181259
819.832	0.0181052
819.910	0.0179742
819.988	0.0179900
820.067	0.0179611
820.145	0.0181718
820.223	0.0179504
820.301	0.0181172
820.379	0.0180092
820.457	0.0179692
820.535	0.0179601
820.613	0.0180580
820.692	0.0180856
820.770	0.0179186
820.848	0.0180236
820.926	0.0179536
821.004	0.0179597
821.082	0.0180648
821.160	0.0180007
821.238	0.0178860
821.317	0.0179501
821.395	0.0178761
821.473	0.0179307
821.551	0.0179221
821.629	0.0178436
821.707	0.0179376
821.785	0.0179251
821.863	0.0179001
821.942	0.0178252
822.020	0.0180524
822.098	0.0179835
822.176	0.0179564
822.254	0.0179321
822.332	0.0180640
822.410	0.0180991
822.488	0.0180502
822.567	0.0181820
822.645	0.0181143
822.723	0.0180182
822.801	0.0180673
822.879	0.0182024
822.957	0.0181615
823.035	0.0181659
823.113	0.0180730
823.192	0.0180814
823.270	0.0181620
823.348	0.0180875
823.426	0.0181303
823.504	0.0181303
823.582	0.0181882
823.660	0.0180308
823.738	0.0181305
823.817	0.0181270
823.895	0.0181675
823.973	0.0181445
824.051	0.0180912
824.129	0.0180460
824.207	0.0179818
824.285	0.0181109
824.363	0.0180798
824.442	0.0180610
824.520	0.0182161
824.598	0.0181563
824.676	0.0180800
824.754	0.0181459
824.832	0.0181326
824.910	0.0181441
824.988	0.0182533
825.067	0.0181518
825.145	0.0181261
825.223	0.0181615
825.301	0.0180530
825.379	0.0180920
825.457	0.0181597
825.535	0.0181587
825.613	0.0181114
825.692	0.0181449
825.770	0.0182358
825.848	0.0181081
825.926	0.0181301
826.004	0.0181898
826.082	0.0182784
826.160	0.0182314
826.238	0.0182714
826.317	0.0182719
826.395	0.0182363
826.473	0.0182294
826.551	0.0183073
826.629	0.0181905
826.707	0.0182632
826.785	0.0182548
826.863	0.0181358
826.942	0.0181825
827.020	0.0182816
827.098	0.0181041
827.176	0.0179810
827.254	0.0180946
827.332	0.0180737
827.410	0.0180695
827.488	0.0180771
827.567	0.0180748
827.645	0.0179965
827.723	0.0179179
827.801	0.0179736
827.879	0.0180085
827.957	0.0181258
828.035	0.0180868
828.113	0.0179866
828.192	0.0181097
828.270	0.0181112
828.348	0.0181694
828.426	0.0180615
828.504	0.0180999
828.582	0.0180654
828.660	0.0181203
828.738	0.0180843
828.817	0.0181361
828.895	0.0179852
828.973	0.0181447
829.051	0.0180221
829.129	0.0180160
829.207	0.0180734
829.285	0.0181016
829.363	0.0180524
829.442	0.0181371
829.520	0.0180566
829.598	0.0180125
829.676	0.0180074
829.754	0.0180275
829.832	0.0179313
829.910	0.0180991
829.988	0.0179399
830.067	0.0179913
830.145	0.0181676
830.223	0.0179777
830.301	0.0180164
830.379	0.0178541
830.457	0.0179933
830.535	0.0178797
830.613	0.0179037
830.692	0.0180170
830.770	0.0178766
830.848	0.0178487
830.926	0.0180729
831.004	0.0180347
831.082	0.0178941
831.160	0.0178442
831.238	0.0179936
831.317	0.0178812
831.395	0.0179324
831.473	0.0178384
831.551	0.0179572
831.629	0.0179887
831.707	0.0177763
831.785	0.0179087
831.863	0.0177657
831.942	0.0178761
832.020	0.0178235
832.098	0.0177637
832.176	0.0178677
832.254	0.0179451
832.332	0.0179968
832.410	0.0179417
832.488	0.0178928
832.567	0.0178097
832.645	0.0178291
832.723	0.0179765
832.801	0.0180052
832.879	0.0179167
832.957	0.0179235
833.035	0.0179338
833.113	0.0180620
833.192	0.0180707
833.270	0.0179086
833.348	0.0180747
833.426	0.0179683
833.504	0.0179491
833.582	0.0180762
833.660	0.0180664
833.738	0.0180959
833.817	0.0180536
833.895	0.0179983
833.973	0.0179868
834.051	0.0179506
834.129	0.0181052
834.207	0.0180371
834.285	0.0179994
834.363	0.0180722
834.442	0.0178542
834.520	0.0179586
834.598	0.0180528
834.676	0.0179073
834.754	0.0179568
834.832	0.0178350
834.910	0.0179356
834.988	0.0179182
835.067	0.0180463
835.145	0.0179911
835.223	0.0180833
835.301	0.0180765
835.379	0.0180338
835.457	0.0180807
835.535	0.0181171
835.613	0.0181061
835.692	0.0179996
835.770	0.0181994
835.848	0.0180470
835.926	0.0180714
836.004	0.0181419
836.082	0.0181563
836.160	0.0181481
836.238	0.0182430
836.317	0.0182381
836.395	0.0181716
836.473	0.0181445
836.551	0.0182042
836.629	0.0182552
836.707	0.0182062
836.785	0.0181144
836.863	0.0181010
836.942	0.0183229
837.020	0.0182125
837.098	0.0182235
837.176	0.0181465
837.254	0.0182334
837.332	0.0182001
837.410	0.0182796
837.488	0.0181129
837.567	0.0182791
837.645	0.0181374
837.723	0.0181170
837.801	0.0181508
837.879	0.0182230
837.957	0.0182538
838.035	0.0182063
838.113	0.0181131
838.192	0.0181608
838.270	0.0183567
838.348	0.0181796
838.426	0.0179261
838.504	0.0180408
838.582	0.0181589
838.660	0.0180431
838.738	0.0179111
838.817	0.0178778
838.895	0.0179662
838.973	0.0179590
839.051	0.0178409
839.129	0.0178300
839.207	0.0179598
839.285	0.0178667
839.363	0.0177381
839.442	0.0178238
839.520	0.0178615
839.598	0.0179061
839.676	0.0177641
839.754	0.0177507
839.832	0.0177678
839.910	0.0177611
839.988	0.0178210
840.067	0.0178845
840.145	0.0177485
840.223	0.0177387
840.301	0.0177556
840.379	0.0178497
840.457	0.0177605
840.535	0.0178874
840.613	0.0179355
840.692	0.0178777
840.770	0.0179478
840.848	0.0178773
840.926	0.0180001
841.004	0.0178551
841.082	0.0178967
841.160	0.0179750
841.238	0.0180597
841.317	0.0179074
841.395	0.0178336
841.473	0.0179875
841.551	0.0180954
841.629	0.0180831
841.707	0.0179849
841.785	0.0180016
841.863	0.0178585
841.942	0.0180534
842.020	0.0181528
842.098	0.0181431
842.176	0.0180212
842.254	0.0180458
842.332	0.0180963
842.410	0.0181676
842.488	0.0180103
842.567	0.0180525
842.645	0.0180497
842.723	0.0181648
842.801	0.0181077
842.879	0.0180229
842.957	0.0180653
843.035	0.0179245
843.113	0.0179942
843.192	0.0180399
843.270	0.0180677
843.348	0.0180207
843.426	0.0180005
843.504	0.0179869
843.582	0.0180932
843.660	0.0181524
843.738	0.0181776
843.817	0.0181203
843.895	0.0181487
843.973	0.0181996
844.051	0.0181738
844.129	0.0181813
844.207	0.0182033
844.285	0.0181943
844.363	0.0182746
844.442	0.0181892
844.520	0.0182786
844.598	0.0182231
844.676	0.0183193
844.754	0.0180475
844.832	0.0180476
844.910	0.0181261
844.988	0.0182625
845.067	0.0183085
845.145	0.0180284
845.223	0.0182185
845.301	0.0182053
845.379	0.0182071
845.457	0.0180621
845.535	0.0181891
845.613	0.0182080
845.692	0.0181141
845.770	0.0180514
845.848	0.0181088
845.926	0.0180499
846.004	0.0181714
846.082	0.0180927
846.160	0.0180399
846.238	0.0181873
846.317	0.0181902
846.395	0.0180199
846.473	0.0181406
846.551	0.0181809
846.629	0.0180772
846.707	0.0181765
846.785	0.0182778
846.863	0.0181343
846.942	0.0182358
847.020	0.0182372
847.098	0.0182350
847.176	0.0183686
847.254	0.0181285
847.332	0.0181523
847.410	0.0182045
847.488	0.0182697
847.567	0.0183006
847.645	0.0181261
847.723	0.0183170
847.801	0.0182116
847.879	0.0182510
847.957	0.0182854
848.035	0.0182140
848.113	0.0179936
848.192	0.0179897
848.270	0.0180586
848.348	0.0181316
848.426	0.0181232
848.504	0.0179993
848.582	0.0179449
848.660	0.0180592
848.738	0.0179411
848.817	0.0178932
848.895	0.0179355
848.973	0.0179731
849.051	0.0177843
849.129	0.0179593
849.207	0.0179626
849.285	0.0178848
849.363	0.0179182
849.442	0.0178739
849.520	0.0178410
849.598	0.0178036
849.676	0.0179917
849.754	0.0178636
849.832	0.0178193
849.910	0.0177168
849.988	0.0176040
850.067	0.0177351
850.145	0.0179119
850.223	0.0178819
850.301	0.0178366
850.379	0.0178816
850.457	0.0178862
850.535	0.0178561
850.613	0.0179147
850.692	0.0179100
850.770	0.0176974
850.848	0.0177769
850.926	0.0177808
851.004	0.0177531
851.082	0.0178293
851.160	0.0178678
851.238	0.0177326
851.317	0.0178441
851.395	0.0179681
851.473	0.0178724
851.551	0.0178268
851.629	0.0178256
851.707	0.0177193
851.785	0.0179474
851.863	0.0178893
851.942	0.0179047
852.020	0.0179109
852.098	0.0179546
852.176	0.0179081
852.254	0.0179197
852.332	0.0177427
852.410	0.0177518
852.488	0.0179728
852.567	0.0178539
852.645	0.0179227
852.723	0.0178832
852.801	0.0177946
852.879	0.0178728
852.957	0.0178371
853.035	0.0177328
853.113	0.0178119
853.192	0.0177718
853.270	0.0178944
853.348	0.0178392
853.426	0.0177910
853.504	0.0177990
853.582	0.0177486
853.660	0.0179133
853.738	0.0177754
853.817	0.0177708
853.895	0.0177460
853.973	0.0178943
854.051	0.0177987
854.129	0.0178117
854.207	0.0176983
854.285	0.0177715
854.363	0.0177827
854.442	0.0178082
854.520	0.0178751
854.598	0.0178108
854.676	0.0179446
854.754	0.0178662
854.832	0.0178571
854.910	0.0177835
854.988	0.0177737
855.067	0.0177956
855.145	0.0178976
855.223	0.0178848
855.301	0.0180254
855.379	0.0177618
855.457	0.0179520
855.535	0.0179890
855.613	0.0179112
855.692	0.0180482
855.770	0.0180275
855.848	0.0180050
855.926	0.0180076
856.004	0.0180276
856.082	0.0179716
856.160	0.0179749
856.238	0.0180347
856.317	0.0180084
856.395	0.0179390
856.473	0.0180899
856.551	0.0181238
856.629	0.0180193
856.707	0.0179315
856.785	0.0179102
856.863	0.0179710
856.942	0.0179029
857.020	0.0179661
857.098	0.0180398
857.176	0.0179854
857.254	0.0180779
857.332	0.0180535
857.410	0.0181105
857.488	0.0181251
857.567	0.0180072
857.645	0.0180710
857.723	0.0181450
857.801	0.0180713
857.879	0.0180912
857.957	0.0180573
858.035	0.0180719
858.113	0.0180764
858.192	0.0180779
858.270	0.0179502
858.348	0.0180562
858.426	0.0181001
858.504	0.0178884
858.582	0.0181849
858.660	0.0181670
858.738	0.0180953
858.817	0.0181129
858.895	0.0182205
858.973	0.0180894
859.051	0.0182968
859.129	0.0182526
859.207	0.0181767
859.285	0.0181441
859.363	0.0182913
859.442	0.0184518
859.520	0.0183321
859.598	0.0183495
859.676	0.0182550
859.754	0.0183157
859.832	0.0181412
859.910	0.0182594
859.988	0.0183526
860.067	0.0182923
860.145	0.0181830
860.223	0.0181783
860.301	0.0181706
860.379	0.0182732
860.457	0.0182028
860.535	0.0181777
860.613	0.0180969
860.692	0.0181810
860.770	0.0181849
860.848	0.0181345
860.926	0.0181200
861.004	0.0180647
861.082	0.0181370
861.160	0.0180414
861.238	0.0179521
861.317	0.0180576
861.395	0.0180618
861.473	0.0180791
861.551	0.0179329
861.629	0.0178898
861.707	0.0181075
861.785	0.0180846
861.863	0.0178914
861.942	0.0177331
862.020	0.0179717
862.098	0.0181156
862.176	0.0180035
862.254	0.0179945
862.332	0.0179662
862.410	0.0179508
862.488	0.0180591
862.567	0.0180321
862.645	0.0180328
862.723	0.0178930
862.801	0.0179799
862.879	0.0178908
862.957	0.0180701
863.035	0.0179712
863.113	0.0181166
863.192	0.0181396
863.270	0.0180182
863.348	0.0181153
863.426	0.0180882
863.504	0.0180511
863.582	0.0181213
863.660	0.0181212
863.738	0.0182156
863.817	0.0183150
863.895	0.0180376
863.973	0.0181962
864.051	0.0182150
864.129	0.0181503
864.207	0.0180824
864.285	0.0182139
864.363	0.0181757
864.442	0.0181264
864.520	0.0182150
864.598	0.0180857
864.676	0.0181267
864.754	0.0181179
864.832	0.0181184
864.910	0.0180730
864.988	0.0181232
865.067	0.0181572
865.145	0.0180883
865.223	0.0180944
865.301	0.0181592
865.379	0.0180238
865.457	0.0181448
865.535	0.0179205
865.613	0.0180243
865.692	0.0180537
865.770	0.0180647
865.848	0.0181544
865.926	0.0179713
866.004	0.0180022
866.082	0.0180424
866.160	0.0181707
866.238	0.0180751
866.317	0.0181071
866.395	0.0181520
866.473	0.0181740
866.551	0.0179932
866.629	0.0181060
866.707	0.0182224
866.785	0.0180825
866.863	0.0180357
866.942	0.0180776
867.020	0.0181002
867.098	0.0182224
867.176	0.0180476
867.254	0.0180201
867.332	0.0181824
867.410	0.0181499
867.488	0.0179416
867.567	0.0180595
867.645	0.0182018
867.723	0.0180340
867.801	0.0181994
867.879	0.0180867
867.957	0.0179925
868.035	0.0179372
868.113	0.0181206
868.192	0.0181754
868.270	0.0181855
868.348	0.0181573
868.426	0.0183801
868.504	0.0182775
868.582	0.0181220
868.660	0.0181873
868.738	0.0182834
868.817	0.0182501
868.895	0.0180292
868.973	0.0182692
869.051	0.0182530
869.129	0.0180802
869.207	0.0180434
869.285	0.0181750
869.363	0.0182269
869.442	0.0181692
869.520	0.0180077
869.598	0.0180633
869.676	0.0180901
869.754	0.0181396
869.832	0.0181155
869.910	0.0181438
869.988	0.0180885
870.067	0.0180254
870.145	0.0180143
870.223	0.0180387
870.301	0.0179226
870.379	0.0179964
870.457	0.0181239
870.535	0.0179710
870.613	0.0179875
870.692	0.0179843
870.770	0.0179473
870.848	0.0179250
870.926	0.0179736
871.004	0.0179635
871.082	0.0179237
871.160	0.0179669
871.238	0.0179253
871.317	0.0179396
871.395	0.0180126
871.473	0.0180006
871.551	0.0179250
871.629	0.0180329
871.707	0.0180649
871.785	0.0179455
871.863	0.0180604
871.942	0.0177888
872.020	0.0179855
872.098	0.0179814
872.176	0.0178072
872.254	0.0179224
872.332	0.0180167
872.410	0.0178772
872.488	0.0178875
872.567	0.0177877
872.645	0.0179102
872.723	0.0178465
872.801	0.0178110
872.879	0.0179305
872.957	0.0177792
873.035	0.0178085
873.113	0.0178349
873.192	0.0178703
873.270	0.0177706
873.348	0.0177876
873.426	0.0178516
873.504	0.0178696
873.582	0.0177948
873.660	0.0176775
873.738	0.0178660
873.817	0.0177531
873.895	0.0177417
873.973	0.0178277
874.051	0.0177460
874.129	0.0179153
874.207	0.0177836
874.285	0.0178403
874.363	0.0177387
874.442	0.0179630
874.520	0.0179445
874.598	0.0177757
874.676	0.0178574
874.754	0.0178175
874.832	0.0178228
874.910	0.0178078
874.988	0.0179451
875.067	0.0177921
875.145	0.0178294
875.223	0.0178005
875.301	0.0179898
875.379	0.0179502
875.457	0.0180036
875.535	0.0180547
875.613	0.0180887
875.692	0.0179616
875.770	0.0179709
875.848	0.0179969
875.926	0.0180316
876.004	0.0180183
876.082	0.0180265
876.160	0.0178783
876.238	0.0179996
876.317	0.0179794
876.395	0.0178906
876.473	0.0180180
876.551	0.0179302
876.629	0.0179332
876.707	0.0179552
876.785	0.0180105
876.863	0.0180824
876.942	0.0180148
877.020	0.0179838
877.098	0.0180112
877.176	0.0180583
877.254	0.0180234
877.332	0.0179092
877.410	0.0180385
877.488	0.0180334
877.567	0.0179275
877.645	0.0180353
877.723	0.0182689
877.801	0.0180526
877.879	0.0180331
877.957	0.0181329
878.035	0.0180568
878.113	0.0181047
878.192	0.0180760
878.270	0.0178782
878.348	0.0179842
878.426	0.0179547
878.504	0.0179694
878.582	0.0180054
878.660	0.0179675
878.738	0.0179291
878.817	0.0181016
878.895	0.0180438
878.973	0.0180538
879.051	0.0180126
879.129	0.0179253
879.207	0.0180297
879.285	0.0180013
879.363	0.0179990
879.442	0.0182080
879.520	0.0180776
879.598	0.0180013
879.676	0.0180916
879.754	0.0181437
879.832	0.0181190
879.910	0.0180978
879.988	0.0180400
880.067	0.0180370
880.145	0.0180730
880.223	0.0180477
880.301	0.0180936
880.379	0.0181388
880.457	0.0180197
880.535	0.0181151
880.613	0.0181680
880.692	0.0179684
880.770	0.0180293
880.848	0.0181577
880.926	0.0181225
881.004	0.0178327
881.082	0.0179935
881.160	0.0179916
881.238	0.0180957
881.317	0.0179456
881.395	0.0181124
881.473	0.0180500
881.551	0.0180168
881.629	0.0179604
881.707	0.0179633
881.785	0.0179581
881.863	0.0181042
881.942	0.0180134
882.020	0.0180426
882.098	0.0180150
882.176	0.0179457
882.254	0.0179987
882.332	0.0179227
882.410	0.0180191
882.488	0.0180487
882.567	0.0180449
882.645	0.0179266
882.723	0.0179316
882.801	0.0179994
882.879	0.0180600
882.957	0.0180269
883.035	0.0180415
883.113	0.0180775
883.192	0.0180086
883.270	0.0180459
883.348	0.0180756
883.426	0.0179512
883.504	0.0179801
883.582	0.0179060
883.660	0.0180576
883.738	0.0179993
883.817	0.0180255
883.895	0.0181036
883.973	0.0180479
884.051	0.0180797
884.129	0.0180798
884.207	0.0181239
884.285	0.0181170
884.363	0.0182331
884.442	0.0180502
884.520	0.0181085
884.598	0.0179948
884.676	0.0181425
884.754	0.0180811
884.832	0.0180661
884.910	0.0180782
884.988	0.0181248
885.067	0.0179590
885.145	0.0180829
885.223	0.0181165
885.301	0.0181362
885.379	0.0179456
885.457	0.0180112
885.535	0.0179787
885.613	0.0181186
885.692	0.0180112
885.770	0.0179721
885.848	0.0180127
885.926	0.0179268
886.004	0.0179713
886.082	0.0179877
886.160	0.0179823
886.238	0.0178323
886.317	0.0179040
886.395	0.0178980
886.473	0.0180019
886.551	0.0180172
886.629	0.0179984
886.707	0.0179403
886.785	0.0178380
886.863	0.0180529
886.942	0.0180286
887.020	0.0180255
887.098	0.0179963
887.176	0.0179929
887.254	0.0180415
887.332	0.0179330
887.410	0.0181961
887.488	0.0181058
887.567	0.0181282
887.645	0.0181083
887.723	0.0180564
887.801	0.0180949
887.879	0.0182106
887.957	0.0179402
888.035	0.0181149
888.113	0.0181324
888.192	0.0181547
888.270	0.0180838
888.348	0.0180627
888.426	0.0181776
888.504	0.0180640
888.582	0.0181554
888.660	0.0181834
888.738	0.0180553
888.817	0.0181129
888.895	0.0181133
888.973	0.0180624
889.051	0.0180760
889.129	0.0180547
889.207	0.0181941
889.285	0.0180675
889.363	0.0179941
889.442	0.0180267
889.520	0.0180656
889.598	0.0180392
889.676	0.0181259
889.754	0.0181026
889.832	0.0180711
889.910	0.0180471
889.988	0.0180664
890.067	0.0179339
890.145	0.0180802
890.223	0.0180741
890.301	0.0179832
890.379	0.0180775
890.457	0.0181303
890.535	0.0180706
890.613	0.0179415
890.692	0.0180058
890.770	0.0180302
890.848	0.0180743
890.926	0.0179486
891.004	0.0179198
891.082	0.0178767
891.160	0.0179694
891.238	0.0179473
891.317	0.0178784
891.395	0.0181037
891.473	0.0179990
891.551	0.0179466
891.629	0.0178871
891.707	0.0179253
891.785	0.0180336
891.863	0.0179816
891.942	0.0179333
892.020	0.0180571
892.098	0.0179660
892.176	0.0179464
892.254	0.0178707
892.332	0.0179444
892.410	0.0178994
892.488	0.0179790
892.567	0.0179578
892.645	0.0178429
892.723	0.0179678
892.801	0.0179957
892.879	0.0179553
892.957	0.0178169
893.035	0.0178886
893.113	0.0179375
893.192	0.0179787
893.270	0.0178961
893.348	0.0177473
893.426	0.0178462
893.504	0.0179710
893.582	0.0178808
893.660	0.0178375
893.738	0.0178261
893.817	0.0178715
893.895	0.0179229
893.973	0.0178639
894.051	0.0178574
894.129	0.0179500
894.207	0.0179744
894.285	0.0178381
894.363	0.0180318
894.442	0.0177724
894.520	0.0178617
894.598	0.0179491
894.676	0.0179503
894.754	0.0178457
894.832	0.0178081
894.910	0.0177934
894.988	0.0179362
895.067	0.0178626
895.145	0.0178072
895.223	0.0179295
895.301	0.0177879
895.379	0.0177759
895.457	0.0177515
895.535	0.0177409
895.613	0.0178356
895.692	0.0177985
895.770	0.0177753
895.848	0.0177532
895.926	0.0177745
896.004	0.0178741
896.082	0.0177556
896.160	0.0176644
896.238	0.0177812
896.317	0.0177996
896.395	0.0178689
896.473	0.0178613
896.551	0.0177979
896.629	0.0178017
896.707	0.0178524
896.785	0.0179010
896.863	0.0177674
896.942	0.0177563
897.020	0.0179768
897.098	0.0179779
897.176	0.0179043
897.254	0.0179385
897.332	0.0179485
897.410	0.0179225
897.488	0.0179697
897.567	0.0180602
897.645	0.0180725
897.723	0.0178914
897.801	0.0178260
897.879	0.0178986
897.957	0.0181441
898.035	0.0180561
898.113	0.0180337
898.192	0.0179456
898.270	0.0179327
898.348	0.0179554
898.426	0.0181568
898.504	0.0181130
898.582	0.0181874
898.660	0.0180937
898.738	0.0181110
898.817	0.0179866
898.895	0.0180584
898.973	0.0181207
899.051	0.0180433
899.129	0.0179816
899.207	0.0180170
899.285	0.0180867
899.363	0.0180733
899.442	0.0181388
899.520	0.0180657
899.598	0.0179855
899.676	0.0180650
899.754	0.0181628
899.832	0.0181329
899.910	0.0180398
899.988	0.0180094
900.067	0.0180415
900.145	0.0179564
900.223	0.0180543
900.301	0.0180366
900.379	0.0180103
900.457	0.0178957
900.535	0.0180458
900.613	0.0179681
900.692	0.0180919
900.770	0.0179855
900.848	0.0179913
900.926	0.0179565
901.004	0.0180692
901.082	0.0181178
901.160	0.0181331
901.238	0.0181622
901.317	0.0180508
901.395	0.0181894
901.473	0.0182681
901.551	0.0182251
901.629	0.0182433
901.707	0.0182652
901.785	0.0181099
901.863	0.0182224
901.942	0.0181779
902.020	0.0182681
902.098	0.0183090
902.176	0.0182748
902.254	0.0182792
902.332	0.0182384
902.410	0.0183523
902.488	0.0182425
902.567	0.0182024
902.645	0.0184213
902.723	0.0183454
902.801	0.0182159
902.879	0.0181873
902.957	0.0182888
903.035	0.0183031
903.113	0.0182270
903.192	0.0182342
903.270	0.0183492
903.348	0.0182872
903.426	0.0181565
903.504	0.0183403
903.582	0.0182379
903.660	0.0181622
903.738	0.0182143
903.817	0.0182444
903.895	0.0181811
903.973	0.0181605
904.051	0.0181252
904.129	0.0182359
904.207	0.0182541
904.285	0.0181152
904.363	0.0182111
904.442	0.0181773
904.520	0.0181461
904.598	0.0182420
904.676	0.0182545
904.754	0.0182256
904.832	0.0181921
904.910	0.0182465
904.988	0.0181961
905.067	0.0181451
905.145	0.0182132
905.223	0.0181675
905.301	0.0182020
905.379	0.0182391
905.457	0.0182166
905.535	0.0182008
905.613	0.0181697
905.692	0.0181818
905.770	0.0181004
905.848	0.0181264
905.926	0.0181717
906.004	0.0182764
906.082	0.0181314
906.160	0.0181253
906.238	0.0181066
906.317	0.0181261
906.395	0.0180808
906.473	0.0180779
906.551	0.0181422
906.629	0.0181726
906.707	0.0181559
906.785	0.0180627
906.863	0.0180627
906.942	0.0182040
907.020	0.0181036
907.098	0.0181816
907.176	0.0181828
907.254	0.0179826
907.332	0.0182211
907.410	0.0181403
907.488	0.0182368
907.567	0.0181451
907.645	0.0181303
907.723	0.0181238
907.801	0.0180723
907.879	0.0181851
907.957	0.0181651
908.035	0.0181056
908.113	0.0180807
908.192	0.0180520
908.270	0.0180813
908.348	0.0181609
908.426	0.0180100
908.504	0.0179517
908.582	0.0181261
908.660	0.0182082
908.738	0.0178525
908.817	0.0179744
908.895	0.0179417
908.973	0.0179761
909.051	0.0179606
909.129	0.0179308
909.207	0.0179157
909.285	0.0178756
909.363	0.0178755
909.442	0.0179993
909.520	0.0178913
909.598	0.0179337
909.676	0.0180824
909.754	0.0180868
909.832	0.0180025
909.910	0.0180849
909.988	0.0180247
910.067	0.0178470
910.145	0.0178495
910.223	0.0178553
910.301	0.0178465
910.379	0.0179958
910.457	0.0179304
910.535	0.0179188
910.613	0.0178870
910.692	0.0179102
910.770	0.0179372
910.848	0.0178103
910.926	0.0177607
911.004	0.0179541
911.082	0.0178297
911.160	0.0177662
911.238	0.0178337
911.317	0.0179037
911.395	0.0178531
911.473	0.0180251
911.551	0.0179805
911.629	0.0179557
911.707	0.0181130
911.785	0.0179471
911.863	0.0179971
911.942	0.0180927
912.020	0.0180903
912.098	0.0180667
912.176	0.0181140
912.254	0.0182494
912.332	0.0182279
912.410	0.0181305
912.488	0.0180796
912.567	0.0181186
912.645	0.0181828
912.723	0.0182787
912.801	0.0182973
912.879	0.0182103
912.957	0.0180277
913.035	0.0180328
913.113	0.0180173
913.192	0.0181533
913.270	0.0181362
913.348	0.0180956
913.426	0.0178584
913.504	0.0180367
913.582	0.0179979
913.660	0.0179304
913.738	0.0178934
913.817	0.0180499
913.895	0.0180528
913.973	0.0180391
914.051	0.0180022
914.129	0.0179218
914.207	0.0178133
914.285	0.0178608
914.363	0.0178784
914.442	0.0177438
914.520	0.0178176
914.598	0.0179333
914.676	0.0179026
914.754	0.0179134
914.832	0.0178407
914.910	0.0177455
914.988	0.0179032
915.067	0.0179053
915.145	0.0177737
915.223	0.0178288
915.301	0.0178197
915.379	0.0177920
915.457	0.0178576
915.535	0.0179169
915.613	0.0177874
915.692	0.0178259
915.770	0.0178738
915.848	0.0178916
915.926	0.0178470
916.004	0.0178960
916.082	0.0178861
916.160	0.0177310
916.238	0.0179329
916.317	0.0179840
916.395	0.0179742
916.473	0.0179861
916.551	0.0180481
916.629	0.0179535
916.707	0.0178952
916.785	0.0179287
916.863	0.0180727
916.942	0.0179903
917.020	0.0180878
917.098	0.0180161
917.176	0.0179301
917.254	0.0180481
917.332	0.0179771
917.410	0.0180688
917.488	0.0180320
917.567	0.0178439
917.645	0.0179076
917.723	0.0179910
917.801	0.0178780
917.879	0.0179797
917.957	0.0180130
918.035	0.0179837
918.113	0.0180565
918.192	0.0179275
918.270	0.0180101
918.348	0.0181171
918.426	0.0180081
918.504	0.0180216
918.582	0.0180635
918.660	0.0180355
918.738	0.0181474
918.817	0.0179633
918.895	0.0179200
918.973	0.0179305
919.051	0.0180737
919.129	0.0179755
919.207	0.0179405
919.285	0.0179896
919.363	0.0179976
919.442	0.0179655
919.520	0.0179696
919.598	0.0179662
919.676	0.0180218
919.754	0.0178059
919.832	0.0177293
919.910	0.0178717
