06/01/2022	22:13:59	Ver.	4.1	UNKNOWN
Optical Delay	599.988409	Delta X		0.078125	Sweeps	1	Scan Rate	0/0
Coordinates	Axis 1	NaN	Axis 2	NaN	Axis 3	NaN	Axis 4	NaN	Axis 5	NaN	Axis 6	0.000000
TX Power	0.000000	RX Power	0.000000

599.988	0.0179882
600.067	0.0180502
600.145	0.0180238
600.223	0.0179996
600.301	0.0180714
600.379	0.0182935
600.457	0.0181380
600.535	0.0180966
600.613	0.0181662
600.692	0.0180151
600.770	0.0180721
600.848	0.0180096
600.926	0.0179951
601.004	0.0180840
601.082	0.0180635
601.160	0.0181887
601.238	0.0181016
601.317	0.0180265
601.395	0.0181104
601.473	0.0180111
601.551	0.0180701
601.629	0.0180263
601.707	0.0180190
601.785	0.0180633
601.863	0.0178784
601.942	0.0180264
602.020	0.0181023
602.098	0.0181058
602.176	0.0178701
602.254	0.0177200
602.332	0.0178851
602.410	0.0180029
602.488	0.0179363
602.567	0.0179705
602.645	0.0180395
602.723	0.0179105
602.801	0.0179398
602.879	0.0177084
602.957	0.0178638
603.035	0.0177398
603.113	0.0179627
603.192	0.0179582
603.270	0.0180587
603.348	0.0179888
603.426	0.0179273
603.504	0.0177825
603.582	0.0179486
603.660	0.0177744
603.738	0.0178744
603.817	0.0179441
603.895	0.0178448
603.973	0.0179266
604.051	0.0177957
604.129	0.0178628
604.207	0.0179017
604.285	0.0180302
604.363	0.0179118
604.442	0.0177470
604.520	0.0178066
604.598	0.0178777
604.676	0.0179908
604.754	0.0177961
604.832	0.0178840
604.910	0.0177107
604.988	0.0178183
605.067	0.0178069
605.145	0.0177238
605.223	0.0178671
605.301	0.0178366
605.379	0.0178702
605.457	0.0177688
605.535	0.0177692
605.613	0.0177778
605.692	0.0177055
605.770	0.0177941
605.848	0.0178304
605.926	0.0178844
606.004	0.0177818
606.082	0.0179153
606.160	0.0178550
606.238	0.0178945
606.317	0.0178551
606.395	0.0177463
606.473	0.0178260
606.551	0.0179054
606.629	0.0178220
606.707	0.0179594
606.785	0.0179169
606.863	0.0178661
606.942	0.0180183
607.020	0.0178770
607.098	0.0180096
607.176	0.0180191
607.254	0.0179807
607.332	0.0178925
607.410	0.0179941
607.488	0.0179289
607.567	0.0179723
607.645	0.0180006
607.723	0.0179337
607.801	0.0179286
607.879	0.0177867
607.957	0.0179243
608.035	0.0178956
608.113	0.0178561
608.192	0.0180248
608.270	0.0177804
608.348	0.0179603
608.426	0.0178889
608.504	0.0179775
608.582	0.0178619
608.660	0.0180254
608.738	0.0179560
608.817	0.0179482
608.895	0.0179181
608.973	0.0178221
609.051	0.0177966
609.129	0.0179494
609.207	0.0179061
609.285	0.0178376
609.363	0.0178103
609.442	0.0179720
609.520	0.0179559
609.598	0.0177110
609.676	0.0177970
609.754	0.0178666
609.832	0.0178091
609.910	0.0177738
609.988	0.0178080
610.067	0.0177778
610.145	0.0179705
610.223	0.0178575
610.301	0.0177370
610.379	0.0178526
610.457	0.0178234
610.535	0.0177222
610.613	0.0178471
610.692	0.0177807
610.770	0.0177780
610.848	0.0178864
610.926	0.0179572
611.004	0.0177911
611.082	0.0178883
611.160	0.0180341
611.238	0.0179373
611.317	0.0178889
611.395	0.0179431
611.473	0.0179462
611.551	0.0177084
611.629	0.0178219
611.707	0.0179327
611.785	0.0177544
611.863	0.0179993
611.942	0.0179169
612.020	0.0179189
612.098	0.0179807
612.176	0.0180326
612.254	0.0178714
612.332	0.0179854
612.410	0.0179491
612.488	0.0179470
612.567	0.0179190
612.645	0.0180165
612.723	0.0180350
612.801	0.0179300
612.879	0.0179633
612.957	0.0180412
613.035	0.0178773
613.113	0.0180922
613.192	0.0180570
613.270	0.0180177
613.348	0.0181226
613.426	0.0180039
613.504	0.0179311
613.582	0.0180769
613.660	0.0182893
613.738	0.0180520
613.817	0.0179969
613.895	0.0181616
613.973	0.0179306
614.051	0.0179772
614.129	0.0180968
614.207	0.0180997
614.285	0.0179957
614.363	0.0179514
614.442	0.0181141
614.520	0.0179973
614.598	0.0178837
614.676	0.0180012
614.754	0.0178926
614.832	0.0179334
614.910	0.0179818
614.988	0.0179290
615.067	0.0180255
615.145	0.0179674
615.223	0.0179721
615.301	0.0181498
615.379	0.0180102
615.457	0.0180302
615.535	0.0180025
615.613	0.0179758
615.692	0.0179260
615.770	0.0179066
615.848	0.0179620
615.926	0.0179452
616.004	0.0180212
616.082	0.0180476
616.160	0.0180537
616.238	0.0179681
616.317	0.0180126
616.395	0.0180180
616.473	0.0180510
616.551	0.0180421
616.629	0.0180582
616.707	0.0180106
616.785	0.0181281
616.863	0.0181341
616.942	0.0180756
617.020	0.0180436
617.098	0.0180814
617.176	0.0181287
617.254	0.0180354
617.332	0.0182244
617.410	0.0179831
617.488	0.0180566
617.567	0.0181154
617.645	0.0180310
617.723	0.0180862
617.801	0.0180339
617.879	0.0180161
617.957	0.0179639
618.035	0.0179478
618.113	0.0180605
618.192	0.0181201
618.270	0.0180061
618.348	0.0180260
618.426	0.0178976
618.504	0.0179967
618.582	0.0180446
618.660	0.0179929
618.738	0.0180968
618.817	0.0180962
618.895	0.0180106
618.973	0.0180182
619.051	0.0180193
619.129	0.0179454
619.207	0.0179156
619.285	0.0178600
619.363	0.0180943
619.442	0.0180390
619.520	0.0180052
619.598	0.0180064
619.676	0.0179828
619.754	0.0180073
619.832	0.0179523
619.910	0.0180393
619.988	0.0178599
620.067	0.0178980
620.145	0.0178746
620.223	0.0179974
620.301	0.0178488
620.379	0.0179029
620.457	0.0179343
620.535	0.0180400
620.613	0.0179877
620.692	0.0178782
620.770	0.0178770
620.848	0.0179113
620.926	0.0179730
621.004	0.0180516
621.082	0.0180857
621.160	0.0178298
621.238	0.0179324
621.317	0.0179839
621.395	0.0178876
621.473	0.0179575
621.551	0.0179506
621.629	0.0179926
621.707	0.0179205
621.785	0.0180379
621.863	0.0179404
621.942	0.0179108
622.020	0.0179649
622.098	0.0179438
622.176	0.0179876
622.254	0.0178304
622.332	0.0179266
622.410	0.0180320
622.488	0.0179617
622.567	0.0178689
622.645	0.0177634
622.723	0.0180624
622.801	0.0179751
622.879	0.0178575
622.957	0.0179044
623.035	0.0178664
623.113	0.0180066
623.192	0.0179303
623.270	0.0179549
623.348	0.0178520
623.426	0.0179279
623.504	0.0179755
623.582	0.0180348
623.660	0.0180202
623.738	0.0179675
623.817	0.0180153
623.895	0.0179350
623.973	0.0180192
624.051	0.0179813
624.129	0.0180128
624.207	0.0180074
624.285	0.0180136
624.363	0.0179960
624.442	0.0181235
624.520	0.0180110
624.598	0.0180060
624.676	0.0179688
624.754	0.0179947
624.832	0.0180191
624.910	0.0179549
624.988	0.0178358
625.067	0.0177985
625.145	0.0178590
625.223	0.0179131
625.301	0.0179135
625.379	0.0178297
625.457	0.0177344
625.535	0.0179394
625.613	0.0179290
625.692	0.0178782
625.770	0.0177186
625.848	0.0177906
625.926	0.0177558
626.004	0.0178449
626.082	0.0178354
626.160	0.0177278
626.238	0.0177415
626.317	0.0177737
626.395	0.0178546
626.473	0.0178856
626.551	0.0179346
626.629	0.0176785
626.707	0.0175563
626.785	0.0178546
626.863	0.0177087
626.942	0.0177959
627.020	0.0179019
627.098	0.0176729
627.176	0.0178344
627.254	0.0178373
627.332	0.0176951
627.410	0.0177691
627.488	0.0179041
627.567	0.0179752
627.645	0.0178576
627.723	0.0179244
627.801	0.0177879
627.879	0.0178477
627.957	0.0176869
628.035	0.0178702
628.113	0.0176767
628.192	0.0178407
628.270	0.0179232
628.348	0.0178022
628.426	0.0179017
628.504	0.0178514
628.582	0.0180367
628.660	0.0178892
628.738	0.0177451
628.817	0.0178676
628.895	0.0178090
628.973	0.0178905
629.051	0.0178921
629.129	0.0179306
629.207	0.0177914
629.285	0.0177884
629.363	0.0178695
629.442	0.0178235
629.520	0.0178548
629.598	0.0177680
629.676	0.0177650
629.754	0.0177650
629.832	0.0177853
629.910	0.0177566
629.988	0.0177641
630.067	0.0178616
630.145	0.0177415
630.223	0.0178379
630.301	0.0176878
630.379	0.0178719
630.457	0.0177924
630.535	0.0178693
630.613	0.0178571
630.692	0.0178047
630.770	0.0178497
630.848	0.0178410
630.926	0.0179757
631.004	0.0179401
631.082	0.0179000
631.160	0.0179294
631.238	0.0179610
631.317	0.0179294
631.395	0.0178672
631.473	0.0179405
631.551	0.0179788
631.629	0.0179507
631.707	0.0180683
631.785	0.0180406
631.863	0.0179613
631.942	0.0179894
632.020	0.0179694
632.098	0.0180541
632.176	0.0179903
632.254	0.0181420
632.332	0.0181214
632.410	0.0180982
632.488	0.0180756
632.567	0.0181587
632.645	0.0181590
632.723	0.0180458
632.801	0.0181638
632.879	0.0182884
632.957	0.0180902
633.035	0.0180685
633.113	0.0181895
633.192	0.0182008
633.270	0.0181574
633.348	0.0181049
633.426	0.0183008
633.504	0.0182188
633.582	0.0182205
633.660	0.0181284
633.738	0.0183163
633.817	0.0182281
633.895	0.0181507
633.973	0.0182717
634.051	0.0182781
634.129	0.0182088
634.207	0.0181898
634.285	0.0181149
634.363	0.0182192
634.442	0.0181931
634.520	0.0181605
634.598	0.0181982
634.676	0.0181142
634.754	0.0180054
634.832	0.0181541
634.910	0.0181627
634.988	0.0181689
635.067	0.0180798
635.145	0.0182179
635.223	0.0181638
635.301	0.0181100
635.379	0.0180854
635.457	0.0181615
635.535	0.0181948
635.613	0.0180828
635.692	0.0181127
635.770	0.0182572
635.848	0.0181171
635.926	0.0180659
636.004	0.0181815
636.082	0.0181980
636.160	0.0181319
636.238	0.0180746
636.317	0.0181471
636.395	0.0180526
636.473	0.0181056
636.551	0.0181098
636.629	0.0181857
636.707	0.0180900
636.785	0.0181252
636.863	0.0180885
636.942	0.0179890
637.020	0.0180399
637.098	0.0179865
637.176	0.0181236
637.254	0.0180884
637.332	0.0178996
637.410	0.0180555
637.488	0.0181250
637.567	0.0179897
637.645	0.0181717
637.723	0.0179564
637.801	0.0179398
637.879	0.0180186
637.957	0.0179893
638.035	0.0179379
638.113	0.0179344
638.192	0.0180032
638.270	0.0179282
638.348	0.0179304
638.426	0.0181738
638.504	0.0181445
638.582	0.0179536
638.660	0.0179889
638.738	0.0180215
638.817	0.0178862
638.895	0.0179903
638.973	0.0179997
639.051	0.0181301
639.129	0.0179905
639.207	0.0179457
639.285	0.0180297
639.363	0.0180939
639.442	0.0180644
639.520	0.0181512
639.598	0.0179863
639.676	0.0180527
639.754	0.0181017
639.832	0.0180817
639.910	0.0180589
639.988	0.0180136
640.067	0.0180944
640.145	0.0179524
640.223	0.0179697
640.301	0.0180394
640.379	0.0180543
640.457	0.0179626
640.535	0.0180711
640.613	0.0180974
640.692	0.0180569
640.770	0.0180529
640.848	0.0181099
640.926	0.0180656
641.004	0.0180354
641.082	0.0178825
641.160	0.0180602
641.238	0.0180203
641.317	0.0179436
641.395	0.0179531
641.473	0.0180582
641.551	0.0181079
641.629	0.0180638
641.707	0.0179950
641.785	0.0180262
641.863	0.0179720
641.942	0.0179372
642.020	0.0180236
642.098	0.0179538
642.176	0.0180375
642.254	0.0179247
642.332	0.0179839
642.410	0.0179855
642.488	0.0178255
642.567	0.0178623
642.645	0.0179821
642.723	0.0180110
642.801	0.0179296
642.879	0.0178757
642.957	0.0178635
643.035	0.0180059
643.113	0.0177708
643.192	0.0179080
643.270	0.0178877
643.348	0.0178116
643.426	0.0179049
643.504	0.0177829
643.582	0.0178677
643.660	0.0178253
643.738	0.0178729
643.817	0.0179294
643.895	0.0179068
643.973	0.0178607
644.051	0.0179806
644.129	0.0178978
644.207	0.0179052
644.285	0.0179250
644.363	0.0179276
644.442	0.0179597
644.520	0.0179857
644.598	0.0180074
644.676	0.0179020
644.754	0.0179549
644.832	0.0181062
644.910	0.0179902
644.988	0.0179857
645.067	0.0179282
645.145	0.0180373
645.223	0.0180325
645.301	0.0180605
645.379	0.0180256
645.457	0.0179743
645.535	0.0180643
645.613	0.0180093
645.692	0.0179148
645.770	0.0178843
645.848	0.0178605
645.926	0.0180331
646.004	0.0179179
646.082	0.0179557
646.160	0.0179724
646.238	0.0179909
646.317	0.0178125
646.395	0.0178387
646.473	0.0178960
646.551	0.0178629
646.629	0.0178635
646.707	0.0178406
646.785	0.0178159
646.863	0.0178603
646.942	0.0178382
647.020	0.0177235
647.098	0.0177810
647.176	0.0177340
647.254	0.0177947
647.332	0.0176776
647.410	0.0178078
647.488	0.0178207
647.567	0.0177511
647.645	0.0176976
647.723	0.0178172
647.801	0.0178554
647.879	0.0178629
647.957	0.0177538
648.035	0.0177594
648.113	0.0177419
648.192	0.0177412
648.270	0.0178416
648.348	0.0178248
648.426	0.0177455
648.504	0.0179407
648.582	0.0178564
648.660	0.0177699
648.738	0.0180359
648.817	0.0179642
648.895	0.0178690
648.973	0.0179704
649.051	0.0178766
649.129	0.0181094
649.207	0.0180905
649.285	0.0180190
649.363	0.0180447
649.442	0.0181902
649.520	0.0182198
649.598	0.0181316
649.676	0.0181039
649.754	0.0182151
649.832	0.0182703
649.910	0.0181536
649.988	0.0181785
650.067	0.0182314
650.145	0.0180775
650.223	0.0181582
650.301	0.0181890
650.379	0.0182021
650.457	0.0182903
650.535	0.0181269
650.613	0.0181289
650.692	0.0181589
650.770	0.0180352
650.848	0.0180721
650.926	0.0181862
651.004	0.0180635
651.082	0.0181812
651.160	0.0180293
651.238	0.0181813
651.317	0.0180852
651.395	0.0180534
651.473	0.0181329
651.551	0.0180936
651.629	0.0181100
651.707	0.0179498
651.785	0.0179778
651.863	0.0179436
651.942	0.0180183
652.020	0.0180962
652.098	0.0180862
652.176	0.0180370
652.254	0.0180259
652.332	0.0180799
652.410	0.0179987
652.488	0.0180259
652.567	0.0180013
652.645	0.0180080
652.723	0.0180413
652.801	0.0180956
652.879	0.0180960
652.957	0.0180944
653.035	0.0179215
653.113	0.0181013
653.192	0.0180675
653.270	0.0180457
653.348	0.0181882
653.426	0.0180862
653.504	0.0179297
653.582	0.0179971
653.660	0.0181525
653.738	0.0179913
653.817	0.0179449
653.895	0.0179939
653.973	0.0181273
654.051	0.0179730
654.129	0.0181124
654.207	0.0180000
654.285	0.0178294
654.363	0.0178464
654.442	0.0177843
654.520	0.0178619
654.598	0.0178902
654.676	0.0180200
654.754	0.0179724
654.832	0.0178561
654.910	0.0178693
654.988	0.0180079
655.067	0.0180313
655.145	0.0179546
655.223	0.0179523
655.301	0.0178341
655.379	0.0179901
655.457	0.0180609
655.535	0.0180798
655.613	0.0180322
655.692	0.0180427
655.770	0.0180095
655.848	0.0180666
655.926	0.0179989
656.004	0.0179589
656.082	0.0179868
656.160	0.0179971
656.238	0.0179037
656.317	0.0180902
656.395	0.0180585
656.473	0.0179801
656.551	0.0179557
656.629	0.0181031
656.707	0.0179387
656.785	0.0180594
656.863	0.0179575
656.942	0.0180096
657.020	0.0179922
657.098	0.0179889
657.176	0.0179217
657.254	0.0179029
657.332	0.0180894
657.410	0.0179853
657.488	0.0180260
657.567	0.0180027
657.645	0.0179955
657.723	0.0181229
657.801	0.0178918
657.879	0.0180158
657.957	0.0180056
658.035	0.0179591
658.113	0.0179005
658.192	0.0180329
658.270	0.0179366
658.348	0.0179440
658.426	0.0179382
658.504	0.0180265
658.582	0.0180871
658.660	0.0178893
658.738	0.0178228
658.817	0.0179155
658.895	0.0180168
658.973	0.0179038
659.051	0.0180006
659.129	0.0179773
659.207	0.0178883
659.285	0.0179569
659.363	0.0180054
659.442	0.0178426
659.520	0.0178548
659.598	0.0179017
659.676	0.0179469
659.754	0.0180441
659.832	0.0180445
659.910	0.0179272
659.988	0.0180076
660.067	0.0180683
660.145	0.0179949
660.223	0.0179294
660.301	0.0181078
660.379	0.0179574
660.457	0.0180309
660.535	0.0180677
660.613	0.0180151
660.692	0.0179190
660.770	0.0179533
660.848	0.0179789
660.926	0.0180520
661.004	0.0180177
661.082	0.0180010
661.160	0.0180038
661.238	0.0180270
661.317	0.0180938
661.395	0.0180255
661.473	0.0179716
661.551	0.0180680
661.629	0.0180463
661.707	0.0180550
661.785	0.0179662
661.863	0.0181774
661.942	0.0181185
662.020	0.0180513
662.098	0.0181061
662.176	0.0180384
662.254	0.0180341
662.332	0.0181368
662.410	0.0181019
662.488	0.0180461
662.567	0.0180439
662.645	0.0180193
662.723	0.0181356
662.801	0.0179409
662.879	0.0179394
662.957	0.0179549
663.035	0.0180186
663.113	0.0180027
663.192	0.0179279
663.270	0.0180558
663.348	0.0180215
663.426	0.0179671
663.504	0.0179147
663.582	0.0180430
663.660	0.0180209
663.738	0.0179023
663.817	0.0179092
663.895	0.0181417
663.973	0.0179751
664.051	0.0180457
664.129	0.0182110
664.207	0.0180508
664.285	0.0179829
664.363	0.0179651
664.442	0.0180227
664.520	0.0180119
664.598	0.0179897
664.676	0.0179615
664.754	0.0178964
664.832	0.0179725
664.910	0.0179803
664.988	0.0177742
665.067	0.0180431
665.145	0.0178163
665.223	0.0179461
665.301	0.0179870
665.379	0.0180212
665.457	0.0178793
665.535	0.0179624
665.613	0.0178170
665.692	0.0177170
665.770	0.0178276
665.848	0.0178304
665.926	0.0180219
666.004	0.0179082
666.082	0.0178435
666.160	0.0178906
666.238	0.0179016
666.317	0.0179003
666.395	0.0178985
666.473	0.0179871
666.551	0.0179239
666.629	0.0179398
666.707	0.0179386
666.785	0.0178900
666.863	0.0180051
666.942	0.0179285
667.020	0.0178098
667.098	0.0179020
667.176	0.0178598
667.254	0.0178002
667.332	0.0178595
667.410	0.0178989
667.488	0.0178767
667.567	0.0178314
667.645	0.0178526
667.723	0.0178596
667.801	0.0177729
667.879	0.0177311
667.957	0.0178269
668.035	0.0178909
668.113	0.0178720
668.192	0.0178191
668.270	0.0178658
668.348	0.0179138
668.426	0.0180406
668.504	0.0179312
668.582	0.0178259
668.660	0.0179643
668.738	0.0180137
668.817	0.0178265
668.895	0.0180314
668.973	0.0180971
669.051	0.0179681
669.129	0.0179087
669.207	0.0180630
669.285	0.0179236
669.363	0.0179483
669.442	0.0179280
669.520	0.0180602
669.598	0.0179562
669.676	0.0180370
669.754	0.0181102
669.832	0.0180264
669.910	0.0180894
669.988	0.0180049
670.067	0.0180305
670.145	0.0179926
670.223	0.0180634
670.301	0.0180437
670.379	0.0179707
670.457	0.0180146
670.535	0.0181992
670.613	0.0181979
670.692	0.0181169
670.770	0.0180721
670.848	0.0180789
670.926	0.0181773
671.004	0.0181789
671.082	0.0182624
671.160	0.0182412
671.238	0.0181988
671.317	0.0182348
671.395	0.0182638
671.473	0.0182461
671.551	0.0184251
671.629	0.0182898
671.707	0.0182144
671.785	0.0182832
671.863	0.0182499
671.942	0.0182475
672.020	0.0183880
672.098	0.0184452
672.176	0.0183659
672.254	0.0182412
672.332	0.0182910
672.410	0.0181232
672.488	0.0183834
672.567	0.0181039
672.645	0.0182082
672.723	0.0181193
672.801	0.0182825
672.879	0.0182084
672.957	0.0182533
673.035	0.0183773
673.113	0.0182088
673.192	0.0179962
673.270	0.0181016
673.348	0.0181511
673.426	0.0181598
673.504	0.0181382
673.582	0.0180902
673.660	0.0180505
673.738	0.0182006
673.817	0.0181479
673.895	0.0180994
673.973	0.0180641
674.051	0.0180910
674.129	0.0180630
674.207	0.0180893
674.285	0.0178844
674.363	0.0180501
674.442	0.0179652
674.520	0.0180748
674.598	0.0180173
674.676	0.0178435
674.754	0.0179345
674.832	0.0179273
674.910	0.0178239
674.988	0.0178623
675.067	0.0178752
675.145	0.0178018
675.223	0.0178271
675.301	0.0178774
675.379	0.0178465
675.457	0.0177052
675.535	0.0177965
675.613	0.0178214
675.692	0.0177765
675.770	0.0177531
675.848	0.0177098
675.926	0.0178284
676.004	0.0177555
676.082	0.0176505
676.160	0.0177940
676.238	0.0177790
676.317	0.0180456
676.395	0.0177720
676.473	0.0179130
676.551	0.0177872
676.629	0.0179498
676.707	0.0177816
676.785	0.0178088
676.863	0.0177969
676.942	0.0179847
677.020	0.0178148
677.098	0.0178782
677.176	0.0178343
677.254	0.0177601
677.332	0.0177643
677.410	0.0178191
677.488	0.0176939
677.567	0.0178275
677.645	0.0179329
677.723	0.0178036
677.801	0.0177987
677.879	0.0176212
677.957	0.0176265
678.035	0.0176678
678.113	0.0176878
678.192	0.0175993
678.270	0.0176337
678.348	0.0177421
678.426	0.0177456
678.504	0.0178088
678.582	0.0177504
678.660	0.0178182
678.738	0.0177888
678.817	0.0177522
678.895	0.0179279
678.973	0.0178521
679.051	0.0177353
679.129	0.0177538
679.207	0.0179148
679.285	0.0178864
679.363	0.0179234
679.442	0.0179005
679.520	0.0179964
679.598	0.0181113
679.676	0.0179821
679.754	0.0182059
679.832	0.0180888
679.910	0.0181175
679.988	0.0181013
680.067	0.0180380
680.145	0.0181313
680.223	0.0179833
680.301	0.0177773
680.379	0.0178522
680.457	0.0178745
680.535	0.0177184
680.613	0.0178230
680.692	0.0177568
680.770	0.0176325
680.848	0.0174872
680.926	0.0175421
681.004	0.0175594
681.082	0.0175919
681.160	0.0175184
681.238	0.0176652
681.317	0.0176453
681.395	0.0176524
681.473	0.0175796
681.551	0.0177160
681.629	0.0178613
681.707	0.0177826
681.785	0.0178844
681.863	0.0177777
681.942	0.0178933
682.020	0.0179591
682.098	0.0181344
682.176	0.0181328
682.254	0.0179877
682.332	0.0180712
682.410	0.0179240
682.488	0.0179566
682.567	0.0179596
682.645	0.0179741
682.723	0.0179131
682.801	0.0178964
682.879	0.0178413
682.957	0.0178310
683.035	0.0176607
683.113	0.0177166
683.192	0.0178043
683.270	0.0177269
683.348	0.0176745
683.426	0.0177799
683.504	0.0178588
683.582	0.0177280
683.660	0.0178469
683.738	0.0177710
683.817	0.0179404
683.895	0.0178222
683.973	0.0178688
684.051	0.0178673
684.129	0.0180006
684.207	0.0179389
684.285	0.0179623
684.363	0.0179848
684.442	0.0179241
684.520	0.0179826
684.598	0.0180004
684.676	0.0179816
684.754	0.0178126
684.832	0.0179286
684.910	0.0177596
684.988	0.0178349
685.067	0.0179888
685.145	0.0177579
685.223	0.0177785
685.301	0.0177205
685.379	0.0177094
685.457	0.0176950
685.535	0.0178307
685.613	0.0178387
685.692	0.0177363
685.770	0.0177112
685.848	0.0177869
685.926	0.0177991
686.004	0.0177379
686.082	0.0178500
686.160	0.0177995
686.238	0.0179134
686.317	0.0177536
686.395	0.0177636
686.473	0.0179494
686.551	0.0178918
686.629	0.0177117
686.707	0.0178309
686.785	0.0177550
686.863	0.0178342
686.942	0.0178298
687.020	0.0177443
687.098	0.0178408
687.176	0.0177149
687.254	0.0177356
687.332	0.0177629
687.410	0.0178848
687.488	0.0177629
687.567	0.0178319
687.645	0.0179423
687.723	0.0177900
687.801	0.0178561
687.879	0.0179327
687.957	0.0178542
688.035	0.0178906
688.113	0.0177946
688.192	0.0178213
688.270	0.0179663
688.348	0.0178275
688.426	0.0178671
688.504	0.0179329
688.582	0.0179349
688.660	0.0181208
688.738	0.0180318
688.817	0.0180672
688.895	0.0181744
688.973	0.0181351
689.051	0.0181379
689.129	0.0181126
689.207	0.0181863
689.285	0.0181448
689.363	0.0182655
689.442	0.0181330
689.520	0.0180939
689.598	0.0181667
689.676	0.0179426
689.754	0.0178638
689.832	0.0178178
689.910	0.0178783
689.988	0.0177394
690.067	0.0177184
690.145	0.0175777
690.223	0.0174818
690.301	0.0176694
690.379	0.0175662
690.457	0.0176305
690.535	0.0173963
690.613	0.0175050
690.692	0.0175108
690.770	0.0174039
690.848	0.0172985
690.926	0.0175357
691.004	0.0175731
691.082	0.0175268
691.160	0.0176380
691.238	0.0177871
691.317	0.0177213
691.395	0.0178069
691.473	0.0179470
691.551	0.0179475
691.629	0.0179439
691.707	0.0181589
691.785	0.0182423
691.863	0.0183241
691.942	0.0182501
692.020	0.0182228
692.098	0.0183254
692.176	0.0183823
692.254	0.0184000
692.332	0.0185358
692.410	0.0183717
692.488	0.0183788
692.567	0.0185246
692.645	0.0182629
692.723	0.0184534
692.801	0.0183194
692.879	0.0183875
692.957	0.0182585
693.035	0.0183804
693.113	0.0182990
693.192	0.0182415
693.270	0.0181512
693.348	0.0179333
693.426	0.0179797
693.504	0.0180260
693.582	0.0178763
693.660	0.0179440
693.738	0.0178337
693.817	0.0176468
693.895	0.0179774
693.973	0.0178055
694.051	0.0179601
694.129	0.0179081
694.207	0.0177438
694.285	0.0177070
694.363	0.0178109
694.442	0.0177640
694.520	0.0177731
694.598	0.0177891
694.676	0.0176592
694.754	0.0176520
694.832	0.0174978
694.910	0.0175007
694.988	0.0176591
695.067	0.0177809
695.145	0.0175268
695.223	0.0175934
695.301	0.0176859
695.379	0.0178235
695.457	0.0178738
695.535	0.0177882
695.613	0.0178259
695.692	0.0179049
695.770	0.0179638
695.848	0.0180686
695.926	0.0181514
696.004	0.0182781
696.082	0.0182046
696.160	0.0183482
696.238	0.0185308
696.317	0.0182864
696.395	0.0183846
696.473	0.0184418
696.551	0.0183835
696.629	0.0184282
696.707	0.0184506
696.785	0.0184742
696.863	0.0183723
696.942	0.0182454
697.020	0.0181925
697.098	0.0182283
697.176	0.0183031
697.254	0.0182341
697.332	0.0180856
697.410	0.0180869
697.488	0.0180752
697.567	0.0178216
697.645	0.0177352
697.723	0.0177271
697.801	0.0176894
697.879	0.0177817
697.957	0.0175732
698.035	0.0174951
698.113	0.0174831
698.192	0.0174830
698.270	0.0174864
698.348	0.0174776
698.426	0.0174384
698.504	0.0175578
698.582	0.0175739
698.660	0.0174933
698.738	0.0175698
698.817	0.0175720
698.895	0.0176411
698.973	0.0175565
699.051	0.0176614
699.129	0.0176333
699.207	0.0176925
699.285	0.0177618
699.363	0.0178658
699.442	0.0178424
699.520	0.0177462
699.598	0.0179596
699.676	0.0178449
699.754	0.0180000
699.832	0.0178038
699.910	0.0178984
699.988	0.0181625
700.067	0.0180643
700.145	0.0179288
700.223	0.0179414
700.301	0.0179948
700.379	0.0179105
700.457	0.0178917
700.535	0.0178271
700.613	0.0178331
700.692	0.0177968
700.770	0.0177526
700.848	0.0177932
700.926	0.0177785
701.004	0.0178622
701.082	0.0179057
701.160	0.0178175
701.238	0.0180134
701.317	0.0179360
701.395	0.0179712
701.473	0.0181065
701.551	0.0179774
701.629	0.0181458
701.707	0.0181783
701.785	0.0181093
701.863	0.0182095
701.942	0.0180927
702.020	0.0181020
702.098	0.0180891
702.176	0.0181607
702.254	0.0180806
702.332	0.0179604
702.410	0.0182561
702.488	0.0180856
702.567	0.0179375
702.645	0.0179153
702.723	0.0179035
702.801	0.0178721
702.879	0.0177736
702.957	0.0177589
703.035	0.0177145
703.113	0.0176943
703.192	0.0175670
703.270	0.0174782
703.348	0.0175343
703.426	0.0174552
703.504	0.0174122
703.582	0.0174129
703.660	0.0172719
703.738	0.0173539
703.817	0.0175328
703.895	0.0174198
703.973	0.0175370
704.051	0.0175780
704.129	0.0175452
704.207	0.0176057
704.285	0.0175766
704.363	0.0174695
704.442	0.0176366
704.520	0.0175928
704.598	0.0176361
704.676	0.0177328
704.754	0.0176106
704.832	0.0176115
704.910	0.0176833
704.988	0.0175479
705.067	0.0176903
705.145	0.0177528
705.223	0.0177305
705.301	0.0178136
705.379	0.0179747
705.457	0.0179826
705.535	0.0179700
705.613	0.0180225
705.692	0.0181576
705.770	0.0181866
705.848	0.0181199
705.926	0.0182611
706.004	0.0184992
706.082	0.0183720
706.160	0.0185333
706.238	0.0184957
706.317	0.0186288
706.395	0.0186196
706.473	0.0185335
706.551	0.0185198
706.629	0.0186385
706.707	0.0186326
706.785	0.0185828
706.863	0.0184255
706.942	0.0184055
707.020	0.0183680
707.098	0.0185185
707.176	0.0183539
707.254	0.0181512
707.332	0.0181585
707.410	0.0181313
707.488	0.0178380
707.567	0.0179299
707.645	0.0179825
707.723	0.0178201
707.801	0.0178517
707.879	0.0176615
707.957	0.0175269
708.035	0.0175017
708.113	0.0172564
708.192	0.0172632
708.270	0.0172861
708.348	0.0172252
708.426	0.0172263
708.504	0.0171785
708.582	0.0171331
708.660	0.0171529
708.738	0.0169898
708.817	0.0172160
708.895	0.0171143
708.973	0.0170306
709.051	0.0172655
709.129	0.0171645
709.207	0.0173857
709.285	0.0173077
709.363	0.0174365
709.442	0.0174324
709.520	0.0174456
709.598	0.0176270
709.676	0.0177757
709.754	0.0178395
709.832	0.0179618
709.910	0.0180244
709.988	0.0180871
710.067	0.0181967
710.145	0.0182370
710.223	0.0183115
710.301	0.0184786
710.379	0.0184324
710.457	0.0183594
710.535	0.0184100
710.613	0.0183717
710.692	0.0183517
710.770	0.0184238
710.848	0.0183612
710.926	0.0183086
711.004	0.0183937
711.082	0.0183508
711.160	0.0183034
711.238	0.0182640
711.317	0.0183407
711.395	0.0182583
711.473	0.0181020
711.551	0.0182979
711.629	0.0183106
711.707	0.0183077
711.785	0.0181773
711.863	0.0182027
711.942	0.0182523
712.020	0.0180634
712.098	0.0182516
712.176	0.0181476
712.254	0.0180820
712.332	0.0181454
712.410	0.0179427
712.488	0.0178426
712.567	0.0179075
712.645	0.0178619
712.723	0.0179069
712.801	0.0176310
712.879	0.0176848
712.957	0.0178637
713.035	0.0177315
713.113	0.0176039
713.192	0.0176924
713.270	0.0177176
713.348	0.0176518
713.426	0.0175777
713.504	0.0176990
713.582	0.0176942
713.660	0.0177459
713.738	0.0177478
713.817	0.0176514
713.895	0.0176764
713.973	0.0178738
714.051	0.0179323
714.129	0.0177517
714.207	0.0177370
714.285	0.0177757
714.363	0.0178352
714.442	0.0178777
714.520	0.0178654
714.598	0.0179899
714.676	0.0180229
714.754	0.0179803
714.832	0.0179739
714.910	0.0180147
714.988	0.0180191
715.067	0.0179592
715.145	0.0179647
715.223	0.0180170
715.301	0.0180843
715.379	0.0180206
715.457	0.0180322
715.535	0.0180560
715.613	0.0179568
715.692	0.0179819
715.770	0.0179846
715.848	0.0181179
715.926	0.0181244
716.004	0.0181492
716.082	0.0183577
716.160	0.0181381
716.238	0.0182697
716.317	0.0180927
716.395	0.0181921
716.473	0.0182240
716.551	0.0182853
716.629	0.0183057
716.707	0.0182612
716.785	0.0182442
716.863	0.0181629
716.942	0.0183044
717.020	0.0183624
717.098	0.0182512
717.176	0.0182899
717.254	0.0186167
717.332	0.0182916
717.410	0.0184656
717.488	0.0185660
717.567	0.0184960
717.645	0.0186134
717.723	0.0185192
717.801	0.0184023
717.879	0.0184694
717.957	0.0184540
718.035	0.0184129
718.113	0.0183064
718.192	0.0182849
718.270	0.0181369
718.348	0.0181163
718.426	0.0180844
718.504	0.0181812
718.582	0.0180160
718.660	0.0179578
718.738	0.0180126
718.817	0.0178622
718.895	0.0177310
718.973	0.0178005
719.051	0.0176879
719.129	0.0176539
719.207	0.0177777
719.285	0.0177242
719.363	0.0177332
719.442	0.0179001
719.520	0.0177749
719.598	0.0177985
719.676	0.0177754
719.754	0.0177372
719.832	0.0178352
719.910	0.0176654
719.988	0.0179126
720.067	0.0178841
720.145	0.0175584
720.223	0.0176726
720.301	0.0178302
720.379	0.0175714
720.457	0.0177350
720.535	0.0176730
720.613	0.0175993
720.692	0.0176238
720.770	0.0177408
720.848	0.0175015
720.926	0.0174724
721.004	0.0174807
721.082	0.0174577
721.160	0.0173707
721.238	0.0173930
721.317	0.0174535
721.395	0.0173651
721.473	0.0173643
721.551	0.0173849
721.629	0.0173215
721.707	0.0174352
721.785	0.0175380
721.863	0.0176003
721.942	0.0175836
722.020	0.0176435
722.098	0.0178184
722.176	0.0176677
722.254	0.0178657
722.332	0.0178921
722.410	0.0179726
722.488	0.0181286
722.567	0.0182005
722.645	0.0182209
722.723	0.0181992
722.801	0.0181638
722.879	0.0182826
722.957	0.0182024
723.035	0.0182729
723.113	0.0182072
723.192	0.0183989
723.270	0.0183891
723.348	0.0183997
723.426	0.0182426
723.504	0.0183931
723.582	0.0183140
723.660	0.0183012
723.738	0.0182967
723.817	0.0183636
723.895	0.0183224
723.973	0.0183067
724.051	0.0181763
724.129	0.0183151
724.207	0.0184354
724.285	0.0183853
724.363	0.0183293
724.442	0.0183350
724.520	0.0183405
724.598	0.0182693
724.676	0.0182465
724.754	0.0183523
724.832	0.0182617
724.910	0.0183318
724.988	0.0181839
725.067	0.0180409
725.145	0.0181004
725.223	0.0180289
725.301	0.0180717
725.379	0.0179838
725.457	0.0179911
725.535	0.0179845
725.613	0.0180235
725.692	0.0178071
725.770	0.0179755
725.848	0.0179697
725.926	0.0179015
726.004	0.0178500
726.082	0.0178082
726.160	0.0178694
726.238	0.0177195
726.317	0.0176058
726.395	0.0177917
726.473	0.0177952
726.551	0.0177770
726.629	0.0177847
726.707	0.0176599
726.785	0.0177660
726.863	0.0177602
726.942	0.0178032
727.020	0.0178041
727.098	0.0178516
727.176	0.0178699
727.254	0.0179944
727.332	0.0179350
727.410	0.0179845
727.488	0.0180280
727.567	0.0181154
727.645	0.0180820
727.723	0.0181430
727.801	0.0180429
727.879	0.0181252
727.957	0.0181017
728.035	0.0181066
728.113	0.0181930
728.192	0.0180320
728.270	0.0179884
728.348	0.0181205
728.426	0.0181967
728.504	0.0180930
728.582	0.0180843
728.660	0.0182308
728.738	0.0180521
728.817	0.0182125
728.895	0.0183118
728.973	0.0183144
729.051	0.0184897
729.129	0.0184486
729.207	0.0184669
729.285	0.0185825
729.363	0.0187473
729.442	0.0185819
729.520	0.0186959
729.598	0.0186213
729.676	0.0187465
729.754	0.0187200
729.832	0.0187027
729.910	0.0185896
729.988	0.0184898
730.067	0.0185468
730.145	0.0184984
730.223	0.0184909
730.301	0.0184885
730.379	0.0181988
730.457	0.0183341
730.535	0.0183602
730.613	0.0182211
730.692	0.0181705
730.770	0.0180458
730.848	0.0180946
730.926	0.0179975
731.004	0.0180166
731.082	0.0179128
731.160	0.0178209
731.238	0.0179961
731.317	0.0179668
731.395	0.0178613
731.473	0.0177281
731.551	0.0177071
731.629	0.0178484
731.707	0.0178920
731.785	0.0177679
731.863	0.0177368
731.942	0.0175803
732.020	0.0176022
732.098	0.0176648
732.176	0.0175955
732.254	0.0173654
732.332	0.0175440
732.410	0.0173278
732.488	0.0174844
732.567	0.0173908
732.645	0.0175288
732.723	0.0174783
732.801	0.0174450
732.879	0.0173956
732.957	0.0175425
733.035	0.0175122
733.113	0.0175442
733.192	0.0175983
733.270	0.0176894
733.348	0.0176739
733.426	0.0176482
733.504	0.0177097
733.582	0.0178791
733.660	0.0179053
733.738	0.0177670
733.817	0.0178146
733.895	0.0178358
733.973	0.0179860
734.051	0.0179752
734.129	0.0177967
734.207	0.0180646
734.285	0.0180334
734.363	0.0178946
734.442	0.0180569
734.520	0.0180387
734.598	0.0179732
734.676	0.0180846
734.754	0.0181327
734.832	0.0181575
734.910	0.0181677
734.988	0.0181802
735.067	0.0182236
735.145	0.0184585
735.223	0.0183076
735.301	0.0183529
735.379	0.0182063
735.457	0.0182740
735.535	0.0184003
735.613	0.0184306
735.692	0.0183008
735.770	0.0183167
735.848	0.0184084
735.926	0.0183088
736.004	0.0182860
736.082	0.0181992
736.160	0.0182733
736.238	0.0182886
736.317	0.0182697
736.395	0.0182977
736.473	0.0181873
736.551	0.0181489
736.629	0.0181128
736.707	0.0181084
736.785	0.0180824
736.863	0.0180939
736.942	0.0181593
737.020	0.0181693
737.098	0.0181923
737.176	0.0181779
737.254	0.0180821
737.332	0.0182752
737.410	0.0182208
737.488	0.0181056
737.567	0.0182323
737.645	0.0182066
737.723	0.0180406
737.801	0.0183453
737.879	0.0182109
737.957	0.0182146
738.035	0.0183315
738.113	0.0184232
738.192	0.0184180
738.270	0.0184412
738.348	0.0183208
738.426	0.0183450
738.504	0.0184653
738.582	0.0183547
738.660	0.0183751
738.738	0.0182067
738.817	0.0182652
738.895	0.0181768
738.973	0.0183693
739.051	0.0180635
739.129	0.0180322
739.207	0.0179294
739.285	0.0178429
739.363	0.0177841
739.442	0.0178867
739.520	0.0178075
739.598	0.0177474
739.676	0.0176743
739.754	0.0178265
739.832	0.0177284
739.910	0.0176806
739.988	0.0178030
740.067	0.0176538
740.145	0.0177342
740.223	0.0177824
740.301	0.0177608
740.379	0.0176612
740.457	0.0178205
740.535	0.0178989
740.613	0.0178433
740.692	0.0179112
740.770	0.0179641
740.848	0.0178026
740.926	0.0179537
741.004	0.0178539
741.082	0.0178876
741.160	0.0178460
741.238	0.0178027
741.317	0.0175928
741.395	0.0176805
741.473	0.0177453
741.551	0.0176789
741.629	0.0176206
741.707	0.0176342
741.785	0.0176225
741.863	0.0177233
741.942	0.0176533
742.020	0.0176551
742.098	0.0177098
742.176	0.0177382
742.254	0.0177161
742.332	0.0178007
742.410	0.0179094
742.488	0.0180530
742.567	0.0181531
742.645	0.0181223
742.723	0.0182161
742.801	0.0183354
742.879	0.0182052
742.957	0.0182954
743.035	0.0182021
743.113	0.0182789
743.192	0.0182582
743.270	0.0181699
743.348	0.0180965
743.426	0.0181901
743.504	0.0181148
743.582	0.0181449
743.660	0.0180967
743.738	0.0178286
743.817	0.0179947
743.895	0.0179419
743.973	0.0178532
744.051	0.0179008
744.129	0.0178250
744.207	0.0177568
744.285	0.0178530
744.363	0.0177712
744.442	0.0178677
744.520	0.0177877
744.598	0.0179133
744.676	0.0179365
744.754	0.0178120
744.832	0.0178358
744.910	0.0178872
744.988	0.0177613
745.067	0.0179723
745.145	0.0179375
745.223	0.0178424
745.301	0.0178641
745.379	0.0177918
745.457	0.0177647
745.535	0.0177392
745.613	0.0178688
745.692	0.0176988
745.770	0.0176543
745.848	0.0176592
745.926	0.0176514
746.004	0.0176238
746.082	0.0176772
746.160	0.0177149
746.238	0.0176215
746.317	0.0177677
746.395	0.0177602
746.473	0.0176411
746.551	0.0177121
746.629	0.0176969
746.707	0.0176432
746.785	0.0175980
746.863	0.0175925
746.942	0.0176575
747.020	0.0177776
747.098	0.0178126
747.176	0.0178640
747.254	0.0177946
747.332	0.0176895
747.410	0.0179447
747.488	0.0178632
747.567	0.0178578
747.645	0.0180543
747.723	0.0180380
747.801	0.0181865
747.879	0.0182079
747.957	0.0181590
748.035	0.0181928
748.113	0.0182762
748.192	0.0182497
748.270	0.0183704
748.348	0.0183186
748.426	0.0184424
748.504	0.0184269
748.582	0.0184238
748.660	0.0184142
748.738	0.0183582
748.817	0.0181044
748.895	0.0182709
748.973	0.0183765
749.051	0.0183588
749.129	0.0183277
749.207	0.0183650
749.285	0.0183865
749.363	0.0183086
749.442	0.0184102
749.520	0.0183909
749.598	0.0184505
749.676	0.0184349
749.754	0.0183219
749.832	0.0184213
749.910	0.0184843
749.988	0.0183441
750.067	0.0184174
750.145	0.0184225
750.223	0.0183514
750.301	0.0182909
750.379	0.0183531
750.457	0.0183831
750.535	0.0180735
750.613	0.0183508
750.692	0.0180825
750.770	0.0181691
750.848	0.0181286
750.926	0.0179996
751.004	0.0178296
751.082	0.0180100
751.160	0.0179820
751.238	0.0178472
751.317	0.0178971
751.395	0.0179434
751.473	0.0178321
751.551	0.0178466
751.629	0.0178795
751.707	0.0176466
751.785	0.0176640
751.863	0.0177657
751.942	0.0178512
752.020	0.0178767
752.098	0.0176531
752.176	0.0178156
752.254	0.0177692
752.332	0.0176933
752.410	0.0177102
752.488	0.0177126
752.567	0.0177673
752.645	0.0177233
752.723	0.0175338
752.801	0.0175973
752.879	0.0177859
752.957	0.0176827
753.035	0.0175847
753.113	0.0174908
753.192	0.0176253
753.270	0.0176173
753.348	0.0177363
753.426	0.0177545
753.504	0.0177377
753.582	0.0177930
753.660	0.0177028
753.738	0.0178366
753.817	0.0178837
753.895	0.0178651
753.973	0.0178222
754.051	0.0178345
754.129	0.0179288
754.207	0.0180070
754.285	0.0179736
754.363	0.0179861
754.442	0.0178527
754.520	0.0178512
754.598	0.0178800
754.676	0.0178589
754.754	0.0177244
754.832	0.0177882
754.910	0.0177928
754.988	0.0176308
755.067	0.0178384
755.145	0.0178409
755.223	0.0178456
755.301	0.0178529
755.379	0.0179623
755.457	0.0177615
755.535	0.0179633
755.613	0.0179865
755.692	0.0179026
755.770	0.0180028
755.848	0.0182124
755.926	0.0180910
756.004	0.0179681
756.082	0.0180253
756.160	0.0180203
756.238	0.0181552
756.317	0.0181156
756.395	0.0182145
756.473	0.0181631
756.551	0.0182053
756.629	0.0180894
756.707	0.0181052
756.785	0.0182472
756.863	0.0182877
756.942	0.0181089
757.020	0.0181538
757.098	0.0182201
757.176	0.0180202
757.254	0.0181107
757.332	0.0182224
757.410	0.0180717
757.488	0.0181400
757.567	0.0180040
757.645	0.0180466
757.723	0.0179788
757.801	0.0181287
757.879	0.0181871
757.957	0.0180120
758.035	0.0181107
758.113	0.0180608
758.192	0.0179583
758.270	0.0179655
758.348	0.0179643
758.426	0.0180545
758.504	0.0179620
758.582	0.0179871
758.660	0.0180251
758.738	0.0180895
758.817	0.0181333
758.895	0.0178100
758.973	0.0180016
759.051	0.0180058
759.129	0.0181989
759.207	0.0179554
759.285	0.0179328
759.363	0.0180125
759.442	0.0178902
759.520	0.0179429
759.598	0.0178520
759.676	0.0178250
759.754	0.0177768
759.832	0.0178424
759.910	0.0178467
759.988	0.0177656
760.067	0.0179478
760.145	0.0178273
760.223	0.0176734
760.301	0.0178535
760.379	0.0177708
760.457	0.0179202
760.535	0.0178328
760.613	0.0178864
760.692	0.0177869
760.770	0.0177995
760.848	0.0177901
760.926	0.0178360
761.004	0.0179053
761.082	0.0177955
761.160	0.0179964
761.238	0.0178851
761.317	0.0179136
761.395	0.0179192
761.473	0.0178711
761.551	0.0178717
761.629	0.0179012
761.707	0.0178799
761.785	0.0178906
761.863	0.0179216
761.942	0.0179673
762.020	0.0179533
762.098	0.0179932
762.176	0.0179985
762.254	0.0179041
762.332	0.0177997
762.410	0.0180281
762.488	0.0179532
762.567	0.0179002
762.645	0.0180370
762.723	0.0179482
762.801	0.0178939
762.879	0.0178960
762.957	0.0180171
763.035	0.0178446
763.113	0.0177714
763.192	0.0179372
763.270	0.0178835
763.348	0.0178342
763.426	0.0177654
763.504	0.0177103
763.582	0.0177979
763.660	0.0178171
763.738	0.0177666
763.817	0.0176474
763.895	0.0175482
763.973	0.0177733
764.051	0.0178582
764.129	0.0179192
764.207	0.0177483
764.285	0.0177139
764.363	0.0178944
764.442	0.0179146
764.520	0.0180111
764.598	0.0178410
764.676	0.0179034
764.754	0.0178500
764.832	0.0179582
764.910	0.0179454
764.988	0.0180659
765.067	0.0181319
765.145	0.0180338
765.223	0.0179384
765.301	0.0181435
765.379	0.0179614
765.457	0.0180128
765.535	0.0181371
765.613	0.0180385
765.692	0.0181727
765.770	0.0181809
765.848	0.0180288
765.926	0.0180271
766.004	0.0180971
766.082	0.0179684
766.160	0.0180105
766.238	0.0179707
766.317	0.0179671
766.395	0.0180861
766.473	0.0181361
766.551	0.0181216
766.629	0.0180120
766.707	0.0181327
766.785	0.0180093
766.863	0.0180116
766.942	0.0180479
767.020	0.0180903
767.098	0.0182021
767.176	0.0180363
767.254	0.0180598
767.332	0.0182641
767.410	0.0182349
767.488	0.0182189
767.567	0.0181763
767.645	0.0182069
767.723	0.0181382
767.801	0.0182164
767.879	0.0181232
767.957	0.0181214
768.035	0.0181327
768.113	0.0181055
768.192	0.0180313
768.270	0.0180013
768.348	0.0180202
768.426	0.0179961
768.504	0.0180444
768.582	0.0180821
768.660	0.0179118
768.738	0.0180653
768.817	0.0180183
768.895	0.0180161
768.973	0.0179961
769.051	0.0179159
769.129	0.0179785
769.207	0.0178522
769.285	0.0178752
769.363	0.0179572
769.442	0.0177618
769.520	0.0178159
769.598	0.0177797
769.676	0.0177673
769.754	0.0178372
769.832	0.0177110
769.910	0.0177161
769.988	0.0176826
770.067	0.0176061
770.145	0.0175935
770.223	0.0176656
770.301	0.0176929
770.379	0.0174603
770.457	0.0175829
770.535	0.0175489
770.613	0.0175331
770.692	0.0175169
770.770	0.0173693
770.848	0.0173744
770.926	0.0174805
771.004	0.0176109
771.082	0.0175045
771.160	0.0173395
771.238	0.0175269
771.317	0.0173991
771.395	0.0175140
771.473	0.0176579
771.551	0.0177251
771.629	0.0175949
771.707	0.0176253
771.785	0.0179102
771.863	0.0179300
771.942	0.0179451
772.020	0.0179852
772.098	0.0179793
772.176	0.0180071
772.254	0.0181940
772.332	0.0182391
772.410	0.0180762
772.488	0.0181831
772.567	0.0181232
772.645	0.0181474
772.723	0.0182298
772.801	0.0181471
772.879	0.0182193
772.957	0.0181303
773.035	0.0180496
773.113	0.0179755
773.192	0.0181322
773.270	0.0180637
773.348	0.0179777
773.426	0.0178445
773.504	0.0179491
773.582	0.0177924
773.660	0.0178360
773.738	0.0179168
773.817	0.0178006
773.895	0.0178475
773.973	0.0178139
774.051	0.0177382
774.129	0.0179374
774.207	0.0178261
774.285	0.0177237
774.363	0.0178207
774.442	0.0177816
774.520	0.0177406
774.598	0.0176373
774.676	0.0177268
774.754	0.0175677
774.832	0.0177197
774.910	0.0176073
774.988	0.0176951
775.067	0.0177567
775.145	0.0176828
775.223	0.0177119
775.301	0.0175658
775.379	0.0177473
775.457	0.0177668
775.535	0.0177693
775.613	0.0177230
775.692	0.0178056
775.770	0.0178693
775.848	0.0179554
775.926	0.0177718
776.004	0.0178844
776.082	0.0178445
776.160	0.0180064
776.238	0.0180283
776.317	0.0179931
776.395	0.0178584
776.473	0.0177228
776.551	0.0179158
776.629	0.0178497
776.707	0.0178637
776.785	0.0178607
776.863	0.0178655
776.942	0.0178503
777.020	0.0178055
777.098	0.0178675
777.176	0.0177968
777.254	0.0179015
777.332	0.0179427
777.410	0.0176321
777.488	0.0177014
777.567	0.0178935
777.645	0.0177463
777.723	0.0177993
777.801	0.0178767
777.879	0.0178862
777.957	0.0178481
778.035	0.0177461
778.113	0.0178185
778.192	0.0178525
778.270	0.0178883
778.348	0.0179290
778.426	0.0178883
778.504	0.0179140
778.582	0.0180239
778.660	0.0178815
778.738	0.0178430
778.817	0.0179253
778.895	0.0179470
778.973	0.0179704
779.051	0.0179370
779.129	0.0179411
779.207	0.0179269
779.285	0.0178486
779.363	0.0178400
779.442	0.0178259
779.520	0.0178591
779.598	0.0179147
779.676	0.0180157
779.754	0.0178655
779.832	0.0178568
779.910	0.0178931
779.988	0.0179807
780.067	0.0178614
780.145	0.0178292
780.223	0.0180226
780.301	0.0181100
780.379	0.0180736
780.457	0.0179033
780.535	0.0180328
780.613	0.0180975
780.692	0.0180542
780.770	0.0181068
780.848	0.0181696
780.926	0.0180392
781.004	0.0181035
781.082	0.0182166
781.160	0.0182147
781.238	0.0181387
781.317	0.0182320
781.395	0.0181686
781.473	0.0181415
781.551	0.0181392
781.629	0.0181118
781.707	0.0181503
781.785	0.0180549
781.863	0.0179246
781.942	0.0180597
782.020	0.0179580
782.098	0.0179070
782.176	0.0179403
782.254	0.0177972
782.332	0.0178890
782.410	0.0177946
782.488	0.0176657
782.567	0.0176881
782.645	0.0178289
782.723	0.0177427
782.801	0.0178111
782.879	0.0177995
782.957	0.0177382
783.035	0.0177619
783.113	0.0177745
783.192	0.0176414
783.270	0.0176308
783.348	0.0176214
783.426	0.0177200
783.504	0.0178246
783.582	0.0176466
783.660	0.0178400
783.738	0.0178026
783.817	0.0178047
783.895	0.0177693
783.973	0.0178431
784.051	0.0177468
784.129	0.0178800
784.207	0.0178431
784.285	0.0177520
784.363	0.0178856
784.442	0.0179339
784.520	0.0178579
784.598	0.0178661
784.676	0.0177405
784.754	0.0177959
784.832	0.0178813
784.910	0.0179504
784.988	0.0177225
785.067	0.0178212
785.145	0.0179204
785.223	0.0179410
785.301	0.0180613
785.379	0.0180254
785.457	0.0179382
785.535	0.0178762
785.613	0.0179957
785.692	0.0179231
785.770	0.0179316
785.848	0.0179965
785.926	0.0180235
786.004	0.0180276
786.082	0.0179866
786.160	0.0179228
786.238	0.0179431
786.317	0.0179169
786.395	0.0180954
786.473	0.0179970
786.551	0.0180368
786.629	0.0179056
786.707	0.0180576
786.785	0.0180657
786.863	0.0180740
786.942	0.0181323
787.020	0.0180502
787.098	0.0181427
787.176	0.0181614
787.254	0.0181781
787.332	0.0181365
787.410	0.0181709
787.488	0.0180912
787.567	0.0182127
787.645	0.0181458
787.723	0.0181211
787.801	0.0181949
787.879	0.0180690
787.957	0.0181100
788.035	0.0182674
788.113	0.0181220
788.192	0.0181033
788.270	0.0181251
788.348	0.0180313
788.426	0.0179578
788.504	0.0180039
788.582	0.0180980
788.660	0.0180736
788.738	0.0180017
788.817	0.0179538
788.895	0.0180143
788.973	0.0180721
789.051	0.0179263
789.129	0.0179309
789.207	0.0179615
789.285	0.0179443
789.363	0.0179197
789.442	0.0178882
789.520	0.0178708
789.598	0.0178678
789.676	0.0177374
789.754	0.0178519
789.832	0.0178603
789.910	0.0177168
789.988	0.0178024
790.067	0.0177436
790.145	0.0178559
790.223	0.0178336
790.301	0.0178139
790.379	0.0178288
790.457	0.0177885
790.535	0.0178964
790.613	0.0178111
790.692	0.0178331
790.770	0.0177412
790.848	0.0178236
790.926	0.0178010
791.004	0.0177232
791.082	0.0178108
791.160	0.0177550
791.238	0.0179265
791.317	0.0178426
791.395	0.0179747
791.473	0.0178635
791.551	0.0177918
791.629	0.0178360
791.707	0.0178185
791.785	0.0178824
791.863	0.0179507
791.942	0.0177715
792.020	0.0178911
792.098	0.0179600
792.176	0.0177602
792.254	0.0177618
792.332	0.0178331
792.410	0.0178330
792.488	0.0179237
792.567	0.0179947
792.645	0.0177780
792.723	0.0178384
792.801	0.0178305
792.879	0.0178564
792.957	0.0177521
793.035	0.0177555
793.113	0.0177194
793.192	0.0178763
793.270	0.0176903
793.348	0.0178718
793.426	0.0177931
793.504	0.0178402
793.582	0.0178767
793.660	0.0179052
793.738	0.0177810
793.817	0.0178608
793.895	0.0179230
793.973	0.0179781
794.051	0.0178420
794.129	0.0178511
794.207	0.0178858
794.285	0.0179283
794.363	0.0179675
794.442	0.0180152
794.520	0.0179745
794.598	0.0178262
794.676	0.0178771
794.754	0.0180676
794.832	0.0178483
794.910	0.0178884
794.988	0.0178419
795.067	0.0178754
795.145	0.0179800
795.223	0.0178563
795.301	0.0178633
795.379	0.0180507
795.457	0.0179376
795.535	0.0178129
795.613	0.0178295
795.692	0.0179335
795.770	0.0179838
795.848	0.0178304
795.926	0.0179041
796.004	0.0179580
796.082	0.0179751
796.160	0.0180785
796.238	0.0180840
796.317	0.0180634
796.395	0.0180709
796.473	0.0179633
796.551	0.0180833
796.629	0.0179032
796.707	0.0179806
796.785	0.0179571
796.863	0.0180150
796.942	0.0178705
797.020	0.0180944
797.098	0.0179159
797.176	0.0179048
797.254	0.0179243
797.332	0.0179040
797.410	0.0178423
797.488	0.0178963
797.567	0.0178539
797.645	0.0178478
797.723	0.0177937
797.801	0.0178045
797.879	0.0178697
797.957	0.0178185
798.035	0.0179045
798.113	0.0178648
798.192	0.0178449
798.270	0.0178089
798.348	0.0177962
798.426	0.0178770
798.504	0.0179391
798.582	0.0180549
798.660	0.0178685
798.738	0.0179473
798.817	0.0181724
798.895	0.0180226
798.973	0.0180900
799.051	0.0180000
799.129	0.0180710
799.207	0.0180709
799.285	0.0179621
799.363	0.0179939
799.442	0.0181363
799.520	0.0180744
799.598	0.0180164
799.676	0.0180685
799.754	0.0179922
799.832	0.0181894
799.910	0.0181785
799.988	0.0181282
800.067	0.0181641
800.145	0.0180836
800.223	0.0180075
800.301	0.0179748
800.379	0.0181068
800.457	0.0179662
800.535	0.0180032
800.613	0.0180227
800.692	0.0181731
800.770	0.0179591
800.848	0.0178501
800.926	0.0179059
801.004	0.0181184
801.082	0.0180628
801.160	0.0180611
801.238	0.0179022
801.317	0.0181503
801.395	0.0181249
801.473	0.0180458
801.551	0.0181237
801.629	0.0179617
801.707	0.0179540
801.785	0.0181778
801.863	0.0182442
801.942	0.0181213
802.020	0.0181174
802.098	0.0181519
802.176	0.0180930
802.254	0.0182483
802.332	0.0183337
802.410	0.0182238
802.488	0.0182238
802.567	0.0183471
802.645	0.0181918
802.723	0.0182710
802.801	0.0182608
802.879	0.0182923
802.957	0.0182359
803.035	0.0181792
803.113	0.0181851
803.192	0.0181223
803.270	0.0181091
803.348	0.0181033
803.426	0.0181639
803.504	0.0181335
803.582	0.0181786
803.660	0.0179613
803.738	0.0180083
803.817	0.0180611
803.895	0.0180357
803.973	0.0178859
804.051	0.0178839
804.129	0.0179024
804.207	0.0177817
804.285	0.0176712
804.363	0.0178593
804.442	0.0177963
804.520	0.0176869
804.598	0.0176744
804.676	0.0176396
804.754	0.0176745
804.832	0.0177731
804.910	0.0176884
804.988	0.0176561
805.067	0.0176759
805.145	0.0174745
805.223	0.0177232
805.301	0.0177695
805.379	0.0175455
805.457	0.0175288
805.535	0.0175957
805.613	0.0176471
805.692	0.0176544
805.770	0.0176071
805.848	0.0176205
805.926	0.0177152
806.004	0.0176895
806.082	0.0177468
806.160	0.0176921
806.238	0.0178238
806.317	0.0177296
806.395	0.0178596
806.473	0.0178027
806.551	0.0178235
806.629	0.0179729
806.707	0.0179425
806.785	0.0178220
806.863	0.0179157
806.942	0.0179295
807.020	0.0179426
807.098	0.0181020
807.176	0.0179609
807.254	0.0179639
807.332	0.0178303
807.410	0.0179778
807.488	0.0180194
807.567	0.0179633
807.645	0.0179488
807.723	0.0180224
807.801	0.0180064
807.879	0.0181198
807.957	0.0180934
808.035	0.0179571
808.113	0.0180412
808.192	0.0180123
808.270	0.0182176
808.348	0.0180248
808.426	0.0183336
808.504	0.0181256
808.582	0.0181544
808.660	0.0180928
808.738	0.0180159
808.817	0.0179855
808.895	0.0182530
808.973	0.0180960
809.051	0.0180579
809.129	0.0180322
809.207	0.0180786
809.285	0.0181364
809.363	0.0179672
809.442	0.0179915
809.520	0.0180939
809.598	0.0180061
809.676	0.0179894
809.754	0.0178422
809.832	0.0180840
809.910	0.0179425
809.988	0.0179340
810.067	0.0180145
810.145	0.0179031
810.223	0.0178675
810.301	0.0179099
810.379	0.0179283
810.457	0.0179117
810.535	0.0178335
810.613	0.0178712
810.692	0.0178168
810.770	0.0178056
810.848	0.0177380
810.926	0.0178555
811.004	0.0177599
811.082	0.0177275
811.160	0.0176983
811.238	0.0177773
811.317	0.0176875
811.395	0.0177941
811.473	0.0177599
811.551	0.0176487
811.629	0.0176035
811.707	0.0175990
811.785	0.0176618
811.863	0.0177444
811.942	0.0176746
812.020	0.0176242
812.098	0.0176161
812.176	0.0176727
812.254	0.0176894
812.332	0.0176836
812.410	0.0177094
812.488	0.0177394
812.567	0.0176339
812.645	0.0177438
812.723	0.0177571
812.801	0.0178323
812.879	0.0177792
812.957	0.0178738
813.035	0.0178574
813.113	0.0179214
813.192	0.0178191
813.270	0.0178893
813.348	0.0178917
813.426	0.0178478
813.504	0.0179688
813.582	0.0178747
813.660	0.0179604
813.738	0.0179716
813.817	0.0179469
813.895	0.0178979
813.973	0.0178931
814.051	0.0179947
814.129	0.0180062
814.207	0.0180715
814.285	0.0179845
814.363	0.0181888
814.442	0.0182150
814.520	0.0181661
814.598	0.0181612
814.676	0.0180328
814.754	0.0180761
814.832	0.0182536
814.910	0.0183021
814.988	0.0181581
815.067	0.0180174
815.145	0.0181588
815.223	0.0180219
815.301	0.0181728
815.379	0.0180778
815.457	0.0180904
815.535	0.0178658
815.613	0.0182309
815.692	0.0180817
815.770	0.0180733
815.848	0.0180004
815.926	0.0180105
816.004	0.0180815
816.082	0.0180659
816.160	0.0180746
816.238	0.0180623
816.317	0.0180563
816.395	0.0179431
816.473	0.0180795
816.551	0.0179658
816.629	0.0180068
816.707	0.0179600
816.785	0.0179552
816.863	0.0179774
816.942	0.0180055
817.020	0.0180361
817.098	0.0180171
817.176	0.0178802
817.254	0.0178845
817.332	0.0180239
817.410	0.0179762
817.488	0.0180216
817.567	0.0180117
817.645	0.0179411
817.723	0.0178690
817.801	0.0179725
817.879	0.0179992
817.957	0.0179810
818.035	0.0180533
818.113	0.0180051
818.192	0.0180471
818.270	0.0178149
818.348	0.0179973
818.426	0.0179864
818.504	0.0179975
818.582	0.0180352
818.660	0.0180824
818.738	0.0178671
818.817	0.0179627
818.895	0.0181383
818.973	0.0179862
819.051	0.0180328
819.129	0.0178429
819.207	0.0178067
819.285	0.0179435
819.363	0.0179726
819.442	0.0179081
819.520	0.0178062
819.598	0.0180437
819.676	0.0179319
819.754	0.0177245
819.832	0.0177486
819.910	0.0178062
819.988	0.0178178
820.067	0.0179267
820.145	0.0179369
820.223	0.0178613
820.301	0.0178806
820.379	0.0180461
820.457	0.0179017
820.535	0.0179452
820.613	0.0179037
820.692	0.0179852
820.770	0.0180121
820.848	0.0180947
820.926	0.0179688
821.004	0.0179780
821.082	0.0178992
821.160	0.0181116
821.238	0.0181174
821.317	0.0180086
821.395	0.0179976
821.473	0.0180347
821.551	0.0179803
821.629	0.0179208
821.707	0.0179680
821.785	0.0180370
821.863	0.0180174
821.942	0.0178929
822.020	0.0179212
822.098	0.0180347
822.176	0.0179660
822.254	0.0179878
822.332	0.0179952
822.410	0.0179469
822.488	0.0179243
822.567	0.0179442
822.645	0.0179292
822.723	0.0180804
822.801	0.0179350
822.879	0.0179198
822.957	0.0180116
823.035	0.0179408
823.113	0.0180605
823.192	0.0180859
823.270	0.0179904
823.348	0.0180940
823.426	0.0180581
823.504	0.0180289
823.582	0.0181879
823.660	0.0180222
823.738	0.0179410
823.817	0.0182475
823.895	0.0180922
823.973	0.0180417
824.051	0.0179734
824.129	0.0181721
824.207	0.0180135
824.285	0.0179675
824.363	0.0180086
824.442	0.0178683
824.520	0.0179445
824.598	0.0179562
824.676	0.0179611
824.754	0.0179451
824.832	0.0178561
824.910	0.0178728
824.988	0.0178819
825.067	0.0181080
825.145	0.0179570
825.223	0.0179605
825.301	0.0180143
825.379	0.0179116
825.457	0.0180592
825.535	0.0179601
825.613	0.0181185
825.692	0.0180817
825.770	0.0180011
825.848	0.0179009
825.926	0.0180434
826.004	0.0181194
826.082	0.0179015
826.160	0.0179240
826.238	0.0179883
826.317	0.0180573
826.395	0.0180262
826.473	0.0179774
826.551	0.0179710
826.629	0.0177274
826.707	0.0178279
826.785	0.0180074
826.863	0.0179768
826.942	0.0178877
827.020	0.0178804
827.098	0.0179394
827.176	0.0178434
827.254	0.0177254
827.332	0.0176940
827.410	0.0176917
827.488	0.0178373
827.567	0.0176665
827.645	0.0176477
827.723	0.0177473
827.801	0.0176876
827.879	0.0177265
827.957	0.0177738
828.035	0.0177331
828.113	0.0176517
828.192	0.0177601
828.270	0.0177370
828.348	0.0178394
828.426	0.0179913
828.504	0.0177731
828.582	0.0177927
828.660	0.0177391
828.738	0.0177307
828.817	0.0177746
828.895	0.0178433
828.973	0.0178646
829.051	0.0179267
829.129	0.0179671
829.207	0.0178798
829.285	0.0178252
829.363	0.0179087
829.442	0.0178562
829.520	0.0178671
829.598	0.0178999
829.676	0.0180488
829.754	0.0179670
829.832	0.0179840
829.910	0.0180777
829.988	0.0178791
830.067	0.0178648
830.145	0.0180994
830.223	0.0181194
830.301	0.0180694
830.379	0.0179828
830.457	0.0181491
830.535	0.0180932
830.613	0.0180122
830.692	0.0181641
830.770	0.0180730
830.848	0.0182805
830.926	0.0181476
831.004	0.0181917
831.082	0.0181960
831.160	0.0182430
831.238	0.0182172
831.317	0.0182549
831.395	0.0181355
831.473	0.0182639
831.551	0.0182706
831.629	0.0181806
831.707	0.0180824
831.785	0.0182451
831.863	0.0182005
831.942	0.0183030
832.020	0.0183360
832.098	0.0182466
832.176	0.0181903
832.254	0.0181247
832.332	0.0181407
832.410	0.0182126
832.488	0.0182108
832.567	0.0182000
832.645	0.0180604
832.723	0.0181031
832.801	0.0180336
832.879	0.0181357
832.957	0.0180727
833.035	0.0180670
833.113	0.0180695
833.192	0.0180889
833.270	0.0179969
833.348	0.0179455
833.426	0.0179755
833.504	0.0179138
833.582	0.0179490
833.660	0.0178583
833.738	0.0179853
833.817	0.0179354
833.895	0.0179762
833.973	0.0178485
834.051	0.0178747
834.129	0.0179706
834.207	0.0179053
834.285	0.0177271
834.363	0.0179224
834.442	0.0176762
834.520	0.0178083
834.598	0.0177717
834.676	0.0176175
834.754	0.0176860
834.832	0.0177133
834.910	0.0177613
834.988	0.0177275
835.067	0.0178074
835.145	0.0178577
835.223	0.0177221
835.301	0.0177060
835.379	0.0176520
835.457	0.0175990
835.535	0.0176311
835.613	0.0176495
835.692	0.0175753
835.770	0.0175478
835.848	0.0177443
835.926	0.0176742
836.004	0.0178567
836.082	0.0177194
836.160	0.0177449
836.238	0.0178172
836.317	0.0177911
836.395	0.0177637
836.473	0.0178253
836.551	0.0178504
836.629	0.0178340
836.707	0.0179192
836.785	0.0179025
836.863	0.0179976
836.942	0.0178410
837.020	0.0178885
837.098	0.0180013
837.176	0.0178711
837.254	0.0178844
837.332	0.0179636
837.410	0.0177676
837.488	0.0177998
837.567	0.0178536
837.645	0.0179657
837.723	0.0178305
837.801	0.0178825
837.879	0.0179058
837.957	0.0178533
838.035	0.0178734
838.113	0.0179230
838.192	0.0178187
838.270	0.0178729
838.348	0.0180190
838.426	0.0178925
838.504	0.0179552
838.582	0.0179624
838.660	0.0179485
838.738	0.0181250
838.817	0.0180443
838.895	0.0181445
838.973	0.0181605
839.051	0.0180531
839.129	0.0179904
839.207	0.0180951
839.285	0.0181790
839.363	0.0180997
839.442	0.0181414
839.520	0.0181830
839.598	0.0180959
839.676	0.0182705
839.754	0.0181924
839.832	0.0181271
839.910	0.0180536
839.988	0.0181620
840.067	0.0181350
840.145	0.0180737
840.223	0.0180910
840.301	0.0181062
840.379	0.0179612
840.457	0.0181834
840.535	0.0180267
840.613	0.0181323
840.692	0.0180549
840.770	0.0178538
840.848	0.0179974
840.926	0.0181120
841.004	0.0180470
841.082	0.0180945
841.160	0.0180047
841.238	0.0181084
841.317	0.0180576
841.395	0.0178224
841.473	0.0180386
841.551	0.0180251
841.629	0.0180190
841.707	0.0178567
841.785	0.0181888
841.863	0.0180379
841.942	0.0178953
842.020	0.0180459
842.098	0.0180466
842.176	0.0180483
842.254	0.0178939
842.332	0.0181324
842.410	0.0180520
842.488	0.0179156
842.567	0.0179659
842.645	0.0179298
842.723	0.0180553
842.801	0.0179638
842.879	0.0180052
842.957	0.0178781
843.035	0.0179610
843.113	0.0180637
843.192	0.0178127
843.270	0.0178870
843.348	0.0179566
843.426	0.0180573
843.504	0.0179674
843.582	0.0178695
843.660	0.0178294
843.738	0.0179589
843.817	0.0178481
843.895	0.0178737
843.973	0.0179796
844.051	0.0179713
844.129	0.0179413
844.207	0.0179348
844.285	0.0178973
844.363	0.0179855
844.442	0.0178539
844.520	0.0179868
844.598	0.0178813
844.676	0.0177634
844.754	0.0180044
844.832	0.0178735
844.910	0.0178003
844.988	0.0178405
845.067	0.0178390
845.145	0.0178969
845.223	0.0177025
845.301	0.0177119
845.379	0.0177675
845.457	0.0177620
845.535	0.0178529
845.613	0.0178960
845.692	0.0177499
845.770	0.0177217
845.848	0.0177661
845.926	0.0177439
846.004	0.0177435
846.082	0.0176215
846.160	0.0178672
846.238	0.0177133
846.317	0.0176306
846.395	0.0176792
846.473	0.0177010
846.551	0.0176308
846.629	0.0176855
846.707	0.0175596
846.785	0.0176303
846.863	0.0176661
846.942	0.0176852
847.020	0.0177486
847.098	0.0177080
847.176	0.0178605
847.254	0.0177735
847.332	0.0176530
847.410	0.0177796
847.488	0.0176741
847.567	0.0177058
847.645	0.0177704
847.723	0.0178072
847.801	0.0177822
847.879	0.0176948
847.957	0.0178345
848.035	0.0178329
848.113	0.0178658
848.192	0.0178853
848.270	0.0178154
848.348	0.0178809
848.426	0.0178515
848.504	0.0178728
848.582	0.0177228
848.660	0.0177686
848.738	0.0178786
848.817	0.0177721
848.895	0.0178631
848.973	0.0178642
849.051	0.0179413
849.129	0.0177435
849.207	0.0176562
849.285	0.0178076
849.363	0.0179770
849.442	0.0178590
849.520	0.0178245
849.598	0.0177995
849.676	0.0178252
849.754	0.0178768
849.832	0.0178918
849.910	0.0179317
849.988	0.0178217
850.067	0.0180468
850.145	0.0178775
850.223	0.0179184
850.301	0.0179247
850.379	0.0178035
850.457	0.0179333
850.535	0.0178480
850.613	0.0179535
850.692	0.0180257
850.770	0.0178754
850.848	0.0179382
850.926	0.0179804
851.004	0.0180036
851.082	0.0179237
851.160	0.0178687
851.238	0.0180559
851.317	0.0178959
851.395	0.0179456
851.473	0.0180127
851.551	0.0179122
851.629	0.0180460
851.707	0.0179517
851.785	0.0179771
851.863	0.0179264
851.942	0.0178787
852.020	0.0181764
852.098	0.0180813
852.176	0.0178779
852.254	0.0180633
852.332	0.0180119
852.410	0.0179716
852.488	0.0179934
852.567	0.0180359
852.645	0.0181046
852.723	0.0180092
852.801	0.0180476
852.879	0.0181582
852.957	0.0181966
853.035	0.0181475
853.113	0.0179967
853.192	0.0180287
853.270	0.0181491
853.348	0.0181207
853.426	0.0181027
853.504	0.0180901
853.582	0.0181184
853.660	0.0179315
853.738	0.0180027
853.817	0.0178197
853.895	0.0179979
853.973	0.0180995
854.051	0.0179523
854.129	0.0180511
854.207	0.0179355
854.285	0.0180106
854.363	0.0178586
854.442	0.0178761
854.520	0.0179303
854.598	0.0180417
854.676	0.0179515
854.754	0.0179838
854.832	0.0179769
854.910	0.0180145
854.988	0.0179512
855.067	0.0179726
855.145	0.0180106
855.223	0.0178954
855.301	0.0180803
855.379	0.0181335
855.457	0.0179977
855.535	0.0180257
855.613	0.0180273
855.692	0.0180858
855.770	0.0182318
855.848	0.0181493
855.926	0.0181267
856.004	0.0179985
856.082	0.0181242
856.160	0.0182487
856.238	0.0182247
856.317	0.0181189
856.395	0.0181785
856.473	0.0182214
856.551	0.0180964
856.629	0.0181448
856.707	0.0181229
856.785	0.0182469
856.863	0.0180940
856.942	0.0179975
857.020	0.0181471
857.098	0.0181593
857.176	0.0180704
857.254	0.0179485
857.332	0.0179964
857.410	0.0181147
857.488	0.0180943
857.567	0.0179839
857.645	0.0179940
857.723	0.0180666
857.801	0.0179720
857.879	0.0179218
857.957	0.0180384
858.035	0.0179704
858.113	0.0180508
858.192	0.0180260
858.270	0.0179733
858.348	0.0178695
858.426	0.0180451
858.504	0.0179560
858.582	0.0179064
858.660	0.0177580
858.738	0.0179021
858.817	0.0179497
858.895	0.0179153
858.973	0.0180495
859.051	0.0179144
859.129	0.0179440
859.207	0.0178950
859.285	0.0179746
859.363	0.0179644
859.442	0.0179469
859.520	0.0178770
859.598	0.0179772
859.676	0.0179910
859.754	0.0179527
859.832	0.0181078
859.910	0.0180194
859.988	0.0179699
860.067	0.0180174
860.145	0.0181255
860.223	0.0180826
860.301	0.0181055
860.379	0.0181283
860.457	0.0178949
860.535	0.0180232
860.613	0.0180366
860.692	0.0180196
860.770	0.0181834
860.848	0.0180701
860.926	0.0180164
861.004	0.0179843
861.082	0.0182028
861.160	0.0181355
861.238	0.0180531
861.317	0.0179838
861.395	0.0180169
861.473	0.0180621
861.551	0.0180499
861.629	0.0180510
861.707	0.0181268
861.785	0.0180840
861.863	0.0181308
861.942	0.0179213
862.020	0.0178516
862.098	0.0180535
862.176	0.0180341
862.254	0.0180316
862.332	0.0179868
862.410	0.0180119
862.488	0.0179807
862.567	0.0180966
862.645	0.0181142
862.723	0.0180027
862.801	0.0178076
862.879	0.0179107
862.957	0.0180444
863.035	0.0179928
863.113	0.0179505
863.192	0.0179586
863.270	0.0180151
863.348	0.0177480
863.426	0.0179531
863.504	0.0180200
863.582	0.0178670
863.660	0.0178887
863.738	0.0180838
863.817	0.0180832
863.895	0.0178706
863.973	0.0179742
864.051	0.0179323
864.129	0.0179709
864.207	0.0179713
864.285	0.0180669
864.363	0.0179942
864.442	0.0179923
864.520	0.0179095
864.598	0.0180235
864.676	0.0178635
864.754	0.0178876
864.832	0.0179853
864.910	0.0178812
864.988	0.0179443
865.067	0.0181196
865.145	0.0179986
865.223	0.0180799
865.301	0.0180591
865.379	0.0179355
865.457	0.0179646
865.535	0.0178898
865.613	0.0179899
865.692	0.0180945
865.770	0.0178531
865.848	0.0178913
865.926	0.0178622
866.004	0.0180156
866.082	0.0179185
866.160	0.0179548
866.238	0.0178156
866.317	0.0178172
866.395	0.0179168
866.473	0.0178019
866.551	0.0177454
866.629	0.0178358
866.707	0.0178993
866.785	0.0180556
866.863	0.0179314
866.942	0.0179288
867.020	0.0178108
867.098	0.0177187
867.176	0.0178316
867.254	0.0178801
867.332	0.0179145
867.410	0.0178999
867.488	0.0177190
867.567	0.0177846
867.645	0.0179189
867.723	0.0177551
867.801	0.0178020
867.879	0.0177140
867.957	0.0177704
868.035	0.0177738
868.113	0.0178479
868.192	0.0177379
868.270	0.0178117
868.348	0.0179462
868.426	0.0179084
868.504	0.0177126
868.582	0.0179034
868.660	0.0177846
868.738	0.0178394
868.817	0.0177669
868.895	0.0178144
868.973	0.0179546
869.051	0.0178757
869.129	0.0178567
869.207	0.0178432
869.285	0.0178702
869.363	0.0178637
869.442	0.0179138
869.520	0.0177779
869.598	0.0177679
869.676	0.0178330
869.754	0.0176841
869.832	0.0178083
869.910	0.0178411
869.988	0.0177084
870.067	0.0176251
870.145	0.0177493
870.223	0.0177434
870.301	0.0178054
870.379	0.0178168
870.457	0.0177249
870.535	0.0177577
870.613	0.0176446
870.692	0.0178809
870.770	0.0177596
870.848	0.0176928
870.926	0.0177058
871.004	0.0176875
871.082	0.0176949
871.160	0.0177243
871.238	0.0176653
871.317	0.0176259
871.395	0.0176926
871.473	0.0176117
871.551	0.0176649
871.629	0.0177818
871.707	0.0178301
871.785	0.0178365
871.863	0.0178425
871.942	0.0177379
872.020	0.0177722
872.098	0.0177698
872.176	0.0178831
872.254	0.0179230
872.332	0.0178587
872.410	0.0179074
872.488	0.0180714
872.567	0.0180148
872.645	0.0179501
872.723	0.0179774
872.801	0.0180987
872.879	0.0179672
872.957	0.0181004
873.035	0.0180007
873.113	0.0180428
873.192	0.0179905
873.270	0.0180561
873.348	0.0180371
873.426	0.0180351
873.504	0.0181047
873.582	0.0180948
873.660	0.0180725
873.738	0.0180527
873.817	0.0179938
873.895	0.0179609
873.973	0.0179837
874.051	0.0180153
874.129	0.0180625
874.207	0.0181653
874.285	0.0179359
874.363	0.0179506
874.442	0.0179686
874.520	0.0180663
874.598	0.0179082
874.676	0.0179386
874.754	0.0179091
874.832	0.0178867
874.910	0.0179111
874.988	0.0180303
875.067	0.0180117
875.145	0.0178682
875.223	0.0179115
875.301	0.0178893
875.379	0.0177349
875.457	0.0178821
875.535	0.0180471
875.613	0.0179907
875.692	0.0178792
875.770	0.0178532
875.848	0.0179546
875.926	0.0179364
876.004	0.0179689
876.082	0.0178662
876.160	0.0179662
876.238	0.0179597
876.317	0.0179760
876.395	0.0180146
876.473	0.0179810
876.551	0.0179550
876.629	0.0180257
876.707	0.0181117
876.785	0.0179597
876.863	0.0180491
876.942	0.0180904
877.020	0.0179253
877.098	0.0179350
877.176	0.0179157
877.254	0.0179826
877.332	0.0179516
877.410	0.0179240
877.488	0.0179370
877.567	0.0178854
877.645	0.0179482
877.723	0.0179087
877.801	0.0179841
877.879	0.0178719
877.957	0.0179094
878.035	0.0179193
878.113	0.0179064
878.192	0.0178464
878.270	0.0180402
878.348	0.0178120
878.426	0.0177916
878.504	0.0179476
878.582	0.0179438
878.660	0.0178902
878.738	0.0178358
878.817	0.0178039
878.895	0.0179482
878.973	0.0180193
879.051	0.0178597
879.129	0.0178018
879.207	0.0179460
879.285	0.0179047
879.363	0.0179662
879.442	0.0179523
879.520	0.0179005
879.598	0.0180006
879.676	0.0179956
879.754	0.0180386
879.832	0.0179997
879.910	0.0180895
879.988	0.0180193
880.067	0.0180108
880.145	0.0180762
880.223	0.0179610
880.301	0.0180390
880.379	0.0181866
880.457	0.0181182
880.535	0.0179295
880.613	0.0180203
880.692	0.0180897
880.770	0.0180008
880.848	0.0180477
880.926	0.0180861
881.004	0.0181812
881.082	0.0179432
881.160	0.0178760
881.238	0.0179922
881.317	0.0179431
881.395	0.0180068
881.473	0.0180864
881.551	0.0180102
881.629	0.0181235
881.707	0.0179966
881.785	0.0179147
881.863	0.0178604
881.942	0.0179671
882.020	0.0180087
882.098	0.0178548
882.176	0.0179100
882.254	0.0179274
882.332	0.0181261
882.410	0.0180174
882.488	0.0178890
882.567	0.0180331
882.645	0.0180384
882.723	0.0181098
882.801	0.0180003
882.879	0.0179968
882.957	0.0180837
883.035	0.0180891
883.113	0.0179938
883.192	0.0180228
883.270	0.0182140
883.348	0.0179702
883.426	0.0179163
883.504	0.0181860
883.582	0.0181263
883.660	0.0180309
883.738	0.0180202
883.817	0.0181010
883.895	0.0179897
883.973	0.0180255
884.051	0.0181009
884.129	0.0180508
884.207	0.0180314
884.285	0.0179778
884.363	0.0180294
884.442	0.0179908
884.520	0.0180775
884.598	0.0178027
884.676	0.0178740
884.754	0.0179365
884.832	0.0179984
884.910	0.0180336
884.988	0.0179525
885.067	0.0179824
885.145	0.0179535
885.223	0.0180052
885.301	0.0179858
885.379	0.0180763
885.457	0.0179701
885.535	0.0178850
885.613	0.0178893
885.692	0.0179334
885.770	0.0178786
885.848	0.0179064
885.926	0.0177855
886.004	0.0177863
886.082	0.0178134
886.160	0.0177977
886.238	0.0178426
886.317	0.0177332
886.395	0.0178091
886.473	0.0176801
886.551	0.0176721
886.629	0.0177242
886.707	0.0176260
886.785	0.0177774
886.863	0.0177410
886.942	0.0176791
887.020	0.0177186
887.098	0.0176338
887.176	0.0177348
887.254	0.0177686
887.332	0.0176588
887.410	0.0176549
887.488	0.0177127
887.567	0.0176795
887.645	0.0177975
887.723	0.0178519
887.801	0.0178046
887.879	0.0177634
887.957	0.0178359
888.035	0.0179163
888.113	0.0180006
888.192	0.0179669
888.270	0.0180450
888.348	0.0179757
888.426	0.0177602
888.504	0.0178188
888.582	0.0180675
888.660	0.0179718
888.738	0.0179375
888.817	0.0179935
888.895	0.0179662
888.973	0.0179723
889.051	0.0178490
889.129	0.0180392
889.207	0.0178979
889.285	0.0178056
889.363	0.0178626
889.442	0.0178403
889.520	0.0178698
889.598	0.0179086
889.676	0.0177185
889.754	0.0178607
889.832	0.0178937
889.910	0.0178275
889.988	0.0177806
890.067	0.0176417
890.145	0.0177961
890.223	0.0177564
890.301	0.0178084
890.379	0.0177596
890.457	0.0176962
890.535	0.0178722
890.613	0.0178907
890.692	0.0177061
890.770	0.0177731
890.848	0.0177718
890.926	0.0177757
891.004	0.0178765
891.082	0.0178071
891.160	0.0178755
891.238	0.0178146
891.317	0.0176625
891.395	0.0178860
891.473	0.0177499
891.551	0.0178214
891.629	0.0178519
891.707	0.0177458
891.785	0.0179028
891.863	0.0178886
891.942	0.0178973
892.020	0.0178125
892.098	0.0178458
892.176	0.0178608
892.254	0.0177776
892.332	0.0178151
892.410	0.0177958
892.488	0.0178171
892.567	0.0179861
892.645	0.0178174
892.723	0.0178768
892.801	0.0179539
892.879	0.0178895
892.957	0.0179331
893.035	0.0179366
893.113	0.0179603
893.192	0.0178597
893.270	0.0179561
893.348	0.0179716
893.426	0.0179900
893.504	0.0179415
893.582	0.0179726
893.660	0.0179135
893.738	0.0180452
893.817	0.0180797
893.895	0.0181074
893.973	0.0180971
894.051	0.0180452
894.129	0.0179603
894.207	0.0180289
894.285	0.0179166
894.363	0.0178278
894.442	0.0179662
894.520	0.0181065
894.598	0.0179492
894.676	0.0179239
894.754	0.0179368
894.832	0.0179942
894.910	0.0179001
894.988	0.0178938
895.067	0.0179387
895.145	0.0180000
895.223	0.0180433
895.301	0.0179989
895.379	0.0180061
895.457	0.0180135
895.535	0.0180824
895.613	0.0180334
895.692	0.0182105
895.770	0.0179822
895.848	0.0179554
895.926	0.0182211
896.004	0.0181538
896.082	0.0181483
896.160	0.0180339
896.238	0.0181450
896.317	0.0181709
896.395	0.0180373
896.473	0.0179595
896.551	0.0180674
896.629	0.0181726
896.707	0.0180656
896.785	0.0181136
896.863	0.0181972
896.942	0.0180986
897.020	0.0180801
897.098	0.0178903
897.176	0.0180713
897.254	0.0180617
897.332	0.0181641
897.410	0.0180411
897.488	0.0182107
897.567	0.0180919
897.645	0.0180970
897.723	0.0180473
897.801	0.0181414
897.879	0.0180919
897.957	0.0180685
898.035	0.0181036
898.113	0.0181392
898.192	0.0181135
898.270	0.0180157
898.348	0.0180084
898.426	0.0179342
898.504	0.0181895
898.582	0.0181314
898.660	0.0180241
898.738	0.0179433
898.817	0.0180402
898.895	0.0181351
898.973	0.0179843
899.051	0.0180749
899.129	0.0180988
899.207	0.0180753
899.285	0.0179988
899.363	0.0181178
899.442	0.0180284
899.520	0.0179897
899.598	0.0180418
899.676	0.0181300
899.754	0.0179156
899.832	0.0179697
899.910	0.0180205
899.988	0.0179031
900.067	0.0179641
900.145	0.0181573
900.223	0.0180821
900.301	0.0179179
900.379	0.0180036
900.457	0.0179034
900.535	0.0178861
900.613	0.0179149
900.692	0.0178194
900.770	0.0180427
900.848	0.0179341
900.926	0.0179729
901.004	0.0181014
901.082	0.0179746
901.160	0.0180357
901.238	0.0180008
901.317	0.0178929
901.395	0.0181481
901.473	0.0181054
901.551	0.0180283
901.629	0.0180577
901.707	0.0181368
901.785	0.0181291
901.863	0.0180914
901.942	0.0180449
902.020	0.0180730
902.098	0.0181538
902.176	0.0180541
902.254	0.0180866
902.332	0.0181359
902.410	0.0180898
902.488	0.0180888
902.567	0.0180334
902.645	0.0182118
902.723	0.0181219
902.801	0.0181085
902.879	0.0181412
902.957	0.0181618
903.035	0.0182269
903.113	0.0182880
903.192	0.0181764
903.270	0.0182379
903.348	0.0181438
903.426	0.0181372
903.504	0.0180504
903.582	0.0181962
903.660	0.0181944
903.738	0.0180704
903.817	0.0182286
903.895	0.0181228
903.973	0.0180842
904.051	0.0180527
904.129	0.0181979
904.207	0.0179654
904.285	0.0179862
904.363	0.0179740
904.442	0.0180981
904.520	0.0179723
904.598	0.0178524
904.676	0.0180392
904.754	0.0178716
904.832	0.0178500
904.910	0.0179259
904.988	0.0177662
905.067	0.0178543
905.145	0.0179510
905.223	0.0178094
905.301	0.0179212
905.379	0.0178649
905.457	0.0178599
905.535	0.0178419
905.613	0.0178207
905.692	0.0178434
905.770	0.0179340
905.848	0.0177979
905.926	0.0178641
906.004	0.0179008
906.082	0.0179196
906.160	0.0178453
906.238	0.0178773
906.317	0.0179277
906.395	0.0177277
906.473	0.0178323
906.551	0.0178181
906.629	0.0177868
906.707	0.0178614
906.785	0.0177998
906.863	0.0178960
906.942	0.0176593
907.020	0.0176751
907.098	0.0177763
907.176	0.0177168
907.254	0.0176873
907.332	0.0176656
907.410	0.0178768
907.488	0.0178414
907.567	0.0177356
907.645	0.0177741
907.723	0.0176882
907.801	0.0178645
907.879	0.0178346
907.957	0.0177792
908.035	0.0176649
908.113	0.0178700
908.192	0.0179244
908.270	0.0178210
908.348	0.0177564
908.426	0.0176652
908.504	0.0178289
908.582	0.0178811
908.660	0.0176939
908.738	0.0178374
908.817	0.0178111
908.895	0.0179107
908.973	0.0177310
909.051	0.0177635
909.129	0.0177699
909.207	0.0177249
909.285	0.0179125
909.363	0.0176935
909.442	0.0177512
909.520	0.0177943
909.598	0.0177724
909.676	0.0177866
909.754	0.0177090
909.832	0.0178245
909.910	0.0177965
909.988	0.0177108
910.067	0.0177477
910.145	0.0176826
910.223	0.0178572
910.301	0.0177661
910.379	0.0177180
910.457	0.0178733
910.535	0.0177180
910.613	0.0177546
910.692	0.0177374
910.770	0.0177459
910.848	0.0178606
910.926	0.0178640
911.004	0.0178320
911.082	0.0177067
911.160	0.0176074
911.238	0.0178286
911.317	0.0178825
911.395	0.0178046
911.473	0.0177705
911.551	0.0177197
911.629	0.0178066
911.707	0.0177725
911.785	0.0178185
911.863	0.0177837
911.942	0.0178983
912.020	0.0177960
912.098	0.0177795
912.176	0.0178178
912.254	0.0178674
912.332	0.0177201
912.410	0.0178920
912.488	0.0178930
912.567	0.0178763
912.645	0.0179788
912.723	0.0179901
912.801	0.0179856
912.879	0.0179382
912.957	0.0179832
913.035	0.0180236
913.113	0.0179932
913.192	0.0178998
913.270	0.0179942
913.348	0.0180428
913.426	0.0179829
913.504	0.0180417
913.582	0.0180759
913.660	0.0180643
913.738	0.0180318
913.817	0.0180274
913.895	0.0180000
913.973	0.0180048
914.051	0.0181210
914.129	0.0179208
914.207	0.0179742
914.285	0.0181009
914.363	0.0180183
914.442	0.0179864
914.520	0.0179785
914.598	0.0178963
914.676	0.0180016
914.754	0.0180400
914.832	0.0180482
914.910	0.0179773
914.988	0.0179419
915.067	0.0180212
915.145	0.0179619
915.223	0.0179436
915.301	0.0180560
915.379	0.0179136
915.457	0.0180167
915.535	0.0180032
915.613	0.0179664
915.692	0.0179375
915.770	0.0181544
915.848	0.0180792
915.926	0.0179874
916.004	0.0179635
916.082	0.0181371
916.160	0.0180414
916.238	0.0180515
916.317	0.0179813
916.395	0.0180117
916.473	0.0180728
916.551	0.0179767
916.629	0.0180436
916.707	0.0181570
916.785	0.0181236
916.863	0.0180008
916.942	0.0181586
917.020	0.0180411
917.098	0.0182723
917.176	0.0181908
917.254	0.0181642
917.332	0.0183018
917.410	0.0181057
917.488	0.0182025
917.567	0.0182944
917.645	0.0182775
917.723	0.0182749
917.801	0.0183152
917.879	0.0182644
917.957	0.0183390
918.035	0.0181820
918.113	0.0183167
918.192	0.0182175
918.270	0.0181366
918.348	0.0181625
918.426	0.0181113
918.504	0.0182795
918.582	0.0181078
918.660	0.0181330
918.738	0.0182428
918.817	0.0182687
918.895	0.0181250
918.973	0.0180237
919.051	0.0180129
919.129	0.0181069
919.207	0.0181686
919.285	0.0180516
919.363	0.0179193
919.442	0.0179745
919.520	0.0179452
919.598	0.0179480
919.676	0.0180235
919.754	0.0179205
919.832	0.0179924
919.910	0.0179260
