06/01/2022	22:15:44	Ver.	4.1	UNKNOWN
Optical Delay	599.988409	Delta X		0.078125	Sweeps	1	Scan Rate	0/0
Coordinates	Axis 1	NaN	Axis 2	NaN	Axis 3	NaN	Axis 4	NaN	Axis 5	NaN	Axis 6	0.000000
TX Power	0.000000	RX Power	0.000000

599.988	0.0178586
600.067	0.0180624
600.145	0.0179636
600.223	0.0180517
600.301	0.0180148
600.379	0.0179448
600.457	0.0179894
600.535	0.0181020
600.613	0.0180441
600.692	0.0181332
600.770	0.0181074
600.848	0.0180466
600.926	0.0181403
601.004	0.0180560
601.082	0.0182935
601.160	0.0182295
601.238	0.0182807
601.317	0.0181354
601.395	0.0181063
601.473	0.0181833
601.551	0.0181723
601.629	0.0181353
601.707	0.0182214
601.785	0.0181508
601.863	0.0181185
601.942	0.0181223
602.020	0.0183034
602.098	0.0182591
602.176	0.0181084
602.254	0.0181614
602.332	0.0182269
602.410	0.0181773
602.488	0.0181573
602.567	0.0182545
602.645	0.0183199
602.723	0.0181070
602.801	0.0181883
602.879	0.0182050
602.957	0.0182918
603.035	0.0182113
603.113	0.0183429
603.192	0.0183420
603.270	0.0183030
603.348	0.0183646
603.426	0.0183341
603.504	0.0183523
603.582	0.0183002
603.660	0.0183585
603.738	0.0182957
603.817	0.0182290
603.895	0.0183836
603.973	0.0183508
604.051	0.0183698
604.129	0.0182153
604.207	0.0182265
604.285	0.0183936
604.363	0.0182494
604.442	0.0183234
604.520	0.0182560
604.598	0.0183618
604.676	0.0183102
604.754	0.0183080
604.832	0.0183108
604.910	0.0182722
604.988	0.0181454
605.067	0.0182910
605.145	0.0185989
605.223	0.0184068
605.301	0.0182820
605.379	0.0182907
605.457	0.0183664
605.535	0.0183196
605.613	0.0184066
605.692	0.0183866
605.770	0.0183803
605.848	0.0183569
605.926	0.0183147
606.004	0.0183120
606.082	0.0182875
606.160	0.0184251
606.238	0.0182399
606.317	0.0182473
606.395	0.0183021
606.473	0.0182506
606.551	0.0181363
606.629	0.0182658
606.707	0.0182092
606.785	0.0181999
606.863	0.0182508
606.942	0.0181873
607.020	0.0180589
607.098	0.0179839
607.176	0.0179622
607.254	0.0180467
607.332	0.0179574
607.410	0.0178960
607.488	0.0179301
607.567	0.0180908
607.645	0.0178741
607.723	0.0178020
607.801	0.0178685
607.879	0.0179577
607.957	0.0179031
608.035	0.0179084
608.113	0.0177888
608.192	0.0176912
608.270	0.0178242
608.348	0.0178695
608.426	0.0178115
608.504	0.0179005
608.582	0.0178468
608.660	0.0177288
608.738	0.0178754
608.817	0.0178534
608.895	0.0177950
608.973	0.0177370
609.051	0.0179015
609.129	0.0179137
609.207	0.0177522
609.285	0.0179148
609.363	0.0179269
609.442	0.0178629
609.520	0.0178783
609.598	0.0179230
609.676	0.0179205
609.754	0.0179980
609.832	0.0179445
609.910	0.0179134
609.988	0.0180210
610.067	0.0179925
610.145	0.0179738
610.223	0.0181101
610.301	0.0180990
610.379	0.0179579
610.457	0.0181122
610.535	0.0179807
610.613	0.0179942
610.692	0.0177818
610.770	0.0179005
610.848	0.0179283
610.926	0.0179029
611.004	0.0178176
611.082	0.0178952
611.160	0.0178349
611.238	0.0179012
611.317	0.0178548
611.395	0.0178638
611.473	0.0178610
611.551	0.0179079
611.629	0.0178857
611.707	0.0177897
611.785	0.0177682
611.863	0.0178473
611.942	0.0178754
612.020	0.0177987
612.098	0.0179440
612.176	0.0178254
612.254	0.0178518
612.332	0.0178439
612.410	0.0178584
612.488	0.0179490
612.567	0.0178083
612.645	0.0177556
612.723	0.0179417
612.801	0.0177825
612.879	0.0179250
612.957	0.0179372
613.035	0.0180106
613.113	0.0178107
613.192	0.0178506
613.270	0.0178067
613.348	0.0177695
613.426	0.0179880
613.504	0.0178395
613.582	0.0178791
613.660	0.0177957
613.738	0.0177753
613.817	0.0178985
613.895	0.0179656
613.973	0.0179201
614.051	0.0179020
614.129	0.0178355
614.207	0.0178397
614.285	0.0178887
614.363	0.0178655
614.442	0.0178932
614.520	0.0177510
614.598	0.0179643
614.676	0.0179709
614.754	0.0176691
614.832	0.0178856
614.910	0.0179519
614.988	0.0178936
615.067	0.0179366
615.145	0.0178670
615.223	0.0176812
615.301	0.0178445
615.379	0.0177916
615.457	0.0178284
615.535	0.0179465
615.613	0.0180550
615.692	0.0179784
615.770	0.0179523
615.848	0.0178216
615.926	0.0178396
616.004	0.0180146
616.082	0.0181303
616.160	0.0180182
616.238	0.0179704
616.317	0.0179709
616.395	0.0180431
616.473	0.0180401
616.551	0.0180538
616.629	0.0179630
616.707	0.0180128
616.785	0.0180428
616.863	0.0181708
616.942	0.0181597
617.020	0.0179279
617.098	0.0179590
617.176	0.0181370
617.254	0.0180157
617.332	0.0179527
617.410	0.0178676
617.488	0.0180936
617.567	0.0179858
617.645	0.0180284
617.723	0.0178536
617.801	0.0177171
617.879	0.0179216
617.957	0.0178439
618.035	0.0177265
618.113	0.0177555
618.192	0.0177723
618.270	0.0178621
618.348	0.0178460
618.426	0.0177243
618.504	0.0177574
618.582	0.0177351
618.660	0.0177049
618.738	0.0178355
618.817	0.0178497
618.895	0.0177550
618.973	0.0178146
619.051	0.0178001
619.129	0.0177784
619.207	0.0179500
619.285	0.0178227
619.363	0.0178544
619.442	0.0178755
619.520	0.0178157
619.598	0.0180242
619.676	0.0179343
619.754	0.0179319
619.832	0.0179311
619.910	0.0179762
619.988	0.0179031
620.067	0.0179193
620.145	0.0179878
620.223	0.0180572
620.301	0.0179745
620.379	0.0179762
620.457	0.0179260
620.535	0.0179681
620.613	0.0179077
620.692	0.0179640
620.770	0.0179670
620.848	0.0178796
620.926	0.0180183
621.004	0.0180160
621.082	0.0181001
621.160	0.0179004
621.238	0.0179020
621.317	0.0180633
621.395	0.0179558
621.473	0.0179083
621.551	0.0179417
621.629	0.0180779
621.707	0.0179539
621.785	0.0181620
621.863	0.0179087
621.942	0.0179259
622.020	0.0179063
622.098	0.0178587
622.176	0.0178909
622.254	0.0178954
622.332	0.0179672
622.410	0.0179819
622.488	0.0180088
622.567	0.0180108
622.645	0.0179830
622.723	0.0180861
622.801	0.0181268
622.879	0.0179025
622.957	0.0179804
623.035	0.0180254
623.113	0.0180609
623.192	0.0179835
623.270	0.0180519
623.348	0.0180603
623.426	0.0180013
623.504	0.0180095
623.582	0.0180599
623.660	0.0180531
623.738	0.0180241
623.817	0.0180008
623.895	0.0180159
623.973	0.0179286
624.051	0.0180634
624.129	0.0180917
624.207	0.0179258
624.285	0.0179992
624.363	0.0181299
624.442	0.0182608
624.520	0.0182097
624.598	0.0179708
624.676	0.0180811
624.754	0.0179784
624.832	0.0181154
624.910	0.0181880
624.988	0.0180075
625.067	0.0181888
625.145	0.0180910
625.223	0.0179753
625.301	0.0181116
625.379	0.0182033
625.457	0.0180902
625.535	0.0181815
625.613	0.0182361
625.692	0.0180749
625.770	0.0181535
625.848	0.0181976
625.926	0.0182600
626.004	0.0181660
626.082	0.0182275
626.160	0.0182594
626.238	0.0182583
626.317	0.0181928
626.395	0.0182589
626.473	0.0183215
626.551	0.0183257
626.629	0.0182445
626.707	0.0183054
626.785	0.0184069
626.863	0.0183266
626.942	0.0182359
627.020	0.0182465
627.098	0.0181873
627.176	0.0182658
627.254	0.0182957
627.332	0.0183167
627.410	0.0183134
627.488	0.0182091
627.567	0.0184225
627.645	0.0183553
627.723	0.0182771
627.801	0.0183729
627.879	0.0183364
627.957	0.0185208
628.035	0.0185130
628.113	0.0182777
628.192	0.0181835
628.270	0.0184173
628.348	0.0183929
628.426	0.0184807
628.504	0.0183171
628.582	0.0183191
628.660	0.0183715
628.738	0.0185034
628.817	0.0183354
628.895	0.0182893
628.973	0.0182001
629.051	0.0181657
629.129	0.0182841
629.207	0.0182413
629.285	0.0182745
629.363	0.0181326
629.442	0.0181290
629.520	0.0181656
629.598	0.0179970
629.676	0.0180905
629.754	0.0178857
629.832	0.0179505
629.910	0.0178835
629.988	0.0177386
630.067	0.0178300
630.145	0.0178212
630.223	0.0178580
630.301	0.0176481
630.379	0.0175728
630.457	0.0177338
630.535	0.0176859
630.613	0.0177518
630.692	0.0176974
630.770	0.0175422
630.848	0.0176065
630.926	0.0176760
631.004	0.0175807
631.082	0.0175877
631.160	0.0174387
631.238	0.0175556
631.317	0.0175169
631.395	0.0175589
631.473	0.0174689
631.551	0.0174358
631.629	0.0175414
631.707	0.0174305
631.785	0.0176207
631.863	0.0176416
631.942	0.0176645
632.020	0.0175382
632.098	0.0175892
632.176	0.0175157
632.254	0.0176966
632.332	0.0175400
632.410	0.0176771
632.488	0.0177744
632.567	0.0177013
632.645	0.0176503
632.723	0.0178759
632.801	0.0179118
632.879	0.0177481
632.957	0.0179355
633.035	0.0178354
633.113	0.0177995
633.192	0.0179185
633.270	0.0180346
633.348	0.0181018
633.426	0.0180293
633.504	0.0180289
633.582	0.0181418
633.660	0.0182348
633.738	0.0182404
633.817	0.0181797
633.895	0.0180515
633.973	0.0181042
634.051	0.0181919
634.129	0.0180598
634.207	0.0180453
634.285	0.0180217
634.363	0.0181039
634.442	0.0180626
634.520	0.0180209
634.598	0.0182225
634.676	0.0180975
634.754	0.0181700
634.832	0.0181530
634.910	0.0180223
634.988	0.0181483
635.067	0.0181364
635.145	0.0181905
635.223	0.0180119
635.301	0.0180549
635.379	0.0181002
635.457	0.0180466
635.535	0.0181515
635.613	0.0180357
635.692	0.0180462
635.770	0.0181346
635.848	0.0179498
635.926	0.0180811
636.004	0.0181533
636.082	0.0180418
636.160	0.0180888
636.238	0.0180579
636.317	0.0180285
636.395	0.0181330
636.473	0.0180032
636.551	0.0182117
636.629	0.0181340
636.707	0.0181380
636.785	0.0181503
636.863	0.0181698
636.942	0.0179861
637.020	0.0180301
637.098	0.0180911
637.176	0.0182270
637.254	0.0181796
637.332	0.0181583
637.410	0.0180775
637.488	0.0180300
637.567	0.0182089
637.645	0.0181152
637.723	0.0181962
637.801	0.0182504
637.879	0.0183199
637.957	0.0183018
638.035	0.0181306
638.113	0.0181313
638.192	0.0182275
638.270	0.0181920
638.348	0.0182761
638.426	0.0182200
638.504	0.0180995
638.582	0.0181344
638.660	0.0181487
638.738	0.0180966
638.817	0.0179867
638.895	0.0180099
638.973	0.0180549
639.051	0.0181198
639.129	0.0179642
639.207	0.0179343
639.285	0.0180114
639.363	0.0179028
639.442	0.0179397
639.520	0.0180118
639.598	0.0179005
639.676	0.0179456
639.754	0.0179099
639.832	0.0179022
639.910	0.0177789
639.988	0.0178397
640.067	0.0178625
640.145	0.0178661
640.223	0.0178808
640.301	0.0179094
640.379	0.0177425
640.457	0.0179514
640.535	0.0179208
640.613	0.0178868
640.692	0.0178093
640.770	0.0178433
640.848	0.0179010
640.926	0.0179050
641.004	0.0179288
641.082	0.0178596
641.160	0.0178744
641.238	0.0179608
641.317	0.0178252
641.395	0.0179043
641.473	0.0179591
641.551	0.0179782
641.629	0.0179032
641.707	0.0180808
641.785	0.0180621
641.863	0.0179321
641.942	0.0178694
642.020	0.0179255
642.098	0.0179467
642.176	0.0180316
642.254	0.0179865
642.332	0.0178101
642.410	0.0178754
642.488	0.0178883
642.567	0.0177853
642.645	0.0178517
642.723	0.0180082
642.801	0.0177132
642.879	0.0177873
642.957	0.0179049
643.035	0.0178487
643.113	0.0177676
643.192	0.0177248
643.270	0.0176511
643.348	0.0177775
643.426	0.0178255
643.504	0.0178059
643.582	0.0178194
643.660	0.0178515
643.738	0.0176514
643.817	0.0175200
643.895	0.0176408
643.973	0.0176803
644.051	0.0177688
644.129	0.0176525
644.207	0.0178183
644.285	0.0177985
644.363	0.0178741
644.442	0.0178774
644.520	0.0178095
644.598	0.0177464
644.676	0.0178335
644.754	0.0178828
644.832	0.0178771
644.910	0.0178912
644.988	0.0178552
645.067	0.0179408
645.145	0.0179013
645.223	0.0179162
645.301	0.0180571
645.379	0.0180868
645.457	0.0178960
645.535	0.0180836
645.613	0.0180570
645.692	0.0179756
645.770	0.0180453
645.848	0.0179460
645.926	0.0180091
646.004	0.0178795
646.082	0.0179609
646.160	0.0180990
646.238	0.0179791
646.317	0.0180157
646.395	0.0179478
646.473	0.0178983
646.551	0.0179237
646.629	0.0179900
646.707	0.0180585
646.785	0.0180237
646.863	0.0179725
646.942	0.0180142
647.020	0.0179682
647.098	0.0179582
647.176	0.0180742
647.254	0.0180296
647.332	0.0179899
647.410	0.0180692
647.488	0.0179295
647.567	0.0179210
647.645	0.0178346
647.723	0.0179234
647.801	0.0180200
647.879	0.0180145
647.957	0.0179556
648.035	0.0179861
648.113	0.0180341
648.192	0.0179282
648.270	0.0179353
648.348	0.0180698
648.426	0.0180400
648.504	0.0179736
648.582	0.0179724
648.660	0.0179877
648.738	0.0178904
648.817	0.0180978
648.895	0.0181271
648.973	0.0179958
649.051	0.0179892
649.129	0.0180779
649.207	0.0180154
649.285	0.0180610
649.363	0.0180565
649.442	0.0182284
649.520	0.0180869
649.598	0.0181033
649.676	0.0180965
649.754	0.0182470
649.832	0.0181783
649.910	0.0181911
649.988	0.0181770
650.067	0.0181184
650.145	0.0181364
650.223	0.0181598
650.301	0.0183290
650.379	0.0181406
650.457	0.0180559
650.535	0.0178671
650.613	0.0180285
650.692	0.0179839
650.770	0.0180496
650.848	0.0180570
650.926	0.0180244
651.004	0.0179599
651.082	0.0178841
651.160	0.0178614
651.238	0.0178596
651.317	0.0178514
651.395	0.0177269
651.473	0.0178811
651.551	0.0178680
651.629	0.0178150
651.707	0.0178854
651.785	0.0178467
651.863	0.0177370
651.942	0.0178307
652.020	0.0178448
652.098	0.0179689
652.176	0.0177979
652.254	0.0179890
652.332	0.0178501
652.410	0.0178837
652.488	0.0179513
652.567	0.0178637
652.645	0.0177088
652.723	0.0179116
652.801	0.0178130
652.879	0.0177661
652.957	0.0177020
653.035	0.0177463
653.113	0.0176846
653.192	0.0177897
653.270	0.0178015
653.348	0.0176970
653.426	0.0178279
653.504	0.0176796
653.582	0.0177562
653.660	0.0176137
653.738	0.0176181
653.817	0.0177396
653.895	0.0177158
653.973	0.0176588
654.051	0.0177271
654.129	0.0177428
654.207	0.0176686
654.285	0.0176369
654.363	0.0178298
654.442	0.0177647
654.520	0.0177089
654.598	0.0178382
654.676	0.0178181
654.754	0.0177444
654.832	0.0177099
654.910	0.0176997
654.988	0.0177255
655.067	0.0178947
655.145	0.0179118
655.223	0.0176798
655.301	0.0178163
655.379	0.0177684
655.457	0.0179930
655.535	0.0178989
655.613	0.0178795
655.692	0.0179724
655.770	0.0179247
655.848	0.0178532
655.926	0.0181044
656.004	0.0180495
656.082	0.0179911
656.160	0.0180029
656.238	0.0180207
656.317	0.0181272
656.395	0.0180559
656.473	0.0181276
656.551	0.0182144
656.629	0.0181010
656.707	0.0179973
656.785	0.0181910
656.863	0.0181435
656.942	0.0180688
657.020	0.0181865
657.098	0.0181546
657.176	0.0181370
657.254	0.0180561
657.332	0.0179013
657.410	0.0180975
657.488	0.0181599
657.567	0.0180622
657.645	0.0181573
657.723	0.0180515
657.801	0.0180273
657.879	0.0182568
657.957	0.0180730
658.035	0.0181953
658.113	0.0180151
658.192	0.0180531
658.270	0.0181409
658.348	0.0180983
658.426	0.0180323
658.504	0.0181872
658.582	0.0181145
658.660	0.0181357
658.738	0.0180989
658.817	0.0180434
658.895	0.0180817
658.973	0.0180904
659.051	0.0182181
659.129	0.0181303
659.207	0.0180645
659.285	0.0179810
659.363	0.0181245
659.442	0.0180968
659.520	0.0181570
659.598	0.0180222
659.676	0.0180896
659.754	0.0182957
659.832	0.0180645
659.910	0.0179799
659.988	0.0181725
660.067	0.0179851
660.145	0.0180476
660.223	0.0180505
660.301	0.0180447
660.379	0.0180230
660.457	0.0180003
660.535	0.0180503
660.613	0.0180538
660.692	0.0179018
660.770	0.0180289
660.848	0.0180453
660.926	0.0180358
661.004	0.0180186
661.082	0.0181181
661.160	0.0181190
661.238	0.0181216
661.317	0.0181326
661.395	0.0181047
661.473	0.0181625
661.551	0.0181468
661.629	0.0181200
661.707	0.0182053
661.785	0.0182250
661.863	0.0180461
661.942	0.0180701
662.020	0.0180374
662.098	0.0179754
662.176	0.0180122
662.254	0.0179076
662.332	0.0179886
662.410	0.0181121
662.488	0.0178977
662.567	0.0177746
662.645	0.0177367
662.723	0.0176832
662.801	0.0178260
662.879	0.0179079
662.957	0.0176723
663.035	0.0177150
663.113	0.0177258
663.192	0.0176651
663.270	0.0177054
663.348	0.0177528
663.426	0.0176960
663.504	0.0175377
663.582	0.0174861
663.660	0.0174730
663.738	0.0176429
663.817	0.0175401
663.895	0.0175111
663.973	0.0175822
664.051	0.0176141
664.129	0.0177631
664.207	0.0176217
664.285	0.0176273
664.363	0.0177048
664.442	0.0176078
664.520	0.0177251
664.598	0.0176382
664.676	0.0175912
664.754	0.0177177
664.832	0.0175607
664.910	0.0178008
664.988	0.0178327
665.067	0.0177940
665.145	0.0178967
665.223	0.0177967
665.301	0.0178142
665.379	0.0177179
665.457	0.0176711
665.535	0.0177510
665.613	0.0177135
665.692	0.0177572
665.770	0.0177837
665.848	0.0178237
665.926	0.0177599
666.004	0.0177309
666.082	0.0177116
666.160	0.0178369
666.238	0.0178172
666.317	0.0178014
666.395	0.0178258
666.473	0.0176820
666.551	0.0179353
666.629	0.0178442
666.707	0.0177779
666.785	0.0179308
666.863	0.0178894
666.942	0.0179755
667.020	0.0177747
667.098	0.0179591
667.176	0.0179269
667.254	0.0178143
667.332	0.0178984
667.410	0.0178206
667.488	0.0177798
667.567	0.0179367
667.645	0.0179890
667.723	0.0178809
667.801	0.0179222
667.879	0.0179140
667.957	0.0180628
668.035	0.0179848
668.113	0.0181026
668.192	0.0181180
668.270	0.0179322
668.348	0.0179706
668.426	0.0181791
668.504	0.0180648
668.582	0.0180599
668.660	0.0179993
668.738	0.0181181
668.817	0.0181632
668.895	0.0180166
668.973	0.0180639
669.051	0.0180428
669.129	0.0180061
669.207	0.0181112
669.285	0.0180392
669.363	0.0180051
669.442	0.0180207
669.520	0.0180412
669.598	0.0180212
669.676	0.0180386
669.754	0.0180184
669.832	0.0179591
669.910	0.0178740
669.988	0.0179571
670.067	0.0179512
670.145	0.0179645
670.223	0.0180430
670.301	0.0178345
670.379	0.0178204
670.457	0.0180482
670.535	0.0179981
670.613	0.0177945
670.692	0.0178538
670.770	0.0180313
670.848	0.0177785
670.926	0.0178399
671.004	0.0177737
671.082	0.0177809
671.160	0.0177421
671.238	0.0177225
671.317	0.0179207
671.395	0.0177318
671.473	0.0176608
671.551	0.0178012
671.629	0.0177879
671.707	0.0175951
671.785	0.0176813
671.863	0.0175635
671.942	0.0176483
672.020	0.0177399
672.098	0.0176741
672.176	0.0175294
672.254	0.0176501
672.332	0.0176197
672.410	0.0176669
672.488	0.0176402
672.567	0.0175346
672.645	0.0177180
672.723	0.0175912
672.801	0.0176109
672.879	0.0176019
672.957	0.0177566
673.035	0.0177419
673.113	0.0176517
673.192	0.0176998
673.270	0.0176956
673.348	0.0176335
673.426	0.0177445
673.504	0.0177740
673.582	0.0177531
673.660	0.0177479
673.738	0.0177643
673.817	0.0175771
673.895	0.0178032
673.973	0.0176262
674.051	0.0177284
674.129	0.0177112
674.207	0.0176111
674.285	0.0176859
674.363	0.0176020
674.442	0.0175568
674.520	0.0177460
674.598	0.0177804
674.676	0.0175492
674.754	0.0176699
674.832	0.0177663
674.910	0.0176643
674.988	0.0177769
675.067	0.0177180
675.145	0.0178551
675.223	0.0178310
675.301	0.0177531
675.379	0.0176918
675.457	0.0178734
675.535	0.0176649
675.613	0.0177308
675.692	0.0178429
675.770	0.0177707
675.848	0.0177409
675.926	0.0179189
676.004	0.0178013
676.082	0.0178482
676.160	0.0178498
676.238	0.0177564
676.317	0.0178552
676.395	0.0177811
676.473	0.0177301
676.551	0.0177414
676.629	0.0177790
676.707	0.0177305
676.785	0.0178107
676.863	0.0179187
676.942	0.0177854
677.020	0.0179321
677.098	0.0178901
677.176	0.0179178
677.254	0.0179021
677.332	0.0179745
677.410	0.0179733
677.488	0.0178329
677.567	0.0179258
677.645	0.0180046
677.723	0.0180305
677.801	0.0181325
677.879	0.0179933
677.957	0.0182017
678.035	0.0182165
678.113	0.0181966
678.192	0.0181370
678.270	0.0181557
678.348	0.0179941
678.426	0.0180315
678.504	0.0182725
678.582	0.0181869
678.660	0.0181667
678.738	0.0182001
678.817	0.0180629
678.895	0.0181361
678.973	0.0182729
679.051	0.0182675
679.129	0.0182282
679.207	0.0182699
679.285	0.0181454
679.363	0.0182391
679.442	0.0183395
679.520	0.0181745
679.598	0.0181737
679.676	0.0181508
679.754	0.0182200
679.832	0.0182593
679.910	0.0181717
679.988	0.0182358
680.067	0.0182601
680.145	0.0180683
680.223	0.0180856
680.301	0.0182654
680.379	0.0181975
680.457	0.0181072
680.535	0.0182318
680.613	0.0181073
680.692	0.0182156
680.770	0.0181738
680.848	0.0183021
680.926	0.0183817
681.004	0.0181457
681.082	0.0180900
681.160	0.0181087
681.238	0.0181823
681.317	0.0182118
681.395	0.0180793
681.473	0.0181391
681.551	0.0179883
681.629	0.0179930
681.707	0.0182226
681.785	0.0179849
681.863	0.0180732
681.942	0.0180474
682.020	0.0180883
682.098	0.0178818
682.176	0.0180439
682.254	0.0178028
682.332	0.0177496
682.410	0.0178849
682.488	0.0177978
682.567	0.0176914
682.645	0.0177083
682.723	0.0177845
682.801	0.0176849
682.879	0.0177544
682.957	0.0177926
683.035	0.0175343
683.113	0.0177165
683.192	0.0177619
683.270	0.0177139
683.348	0.0176849
683.426	0.0177446
683.504	0.0178759
683.582	0.0178614
683.660	0.0177399
683.738	0.0178420
683.817	0.0180093
683.895	0.0180318
683.973	0.0180294
684.051	0.0178760
684.129	0.0179565
684.207	0.0179358
684.285	0.0179293
684.363	0.0179109
684.442	0.0178421
684.520	0.0178223
684.598	0.0178600
684.676	0.0178865
684.754	0.0176403
684.832	0.0177229
684.910	0.0176505
684.988	0.0177233
685.067	0.0177043
685.145	0.0176692
685.223	0.0176356
685.301	0.0177335
685.379	0.0176310
685.457	0.0178262
685.535	0.0177679
685.613	0.0176524
685.692	0.0176543
685.770	0.0177113
685.848	0.0178320
685.926	0.0176750
686.004	0.0177035
686.082	0.0176290
686.160	0.0177657
686.238	0.0177267
686.317	0.0175644
686.395	0.0176467
686.473	0.0176751
686.551	0.0176723
686.629	0.0175836
686.707	0.0177948
686.785	0.0177168
686.863	0.0176945
686.942	0.0177953
687.020	0.0177791
687.098	0.0176800
687.176	0.0177730
687.254	0.0177042
687.332	0.0177583
687.410	0.0176272
687.488	0.0176521
687.567	0.0177005
687.645	0.0178471
687.723	0.0178418
687.801	0.0177973
687.879	0.0178217
687.957	0.0178805
688.035	0.0179645
688.113	0.0178026
688.192	0.0178831
688.270	0.0178154
688.348	0.0179585
688.426	0.0179672
688.504	0.0180252
688.582	0.0178812
688.660	0.0178558
688.738	0.0178635
688.817	0.0179468
688.895	0.0180064
688.973	0.0180486
689.051	0.0179903
689.129	0.0179556
689.207	0.0177967
689.285	0.0179511
689.363	0.0179034
689.442	0.0179224
689.520	0.0179977
689.598	0.0180740
689.676	0.0179768
689.754	0.0180788
689.832	0.0182611
689.910	0.0181435
689.988	0.0181519
690.067	0.0181603
690.145	0.0183198
690.223	0.0183242
690.301	0.0182119
690.379	0.0183047
690.457	0.0183798
690.535	0.0183048
690.613	0.0183001
690.692	0.0184499
690.770	0.0183724
690.848	0.0183515
690.926	0.0184449
691.004	0.0185345
691.082	0.0184596
691.160	0.0184014
691.238	0.0185995
691.317	0.0183715
691.395	0.0182589
691.473	0.0183818
691.551	0.0183786
691.629	0.0182311
691.707	0.0182037
691.785	0.0181444
691.863	0.0180392
691.942	0.0180482
692.020	0.0179979
692.098	0.0181000
692.176	0.0178981
692.254	0.0178906
692.332	0.0179125
692.410	0.0179538
692.488	0.0179108
692.567	0.0178638
692.645	0.0178400
692.723	0.0178260
692.801	0.0178492
692.879	0.0178516
692.957	0.0180152
693.035	0.0178167
693.113	0.0178653
693.192	0.0179594
693.270	0.0178846
693.348	0.0178964
693.426	0.0179791
693.504	0.0179279
693.582	0.0178876
693.660	0.0179781
693.738	0.0178571
693.817	0.0179276
693.895	0.0179274
693.973	0.0180310
694.051	0.0179176
694.129	0.0178216
694.207	0.0178477
694.285	0.0179211
694.363	0.0179771
694.442	0.0179053
694.520	0.0179613
694.598	0.0181055
694.676	0.0179829
694.754	0.0178470
694.832	0.0179879
694.910	0.0179660
694.988	0.0179536
695.067	0.0181389
695.145	0.0180228
695.223	0.0180589
695.301	0.0180215
695.379	0.0180362
695.457	0.0178948
695.535	0.0180304
695.613	0.0180276
695.692	0.0179800
695.770	0.0177901
695.848	0.0178790
695.926	0.0177211
696.004	0.0178678
696.082	0.0177493
696.160	0.0177373
696.238	0.0176794
696.317	0.0175777
696.395	0.0175346
696.473	0.0175099
696.551	0.0174149
696.629	0.0174450
696.707	0.0174196
696.785	0.0173114
696.863	0.0173603
696.942	0.0172684
697.020	0.0174538
697.098	0.0173138
697.176	0.0173777
697.254	0.0173293
697.332	0.0174522
697.410	0.0175124
697.488	0.0174078
697.567	0.0175710
697.645	0.0176869
697.723	0.0176820
697.801	0.0178743
697.879	0.0178618
697.957	0.0179850
698.035	0.0179878
698.113	0.0182245
698.192	0.0183820
698.270	0.0183108
698.348	0.0183189
698.426	0.0183791
698.504	0.0184186
698.582	0.0184991
698.660	0.0185345
698.738	0.0183938
698.817	0.0182650
698.895	0.0183218
698.973	0.0183556
699.051	0.0183853
699.129	0.0183650
699.207	0.0182365
699.285	0.0183312
699.363	0.0181141
699.442	0.0181526
699.520	0.0180532
699.598	0.0179977
699.676	0.0179966
699.754	0.0178611
699.832	0.0177634
699.910	0.0178092
699.988	0.0177495
700.067	0.0178006
700.145	0.0179333
700.223	0.0177872
700.301	0.0177212
700.379	0.0177441
700.457	0.0178650
700.535	0.0177595
700.613	0.0178679
700.692	0.0179252
700.770	0.0179208
700.848	0.0178796
700.926	0.0178027
701.004	0.0178095
701.082	0.0176874
701.160	0.0176996
701.238	0.0176990
701.317	0.0177528
701.395	0.0177483
701.473	0.0177499
701.551	0.0176524
701.629	0.0177297
701.707	0.0177824
701.785	0.0178739
701.863	0.0178123
701.942	0.0179415
702.020	0.0179809
702.098	0.0180946
702.176	0.0180320
702.254	0.0180914
702.332	0.0181876
702.410	0.0181789
702.488	0.0181952
702.567	0.0182664
702.645	0.0183022
702.723	0.0183779
702.801	0.0184234
702.879	0.0184632
702.957	0.0185335
703.035	0.0184939
703.113	0.0185635
703.192	0.0185137
703.270	0.0186964
703.348	0.0183911
703.426	0.0184645
703.504	0.0185948
703.582	0.0186106
703.660	0.0186501
703.738	0.0186371
703.817	0.0185789
703.895	0.0185271
703.973	0.0184985
704.051	0.0185354
704.129	0.0186329
704.207	0.0185558
704.285	0.0184024
704.363	0.0182291
704.442	0.0183825
704.520	0.0183630
704.598	0.0183117
704.676	0.0182985
704.754	0.0182223
704.832	0.0181051
704.910	0.0180733
704.988	0.0180173
705.067	0.0179513
705.145	0.0176679
705.223	0.0176905
705.301	0.0177094
705.379	0.0176015
705.457	0.0176575
705.535	0.0175748
705.613	0.0173967
705.692	0.0174885
705.770	0.0173489
705.848	0.0174039
705.926	0.0175096
706.004	0.0175028
706.082	0.0174444
706.160	0.0175502
706.238	0.0175746
706.317	0.0176134
706.395	0.0176631
706.473	0.0174253
706.551	0.0176621
706.629	0.0176388
706.707	0.0177840
706.785	0.0177292
706.863	0.0178855
706.942	0.0177489
707.020	0.0177078
707.098	0.0179266
707.176	0.0178093
707.254	0.0179047
707.332	0.0178186
707.410	0.0179160
707.488	0.0180061
707.567	0.0179173
707.645	0.0179591
707.723	0.0182507
707.801	0.0181847
707.879	0.0181773
707.957	0.0181728
708.035	0.0181811
708.113	0.0183164
708.192	0.0181956
708.270	0.0182879
708.348	0.0183968
708.426	0.0183291
708.504	0.0181989
708.582	0.0183340
708.660	0.0182193
708.738	0.0182040
708.817	0.0183753
708.895	0.0182364
708.973	0.0183363
709.051	0.0182934
709.129	0.0183151
709.207	0.0183762
709.285	0.0183168
709.363	0.0182864
709.442	0.0183134
709.520	0.0182324
709.598	0.0180909
709.676	0.0180791
709.754	0.0182964
709.832	0.0181676
709.910	0.0179960
709.988	0.0179026
710.067	0.0179501
710.145	0.0178299
710.223	0.0177999
710.301	0.0178982
710.379	0.0177235
710.457	0.0176772
710.535	0.0177698
710.613	0.0176004
710.692	0.0176569
710.770	0.0173969
710.848	0.0173734
710.926	0.0175481
711.004	0.0174828
711.082	0.0174527
711.160	0.0174845
711.238	0.0175928
711.317	0.0176295
711.395	0.0175882
711.473	0.0178185
711.551	0.0180204
711.629	0.0180154
711.707	0.0180035
711.785	0.0182005
711.863	0.0182542
711.942	0.0183002
712.020	0.0184511
712.098	0.0184981
712.176	0.0185317
712.254	0.0185484
712.332	0.0186461
712.410	0.0186370
712.488	0.0186670
712.567	0.0186803
712.645	0.0186281
712.723	0.0187437
712.801	0.0186854
712.879	0.0185218
712.957	0.0185817
713.035	0.0185748
713.113	0.0186489
713.192	0.0185995
713.270	0.0185409
713.348	0.0186095
713.426	0.0186185
713.504	0.0184235
713.582	0.0184120
713.660	0.0183916
713.738	0.0184280
713.817	0.0184539
713.895	0.0184709
713.973	0.0184167
714.051	0.0184991
714.129	0.0184784
714.207	0.0182944
714.285	0.0183116
714.363	0.0183498
714.442	0.0182883
714.520	0.0182425
714.598	0.0181104
714.676	0.0182805
714.754	0.0182568
714.832	0.0181815
714.910	0.0179525
714.988	0.0181153
715.067	0.0181353
715.145	0.0181153
715.223	0.0181122
715.301	0.0182114
715.379	0.0180923
715.457	0.0181380
715.535	0.0181870
715.613	0.0182342
715.692	0.0179758
715.770	0.0181767
715.848	0.0183038
715.926	0.0182291
716.004	0.0181715
716.082	0.0182130
716.160	0.0182075
716.238	0.0182597
716.317	0.0183025
716.395	0.0179989
716.473	0.0180887
716.551	0.0181194
716.629	0.0181000
716.707	0.0180539
716.785	0.0178969
716.863	0.0179594
716.942	0.0179054
717.020	0.0178226
717.098	0.0178658
717.176	0.0177047
717.254	0.0177650
717.332	0.0178226
717.410	0.0178774
717.488	0.0177522
717.567	0.0178187
717.645	0.0177413
717.723	0.0177456
717.801	0.0178291
717.879	0.0177897
717.957	0.0178170
718.035	0.0178339
718.113	0.0178494
718.192	0.0178622
718.270	0.0179254
718.348	0.0178402
718.426	0.0180685
718.504	0.0180457
718.582	0.0179257
718.660	0.0178478
718.738	0.0179604
718.817	0.0180791
718.895	0.0179376
718.973	0.0178779
719.051	0.0177959
719.129	0.0179266
719.207	0.0179419
719.285	0.0179100
719.363	0.0179600
719.442	0.0180424
719.520	0.0180817
719.598	0.0180857
719.676	0.0180972
719.754	0.0181853
719.832	0.0182934
719.910	0.0182257
719.988	0.0183730
720.067	0.0182985
720.145	0.0183443
720.223	0.0182635
720.301	0.0182381
720.379	0.0182387
720.457	0.0180740
720.535	0.0180355
720.613	0.0179346
720.692	0.0179864
720.770	0.0180122
720.848	0.0177682
720.926	0.0175875
721.004	0.0176227
721.082	0.0176143
721.160	0.0176376
721.238	0.0177002
721.317	0.0176254
721.395	0.0176454
721.473	0.0177712
721.551	0.0177342
721.629	0.0178693
721.707	0.0178519
721.785	0.0179619
721.863	0.0179603
721.942	0.0181042
722.020	0.0181211
722.098	0.0181155
722.176	0.0180145
722.254	0.0179714
722.332	0.0180241
722.410	0.0181236
722.488	0.0179235
722.567	0.0179605
722.645	0.0180574
722.723	0.0179787
722.801	0.0177177
722.879	0.0179159
722.957	0.0179313
723.035	0.0179642
723.113	0.0178396
723.192	0.0176533
723.270	0.0178671
723.348	0.0177181
723.426	0.0177135
723.504	0.0177649
723.582	0.0175961
723.660	0.0176448
723.738	0.0178172
723.817	0.0176737
723.895	0.0178033
723.973	0.0178232
724.051	0.0180453
724.129	0.0177854
724.207	0.0179041
724.285	0.0180762
724.363	0.0180348
724.442	0.0180082
724.520	0.0181028
724.598	0.0181133
724.676	0.0180028
724.754	0.0180941
724.832	0.0181296
724.910	0.0181341
724.988	0.0182180
725.067	0.0180878
725.145	0.0180592
725.223	0.0181921
725.301	0.0181449
725.379	0.0183095
725.457	0.0183023
725.535	0.0181258
725.613	0.0182190
725.692	0.0183240
725.770	0.0182571
725.848	0.0182397
725.926	0.0184554
726.004	0.0183335
726.082	0.0183382
726.160	0.0183643
726.238	0.0183752
726.317	0.0185786
726.395	0.0186303
726.473	0.0184731
726.551	0.0186456
726.629	0.0185643
726.707	0.0184714
726.785	0.0184387
726.863	0.0183694
726.942	0.0183171
727.020	0.0182105
727.098	0.0182706
727.176	0.0181042
727.254	0.0180356
727.332	0.0179321
727.410	0.0179723
727.488	0.0179015
727.567	0.0179154
727.645	0.0177762
727.723	0.0176885
727.801	0.0176786
727.879	0.0177708
727.957	0.0175620
728.035	0.0177045
728.113	0.0176777
728.192	0.0176000
728.270	0.0177976
728.348	0.0176131
728.426	0.0175994
728.504	0.0178857
728.582	0.0177617
728.660	0.0177422
728.738	0.0179145
728.817	0.0178652
728.895	0.0177823
728.973	0.0176305
729.051	0.0177557
729.129	0.0176099
729.207	0.0176948
729.285	0.0174325
729.363	0.0175116
729.442	0.0175155
729.520	0.0174690
729.598	0.0173817
729.676	0.0174495
729.754	0.0174810
729.832	0.0173122
729.910	0.0173082
729.988	0.0173857
730.067	0.0175401
730.145	0.0175449
730.223	0.0174630
730.301	0.0175924
730.379	0.0176319
730.457	0.0177133
730.535	0.0175678
730.613	0.0177626
730.692	0.0177880
730.770	0.0177648
730.848	0.0178748
730.926	0.0178659
731.004	0.0179791
731.082	0.0182583
731.160	0.0180944
731.238	0.0179520
731.317	0.0181440
731.395	0.0182314
731.473	0.0181306
731.551	0.0182306
731.629	0.0182272
731.707	0.0182470
731.785	0.0185043
731.863	0.0183921
731.942	0.0184034
732.020	0.0185724
732.098	0.0185294
732.176	0.0184850
732.254	0.0183333
732.332	0.0185891
732.410	0.0185039
732.488	0.0184570
732.567	0.0185265
732.645	0.0185609
732.723	0.0184122
732.801	0.0183565
732.879	0.0184808
732.957	0.0185632
733.035	0.0184124
733.113	0.0184381
733.192	0.0186001
733.270	0.0186339
733.348	0.0184361
733.426	0.0186395
733.504	0.0185094
733.582	0.0185184
733.660	0.0185670
733.738	0.0184398
733.817	0.0183594
733.895	0.0183044
733.973	0.0182988
734.051	0.0183472
734.129	0.0181830
734.207	0.0180877
734.285	0.0180142
734.363	0.0180437
734.442	0.0180093
734.520	0.0180029
734.598	0.0177972
734.676	0.0178803
734.754	0.0178688
734.832	0.0179673
734.910	0.0178224
734.988	0.0178036
735.067	0.0177407
735.145	0.0177673
735.223	0.0178208
735.301	0.0178798
735.379	0.0178504
735.457	0.0180647
735.535	0.0178236
735.613	0.0179227
735.692	0.0178928
735.770	0.0178111
735.848	0.0179637
735.926	0.0179006
736.004	0.0177233
736.082	0.0178905
736.160	0.0178497
736.238	0.0178761
736.317	0.0178208
736.395	0.0179391
736.473	0.0177895
736.551	0.0178359
736.629	0.0178062
736.707	0.0178500
736.785	0.0178468
736.863	0.0177876
736.942	0.0178127
737.020	0.0178880
737.098	0.0177773
737.176	0.0178366
737.254	0.0178395
737.332	0.0179123
737.410	0.0178616
737.488	0.0180455
737.567	0.0180631
737.645	0.0179598
737.723	0.0179758
737.801	0.0181632
737.879	0.0181778
737.957	0.0180846
738.035	0.0180788
738.113	0.0181367
738.192	0.0183437
738.270	0.0182034
738.348	0.0182349
738.426	0.0184755
738.504	0.0183955
738.582	0.0183870
738.660	0.0184589
738.738	0.0182560
738.817	0.0182845
738.895	0.0183454
738.973	0.0183705
739.051	0.0183078
739.129	0.0183366
739.207	0.0181741
739.285	0.0183042
739.363	0.0183228
739.442	0.0181123
739.520	0.0181406
739.598	0.0181957
739.676	0.0179732
739.754	0.0179998
739.832	0.0179870
739.910	0.0179693
739.988	0.0179066
740.067	0.0178448
740.145	0.0179364
740.223	0.0178075
740.301	0.0178738
740.379	0.0177831
740.457	0.0177523
740.535	0.0178017
740.613	0.0178162
740.692	0.0177203
740.770	0.0176971
740.848	0.0176748
740.926	0.0176765
741.004	0.0176552
741.082	0.0176238
741.160	0.0177013
741.238	0.0175073
741.317	0.0175486
741.395	0.0176627
741.473	0.0173989
741.551	0.0173207
741.629	0.0173621
741.707	0.0173946
741.785	0.0173029
741.863	0.0174715
741.942	0.0174010
742.020	0.0175023
742.098	0.0175201
742.176	0.0175370
742.254	0.0174899
742.332	0.0175351
742.410	0.0176221
742.488	0.0176421
742.567	0.0177303
742.645	0.0177141
742.723	0.0177760
742.801	0.0177296
742.879	0.0178188
742.957	0.0178442
743.035	0.0177797
743.113	0.0178952
743.192	0.0179337
743.270	0.0179140
743.348	0.0179420
743.426	0.0180278
743.504	0.0179682
743.582	0.0181750
743.660	0.0179903
743.738	0.0178629
743.817	0.0179308
743.895	0.0181063
743.973	0.0179491
744.051	0.0178020
744.129	0.0180392
744.207	0.0180736
744.285	0.0179507
744.363	0.0180111
744.442	0.0178476
744.520	0.0179743
744.598	0.0179420
744.676	0.0178768
744.754	0.0178553
744.832	0.0178429
744.910	0.0178823
744.988	0.0179338
745.067	0.0177997
745.145	0.0180294
745.223	0.0179395
745.301	0.0178987
745.379	0.0179415
745.457	0.0180460
745.535	0.0181190
745.613	0.0180296
745.692	0.0180138
745.770	0.0181120
745.848	0.0181169
745.926	0.0180579
746.004	0.0181476
746.082	0.0181427
746.160	0.0179784
746.238	0.0181129
746.317	0.0179752
746.395	0.0180173
746.473	0.0180229
746.551	0.0180394
746.629	0.0179580
746.707	0.0181042
746.785	0.0180746
746.863	0.0181331
746.942	0.0181591
747.020	0.0181468
747.098	0.0182362
747.176	0.0181936
747.254	0.0182224
747.332	0.0182062
747.410	0.0182180
747.488	0.0183665
747.567	0.0182187
747.645	0.0181968
747.723	0.0181903
747.801	0.0180817
747.879	0.0181300
747.957	0.0180283
748.035	0.0180621
748.113	0.0180566
748.192	0.0179160
748.270	0.0179627
748.348	0.0180457
748.426	0.0179033
748.504	0.0180049
748.582	0.0178310
748.660	0.0178881
748.738	0.0178648
748.817	0.0178806
748.895	0.0178909
748.973	0.0179089
749.051	0.0178706
749.129	0.0178960
749.207	0.0178525
749.285	0.0178259
749.363	0.0177711
749.442	0.0178596
749.520	0.0178713
749.598	0.0177308
749.676	0.0178407
749.754	0.0179334
749.832	0.0179646
749.910	0.0178974
749.988	0.0178600
750.067	0.0177763
750.145	0.0179270
750.223	0.0178284
750.301	0.0177901
750.379	0.0178075
750.457	0.0178142
750.535	0.0176279
750.613	0.0177849
750.692	0.0177132
750.770	0.0176561
750.848	0.0176846
750.926	0.0175424
751.004	0.0176603
751.082	0.0177308
751.160	0.0175221
751.238	0.0174923
751.317	0.0176360
751.395	0.0175210
751.473	0.0176357
751.551	0.0176360
751.629	0.0177834
751.707	0.0177506
751.785	0.0177643
751.863	0.0179226
751.942	0.0178937
752.020	0.0181722
752.098	0.0180898
752.176	0.0179981
752.254	0.0180657
752.332	0.0182408
752.410	0.0181779
752.488	0.0181400
752.567	0.0182703
752.645	0.0182497
752.723	0.0182277
752.801	0.0182253
752.879	0.0182133
752.957	0.0180784
753.035	0.0181467
753.113	0.0181493
753.192	0.0180851
753.270	0.0180171
753.348	0.0181422
753.426	0.0181207
753.504	0.0180273
753.582	0.0181306
753.660	0.0182230
753.738	0.0180228
753.817	0.0180794
753.895	0.0181131
753.973	0.0182171
754.051	0.0180480
754.129	0.0179964
754.207	0.0181683
754.285	0.0181514
754.363	0.0181004
754.442	0.0181302
754.520	0.0181183
754.598	0.0179869
754.676	0.0179912
754.754	0.0180108
754.832	0.0179201
754.910	0.0179106
754.988	0.0177461
755.067	0.0177397
755.145	0.0177892
755.223	0.0176756
755.301	0.0176274
755.379	0.0176572
755.457	0.0175647
755.535	0.0176273
755.613	0.0176183
755.692	0.0175793
755.770	0.0175057
755.848	0.0177141
755.926	0.0174701
756.004	0.0174647
756.082	0.0175025
756.160	0.0175871
756.238	0.0177041
756.317	0.0175463
756.395	0.0176914
756.473	0.0177295
756.551	0.0177010
756.629	0.0176991
756.707	0.0176625
756.785	0.0177792
756.863	0.0178270
756.942	0.0177008
757.020	0.0178281
757.098	0.0176784
757.176	0.0178107
757.254	0.0178138
757.332	0.0177808
757.410	0.0178721
757.488	0.0178766
757.567	0.0178061
757.645	0.0178189
757.723	0.0179665
757.801	0.0178628
757.879	0.0179191
757.957	0.0180435
758.035	0.0179636
758.113	0.0179531
758.192	0.0179928
758.270	0.0180189
758.348	0.0180099
758.426	0.0180977
758.504	0.0180870
758.582	0.0180616
758.660	0.0179458
758.738	0.0180295
758.817	0.0180369
758.895	0.0180599
758.973	0.0178805
759.051	0.0179025
759.129	0.0179651
759.207	0.0178384
759.285	0.0177436
759.363	0.0177752
759.442	0.0179848
759.520	0.0178583
759.598	0.0179666
759.676	0.0178310
759.754	0.0179708
759.832	0.0178138
759.910	0.0179643
759.988	0.0179504
760.067	0.0179783
760.145	0.0179020
760.223	0.0178320
760.301	0.0180022
760.379	0.0180244
760.457	0.0178279
760.535	0.0178667
760.613	0.0178561
760.692	0.0179222
760.770	0.0178596
760.848	0.0177595
760.926	0.0177827
761.004	0.0177598
761.082	0.0177374
761.160	0.0176794
761.238	0.0176956
761.317	0.0175415
761.395	0.0175927
761.473	0.0176714
761.551	0.0175208
761.629	0.0174943
761.707	0.0174565
761.785	0.0174664
761.863	0.0175696
761.942	0.0175049
762.020	0.0174649
762.098	0.0174885
762.176	0.0174824
762.254	0.0175321
762.332	0.0175088
762.410	0.0174569
762.488	0.0174354
762.567	0.0174240
762.645	0.0173764
762.723	0.0175374
762.801	0.0175789
762.879	0.0173275
762.957	0.0175047
763.035	0.0175546
763.113	0.0175622
763.192	0.0176561
763.270	0.0177103
763.348	0.0177799
763.426	0.0177513
763.504	0.0177541
763.582	0.0179902
763.660	0.0180216
763.738	0.0179306
763.817	0.0181348
763.895	0.0180354
763.973	0.0181934
764.051	0.0182011
764.129	0.0181255
764.207	0.0182362
764.285	0.0182080
764.363	0.0182351
764.442	0.0182189
764.520	0.0181705
764.598	0.0181811
764.676	0.0182353
764.754	0.0183216
764.832	0.0181710
764.910	0.0182232
764.988	0.0180827
765.067	0.0180825
765.145	0.0181114
765.223	0.0182619
765.301	0.0181682
765.379	0.0181390
765.457	0.0181296
765.535	0.0181548
765.613	0.0180731
765.692	0.0181014
765.770	0.0181768
765.848	0.0181483
765.926	0.0181082
766.004	0.0181972
766.082	0.0181817
766.160	0.0181969
766.238	0.0182162
766.317	0.0182549
766.395	0.0181016
766.473	0.0180338
766.551	0.0181975
766.629	0.0183269
766.707	0.0182159
766.785	0.0181920
766.863	0.0182457
766.942	0.0180892
767.020	0.0182316
767.098	0.0181565
767.176	0.0180489
767.254	0.0181113
767.332	0.0180442
767.410	0.0181548
767.488	0.0180103
767.567	0.0180001
767.645	0.0179993
767.723	0.0181068
767.801	0.0179662
767.879	0.0179986
767.957	0.0179453
768.035	0.0178741
768.113	0.0178646
768.192	0.0177032
768.270	0.0178605
768.348	0.0178126
768.426	0.0178456
768.504	0.0179510
768.582	0.0179430
768.660	0.0178718
768.738	0.0178530
768.817	0.0178239
768.895	0.0178227
768.973	0.0177148
769.051	0.0178020
769.129	0.0178046
769.207	0.0177718
769.285	0.0176702
769.363	0.0179158
769.442	0.0178493
769.520	0.0177821
769.598	0.0178555
769.676	0.0178915
769.754	0.0178603
769.832	0.0179772
769.910	0.0180167
769.988	0.0179993
770.067	0.0180164
770.145	0.0179682
770.223	0.0179459
770.301	0.0179063
770.379	0.0180119
770.457	0.0179225
770.535	0.0178410
770.613	0.0179715
770.692	0.0181645
770.770	0.0179997
770.848	0.0179678
770.926	0.0181142
771.004	0.0180907
771.082	0.0180767
771.160	0.0181735
771.238	0.0182042
771.317	0.0179341
771.395	0.0180853
771.473	0.0181593
771.551	0.0181139
771.629	0.0180866
771.707	0.0180173
771.785	0.0181502
771.863	0.0180783
771.942	0.0179416
772.020	0.0179218
772.098	0.0179389
772.176	0.0180037
772.254	0.0179005
772.332	0.0178035
772.410	0.0176878
772.488	0.0177480
772.567	0.0178336
772.645	0.0178300
772.723	0.0176977
772.801	0.0177805
772.879	0.0177571
772.957	0.0179086
773.035	0.0175633
773.113	0.0177022
773.192	0.0178009
773.270	0.0178185
773.348	0.0178342
773.426	0.0178270
773.504	0.0179455
773.582	0.0177873
773.660	0.0177877
773.738	0.0178842
773.817	0.0178901
773.895	0.0179555
773.973	0.0178458
774.051	0.0180378
774.129	0.0178218
774.207	0.0179762
774.285	0.0178584
774.363	0.0179031
774.442	0.0179438
774.520	0.0179749
774.598	0.0179283
774.676	0.0180537
774.754	0.0180981
774.832	0.0179238
774.910	0.0180712
774.988	0.0182028
775.067	0.0181770
775.145	0.0180432
775.223	0.0180884
775.301	0.0180962
775.379	0.0180597
775.457	0.0181058
775.535	0.0180354
775.613	0.0179241
775.692	0.0181080
775.770	0.0181709
775.848	0.0181027
775.926	0.0179571
776.004	0.0179244
776.082	0.0179914
776.160	0.0180886
776.238	0.0179631
776.317	0.0180514
776.395	0.0180128
776.473	0.0180207
776.551	0.0180554
776.629	0.0178878
776.707	0.0179504
776.785	0.0179699
776.863	0.0180235
776.942	0.0179713
777.020	0.0179788
777.098	0.0180952
777.176	0.0181116
777.254	0.0181209
777.332	0.0179862
777.410	0.0180679
777.488	0.0180637
777.567	0.0180728
777.645	0.0180695
777.723	0.0180817
777.801	0.0179937
777.879	0.0179826
777.957	0.0180477
778.035	0.0179436
778.113	0.0180360
778.192	0.0181520
778.270	0.0180261
778.348	0.0180482
778.426	0.0179926
778.504	0.0179160
778.582	0.0180331
778.660	0.0180373
778.738	0.0179849
778.817	0.0180831
778.895	0.0180898
778.973	0.0179387
779.051	0.0180168
779.129	0.0179719
779.207	0.0180893
779.285	0.0179209
779.363	0.0179318
779.442	0.0179613
779.520	0.0178994
779.598	0.0180202
779.676	0.0179816
779.754	0.0179939
779.832	0.0177908
779.910	0.0178773
779.988	0.0176810
780.067	0.0179328
780.145	0.0177448
780.223	0.0176611
780.301	0.0177012
780.379	0.0176794
780.457	0.0176916
780.535	0.0176196
780.613	0.0178506
780.692	0.0177600
780.770	0.0178006
780.848	0.0179142
780.926	0.0177768
781.004	0.0177477
781.082	0.0175875
781.160	0.0177782
781.238	0.0178760
781.317	0.0177982
781.395	0.0179622
781.473	0.0179208
781.551	0.0180923
781.629	0.0179742
781.707	0.0179212
781.785	0.0179317
781.863	0.0179176
781.942	0.0179494
782.020	0.0179128
782.098	0.0179441
782.176	0.0179849
782.254	0.0179719
782.332	0.0179413
782.410	0.0179140
782.488	0.0179037
782.567	0.0178848
782.645	0.0177995
782.723	0.0179072
782.801	0.0177926
782.879	0.0178880
782.957	0.0178580
783.035	0.0180307
783.113	0.0179704
783.192	0.0178253
783.270	0.0180019
783.348	0.0178349
783.426	0.0179019
783.504	0.0180096
783.582	0.0179015
783.660	0.0178721
783.738	0.0177792
783.817	0.0178932
783.895	0.0177259
783.973	0.0178886
784.051	0.0177593
784.129	0.0178539
784.207	0.0177260
784.285	0.0176959
784.363	0.0177886
784.442	0.0178438
784.520	0.0178061
784.598	0.0177568
784.676	0.0179327
784.754	0.0178973
784.832	0.0178765
784.910	0.0178137
784.988	0.0177379
785.067	0.0177966
785.145	0.0178973
785.223	0.0178953
785.301	0.0179315
785.379	0.0177887
785.457	0.0177683
785.535	0.0178868
785.613	0.0178265
785.692	0.0177778
785.770	0.0179185
785.848	0.0178879
785.926	0.0178091
786.004	0.0179787
786.082	0.0180795
786.160	0.0178538
786.238	0.0177940
786.317	0.0178960
786.395	0.0180257
786.473	0.0181371
786.551	0.0179466
786.629	0.0179199
786.707	0.0179653
786.785	0.0179309
786.863	0.0179221
786.942	0.0180525
787.020	0.0180076
787.098	0.0180175
787.176	0.0180113
787.254	0.0179159
787.332	0.0179575
787.410	0.0180023
787.488	0.0179974
787.567	0.0179720
787.645	0.0180231
787.723	0.0179670
787.801	0.0178518
787.879	0.0179749
787.957	0.0178568
788.035	0.0179137
788.113	0.0178581
788.192	0.0178440
788.270	0.0177814
788.348	0.0178761
788.426	0.0178182
788.504	0.0178486
788.582	0.0179673
788.660	0.0178749
788.738	0.0180107
788.817	0.0179835
788.895	0.0181134
788.973	0.0179737
789.051	0.0181297
789.129	0.0181834
789.207	0.0180406
789.285	0.0180795
789.363	0.0183000
789.442	0.0182302
789.520	0.0181689
789.598	0.0183022
789.676	0.0183004
789.754	0.0183464
789.832	0.0184863
789.910	0.0184238
789.988	0.0185207
790.067	0.0184873
790.145	0.0185720
790.223	0.0185151
790.301	0.0183333
790.379	0.0184288
790.457	0.0184927
790.535	0.0184200
790.613	0.0184577
790.692	0.0182766
790.770	0.0183850
790.848	0.0184800
790.926	0.0182539
791.004	0.0181213
791.082	0.0183089
791.160	0.0181954
791.238	0.0180531
791.317	0.0181790
791.395	0.0180310
791.473	0.0181027
791.551	0.0181252
791.629	0.0179732
791.707	0.0181087
791.785	0.0180247
791.863	0.0180653
791.942	0.0180724
792.020	0.0180531
792.098	0.0181788
792.176	0.0179432
792.254	0.0179933
792.332	0.0180764
792.410	0.0181919
792.488	0.0180303
792.567	0.0180030
792.645	0.0181032
792.723	0.0180117
792.801	0.0179871
792.879	0.0180315
792.957	0.0179140
793.035	0.0179297
793.113	0.0178339
793.192	0.0179298
793.270	0.0178970
793.348	0.0179449
793.426	0.0179769
793.504	0.0178976
793.582	0.0178097
793.660	0.0180181
793.738	0.0180367
793.817	0.0179745
793.895	0.0178722
793.973	0.0178762
794.051	0.0179993
794.129	0.0179478
794.207	0.0180005
794.285	0.0179375
794.363	0.0180556
794.442	0.0180284
794.520	0.0179827
794.598	0.0181828
794.676	0.0181384
794.754	0.0181488
794.832	0.0181667
794.910	0.0179406
794.988	0.0182059
795.067	0.0180460
795.145	0.0179909
795.223	0.0180807
795.301	0.0183083
795.379	0.0182621
795.457	0.0180218
795.535	0.0180759
795.613	0.0181588
795.692	0.0180877
795.770	0.0180105
795.848	0.0180502
795.926	0.0180772
796.004	0.0182379
796.082	0.0181095
796.160	0.0181353
796.238	0.0180718
796.317	0.0182655
796.395	0.0181930
796.473	0.0180722
796.551	0.0180567
796.629	0.0181713
796.707	0.0183242
796.785	0.0182468
796.863	0.0182171
796.942	0.0182033
797.020	0.0180419
797.098	0.0181541
797.176	0.0180577
797.254	0.0180518
797.332	0.0179680
797.410	0.0179739
797.488	0.0180629
797.567	0.0179646
797.645	0.0178872
797.723	0.0179997
797.801	0.0179817
797.879	0.0180145
797.957	0.0180255
798.035	0.0178439
798.113	0.0180322
798.192	0.0179042
798.270	0.0177613
798.348	0.0178400
798.426	0.0177382
798.504	0.0177643
798.582	0.0178098
798.660	0.0179152
798.738	0.0176692
798.817	0.0177120
798.895	0.0178174
798.973	0.0178487
799.051	0.0176147
799.129	0.0177010
799.207	0.0177572
799.285	0.0175875
799.363	0.0175529
799.442	0.0176210
799.520	0.0175900
799.598	0.0175517
799.676	0.0174837
799.754	0.0177012
799.832	0.0176701
799.910	0.0176159
799.988	0.0175841
800.067	0.0176984
800.145	0.0176347
800.223	0.0177042
800.301	0.0178191
800.379	0.0177792
800.457	0.0176676
800.535	0.0176447
800.613	0.0176250
800.692	0.0177032
800.770	0.0175508
800.848	0.0177143
800.926	0.0175607
801.004	0.0176519
801.082	0.0176675
801.160	0.0174656
801.238	0.0175875
801.317	0.0176170
801.395	0.0174950
801.473	0.0176521
801.551	0.0178363
801.629	0.0177335
801.707	0.0176558
801.785	0.0178328
801.863	0.0177768
801.942	0.0177158
802.020	0.0176734
802.098	0.0176826
802.176	0.0178186
802.254	0.0178589
802.332	0.0179239
802.410	0.0178419
802.488	0.0177824
802.567	0.0179216
802.645	0.0178754
802.723	0.0176739
802.801	0.0178640
802.879	0.0179670
802.957	0.0180598
803.035	0.0180065
803.113	0.0180872
803.192	0.0181912
803.270	0.0180457
803.348	0.0179327
803.426	0.0182412
803.504	0.0182896
803.582	0.0181257
803.660	0.0182012
803.738	0.0181136
803.817	0.0181060
803.895	0.0182482
803.973	0.0182255
804.051	0.0184357
804.129	0.0184116
804.207	0.0183383
804.285	0.0181911
804.363	0.0182596
804.442	0.0183520
804.520	0.0183405
804.598	0.0181522
804.676	0.0183347
804.754	0.0183504
804.832	0.0183311
804.910	0.0183140
804.988	0.0182795
805.067	0.0182225
805.145	0.0182120
805.223	0.0183049
805.301	0.0182842
805.379	0.0182073
805.457	0.0182357
805.535	0.0183404
805.613	0.0181845
805.692	0.0182616
805.770	0.0183281
805.848	0.0182465
805.926	0.0182491
806.004	0.0181467
806.082	0.0182296
806.160	0.0180673
806.238	0.0179802
806.317	0.0180516
806.395	0.0179846
806.473	0.0180224
806.551	0.0180840
806.629	0.0179066
806.707	0.0178394
806.785	0.0178129
806.863	0.0178931
806.942	0.0178384
807.020	0.0179091
807.098	0.0178244
807.176	0.0177960
807.254	0.0178051
807.332	0.0177766
807.410	0.0177267
807.488	0.0177606
807.567	0.0177476
807.645	0.0177719
807.723	0.0178323
807.801	0.0177943
807.879	0.0177074
807.957	0.0176991
808.035	0.0177258
808.113	0.0177872
808.192	0.0177010
808.270	0.0177019
808.348	0.0176915
808.426	0.0178172
808.504	0.0175462
808.582	0.0177224
808.660	0.0177481
808.738	0.0178060
808.817	0.0177905
808.895	0.0177246
808.973	0.0178840
809.051	0.0178305
809.129	0.0178857
809.207	0.0177734
809.285	0.0178616
809.363	0.0178802
809.442	0.0177449
809.520	0.0179912
809.598	0.0180387
809.676	0.0178510
809.754	0.0178493
809.832	0.0179195
809.910	0.0178929
809.988	0.0178717
810.067	0.0178049
810.145	0.0177833
810.223	0.0177609
810.301	0.0178431
810.379	0.0178268
810.457	0.0176506
810.535	0.0176494
810.613	0.0177760
810.692	0.0177503
810.770	0.0177354
810.848	0.0177155
810.926	0.0178278
811.004	0.0178367
811.082	0.0177710
811.160	0.0176710
811.238	0.0176595
811.317	0.0178693
811.395	0.0179916
811.473	0.0178079
811.551	0.0178554
811.629	0.0179830
811.707	0.0179071
811.785	0.0179402
811.863	0.0179730
811.942	0.0179671
812.020	0.0180198
812.098	0.0180124
812.176	0.0180464
812.254	0.0179713
812.332	0.0179958
812.410	0.0180430
812.488	0.0179375
812.567	0.0179095
812.645	0.0178710
812.723	0.0180979
812.801	0.0180206
812.879	0.0179995
812.957	0.0181097
813.035	0.0181738
813.113	0.0180990
813.192	0.0180534
813.270	0.0180822
813.348	0.0181810
813.426	0.0182423
813.504	0.0183617
813.582	0.0182442
813.660	0.0182587
813.738	0.0182334
813.817	0.0184334
813.895	0.0185877
813.973	0.0182059
814.051	0.0182464
814.129	0.0185079
814.207	0.0182909
814.285	0.0183773
814.363	0.0184399
814.442	0.0184327
814.520	0.0183775
814.598	0.0183191
814.676	0.0182791
814.754	0.0184026
814.832	0.0183871
814.910	0.0184238
814.988	0.0183008
815.067	0.0182955
815.145	0.0182546
815.223	0.0182652
815.301	0.0181401
815.379	0.0183047
815.457	0.0183660
815.535	0.0183414
815.613	0.0181356
815.692	0.0181039
815.770	0.0180710
815.848	0.0181976
815.926	0.0180298
816.004	0.0181420
816.082	0.0180554
816.160	0.0179226
816.238	0.0180284
816.317	0.0179604
816.395	0.0180006
816.473	0.0180261
816.551	0.0178639
816.629	0.0179063
816.707	0.0182047
816.785	0.0179015
816.863	0.0178532
816.942	0.0180736
817.020	0.0180405
817.098	0.0180202
817.176	0.0180632
817.254	0.0179660
817.332	0.0179449
817.410	0.0179605
817.488	0.0179697
817.567	0.0180687
817.645	0.0180180
817.723	0.0178394
817.801	0.0179684
817.879	0.0178957
817.957	0.0179184
818.035	0.0180303
818.113	0.0180659
818.192	0.0179781
818.270	0.0179129
818.348	0.0181522
818.426	0.0180754
818.504	0.0178662
818.582	0.0180895
818.660	0.0180850
818.738	0.0180756
818.817	0.0179873
818.895	0.0181728
818.973	0.0180385
819.051	0.0180044
819.129	0.0179733
819.207	0.0181040
819.285	0.0180811
819.363	0.0179692
819.442	0.0179643
819.520	0.0180209
819.598	0.0180672
819.676	0.0181727
819.754	0.0179826
819.832	0.0180144
819.910	0.0179369
819.988	0.0179215
820.067	0.0179449
820.145	0.0178546
820.223	0.0180299
820.301	0.0180584
820.379	0.0179544
820.457	0.0179498
820.535	0.0179260
820.613	0.0178446
820.692	0.0178683
820.770	0.0178804
820.848	0.0178702
820.926	0.0180997
821.004	0.0178506
821.082	0.0178499
821.160	0.0178802
821.238	0.0179985
821.317	0.0178742
821.395	0.0178265
821.473	0.0177808
821.551	0.0177798
821.629	0.0179391
821.707	0.0179269
821.785	0.0178947
821.863	0.0178390
821.942	0.0178279
822.020	0.0178282
822.098	0.0178553
822.176	0.0178059
822.254	0.0178490
822.332	0.0177657
822.410	0.0179646
822.488	0.0177785
822.567	0.0177958
822.645	0.0177828
822.723	0.0178220
822.801	0.0177611
822.879	0.0178031
822.957	0.0178117
823.035	0.0177420
823.113	0.0177757
823.192	0.0177284
823.270	0.0177960
823.348	0.0178644
823.426	0.0178625
823.504	0.0177115
823.582	0.0178721
823.660	0.0178030
823.738	0.0176634
823.817	0.0177036
823.895	0.0178283
823.973	0.0176569
824.051	0.0176680
824.129	0.0177264
824.207	0.0177396
824.285	0.0176237
824.363	0.0178657
824.442	0.0178601
824.520	0.0177647
824.598	0.0177795
824.676	0.0178979
824.754	0.0179427
824.832	0.0178332
824.910	0.0180035
824.988	0.0179226
825.067	0.0177668
825.145	0.0179498
825.223	0.0180860
825.301	0.0179496
825.379	0.0180802
825.457	0.0179580
825.535	0.0180454
825.613	0.0180627
825.692	0.0182395
825.770	0.0182604
825.848	0.0181441
825.926	0.0180258
826.004	0.0183268
826.082	0.0181561
826.160	0.0182746
826.238	0.0183221
826.317	0.0183392
826.395	0.0183990
826.473	0.0184232
826.551	0.0184488
826.629	0.0185184
826.707	0.0185136
826.785	0.0184573
826.863	0.0184497
826.942	0.0184540
827.020	0.0185094
827.098	0.0184592
827.176	0.0186105
827.254	0.0184104
827.332	0.0183778
827.410	0.0185204
827.488	0.0185167
827.567	0.0184185
827.645	0.0183879
827.723	0.0184846
827.801	0.0184808
827.879	0.0183851
827.957	0.0183633
828.035	0.0183597
828.113	0.0183665
828.192	0.0182276
828.270	0.0181698
828.348	0.0181657
828.426	0.0182373
828.504	0.0182417
828.582	0.0181591
828.660	0.0179873
828.738	0.0179686
828.817	0.0180212
828.895	0.0180524
828.973	0.0178537
829.051	0.0178155
829.129	0.0178593
829.207	0.0177501
829.285	0.0178263
829.363	0.0177009
829.442	0.0178381
829.520	0.0177910
829.598	0.0175898
829.676	0.0177270
829.754	0.0178160
829.832	0.0177647
829.910	0.0176760
829.988	0.0176952
830.067	0.0175752
830.145	0.0176153
830.223	0.0175865
830.301	0.0177496
830.379	0.0175344
830.457	0.0175626
830.535	0.0176323
830.613	0.0177666
830.692	0.0177509
830.770	0.0175370
830.848	0.0175121
830.926	0.0175742
831.004	0.0176847
831.082	0.0176349
831.160	0.0176008
831.238	0.0176467
831.317	0.0176949
831.395	0.0177180
831.473	0.0176816
831.551	0.0175665
831.629	0.0177504
831.707	0.0177675
831.785	0.0177475
831.863	0.0177886
831.942	0.0176982
832.020	0.0180721
832.098	0.0178853
832.176	0.0178782
832.254	0.0179860
832.332	0.0178735
832.410	0.0178110
832.488	0.0180799
832.567	0.0182211
832.645	0.0180756
832.723	0.0181867
832.801	0.0181546
832.879	0.0181438
832.957	0.0181452
833.035	0.0180441
833.113	0.0180609
833.192	0.0180278
833.270	0.0180971
833.348	0.0180805
833.426	0.0179757
833.504	0.0180141
833.582	0.0180754
833.660	0.0179660
833.738	0.0180808
833.817	0.0180315
833.895	0.0178582
833.973	0.0179149
834.051	0.0178598
834.129	0.0177999
834.207	0.0177941
834.285	0.0178018
834.363	0.0179746
834.442	0.0179064
834.520	0.0178460
834.598	0.0178745
834.676	0.0179216
834.754	0.0178120
834.832	0.0178716
834.910	0.0178436
834.988	0.0179758
835.067	0.0178816
835.145	0.0177927
835.223	0.0180234
835.301	0.0180932
835.379	0.0179811
835.457	0.0179312
835.535	0.0179936
835.613	0.0180708
835.692	0.0180760
835.770	0.0179994
835.848	0.0181525
835.926	0.0181728
836.004	0.0183224
836.082	0.0182261
836.160	0.0181518
836.238	0.0183109
836.317	0.0183343
836.395	0.0181323
836.473	0.0181279
836.551	0.0182212
836.629	0.0181004
836.707	0.0180225
836.785	0.0180270
836.863	0.0180077
836.942	0.0179958
837.020	0.0180361
837.098	0.0179819
837.176	0.0179864
837.254	0.0180643
837.332	0.0180301
837.410	0.0177776
837.488	0.0179514
837.567	0.0180491
837.645	0.0180289
837.723	0.0180079
837.801	0.0179218
837.879	0.0180489
837.957	0.0180294
838.035	0.0179316
838.113	0.0178541
838.192	0.0178763
838.270	0.0179673
838.348	0.0181065
838.426	0.0179873
838.504	0.0178436
838.582	0.0179050
838.660	0.0179227
838.738	0.0180093
838.817	0.0179414
838.895	0.0179263
838.973	0.0180523
839.051	0.0178561
839.129	0.0180550
839.207	0.0179429
839.285	0.0179811
839.363	0.0180328
839.442	0.0180302
839.520	0.0181243
839.598	0.0180450
839.676	0.0180443
839.754	0.0180313
839.832	0.0179989
839.910	0.0178636
839.988	0.0177776
840.067	0.0179118
840.145	0.0179942
840.223	0.0179585
840.301	0.0179742
840.379	0.0180070
840.457	0.0178484
840.535	0.0179152
840.613	0.0178133
840.692	0.0179773
840.770	0.0179374
840.848	0.0178349
840.926	0.0179580
841.004	0.0180679
841.082	0.0178838
841.160	0.0179401
841.238	0.0180844
841.317	0.0180061
841.395	0.0179089
841.473	0.0178179
841.551	0.0177984
841.629	0.0178166
841.707	0.0179108
841.785	0.0177670
841.863	0.0177583
841.942	0.0178270
842.020	0.0177824
842.098	0.0177911
842.176	0.0178640
842.254	0.0177930
842.332	0.0177304
842.410	0.0177575
842.488	0.0179175
842.567	0.0178040
842.645	0.0178312
842.723	0.0179677
842.801	0.0178844
842.879	0.0178191
842.957	0.0180489
843.035	0.0179446
843.113	0.0178479
843.192	0.0180454
843.270	0.0179152
843.348	0.0180859
843.426	0.0180075
843.504	0.0178506
843.582	0.0179843
843.660	0.0181507
843.738	0.0180627
843.817	0.0181723
843.895	0.0182136
843.973	0.0181546
844.051	0.0180840
844.129	0.0180103
844.207	0.0182520
844.285	0.0182768
844.363	0.0181221
844.442	0.0181392
844.520	0.0180296
844.598	0.0181749
844.676	0.0181601
844.754	0.0180793
844.832	0.0181036
844.910	0.0180278
844.988	0.0180208
845.067	0.0179930
845.145	0.0180016
845.223	0.0180701
845.301	0.0181708
845.379	0.0180979
845.457	0.0180589
845.535	0.0180418
845.613	0.0180516
845.692	0.0181311
845.770	0.0179569
845.848	0.0180091
845.926	0.0180938
846.004	0.0181729
846.082	0.0180225
846.160	0.0181365
846.238	0.0180970
846.317	0.0181517
846.395	0.0180768
846.473	0.0181073
846.551	0.0182414
846.629	0.0180842
846.707	0.0181096
846.785	0.0182485
846.863	0.0183191
846.942	0.0181487
847.020	0.0180665
847.098	0.0181469
847.176	0.0180989
847.254	0.0180450
847.332	0.0181174
847.410	0.0182265
847.488	0.0180127
847.567	0.0182365
847.645	0.0182416
847.723	0.0181625
847.801	0.0183066
847.879	0.0183060
847.957	0.0180753
848.035	0.0182385
848.113	0.0180032
848.192	0.0181231
848.270	0.0182523
848.348	0.0182009
848.426	0.0181883
848.504	0.0182011
848.582	0.0181431
848.660	0.0181064
848.738	0.0182835
848.817	0.0183095
848.895	0.0181539
848.973	0.0181289
849.051	0.0182331
849.129	0.0181900
849.207	0.0181438
849.285	0.0181123
849.363	0.0183298
849.442	0.0181425
849.520	0.0181422
849.598	0.0182059
849.676	0.0181959
849.754	0.0181500
849.832	0.0180204
849.910	0.0180859
849.988	0.0181351
850.067	0.0180558
850.145	0.0180151
850.223	0.0180021
850.301	0.0179752
850.379	0.0180630
850.457	0.0180642
850.535	0.0179996
850.613	0.0180395
850.692	0.0179594
850.770	0.0179409
850.848	0.0180252
850.926	0.0180155
851.004	0.0179481
851.082	0.0180805
851.160	0.0180972
851.238	0.0181307
851.317	0.0179951
851.395	0.0179277
851.473	0.0180705
851.551	0.0181480
851.629	0.0181348
851.707	0.0181046
851.785	0.0180438
851.863	0.0180145
851.942	0.0181889
852.020	0.0180752
852.098	0.0180934
852.176	0.0180848
852.254	0.0180662
852.332	0.0181254
852.410	0.0180951
852.488	0.0180142
852.567	0.0180526
852.645	0.0179539
852.723	0.0179117
852.801	0.0180235
852.879	0.0178066
852.957	0.0179102
853.035	0.0179099
853.113	0.0177290
853.192	0.0178776
853.270	0.0177949
853.348	0.0177220
853.426	0.0176566
853.504	0.0177184
853.582	0.0176334
853.660	0.0176273
853.738	0.0177303
853.817	0.0176314
853.895	0.0177077
853.973	0.0176908
854.051	0.0176825
854.129	0.0177069
854.207	0.0178557
854.285	0.0177992
854.363	0.0177945
854.442	0.0179977
854.520	0.0177241
854.598	0.0178024
854.676	0.0179173
854.754	0.0179107
854.832	0.0177966
854.910	0.0179549
854.988	0.0180217
855.067	0.0178857
855.145	0.0179178
855.223	0.0180305
855.301	0.0179417
855.379	0.0179288
855.457	0.0179958
855.535	0.0180515
855.613	0.0178642
855.692	0.0178748
855.770	0.0180364
855.848	0.0179648
855.926	0.0179342
856.004	0.0179333
856.082	0.0178620
856.160	0.0178199
856.238	0.0177339
856.317	0.0178950
856.395	0.0179664
856.473	0.0177644
856.551	0.0178313
856.629	0.0179507
856.707	0.0178650
856.785	0.0178330
856.863	0.0178934
856.942	0.0177354
857.020	0.0178004
857.098	0.0177952
857.176	0.0179072
857.254	0.0177855
857.332	0.0178618
857.410	0.0178153
857.488	0.0179966
857.567	0.0178900
857.645	0.0178369
857.723	0.0178491
857.801	0.0177040
857.879	0.0176229
857.957	0.0178789
858.035	0.0178405
858.113	0.0178340
858.192	0.0179472
858.270	0.0178941
858.348	0.0176945
858.426	0.0178283
858.504	0.0177903
858.582	0.0177957
858.660	0.0178108
858.738	0.0178329
858.817	0.0178355
858.895	0.0178908
858.973	0.0179142
859.051	0.0178434
859.129	0.0178494
859.207	0.0179366
859.285	0.0179118
859.363	0.0180593
859.442	0.0179987
859.520	0.0178950
859.598	0.0179967
859.676	0.0179808
859.754	0.0178620
859.832	0.0180170
859.910	0.0179903
859.988	0.0179724
860.067	0.0179948
860.145	0.0180383
860.223	0.0179641
860.301	0.0179110
860.379	0.0179495
860.457	0.0179824
860.535	0.0179023
860.613	0.0179564
860.692	0.0180202
860.770	0.0180228
860.848	0.0179720
860.926	0.0180370
861.004	0.0179102
861.082	0.0180476
861.160	0.0179520
861.238	0.0178423
861.317	0.0180892
861.395	0.0181633
861.473	0.0181536
861.551	0.0180721
861.629	0.0181504
861.707	0.0182540
861.785	0.0182519
861.863	0.0181072
861.942	0.0179939
862.020	0.0181848
862.098	0.0180936
862.176	0.0182204
862.254	0.0181335
862.332	0.0180053
862.410	0.0181838
862.488	0.0181499
862.567	0.0180273
862.645	0.0182237
862.723	0.0179845
862.801	0.0181008
862.879	0.0180321
862.957	0.0180363
863.035	0.0180055
863.113	0.0180068
863.192	0.0180788
863.270	0.0181417
863.348	0.0182188
863.426	0.0180480
863.504	0.0179967
863.582	0.0180872
863.660	0.0179551
863.738	0.0179343
863.817	0.0180321
863.895	0.0178088
863.973	0.0177859
864.051	0.0178952
864.129	0.0179633
864.207	0.0179765
864.285	0.0179395
864.363	0.0178947
864.442	0.0179063
864.520	0.0178917
864.598	0.0178215
864.676	0.0180671
864.754	0.0177859
864.832	0.0179372
864.910	0.0178271
864.988	0.0178731
865.067	0.0179127
865.145	0.0177073
865.223	0.0178695
865.301	0.0177383
865.379	0.0177395
865.457	0.0177495
865.535	0.0178734
865.613	0.0177971
865.692	0.0177457
865.770	0.0177750
865.848	0.0178299
865.926	0.0177471
866.004	0.0176746
866.082	0.0176978
866.160	0.0177355
866.238	0.0175852
866.317	0.0175853
866.395	0.0176567
866.473	0.0176249
866.551	0.0176865
866.629	0.0177440
866.707	0.0176724
866.785	0.0176360
866.863	0.0178371
866.942	0.0177593
867.020	0.0177294
867.098	0.0177545
867.176	0.0177303
867.254	0.0178326
867.332	0.0177863
867.410	0.0179055
867.488	0.0178789
867.567	0.0177913
867.645	0.0180108
867.723	0.0180650
867.801	0.0179930
867.879	0.0180544
867.957	0.0181259
868.035	0.0181719
868.113	0.0180652
868.192	0.0181780
868.270	0.0182165
868.348	0.0182568
868.426	0.0180940
868.504	0.0181364
868.582	0.0184013
868.660	0.0183160
868.738	0.0181037
868.817	0.0181059
868.895	0.0181895
868.973	0.0182298
869.051	0.0182474
869.129	0.0181340
869.207	0.0182869
869.285	0.0182035
869.363	0.0181828
869.442	0.0181670
869.520	0.0181857
869.598	0.0182166
869.676	0.0183321
869.754	0.0181805
869.832	0.0182505
869.910	0.0182515
869.988	0.0182404
870.067	0.0181738
870.145	0.0182413
870.223	0.0181007
870.301	0.0181695
870.379	0.0181049
870.457	0.0181747
870.535	0.0181306
870.613	0.0182330
870.692	0.0181192
870.770	0.0182117
870.848	0.0181375
870.926	0.0182713
871.004	0.0181678
871.082	0.0180006
871.160	0.0182336
871.238	0.0180984
871.317	0.0179947
871.395	0.0180904
871.473	0.0182206
871.551	0.0181173
871.629	0.0181181
871.707	0.0180902
871.785	0.0180971
871.863	0.0179865
871.942	0.0179054
872.020	0.0180407
872.098	0.0179700
872.176	0.0179413
872.254	0.0180583
872.332	0.0180699
872.410	0.0179664
872.488	0.0179400
872.567	0.0179221
872.645	0.0179123
872.723	0.0178385
872.801	0.0179493
872.879	0.0178413
872.957	0.0179196
873.035	0.0179218
873.113	0.0178791
873.192	0.0179693
873.270	0.0178119
873.348	0.0179977
873.426	0.0178593
873.504	0.0178069
873.582	0.0178284
873.660	0.0178104
873.738	0.0177937
873.817	0.0177754
873.895	0.0178439
873.973	0.0178836
874.051	0.0176255
874.129	0.0177679
874.207	0.0177669
874.285	0.0178481
874.363	0.0178606
874.442	0.0175678
874.520	0.0176553
874.598	0.0176346
874.676	0.0176892
874.754	0.0176842
874.832	0.0176006
874.910	0.0177290
874.988	0.0175546
875.067	0.0176863
875.145	0.0177423
875.223	0.0176495
875.301	0.0176681
875.379	0.0175590
875.457	0.0176025
875.535	0.0176976
875.613	0.0176275
875.692	0.0175562
875.770	0.0175628
875.848	0.0175069
875.926	0.0177186
876.004	0.0175199
876.082	0.0174540
876.160	0.0174823
876.238	0.0176424
876.317	0.0176735
876.395	0.0176535
876.473	0.0177667
876.551	0.0177562
876.629	0.0177419
876.707	0.0179685
876.785	0.0178795
876.863	0.0179057
876.942	0.0178116
877.020	0.0179028
877.098	0.0179889
877.176	0.0180300
877.254	0.0181287
877.332	0.0181477
877.410	0.0180046
877.488	0.0179971
877.567	0.0180120
877.645	0.0179951
877.723	0.0180761
877.801	0.0181898
877.879	0.0182165
877.957	0.0180968
878.035	0.0180910
878.113	0.0180824
878.192	0.0180161
878.270	0.0180653
878.348	0.0182658
878.426	0.0181874
878.504	0.0182270
878.582	0.0182702
878.660	0.0181456
878.738	0.0181228
878.817	0.0180325
878.895	0.0181641
878.973	0.0181365
879.051	0.0182685
879.129	0.0182666
879.207	0.0181312
879.285	0.0181909
879.363	0.0181791
879.442	0.0182049
879.520	0.0181535
879.598	0.0182583
879.676	0.0182832
879.754	0.0182116
879.832	0.0182034
879.910	0.0182777
879.988	0.0181934
880.067	0.0182402
880.145	0.0182039
880.223	0.0180913
880.301	0.0182275
880.379	0.0182203
880.457	0.0182957
880.535	0.0183042
880.613	0.0181296
880.692	0.0180499
880.770	0.0181613
880.848	0.0181343
880.926	0.0183066
881.004	0.0182466
881.082	0.0181756
881.160	0.0181049
881.238	0.0181966
881.317	0.0183157
881.395	0.0181810
881.473	0.0181014
881.551	0.0182853
881.629	0.0181335
881.707	0.0181377
881.785	0.0180983
881.863	0.0181092
881.942	0.0181735
882.020	0.0182163
882.098	0.0181409
882.176	0.0180670
882.254	0.0180534
882.332	0.0180659
882.410	0.0180349
882.488	0.0179922
882.567	0.0179327
882.645	0.0180411
882.723	0.0180162
882.801	0.0180566
882.879	0.0179163
882.957	0.0178431
883.035	0.0180448
883.113	0.0179193
883.192	0.0177573
883.270	0.0179605
883.348	0.0179356
883.426	0.0177518
883.504	0.0179323
883.582	0.0178901
883.660	0.0178805
883.738	0.0177997
883.817	0.0177397
883.895	0.0176108
883.973	0.0179027
884.051	0.0178477
884.129	0.0177798
884.207	0.0177325
884.285	0.0177755
884.363	0.0177598
884.442	0.0177644
884.520	0.0177136
884.598	0.0178040
884.676	0.0176864
884.754	0.0177552
884.832	0.0179472
884.910	0.0178331
884.988	0.0178588
885.067	0.0178354
885.145	0.0179205
885.223	0.0178735
885.301	0.0177631
885.379	0.0178970
885.457	0.0178293
885.535	0.0178893
885.613	0.0179328
885.692	0.0178442
885.770	0.0179160
885.848	0.0180021
885.926	0.0178953
886.004	0.0179437
886.082	0.0179400
886.160	0.0179421
886.238	0.0178667
886.317	0.0180330
886.395	0.0179864
886.473	0.0180115
886.551	0.0180068
886.629	0.0179302
886.707	0.0179125
886.785	0.0180535
886.863	0.0179017
886.942	0.0178995
887.020	0.0180289
887.098	0.0179682
887.176	0.0180101
887.254	0.0180093
887.332	0.0180620
887.410	0.0179047
887.488	0.0179153
887.567	0.0180923
887.645	0.0179632
887.723	0.0178841
887.801	0.0181177
887.879	0.0182339
887.957	0.0180078
888.035	0.0180898
888.113	0.0181805
888.192	0.0182276
888.270	0.0181094
888.348	0.0181592
888.426	0.0181348
888.504	0.0180936
888.582	0.0180704
888.660	0.0181840
888.738	0.0182287
888.817	0.0182162
888.895	0.0181890
888.973	0.0180698
889.051	0.0181969
889.129	0.0181862
889.207	0.0182890
889.285	0.0181992
889.363	0.0182612
889.442	0.0181046
889.520	0.0183827
889.598	0.0183805
889.676	0.0183557
889.754	0.0183337
889.832	0.0183755
889.910	0.0184212
889.988	0.0183549
890.067	0.0183965
890.145	0.0184413
890.223	0.0181914
890.301	0.0182758
890.379	0.0182232
890.457	0.0181885
890.535	0.0181977
890.613	0.0182906
890.692	0.0182115
890.770	0.0182266
890.848	0.0181809
890.926	0.0180894
891.004	0.0182120
891.082	0.0181363
891.160	0.0182549
891.238	0.0180794
891.317	0.0179486
891.395	0.0179821
891.473	0.0178937
891.551	0.0178886
891.629	0.0180083
891.707	0.0180392
891.785	0.0178971
891.863	0.0179661
891.942	0.0177291
892.020	0.0176477
892.098	0.0178497
892.176	0.0178471
892.254	0.0178969
892.332	0.0177015
892.410	0.0178107
892.488	0.0176977
892.567	0.0177110
892.645	0.0177735
892.723	0.0177345
892.801	0.0178240
892.879	0.0179353
892.957	0.0176707
893.035	0.0178091
893.113	0.0176990
893.192	0.0176536
893.270	0.0176750
893.348	0.0177201
893.426	0.0178042
893.504	0.0176967
893.582	0.0177532
893.660	0.0176496
893.738	0.0177375
893.817	0.0176823
893.895	0.0176587
893.973	0.0176646
894.051	0.0176408
894.129	0.0176107
894.207	0.0175596
894.285	0.0175764
894.363	0.0176201
894.442	0.0176546
894.520	0.0176083
894.598	0.0176273
894.676	0.0176571
894.754	0.0176600
894.832	0.0174959
894.910	0.0176952
894.988	0.0177284
895.067	0.0176451
895.145	0.0175462
895.223	0.0175935
895.301	0.0176683
895.379	0.0175469
895.457	0.0176099
895.535	0.0175392
895.613	0.0176433
895.692	0.0174930
895.770	0.0177115
895.848	0.0176642
895.926	0.0176687
896.004	0.0176907
896.082	0.0177322
896.160	0.0176786
896.238	0.0176540
896.317	0.0176958
896.395	0.0177911
896.473	0.0177322
896.551	0.0176608
896.629	0.0176310
896.707	0.0177314
896.785	0.0178301
896.863	0.0178199
896.942	0.0177733
897.020	0.0177090
897.098	0.0176508
897.176	0.0178659
897.254	0.0179513
897.332	0.0178707
897.410	0.0178185
897.488	0.0179472
897.567	0.0180046
897.645	0.0180035
897.723	0.0181332
897.801	0.0180150
897.879	0.0181171
897.957	0.0181583
898.035	0.0182150
898.113	0.0181432
898.192	0.0183041
898.270	0.0182874
898.348	0.0182339
898.426	0.0183179
898.504	0.0182970
898.582	0.0182220
898.660	0.0182395
898.738	0.0183557
898.817	0.0183023
898.895	0.0181747
898.973	0.0182024
899.051	0.0183218
899.129	0.0182574
899.207	0.0182522
899.285	0.0183140
899.363	0.0182431
899.442	0.0182730
899.520	0.0182696
899.598	0.0181994
899.676	0.0181881
899.754	0.0182671
899.832	0.0183139
899.910	0.0182034
899.988	0.0181500
900.067	0.0180773
900.145	0.0182474
900.223	0.0179775
900.301	0.0180988
900.379	0.0180505
900.457	0.0180110
900.535	0.0180749
900.613	0.0180986
900.692	0.0180752
900.770	0.0180506
900.848	0.0178895
900.926	0.0178091
901.004	0.0180260
901.082	0.0179810
901.160	0.0179650
901.238	0.0177967
901.317	0.0179296
901.395	0.0177863
901.473	0.0177772
901.551	0.0177866
901.629	0.0179163
901.707	0.0177893
901.785	0.0178039
901.863	0.0178771
901.942	0.0179362
902.020	0.0178363
902.098	0.0178493
902.176	0.0179425
902.254	0.0178919
902.332	0.0179041
902.410	0.0180103
902.488	0.0180494
902.567	0.0177492
902.645	0.0177638
902.723	0.0179288
902.801	0.0179431
902.879	0.0179861
902.957	0.0179567
903.035	0.0178522
903.113	0.0179607
903.192	0.0178078
903.270	0.0178491
903.348	0.0180062
903.426	0.0178907
903.504	0.0179086
903.582	0.0178928
903.660	0.0177487
903.738	0.0178030
903.817	0.0177698
903.895	0.0179794
903.973	0.0177327
904.051	0.0178462
904.129	0.0179247
904.207	0.0178716
904.285	0.0178481
904.363	0.0178461
904.442	0.0179278
904.520	0.0178300
904.598	0.0178629
904.676	0.0178519
904.754	0.0179321
904.832	0.0180285
904.910	0.0178518
904.988	0.0180122
905.067	0.0179530
905.145	0.0181764
905.223	0.0181631
905.301	0.0179819
905.379	0.0180640
905.457	0.0181561
905.535	0.0183083
905.613	0.0181819
905.692	0.0180478
905.770	0.0181815
905.848	0.0182457
905.926	0.0181630
906.004	0.0181360
906.082	0.0181893
906.160	0.0183192
906.238	0.0181931
906.317	0.0180985
906.395	0.0181105
906.473	0.0181892
906.551	0.0181228
906.629	0.0181737
906.707	0.0181540
906.785	0.0180244
906.863	0.0181387
906.942	0.0181443
907.020	0.0181138
907.098	0.0180970
907.176	0.0182137
907.254	0.0180885
907.332	0.0179273
907.410	0.0180209
907.488	0.0180712
907.567	0.0180174
907.645	0.0180655
907.723	0.0180538
907.801	0.0179170
907.879	0.0180217
907.957	0.0178957
908.035	0.0179205
908.113	0.0178001
908.192	0.0177921
908.270	0.0180955
908.348	0.0178624
908.426	0.0178392
908.504	0.0177984
908.582	0.0178449
908.660	0.0178837
908.738	0.0176960
908.817	0.0177554
908.895	0.0179190
908.973	0.0178529
909.051	0.0179095
909.129	0.0177712
909.207	0.0178069
909.285	0.0178149
909.363	0.0178510
909.442	0.0179269
909.520	0.0178654
909.598	0.0178162
909.676	0.0178314
909.754	0.0178484
909.832	0.0179457
909.910	0.0178701
909.988	0.0178522
910.067	0.0178973
910.145	0.0178905
910.223	0.0177659
910.301	0.0178095
910.379	0.0178770
910.457	0.0178811
910.535	0.0178253
910.613	0.0178773
910.692	0.0179221
910.770	0.0178987
910.848	0.0179103
910.926	0.0180128
911.004	0.0178661
911.082	0.0179051
911.160	0.0180594
911.238	0.0180534
911.317	0.0179021
911.395	0.0180752
911.473	0.0180376
911.551	0.0180676
911.629	0.0180054
911.707	0.0181200
911.785	0.0180062
911.863	0.0179795
911.942	0.0180786
912.020	0.0179131
912.098	0.0178282
912.176	0.0179564
912.254	0.0181210
912.332	0.0181088
912.410	0.0180068
912.488	0.0182001
912.567	0.0179073
912.645	0.0179675
912.723	0.0179220
912.801	0.0179984
912.879	0.0180133
912.957	0.0179760
913.035	0.0181153
913.113	0.0180779
913.192	0.0180827
913.270	0.0179079
913.348	0.0180377
913.426	0.0179954
913.504	0.0179605
913.582	0.0180672
913.660	0.0180410
913.738	0.0180138
913.817	0.0180055
913.895	0.0181118
913.973	0.0180791
914.051	0.0181307
914.129	0.0180155
914.207	0.0179259
914.285	0.0179575
914.363	0.0180600
914.442	0.0180984
914.520	0.0179435
914.598	0.0179062
914.676	0.0179727
914.754	0.0178992
914.832	0.0180040
914.910	0.0179300
914.988	0.0178312
915.067	0.0178463
915.145	0.0179655
915.223	0.0179642
915.301	0.0179611
915.379	0.0179022
915.457	0.0179016
915.535	0.0178861
915.613	0.0178876
915.692	0.0179376
915.770	0.0179689
915.848	0.0180234
915.926	0.0179474
916.004	0.0179731
916.082	0.0180171
916.160	0.0178417
916.238	0.0179334
916.317	0.0179396
916.395	0.0180163
916.473	0.0179624
916.551	0.0179653
916.629	0.0179497
916.707	0.0180199
916.785	0.0179353
916.863	0.0180151
916.942	0.0180499
917.020	0.0180651
917.098	0.0180983
917.176	0.0181499
917.254	0.0180693
917.332	0.0181589
917.410	0.0181263
917.488	0.0181285
917.567	0.0181020
917.645	0.0180993
917.723	0.0181184
917.801	0.0181248
917.879	0.0181090
917.957	0.0181541
918.035	0.0181295
918.113	0.0180263
918.192	0.0181033
918.270	0.0180882
918.348	0.0180784
918.426	0.0182588
918.504	0.0181342
918.582	0.0181464
918.660	0.0181992
918.738	0.0182265
918.817	0.0182444
918.895	0.0180739
918.973	0.0179807
919.051	0.0182110
919.129	0.0181907
919.207	0.0181714
919.285	0.0181530
919.363	0.0181633
919.442	0.0181052
919.520	0.0181544
919.598	0.0179979
919.676	0.0180804
919.754	0.0181969
919.832	0.0182745
919.910	0.0181764
