06/01/2022	22:16:19	Ver.	4.1	UNKNOWN
Optical Delay	599.988409	Delta X		0.078125	Sweeps	1	Scan Rate	0/0
Coordinates	Axis 1	NaN	Axis 2	NaN	Axis 3	NaN	Axis 4	NaN	Axis 5	NaN	Axis 6	0.000000
TX Power	0.000000	RX Power	0.000000

599.988	0.0182470
600.067	0.0183334
600.145	0.0182175
600.223	0.0182209
600.301	0.0183690
600.379	0.0182085
600.457	0.0181079
600.535	0.0182821
600.613	0.0183073
600.692	0.0182257
600.770	0.0183446
600.848	0.0182996
600.926	0.0183701
601.004	0.0183511
601.082	0.0183566
601.160	0.0183725
601.238	0.0182671
601.317	0.0182367
601.395	0.0182270
601.473	0.0184740
601.551	0.0181430
601.629	0.0181751
601.707	0.0182053
601.785	0.0181863
601.863	0.0182084
601.942	0.0182371
602.020	0.0181858
602.098	0.0181468
602.176	0.0182292
602.254	0.0182587
602.332	0.0181590
602.410	0.0180581
602.488	0.0179698
602.567	0.0180724
602.645	0.0180686
602.723	0.0181166
602.801	0.0180546
602.879	0.0180238
602.957	0.0180560
603.035	0.0179379
603.113	0.0179385
603.192	0.0180049
603.270	0.0180518
603.348	0.0178376
603.426	0.0178072
603.504	0.0179647
603.582	0.0177272
603.660	0.0178387
603.738	0.0179388
603.817	0.0177214
603.895	0.0177319
603.973	0.0179608
604.051	0.0178027
604.129	0.0177686
604.207	0.0177664
604.285	0.0177621
604.363	0.0176135
604.442	0.0177299
604.520	0.0177732
604.598	0.0175272
604.676	0.0174887
604.754	0.0176146
604.832	0.0175205
604.910	0.0174363
604.988	0.0175687
605.067	0.0175284
605.145	0.0174149
605.223	0.0174113
605.301	0.0176437
605.379	0.0175388
605.457	0.0174670
605.535	0.0173902
605.613	0.0175342
605.692	0.0176639
605.770	0.0175603
605.848	0.0173489
605.926	0.0177065
606.004	0.0176457
606.082	0.0175045
606.160	0.0174878
606.238	0.0176443
606.317	0.0177117
606.395	0.0176720
606.473	0.0175840
606.551	0.0175748
606.629	0.0178173
606.707	0.0178298
606.785	0.0177131
606.863	0.0178226
606.942	0.0177780
607.020	0.0176098
607.098	0.0176842
607.176	0.0177598
607.254	0.0176977
607.332	0.0175781
607.410	0.0176836
607.488	0.0177660
607.567	0.0176215
607.645	0.0176691
607.723	0.0176345
607.801	0.0177614
607.879	0.0175813
607.957	0.0176995
608.035	0.0177703
608.113	0.0177327
608.192	0.0177193
608.270	0.0177219
608.348	0.0176735
608.426	0.0176602
608.504	0.0176074
608.582	0.0175876
608.660	0.0174537
608.738	0.0176258
608.817	0.0176460
608.895	0.0178249
608.973	0.0175611
609.051	0.0176536
609.129	0.0176463
609.207	0.0177301
609.285	0.0179195
609.363	0.0175512
609.442	0.0175499
609.520	0.0176578
609.598	0.0176936
609.676	0.0176374
609.754	0.0176859
609.832	0.0175896
609.910	0.0176272
609.988	0.0176028
610.067	0.0174828
610.145	0.0175368
610.223	0.0175789
610.301	0.0176720
610.379	0.0176300
610.457	0.0175832
610.535	0.0175526
610.613	0.0174511
610.692	0.0176134
610.770	0.0177692
610.848	0.0174756
610.926	0.0176658
611.004	0.0177048
611.082	0.0176820
611.160	0.0176921
611.238	0.0177404
611.317	0.0176818
611.395	0.0177464
611.473	0.0177007
611.551	0.0175906
611.629	0.0177005
611.707	0.0178500
611.785	0.0178440
611.863	0.0177265
611.942	0.0177524
612.020	0.0177889
612.098	0.0177854
612.176	0.0176730
612.254	0.0177898
612.332	0.0177834
612.410	0.0179380
612.488	0.0178692
612.567	0.0178894
612.645	0.0178941
612.723	0.0178854
612.801	0.0179474
612.879	0.0178510
612.957	0.0178309
613.035	0.0178314
613.113	0.0177680
613.192	0.0178943
613.270	0.0177480
613.348	0.0178737
613.426	0.0179259
613.504	0.0178571
613.582	0.0177893
613.660	0.0177565
613.738	0.0179376
613.817	0.0179184
613.895	0.0176748
613.973	0.0177682
614.051	0.0177697
614.129	0.0176060
614.207	0.0178735
614.285	0.0177758
614.363	0.0176986
614.442	0.0177869
614.520	0.0177590
614.598	0.0177701
614.676	0.0176367
614.754	0.0176884
614.832	0.0177936
614.910	0.0176398
614.988	0.0175321
615.067	0.0175546
615.145	0.0175722
615.223	0.0176796
615.301	0.0176610
615.379	0.0175729
615.457	0.0175323
615.535	0.0176094
615.613	0.0177134
615.692	0.0176606
615.770	0.0175422
615.848	0.0178244
615.926	0.0178041
616.004	0.0176639
616.082	0.0175671
616.160	0.0176600
616.238	0.0178051
616.317	0.0176096
616.395	0.0177392
616.473	0.0176347
616.551	0.0176954
616.629	0.0178531
616.707	0.0176424
616.785	0.0176679
616.863	0.0178093
616.942	0.0177374
617.020	0.0177992
617.098	0.0177895
617.176	0.0178173
617.254	0.0177601
617.332	0.0177098
617.410	0.0177167
617.488	0.0178891
617.567	0.0178121
617.645	0.0178450
617.723	0.0177260
617.801	0.0176959
617.879	0.0178828
617.957	0.0180271
618.035	0.0178725
618.113	0.0178817
618.192	0.0178934
618.270	0.0177809
618.348	0.0179176
618.426	0.0178235
618.504	0.0178276
618.582	0.0178809
618.660	0.0179090
618.738	0.0178915
618.817	0.0179658
618.895	0.0177905
618.973	0.0179461
619.051	0.0179417
619.129	0.0179755
619.207	0.0180535
619.285	0.0179243
619.363	0.0180016
619.442	0.0178646
619.520	0.0179416
619.598	0.0180252
619.676	0.0179329
619.754	0.0179433
619.832	0.0181010
619.910	0.0180782
619.988	0.0179794
620.067	0.0179308
620.145	0.0180275
620.223	0.0181144
620.301	0.0179449
620.379	0.0179578
620.457	0.0179842
620.535	0.0180763
620.613	0.0180319
620.692	0.0180255
620.770	0.0180198
620.848	0.0179985
620.926	0.0180881
621.004	0.0180580
621.082	0.0181412
621.160	0.0180675
621.238	0.0180708
621.317	0.0182210
621.395	0.0181898
621.473	0.0181284
621.551	0.0180274
621.629	0.0181232
621.707	0.0182072
621.785	0.0181890
621.863	0.0179959
621.942	0.0180070
622.020	0.0180453
622.098	0.0179910
622.176	0.0179655
622.254	0.0180443
622.332	0.0180302
622.410	0.0179565
622.488	0.0179729
622.567	0.0180172
622.645	0.0179647
622.723	0.0178291
622.801	0.0180383
622.879	0.0182084
622.957	0.0180019
623.035	0.0181683
623.113	0.0181527
623.192	0.0179972
623.270	0.0182222
623.348	0.0182764
623.426	0.0182574
623.504	0.0182306
623.582	0.0183686
623.660	0.0183656
623.738	0.0183022
623.817	0.0183031
623.895	0.0182952
623.973	0.0182562
624.051	0.0180873
624.129	0.0183022
624.207	0.0182154
624.285	0.0182101
624.363	0.0183412
624.442	0.0180914
624.520	0.0181146
624.598	0.0181291
624.676	0.0180541
624.754	0.0182174
624.832	0.0181915
624.910	0.0179921
624.988	0.0180733
625.067	0.0181068
625.145	0.0182130
625.223	0.0180802
625.301	0.0180354
625.379	0.0181695
625.457	0.0180844
625.535	0.0181445
625.613	0.0180201
625.692	0.0181325
625.770	0.0181345
625.848	0.0180004
625.926	0.0180243
626.004	0.0181406
626.082	0.0180567
626.160	0.0179984
626.238	0.0180530
626.317	0.0180746
626.395	0.0179568
626.473	0.0178099
626.551	0.0178643
626.629	0.0177419
626.707	0.0176897
626.785	0.0177802
626.863	0.0176748
626.942	0.0177338
627.020	0.0174891
627.098	0.0175073
627.176	0.0175348
627.254	0.0174981
627.332	0.0175234
627.410	0.0175447
627.488	0.0173380
627.567	0.0173312
627.645	0.0174033
627.723	0.0173598
627.801	0.0174368
627.879	0.0173662
627.957	0.0173344
628.035	0.0174648
628.113	0.0173578
628.192	0.0173654
628.270	0.0173054
628.348	0.0173534
628.426	0.0173118
628.504	0.0173466
628.582	0.0173904
628.660	0.0174905
628.738	0.0173344
628.817	0.0173943
628.895	0.0176285
628.973	0.0175106
629.051	0.0174509
629.129	0.0174300
629.207	0.0174767
629.285	0.0175311
629.363	0.0177962
629.442	0.0176292
629.520	0.0176553
629.598	0.0176373
629.676	0.0177979
629.754	0.0178819
629.832	0.0176904
629.910	0.0177374
629.988	0.0178201
630.067	0.0179122
630.145	0.0179253
630.223	0.0180388
630.301	0.0179720
630.379	0.0181030
630.457	0.0181620
630.535	0.0180050
630.613	0.0181032
630.692	0.0181440
630.770	0.0183183
630.848	0.0181605
630.926	0.0182102
631.004	0.0180721
631.082	0.0181277
631.160	0.0182246
631.238	0.0183575
631.317	0.0180470
631.395	0.0180624
631.473	0.0179675
631.551	0.0180331
631.629	0.0178707
631.707	0.0180350
631.785	0.0179740
631.863	0.0179074
631.942	0.0179442
632.020	0.0178702
632.098	0.0177524
632.176	0.0179942
632.254	0.0179519
632.332	0.0177146
632.410	0.0177556
632.488	0.0179042
632.567	0.0178535
632.645	0.0178374
632.723	0.0178825
632.801	0.0179334
632.879	0.0180569
632.957	0.0179533
633.035	0.0178729
633.113	0.0180698
633.192	0.0178629
633.270	0.0178150
633.348	0.0179340
633.426	0.0179450
633.504	0.0179421
633.582	0.0180086
633.660	0.0179055
633.738	0.0178944
633.817	0.0179523
633.895	0.0179532
633.973	0.0180155
634.051	0.0179440
634.129	0.0180295
634.207	0.0178368
634.285	0.0181418
634.363	0.0180504
634.442	0.0181007
634.520	0.0179482
634.598	0.0180145
634.676	0.0180035
634.754	0.0180152
634.832	0.0179317
634.910	0.0178774
634.988	0.0178877
635.067	0.0178925
635.145	0.0178526
635.223	0.0179478
635.301	0.0179865
635.379	0.0179518
635.457	0.0177740
635.535	0.0178893
635.613	0.0178178
635.692	0.0178333
635.770	0.0179704
635.848	0.0178277
635.926	0.0178471
636.004	0.0177651
636.082	0.0177460
636.160	0.0176783
636.238	0.0176611
636.317	0.0176987
636.395	0.0176793
636.473	0.0176921
636.551	0.0175301
636.629	0.0176850
636.707	0.0177769
636.785	0.0174911
636.863	0.0174261
636.942	0.0176180
637.020	0.0175842
637.098	0.0176485
637.176	0.0175114
637.254	0.0175006
637.332	0.0176738
637.410	0.0175491
637.488	0.0175062
637.567	0.0177847
637.645	0.0176347
637.723	0.0177226
637.801	0.0177164
637.879	0.0176939
637.957	0.0176511
638.035	0.0177374
638.113	0.0177322
638.192	0.0177610
638.270	0.0177624
638.348	0.0178857
638.426	0.0178234
638.504	0.0176868
638.582	0.0178291
638.660	0.0178587
638.738	0.0177397
638.817	0.0176950
638.895	0.0176510
638.973	0.0177734
639.051	0.0176812
639.129	0.0177406
639.207	0.0176737
639.285	0.0177587
639.363	0.0176694
639.442	0.0177186
639.520	0.0177978
639.598	0.0175951
639.676	0.0176862
639.754	0.0176371
639.832	0.0176653
639.910	0.0176723
639.988	0.0177264
640.067	0.0176532
640.145	0.0176289
640.223	0.0177676
640.301	0.0176279
640.379	0.0177059
640.457	0.0177309
640.535	0.0177454
640.613	0.0176712
640.692	0.0176398
640.770	0.0177143
640.848	0.0178027
640.926	0.0177163
641.004	0.0176408
641.082	0.0177200
641.160	0.0178119
641.238	0.0178039
641.317	0.0178751
641.395	0.0178872
641.473	0.0176946
641.551	0.0176855
641.629	0.0178535
641.707	0.0178529
641.785	0.0178391
641.863	0.0177824
641.942	0.0178770
642.020	0.0178546
642.098	0.0179648
642.176	0.0178752
642.254	0.0179044
642.332	0.0178794
642.410	0.0179652
642.488	0.0179907
642.567	0.0178746
642.645	0.0179293
642.723	0.0179855
642.801	0.0180014
642.879	0.0180334
642.957	0.0178976
643.035	0.0179063
643.113	0.0181145
643.192	0.0178448
643.270	0.0180116
643.348	0.0180297
643.426	0.0178912
643.504	0.0179060
643.582	0.0179929
643.660	0.0178582
643.738	0.0179150
643.817	0.0179919
643.895	0.0178058
643.973	0.0177885
644.051	0.0177174
644.129	0.0176757
644.207	0.0178314
644.285	0.0177815
644.363	0.0177278
644.442	0.0178843
644.520	0.0177790
644.598	0.0177958
644.676	0.0178426
644.754	0.0178175
644.832	0.0177900
644.910	0.0177934
644.988	0.0178138
645.067	0.0178040
645.145	0.0177849
645.223	0.0179280
645.301	0.0179160
645.379	0.0178887
645.457	0.0178152
645.535	0.0178885
645.613	0.0177477
645.692	0.0179552
645.770	0.0179720
645.848	0.0178513
645.926	0.0178993
646.004	0.0178745
646.082	0.0179673
646.160	0.0178345
646.238	0.0179417
646.317	0.0179852
646.395	0.0178120
646.473	0.0179397
646.551	0.0180124
646.629	0.0178555
646.707	0.0178779
646.785	0.0178899
646.863	0.0179912
646.942	0.0180195
647.020	0.0181404
647.098	0.0180887
647.176	0.0181470
647.254	0.0181529
647.332	0.0181858
647.410	0.0181163
647.488	0.0181837
647.567	0.0180121
647.645	0.0179455
647.723	0.0179089
647.801	0.0179878
647.879	0.0179610
647.957	0.0177625
648.035	0.0176974
648.113	0.0176762
648.192	0.0175990
648.270	0.0177151
648.348	0.0176927
648.426	0.0175440
648.504	0.0176502
648.582	0.0177033
648.660	0.0175928
648.738	0.0176911
648.817	0.0176661
648.895	0.0176528
648.973	0.0176915
649.051	0.0177953
649.129	0.0177423
649.207	0.0176752
649.285	0.0176083
649.363	0.0177919
649.442	0.0177041
649.520	0.0176499
649.598	0.0175507
649.676	0.0175854
649.754	0.0176739
649.832	0.0176359
649.910	0.0174964
649.988	0.0175033
650.067	0.0175828
650.145	0.0174953
650.223	0.0174323
650.301	0.0174780
650.379	0.0174583
650.457	0.0173908
650.535	0.0175105
650.613	0.0174721
650.692	0.0174358
650.770	0.0174832
650.848	0.0174702
650.926	0.0175295
651.004	0.0175869
651.082	0.0174983
651.160	0.0175426
651.238	0.0176479
651.317	0.0176032
651.395	0.0176374
651.473	0.0176476
651.551	0.0176373
651.629	0.0175912
651.707	0.0176926
651.785	0.0178506
651.863	0.0177152
651.942	0.0178007
652.020	0.0176930
652.098	0.0176945
652.176	0.0177979
652.254	0.0179669
652.332	0.0177754
652.410	0.0178635
652.488	0.0179625
652.567	0.0178910
652.645	0.0178756
652.723	0.0179366
652.801	0.0179403
652.879	0.0178357
652.957	0.0178726
653.035	0.0179774
653.113	0.0178154
653.192	0.0178211
653.270	0.0178542
653.348	0.0178896
653.426	0.0178552
653.504	0.0180514
653.582	0.0179317
653.660	0.0180536
653.738	0.0180108
653.817	0.0180877
653.895	0.0179638
653.973	0.0180379
654.051	0.0181256
654.129	0.0179741
654.207	0.0179840
654.285	0.0179981
654.363	0.0180886
654.442	0.0179161
654.520	0.0179389
654.598	0.0179455
654.676	0.0178359
654.754	0.0178679
654.832	0.0179814
654.910	0.0178240
654.988	0.0178527
655.067	0.0179751
655.145	0.0177614
655.223	0.0178404
655.301	0.0178595
655.379	0.0179607
655.457	0.0179568
655.535	0.0179302
655.613	0.0176822
655.692	0.0179121
655.770	0.0179161
655.848	0.0179245
655.926	0.0177856
656.004	0.0178590
656.082	0.0179285
656.160	0.0177550
656.238	0.0178809
656.317	0.0178459
656.395	0.0177516
656.473	0.0178603
656.551	0.0176933
656.629	0.0177520
656.707	0.0178034
656.785	0.0179279
656.863	0.0177426
656.942	0.0177389
657.020	0.0176778
657.098	0.0177065
657.176	0.0176666
657.254	0.0178340
657.332	0.0177591
657.410	0.0176411
657.488	0.0177129
657.567	0.0176969
657.645	0.0177536
657.723	0.0177125
657.801	0.0177436
657.879	0.0177428
657.957	0.0176926
658.035	0.0177458
658.113	0.0177140
658.192	0.0178398
658.270	0.0176918
658.348	0.0178674
658.426	0.0176976
658.504	0.0178826
658.582	0.0177926
658.660	0.0177274
658.738	0.0178026
658.817	0.0179914
658.895	0.0177853
658.973	0.0178658
659.051	0.0179283
659.129	0.0178629
659.207	0.0178986
659.285	0.0180064
659.363	0.0179959
659.442	0.0178659
659.520	0.0178984
659.598	0.0178271
659.676	0.0177461
659.754	0.0178519
659.832	0.0178100
659.910	0.0177076
659.988	0.0176736
660.067	0.0177230
660.145	0.0177222
660.223	0.0175729
660.301	0.0175668
660.379	0.0175669
660.457	0.0175204
660.535	0.0176202
660.613	0.0174991
660.692	0.0175210
660.770	0.0175552
660.848	0.0175086
660.926	0.0176398
661.004	0.0175286
661.082	0.0174242
661.160	0.0174245
661.238	0.0174606
661.317	0.0174393
661.395	0.0174908
661.473	0.0175002
661.551	0.0173725
661.629	0.0175371
661.707	0.0174876
661.785	0.0174783
661.863	0.0174712
661.942	0.0174967
662.020	0.0175542
662.098	0.0173895
662.176	0.0175186
662.254	0.0177240
662.332	0.0177473
662.410	0.0175880
662.488	0.0176381
662.567	0.0176380
662.645	0.0176032
662.723	0.0177514
662.801	0.0176810
662.879	0.0178275
662.957	0.0177420
663.035	0.0177090
663.113	0.0177756
663.192	0.0178758
663.270	0.0176785
663.348	0.0176752
663.426	0.0176720
663.504	0.0177260
663.582	0.0178254
663.660	0.0176472
663.738	0.0177345
663.817	0.0178725
663.895	0.0177279
663.973	0.0176820
664.051	0.0177071
664.129	0.0176767
664.207	0.0178590
664.285	0.0178901
664.363	0.0177916
664.442	0.0177853
664.520	0.0178323
664.598	0.0177768
664.676	0.0177301
664.754	0.0178652
664.832	0.0179584
664.910	0.0179303
664.988	0.0179158
665.067	0.0178237
665.145	0.0179115
665.223	0.0178864
665.301	0.0176685
665.379	0.0178317
665.457	0.0178919
665.535	0.0178039
665.613	0.0178835
665.692	0.0178477
665.770	0.0177760
665.848	0.0177445
665.926	0.0178342
666.004	0.0178104
666.082	0.0178080
666.160	0.0177581
666.238	0.0177660
666.317	0.0178598
666.395	0.0179254
666.473	0.0176417
666.551	0.0175648
666.629	0.0176405
666.707	0.0178998
666.785	0.0176151
666.863	0.0177451
666.942	0.0176341
667.020	0.0176436
667.098	0.0176771
667.176	0.0176653
667.254	0.0175177
667.332	0.0176611
667.410	0.0175706
667.488	0.0175866
667.567	0.0175835
667.645	0.0176499
667.723	0.0175681
667.801	0.0175671
667.879	0.0175424
667.957	0.0174952
668.035	0.0176644
668.113	0.0175723
668.192	0.0174825
668.270	0.0174721
668.348	0.0176049
668.426	0.0175497
668.504	0.0175043
668.582	0.0174953
668.660	0.0175280
668.738	0.0176164
668.817	0.0176642
668.895	0.0175847
668.973	0.0174614
669.051	0.0175710
669.129	0.0176183
669.207	0.0175970
669.285	0.0175230
669.363	0.0175034
669.442	0.0176949
669.520	0.0175503
669.598	0.0174805
669.676	0.0176880
669.754	0.0175148
669.832	0.0176254
669.910	0.0176389
669.988	0.0176242
670.067	0.0174857
670.145	0.0175304
670.223	0.0174964
670.301	0.0176418
670.379	0.0176976
670.457	0.0176691
670.535	0.0177447
670.613	0.0175845
670.692	0.0176139
670.770	0.0175589
670.848	0.0177571
670.926	0.0176411
671.004	0.0176270
671.082	0.0178340
671.160	0.0176765
671.238	0.0177406
671.317	0.0176545
671.395	0.0178668
671.473	0.0177851
671.551	0.0178156
671.629	0.0177360
671.707	0.0178017
671.785	0.0178282
671.863	0.0177189
671.942	0.0177000
672.020	0.0176771
672.098	0.0177646
672.176	0.0176908
672.254	0.0177016
672.332	0.0177462
672.410	0.0177512
672.488	0.0177748
672.567	0.0177306
672.645	0.0177341
672.723	0.0178324
672.801	0.0178234
672.879	0.0178551
672.957	0.0178597
673.035	0.0178625
673.113	0.0178778
673.192	0.0179539
673.270	0.0179667
673.348	0.0179668
673.426	0.0179335
673.504	0.0180269
673.582	0.0179665
673.660	0.0179402
673.738	0.0180705
673.817	0.0179230
673.895	0.0179087
673.973	0.0180064
674.051	0.0178464
674.129	0.0180035
674.207	0.0178831
674.285	0.0178925
674.363	0.0180192
674.442	0.0179297
674.520	0.0179226
674.598	0.0179103
674.676	0.0179679
674.754	0.0178393
674.832	0.0179128
674.910	0.0178641
674.988	0.0179586
675.067	0.0179675
675.145	0.0178399
675.223	0.0181323
675.301	0.0180112
675.379	0.0179871
675.457	0.0180373
675.535	0.0181577
675.613	0.0180854
675.692	0.0181808
675.770	0.0181601
675.848	0.0181477
675.926	0.0180974
676.004	0.0180387
676.082	0.0181925
676.160	0.0181435
676.238	0.0181808
676.317	0.0180005
676.395	0.0179259
676.473	0.0179366
676.551	0.0178706
676.629	0.0179478
676.707	0.0177306
676.785	0.0178747
676.863	0.0180185
676.942	0.0179376
677.020	0.0178394
677.098	0.0177496
677.176	0.0177084
677.254	0.0178551
677.332	0.0178701
677.410	0.0178159
677.488	0.0177376
677.567	0.0178084
677.645	0.0179199
677.723	0.0177916
677.801	0.0176879
677.879	0.0176736
677.957	0.0176028
678.035	0.0177510
678.113	0.0177217
678.192	0.0177128
678.270	0.0178191
678.348	0.0175117
678.426	0.0176934
678.504	0.0177348
678.582	0.0178119
678.660	0.0177660
678.738	0.0176580
678.817	0.0177094
678.895	0.0177679
678.973	0.0176894
679.051	0.0176099
679.129	0.0176084
679.207	0.0177230
679.285	0.0177624
679.363	0.0176564
679.442	0.0176085
679.520	0.0176017
679.598	0.0176244
679.676	0.0176692
679.754	0.0176446
679.832	0.0175643
679.910	0.0176749
679.988	0.0175636
680.067	0.0176704
680.145	0.0177129
680.223	0.0177097
680.301	0.0175281
680.379	0.0174741
680.457	0.0175409
680.535	0.0174223
680.613	0.0175989
680.692	0.0177042
680.770	0.0174888
680.848	0.0173906
680.926	0.0175535
681.004	0.0174784
681.082	0.0175345
681.160	0.0176618
681.238	0.0175188
681.317	0.0174394
681.395	0.0175221
681.473	0.0176797
681.551	0.0175689
681.629	0.0174914
681.707	0.0176133
681.785	0.0176730
681.863	0.0176547
681.942	0.0176976
682.020	0.0177528
682.098	0.0176694
682.176	0.0176826
682.254	0.0176913
682.332	0.0177033
682.410	0.0175839
682.488	0.0176555
682.567	0.0177020
682.645	0.0178309
682.723	0.0176394
682.801	0.0175588
682.879	0.0176386
682.957	0.0177303
683.035	0.0176819
683.113	0.0177719
683.192	0.0176229
683.270	0.0176060
683.348	0.0176188
683.426	0.0177995
683.504	0.0176694
683.582	0.0176474
683.660	0.0177460
683.738	0.0176939
683.817	0.0178651
683.895	0.0175608
683.973	0.0174884
684.051	0.0177315
684.129	0.0177702
684.207	0.0178506
684.285	0.0179184
684.363	0.0178893
684.442	0.0178133
684.520	0.0180046
684.598	0.0180684
684.676	0.0180197
684.754	0.0179438
684.832	0.0180546
684.910	0.0179549
684.988	0.0179714
685.067	0.0179072
685.145	0.0178365
685.223	0.0178471
685.301	0.0179198
685.379	0.0181304
685.457	0.0179794
685.535	0.0179189
685.613	0.0179227
685.692	0.0180641
685.770	0.0180794
685.848	0.0180674
685.926	0.0179225
686.004	0.0180946
686.082	0.0180257
686.160	0.0181047
686.238	0.0180562
686.317	0.0180332
686.395	0.0180737
686.473	0.0179548
686.551	0.0180599
686.629	0.0179893
686.707	0.0178599
686.785	0.0179153
686.863	0.0179409
686.942	0.0181364
687.020	0.0179687
687.098	0.0179066
687.176	0.0180319
687.254	0.0181400
687.332	0.0179927
687.410	0.0180807
687.488	0.0180357
687.567	0.0180723
687.645	0.0181651
687.723	0.0180140
687.801	0.0179675
687.879	0.0181621
687.957	0.0180616
688.035	0.0179431
688.113	0.0179222
688.192	0.0179269
688.270	0.0179305
688.348	0.0178731
688.426	0.0179692
688.504	0.0179179
688.582	0.0176704
688.660	0.0178928
688.738	0.0178456
688.817	0.0178988
688.895	0.0178005
688.973	0.0177634
689.051	0.0179019
689.129	0.0178529
689.207	0.0177693
689.285	0.0176660
689.363	0.0176920
689.442	0.0177451
689.520	0.0177938
689.598	0.0176559
689.676	0.0177305
689.754	0.0177910
689.832	0.0178160
689.910	0.0178166
689.988	0.0178212
690.067	0.0178716
690.145	0.0178115
690.223	0.0177911
690.301	0.0177350
690.379	0.0178721
690.457	0.0178362
690.535	0.0176682
690.613	0.0177438
690.692	0.0177920
690.770	0.0176793
690.848	0.0177044
690.926	0.0177264
691.004	0.0176872
691.082	0.0176740
691.160	0.0176541
691.238	0.0175913
691.317	0.0177543
691.395	0.0177122
691.473	0.0177924
691.551	0.0176482
691.629	0.0176392
691.707	0.0177296
691.785	0.0177518
691.863	0.0177090
691.942	0.0177023
692.020	0.0177781
692.098	0.0178724
692.176	0.0178867
692.254	0.0177561
692.332	0.0178353
692.410	0.0177990
692.488	0.0177448
692.567	0.0176049
692.645	0.0177422
692.723	0.0176981
692.801	0.0175529
692.879	0.0175887
692.957	0.0175871
693.035	0.0175780
693.113	0.0175212
693.192	0.0175224
693.270	0.0174203
693.348	0.0175458
693.426	0.0177129
693.504	0.0176602
693.582	0.0177197
693.660	0.0177345
693.738	0.0175876
693.817	0.0175957
693.895	0.0176831
693.973	0.0176722
694.051	0.0176598
694.129	0.0177719
694.207	0.0178199
694.285	0.0176973
694.363	0.0176147
694.442	0.0176829
694.520	0.0176764
694.598	0.0177145
694.676	0.0177025
694.754	0.0178432
694.832	0.0177877
694.910	0.0177544
694.988	0.0179028
695.067	0.0178635
695.145	0.0178481
695.223	0.0177962
695.301	0.0180133
695.379	0.0179512
695.457	0.0180212
695.535	0.0180745
695.613	0.0181587
695.692	0.0181376
695.770	0.0181789
695.848	0.0180709
695.926	0.0180912
696.004	0.0182842
696.082	0.0182082
696.160	0.0182553
696.238	0.0181831
696.317	0.0181095
696.395	0.0180746
696.473	0.0180972
696.551	0.0179658
696.629	0.0179736
696.707	0.0178845
696.785	0.0177856
696.863	0.0177680
696.942	0.0176314
697.020	0.0176161
697.098	0.0176334
697.176	0.0174687
697.254	0.0173973
697.332	0.0173637
697.410	0.0175198
697.488	0.0173652
697.567	0.0174368
697.645	0.0174430
697.723	0.0172671
697.801	0.0174375
697.879	0.0174490
697.957	0.0174255
698.035	0.0174108
698.113	0.0174990
698.192	0.0175002
698.270	0.0175676
698.348	0.0176119
698.426	0.0176605
698.504	0.0177992
698.582	0.0177049
698.660	0.0177168
698.738	0.0178479
698.817	0.0178178
698.895	0.0179589
698.973	0.0179545
699.051	0.0180285
699.129	0.0181206
699.207	0.0181010
699.285	0.0179323
699.363	0.0180733
699.442	0.0181748
699.520	0.0180929
699.598	0.0180093
699.676	0.0180802
699.754	0.0180637
699.832	0.0181528
699.910	0.0182803
699.988	0.0183025
700.067	0.0180860
700.145	0.0181347
700.223	0.0181126
700.301	0.0181094
700.379	0.0181381
700.457	0.0182095
700.535	0.0179444
700.613	0.0179503
700.692	0.0180587
700.770	0.0179929
700.848	0.0179987
700.926	0.0179757
701.004	0.0179449
701.082	0.0178983
701.160	0.0180196
701.238	0.0180342
701.317	0.0179082
701.395	0.0179788
701.473	0.0179142
701.551	0.0178091
701.629	0.0178168
701.707	0.0178762
701.785	0.0178140
701.863	0.0179302
701.942	0.0178792
702.020	0.0178223
702.098	0.0178323
702.176	0.0176219
702.254	0.0178066
702.332	0.0177132
702.410	0.0177462
702.488	0.0177324
702.567	0.0177662
702.645	0.0177241
702.723	0.0178090
702.801	0.0178544
702.879	0.0178798
702.957	0.0177216
703.035	0.0178433
703.113	0.0177359
703.192	0.0179483
703.270	0.0178477
703.348	0.0178488
703.426	0.0180048
703.504	0.0178094
703.582	0.0178033
703.660	0.0178877
703.738	0.0179654
703.817	0.0180439
703.895	0.0179671
703.973	0.0181711
704.051	0.0180556
704.129	0.0181676
704.207	0.0182658
704.285	0.0180840
704.363	0.0182621
704.442	0.0181892
704.520	0.0182051
704.598	0.0181918
704.676	0.0183084
704.754	0.0183466
704.832	0.0183276
704.910	0.0183501
704.988	0.0182692
705.067	0.0183558
705.145	0.0184334
705.223	0.0182055
705.301	0.0182561
705.379	0.0183323
705.457	0.0182390
705.535	0.0182014
705.613	0.0182187
705.692	0.0181543
705.770	0.0179385
705.848	0.0179283
705.926	0.0178864
706.004	0.0179033
706.082	0.0179087
706.160	0.0176712
706.238	0.0177234
706.317	0.0178036
706.395	0.0177563
706.473	0.0176163
706.551	0.0177802
706.629	0.0176363
706.707	0.0175632
706.785	0.0177346
706.863	0.0176408
706.942	0.0178143
707.020	0.0175835
707.098	0.0178562
707.176	0.0177962
707.254	0.0176547
707.332	0.0177377
707.410	0.0176920
707.488	0.0176927
707.567	0.0177462
707.645	0.0177618
707.723	0.0176160
707.801	0.0175579
707.879	0.0176267
707.957	0.0177593
708.035	0.0175918
708.113	0.0177796
708.192	0.0176788
708.270	0.0179094
708.348	0.0179906
708.426	0.0179762
708.504	0.0181107
708.582	0.0182233
708.660	0.0182053
708.738	0.0183948
708.817	0.0183944
708.895	0.0184075
708.973	0.0184402
709.051	0.0184402
709.129	0.0184815
709.207	0.0183266
709.285	0.0183608
709.363	0.0183340
709.442	0.0184784
709.520	0.0183571
709.598	0.0182801
709.676	0.0182745
709.754	0.0181622
709.832	0.0180445
709.910	0.0181929
709.988	0.0183109
710.067	0.0181928
710.145	0.0181695
710.223	0.0181959
710.301	0.0182756
710.379	0.0180243
710.457	0.0179895
710.535	0.0180924
710.613	0.0179716
710.692	0.0180168
710.770	0.0179221
710.848	0.0178436
710.926	0.0179053
711.004	0.0178088
711.082	0.0177305
711.160	0.0176717
711.238	0.0177367
711.317	0.0176603
711.395	0.0174081
711.473	0.0175223
711.551	0.0174929
711.629	0.0174936
711.707	0.0175307
711.785	0.0174837
711.863	0.0174086
711.942	0.0174557
712.020	0.0174556
712.098	0.0172895
712.176	0.0174966
712.254	0.0173759
712.332	0.0174081
712.410	0.0175755
712.488	0.0175723
712.567	0.0175745
712.645	0.0177359
712.723	0.0176749
712.801	0.0178030
712.879	0.0178172
712.957	0.0180309
713.035	0.0180757
713.113	0.0179765
713.192	0.0181113
713.270	0.0182969
713.348	0.0181861
713.426	0.0182363
713.504	0.0183159
713.582	0.0182549
713.660	0.0181972
713.738	0.0181791
713.817	0.0182233
713.895	0.0182526
713.973	0.0183111
714.051	0.0181758
714.129	0.0181271
714.207	0.0180788
714.285	0.0181718
714.363	0.0183141
714.442	0.0181438
714.520	0.0182358
714.598	0.0182589
714.676	0.0181841
714.754	0.0180511
714.832	0.0181834
714.910	0.0181580
714.988	0.0180576
715.067	0.0180400
715.145	0.0179803
715.223	0.0178992
715.301	0.0178622
715.379	0.0177931
715.457	0.0178094
715.535	0.0176614
715.613	0.0176735
715.692	0.0175307
715.770	0.0176181
715.848	0.0176056
715.926	0.0175845
716.004	0.0175996
716.082	0.0175698
716.160	0.0175308
716.238	0.0176389
716.317	0.0175744
716.395	0.0176241
716.473	0.0175629
716.551	0.0177365
716.629	0.0175465
716.707	0.0176868
716.785	0.0176841
716.863	0.0175776
716.942	0.0175366
717.020	0.0175258
717.098	0.0175278
717.176	0.0175124
717.254	0.0173804
717.332	0.0175192
717.410	0.0174089
717.488	0.0174326
717.567	0.0174332
717.645	0.0173367
717.723	0.0174306
717.801	0.0174432
717.879	0.0174522
717.957	0.0173313
718.035	0.0175583
718.113	0.0175746
718.192	0.0173936
718.270	0.0176665
718.348	0.0176513
718.426	0.0178162
718.504	0.0177535
718.582	0.0178311
718.660	0.0177938
718.738	0.0178207
718.817	0.0178959
718.895	0.0179517
718.973	0.0179300
719.051	0.0180798
719.129	0.0180560
719.207	0.0180700
719.285	0.0180681
719.363	0.0182007
719.442	0.0181142
719.520	0.0182235
719.598	0.0181396
719.676	0.0182254
719.754	0.0181754
719.832	0.0182204
719.910	0.0181313
719.988	0.0181328
720.067	0.0181802
720.145	0.0182294
720.223	0.0182613
720.301	0.0183331
720.379	0.0183532
720.457	0.0182234
720.535	0.0183028
720.613	0.0182747
720.692	0.0183354
720.770	0.0182410
720.848	0.0182259
720.926	0.0182980
721.004	0.0181159
721.082	0.0180609
721.160	0.0180059
721.238	0.0178439
721.317	0.0179498
721.395	0.0178072
721.473	0.0177515
721.551	0.0175268
721.629	0.0175506
721.707	0.0175430
721.785	0.0176697
721.863	0.0175097
721.942	0.0175393
722.020	0.0175622
722.098	0.0176450
722.176	0.0176440
722.254	0.0177907
722.332	0.0178636
722.410	0.0178548
722.488	0.0179259
722.567	0.0180429
722.645	0.0181313
722.723	0.0182069
722.801	0.0181358
722.879	0.0181134
722.957	0.0181901
723.035	0.0182486
723.113	0.0182578
723.192	0.0183459
723.270	0.0182787
723.348	0.0183571
723.426	0.0182524
723.504	0.0183765
723.582	0.0182909
723.660	0.0181332
723.738	0.0180578
723.817	0.0181327
723.895	0.0178712
723.973	0.0178320
724.051	0.0178275
724.129	0.0178159
724.207	0.0176776
724.285	0.0177499
724.363	0.0174956
724.442	0.0175184
724.520	0.0175928
724.598	0.0174504
724.676	0.0175816
724.754	0.0176003
724.832	0.0175021
724.910	0.0174847
724.988	0.0174695
725.067	0.0175475
725.145	0.0175611
725.223	0.0174481
725.301	0.0176186
725.379	0.0175111
725.457	0.0175520
725.535	0.0175851
725.613	0.0176760
725.692	0.0175736
725.770	0.0177123
725.848	0.0177426
725.926	0.0175994
726.004	0.0176508
726.082	0.0177559
726.160	0.0177636
726.238	0.0177879
726.317	0.0177880
726.395	0.0178683
726.473	0.0176178
726.551	0.0178876
726.629	0.0177753
726.707	0.0178223
726.785	0.0177858
726.863	0.0179562
726.942	0.0180404
727.020	0.0178277
727.098	0.0180609
727.176	0.0179874
727.254	0.0181026
727.332	0.0181141
727.410	0.0180741
727.488	0.0181046
727.567	0.0182639
727.645	0.0182859
727.723	0.0180589
727.801	0.0181696
727.879	0.0182367
727.957	0.0182677
728.035	0.0180811
728.113	0.0181178
728.192	0.0181764
728.270	0.0182171
728.348	0.0181056
728.426	0.0181273
728.504	0.0179855
728.582	0.0179907
728.660	0.0180389
728.738	0.0180479
728.817	0.0180790
728.895	0.0180820
728.973	0.0180492
729.051	0.0180356
729.129	0.0179271
729.207	0.0179795
729.285	0.0179789
729.363	0.0178828
729.442	0.0179417
729.520	0.0178357
729.598	0.0179695
729.676	0.0179678
729.754	0.0175906
729.832	0.0176723
729.910	0.0176029
729.988	0.0176578
730.067	0.0176188
730.145	0.0175412
730.223	0.0175243
730.301	0.0174686
730.379	0.0174303
730.457	0.0174560
730.535	0.0175219
730.613	0.0174043
730.692	0.0174153
730.770	0.0174065
730.848	0.0174580
730.926	0.0175435
731.004	0.0175807
731.082	0.0175035
731.160	0.0174718
731.238	0.0176066
731.317	0.0175542
731.395	0.0175892
731.473	0.0175532
731.551	0.0177213
731.629	0.0177289
731.707	0.0176005
731.785	0.0176597
731.863	0.0178107
731.942	0.0178295
732.020	0.0179034
732.098	0.0179439
732.176	0.0179704
732.254	0.0180628
732.332	0.0181479
732.410	0.0181419
732.488	0.0180517
732.567	0.0181496
732.645	0.0181911
732.723	0.0182378
732.801	0.0181742
732.879	0.0180332
732.957	0.0181512
733.035	0.0182232
733.113	0.0180899
733.192	0.0183228
733.270	0.0181359
733.348	0.0181444
733.426	0.0182443
733.504	0.0181399
733.582	0.0180977
733.660	0.0182262
733.738	0.0181046
733.817	0.0183266
733.895	0.0181275
733.973	0.0180437
734.051	0.0181718
734.129	0.0183047
734.207	0.0182198
734.285	0.0180831
734.363	0.0181889
734.442	0.0183262
734.520	0.0181234
734.598	0.0179673
734.676	0.0180060
734.754	0.0180753
734.832	0.0177800
734.910	0.0179161
734.988	0.0178735
735.067	0.0178003
735.145	0.0176366
735.223	0.0177607
735.301	0.0176384
735.379	0.0176433
735.457	0.0175651
735.535	0.0173521
735.613	0.0174051
735.692	0.0175082
735.770	0.0173698
735.848	0.0174093
735.926	0.0172892
736.004	0.0174903
736.082	0.0173205
736.160	0.0173297
736.238	0.0174429
736.317	0.0173379
736.395	0.0174537
736.473	0.0175695
736.551	0.0174080
736.629	0.0173851
736.707	0.0174254
736.785	0.0174090
736.863	0.0173627
736.942	0.0174695
737.020	0.0174236
737.098	0.0174234
737.176	0.0173061
737.254	0.0172900
737.332	0.0175776
737.410	0.0174654
737.488	0.0173625
737.567	0.0173863
737.645	0.0176113
737.723	0.0175999
737.801	0.0174291
737.879	0.0174625
737.957	0.0175404
738.035	0.0175825
738.113	0.0177058
738.192	0.0176366
738.270	0.0175979
738.348	0.0176708
738.426	0.0177477
738.504	0.0176519
738.582	0.0176871
738.660	0.0177695
738.738	0.0178410
738.817	0.0178887
738.895	0.0179053
738.973	0.0178816
739.051	0.0180886
739.129	0.0179513
739.207	0.0180809
739.285	0.0180821
739.363	0.0181857
739.442	0.0181145
739.520	0.0181299
739.598	0.0183246
739.676	0.0182530
739.754	0.0181818
739.832	0.0181058
739.910	0.0181171
739.988	0.0180633
740.067	0.0180956
740.145	0.0179432
740.223	0.0179628
740.301	0.0180595
740.379	0.0178896
740.457	0.0178731
740.535	0.0178957
740.613	0.0179012
740.692	0.0178783
740.770	0.0179224
740.848	0.0179055
740.926	0.0179518
741.004	0.0178288
741.082	0.0179926
741.160	0.0179813
741.238	0.0179645
741.317	0.0179713
741.395	0.0178853
741.473	0.0178082
741.551	0.0177201
741.629	0.0176074
741.707	0.0175655
741.785	0.0175614
741.863	0.0175682
741.942	0.0174384
742.020	0.0175183
742.098	0.0173574
742.176	0.0172991
742.254	0.0173215
742.332	0.0172025
742.410	0.0171368
742.488	0.0172786
742.567	0.0171757
742.645	0.0171320
742.723	0.0173054
742.801	0.0172136
742.879	0.0172027
742.957	0.0173088
743.035	0.0173411
743.113	0.0175153
743.192	0.0174759
743.270	0.0174403
743.348	0.0176775
743.426	0.0177582
743.504	0.0177500
743.582	0.0178571
743.660	0.0178679
743.738	0.0179176
743.817	0.0179249
743.895	0.0180028
743.973	0.0179349
744.051	0.0180291
744.129	0.0179164
744.207	0.0180447
744.285	0.0179631
744.363	0.0179615
744.442	0.0180479
744.520	0.0180344
744.598	0.0180395
744.676	0.0180624
744.754	0.0180862
744.832	0.0180152
744.910	0.0180648
744.988	0.0181065
745.067	0.0179837
745.145	0.0180553
745.223	0.0181879
745.301	0.0179989
745.379	0.0180239
745.457	0.0180953
745.535	0.0179815
745.613	0.0180974
745.692	0.0180606
745.770	0.0179940
745.848	0.0179639
745.926	0.0180378
746.004	0.0181183
746.082	0.0178606
746.160	0.0179592
746.238	0.0180137
746.317	0.0179597
746.395	0.0176979
746.473	0.0176895
746.551	0.0177649
746.629	0.0177968
746.707	0.0178618
746.785	0.0177850
746.863	0.0176494
746.942	0.0176332
747.020	0.0177217
747.098	0.0176575
747.176	0.0175660
747.254	0.0176073
747.332	0.0175988
747.410	0.0175500
747.488	0.0177266
747.567	0.0176115
747.645	0.0175333
747.723	0.0175159
747.801	0.0175857
747.879	0.0177591
747.957	0.0176151
748.035	0.0176874
748.113	0.0176677
748.192	0.0176943
748.270	0.0175564
748.348	0.0176454
748.426	0.0175819
748.504	0.0175565
748.582	0.0175703
748.660	0.0176189
748.738	0.0175502
748.817	0.0175620
748.895	0.0175015
748.973	0.0175962
749.051	0.0175761
749.129	0.0174697
749.207	0.0174209
749.285	0.0175757
749.363	0.0174992
749.442	0.0175138
749.520	0.0176196
749.598	0.0175169
749.676	0.0174015
749.754	0.0174048
749.832	0.0174296
749.910	0.0174207
749.988	0.0174518
750.067	0.0175261
750.145	0.0175073
750.223	0.0173591
750.301	0.0175351
750.379	0.0176423
750.457	0.0176524
750.535	0.0177026
750.613	0.0175109
750.692	0.0177453
750.770	0.0178486
750.848	0.0177142
750.926	0.0177863
751.004	0.0178628
751.082	0.0179863
751.160	0.0180882
751.238	0.0179805
751.317	0.0178642
751.395	0.0180061
751.473	0.0179878
751.551	0.0179912
751.629	0.0178801
751.707	0.0179079
751.785	0.0178927
751.863	0.0177995
751.942	0.0177690
752.020	0.0177191
752.098	0.0177254
752.176	0.0177986
752.254	0.0178634
752.332	0.0177694
752.410	0.0177937
752.488	0.0177943
752.567	0.0179138
752.645	0.0179884
752.723	0.0180746
752.801	0.0179884
752.879	0.0181488
752.957	0.0182841
753.035	0.0180899
753.113	0.0180204
753.192	0.0180325
753.270	0.0179640
753.348	0.0179852
753.426	0.0180714
753.504	0.0179431
753.582	0.0180112
753.660	0.0179419
753.738	0.0178130
753.817	0.0179159
753.895	0.0178514
753.973	0.0179053
754.051	0.0178962
754.129	0.0179620
754.207	0.0178027
754.285	0.0178166
754.363	0.0178558
754.442	0.0177257
754.520	0.0177750
754.598	0.0176704
754.676	0.0179457
754.754	0.0179047
754.832	0.0177634
754.910	0.0178653
754.988	0.0178677
755.067	0.0177399
755.145	0.0177513
755.223	0.0178065
755.301	0.0177991
755.379	0.0176108
755.457	0.0176879
755.535	0.0176963
755.613	0.0175277
755.692	0.0176975
755.770	0.0175504
755.848	0.0175282
755.926	0.0172646
756.004	0.0173148
756.082	0.0173006
756.160	0.0173463
756.238	0.0172311
756.317	0.0171680
756.395	0.0172144
756.473	0.0171725
756.551	0.0172547
756.629	0.0172236
756.707	0.0171497
756.785	0.0171888
756.863	0.0172211
756.942	0.0172236
757.020	0.0172700
757.098	0.0172073
757.176	0.0172336
757.254	0.0171738
757.332	0.0171366
757.410	0.0173750
757.488	0.0173258
757.567	0.0173972
757.645	0.0173310
757.723	0.0171825
757.801	0.0173111
757.879	0.0173406
757.957	0.0172894
758.035	0.0173438
758.113	0.0173853
758.192	0.0173868
758.270	0.0174430
758.348	0.0173442
758.426	0.0173058
758.504	0.0173858
758.582	0.0174194
758.660	0.0175565
758.738	0.0174846
758.817	0.0173566
758.895	0.0174809
758.973	0.0176518
759.051	0.0175821
759.129	0.0175095
759.207	0.0175658
759.285	0.0175144
759.363	0.0177663
759.442	0.0177020
759.520	0.0178255
759.598	0.0178538
759.676	0.0179356
759.754	0.0179618
759.832	0.0178737
759.910	0.0180135
759.988	0.0179267
760.067	0.0178339
760.145	0.0179417
760.223	0.0180350
760.301	0.0179604
760.379	0.0180460
760.457	0.0181474
760.535	0.0179867
760.613	0.0179042
760.692	0.0180511
760.770	0.0179893
760.848	0.0180135
760.926	0.0178445
761.004	0.0179315
761.082	0.0178625
761.160	0.0178245
761.238	0.0178929
761.317	0.0178028
761.395	0.0178548
761.473	0.0177640
761.551	0.0178096
761.629	0.0177434
761.707	0.0178016
761.785	0.0179004
761.863	0.0177723
761.942	0.0177967
762.020	0.0178173
762.098	0.0176997
762.176	0.0178325
762.254	0.0176613
762.332	0.0177686
762.410	0.0177975
762.488	0.0178975
762.567	0.0178931
762.645	0.0179127
762.723	0.0178143
762.801	0.0178930
762.879	0.0179591
762.957	0.0177932
763.035	0.0178272
763.113	0.0179417
763.192	0.0178728
763.270	0.0178233
763.348	0.0178438
763.426	0.0178207
763.504	0.0177635
763.582	0.0177196
763.660	0.0178063
763.738	0.0177785
763.817	0.0177284
763.895	0.0178223
763.973	0.0176823
764.051	0.0177757
764.129	0.0179701
764.207	0.0179324
764.285	0.0179002
764.363	0.0179159
764.442	0.0181038
764.520	0.0179822
764.598	0.0180264
764.676	0.0180867
764.754	0.0181002
764.832	0.0181572
764.910	0.0180573
764.988	0.0179910
765.067	0.0180527
765.145	0.0181170
765.223	0.0181260
765.301	0.0181492
765.379	0.0182424
765.457	0.0180420
765.535	0.0180867
765.613	0.0180218
765.692	0.0180075
765.770	0.0180807
765.848	0.0181976
765.926	0.0179677
766.004	0.0180663
766.082	0.0180804
766.160	0.0181378
766.238	0.0181151
766.317	0.0180587
766.395	0.0179239
766.473	0.0180806
766.551	0.0180951
766.629	0.0181072
766.707	0.0181850
766.785	0.0181591
766.863	0.0180415
766.942	0.0180478
767.020	0.0181264
767.098	0.0180444
767.176	0.0180273
767.254	0.0181850
767.332	0.0180574
767.410	0.0179170
767.488	0.0179749
767.567	0.0180281
767.645	0.0178710
767.723	0.0178503
767.801	0.0179369
767.879	0.0178571
767.957	0.0180310
768.035	0.0179043
768.113	0.0177705
768.192	0.0177758
768.270	0.0179888
768.348	0.0176933
768.426	0.0177106
768.504	0.0177277
768.582	0.0178938
768.660	0.0177744
768.738	0.0177334
768.817	0.0176710
768.895	0.0176520
768.973	0.0175845
769.051	0.0177423
769.129	0.0175613
769.207	0.0175398
769.285	0.0174540
769.363	0.0174238
769.442	0.0174558
769.520	0.0173507
769.598	0.0174631
769.676	0.0174722
769.754	0.0173823
769.832	0.0174705
769.910	0.0174770
769.988	0.0175321
770.067	0.0174661
770.145	0.0175530
770.223	0.0174332
770.301	0.0175024
770.379	0.0175628
770.457	0.0177190
770.535	0.0176878
770.613	0.0175420
770.692	0.0176569
770.770	0.0175492
770.848	0.0176286
770.926	0.0176620
771.004	0.0176762
771.082	0.0177627
771.160	0.0176650
771.238	0.0176307
771.317	0.0177027
771.395	0.0177504
771.473	0.0177850
771.551	0.0178757
771.629	0.0178281
771.707	0.0178493
771.785	0.0180175
771.863	0.0180035
771.942	0.0180856
772.020	0.0179989
772.098	0.0181429
772.176	0.0179015
772.254	0.0179782
772.332	0.0180577
772.410	0.0179932
772.488	0.0180527
772.567	0.0179104
772.645	0.0179492
772.723	0.0177791
772.801	0.0178350
772.879	0.0178456
772.957	0.0176942
773.035	0.0177109
773.113	0.0178140
773.192	0.0178331
773.270	0.0176420
773.348	0.0177336
773.426	0.0177283
773.504	0.0178123
773.582	0.0177965
773.660	0.0177800
773.738	0.0177200
773.817	0.0178002
773.895	0.0178698
773.973	0.0175943
774.051	0.0177449
774.129	0.0178338
774.207	0.0178292
774.285	0.0178645
774.363	0.0176953
774.442	0.0177543
774.520	0.0175964
774.598	0.0177858
774.676	0.0178827
774.754	0.0178794
774.832	0.0176961
774.910	0.0175950
774.988	0.0176659
775.067	0.0178230
775.145	0.0177937
775.223	0.0177134
775.301	0.0176528
775.379	0.0177780
775.457	0.0178503
775.535	0.0177480
775.613	0.0177032
775.692	0.0177853
775.770	0.0179556
775.848	0.0177763
775.926	0.0179887
776.004	0.0177341
776.082	0.0178674
776.160	0.0178482
776.238	0.0179653
776.317	0.0178262
776.395	0.0179630
776.473	0.0180479
776.551	0.0179212
776.629	0.0177773
776.707	0.0178395
776.785	0.0175955
776.863	0.0177531
776.942	0.0177271
777.020	0.0176130
777.098	0.0178559
777.176	0.0177789
777.254	0.0176414
777.332	0.0176065
777.410	0.0176376
777.488	0.0175751
777.567	0.0175774
777.645	0.0175761
777.723	0.0176395
777.801	0.0175407
777.879	0.0176213
777.957	0.0176307
778.035	0.0176994
778.113	0.0175040
778.192	0.0176114
778.270	0.0175653
778.348	0.0176027
778.426	0.0176414
778.504	0.0177538
778.582	0.0176060
778.660	0.0175634
778.738	0.0177614
778.817	0.0177095
778.895	0.0173579
778.973	0.0174087
779.051	0.0174902
779.129	0.0174361
779.207	0.0175531
779.285	0.0175758
779.363	0.0174905
779.442	0.0174976
779.520	0.0174701
779.598	0.0174284
779.676	0.0174835
779.754	0.0175195
779.832	0.0175014
779.910	0.0176109
779.988	0.0174517
780.067	0.0174575
780.145	0.0175389
780.223	0.0175646
780.301	0.0175305
780.379	0.0175457
780.457	0.0175802
780.535	0.0176479
780.613	0.0175150
780.692	0.0174420
780.770	0.0174791
780.848	0.0175074
780.926	0.0174491
781.004	0.0174212
781.082	0.0174684
781.160	0.0172463
781.238	0.0173875
781.317	0.0174062
781.395	0.0173952
781.473	0.0175095
781.551	0.0174951
781.629	0.0173824
781.707	0.0174456
781.785	0.0173497
781.863	0.0174407
781.942	0.0174889
782.020	0.0174390
782.098	0.0175573
782.176	0.0174902
782.254	0.0175499
782.332	0.0176778
782.410	0.0176579
782.488	0.0174332
782.567	0.0176566
782.645	0.0177168
782.723	0.0176460
782.801	0.0177470
782.879	0.0177277
782.957	0.0177582
783.035	0.0180056
783.113	0.0179048
783.192	0.0179370
783.270	0.0179101
783.348	0.0179986
783.426	0.0179793
783.504	0.0180832
783.582	0.0182784
783.660	0.0181760
783.738	0.0180709
783.817	0.0180060
783.895	0.0180762
783.973	0.0181358
784.051	0.0181750
784.129	0.0181375
784.207	0.0181085
784.285	0.0181786
784.363	0.0180157
784.442	0.0180394
784.520	0.0180391
784.598	0.0181400
784.676	0.0180826
784.754	0.0181213
784.832	0.0181284
784.910	0.0180599
784.988	0.0181705
785.067	0.0181283
785.145	0.0180197
785.223	0.0181633
785.301	0.0179851
785.379	0.0180123
785.457	0.0180936
785.535	0.0179870
785.613	0.0180980
785.692	0.0181559
785.770	0.0180715
785.848	0.0181719
785.926	0.0180921
786.004	0.0181313
786.082	0.0181385
786.160	0.0180378
786.238	0.0180408
786.317	0.0179476
786.395	0.0179526
786.473	0.0180083
786.551	0.0180426
786.629	0.0179086
786.707	0.0180503
786.785	0.0180042
786.863	0.0180331
786.942	0.0180308
787.020	0.0178955
787.098	0.0179587
787.176	0.0180391
787.254	0.0180738
787.332	0.0180622
787.410	0.0180078
787.488	0.0181861
787.567	0.0181400
787.645	0.0181831
787.723	0.0180434
787.801	0.0178925
787.879	0.0181998
787.957	0.0181297
788.035	0.0181675
788.113	0.0182259
788.192	0.0180465
788.270	0.0179253
788.348	0.0181145
788.426	0.0181073
788.504	0.0181242
788.582	0.0180698
788.660	0.0180545
788.738	0.0179582
788.817	0.0178970
788.895	0.0179173
788.973	0.0180087
789.051	0.0179753
789.129	0.0179696
789.207	0.0178426
789.285	0.0178954
789.363	0.0178295
789.442	0.0177367
789.520	0.0179004
789.598	0.0178339
789.676	0.0179620
789.754	0.0177837
789.832	0.0177344
789.910	0.0178814
789.988	0.0178730
790.067	0.0179144
790.145	0.0178958
790.223	0.0179929
790.301	0.0179205
790.379	0.0178696
790.457	0.0180548
790.535	0.0180093
790.613	0.0179318
790.692	0.0180139
790.770	0.0180212
790.848	0.0180060
790.926	0.0181335
791.004	0.0179397
791.082	0.0179676
791.160	0.0179443
791.238	0.0179635
791.317	0.0180577
791.395	0.0180445
791.473	0.0179897
791.551	0.0181091
791.629	0.0180626
791.707	0.0178928
791.785	0.0179690
791.863	0.0179823
791.942	0.0179391
792.020	0.0179655
792.098	0.0179289
792.176	0.0179566
792.254	0.0179625
792.332	0.0178773
792.410	0.0179307
792.488	0.0178853
792.567	0.0177547
792.645	0.0179733
792.723	0.0179585
792.801	0.0177708
792.879	0.0178516
792.957	0.0177436
793.035	0.0178211
793.113	0.0177723
793.192	0.0177515
793.270	0.0178642
793.348	0.0177383
793.426	0.0177065
793.504	0.0176244
793.582	0.0176524
793.660	0.0176874
793.738	0.0177253
793.817	0.0177824
793.895	0.0176028
793.973	0.0176642
794.051	0.0177105
794.129	0.0175785
794.207	0.0175761
794.285	0.0177342
794.363	0.0176088
794.442	0.0175628
794.520	0.0176382
794.598	0.0176377
794.676	0.0177583
794.754	0.0175837
794.832	0.0177148
794.910	0.0176687
794.988	0.0175909
795.067	0.0175300
795.145	0.0175066
795.223	0.0175784
795.301	0.0174316
795.379	0.0175033
795.457	0.0173699
795.535	0.0174309
795.613	0.0174551
795.692	0.0173634
795.770	0.0173129
795.848	0.0174164
795.926	0.0174089
796.004	0.0174758
796.082	0.0174650
796.160	0.0173956
796.238	0.0175584
796.317	0.0175658
796.395	0.0175322
796.473	0.0175055
796.551	0.0174883
796.629	0.0175668
796.707	0.0176012
796.785	0.0175604
796.863	0.0176749
796.942	0.0176780
797.020	0.0175835
797.098	0.0176020
797.176	0.0177167
797.254	0.0176810
797.332	0.0176307
797.410	0.0176156
797.488	0.0176742
797.567	0.0177912
797.645	0.0176678
797.723	0.0177949
797.801	0.0176173
797.879	0.0176126
797.957	0.0176793
798.035	0.0176028
798.113	0.0177521
798.192	0.0179599
798.270	0.0177148
798.348	0.0176868
798.426	0.0177596
798.504	0.0177524
798.582	0.0176725
798.660	0.0177820
798.738	0.0177601
798.817	0.0177152
798.895	0.0179170
798.973	0.0178668
799.051	0.0177866
799.129	0.0176405
799.207	0.0177718
799.285	0.0177636
799.363	0.0177333
799.442	0.0178123
799.520	0.0180239
799.598	0.0180156
799.676	0.0178783
799.754	0.0178426
799.832	0.0178277
799.910	0.0179489
799.988	0.0179205
800.067	0.0179227
800.145	0.0180041
800.223	0.0181137
800.301	0.0179819
800.379	0.0179044
800.457	0.0180496
800.535	0.0181136
800.613	0.0179713
800.692	0.0179774
800.770	0.0181635
800.848	0.0180369
800.926	0.0178524
801.004	0.0179707
801.082	0.0180127
801.160	0.0180520
801.238	0.0179929
801.317	0.0180380
801.395	0.0180203
801.473	0.0178069
801.551	0.0179942
801.629	0.0179114
801.707	0.0178261
801.785	0.0178728
801.863	0.0178680
801.942	0.0180142
802.020	0.0178782
802.098	0.0180673
802.176	0.0180307
802.254	0.0178307
802.332	0.0179826
802.410	0.0180688
802.488	0.0180405
802.567	0.0179222
802.645	0.0180018
802.723	0.0180683
802.801	0.0179877
802.879	0.0179317
802.957	0.0179497
803.035	0.0176996
803.113	0.0177700
803.192	0.0178412
803.270	0.0177995
803.348	0.0177815
803.426	0.0177358
803.504	0.0177144
803.582	0.0178290
803.660	0.0176547
803.738	0.0176796
803.817	0.0175390
803.895	0.0177121
803.973	0.0176104
804.051	0.0177491
804.129	0.0176810
804.207	0.0176834
804.285	0.0177621
804.363	0.0178042
804.442	0.0178069
804.520	0.0177070
804.598	0.0178871
804.676	0.0177747
804.754	0.0177065
804.832	0.0176720
804.910	0.0178211
804.988	0.0178011
805.067	0.0177615
805.145	0.0177653
805.223	0.0176662
805.301	0.0177901
805.379	0.0178551
805.457	0.0177957
805.535	0.0178511
805.613	0.0177967
805.692	0.0177998
805.770	0.0176741
805.848	0.0179345
805.926	0.0179998
806.004	0.0178084
806.082	0.0178069
806.160	0.0176698
806.238	0.0177994
806.317	0.0178399
806.395	0.0177666
806.473	0.0178890
806.551	0.0178867
806.629	0.0179224
806.707	0.0177316
806.785	0.0177950
806.863	0.0178316
806.942	0.0178284
807.020	0.0178009
807.098	0.0177243
807.176	0.0176939
807.254	0.0176134
807.332	0.0176073
807.410	0.0175213
807.488	0.0175891
807.567	0.0174464
807.645	0.0175933
807.723	0.0173664
807.801	0.0175491
807.879	0.0173791
807.957	0.0174284
808.035	0.0175533
808.113	0.0174815
808.192	0.0173510
808.270	0.0174334
808.348	0.0174901
808.426	0.0174763
808.504	0.0173875
808.582	0.0175536
808.660	0.0175333
808.738	0.0174845
808.817	0.0174434
808.895	0.0175998
808.973	0.0177746
809.051	0.0177292
809.129	0.0176935
809.207	0.0178030
809.285	0.0178593
809.363	0.0178519
809.442	0.0177983
809.520	0.0177397
809.598	0.0179013
809.676	0.0180885
809.754	0.0180128
809.832	0.0180536
809.910	0.0181065
809.988	0.0182648
810.067	0.0182384
810.145	0.0181865
810.223	0.0183876
810.301	0.0182799
810.379	0.0182080
810.457	0.0182774
810.535	0.0183699
810.613	0.0182734
810.692	0.0182662
810.770	0.0180684
810.848	0.0181878
810.926	0.0183492
811.004	0.0182339
811.082	0.0180439
811.160	0.0179146
811.238	0.0181124
811.317	0.0181236
811.395	0.0180535
811.473	0.0180628
811.551	0.0181353
811.629	0.0180423
811.707	0.0179921
811.785	0.0181210
811.863	0.0181274
811.942	0.0181281
812.020	0.0179713
812.098	0.0180524
812.176	0.0182387
812.254	0.0180566
812.332	0.0179722
812.410	0.0181802
812.488	0.0180106
812.567	0.0181075
812.645	0.0181171
812.723	0.0180788
812.801	0.0180033
812.879	0.0178053
812.957	0.0178852
813.035	0.0179080
813.113	0.0178857
813.192	0.0179185
813.270	0.0178794
813.348	0.0178329
813.426	0.0177080
813.504	0.0179862
813.582	0.0178794
813.660	0.0178379
813.738	0.0178224
813.817	0.0177719
813.895	0.0177370
813.973	0.0178533
814.051	0.0179111
814.129	0.0178298
814.207	0.0179588
814.285	0.0179587
814.363	0.0178885
814.442	0.0178589
814.520	0.0179948
814.598	0.0178975
814.676	0.0179000
814.754	0.0179697
814.832	0.0178845
814.910	0.0178905
814.988	0.0179909
815.067	0.0177602
815.145	0.0179125
815.223	0.0178832
815.301	0.0178260
815.379	0.0177087
815.457	0.0178913
815.535	0.0178451
815.613	0.0177464
815.692	0.0178425
815.770	0.0178813
815.848	0.0177942
815.926	0.0178459
816.004	0.0178181
816.082	0.0177430
816.160	0.0177561
816.238	0.0177261
816.317	0.0177354
816.395	0.0177480
816.473	0.0178540
816.551	0.0176938
816.629	0.0177470
816.707	0.0178693
816.785	0.0178785
816.863	0.0177727
816.942	0.0178403
817.020	0.0178598
817.098	0.0177419
817.176	0.0179285
817.254	0.0177891
817.332	0.0177104
817.410	0.0177674
817.488	0.0176373
817.567	0.0177194
817.645	0.0178073
817.723	0.0175838
817.801	0.0177263
817.879	0.0177045
817.957	0.0177359
818.035	0.0176591
818.113	0.0177300
818.192	0.0175883
818.270	0.0176414
818.348	0.0176891
818.426	0.0177378
818.504	0.0175508
818.582	0.0175771
818.660	0.0176627
818.738	0.0176181
818.817	0.0176380
818.895	0.0174120
818.973	0.0175116
819.051	0.0175855
819.129	0.0175414
819.207	0.0175075
819.285	0.0175370
819.363	0.0174313
819.442	0.0174651
819.520	0.0175079
819.598	0.0174819
819.676	0.0174899
819.754	0.0175348
819.832	0.0175430
819.910	0.0177461
819.988	0.0175555
820.067	0.0176942
820.145	0.0177073
820.223	0.0176844
820.301	0.0177876
820.379	0.0177596
820.457	0.0177311
820.535	0.0177656
820.613	0.0177664
820.692	0.0177608
820.770	0.0176718
820.848	0.0176637
820.926	0.0178518
821.004	0.0176984
821.082	0.0178229
821.160	0.0178136
821.238	0.0178484
821.317	0.0176933
821.395	0.0179140
821.473	0.0178176
821.551	0.0177866
821.629	0.0178238
821.707	0.0178722
821.785	0.0178989
821.863	0.0178963
821.942	0.0179008
822.020	0.0178407
822.098	0.0177791
822.176	0.0179272
822.254	0.0179157
822.332	0.0177715
822.410	0.0179338
822.488	0.0177680
822.567	0.0177402
822.645	0.0177614
822.723	0.0177332
822.801	0.0178788
822.879	0.0179957
822.957	0.0179328
823.035	0.0179309
823.113	0.0180167
823.192	0.0180856
823.270	0.0180041
823.348	0.0180171
823.426	0.0180106
823.504	0.0180356
823.582	0.0181750
823.660	0.0182281
823.738	0.0182497
823.817	0.0183414
823.895	0.0180985
823.973	0.0183668
824.051	0.0183753
824.129	0.0181773
824.207	0.0184039
824.285	0.0183280
824.363	0.0182211
824.442	0.0182830
824.520	0.0181808
824.598	0.0183554
824.676	0.0182855
824.754	0.0181055
824.832	0.0181160
824.910	0.0182262
824.988	0.0181780
825.067	0.0181561
825.145	0.0180762
825.223	0.0179951
825.301	0.0180956
825.379	0.0179653
825.457	0.0178786
825.535	0.0178150
825.613	0.0177488
825.692	0.0178047
825.770	0.0178175
825.848	0.0177550
825.926	0.0177014
826.004	0.0176663
826.082	0.0176630
826.160	0.0175071
826.238	0.0175411
826.317	0.0176124
826.395	0.0175759
826.473	0.0176003
826.551	0.0175167
826.629	0.0174529
826.707	0.0173753
826.785	0.0174277
826.863	0.0174902
826.942	0.0174712
827.020	0.0174210
827.098	0.0175105
827.176	0.0175129
827.254	0.0173733
827.332	0.0176488
827.410	0.0177478
827.488	0.0175574
827.567	0.0175723
827.645	0.0176155
827.723	0.0176675
827.801	0.0177482
827.879	0.0177343
827.957	0.0176767
828.035	0.0178078
828.113	0.0177254
828.192	0.0178408
828.270	0.0178012
828.348	0.0178750
828.426	0.0179633
828.504	0.0179448
828.582	0.0180421
828.660	0.0179884
828.738	0.0180534
828.817	0.0180599
828.895	0.0181309
828.973	0.0181818
829.051	0.0179150
829.129	0.0179040
829.207	0.0179955
829.285	0.0179982
829.363	0.0179704
829.442	0.0180161
829.520	0.0179369
829.598	0.0179276
829.676	0.0180352
829.754	0.0180392
829.832	0.0180654
829.910	0.0180231
829.988	0.0178563
830.067	0.0178675
830.145	0.0178088
830.223	0.0177608
830.301	0.0177193
830.379	0.0177531
830.457	0.0176781
830.535	0.0177156
830.613	0.0177650
830.692	0.0175998
830.770	0.0176263
830.848	0.0178613
830.926	0.0177659
831.004	0.0176534
831.082	0.0176471
831.160	0.0177415
831.238	0.0176493
831.317	0.0177104
831.395	0.0175784
831.473	0.0176461
831.551	0.0177290
831.629	0.0176637
831.707	0.0177997
831.785	0.0177874
831.863	0.0176603
831.942	0.0176880
832.020	0.0178680
832.098	0.0178428
832.176	0.0177124
832.254	0.0176424
832.332	0.0177290
832.410	0.0179082
832.488	0.0178669
832.567	0.0178710
832.645	0.0177412
832.723	0.0177952
832.801	0.0179430
832.879	0.0177801
832.957	0.0179314
833.035	0.0178175
833.113	0.0179118
833.192	0.0179173
833.270	0.0178343
833.348	0.0177114
833.426	0.0178339
833.504	0.0178389
833.582	0.0177940
833.660	0.0178934
833.738	0.0178178
833.817	0.0178020
833.895	0.0178291
833.973	0.0178300
834.051	0.0179332
834.129	0.0178302
834.207	0.0178710
834.285	0.0178645
834.363	0.0178068
834.442	0.0177858
834.520	0.0178443
834.598	0.0177473
834.676	0.0176963
834.754	0.0177351
834.832	0.0177769
834.910	0.0177728
834.988	0.0175902
835.067	0.0176945
835.145	0.0177883
835.223	0.0176633
835.301	0.0177124
835.379	0.0178294
835.457	0.0177667
835.535	0.0177575
835.613	0.0178258
835.692	0.0177868
835.770	0.0179222
835.848	0.0178748
835.926	0.0177991
836.004	0.0177831
836.082	0.0179111
836.160	0.0177866
836.238	0.0178661
836.317	0.0179050
836.395	0.0179288
836.473	0.0178905
836.551	0.0178239
836.629	0.0180392
836.707	0.0179536
836.785	0.0180801
836.863	0.0179440
836.942	0.0179308
837.020	0.0180499
837.098	0.0178859
837.176	0.0179095
837.254	0.0180047
837.332	0.0179212
837.410	0.0178462
837.488	0.0179238
837.567	0.0178682
837.645	0.0176768
837.723	0.0176466
837.801	0.0178543
837.879	0.0177450
837.957	0.0176203
838.035	0.0177639
838.113	0.0176321
838.192	0.0175639
838.270	0.0176360
838.348	0.0176198
838.426	0.0174828
838.504	0.0175098
838.582	0.0175546
838.660	0.0174975
838.738	0.0176312
838.817	0.0175095
838.895	0.0174612
838.973	0.0174120
839.051	0.0175702
839.129	0.0176822
839.207	0.0176963
839.285	0.0176489
839.363	0.0176073
839.442	0.0175231
839.520	0.0176524
839.598	0.0175645
839.676	0.0175710
839.754	0.0177669
839.832	0.0177042
839.910	0.0177056
839.988	0.0174480
840.067	0.0176814
840.145	0.0176941
840.223	0.0177440
840.301	0.0177808
840.379	0.0177948
840.457	0.0177602
840.535	0.0176922
840.613	0.0176090
840.692	0.0178288
840.770	0.0178508
840.848	0.0177428
840.926	0.0178802
841.004	0.0179554
841.082	0.0178384
841.160	0.0179359
841.238	0.0179478
841.317	0.0180440
841.395	0.0180592
841.473	0.0181113
841.551	0.0181657
841.629	0.0180629
841.707	0.0182300
841.785	0.0181516
841.863	0.0180535
841.942	0.0180489
842.020	0.0181676
842.098	0.0181775
842.176	0.0181120
842.254	0.0182059
842.332	0.0181516
842.410	0.0181506
842.488	0.0179808
842.567	0.0180752
842.645	0.0181065
842.723	0.0180375
842.801	0.0180946
842.879	0.0180315
842.957	0.0180671
843.035	0.0181033
843.113	0.0179982
843.192	0.0179060
843.270	0.0179396
843.348	0.0180170
843.426	0.0179214
843.504	0.0179734
843.582	0.0179069
843.660	0.0179758
843.738	0.0180641
843.817	0.0179433
843.895	0.0178729
843.973	0.0178511
844.051	0.0179430
844.129	0.0179204
844.207	0.0178944
844.285	0.0179071
844.363	0.0178086
844.442	0.0177511
844.520	0.0177612
844.598	0.0178236
844.676	0.0178490
844.754	0.0177418
844.832	0.0177628
844.910	0.0177979
844.988	0.0178313
845.067	0.0179167
845.145	0.0176430
845.223	0.0177847
845.301	0.0177667
845.379	0.0176907
845.457	0.0178308
845.535	0.0176929
845.613	0.0177565
845.692	0.0177766
845.770	0.0177907
845.848	0.0177867
845.926	0.0177764
846.004	0.0177068
846.082	0.0176516
846.160	0.0177324
846.238	0.0177407
846.317	0.0175683
846.395	0.0175999
846.473	0.0176463
846.551	0.0176743
846.629	0.0176643
846.707	0.0178776
846.785	0.0177735
846.863	0.0175914
846.942	0.0178291
847.020	0.0177564
847.098	0.0178034
847.176	0.0177665
847.254	0.0176794
847.332	0.0179817
847.410	0.0179398
847.488	0.0179562
847.567	0.0178532
847.645	0.0179527
847.723	0.0180379
847.801	0.0179549
847.879	0.0179950
847.957	0.0178891
848.035	0.0181190
848.113	0.0179820
848.192	0.0179681
848.270	0.0179985
848.348	0.0179293
848.426	0.0179382
848.504	0.0179640
848.582	0.0178744
848.660	0.0179231
848.738	0.0178674
848.817	0.0178651
848.895	0.0179738
848.973	0.0180219
849.051	0.0180400
849.129	0.0180974
849.207	0.0179255
849.285	0.0179738
849.363	0.0181158
849.442	0.0182227
849.520	0.0180280
849.598	0.0180077
849.676	0.0180659
849.754	0.0180771
849.832	0.0179895
849.910	0.0178635
849.988	0.0180137
850.067	0.0179761
850.145	0.0179559
850.223	0.0178717
850.301	0.0180135
850.379	0.0179140
850.457	0.0178225
850.535	0.0179944
850.613	0.0178897
850.692	0.0180028
850.770	0.0178238
850.848	0.0179401
850.926	0.0180011
851.004	0.0179663
851.082	0.0178860
851.160	0.0180961
851.238	0.0180842
851.317	0.0180067
851.395	0.0178704
851.473	0.0178340
851.551	0.0178417
851.629	0.0179063
851.707	0.0179066
851.785	0.0178724
851.863	0.0178873
851.942	0.0178663
852.020	0.0179823
852.098	0.0178795
852.176	0.0178611
852.254	0.0178307
852.332	0.0177663
852.410	0.0178727
852.488	0.0178455
852.567	0.0178775
852.645	0.0178979
852.723	0.0178221
852.801	0.0177400
852.879	0.0178370
852.957	0.0177374
853.035	0.0179160
853.113	0.0178450
853.192	0.0177646
853.270	0.0177377
853.348	0.0176369
853.426	0.0175876
853.504	0.0176467
853.582	0.0176157
853.660	0.0175104
853.738	0.0176524
853.817	0.0176532
853.895	0.0175402
853.973	0.0176562
854.051	0.0174252
854.129	0.0174535
854.207	0.0177154
854.285	0.0176310
854.363	0.0174753
854.442	0.0175198
854.520	0.0174734
854.598	0.0175197
854.676	0.0173971
854.754	0.0174989
854.832	0.0175616
854.910	0.0174107
854.988	0.0174203
855.067	0.0174413
855.145	0.0174637
855.223	0.0175148
855.301	0.0174517
855.379	0.0175015
855.457	0.0174332
855.535	0.0174277
855.613	0.0174543
855.692	0.0175127
855.770	0.0176221
855.848	0.0174997
855.926	0.0175464
856.004	0.0176819
856.082	0.0175883
856.160	0.0176631
856.238	0.0175820
856.317	0.0175341
856.395	0.0177001
856.473	0.0175394
856.551	0.0175390
856.629	0.0176650
856.707	0.0176395
856.785	0.0175890
856.863	0.0175633
856.942	0.0176697
857.020	0.0177225
857.098	0.0175870
857.176	0.0177296
857.254	0.0176595
857.332	0.0176141
857.410	0.0176391
857.488	0.0176839
857.567	0.0176517
857.645	0.0176754
857.723	0.0178043
857.801	0.0177531
857.879	0.0177797
857.957	0.0177002
858.035	0.0178105
858.113	0.0178099
858.192	0.0176994
858.270	0.0177442
858.348	0.0178875
858.426	0.0178513
858.504	0.0179869
858.582	0.0177980
858.660	0.0179336
858.738	0.0177423
858.817	0.0178723
858.895	0.0179160
858.973	0.0178412
859.051	0.0179606
859.129	0.0178609
859.207	0.0178936
859.285	0.0177508
859.363	0.0179234
859.442	0.0178912
859.520	0.0179129
859.598	0.0178523
859.676	0.0178761
859.754	0.0180476
859.832	0.0178594
859.910	0.0179684
859.988	0.0179502
860.067	0.0179061
860.145	0.0179770
860.223	0.0178304
860.301	0.0179288
860.379	0.0180509
860.457	0.0179449
860.535	0.0179917
860.613	0.0178490
860.692	0.0178499
860.770	0.0179424
860.848	0.0179041
860.926	0.0178533
861.004	0.0180173
861.082	0.0178064
861.160	0.0178722
861.238	0.0177493
861.317	0.0177280
861.395	0.0177866
861.473	0.0177035
861.551	0.0176176
861.629	0.0176019
861.707	0.0176098
861.785	0.0176316
861.863	0.0175634
861.942	0.0176461
862.020	0.0176199
862.098	0.0174694
862.176	0.0175876
862.254	0.0176502
862.332	0.0175294
862.410	0.0174999
862.488	0.0175320
862.567	0.0174935
862.645	0.0176355
862.723	0.0175688
862.801	0.0176905
862.879	0.0176092
862.957	0.0175207
863.035	0.0175990
863.113	0.0176126
863.192	0.0176562
863.270	0.0176134
863.348	0.0175880
863.426	0.0176398
863.504	0.0176181
863.582	0.0176715
863.660	0.0177919
863.738	0.0176567
863.817	0.0177515
863.895	0.0175613
863.973	0.0176695
864.051	0.0178879
864.129	0.0179084
864.207	0.0179101
864.285	0.0177715
864.363	0.0179016
864.442	0.0177799
864.520	0.0178809
864.598	0.0179554
864.676	0.0179138
864.754	0.0180871
864.832	0.0179637
864.910	0.0179920
864.988	0.0181084
865.067	0.0182029
865.145	0.0181117
865.223	0.0180260
865.301	0.0180773
865.379	0.0180555
865.457	0.0180409
865.535	0.0181615
865.613	0.0181644
865.692	0.0180310
865.770	0.0181065
865.848	0.0180523
865.926	0.0179794
866.004	0.0180798
866.082	0.0181232
866.160	0.0179424
866.238	0.0179049
866.317	0.0179910
866.395	0.0179699
866.473	0.0179878
866.551	0.0179530
866.629	0.0180357
866.707	0.0180697
866.785	0.0180134
866.863	0.0177930
866.942	0.0178458
867.020	0.0179171
867.098	0.0178390
867.176	0.0179070
867.254	0.0177819
867.332	0.0178869
867.410	0.0178896
867.488	0.0177663
867.567	0.0178776
867.645	0.0179069
867.723	0.0179335
867.801	0.0178387
867.879	0.0178355
867.957	0.0179958
868.035	0.0180706
868.113	0.0179094
868.192	0.0179386
868.270	0.0179688
868.348	0.0179483
868.426	0.0179707
868.504	0.0180052
868.582	0.0180173
868.660	0.0180306
868.738	0.0179055
868.817	0.0178638
868.895	0.0178833
868.973	0.0180931
869.051	0.0179256
869.129	0.0177699
869.207	0.0178590
869.285	0.0177296
869.363	0.0178644
869.442	0.0179343
869.520	0.0179359
869.598	0.0179780
869.676	0.0179837
869.754	0.0178851
869.832	0.0178143
869.910	0.0179793
869.988	0.0179353
870.067	0.0178315
870.145	0.0177068
870.223	0.0178309
870.301	0.0177686
870.379	0.0178513
870.457	0.0177269
870.535	0.0176657
870.613	0.0177560
870.692	0.0177028
870.770	0.0178066
870.848	0.0178861
870.926	0.0178229
871.004	0.0177493
871.082	0.0176861
871.160	0.0178437
871.238	0.0177332
871.317	0.0176701
871.395	0.0176697
871.473	0.0176931
871.551	0.0178109
871.629	0.0177233
871.707	0.0176883
871.785	0.0177242
871.863	0.0178265
871.942	0.0177455
872.020	0.0176363
872.098	0.0178059
872.176	0.0177383
872.254	0.0175338
872.332	0.0176068
872.410	0.0176823
872.488	0.0175934
872.567	0.0177629
872.645	0.0175914
872.723	0.0176649
872.801	0.0175966
872.879	0.0175988
872.957	0.0176574
873.035	0.0176961
873.113	0.0175335
873.192	0.0175597
873.270	0.0177425
873.348	0.0176794
873.426	0.0176376
873.504	0.0176807
873.582	0.0177505
873.660	0.0176975
873.738	0.0178273
873.817	0.0177239
873.895	0.0178282
873.973	0.0177238
874.051	0.0178075
874.129	0.0178780
874.207	0.0178977
874.285	0.0177373
874.363	0.0178007
874.442	0.0178058
874.520	0.0178722
874.598	0.0178823
874.676	0.0178460
874.754	0.0179883
874.832	0.0178810
874.910	0.0177665
874.988	0.0178071
875.067	0.0177715
875.145	0.0178919
875.223	0.0179987
875.301	0.0181041
875.379	0.0180276
875.457	0.0179726
875.535	0.0180157
875.613	0.0181506
875.692	0.0180421
875.770	0.0180735
875.848	0.0182173
875.926	0.0181560
876.004	0.0181138
876.082	0.0181448
876.160	0.0181744
876.238	0.0181651
876.317	0.0181663
876.395	0.0180430
876.473	0.0181505
876.551	0.0181558
876.629	0.0179587
876.707	0.0180396
876.785	0.0178930
876.863	0.0179669
876.942	0.0179851
877.020	0.0178756
877.098	0.0177904
877.176	0.0177889
877.254	0.0177743
877.332	0.0178905
877.410	0.0177898
877.488	0.0177280
877.567	0.0176886
877.645	0.0177118
877.723	0.0178571
877.801	0.0176931
877.879	0.0178547
877.957	0.0177451
878.035	0.0178231
878.113	0.0177006
878.192	0.0177170
878.270	0.0178902
878.348	0.0179121
878.426	0.0178412
878.504	0.0178130
878.582	0.0178513
878.660	0.0179683
878.738	0.0177722
878.817	0.0178291
878.895	0.0179622
878.973	0.0177837
879.051	0.0177699
879.129	0.0176599
879.207	0.0177112
879.285	0.0178083
879.363	0.0176772
879.442	0.0176393
879.520	0.0176710
879.598	0.0175829
879.676	0.0176878
879.754	0.0175723
879.832	0.0174601
879.910	0.0175457
879.988	0.0176200
880.067	0.0175406
880.145	0.0175878
880.223	0.0175839
880.301	0.0175916
880.379	0.0176456
880.457	0.0176282
880.535	0.0175797
880.613	0.0176142
880.692	0.0177417
880.770	0.0176602
880.848	0.0178203
880.926	0.0177491
881.004	0.0176900
881.082	0.0178256
881.160	0.0178122
881.238	0.0177687
881.317	0.0177193
881.395	0.0178479
881.473	0.0177001
881.551	0.0177112
881.629	0.0177657
881.707	0.0177489
881.785	0.0177155
881.863	0.0177142
881.942	0.0176971
882.020	0.0177311
882.098	0.0177898
882.176	0.0178156
882.254	0.0177975
882.332	0.0178995
882.410	0.0178647
882.488	0.0178626
882.567	0.0178541
882.645	0.0179224
882.723	0.0177554
882.801	0.0179835
882.879	0.0180016
882.957	0.0180132
883.035	0.0178616
883.113	0.0181032
883.192	0.0180360
883.270	0.0180448
883.348	0.0180494
883.426	0.0181107
883.504	0.0181229
883.582	0.0181154
883.660	0.0181151
883.738	0.0181840
883.817	0.0181771
883.895	0.0181115
883.973	0.0181135
884.051	0.0181373
884.129	0.0181062
884.207	0.0181770
884.285	0.0181841
884.363	0.0180926
884.442	0.0180413
884.520	0.0180204
884.598	0.0181391
884.676	0.0181187
884.754	0.0181168
884.832	0.0180329
884.910	0.0180870
884.988	0.0180476
885.067	0.0180303
885.145	0.0181847
885.223	0.0180692
885.301	0.0179737
885.379	0.0179734
885.457	0.0180020
885.535	0.0179921
885.613	0.0179588
885.692	0.0180882
885.770	0.0181305
885.848	0.0180138
885.926	0.0180067
886.004	0.0179780
886.082	0.0180051
886.160	0.0179004
886.238	0.0180755
886.317	0.0180055
886.395	0.0179308
886.473	0.0180184
886.551	0.0180424
886.629	0.0179823
886.707	0.0180306
886.785	0.0179791
886.863	0.0180125
886.942	0.0180766
887.020	0.0181741
887.098	0.0180049
887.176	0.0180636
887.254	0.0180518
887.332	0.0179507
887.410	0.0180566
887.488	0.0179631
887.567	0.0178992
887.645	0.0179121
887.723	0.0178247
887.801	0.0178519
887.879	0.0177732
887.957	0.0178567
888.035	0.0177890
888.113	0.0179448
888.192	0.0177866
888.270	0.0178848
888.348	0.0178072
888.426	0.0177657
888.504	0.0177204
888.582	0.0177570
888.660	0.0177837
888.738	0.0176875
888.817	0.0176324
888.895	0.0177143
888.973	0.0176244
889.051	0.0174985
889.129	0.0174520
889.207	0.0174240
889.285	0.0174925
889.363	0.0174632
889.442	0.0173962
889.520	0.0174817
889.598	0.0174905
889.676	0.0175988
889.754	0.0173832
889.832	0.0174005
889.910	0.0174239
889.988	0.0174764
890.067	0.0174610
890.145	0.0175095
890.223	0.0175503
890.301	0.0175394
890.379	0.0174754
890.457	0.0176572
890.535	0.0174094
890.613	0.0173156
890.692	0.0175410
890.770	0.0175704
890.848	0.0175552
890.926	0.0174976
891.004	0.0174519
891.082	0.0175122
891.160	0.0176062
891.238	0.0175004
891.317	0.0175507
891.395	0.0177650
891.473	0.0177393
891.551	0.0177022
891.629	0.0175653
891.707	0.0175908
891.785	0.0175648
891.863	0.0177116
891.942	0.0175011
892.020	0.0178323
892.098	0.0176225
892.176	0.0176060
892.254	0.0175774
892.332	0.0176500
892.410	0.0175505
892.488	0.0175542
892.567	0.0174645
892.645	0.0175435
892.723	0.0177208
892.801	0.0176243
892.879	0.0177236
892.957	0.0177839
893.035	0.0178245
893.113	0.0178903
893.192	0.0179017
893.270	0.0179175
893.348	0.0177882
893.426	0.0178003
893.504	0.0179312
893.582	0.0178810
893.660	0.0178529
893.738	0.0178607
893.817	0.0178867
893.895	0.0178241
893.973	0.0178271
894.051	0.0177970
894.129	0.0178947
894.207	0.0177477
894.285	0.0177981
894.363	0.0178102
894.442	0.0179056
894.520	0.0179758
894.598	0.0178831
894.676	0.0179773
894.754	0.0178982
894.832	0.0178608
894.910	0.0180532
894.988	0.0180029
895.067	0.0179411
895.145	0.0179808
895.223	0.0180947
895.301	0.0179153
895.379	0.0179189
895.457	0.0180562
895.535	0.0181057
895.613	0.0179829
895.692	0.0179796
895.770	0.0179202
895.848	0.0179794
895.926	0.0178909
896.004	0.0179941
896.082	0.0178565
896.160	0.0179256
896.238	0.0179363
896.317	0.0179981
896.395	0.0179437
896.473	0.0179956
896.551	0.0178663
896.629	0.0179815
896.707	0.0180173
896.785	0.0179871
896.863	0.0178518
896.942	0.0180215
897.020	0.0179667
897.098	0.0179633
897.176	0.0179245
897.254	0.0179403
897.332	0.0179865
897.410	0.0178381
897.488	0.0178725
897.567	0.0177908
897.645	0.0179198
897.723	0.0179669
897.801	0.0178465
897.879	0.0179422
897.957	0.0178013
898.035	0.0178252
898.113	0.0179009
898.192	0.0178632
898.270	0.0178481
898.348	0.0178983
898.426	0.0177815
898.504	0.0178349
898.582	0.0178281
898.660	0.0177422
898.738	0.0178675
898.817	0.0176254
898.895	0.0178934
898.973	0.0177206
899.051	0.0176842
899.129	0.0176576
899.207	0.0176436
899.285	0.0176818
899.363	0.0178605
899.442	0.0176409
899.520	0.0175904
899.598	0.0176306
899.676	0.0176681
899.754	0.0176548
899.832	0.0176673
899.910	0.0175788
899.988	0.0174535
900.067	0.0175385
900.145	0.0175851
900.223	0.0175550
900.301	0.0176089
900.379	0.0175188
900.457	0.0177047
900.535	0.0177184
900.613	0.0176815
900.692	0.0176553
900.770	0.0176069
900.848	0.0176428
900.926	0.0176971
901.004	0.0175607
901.082	0.0176316
901.160	0.0176308
901.238	0.0176882
901.317	0.0178086
901.395	0.0177319
901.473	0.0177663
901.551	0.0178182
901.629	0.0177757
901.707	0.0177257
901.785	0.0178688
901.863	0.0178218
901.942	0.0179385
902.020	0.0179562
902.098	0.0179704
902.176	0.0180035
902.254	0.0179968
902.332	0.0179771
902.410	0.0180202
902.488	0.0178718
902.567	0.0180913
902.645	0.0179576
902.723	0.0179961
902.801	0.0179300
902.879	0.0180945
902.957	0.0180679
903.035	0.0180627
903.113	0.0180474
903.192	0.0180286
903.270	0.0179336
903.348	0.0181271
903.426	0.0180396
903.504	0.0178905
903.582	0.0179778
903.660	0.0178116
903.738	0.0178784
903.817	0.0179808
903.895	0.0178699
903.973	0.0178259
904.051	0.0176474
904.129	0.0177279
904.207	0.0179126
904.285	0.0178832
904.363	0.0179372
904.442	0.0177013
904.520	0.0177328
904.598	0.0179615
904.676	0.0179409
904.754	0.0178198
904.832	0.0178906
904.910	0.0179880
904.988	0.0178524
905.067	0.0178172
905.145	0.0178362
905.223	0.0178877
905.301	0.0179745
905.379	0.0178478
905.457	0.0177920
905.535	0.0178344
905.613	0.0178068
905.692	0.0178110
905.770	0.0178073
905.848	0.0177725
905.926	0.0177798
906.004	0.0178310
906.082	0.0178723
906.160	0.0177161
906.238	0.0178404
906.317	0.0178657
906.395	0.0178267
906.473	0.0179547
906.551	0.0179057
906.629	0.0179191
906.707	0.0178519
906.785	0.0178249
906.863	0.0180292
906.942	0.0179122
907.020	0.0179131
907.098	0.0178995
907.176	0.0179121
907.254	0.0178633
907.332	0.0177692
907.410	0.0178974
907.488	0.0179729
907.567	0.0177720
907.645	0.0176923
907.723	0.0178598
907.801	0.0177260
907.879	0.0178703
907.957	0.0177795
908.035	0.0178455
908.113	0.0178648
908.192	0.0177133
908.270	0.0177682
908.348	0.0177437
908.426	0.0177654
908.504	0.0177650
908.582	0.0178659
908.660	0.0177927
908.738	0.0177522
908.817	0.0178008
908.895	0.0177739
908.973	0.0179127
909.051	0.0177871
909.129	0.0178268
909.207	0.0179733
909.285	0.0179139
909.363	0.0178345
909.442	0.0179627
909.520	0.0178252
909.598	0.0179476
909.676	0.0179987
909.754	0.0181625
909.832	0.0179685
909.910	0.0180585
909.988	0.0179671
910.067	0.0180696
910.145	0.0179699
910.223	0.0179636
910.301	0.0180797
910.379	0.0179689
910.457	0.0179362
910.535	0.0181117
910.613	0.0180229
910.692	0.0179943
910.770	0.0180223
910.848	0.0181113
910.926	0.0178806
911.004	0.0178490
911.082	0.0178819
911.160	0.0178846
911.238	0.0179332
911.317	0.0177543
911.395	0.0176656
911.473	0.0177805
911.551	0.0176647
911.629	0.0178436
911.707	0.0177530
911.785	0.0177820
911.863	0.0176757
911.942	0.0177247
912.020	0.0177792
912.098	0.0176910
912.176	0.0176888
912.254	0.0176687
912.332	0.0176283
912.410	0.0178468
912.488	0.0177672
912.567	0.0176661
912.645	0.0176419
912.723	0.0175542
912.801	0.0176550
912.879	0.0176169
912.957	0.0177422
913.035	0.0177943
913.113	0.0177860
913.192	0.0177529
913.270	0.0177687
913.348	0.0176989
913.426	0.0177079
913.504	0.0178532
913.582	0.0178665
913.660	0.0176620
913.738	0.0179098
913.817	0.0179715
913.895	0.0179487
913.973	0.0179765
914.051	0.0179559
914.129	0.0180795
914.207	0.0179485
914.285	0.0179904
914.363	0.0179990
914.442	0.0179540
914.520	0.0178930
914.598	0.0179874
914.676	0.0180966
914.754	0.0179726
914.832	0.0179475
914.910	0.0180933
914.988	0.0179271
915.067	0.0180502
915.145	0.0180711
915.223	0.0178642
915.301	0.0179340
915.379	0.0179494
915.457	0.0179818
915.535	0.0178709
915.613	0.0179334
915.692	0.0179512
915.770	0.0179360
915.848	0.0180075
915.926	0.0179600
916.004	0.0181126
916.082	0.0179465
916.160	0.0180143
916.238	0.0180853
916.317	0.0181512
916.395	0.0181120
916.473	0.0180822
916.551	0.0180597
916.629	0.0181547
916.707	0.0180512
916.785	0.0180834
916.863	0.0181039
916.942	0.0180940
917.020	0.0181296
917.098	0.0179872
917.176	0.0178487
917.254	0.0180378
917.332	0.0181237
917.410	0.0180772
917.488	0.0179224
917.567	0.0179362
917.645	0.0178664
917.723	0.0178436
917.801	0.0179115
917.879	0.0177759
917.957	0.0178679
918.035	0.0177685
918.113	0.0178515
918.192	0.0177163
918.270	0.0178483
918.348	0.0177412
918.426	0.0177517
918.504	0.0177774
918.582	0.0178847
918.660	0.0177784
918.738	0.0177426
918.817	0.0177264
918.895	0.0177126
918.973	0.0177036
919.051	0.0176610
919.129	0.0176129
919.207	0.0176164
919.285	0.0176171
919.363	0.0175871
919.442	0.0175929
919.520	0.0174786
919.598	0.0176979
919.676	0.0174079
919.754	0.0173989
919.832	0.0174947
919.910	0.0172572
