06/01/2022	22:17:04	Ver.	4.1	UNKNOWN
Optical Delay	599.988409	Delta X		0.078125	Sweeps	1	Scan Rate	0/0
Coordinates	Axis 1	NaN	Axis 2	NaN	Axis 3	NaN	Axis 4	NaN	Axis 5	NaN	Axis 6	0.000000
TX Power	0.000000	RX Power	0.000000

599.988	0.0178538
600.067	0.0174100
600.145	0.0173318
600.223	0.0174050
600.301	0.0174084
600.379	0.0174722
600.457	0.0174682
600.535	0.0174349
600.613	0.0174403
600.692	0.0173400
600.770	0.0173369
600.848	0.0173982
600.926	0.0173772
601.004	0.0174153
601.082	0.0175082
601.160	0.0175375
601.238	0.0175172
601.317	0.0176388
601.395	0.0175084
601.473	0.0176871
601.551	0.0175980
601.629	0.0176023
601.707	0.0175542
601.785	0.0177200
601.863	0.0176390
601.942	0.0175874
602.020	0.0176741
602.098	0.0175967
602.176	0.0175410
602.254	0.0176445
602.332	0.0176120
602.410	0.0176479
602.488	0.0177467
602.567	0.0175320
602.645	0.0176713
602.723	0.0178014
602.801	0.0177026
602.879	0.0176460
602.957	0.0178433
603.035	0.0178669
603.113	0.0178928
603.192	0.0177720
603.270	0.0178946
603.348	0.0179610
603.426	0.0179709
603.504	0.0179925
603.582	0.0178811
603.660	0.0177743
603.738	0.0178678
603.817	0.0181021
603.895	0.0178778
603.973	0.0179730
604.051	0.0179060
604.129	0.0177903
604.207	0.0178334
604.285	0.0179825
604.363	0.0179127
604.442	0.0178065
604.520	0.0179123
604.598	0.0179648
604.676	0.0178161
604.754	0.0179770
604.832	0.0177699
604.910	0.0177699
604.988	0.0176701
605.067	0.0177614
605.145	0.0177831
605.223	0.0176704
605.301	0.0178272
605.379	0.0176292
605.457	0.0175941
605.535	0.0177244
605.613	0.0176319
605.692	0.0176160
605.770	0.0177045
605.848	0.0176936
605.926	0.0175878
606.004	0.0175540
606.082	0.0177173
606.160	0.0175088
606.238	0.0175535
606.317	0.0176466
606.395	0.0174726
606.473	0.0175464
606.551	0.0175919
606.629	0.0176474
606.707	0.0175424
606.785	0.0175777
606.863	0.0175529
606.942	0.0174643
607.020	0.0174921
607.098	0.0175462
607.176	0.0175748
607.254	0.0177425
607.332	0.0177516
607.410	0.0177428
607.488	0.0177055
607.567	0.0177138
607.645	0.0176939
607.723	0.0177271
607.801	0.0177725
607.879	0.0177582
607.957	0.0177450
608.035	0.0178645
608.113	0.0178023
608.192	0.0178876
608.270	0.0177569
608.348	0.0177628
608.426	0.0177587
608.504	0.0177824
608.582	0.0178641
608.660	0.0178716
608.738	0.0176384
608.817	0.0177972
608.895	0.0178240
608.973	0.0178642
609.051	0.0177687
609.129	0.0178647
609.207	0.0178338
609.285	0.0179148
609.363	0.0178584
609.442	0.0178562
609.520	0.0178577
609.598	0.0179039
609.676	0.0179889
609.754	0.0179645
609.832	0.0179948
609.910	0.0179259
609.988	0.0179804
610.067	0.0181762
610.145	0.0179795
610.223	0.0180312
610.301	0.0180560
610.379	0.0181792
610.457	0.0181255
610.535	0.0179516
610.613	0.0181717
610.692	0.0180937
610.770	0.0181882
610.848	0.0181969
610.926	0.0180955
611.004	0.0182831
611.082	0.0181263
611.160	0.0183219
611.238	0.0180088
611.317	0.0181493
611.395	0.0180653
611.473	0.0180505
611.551	0.0181012
611.629	0.0179610
611.707	0.0180029
611.785	0.0180533
611.863	0.0179993
611.942	0.0180413
612.020	0.0180333
612.098	0.0179339
612.176	0.0179900
612.254	0.0178314
612.332	0.0179372
612.410	0.0180546
612.488	0.0177376
612.567	0.0179572
612.645	0.0178539
612.723	0.0179251
612.801	0.0178420
612.879	0.0179919
612.957	0.0178587
613.035	0.0180867
613.113	0.0181016
613.192	0.0178905
613.270	0.0180515
613.348	0.0180443
613.426	0.0181323
613.504	0.0180318
613.582	0.0181503
613.660	0.0183260
613.738	0.0181480
613.817	0.0180182
613.895	0.0181413
613.973	0.0182435
614.051	0.0182077
614.129	0.0182314
614.207	0.0180341
614.285	0.0180618
614.363	0.0181099
614.442	0.0180959
614.520	0.0181889
614.598	0.0180116
614.676	0.0181419
614.754	0.0180392
614.832	0.0180927
614.910	0.0179848
614.988	0.0180951
615.067	0.0180663
615.145	0.0180435
615.223	0.0181200
615.301	0.0180952
615.379	0.0181280
615.457	0.0180831
615.535	0.0181422
615.613	0.0180647
615.692	0.0180043
615.770	0.0180652
615.848	0.0179699
615.926	0.0180080
616.004	0.0180198
616.082	0.0180434
616.160	0.0180305
616.238	0.0180508
616.317	0.0180127
616.395	0.0179791
616.473	0.0179322
616.551	0.0180641
616.629	0.0181239
616.707	0.0180468
616.785	0.0179539
616.863	0.0180184
616.942	0.0180302
617.020	0.0180876
617.098	0.0178719
617.176	0.0179460
617.254	0.0180001
617.332	0.0179424
617.410	0.0178430
617.488	0.0178327
617.567	0.0178716
617.645	0.0179479
617.723	0.0179250
617.801	0.0179837
617.879	0.0179018
617.957	0.0179193
618.035	0.0178593
618.113	0.0179503
618.192	0.0180817
618.270	0.0179902
618.348	0.0180677
618.426	0.0180627
618.504	0.0179924
618.582	0.0181167
618.660	0.0179323
618.738	0.0181056
618.817	0.0180510
618.895	0.0180743
618.973	0.0179955
619.051	0.0179208
619.129	0.0180776
619.207	0.0180865
619.285	0.0180150
619.363	0.0180888
619.442	0.0181542
619.520	0.0182707
619.598	0.0182269
619.676	0.0181736
619.754	0.0183474
619.832	0.0181839
619.910	0.0182388
619.988	0.0184618
620.067	0.0184948
620.145	0.0183397
620.223	0.0183801
620.301	0.0182987
620.379	0.0182961
620.457	0.0185088
620.535	0.0181648
620.613	0.0182442
620.692	0.0182900
620.770	0.0181115
620.848	0.0181399
620.926	0.0182511
621.004	0.0181177
621.082	0.0179553
621.160	0.0180056
621.238	0.0181219
621.317	0.0180112
621.395	0.0180424
621.473	0.0179399
621.551	0.0179192
621.629	0.0180495
621.707	0.0179822
621.785	0.0179637
621.863	0.0179935
621.942	0.0180569
622.020	0.0179397
622.098	0.0180904
622.176	0.0179722
622.254	0.0180794
622.332	0.0181652
622.410	0.0181155
622.488	0.0180164
622.567	0.0179826
622.645	0.0180614
622.723	0.0179474
622.801	0.0179275
622.879	0.0180959
622.957	0.0178413
623.035	0.0178022
623.113	0.0178896
623.192	0.0176477
623.270	0.0177503
623.348	0.0175764
623.426	0.0174947
623.504	0.0175249
623.582	0.0173797
623.660	0.0173703
623.738	0.0173933
623.817	0.0174326
623.895	0.0174374
623.973	0.0174404
624.051	0.0174474
624.129	0.0173834
624.207	0.0173132
624.285	0.0172837
624.363	0.0173318
624.442	0.0173396
624.520	0.0173641
624.598	0.0173758
624.676	0.0173641
624.754	0.0173540
624.832	0.0174728
624.910	0.0173763
624.988	0.0174393
625.067	0.0175045
625.145	0.0175724
625.223	0.0176492
625.301	0.0176187
625.379	0.0177257
625.457	0.0177006
625.535	0.0176224
625.613	0.0178152
625.692	0.0177669
625.770	0.0177943
625.848	0.0179549
625.926	0.0177769
626.004	0.0179213
626.082	0.0179040
626.160	0.0179379
626.238	0.0179775
626.317	0.0179271
626.395	0.0180614
626.473	0.0182053
626.551	0.0180281
626.629	0.0181851
626.707	0.0182017
626.785	0.0181927
626.863	0.0181000
626.942	0.0181915
627.020	0.0181851
627.098	0.0181933
627.176	0.0182880
627.254	0.0181268
627.332	0.0181371
627.410	0.0182675
627.488	0.0182851
627.567	0.0182169
627.645	0.0182598
627.723	0.0183175
627.801	0.0181720
627.879	0.0183105
627.957	0.0182079
628.035	0.0180556
628.113	0.0181091
628.192	0.0181107
628.270	0.0180605
628.348	0.0179790
628.426	0.0180865
628.504	0.0180171
628.582	0.0179430
628.660	0.0179657
628.738	0.0179517
628.817	0.0179254
628.895	0.0178477
628.973	0.0179107
629.051	0.0178562
629.129	0.0178625
629.207	0.0179749
629.285	0.0178652
629.363	0.0181149
629.442	0.0180020
629.520	0.0179343
629.598	0.0180253
629.676	0.0180285
629.754	0.0180347
629.832	0.0179903
629.910	0.0180110
629.988	0.0180106
630.067	0.0181593
630.145	0.0180737
630.223	0.0181018
630.301	0.0183203
630.379	0.0183164
630.457	0.0181371
630.535	0.0181369
630.613	0.0182561
630.692	0.0181245
630.770	0.0182111
630.848	0.0181886
630.926	0.0182265
631.004	0.0180648
631.082	0.0180669
631.160	0.0180421
631.238	0.0179967
631.317	0.0179227
631.395	0.0178230
631.473	0.0178406
631.551	0.0180077
631.629	0.0179063
631.707	0.0177795
631.785	0.0177934
631.863	0.0178338
631.942	0.0177249
632.020	0.0177158
632.098	0.0178177
632.176	0.0179076
632.254	0.0178989
632.332	0.0178810
632.410	0.0179162
632.488	0.0175795
632.567	0.0178689
632.645	0.0177934
632.723	0.0178950
632.801	0.0177210
632.879	0.0179150
632.957	0.0177955
633.035	0.0177779
633.113	0.0177727
633.192	0.0179187
633.270	0.0177782
633.348	0.0178834
633.426	0.0178545
633.504	0.0177200
633.582	0.0177008
633.660	0.0177760
633.738	0.0179206
633.817	0.0178241
633.895	0.0178268
633.973	0.0177000
634.051	0.0177238
634.129	0.0176837
634.207	0.0177328
634.285	0.0177260
634.363	0.0176766
634.442	0.0176403
634.520	0.0177515
634.598	0.0175675
634.676	0.0177583
634.754	0.0177502
634.832	0.0177956
634.910	0.0176744
634.988	0.0178118
635.067	0.0178474
635.145	0.0177252
635.223	0.0178650
635.301	0.0176923
635.379	0.0176708
635.457	0.0176592
635.535	0.0175419
635.613	0.0176987
635.692	0.0176391
635.770	0.0176599
635.848	0.0177599
635.926	0.0177102
636.004	0.0177309
636.082	0.0176889
636.160	0.0178343
636.238	0.0178695
636.317	0.0176863
636.395	0.0178467
636.473	0.0179305
636.551	0.0178624
636.629	0.0178426
636.707	0.0178164
636.785	0.0177849
636.863	0.0177312
636.942	0.0177436
637.020	0.0178725
637.098	0.0177618
637.176	0.0177969
637.254	0.0178339
637.332	0.0178773
637.410	0.0177946
637.488	0.0179056
637.567	0.0178944
637.645	0.0178920
637.723	0.0177621
637.801	0.0178027
637.879	0.0179215
637.957	0.0180013
638.035	0.0179490
638.113	0.0178905
638.192	0.0179284
638.270	0.0179220
638.348	0.0181526
638.426	0.0181801
638.504	0.0179826
638.582	0.0180183
638.660	0.0181013
638.738	0.0180779
638.817	0.0181200
638.895	0.0180947
638.973	0.0180034
639.051	0.0178236
639.129	0.0181248
639.207	0.0181589
639.285	0.0180148
639.363	0.0179844
639.442	0.0179875
639.520	0.0179380
639.598	0.0179032
639.676	0.0179716
639.754	0.0180822
639.832	0.0179046
639.910	0.0179215
639.988	0.0179082
640.067	0.0179611
640.145	0.0178257
640.223	0.0177781
640.301	0.0178171
640.379	0.0178882
640.457	0.0177335
640.535	0.0177484
640.613	0.0178047
640.692	0.0177894
640.770	0.0177479
640.848	0.0178896
640.926	0.0178145
641.004	0.0178014
641.082	0.0178736
641.160	0.0179001
641.238	0.0179087
641.317	0.0179585
641.395	0.0179134
641.473	0.0179562
641.551	0.0179685
641.629	0.0178275
641.707	0.0179356
641.785	0.0179608
641.863	0.0178340
641.942	0.0179716
642.020	0.0178918
642.098	0.0178520
642.176	0.0178471
642.254	0.0177988
642.332	0.0177972
642.410	0.0178600
642.488	0.0178477
642.567	0.0178091
642.645	0.0178705
642.723	0.0177927
642.801	0.0178400
642.879	0.0177110
642.957	0.0178094
643.035	0.0178787
643.113	0.0177517
643.192	0.0178203
643.270	0.0178366
643.348	0.0178726
643.426	0.0180327
643.504	0.0180827
643.582	0.0181042
643.660	0.0181539
643.738	0.0182004
643.817	0.0182320
643.895	0.0184032
643.973	0.0182811
644.051	0.0182881
644.129	0.0183602
644.207	0.0182639
644.285	0.0181552
644.363	0.0181371
644.442	0.0179300
644.520	0.0179754
644.598	0.0176730
644.676	0.0175221
644.754	0.0174663
644.832	0.0175369
644.910	0.0173663
644.988	0.0175130
645.067	0.0175342
645.145	0.0175771
645.223	0.0175362
645.301	0.0175546
645.379	0.0177316
645.457	0.0176640
645.535	0.0176727
645.613	0.0176949
645.692	0.0176865
645.770	0.0177759
645.848	0.0178113
645.926	0.0176815
646.004	0.0175764
646.082	0.0176667
646.160	0.0176104
646.238	0.0175920
646.317	0.0175269
646.395	0.0175193
646.473	0.0174379
646.551	0.0174384
646.629	0.0174364
646.707	0.0173457
646.785	0.0175441
646.863	0.0174067
646.942	0.0173817
647.020	0.0175134
647.098	0.0175990
647.176	0.0177782
647.254	0.0177013
647.332	0.0177486
647.410	0.0178153
647.488	0.0178751
647.567	0.0178368
647.645	0.0179679
647.723	0.0180167
647.801	0.0179711
647.879	0.0179858
647.957	0.0181274
648.035	0.0182159
648.113	0.0182307
648.192	0.0182005
648.270	0.0182566
648.348	0.0182129
648.426	0.0182294
648.504	0.0183179
648.582	0.0182317
648.660	0.0182936
648.738	0.0182001
648.817	0.0182890
648.895	0.0183302
648.973	0.0182196
649.051	0.0181397
649.129	0.0182890
649.207	0.0184016
649.285	0.0182848
649.363	0.0181839
649.442	0.0181383
649.520	0.0181442
649.598	0.0182220
649.676	0.0181721
649.754	0.0180416
649.832	0.0180760
649.910	0.0181613
649.988	0.0179868
650.067	0.0180875
650.145	0.0180791
650.223	0.0179787
650.301	0.0179400
650.379	0.0179670
650.457	0.0179628
650.535	0.0177910
650.613	0.0178536
650.692	0.0179294
650.770	0.0179153
650.848	0.0177132
650.926	0.0177733
651.004	0.0178023
651.082	0.0177960
651.160	0.0177902
651.238	0.0177479
651.317	0.0177245
651.395	0.0178407
651.473	0.0178167
651.551	0.0178091
651.629	0.0177085
651.707	0.0177172
651.785	0.0177018
651.863	0.0178173
651.942	0.0178308
652.020	0.0178345
652.098	0.0178687
652.176	0.0178983
652.254	0.0179030
652.332	0.0177943
652.410	0.0179395
652.488	0.0178824
652.567	0.0178608
652.645	0.0178821
652.723	0.0179101
652.801	0.0178922
652.879	0.0179166
652.957	0.0178215
653.035	0.0178345
653.113	0.0178430
653.192	0.0179218
653.270	0.0179043
653.348	0.0181003
653.426	0.0179289
653.504	0.0180084
653.582	0.0179240
653.660	0.0180135
653.738	0.0178177
653.817	0.0177738
653.895	0.0179621
653.973	0.0178314
654.051	0.0179021
654.129	0.0178061
654.207	0.0179639
654.285	0.0179313
654.363	0.0177088
654.442	0.0179617
654.520	0.0177563
654.598	0.0177500
654.676	0.0178441
654.754	0.0178925
654.832	0.0179270
654.910	0.0180637
654.988	0.0180051
655.067	0.0179185
655.145	0.0180401
655.223	0.0181686
655.301	0.0181118
655.379	0.0182436
655.457	0.0181338
655.535	0.0181606
655.613	0.0182738
655.692	0.0181315
655.770	0.0179962
655.848	0.0180360
655.926	0.0179546
656.004	0.0178730
656.082	0.0179166
656.160	0.0179686
656.238	0.0176771
656.317	0.0177485
656.395	0.0178440
656.473	0.0178094
656.551	0.0178127
656.629	0.0177509
656.707	0.0178337
656.785	0.0177859
656.863	0.0177602
656.942	0.0177372
657.020	0.0177470
657.098	0.0177170
657.176	0.0176575
657.254	0.0177376
657.332	0.0177555
657.410	0.0177703
657.488	0.0177119
657.567	0.0177006
657.645	0.0177422
657.723	0.0176868
657.801	0.0176022
657.879	0.0176589
657.957	0.0177251
658.035	0.0174843
658.113	0.0176257
658.192	0.0176415
658.270	0.0176043
658.348	0.0176680
658.426	0.0177692
658.504	0.0176970
658.582	0.0175217
658.660	0.0176736
658.738	0.0177111
658.817	0.0178809
658.895	0.0178681
658.973	0.0176749
659.051	0.0179060
659.129	0.0178658
659.207	0.0179018
659.285	0.0179741
659.363	0.0180094
659.442	0.0178973
659.520	0.0178437
659.598	0.0180030
659.676	0.0180928
659.754	0.0179055
659.832	0.0180588
659.910	0.0179597
659.988	0.0179482
660.067	0.0179767
660.145	0.0179073
660.223	0.0177554
660.301	0.0176685
660.379	0.0178111
660.457	0.0177348
660.535	0.0177057
660.613	0.0177875
660.692	0.0175876
660.770	0.0177647
660.848	0.0177344
660.926	0.0178603
661.004	0.0177232
661.082	0.0178498
661.160	0.0178384
661.238	0.0179248
661.317	0.0178159
661.395	0.0178967
661.473	0.0179670
661.551	0.0179378
661.629	0.0179827
661.707	0.0179879
661.785	0.0179062
661.863	0.0179449
661.942	0.0180419
662.020	0.0178608
662.098	0.0179013
662.176	0.0178406
662.254	0.0178597
662.332	0.0179034
662.410	0.0177987
662.488	0.0178684
662.567	0.0177563
662.645	0.0178254
662.723	0.0179324
662.801	0.0178232
662.879	0.0178246
662.957	0.0178183
663.035	0.0178018
663.113	0.0178289
663.192	0.0178773
663.270	0.0178204
663.348	0.0177511
663.426	0.0177692
663.504	0.0175948
663.582	0.0177164
663.660	0.0176520
663.738	0.0177744
663.817	0.0178473
663.895	0.0175575
663.973	0.0176494
664.051	0.0177407
664.129	0.0177206
664.207	0.0176404
664.285	0.0176152
664.363	0.0175957
664.442	0.0176939
664.520	0.0177782
664.598	0.0175752
664.676	0.0176398
664.754	0.0176991
664.832	0.0177774
664.910	0.0177273
664.988	0.0176794
665.067	0.0178204
665.145	0.0178507
665.223	0.0178889
665.301	0.0177663
665.379	0.0177453
665.457	0.0178262
665.535	0.0177707
665.613	0.0176369
665.692	0.0178593
665.770	0.0178230
665.848	0.0177783
665.926	0.0176347
666.004	0.0176949
666.082	0.0177752
666.160	0.0177260
666.238	0.0177513
666.317	0.0178097
666.395	0.0178214
666.473	0.0177813
666.551	0.0178186
666.629	0.0177975
666.707	0.0178192
666.785	0.0177704
666.863	0.0177803
666.942	0.0178204
667.020	0.0178735
667.098	0.0176650
667.176	0.0177168
667.254	0.0178550
667.332	0.0179673
667.410	0.0178690
667.488	0.0179498
667.567	0.0179085
667.645	0.0178731
667.723	0.0178609
667.801	0.0179362
667.879	0.0179697
667.957	0.0180327
668.035	0.0178815
668.113	0.0178472
668.192	0.0181211
668.270	0.0180628
668.348	0.0180168
668.426	0.0179362
668.504	0.0179366
668.582	0.0180286
668.660	0.0180681
668.738	0.0179498
668.817	0.0179136
668.895	0.0179378
668.973	0.0177077
669.051	0.0178004
669.129	0.0178525
669.207	0.0179182
669.285	0.0178713
669.363	0.0179591
669.442	0.0179065
669.520	0.0179662
669.598	0.0179312
669.676	0.0179198
669.754	0.0177431
669.832	0.0177534
669.910	0.0178535
669.988	0.0179395
670.067	0.0179369
670.145	0.0178680
670.223	0.0179636
670.301	0.0177324
670.379	0.0178967
670.457	0.0179631
670.535	0.0178915
670.613	0.0180713
670.692	0.0180010
670.770	0.0179267
670.848	0.0179272
670.926	0.0181145
671.004	0.0179788
671.082	0.0179588
671.160	0.0180939
671.238	0.0181008
671.317	0.0180126
671.395	0.0180927
671.473	0.0180087
671.551	0.0180764
671.629	0.0180475
671.707	0.0180041
671.785	0.0179924
671.863	0.0180619
671.942	0.0180030
672.020	0.0180878
672.098	0.0178911
672.176	0.0181064
672.254	0.0180642
672.332	0.0180241
672.410	0.0179175
672.488	0.0178614
672.567	0.0180292
672.645	0.0180007
672.723	0.0178940
672.801	0.0179441
672.879	0.0179752
672.957	0.0180259
673.035	0.0179443
673.113	0.0179189
673.192	0.0179996
673.270	0.0180376
673.348	0.0179776
673.426	0.0179418
673.504	0.0180247
673.582	0.0178481
673.660	0.0179822
673.738	0.0179406
673.817	0.0179211
673.895	0.0178878
673.973	0.0178506
674.051	0.0178887
674.129	0.0178802
674.207	0.0180550
674.285	0.0179050
674.363	0.0178722
674.442	0.0178746
674.520	0.0179324
674.598	0.0177469
674.676	0.0177406
674.754	0.0177665
674.832	0.0179026
674.910	0.0176521
674.988	0.0176882
675.067	0.0177158
675.145	0.0177164
675.223	0.0176070
675.301	0.0176324
675.379	0.0176134
675.457	0.0175264
675.535	0.0176135
675.613	0.0175215
675.692	0.0175593
675.770	0.0176218
675.848	0.0177152
675.926	0.0176675
676.004	0.0178395
676.082	0.0176229
676.160	0.0176105
676.238	0.0178960
676.317	0.0177283
676.395	0.0176363
676.473	0.0177335
676.551	0.0179680
676.629	0.0179919
676.707	0.0177891
676.785	0.0178386
676.863	0.0178792
676.942	0.0177589
677.020	0.0176088
677.098	0.0178645
677.176	0.0177692
677.254	0.0176990
677.332	0.0177175
677.410	0.0177989
677.488	0.0177091
677.567	0.0175611
677.645	0.0177123
677.723	0.0177669
677.801	0.0177493
677.879	0.0177174
677.957	0.0178290
678.035	0.0178095
678.113	0.0177690
678.192	0.0178761
678.270	0.0179147
678.348	0.0179301
678.426	0.0180583
678.504	0.0179414
678.582	0.0178783
678.660	0.0178629
678.738	0.0178802
678.817	0.0179168
678.895	0.0178583
678.973	0.0178289
679.051	0.0178164
679.129	0.0179173
679.207	0.0179788
679.285	0.0177413
679.363	0.0177455
679.442	0.0180717
679.520	0.0181179
679.598	0.0179735
679.676	0.0179601
679.754	0.0180186
679.832	0.0179305
679.910	0.0178773
679.988	0.0179937
680.067	0.0179807
680.145	0.0179869
680.223	0.0181242
680.301	0.0180327
680.379	0.0178780
680.457	0.0178898
680.535	0.0179286
680.613	0.0179070
680.692	0.0179278
680.770	0.0178882
680.848	0.0179457
680.926	0.0179764
681.004	0.0179530
681.082	0.0179293
681.160	0.0179520
681.238	0.0178622
681.317	0.0178572
681.395	0.0178915
681.473	0.0179442
681.551	0.0178750
681.629	0.0178500
681.707	0.0180087
681.785	0.0179837
681.863	0.0180558
681.942	0.0180163
682.020	0.0180092
682.098	0.0180338
682.176	0.0179676
682.254	0.0180423
682.332	0.0178909
682.410	0.0181419
682.488	0.0180917
682.567	0.0180178
682.645	0.0179500
682.723	0.0180959
682.801	0.0180444
682.879	0.0179288
682.957	0.0179620
683.035	0.0179392
683.113	0.0180789
683.192	0.0178986
683.270	0.0178524
683.348	0.0179545
683.426	0.0179124
683.504	0.0178989
683.582	0.0179315
683.660	0.0180665
683.738	0.0181134
683.817	0.0180550
683.895	0.0179524
683.973	0.0179695
684.051	0.0180074
684.129	0.0180138
684.207	0.0179533
684.285	0.0178481
684.363	0.0179247
684.442	0.0179522
684.520	0.0178703
684.598	0.0179535
684.676	0.0177615
684.754	0.0178825
684.832	0.0179630
684.910	0.0178654
684.988	0.0178687
685.067	0.0178624
685.145	0.0178540
685.223	0.0179942
685.301	0.0180988
685.379	0.0180876
685.457	0.0181176
685.535	0.0179478
685.613	0.0181511
685.692	0.0181220
685.770	0.0181606
685.848	0.0179832
685.926	0.0181306
686.004	0.0180430
686.082	0.0181085
686.160	0.0178975
686.238	0.0180812
686.317	0.0180662
686.395	0.0179384
686.473	0.0179758
686.551	0.0179765
686.629	0.0178299
686.707	0.0177556
686.785	0.0179491
686.863	0.0179813
686.942	0.0179396
687.020	0.0180060
687.098	0.0180510
687.176	0.0179918
687.254	0.0178948
687.332	0.0177391
687.410	0.0177603
687.488	0.0178576
687.567	0.0178036
687.645	0.0177654
687.723	0.0176944
687.801	0.0175786
687.879	0.0177105
687.957	0.0177335
688.035	0.0177825
688.113	0.0177279
688.192	0.0177074
688.270	0.0178223
688.348	0.0176975
688.426	0.0177170
688.504	0.0177515
688.582	0.0177428
688.660	0.0176743
688.738	0.0176727
688.817	0.0175835
688.895	0.0177224
688.973	0.0174725
689.051	0.0175568
689.129	0.0177757
689.207	0.0176776
689.285	0.0177359
689.363	0.0177563
689.442	0.0178860
689.520	0.0178349
689.598	0.0179248
689.676	0.0178728
689.754	0.0178398
689.832	0.0178496
689.910	0.0178764
689.988	0.0179786
690.067	0.0177650
690.145	0.0179550
690.223	0.0177265
690.301	0.0177893
690.379	0.0178475
690.457	0.0178833
690.535	0.0176692
690.613	0.0177550
690.692	0.0175967
690.770	0.0177431
690.848	0.0176866
690.926	0.0178024
691.004	0.0177741
691.082	0.0177225
691.160	0.0177846
691.238	0.0179432
691.317	0.0178216
691.395	0.0177496
691.473	0.0177497
691.551	0.0178250
691.629	0.0178686
691.707	0.0178233
691.785	0.0178389
691.863	0.0179075
691.942	0.0177760
692.020	0.0178425
692.098	0.0179086
692.176	0.0178320
692.254	0.0179109
692.332	0.0178300
692.410	0.0179854
692.488	0.0178861
692.567	0.0178710
692.645	0.0179249
692.723	0.0180482
692.801	0.0179890
692.879	0.0179524
692.957	0.0179031
693.035	0.0180321
693.113	0.0179159
693.192	0.0179057
693.270	0.0180190
693.348	0.0178428
693.426	0.0177631
693.504	0.0177359
693.582	0.0177752
693.660	0.0177110
693.738	0.0177951
693.817	0.0176909
693.895	0.0176268
693.973	0.0177406
694.051	0.0177322
694.129	0.0177511
694.207	0.0177236
694.285	0.0177307
694.363	0.0176453
694.442	0.0178796
694.520	0.0177531
694.598	0.0180617
694.676	0.0180046
694.754	0.0181136
694.832	0.0182998
694.910	0.0182227
694.988	0.0180103
695.067	0.0179591
695.145	0.0181332
695.223	0.0180890
695.301	0.0182972
695.379	0.0182527
695.457	0.0182468
695.535	0.0180910
695.613	0.0182600
695.692	0.0180976
695.770	0.0181434
695.848	0.0180451
695.926	0.0181379
696.004	0.0180295
696.082	0.0181710
696.160	0.0182220
696.238	0.0181799
696.317	0.0184345
696.395	0.0184460
696.473	0.0183768
696.551	0.0185544
696.629	0.0184890
696.707	0.0184366
696.785	0.0185117
696.863	0.0185264
696.942	0.0186572
697.020	0.0185683
697.098	0.0183836
697.176	0.0186224
697.254	0.0184841
697.332	0.0183347
697.410	0.0184389
697.488	0.0183915
697.567	0.0183421
697.645	0.0183241
697.723	0.0183318
697.801	0.0181826
697.879	0.0181256
697.957	0.0180737
698.035	0.0180908
698.113	0.0179763
698.192	0.0177835
698.270	0.0177237
698.348	0.0177428
698.426	0.0176572
698.504	0.0176115
698.582	0.0176646
698.660	0.0175334
698.738	0.0176785
698.817	0.0175820
698.895	0.0175352
698.973	0.0175972
699.051	0.0176416
699.129	0.0177216
699.207	0.0177159
699.285	0.0176676
699.363	0.0178815
699.442	0.0179249
699.520	0.0179372
699.598	0.0179145
699.676	0.0178472
699.754	0.0179860
699.832	0.0180283
699.910	0.0179613
699.988	0.0180260
700.067	0.0180155
700.145	0.0179607
700.223	0.0180360
700.301	0.0179359
700.379	0.0180665
700.457	0.0182172
700.535	0.0181005
700.613	0.0182195
700.692	0.0180251
700.770	0.0181379
700.848	0.0182071
700.926	0.0180837
701.004	0.0182153
701.082	0.0181638
701.160	0.0182436
701.238	0.0182698
701.317	0.0181758
701.395	0.0180952
701.473	0.0181956
701.551	0.0181915
701.629	0.0182166
701.707	0.0181316
701.785	0.0178580
701.863	0.0180720
701.942	0.0179708
702.020	0.0177400
702.098	0.0178129
702.176	0.0178145
702.254	0.0178107
702.332	0.0178698
702.410	0.0176252
702.488	0.0176539
702.567	0.0175439
702.645	0.0176732
702.723	0.0176177
702.801	0.0175095
702.879	0.0175385
702.957	0.0175245
703.035	0.0176906
703.113	0.0176744
703.192	0.0175712
703.270	0.0175330
703.348	0.0176594
703.426	0.0176777
703.504	0.0176057
703.582	0.0177525
703.660	0.0178966
703.738	0.0177599
703.817	0.0178314
703.895	0.0177833
703.973	0.0179269
704.051	0.0179893
704.129	0.0179857
704.207	0.0179709
704.285	0.0179908
704.363	0.0179743
704.442	0.0180112
704.520	0.0180914
704.598	0.0181048
704.676	0.0182834
704.754	0.0182455
704.832	0.0182371
704.910	0.0182283
704.988	0.0183098
705.067	0.0182087
705.145	0.0182263
705.223	0.0186190
705.301	0.0185583
705.379	0.0184123
705.457	0.0184503
705.535	0.0185642
705.613	0.0185632
705.692	0.0185902
705.770	0.0187016
705.848	0.0186317
705.926	0.0185414
706.004	0.0184315
706.082	0.0185730
706.160	0.0184282
706.238	0.0183379
706.317	0.0184200
706.395	0.0183240
706.473	0.0182438
706.551	0.0182185
706.629	0.0181512
706.707	0.0181536
706.785	0.0180050
706.863	0.0179398
706.942	0.0179811
707.020	0.0178150
707.098	0.0178535
707.176	0.0178397
707.254	0.0177780
707.332	0.0176649
707.410	0.0177287
707.488	0.0176599
707.567	0.0177254
707.645	0.0177412
707.723	0.0176558
707.801	0.0175821
707.879	0.0177594
707.957	0.0175975
708.035	0.0175602
708.113	0.0177025
708.192	0.0176337
708.270	0.0178052
708.348	0.0176102
708.426	0.0175920
708.504	0.0176369
708.582	0.0174995
708.660	0.0175533
708.738	0.0177262
708.817	0.0174819
708.895	0.0175155
708.973	0.0176850
709.051	0.0177388
709.129	0.0177943
709.207	0.0177268
709.285	0.0179768
709.363	0.0179581
709.442	0.0180444
709.520	0.0181298
709.598	0.0182396
709.676	0.0182501
709.754	0.0183115
709.832	0.0183424
709.910	0.0183812
709.988	0.0183784
710.067	0.0185370
710.145	0.0184834
710.223	0.0183776
710.301	0.0183619
710.379	0.0183999
710.457	0.0182246
710.535	0.0182835
710.613	0.0182726
710.692	0.0181962
710.770	0.0180661
710.848	0.0180099
710.926	0.0181647
711.004	0.0178967
711.082	0.0180323
711.160	0.0177660
711.238	0.0178461
711.317	0.0178745
711.395	0.0177575
711.473	0.0176965
711.551	0.0176252
711.629	0.0177512
711.707	0.0177303
711.785	0.0175446
711.863	0.0176299
711.942	0.0174258
712.020	0.0174955
712.098	0.0174995
712.176	0.0174418
712.254	0.0174025
712.332	0.0173278
712.410	0.0172453
712.488	0.0171436
712.567	0.0172192
712.645	0.0170753
712.723	0.0171351
712.801	0.0170662
712.879	0.0170410
712.957	0.0169431
713.035	0.0170575
713.113	0.0170486
713.192	0.0171040
713.270	0.0171089
713.348	0.0171428
713.426	0.0171632
713.504	0.0171307
713.582	0.0172939
713.660	0.0173447
713.738	0.0176057
713.817	0.0175658
713.895	0.0176051
713.973	0.0177264
714.051	0.0176899
714.129	0.0178619
714.207	0.0178623
714.285	0.0181734
714.363	0.0182304
714.442	0.0182389
714.520	0.0182421
714.598	0.0184361
714.676	0.0184976
714.754	0.0183723
714.832	0.0183575
714.910	0.0185357
714.988	0.0185297
715.067	0.0184805
715.145	0.0184958
715.223	0.0183936
715.301	0.0184943
715.379	0.0184418
715.457	0.0185408
715.535	0.0184561
715.613	0.0184332
715.692	0.0184727
715.770	0.0183694
715.848	0.0184583
715.926	0.0183902
716.004	0.0182761
716.082	0.0183563
716.160	0.0180721
716.238	0.0180946
716.317	0.0180138
716.395	0.0178770
716.473	0.0177949
716.551	0.0178860
716.629	0.0178046
716.707	0.0177867
716.785	0.0178442
716.863	0.0177552
716.942	0.0179276
717.020	0.0179070
717.098	0.0178729
717.176	0.0178520
717.254	0.0179636
717.332	0.0179506
717.410	0.0181550
717.488	0.0180370
717.567	0.0179324
717.645	0.0178807
717.723	0.0179898
717.801	0.0178463
717.879	0.0177242
717.957	0.0177275
718.035	0.0177856
718.113	0.0176260
718.192	0.0175819
718.270	0.0174702
718.348	0.0173564
718.426	0.0173804
718.504	0.0173368
718.582	0.0173486
718.660	0.0174507
718.738	0.0175710
718.817	0.0178226
718.895	0.0179239
718.973	0.0179616
719.051	0.0180322
719.129	0.0181840
719.207	0.0182533
719.285	0.0182041
719.363	0.0185022
719.442	0.0185310
719.520	0.0185813
719.598	0.0185796
719.676	0.0188246
719.754	0.0187083
719.832	0.0189332
719.910	0.0186919
719.988	0.0187207
720.067	0.0185973
720.145	0.0185843
720.223	0.0185046
720.301	0.0184228
720.379	0.0185407
720.457	0.0184973
720.535	0.0184539
720.613	0.0182400
720.692	0.0183123
720.770	0.0184686
720.848	0.0182182
720.926	0.0183221
721.004	0.0182964
721.082	0.0181906
721.160	0.0180621
721.238	0.0180922
721.317	0.0181863
721.395	0.0181493
721.473	0.0179428
721.551	0.0179572
721.629	0.0179350
721.707	0.0178819
721.785	0.0177335
721.863	0.0178525
721.942	0.0178017
722.020	0.0176739
722.098	0.0176557
722.176	0.0175597
722.254	0.0176527
722.332	0.0176939
722.410	0.0176805
722.488	0.0175513
722.567	0.0175452
722.645	0.0174720
722.723	0.0176912
722.801	0.0177160
722.879	0.0176233
722.957	0.0175295
723.035	0.0178092
723.113	0.0177163
723.192	0.0178283
723.270	0.0178490
723.348	0.0179241
723.426	0.0178372
723.504	0.0178275
723.582	0.0178748
723.660	0.0178008
723.738	0.0178258
723.817	0.0178886
723.895	0.0179067
723.973	0.0177739
724.051	0.0178529
724.129	0.0179903
724.207	0.0179906
724.285	0.0178757
724.363	0.0179404
724.442	0.0177495
724.520	0.0178130
724.598	0.0179933
724.676	0.0179028
724.754	0.0178336
724.832	0.0176600
724.910	0.0178521
724.988	0.0178477
725.067	0.0178337
725.145	0.0178130
725.223	0.0178597
725.301	0.0179210
725.379	0.0180061
725.457	0.0178489
725.535	0.0178673
725.613	0.0179317
725.692	0.0178223
725.770	0.0179842
725.848	0.0178488
725.926	0.0179354
726.004	0.0178378
726.082	0.0178610
726.160	0.0178992
726.238	0.0178928
726.317	0.0178097
726.395	0.0177575
726.473	0.0178142
726.551	0.0179012
726.629	0.0178631
726.707	0.0177287
726.785	0.0178442
726.863	0.0178139
726.942	0.0178419
727.020	0.0179886
727.098	0.0179080
727.176	0.0178407
727.254	0.0180174
727.332	0.0181418
727.410	0.0180534
727.488	0.0181951
727.567	0.0182409
727.645	0.0182348
727.723	0.0182732
727.801	0.0183191
727.879	0.0183100
727.957	0.0184026
728.035	0.0183872
728.113	0.0183194
728.192	0.0183360
728.270	0.0183234
728.348	0.0182655
728.426	0.0182627
728.504	0.0182314
728.582	0.0181040
728.660	0.0183551
728.738	0.0182623
728.817	0.0180996
728.895	0.0181496
728.973	0.0181304
729.051	0.0181489
729.129	0.0181577
729.207	0.0180058
729.285	0.0180418
729.363	0.0180943
729.442	0.0181053
729.520	0.0180531
729.598	0.0180703
729.676	0.0180901
729.754	0.0180934
729.832	0.0179806
729.910	0.0180029
729.988	0.0180013
730.067	0.0180321
730.145	0.0181140
730.223	0.0179663
730.301	0.0181394
730.379	0.0180201
730.457	0.0179688
730.535	0.0179874
730.613	0.0179658
730.692	0.0180189
730.770	0.0179401
730.848	0.0177474
730.926	0.0179666
731.004	0.0180074
731.082	0.0177930
731.160	0.0179060
731.238	0.0178596
731.317	0.0178838
731.395	0.0177058
731.473	0.0176431
731.551	0.0176605
731.629	0.0177973
731.707	0.0175195
731.785	0.0177116
731.863	0.0176990
731.942	0.0177000
732.020	0.0176288
732.098	0.0177293
732.176	0.0176237
732.254	0.0176761
732.332	0.0175916
732.410	0.0175612
732.488	0.0176746
732.567	0.0177273
732.645	0.0176923
732.723	0.0176912
732.801	0.0179195
732.879	0.0179342
732.957	0.0179051
733.035	0.0179827
733.113	0.0179637
733.192	0.0178899
733.270	0.0180057
733.348	0.0179903
733.426	0.0178229
733.504	0.0179424
733.582	0.0178275
733.660	0.0177983
733.738	0.0176759
733.817	0.0175526
733.895	0.0177225
733.973	0.0176296
734.051	0.0176104
734.129	0.0176498
734.207	0.0176521
734.285	0.0176619
734.363	0.0177980
734.442	0.0177959
734.520	0.0177512
734.598	0.0176230
734.676	0.0177361
734.754	0.0178511
734.832	0.0178826
734.910	0.0179116
734.988	0.0178787
735.067	0.0179347
735.145	0.0177968
735.223	0.0179707
735.301	0.0180345
735.379	0.0179343
735.457	0.0179460
735.535	0.0180501
735.613	0.0180637
735.692	0.0180222
735.770	0.0179460
735.848	0.0180565
735.926	0.0180660
736.004	0.0180093
736.082	0.0181811
736.160	0.0179482
736.238	0.0179707
736.317	0.0178588
736.395	0.0178939
736.473	0.0180090
736.551	0.0178735
736.629	0.0178868
736.707	0.0178520
736.785	0.0177393
736.863	0.0176659
736.942	0.0176157
737.020	0.0176696
737.098	0.0175832
737.176	0.0175935
737.254	0.0175291
737.332	0.0173828
737.410	0.0173319
737.488	0.0174068
737.567	0.0174434
737.645	0.0175374
737.723	0.0172865
737.801	0.0173352
737.879	0.0175322
737.957	0.0174978
738.035	0.0173796
738.113	0.0174658
738.192	0.0174732
738.270	0.0175788
738.348	0.0174431
738.426	0.0176417
738.504	0.0176234
738.582	0.0174610
738.660	0.0175637
738.738	0.0176976
738.817	0.0176774
738.895	0.0176292
738.973	0.0177443
739.051	0.0176900
739.129	0.0177011
739.207	0.0178202
739.285	0.0177627
739.363	0.0179014
739.442	0.0178212
739.520	0.0179807
739.598	0.0179604
739.676	0.0179490
739.754	0.0180087
739.832	0.0181387
739.910	0.0181362
739.988	0.0181808
740.067	0.0180774
740.145	0.0182449
740.223	0.0183006
740.301	0.0184030
740.379	0.0183858
740.457	0.0184348
740.535	0.0186400
740.613	0.0186061
740.692	0.0185962
740.770	0.0185784
740.848	0.0185106
740.926	0.0185191
741.004	0.0185670
741.082	0.0185600
741.160	0.0183808
741.238	0.0185455
741.317	0.0184977
741.395	0.0185017
741.473	0.0184291
741.551	0.0183600
741.629	0.0183387
741.707	0.0182967
741.785	0.0182280
741.863	0.0181885
741.942	0.0180437
742.020	0.0179321
742.098	0.0178857
742.176	0.0178240
742.254	0.0176954
742.332	0.0176006
742.410	0.0176176
742.488	0.0175109
742.567	0.0175121
742.645	0.0175169
742.723	0.0176175
742.801	0.0173866
742.879	0.0172156
742.957	0.0173090
743.035	0.0174288
743.113	0.0171834
743.192	0.0171581
743.270	0.0170882
743.348	0.0171019
743.426	0.0169928
743.504	0.0170309
743.582	0.0169606
743.660	0.0169746
743.738	0.0170581
743.817	0.0170178
743.895	0.0169665
743.973	0.0171049
744.051	0.0172435
744.129	0.0172445
744.207	0.0172093
744.285	0.0173154
744.363	0.0172412
744.442	0.0172457
744.520	0.0174860
744.598	0.0174399
744.676	0.0176012
744.754	0.0176311
744.832	0.0177116
744.910	0.0176951
744.988	0.0176063
745.067	0.0176775
745.145	0.0178089
745.223	0.0178274
745.301	0.0177908
745.379	0.0178149
745.457	0.0179339
745.535	0.0180561
745.613	0.0180540
745.692	0.0180289
745.770	0.0180833
745.848	0.0182027
745.926	0.0181853
746.004	0.0181973
746.082	0.0182679
746.160	0.0183185
746.238	0.0182829
746.317	0.0183875
746.395	0.0183820
746.473	0.0182755
746.551	0.0183530
746.629	0.0184380
746.707	0.0183843
746.785	0.0183754
746.863	0.0182535
746.942	0.0183669
747.020	0.0183143
747.098	0.0184027
747.176	0.0182568
747.254	0.0183618
747.332	0.0183885
747.410	0.0182992
747.488	0.0183207
747.567	0.0184377
747.645	0.0183913
747.723	0.0183971
747.801	0.0182961
747.879	0.0184085
747.957	0.0183954
748.035	0.0182949
748.113	0.0183389
748.192	0.0182789
748.270	0.0185306
748.348	0.0183389
748.426	0.0181076
748.504	0.0180336
748.582	0.0182434
748.660	0.0183041
748.738	0.0179692
748.817	0.0180398
748.895	0.0181998
748.973	0.0181445
749.051	0.0181216
749.129	0.0180994
749.207	0.0181283
749.285	0.0180696
749.363	0.0180364
749.442	0.0179444
749.520	0.0178455
749.598	0.0178461
749.676	0.0177864
749.754	0.0176503
749.832	0.0176608
749.910	0.0176772
749.988	0.0173413
750.067	0.0175542
750.145	0.0174184
750.223	0.0173974
750.301	0.0173630
750.379	0.0173634
750.457	0.0172672
750.535	0.0172241
750.613	0.0172652
750.692	0.0172576
750.770	0.0170442
750.848	0.0173006
750.926	0.0171565
751.004	0.0174346
751.082	0.0173422
751.160	0.0174088
751.238	0.0174474
751.317	0.0174643
751.395	0.0175485
751.473	0.0177396
751.551	0.0176564
751.629	0.0177048
751.707	0.0176606
751.785	0.0178781
751.863	0.0178017
751.942	0.0178428
752.020	0.0179567
752.098	0.0179423
752.176	0.0178364
752.254	0.0180048
752.332	0.0179415
752.410	0.0179015
752.488	0.0178594
752.567	0.0179180
752.645	0.0180032
752.723	0.0177488
752.801	0.0178107
752.879	0.0178400
752.957	0.0177393
753.035	0.0177618
753.113	0.0177287
753.192	0.0178133
753.270	0.0177923
753.348	0.0177374
753.426	0.0177383
753.504	0.0176981
753.582	0.0176199
753.660	0.0177498
753.738	0.0176720
753.817	0.0176421
753.895	0.0176688
753.973	0.0177037
754.051	0.0177010
754.129	0.0177850
754.207	0.0176913
754.285	0.0176940
754.363	0.0176270
754.442	0.0176031
754.520	0.0175605
754.598	0.0173673
754.676	0.0174052
754.754	0.0173840
754.832	0.0172678
754.910	0.0173289
754.988	0.0174222
755.067	0.0174772
755.145	0.0174900
755.223	0.0175266
755.301	0.0176752
755.379	0.0178113
755.457	0.0176604
755.535	0.0178381
755.613	0.0178740
755.692	0.0180142
755.770	0.0179581
755.848	0.0179214
755.926	0.0179401
756.004	0.0180869
756.082	0.0180057
756.160	0.0180108
756.238	0.0180334
756.317	0.0180233
756.395	0.0180039
756.473	0.0179613
756.551	0.0179779
756.629	0.0179803
756.707	0.0179466
756.785	0.0179192
756.863	0.0180875
756.942	0.0179395
757.020	0.0178384
757.098	0.0178392
757.176	0.0178501
757.254	0.0179397
757.332	0.0179057
757.410	0.0179019
757.488	0.0179778
757.567	0.0179726
757.645	0.0180936
757.723	0.0180134
757.801	0.0180386
757.879	0.0180589
757.957	0.0180346
758.035	0.0181839
758.113	0.0182157
758.192	0.0182227
758.270	0.0181478
758.348	0.0181477
758.426	0.0182784
758.504	0.0182460
758.582	0.0181879
758.660	0.0181436
758.738	0.0181821
758.817	0.0181897
758.895	0.0182292
758.973	0.0182866
759.051	0.0182055
759.129	0.0182950
759.207	0.0183289
759.285	0.0181207
759.363	0.0182165
759.442	0.0182030
759.520	0.0181958
759.598	0.0182997
759.676	0.0182807
759.754	0.0182021
759.832	0.0181387
759.910	0.0182159
759.988	0.0182146
760.067	0.0181686
760.145	0.0182404
760.223	0.0181508
760.301	0.0182546
760.379	0.0184002
760.457	0.0183726
760.535	0.0182063
760.613	0.0184363
760.692	0.0184477
760.770	0.0183707
760.848	0.0183776
760.926	0.0185042
761.004	0.0185879
761.082	0.0186102
761.160	0.0185363
761.238	0.0185837
761.317	0.0186010
761.395	0.0184887
761.473	0.0184962
761.551	0.0183894
761.629	0.0184557
761.707	0.0184104
761.785	0.0183489
761.863	0.0183580
761.942	0.0181895
762.020	0.0182322
762.098	0.0181696
762.176	0.0181262
762.254	0.0179891
762.332	0.0179216
762.410	0.0178935
762.488	0.0178127
762.567	0.0178687
762.645	0.0177728
762.723	0.0178043
762.801	0.0176646
762.879	0.0177792
762.957	0.0177451
763.035	0.0179102
763.113	0.0177494
763.192	0.0175522
763.270	0.0178508
763.348	0.0177853
763.426	0.0178916
763.504	0.0176978
763.582	0.0176372
763.660	0.0177353
763.738	0.0178532
763.817	0.0176534
763.895	0.0175626
763.973	0.0175814
764.051	0.0175912
764.129	0.0175811
764.207	0.0175528
764.285	0.0175166
764.363	0.0173665
764.442	0.0174557
764.520	0.0174840
764.598	0.0175418
764.676	0.0174216
764.754	0.0174652
764.832	0.0174450
764.910	0.0175990
764.988	0.0176661
765.067	0.0176248
765.145	0.0175429
765.223	0.0175856
765.301	0.0176633
765.379	0.0175042
765.457	0.0174538
765.535	0.0173364
765.613	0.0173743
765.692	0.0173314
765.770	0.0175613
765.848	0.0173836
765.926	0.0174230
766.004	0.0174415
766.082	0.0174589
766.160	0.0175692
766.238	0.0174354
766.317	0.0176353
766.395	0.0177085
766.473	0.0178248
766.551	0.0177767
766.629	0.0178552
766.707	0.0178140
766.785	0.0179971
766.863	0.0179585
766.942	0.0179091
767.020	0.0180415
767.098	0.0181130
767.176	0.0180469
767.254	0.0180772
767.332	0.0181501
767.410	0.0180344
767.488	0.0181722
767.567	0.0181822
767.645	0.0181638
767.723	0.0181857
767.801	0.0181966
767.879	0.0182482
767.957	0.0180767
768.035	0.0184379
768.113	0.0182957
768.192	0.0183064
768.270	0.0182733
768.348	0.0182066
768.426	0.0182397
768.504	0.0182515
768.582	0.0183241
768.660	0.0183841
768.738	0.0182487
768.817	0.0181313
768.895	0.0180074
768.973	0.0180744
769.051	0.0180913
769.129	0.0180607
769.207	0.0177905
769.285	0.0181344
769.363	0.0179325
769.442	0.0177664
769.520	0.0177518
769.598	0.0176854
769.676	0.0176109
769.754	0.0175910
769.832	0.0176987
769.910	0.0176572
769.988	0.0175613
770.067	0.0176267
770.145	0.0175264
770.223	0.0175552
770.301	0.0176732
770.379	0.0177503
770.457	0.0176886
770.535	0.0176122
770.613	0.0178127
770.692	0.0177376
770.770	0.0177014
770.848	0.0177829
770.926	0.0177435
771.004	0.0177480
771.082	0.0176802
771.160	0.0176030
771.238	0.0177102
771.317	0.0176550
771.395	0.0177415
771.473	0.0177863
771.551	0.0177599
771.629	0.0177205
771.707	0.0177389
771.785	0.0178485
771.863	0.0178117
771.942	0.0178541
772.020	0.0178079
772.098	0.0179137
772.176	0.0179494
772.254	0.0177412
772.332	0.0179005
772.410	0.0178857
772.488	0.0179654
772.567	0.0178868
772.645	0.0178120
772.723	0.0180793
772.801	0.0180229
772.879	0.0178959
772.957	0.0178474
773.035	0.0178892
773.113	0.0180013
773.192	0.0180888
773.270	0.0180186
773.348	0.0178910
773.426	0.0179473
773.504	0.0178267
773.582	0.0178794
773.660	0.0178568
773.738	0.0179553
773.817	0.0177808
773.895	0.0177065
773.973	0.0176986
774.051	0.0177335
774.129	0.0177197
774.207	0.0177640
774.285	0.0177192
774.363	0.0177412
774.442	0.0178314
774.520	0.0177142
774.598	0.0177850
774.676	0.0178532
774.754	0.0179857
774.832	0.0178162
774.910	0.0178307
774.988	0.0179057
775.067	0.0179651
775.145	0.0179940
775.223	0.0178027
775.301	0.0178249
775.379	0.0179150
775.457	0.0178631
775.535	0.0177115
775.613	0.0176748
775.692	0.0177244
775.770	0.0175693
775.848	0.0176068
775.926	0.0175823
776.004	0.0175275
776.082	0.0173789
776.160	0.0176305
776.238	0.0176068
776.317	0.0175745
776.395	0.0175117
776.473	0.0175682
776.551	0.0176942
776.629	0.0176605
776.707	0.0177421
776.785	0.0176099
776.863	0.0177829
776.942	0.0178432
777.020	0.0178139
777.098	0.0175256
777.176	0.0177144
777.254	0.0177820
777.332	0.0178317
777.410	0.0177380
777.488	0.0176466
777.567	0.0176406
777.645	0.0177374
777.723	0.0176579
777.801	0.0176273
777.879	0.0176888
777.957	0.0176857
778.035	0.0178594
778.113	0.0179324
778.192	0.0179022
778.270	0.0179198
778.348	0.0180544
778.426	0.0180821
778.504	0.0182405
778.582	0.0181458
778.660	0.0183058
778.738	0.0183934
778.817	0.0184075
778.895	0.0184825
778.973	0.0183764
779.051	0.0183961
779.129	0.0183804
779.207	0.0185836
779.285	0.0181984
779.363	0.0182797
779.442	0.0182176
779.520	0.0183814
779.598	0.0183405
779.676	0.0182072
779.754	0.0182269
779.832	0.0182677
779.910	0.0183246
779.988	0.0183324
780.067	0.0183691
780.145	0.0183388
780.223	0.0184924
780.301	0.0184821
780.379	0.0185213
780.457	0.0185266
780.535	0.0184328
780.613	0.0184300
780.692	0.0186259
780.770	0.0185117
780.848	0.0184742
780.926	0.0183992
781.004	0.0183040
781.082	0.0183266
781.160	0.0183933
781.238	0.0183848
781.317	0.0182072
781.395	0.0182339
781.473	0.0182641
781.551	0.0181485
781.629	0.0180016
781.707	0.0181207
781.785	0.0181462
781.863	0.0178909
781.942	0.0180292
782.020	0.0179910
782.098	0.0179244
782.176	0.0178172
782.254	0.0180622
782.332	0.0178904
782.410	0.0179340
782.488	0.0180325
782.567	0.0180026
782.645	0.0179175
782.723	0.0178996
782.801	0.0178397
782.879	0.0178943
782.957	0.0180525
783.035	0.0178924
783.113	0.0179808
783.192	0.0178787
783.270	0.0178743
783.348	0.0177665
783.426	0.0177924
783.504	0.0177907
783.582	0.0176675
783.660	0.0177803
783.738	0.0176641
783.817	0.0178629
783.895	0.0177303
783.973	0.0176774
784.051	0.0176933
784.129	0.0178597
784.207	0.0177847
784.285	0.0178158
784.363	0.0177730
784.442	0.0178242
784.520	0.0180306
784.598	0.0179851
784.676	0.0179107
784.754	0.0180104
784.832	0.0178669
784.910	0.0179975
784.988	0.0178968
785.067	0.0178783
785.145	0.0179817
785.223	0.0180017
785.301	0.0178732
785.379	0.0180317
785.457	0.0180725
785.535	0.0180473
785.613	0.0179038
785.692	0.0178579
785.770	0.0179083
785.848	0.0179703
785.926	0.0178159
786.004	0.0179413
786.082	0.0179051
786.160	0.0178596
786.238	0.0179071
786.317	0.0179513
786.395	0.0179016
786.473	0.0178654
786.551	0.0179788
786.629	0.0179082
786.707	0.0179372
786.785	0.0179859
786.863	0.0180791
786.942	0.0179047
787.020	0.0179326
787.098	0.0180271
787.176	0.0180217
787.254	0.0181108
787.332	0.0180337
787.410	0.0180458
787.488	0.0181068
787.567	0.0180230
787.645	0.0179788
787.723	0.0179678
787.801	0.0180200
787.879	0.0180229
787.957	0.0181984
788.035	0.0180872
788.113	0.0179983
788.192	0.0179964
788.270	0.0181181
788.348	0.0181242
788.426	0.0179924
788.504	0.0181297
788.582	0.0181337
788.660	0.0180729
788.738	0.0181850
788.817	0.0179406
788.895	0.0181273
788.973	0.0181948
789.051	0.0180972
789.129	0.0181644
789.207	0.0180457
789.285	0.0181670
789.363	0.0181464
789.442	0.0180443
789.520	0.0180550
789.598	0.0180959
789.676	0.0181097
789.754	0.0180281
789.832	0.0180327
789.910	0.0180833
789.988	0.0179435
790.067	0.0178432
790.145	0.0178625
790.223	0.0178630
790.301	0.0178669
790.379	0.0178983
790.457	0.0177016
790.535	0.0178371
790.613	0.0178188
790.692	0.0177979
790.770	0.0178407
790.848	0.0178200
790.926	0.0178231
791.004	0.0177736
791.082	0.0178388
791.160	0.0177438
791.238	0.0177779
791.317	0.0177242
791.395	0.0178143
791.473	0.0177995
791.551	0.0177936
791.629	0.0179593
791.707	0.0178650
791.785	0.0177271
791.863	0.0175834
791.942	0.0176567
792.020	0.0176640
792.098	0.0175723
792.176	0.0174496
792.254	0.0176218
792.332	0.0176721
792.410	0.0176035
792.488	0.0176301
792.567	0.0176709
792.645	0.0176231
792.723	0.0175660
792.801	0.0176835
792.879	0.0176348
792.957	0.0173560
793.035	0.0177245
793.113	0.0175687
793.192	0.0175792
793.270	0.0175121
793.348	0.0175542
793.426	0.0175005
793.504	0.0175973
793.582	0.0174617
793.660	0.0175426
793.738	0.0175500
793.817	0.0174700
793.895	0.0175760
793.973	0.0175121
794.051	0.0174746
794.129	0.0175694
794.207	0.0175996
794.285	0.0175897
794.363	0.0175499
794.442	0.0175034
794.520	0.0175951
794.598	0.0176724
794.676	0.0177077
794.754	0.0177400
794.832	0.0176560
794.910	0.0177135
794.988	0.0178319
795.067	0.0175360
795.145	0.0176389
795.223	0.0176436
795.301	0.0177915
795.379	0.0176605
795.457	0.0176027
795.535	0.0177979
795.613	0.0177547
795.692	0.0177206
795.770	0.0177596
795.848	0.0177501
795.926	0.0178133
796.004	0.0177785
796.082	0.0179174
796.160	0.0179737
796.238	0.0178947
796.317	0.0179110
796.395	0.0179786
796.473	0.0180228
796.551	0.0180320
796.629	0.0180288
796.707	0.0180010
796.785	0.0180618
796.863	0.0180427
796.942	0.0180424
797.020	0.0181010
797.098	0.0181625
797.176	0.0180776
797.254	0.0181588
797.332	0.0181148
797.410	0.0181568
797.488	0.0182597
797.567	0.0180891
797.645	0.0181671
797.723	0.0180345
797.801	0.0181350
797.879	0.0183022
797.957	0.0181409
798.035	0.0180872
798.113	0.0181532
798.192	0.0182398
798.270	0.0181667
798.348	0.0182463
798.426	0.0180859
798.504	0.0182143
798.582	0.0182121
798.660	0.0182149
798.738	0.0180260
798.817	0.0182090
798.895	0.0182071
798.973	0.0182239
799.051	0.0181718
799.129	0.0181805
799.207	0.0181384
799.285	0.0182033
799.363	0.0183315
799.442	0.0182497
799.520	0.0182346
799.598	0.0181046
799.676	0.0181806
799.754	0.0182657
799.832	0.0182657
799.910	0.0181662
799.988	0.0182240
800.067	0.0179517
800.145	0.0182249
800.223	0.0181801
800.301	0.0182545
800.379	0.0181845
800.457	0.0183839
800.535	0.0183802
800.613	0.0182342
800.692	0.0182178
800.770	0.0181633
800.848	0.0182614
800.926	0.0182384
801.004	0.0183567
801.082	0.0180170
801.160	0.0178533
801.238	0.0181057
801.317	0.0180141
801.395	0.0179711
801.473	0.0179655
801.551	0.0179516
801.629	0.0179433
801.707	0.0178999
801.785	0.0179347
801.863	0.0179058
801.942	0.0178709
802.020	0.0178763
802.098	0.0177704
802.176	0.0178187
802.254	0.0177886
802.332	0.0177216
802.410	0.0177771
802.488	0.0177255
802.567	0.0176518
802.645	0.0176959
802.723	0.0177154
802.801	0.0176933
802.879	0.0175768
802.957	0.0175311
803.035	0.0177137
803.113	0.0177126
803.192	0.0175105
803.270	0.0175511
803.348	0.0175179
803.426	0.0176732
803.504	0.0177391
803.582	0.0175908
803.660	0.0175081
803.738	0.0174273
803.817	0.0175970
803.895	0.0174162
803.973	0.0173415
804.051	0.0174393
804.129	0.0174110
804.207	0.0173950
804.285	0.0176177
804.363	0.0175484
804.442	0.0176080
804.520	0.0176020
804.598	0.0175143
804.676	0.0175464
804.754	0.0176331
804.832	0.0176913
804.910	0.0177062
804.988	0.0178926
805.067	0.0176778
805.145	0.0178285
805.223	0.0179343
805.301	0.0180138
805.379	0.0180431
805.457	0.0181486
805.535	0.0180438
805.613	0.0181961
805.692	0.0181715
805.770	0.0181084
805.848	0.0181562
805.926	0.0182922
806.004	0.0182878
806.082	0.0181823
806.160	0.0181673
806.238	0.0184358
806.317	0.0183543
806.395	0.0182931
806.473	0.0183893
806.551	0.0184753
806.629	0.0183633
806.707	0.0183983
806.785	0.0184144
806.863	0.0184128
806.942	0.0185640
807.020	0.0183642
807.098	0.0184369
807.176	0.0183228
807.254	0.0183555
807.332	0.0183630
807.410	0.0182436
807.488	0.0183582
807.567	0.0183267
807.645	0.0181424
807.723	0.0182083
807.801	0.0180894
807.879	0.0180833
807.957	0.0181174
808.035	0.0181070
808.113	0.0182264
808.192	0.0181099
808.270	0.0181232
808.348	0.0181561
808.426	0.0180405
808.504	0.0179247
808.582	0.0180205
808.660	0.0180943
808.738	0.0180182
808.817	0.0180849
808.895	0.0180441
808.973	0.0178725
809.051	0.0179923
809.129	0.0180695
809.207	0.0178857
809.285	0.0179130
809.363	0.0179843
809.442	0.0179008
809.520	0.0177114
809.598	0.0177871
809.676	0.0178353
809.754	0.0178197
809.832	0.0177582
809.910	0.0179051
809.988	0.0177689
810.067	0.0177493
810.145	0.0178775
810.223	0.0177699
810.301	0.0179198
810.379	0.0178957
810.457	0.0180608
810.535	0.0179950
810.613	0.0179468
810.692	0.0180978
810.770	0.0180325
810.848	0.0180460
810.926	0.0181125
811.004	0.0181943
811.082	0.0181784
811.160	0.0179937
811.238	0.0181464
811.317	0.0182040
811.395	0.0181401
811.473	0.0180019
811.551	0.0180301
811.629	0.0181643
811.707	0.0180270
811.785	0.0180950
811.863	0.0181393
811.942	0.0180760
812.020	0.0178914
812.098	0.0180360
812.176	0.0181797
812.254	0.0179592
812.332	0.0179764
812.410	0.0180489
812.488	0.0180313
812.567	0.0178908
812.645	0.0179604
812.723	0.0179520
812.801	0.0180087
812.879	0.0179301
812.957	0.0178980
813.035	0.0178176
813.113	0.0179110
813.192	0.0178275
813.270	0.0178848
813.348	0.0178136
813.426	0.0178378
813.504	0.0178469
813.582	0.0178164
813.660	0.0177905
813.738	0.0177870
813.817	0.0177002
813.895	0.0178862
813.973	0.0178380
814.051	0.0177649
814.129	0.0177079
814.207	0.0178123
814.285	0.0177935
814.363	0.0175507
814.442	0.0175636
814.520	0.0176213
814.598	0.0175835
814.676	0.0177061
814.754	0.0177672
814.832	0.0176907
814.910	0.0175601
814.988	0.0176820
815.067	0.0176590
815.145	0.0177772
815.223	0.0178048
815.301	0.0177100
815.379	0.0175855
815.457	0.0176569
815.535	0.0176910
815.613	0.0176987
815.692	0.0176804
815.770	0.0177912
815.848	0.0178102
815.926	0.0177444
816.004	0.0176083
816.082	0.0176620
816.160	0.0178004
816.238	0.0176266
816.317	0.0177151
816.395	0.0175724
816.473	0.0176569
816.551	0.0175392
816.629	0.0176875
816.707	0.0177840
816.785	0.0175230
816.863	0.0175722
816.942	0.0175970
817.020	0.0178281
817.098	0.0174936
817.176	0.0176711
817.254	0.0176599
817.332	0.0176176
817.410	0.0175677
817.488	0.0175892
817.567	0.0177265
817.645	0.0176739
817.723	0.0178191
817.801	0.0177393
817.879	0.0178365
817.957	0.0179209
818.035	0.0178786
818.113	0.0178188
818.192	0.0178918
818.270	0.0179558
818.348	0.0178863
818.426	0.0179635
818.504	0.0178749
818.582	0.0178777
818.660	0.0179757
818.738	0.0178954
818.817	0.0179198
818.895	0.0179948
818.973	0.0179339
819.051	0.0178989
819.129	0.0181721
819.207	0.0181626
819.285	0.0180553
819.363	0.0181507
819.442	0.0181715
819.520	0.0180244
819.598	0.0181241
819.676	0.0181163
819.754	0.0182236
819.832	0.0183011
819.910	0.0182322
819.988	0.0181443
820.067	0.0182882
820.145	0.0185155
820.223	0.0184283
820.301	0.0183779
820.379	0.0185409
820.457	0.0183720
820.535	0.0185666
820.613	0.0186507
820.692	0.0186361
820.770	0.0186740
820.848	0.0186500
820.926	0.0186926
821.004	0.0186355
821.082	0.0185286
821.160	0.0186837
821.238	0.0186526
821.317	0.0186317
821.395	0.0185386
821.473	0.0185490
821.551	0.0184076
821.629	0.0183714
821.707	0.0183884
821.785	0.0184078
821.863	0.0181950
821.942	0.0182281
822.020	0.0181626
822.098	0.0180482
822.176	0.0179864
822.254	0.0180261
822.332	0.0180410
822.410	0.0178897
822.488	0.0178436
822.567	0.0179441
822.645	0.0178854
822.723	0.0178596
822.801	0.0178683
822.879	0.0178362
822.957	0.0177831
823.035	0.0177004
823.113	0.0177494
823.192	0.0176931
823.270	0.0178606
823.348	0.0175653
823.426	0.0178484
823.504	0.0178651
823.582	0.0176393
823.660	0.0177471
823.738	0.0176269
823.817	0.0176661
823.895	0.0178859
823.973	0.0177942
824.051	0.0177954
824.129	0.0179627
824.207	0.0178268
824.285	0.0178384
824.363	0.0179025
824.442	0.0178512
824.520	0.0179095
824.598	0.0178778
824.676	0.0178968
824.754	0.0178596
824.832	0.0179114
824.910	0.0179100
824.988	0.0178600
825.067	0.0177724
825.145	0.0179208
825.223	0.0177406
825.301	0.0177000
825.379	0.0177991
825.457	0.0178899
825.535	0.0177901
825.613	0.0177543
825.692	0.0179053
825.770	0.0178422
825.848	0.0179173
825.926	0.0178171
826.004	0.0179632
826.082	0.0179106
826.160	0.0179420
826.238	0.0178754
826.317	0.0178971
826.395	0.0180511
826.473	0.0180528
826.551	0.0180646
826.629	0.0180156
826.707	0.0180863
826.785	0.0179486
826.863	0.0180703
826.942	0.0180614
827.020	0.0179002
827.098	0.0179999
827.176	0.0179188
827.254	0.0178316
827.332	0.0179314
827.410	0.0178830
827.488	0.0177357
827.567	0.0179150
827.645	0.0179160
827.723	0.0178480
827.801	0.0179794
827.879	0.0178397
827.957	0.0178170
828.035	0.0180116
828.113	0.0178525
828.192	0.0178577
828.270	0.0179173
828.348	0.0179401
828.426	0.0180087
828.504	0.0179913
828.582	0.0180122
828.660	0.0180672
828.738	0.0180032
828.817	0.0180883
828.895	0.0180245
828.973	0.0179065
829.051	0.0179557
829.129	0.0179952
829.207	0.0179773
829.285	0.0180352
829.363	0.0179684
829.442	0.0180496
829.520	0.0179677
829.598	0.0179036
829.676	0.0179118
829.754	0.0179596
829.832	0.0179652
829.910	0.0177660
829.988	0.0178230
830.067	0.0178834
830.145	0.0178583
830.223	0.0177953
830.301	0.0178009
830.379	0.0178078
830.457	0.0178417
830.535	0.0176315
830.613	0.0176549
830.692	0.0176488
830.770	0.0176823
830.848	0.0177486
830.926	0.0177292
831.004	0.0176940
831.082	0.0175803
831.160	0.0176735
831.238	0.0177826
831.317	0.0178304
831.395	0.0177000
831.473	0.0175574
831.551	0.0176890
831.629	0.0176162
831.707	0.0177724
831.785	0.0176585
831.863	0.0175293
831.942	0.0175893
832.020	0.0176061
832.098	0.0175661
832.176	0.0176688
832.254	0.0176930
832.332	0.0176102
832.410	0.0176995
832.488	0.0176662
832.567	0.0176141
832.645	0.0175996
832.723	0.0175922
832.801	0.0177558
832.879	0.0176557
832.957	0.0175745
833.035	0.0176894
833.113	0.0177761
833.192	0.0177390
833.270	0.0178244
833.348	0.0179200
833.426	0.0178772
833.504	0.0176975
833.582	0.0178282
833.660	0.0179155
833.738	0.0178886
833.817	0.0178981
833.895	0.0179137
833.973	0.0179118
834.051	0.0178988
834.129	0.0179375
834.207	0.0179633
834.285	0.0179403
834.363	0.0180308
834.442	0.0179553
834.520	0.0179345
834.598	0.0179292
834.676	0.0179689
834.754	0.0180099
834.832	0.0181046
834.910	0.0180259
834.988	0.0180057
835.067	0.0179817
835.145	0.0180253
835.223	0.0180050
835.301	0.0180774
835.379	0.0180011
835.457	0.0179966
835.535	0.0179224
835.613	0.0180421
835.692	0.0180566
835.770	0.0181500
835.848	0.0179744
835.926	0.0181541
836.004	0.0180852
836.082	0.0180574
836.160	0.0181733
836.238	0.0180845
836.317	0.0182018
836.395	0.0182810
836.473	0.0183746
836.551	0.0181760
836.629	0.0183400
836.707	0.0182471
836.785	0.0182719
836.863	0.0183285
836.942	0.0184579
837.020	0.0185304
837.098	0.0184061
837.176	0.0184283
837.254	0.0184659
837.332	0.0185355
837.410	0.0184724
837.488	0.0184400
837.567	0.0183855
837.645	0.0185342
837.723	0.0184686
837.801	0.0183173
837.879	0.0184615
837.957	0.0184401
838.035	0.0184462
838.113	0.0184614
838.192	0.0183633
838.270	0.0182973
838.348	0.0184312
838.426	0.0183814
838.504	0.0184647
838.582	0.0183365
838.660	0.0181293
838.738	0.0184057
838.817	0.0183750
838.895	0.0182894
838.973	0.0180716
839.051	0.0181513
839.129	0.0180524
839.207	0.0180885
839.285	0.0179746
839.363	0.0179741
839.442	0.0179974
839.520	0.0178640
839.598	0.0178988
839.676	0.0177901
839.754	0.0177731
839.832	0.0177777
839.910	0.0175916
839.988	0.0177733
840.067	0.0177261
840.145	0.0176770
840.223	0.0175153
840.301	0.0176533
840.379	0.0175582
840.457	0.0174725
840.535	0.0176868
840.613	0.0174943
840.692	0.0175408
840.770	0.0174854
840.848	0.0174476
840.926	0.0174061
841.004	0.0174785
841.082	0.0172971
841.160	0.0175124
841.238	0.0174512
841.317	0.0174493
841.395	0.0175179
841.473	0.0175224
841.551	0.0174838
841.629	0.0175234
841.707	0.0175401
841.785	0.0175235
841.863	0.0176616
841.942	0.0176810
842.020	0.0177709
842.098	0.0176960
842.176	0.0178531
842.254	0.0178008
842.332	0.0178524
842.410	0.0180311
842.488	0.0179942
842.567	0.0180807
842.645	0.0180674
842.723	0.0181603
842.801	0.0180150
842.879	0.0180196
842.957	0.0181134
843.035	0.0181509
843.113	0.0181258
843.192	0.0181322
843.270	0.0179439
843.348	0.0181332
843.426	0.0179066
843.504	0.0179229
843.582	0.0179514
843.660	0.0178947
843.738	0.0179508
843.817	0.0181087
843.895	0.0180044
843.973	0.0181303
844.051	0.0181591
844.129	0.0181101
844.207	0.0179413
844.285	0.0180453
844.363	0.0182594
844.442	0.0181299
844.520	0.0181354
844.598	0.0182184
844.676	0.0181728
844.754	0.0181719
844.832	0.0180231
844.910	0.0181434
844.988	0.0180975
845.067	0.0183176
845.145	0.0180835
845.223	0.0179646
845.301	0.0181059
845.379	0.0182083
845.457	0.0180500
845.535	0.0180780
845.613	0.0181001
845.692	0.0181271
845.770	0.0181516
845.848	0.0180286
845.926	0.0182306
846.004	0.0181565
846.082	0.0181023
846.160	0.0180826
846.238	0.0181032
846.317	0.0181381
846.395	0.0181567
846.473	0.0180663
846.551	0.0182310
846.629	0.0183410
846.707	0.0182749
846.785	0.0181193
846.863	0.0181923
846.942	0.0181138
847.020	0.0180576
847.098	0.0180369
847.176	0.0180482
847.254	0.0180832
847.332	0.0180264
847.410	0.0179920
847.488	0.0179686
847.567	0.0178763
847.645	0.0180104
847.723	0.0180743
847.801	0.0180180
847.879	0.0181438
847.957	0.0180814
848.035	0.0179986
848.113	0.0180408
848.192	0.0180437
848.270	0.0180104
848.348	0.0179646
848.426	0.0181268
848.504	0.0181475
848.582	0.0178829
848.660	0.0179465
848.738	0.0180213
848.817	0.0179220
848.895	0.0178288
848.973	0.0178603
849.051	0.0180083
849.129	0.0179317
849.207	0.0178916
849.285	0.0178647
849.363	0.0177874
849.442	0.0176875
849.520	0.0179449
849.598	0.0178136
849.676	0.0177415
849.754	0.0177689
849.832	0.0177473
849.910	0.0177383
849.988	0.0177540
850.067	0.0179121
850.145	0.0178088
850.223	0.0176076
850.301	0.0177100
850.379	0.0177292
850.457	0.0175818
850.535	0.0177312
850.613	0.0176822
850.692	0.0177773
850.770	0.0177068
850.848	0.0177512
850.926	0.0176804
851.004	0.0176776
851.082	0.0177623
851.160	0.0176495
851.238	0.0177573
851.317	0.0176106
851.395	0.0177102
851.473	0.0176170
851.551	0.0176202
851.629	0.0174789
851.707	0.0176046
851.785	0.0175661
851.863	0.0176839
851.942	0.0176875
852.020	0.0175832
852.098	0.0175376
852.176	0.0175125
852.254	0.0176108
852.332	0.0177361
852.410	0.0176136
852.488	0.0176479
852.567	0.0177893
852.645	0.0177276
852.723	0.0178246
852.801	0.0178264
852.879	0.0177790
852.957	0.0178510
853.035	0.0177698
853.113	0.0179098
853.192	0.0179176
853.270	0.0179304
853.348	0.0178970
853.426	0.0179570
853.504	0.0179794
853.582	0.0178955
853.660	0.0178623
853.738	0.0179021
853.817	0.0179629
853.895	0.0178465
853.973	0.0179443
854.051	0.0178832
854.129	0.0179114
854.207	0.0178591
854.285	0.0177547
854.363	0.0178488
854.442	0.0180100
854.520	0.0179388
854.598	0.0178414
854.676	0.0179222
854.754	0.0177753
854.832	0.0178954
854.910	0.0178948
854.988	0.0179159
855.067	0.0177175
855.145	0.0178866
855.223	0.0178217
855.301	0.0177888
855.379	0.0176292
855.457	0.0177223
855.535	0.0177564
855.613	0.0178745
855.692	0.0176890
855.770	0.0177872
855.848	0.0178012
855.926	0.0177885
856.004	0.0176679
856.082	0.0178871
856.160	0.0179135
856.238	0.0180290
856.317	0.0178950
856.395	0.0178273
856.473	0.0178224
856.551	0.0178169
856.629	0.0178999
856.707	0.0178793
856.785	0.0178042
856.863	0.0178712
856.942	0.0178087
857.020	0.0178631
857.098	0.0178203
857.176	0.0178092
857.254	0.0178272
857.332	0.0179639
857.410	0.0177132
857.488	0.0178567
857.567	0.0178700
857.645	0.0178811
857.723	0.0178365
857.801	0.0179367
857.879	0.0179028
857.957	0.0178947
858.035	0.0178847
858.113	0.0178978
858.192	0.0178172
858.270	0.0179353
858.348	0.0178880
858.426	0.0177325
858.504	0.0176608
858.582	0.0177543
858.660	0.0177634
858.738	0.0177561
858.817	0.0177619
858.895	0.0178256
858.973	0.0179055
859.051	0.0178207
859.129	0.0178500
859.207	0.0177731
859.285	0.0179089
859.363	0.0177539
859.442	0.0177776
859.520	0.0178459
859.598	0.0176762
859.676	0.0177900
859.754	0.0176074
859.832	0.0175857
859.910	0.0178201
859.988	0.0178874
860.067	0.0178388
860.145	0.0178733
860.223	0.0178294
860.301	0.0180365
860.379	0.0179901
860.457	0.0180857
860.535	0.0179184
860.613	0.0179780
860.692	0.0180229
860.770	0.0179911
860.848	0.0180257
860.926	0.0180935
861.004	0.0180738
861.082	0.0180557
861.160	0.0179967
861.238	0.0181141
861.317	0.0181042
861.395	0.0181112
861.473	0.0180717
861.551	0.0180191
861.629	0.0180430
861.707	0.0181193
861.785	0.0182037
861.863	0.0181321
861.942	0.0180056
862.020	0.0181265
862.098	0.0181745
862.176	0.0179919
862.254	0.0178880
862.332	0.0180926
862.410	0.0179489
862.488	0.0179643
862.567	0.0177737
862.645	0.0179884
862.723	0.0179835
862.801	0.0180099
862.879	0.0178618
862.957	0.0179475
863.035	0.0179601
863.113	0.0178847
863.192	0.0180524
863.270	0.0180059
863.348	0.0180663
863.426	0.0178837
863.504	0.0180064
863.582	0.0180360
863.660	0.0180237
863.738	0.0180117
863.817	0.0179790
863.895	0.0180823
863.973	0.0179979
864.051	0.0179524
864.129	0.0180135
864.207	0.0179420
864.285	0.0179902
864.363	0.0181027
864.442	0.0180913
864.520	0.0180539
864.598	0.0180544
864.676	0.0181656
864.754	0.0181836
864.832	0.0181430
864.910	0.0181534
864.988	0.0181783
865.067	0.0182199
865.145	0.0181505
865.223	0.0182046
865.301	0.0183035
865.379	0.0183493
865.457	0.0181773
865.535	0.0183316
865.613	0.0182017
865.692	0.0182648
865.770	0.0181281
865.848	0.0181369
865.926	0.0181754
866.004	0.0180373
866.082	0.0179110
866.160	0.0179805
866.238	0.0179075
866.317	0.0179948
866.395	0.0180613
866.473	0.0179366
866.551	0.0179926
866.629	0.0178747
866.707	0.0179305
866.785	0.0179916
866.863	0.0178971
866.942	0.0178748
867.020	0.0179208
867.098	0.0178603
867.176	0.0178421
867.254	0.0180396
867.332	0.0178152
867.410	0.0179013
867.488	0.0179076
867.567	0.0178346
867.645	0.0178526
867.723	0.0177001
867.801	0.0178383
867.879	0.0176852
867.957	0.0178539
868.035	0.0177145
868.113	0.0176669
868.192	0.0177410
868.270	0.0177125
868.348	0.0178040
868.426	0.0177522
868.504	0.0177300
868.582	0.0177338
868.660	0.0177486
868.738	0.0179659
868.817	0.0178693
868.895	0.0177710
868.973	0.0177509
869.051	0.0178539
869.129	0.0177477
869.207	0.0176989
869.285	0.0177838
869.363	0.0179161
869.442	0.0178776
869.520	0.0177917
869.598	0.0177765
869.676	0.0177448
869.754	0.0178560
869.832	0.0177198
869.910	0.0177917
869.988	0.0177056
870.067	0.0177349
870.145	0.0177360
870.223	0.0176384
870.301	0.0177697
870.379	0.0178062
870.457	0.0177800
870.535	0.0177287
870.613	0.0178023
870.692	0.0178162
870.770	0.0177586
870.848	0.0177467
870.926	0.0177492
871.004	0.0178026
871.082	0.0176662
871.160	0.0178091
871.238	0.0176120
871.317	0.0176836
871.395	0.0176714
871.473	0.0176037
871.551	0.0176894
871.629	0.0177448
871.707	0.0177248
871.785	0.0176910
871.863	0.0175765
871.942	0.0176553
872.020	0.0177781
872.098	0.0178349
872.176	0.0177538
872.254	0.0178741
872.332	0.0178568
872.410	0.0178317
872.488	0.0179194
872.567	0.0178448
872.645	0.0180247
872.723	0.0179380
872.801	0.0179246
872.879	0.0179426
872.957	0.0178807
873.035	0.0177768
873.113	0.0178762
873.192	0.0179083
873.270	0.0178927
873.348	0.0179131
873.426	0.0179838
873.504	0.0180140
873.582	0.0179645
873.660	0.0181030
873.738	0.0180305
873.817	0.0180367
873.895	0.0180669
873.973	0.0181207
874.051	0.0181387
874.129	0.0181795
874.207	0.0182125
874.285	0.0182845
874.363	0.0181314
874.442	0.0182318
874.520	0.0181388
874.598	0.0181289
874.676	0.0182732
874.754	0.0181952
874.832	0.0181042
874.910	0.0182604
874.988	0.0181844
875.067	0.0181375
875.145	0.0181672
875.223	0.0182064
875.301	0.0182200
875.379	0.0181185
875.457	0.0181003
875.535	0.0181412
875.613	0.0181829
875.692	0.0182598
875.770	0.0181296
875.848	0.0181913
875.926	0.0180276
876.004	0.0179758
876.082	0.0179691
876.160	0.0180663
876.238	0.0179628
876.317	0.0180096
876.395	0.0179459
876.473	0.0180199
876.551	0.0180319
876.629	0.0179972
876.707	0.0179107
876.785	0.0178053
876.863	0.0180751
876.942	0.0180309
877.020	0.0178786
877.098	0.0179353
877.176	0.0179470
877.254	0.0180888
877.332	0.0180650
877.410	0.0180368
877.488	0.0179418
877.567	0.0181171
877.645	0.0179093
877.723	0.0179705
877.801	0.0180008
877.879	0.0178329
877.957	0.0180046
878.035	0.0179279
878.113	0.0180117
878.192	0.0178818
878.270	0.0179967
878.348	0.0178692
878.426	0.0178458
878.504	0.0178941
878.582	0.0179254
878.660	0.0178596
878.738	0.0178703
878.817	0.0179119
878.895	0.0176644
878.973	0.0177330
879.051	0.0177447
879.129	0.0177023
879.207	0.0178902
879.285	0.0179047
879.363	0.0178597
879.442	0.0178721
879.520	0.0178302
879.598	0.0178664
879.676	0.0178915
879.754	0.0178862
879.832	0.0180946
879.910	0.0180621
879.988	0.0179259
880.067	0.0178075
880.145	0.0178444
880.223	0.0180029
880.301	0.0180693
880.379	0.0180045
880.457	0.0178407
880.535	0.0178622
880.613	0.0180161
880.692	0.0181008
880.770	0.0180972
880.848	0.0179772
880.926	0.0180714
881.004	0.0181293
881.082	0.0179426
881.160	0.0181001
881.238	0.0180798
881.317	0.0179823
881.395	0.0181417
881.473	0.0181216
881.551	0.0181799
881.629	0.0181762
881.707	0.0181594
881.785	0.0180143
881.863	0.0180201
881.942	0.0180263
882.020	0.0181134
882.098	0.0180173
882.176	0.0180067
882.254	0.0179323
882.332	0.0179977
882.410	0.0179719
882.488	0.0178033
882.567	0.0178755
882.645	0.0178956
882.723	0.0179362
882.801	0.0178461
882.879	0.0178494
882.957	0.0178815
883.035	0.0179733
883.113	0.0178822
883.192	0.0179569
883.270	0.0178478
883.348	0.0178680
883.426	0.0178079
883.504	0.0178320
883.582	0.0178467
883.660	0.0177632
883.738	0.0178455
883.817	0.0177619
883.895	0.0178998
883.973	0.0179262
884.051	0.0177863
884.129	0.0178581
884.207	0.0178542
884.285	0.0177940
884.363	0.0178866
884.442	0.0177737
884.520	0.0179298
884.598	0.0179019
884.676	0.0178708
884.754	0.0178416
884.832	0.0178836
884.910	0.0179729
884.988	0.0178233
885.067	0.0179106
885.145	0.0178097
885.223	0.0176978
885.301	0.0177670
885.379	0.0177313
885.457	0.0175912
885.535	0.0176475
885.613	0.0176760
885.692	0.0177209
885.770	0.0176323
885.848	0.0176514
885.926	0.0177834
886.004	0.0177415
886.082	0.0176572
886.160	0.0176701
886.238	0.0176567
886.317	0.0176929
886.395	0.0176740
886.473	0.0177862
886.551	0.0177166
886.629	0.0177534
886.707	0.0177185
886.785	0.0176956
886.863	0.0177154
886.942	0.0175941
887.020	0.0176931
887.098	0.0177477
887.176	0.0175964
887.254	0.0176509
887.332	0.0177216
887.410	0.0177144
887.488	0.0175775
887.567	0.0177235
887.645	0.0177765
887.723	0.0176455
887.801	0.0177287
887.879	0.0178110
887.957	0.0178625
888.035	0.0178349
888.113	0.0177521
888.192	0.0177517
888.270	0.0177682
888.348	0.0177484
888.426	0.0177306
888.504	0.0177962
888.582	0.0178172
888.660	0.0178081
888.738	0.0178476
888.817	0.0176623
888.895	0.0177695
888.973	0.0177309
889.051	0.0178226
889.129	0.0177354
889.207	0.0176556
889.285	0.0179105
889.363	0.0179412
889.442	0.0180233
889.520	0.0181846
889.598	0.0181592
889.676	0.0181138
889.754	0.0181152
889.832	0.0181494
889.910	0.0181071
889.988	0.0181350
890.067	0.0183477
890.145	0.0181584
890.223	0.0181175
890.301	0.0180639
890.379	0.0181895
890.457	0.0180193
890.535	0.0179877
890.613	0.0182320
890.692	0.0180959
890.770	0.0180043
890.848	0.0181018
890.926	0.0180651
891.004	0.0181524
891.082	0.0179039
891.160	0.0180407
891.238	0.0181348
891.317	0.0180852
891.395	0.0180502
891.473	0.0180386
891.551	0.0179929
891.629	0.0181770
891.707	0.0181232
891.785	0.0181444
891.863	0.0182256
891.942	0.0180871
892.020	0.0181113
892.098	0.0182079
892.176	0.0181472
892.254	0.0180676
892.332	0.0181033
892.410	0.0182464
892.488	0.0180904
892.567	0.0180980
892.645	0.0181900
892.723	0.0182010
892.801	0.0182147
892.879	0.0181081
892.957	0.0180097
893.035	0.0180005
893.113	0.0180941
893.192	0.0180226
893.270	0.0181563
893.348	0.0180315
893.426	0.0180898
893.504	0.0180765
893.582	0.0181603
893.660	0.0180684
893.738	0.0179208
893.817	0.0179234
893.895	0.0180206
893.973	0.0181252
894.051	0.0179348
894.129	0.0177766
894.207	0.0178413
894.285	0.0178040
894.363	0.0177768
894.442	0.0178085
894.520	0.0178536
894.598	0.0176068
894.676	0.0178609
894.754	0.0179552
894.832	0.0177732
894.910	0.0178828
894.988	0.0177386
895.067	0.0178297
895.145	0.0177782
895.223	0.0178563
895.301	0.0178922
895.379	0.0179095
895.457	0.0178893
895.535	0.0178138
895.613	0.0177768
895.692	0.0179813
895.770	0.0179352
895.848	0.0178274
895.926	0.0177729
896.004	0.0177723
896.082	0.0177290
896.160	0.0177881
896.238	0.0176942
896.317	0.0175629
896.395	0.0176593
896.473	0.0178413
896.551	0.0177183
896.629	0.0176617
896.707	0.0178158
896.785	0.0177879
896.863	0.0178358
896.942	0.0179875
897.020	0.0179253
897.098	0.0178381
897.176	0.0179623
897.254	0.0179115
897.332	0.0179503
897.410	0.0180178
897.488	0.0179357
897.567	0.0179843
897.645	0.0181060
897.723	0.0179266
897.801	0.0179347
897.879	0.0181229
897.957	0.0180198
898.035	0.0178876
898.113	0.0178275
898.192	0.0179128
898.270	0.0179533
898.348	0.0180184
898.426	0.0179045
898.504	0.0179642
898.582	0.0179083
898.660	0.0179810
898.738	0.0179606
898.817	0.0179757
898.895	0.0180247
898.973	0.0180585
899.051	0.0179935
899.129	0.0180629
899.207	0.0179086
899.285	0.0180204
899.363	0.0180907
899.442	0.0180006
899.520	0.0180685
899.598	0.0180127
899.676	0.0180384
899.754	0.0179510
899.832	0.0179855
899.910	0.0179413
899.988	0.0178916
900.067	0.0179478
900.145	0.0178227
900.223	0.0180975
900.301	0.0181253
900.379	0.0179733
900.457	0.0179138
900.535	0.0180331
900.613	0.0179881
900.692	0.0180723
900.770	0.0181452
900.848	0.0181434
900.926	0.0181137
901.004	0.0180231
901.082	0.0181373
901.160	0.0181438
901.238	0.0181888
901.317	0.0181223
901.395	0.0182704
901.473	0.0183025
901.551	0.0183451
901.629	0.0183672
901.707	0.0181828
901.785	0.0181474
901.863	0.0180253
901.942	0.0182135
902.020	0.0181434
902.098	0.0182112
902.176	0.0181273
902.254	0.0180492
902.332	0.0181247
902.410	0.0181022
902.488	0.0180394
902.567	0.0179520
902.645	0.0179976
902.723	0.0180771
902.801	0.0179002
902.879	0.0178629
902.957	0.0179833
903.035	0.0179707
903.113	0.0179053
903.192	0.0180022
903.270	0.0178722
903.348	0.0179105
903.426	0.0178265
903.504	0.0178474
903.582	0.0178828
903.660	0.0178597
903.738	0.0179391
903.817	0.0179416
903.895	0.0178457
903.973	0.0178031
904.051	0.0178783
904.129	0.0178938
904.207	0.0178330
904.285	0.0176720
904.363	0.0176927
904.442	0.0177665
904.520	0.0177161
904.598	0.0177708
904.676	0.0178046
904.754	0.0177501
904.832	0.0178626
904.910	0.0177016
904.988	0.0178970
905.067	0.0177960
905.145	0.0178166
905.223	0.0178331
905.301	0.0179855
905.379	0.0178586
905.457	0.0178831
905.535	0.0179854
905.613	0.0179531
905.692	0.0180160
905.770	0.0179399
905.848	0.0180155
905.926	0.0180377
906.004	0.0179707
906.082	0.0179750
906.160	0.0179656
906.238	0.0180746
906.317	0.0181307
906.395	0.0180748
906.473	0.0180251
906.551	0.0180492
906.629	0.0180209
906.707	0.0180654
906.785	0.0180563
906.863	0.0180625
906.942	0.0179890
907.020	0.0180055
907.098	0.0179312
907.176	0.0180527
907.254	0.0179659
907.332	0.0180493
907.410	0.0181699
907.488	0.0180204
907.567	0.0179622
907.645	0.0180324
907.723	0.0180944
907.801	0.0180428
907.879	0.0178636
907.957	0.0178812
908.035	0.0176665
908.113	0.0178333
908.192	0.0180475
908.270	0.0177917
908.348	0.0177596
908.426	0.0177502
908.504	0.0176982
908.582	0.0177326
908.660	0.0177660
908.738	0.0176961
908.817	0.0176883
908.895	0.0175544
908.973	0.0175413
909.051	0.0177121
909.129	0.0176037
909.207	0.0177637
909.285	0.0176504
909.363	0.0176487
909.442	0.0176801
909.520	0.0177676
909.598	0.0176785
909.676	0.0177375
909.754	0.0176646
909.832	0.0175714
909.910	0.0177017
909.988	0.0178065
910.067	0.0177120
910.145	0.0177496
910.223	0.0178011
910.301	0.0177185
910.379	0.0178564
910.457	0.0180428
910.535	0.0180016
910.613	0.0179150
910.692	0.0180500
910.770	0.0180702
910.848	0.0180335
910.926	0.0181549
911.004	0.0180513
911.082	0.0180238
911.160	0.0180698
911.238	0.0182026
911.317	0.0179018
911.395	0.0180713
911.473	0.0180279
911.551	0.0179043
911.629	0.0178636
911.707	0.0179200
911.785	0.0180410
911.863	0.0179171
911.942	0.0178821
912.020	0.0178439
912.098	0.0179757
912.176	0.0179381
912.254	0.0178029
912.332	0.0179391
912.410	0.0180177
912.488	0.0178379
912.567	0.0180068
912.645	0.0179155
912.723	0.0179975
912.801	0.0179794
912.879	0.0178432
912.957	0.0179785
913.035	0.0180563
913.113	0.0179056
913.192	0.0179827
913.270	0.0180035
913.348	0.0181294
913.426	0.0179382
913.504	0.0180061
913.582	0.0179755
913.660	0.0181684
913.738	0.0181367
913.817	0.0181317
913.895	0.0181521
913.973	0.0180864
914.051	0.0180179
914.129	0.0181673
914.207	0.0182517
914.285	0.0181515
914.363	0.0180138
914.442	0.0180260
914.520	0.0179469
914.598	0.0179678
914.676	0.0180934
914.754	0.0180059
914.832	0.0177862
914.910	0.0179092
914.988	0.0178709
915.067	0.0178419
915.145	0.0178217
915.223	0.0177872
915.301	0.0177396
915.379	0.0177158
915.457	0.0177833
915.535	0.0177018
915.613	0.0176469
915.692	0.0177528
915.770	0.0177409
915.848	0.0177026
915.926	0.0177251
916.004	0.0175797
916.082	0.0176166
916.160	0.0176858
916.238	0.0177738
916.317	0.0175101
916.395	0.0175394
916.473	0.0175221
916.551	0.0177003
916.629	0.0175459
916.707	0.0175954
916.785	0.0176189
916.863	0.0175378
916.942	0.0176805
917.020	0.0176812
917.098	0.0177480
917.176	0.0177191
917.254	0.0177147
917.332	0.0177383
917.410	0.0177798
917.488	0.0177340
917.567	0.0177789
917.645	0.0178506
917.723	0.0177602
917.801	0.0177456
917.879	0.0179296
917.957	0.0178141
918.035	0.0178754
918.113	0.0177936
918.192	0.0177067
918.270	0.0178061
918.348	0.0178253
918.426	0.0177396
918.504	0.0178930
918.582	0.0177426
918.660	0.0177724
918.738	0.0178355
918.817	0.0178070
918.895	0.0178515
918.973	0.0177820
919.051	0.0178236
919.129	0.0177792
919.207	0.0178097
919.285	0.0177882
919.363	0.0176676
919.442	0.0178797
919.520	0.0177055
919.598	0.0177752
919.676	0.0177493
919.754	0.0176502
919.832	0.0176714
919.910	0.0177068
