06/01/2022	22:17:34	Ver.	4.1	UNKNOWN
Optical Delay	599.988409	Delta X		0.078125	Sweeps	1	Scan Rate	0/0
Coordinates	Axis 1	NaN	Axis 2	NaN	Axis 3	NaN	Axis 4	NaN	Axis 5	NaN	Axis 6	0.000000
TX Power	0.000000	RX Power	0.000000

599.988	0.0172269
600.067	0.0173458
600.145	0.0174665
600.223	0.0172836
600.301	0.0174598
600.379	0.0175361
600.457	0.0174710
600.535	0.0173326
600.613	0.0174171
600.692	0.0173400
600.770	0.0173229
600.848	0.0176273
600.926	0.0173611
601.004	0.0173441
601.082	0.0174484
601.160	0.0175121
601.238	0.0175169
601.317	0.0174673
601.395	0.0174806
601.473	0.0173597
601.551	0.0175550
601.629	0.0176219
601.707	0.0175623
601.785	0.0175451
601.863	0.0174884
601.942	0.0175779
602.020	0.0175864
602.098	0.0175894
602.176	0.0176293
602.254	0.0175134
602.332	0.0175526
602.410	0.0175294
602.488	0.0176150
602.567	0.0175716
602.645	0.0174563
602.723	0.0175126
602.801	0.0173576
602.879	0.0174706
602.957	0.0174411
603.035	0.0173697
603.113	0.0173748
603.192	0.0175105
603.270	0.0174492
603.348	0.0174031
603.426	0.0174925
603.504	0.0173079
603.582	0.0172849
603.660	0.0173029
603.738	0.0174459
603.817	0.0173821
603.895	0.0174056
603.973	0.0173853
604.051	0.0172879
604.129	0.0173628
604.207	0.0173595
604.285	0.0174379
604.363	0.0173695
604.442	0.0174548
604.520	0.0173982
604.598	0.0172105
604.676	0.0173840
604.754	0.0174684
604.832	0.0175056
604.910	0.0175822
604.988	0.0174509
605.067	0.0174969
605.145	0.0174780
605.223	0.0175194
605.301	0.0175284
605.379	0.0176823
605.457	0.0176501
605.535	0.0177059
605.613	0.0177220
605.692	0.0177908
605.770	0.0177895
605.848	0.0176445
605.926	0.0177295
606.004	0.0177975
606.082	0.0177459
606.160	0.0177328
606.238	0.0178310
606.317	0.0178393
606.395	0.0178910
606.473	0.0178413
606.551	0.0178978
606.629	0.0178418
606.707	0.0178800
606.785	0.0178586
606.863	0.0177596
606.942	0.0178924
607.020	0.0179107
607.098	0.0177782
607.176	0.0177658
607.254	0.0176655
607.332	0.0179112
607.410	0.0177564
607.488	0.0177676
607.567	0.0178950
607.645	0.0178104
607.723	0.0180047
607.801	0.0178066
607.879	0.0176820
607.957	0.0179028
608.035	0.0177000
608.113	0.0178616
608.192	0.0179519
608.270	0.0178011
608.348	0.0177331
608.426	0.0177988
608.504	0.0178338
608.582	0.0178814
608.660	0.0177695
608.738	0.0178683
608.817	0.0177948
608.895	0.0178569
608.973	0.0178545
609.051	0.0177673
609.129	0.0177834
609.207	0.0178205
609.285	0.0176595
609.363	0.0177095
609.442	0.0177747
609.520	0.0177013
609.598	0.0176483
609.676	0.0175819
609.754	0.0176556
609.832	0.0175995
609.910	0.0175829
609.988	0.0175161
610.067	0.0175406
610.145	0.0175852
610.223	0.0175039
610.301	0.0176415
610.379	0.0176716
610.457	0.0176784
610.535	0.0175352
610.613	0.0175195
610.692	0.0176477
610.770	0.0174787
610.848	0.0176136
610.926	0.0175822
611.004	0.0175439
611.082	0.0177527
611.160	0.0175261
611.238	0.0176601
611.317	0.0176185
611.395	0.0175743
611.473	0.0176208
611.551	0.0177558
611.629	0.0176342
611.707	0.0178056
611.785	0.0176017
611.863	0.0176633
611.942	0.0176524
612.020	0.0176495
612.098	0.0174752
612.176	0.0175887
612.254	0.0176785
612.332	0.0176022
612.410	0.0174150
612.488	0.0175269
612.567	0.0175067
612.645	0.0174632
612.723	0.0174601
612.801	0.0175082
612.879	0.0173251
612.957	0.0174932
613.035	0.0173919
613.113	0.0173845
613.192	0.0174483
613.270	0.0174931
613.348	0.0173663
613.426	0.0174284
613.504	0.0174879
613.582	0.0174034
613.660	0.0173658
613.738	0.0174495
613.817	0.0175332
613.895	0.0175431
613.973	0.0175374
614.051	0.0173801
614.129	0.0174879
614.207	0.0175839
614.285	0.0175521
614.363	0.0175487
614.442	0.0175996
614.520	0.0175845
614.598	0.0176068
614.676	0.0176001
614.754	0.0175777
614.832	0.0176727
614.910	0.0176857
614.988	0.0176692
615.067	0.0177213
615.145	0.0175308
615.223	0.0177245
615.301	0.0177440
615.379	0.0176144
615.457	0.0178150
615.535	0.0176575
615.613	0.0176183
615.692	0.0176997
615.770	0.0176852
615.848	0.0177745
615.926	0.0177699
616.004	0.0178618
616.082	0.0178208
616.160	0.0177101
616.238	0.0178915
616.317	0.0179445
616.395	0.0180687
616.473	0.0179546
616.551	0.0179562
616.629	0.0179575
616.707	0.0178268
616.785	0.0179067
616.863	0.0179482
616.942	0.0178857
617.020	0.0179852
617.098	0.0178486
617.176	0.0179375
617.254	0.0178853
617.332	0.0179586
617.410	0.0178666
617.488	0.0179150
617.567	0.0179645
617.645	0.0179601
617.723	0.0180122
617.801	0.0179221
617.879	0.0179932
617.957	0.0181030
618.035	0.0180486
618.113	0.0181174
618.192	0.0181132
618.270	0.0181357
618.348	0.0180022
618.426	0.0179930
618.504	0.0181176
618.582	0.0180313
618.660	0.0178983
618.738	0.0178526
618.817	0.0179984
618.895	0.0177266
618.973	0.0176541
619.051	0.0176613
619.129	0.0176338
619.207	0.0176447
619.285	0.0175641
619.363	0.0175913
619.442	0.0175211
619.520	0.0175143
619.598	0.0176012
619.676	0.0175748
619.754	0.0176854
619.832	0.0177170
619.910	0.0176903
619.988	0.0175860
620.067	0.0176933
620.145	0.0177932
620.223	0.0177190
620.301	0.0177214
620.379	0.0176615
620.457	0.0177584
620.535	0.0177232
620.613	0.0176605
620.692	0.0174966
620.770	0.0174591
620.848	0.0175285
620.926	0.0174545
621.004	0.0174103
621.082	0.0174284
621.160	0.0173325
621.238	0.0172005
621.317	0.0172435
621.395	0.0171747
621.473	0.0170535
621.551	0.0170184
621.629	0.0171767
621.707	0.0170557
621.785	0.0170755
621.863	0.0170899
621.942	0.0173284
622.020	0.0172204
622.098	0.0171316
622.176	0.0173329
622.254	0.0172526
622.332	0.0171053
622.410	0.0173658
622.488	0.0172416
622.567	0.0173167
622.645	0.0173186
622.723	0.0174105
622.801	0.0174876
622.879	0.0173684
622.957	0.0175555
623.035	0.0175105
623.113	0.0175382
623.192	0.0175204
623.270	0.0175262
623.348	0.0175140
623.426	0.0174344
623.504	0.0176487
623.582	0.0176759
623.660	0.0175682
623.738	0.0175536
623.817	0.0177961
623.895	0.0176923
623.973	0.0175033
624.051	0.0176862
624.129	0.0177274
624.207	0.0176827
624.285	0.0177824
624.363	0.0176456
624.442	0.0176849
624.520	0.0178179
624.598	0.0176928
624.676	0.0175987
624.754	0.0177515
624.832	0.0177808
624.910	0.0177581
624.988	0.0178495
625.067	0.0177654
625.145	0.0178120
625.223	0.0178340
625.301	0.0178252
625.379	0.0177258
625.457	0.0178717
625.535	0.0177415
625.613	0.0176207
625.692	0.0176043
625.770	0.0178683
625.848	0.0177603
625.926	0.0176957
626.004	0.0176473
626.082	0.0177194
626.160	0.0177512
626.238	0.0176446
626.317	0.0175454
626.395	0.0177003
626.473	0.0176517
626.551	0.0174715
626.629	0.0174953
626.707	0.0176191
626.785	0.0175441
626.863	0.0175739
626.942	0.0175854
627.020	0.0176500
627.098	0.0176332
627.176	0.0176754
627.254	0.0176773
627.332	0.0175152
627.410	0.0176199
627.488	0.0176629
627.567	0.0176582
627.645	0.0176245
627.723	0.0176206
627.801	0.0176977
627.879	0.0177617
627.957	0.0176941
628.035	0.0176242
628.113	0.0176672
628.192	0.0177980
628.270	0.0178610
628.348	0.0178477
628.426	0.0176963
628.504	0.0178284
628.582	0.0176604
628.660	0.0177574
628.738	0.0177293
628.817	0.0177338
628.895	0.0176859
628.973	0.0177490
629.051	0.0176259
629.129	0.0176823
629.207	0.0176390
629.285	0.0176361
629.363	0.0176780
629.442	0.0176297
629.520	0.0176248
629.598	0.0176781
629.676	0.0176610
629.754	0.0175034
629.832	0.0175900
629.910	0.0177458
629.988	0.0175210
630.067	0.0176525
630.145	0.0176351
630.223	0.0177358
630.301	0.0177537
630.379	0.0176167
630.457	0.0176850
630.535	0.0177744
630.613	0.0176270
630.692	0.0175838
630.770	0.0177045
630.848	0.0175417
630.926	0.0176323
631.004	0.0175122
631.082	0.0175301
631.160	0.0174924
631.238	0.0174593
631.317	0.0175517
631.395	0.0174910
631.473	0.0174770
631.551	0.0174422
631.629	0.0174659
631.707	0.0174268
631.785	0.0175460
631.863	0.0175906
631.942	0.0173849
632.020	0.0173263
632.098	0.0175243
632.176	0.0175222
632.254	0.0173933
632.332	0.0173827
632.410	0.0172761
632.488	0.0174161
632.567	0.0174070
632.645	0.0173041
632.723	0.0174592
632.801	0.0172636
632.879	0.0172456
632.957	0.0173279
633.035	0.0173399
633.113	0.0171143
633.192	0.0172981
633.270	0.0173206
633.348	0.0171864
633.426	0.0172456
633.504	0.0173409
633.582	0.0173586
633.660	0.0173051
633.738	0.0173766
633.817	0.0174640
633.895	0.0174874
633.973	0.0174286
634.051	0.0175976
634.129	0.0176928
634.207	0.0175723
634.285	0.0177566
634.363	0.0178265
634.442	0.0178871
634.520	0.0176530
634.598	0.0177271
634.676	0.0176756
634.754	0.0176353
634.832	0.0176918
634.910	0.0177335
634.988	0.0175462
635.067	0.0175073
635.145	0.0175457
635.223	0.0176261
635.301	0.0176237
635.379	0.0176610
635.457	0.0175762
635.535	0.0176279
635.613	0.0176920
635.692	0.0177694
635.770	0.0175803
635.848	0.0176332
635.926	0.0175838
636.004	0.0178094
636.082	0.0177139
636.160	0.0177147
636.238	0.0179482
636.317	0.0178905
636.395	0.0178756
636.473	0.0177914
636.551	0.0177113
636.629	0.0178840
636.707	0.0178156
636.785	0.0177007
636.863	0.0176499
636.942	0.0177946
637.020	0.0176746
637.098	0.0179216
637.176	0.0177148
637.254	0.0178513
637.332	0.0177074
637.410	0.0176736
637.488	0.0177650
637.567	0.0176714
637.645	0.0176546
637.723	0.0177685
637.801	0.0176822
637.879	0.0176532
637.957	0.0176067
638.035	0.0176242
638.113	0.0175515
638.192	0.0174861
638.270	0.0176192
638.348	0.0176595
638.426	0.0175849
638.504	0.0175883
638.582	0.0176417
638.660	0.0176455
638.738	0.0175005
638.817	0.0176429
638.895	0.0176944
638.973	0.0176043
639.051	0.0176118
639.129	0.0175834
639.207	0.0175761
639.285	0.0176544
639.363	0.0177786
639.442	0.0177371
639.520	0.0176228
639.598	0.0175622
639.676	0.0177554
639.754	0.0178207
639.832	0.0176582
639.910	0.0177190
639.988	0.0175615
640.067	0.0175873
640.145	0.0175687
640.223	0.0176099
640.301	0.0176041
640.379	0.0176381
640.457	0.0175028
640.535	0.0174997
640.613	0.0176073
640.692	0.0175574
640.770	0.0176266
640.848	0.0175548
640.926	0.0175054
641.004	0.0176810
641.082	0.0176195
641.160	0.0175225
641.238	0.0177088
641.317	0.0176346
641.395	0.0177264
641.473	0.0177428
641.551	0.0178869
641.629	0.0176448
641.707	0.0177248
641.785	0.0178400
641.863	0.0177651
641.942	0.0176437
642.020	0.0176182
642.098	0.0175339
642.176	0.0176305
642.254	0.0175208
642.332	0.0173148
642.410	0.0172948
642.488	0.0173237
642.567	0.0173338
642.645	0.0170977
642.723	0.0172522
642.801	0.0172282
642.879	0.0171336
642.957	0.0172337
643.035	0.0172929
643.113	0.0174637
643.192	0.0174367
643.270	0.0173508
643.348	0.0173091
643.426	0.0173083
643.504	0.0174836
643.582	0.0175892
643.660	0.0174545
643.738	0.0176418
643.817	0.0174564
643.895	0.0174741
643.973	0.0174044
644.051	0.0175403
644.129	0.0174250
644.207	0.0173921
644.285	0.0175529
644.363	0.0175371
644.442	0.0173724
644.520	0.0172556
644.598	0.0173341
644.676	0.0173059
644.754	0.0174065
644.832	0.0175460
644.910	0.0175217
644.988	0.0174289
645.067	0.0174830
645.145	0.0175755
645.223	0.0175053
645.301	0.0176418
645.379	0.0177565
645.457	0.0177200
645.535	0.0178565
645.613	0.0178741
645.692	0.0178056
645.770	0.0177499
645.848	0.0177384
645.926	0.0177746
646.004	0.0178490
646.082	0.0178584
646.160	0.0178978
646.238	0.0177451
646.317	0.0176849
646.395	0.0178443
646.473	0.0177160
646.551	0.0177287
646.629	0.0179596
646.707	0.0178520
646.785	0.0176449
646.863	0.0177464
646.942	0.0177760
647.020	0.0177593
647.098	0.0177560
647.176	0.0176167
647.254	0.0175623
647.332	0.0177769
647.410	0.0177396
647.488	0.0175172
647.567	0.0176162
647.645	0.0176127
647.723	0.0176749
647.801	0.0176958
647.879	0.0176627
647.957	0.0175321
648.035	0.0174960
648.113	0.0176218
648.192	0.0176365
648.270	0.0175825
648.348	0.0174525
648.426	0.0175663
648.504	0.0176254
648.582	0.0174863
648.660	0.0176766
648.738	0.0175986
648.817	0.0175391
648.895	0.0174591
648.973	0.0175868
649.051	0.0177341
649.129	0.0175022
649.207	0.0176121
649.285	0.0175635
649.363	0.0175400
649.442	0.0177255
649.520	0.0176179
649.598	0.0175549
649.676	0.0175857
649.754	0.0177327
649.832	0.0175529
649.910	0.0175230
649.988	0.0175925
650.067	0.0175191
650.145	0.0175098
650.223	0.0176550
650.301	0.0176689
650.379	0.0175967
650.457	0.0175153
650.535	0.0175471
650.613	0.0175850
650.692	0.0175731
650.770	0.0176112
650.848	0.0175258
650.926	0.0176033
651.004	0.0176046
651.082	0.0174747
651.160	0.0175995
651.238	0.0175940
651.317	0.0175705
651.395	0.0176262
651.473	0.0176203
651.551	0.0176733
651.629	0.0176815
651.707	0.0176521
651.785	0.0176450
651.863	0.0174886
651.942	0.0176434
652.020	0.0175314
652.098	0.0176987
652.176	0.0175262
652.254	0.0176768
652.332	0.0176302
652.410	0.0176143
652.488	0.0176486
652.567	0.0176710
652.645	0.0177523
652.723	0.0179047
652.801	0.0177623
652.879	0.0178629
652.957	0.0177856
653.035	0.0177651
653.113	0.0179337
653.192	0.0178327
653.270	0.0179029
653.348	0.0178541
653.426	0.0180322
653.504	0.0179768
653.582	0.0180085
653.660	0.0179199
653.738	0.0179605
653.817	0.0179127
653.895	0.0180733
653.973	0.0179436
654.051	0.0178204
654.129	0.0178616
654.207	0.0178413
654.285	0.0179231
654.363	0.0178378
654.442	0.0177417
654.520	0.0178587
654.598	0.0177277
654.676	0.0176952
654.754	0.0177674
654.832	0.0178941
654.910	0.0175815
654.988	0.0177711
655.067	0.0178146
655.145	0.0176941
655.223	0.0176801
655.301	0.0176678
655.379	0.0175318
655.457	0.0176222
655.535	0.0176222
655.613	0.0176416
655.692	0.0177073
655.770	0.0174660
655.848	0.0174841
655.926	0.0175073
656.004	0.0174366
656.082	0.0174705
656.160	0.0174849
656.238	0.0173323
656.317	0.0174648
656.395	0.0175115
656.473	0.0172913
656.551	0.0173380
656.629	0.0173843
656.707	0.0175568
656.785	0.0175095
656.863	0.0173909
656.942	0.0174496
657.020	0.0175568
657.098	0.0175562
657.176	0.0176077
657.254	0.0175195
657.332	0.0176199
657.410	0.0176769
657.488	0.0176715
657.567	0.0175151
657.645	0.0175608
657.723	0.0175800
657.801	0.0174050
657.879	0.0174947
657.957	0.0174919
658.035	0.0175419
658.113	0.0175233
658.192	0.0174868
658.270	0.0175237
658.348	0.0174385
658.426	0.0174830
658.504	0.0174076
658.582	0.0175175
658.660	0.0173676
658.738	0.0172909
658.817	0.0174840
658.895	0.0173925
658.973	0.0174416
659.051	0.0176210
659.129	0.0174536
659.207	0.0175038
659.285	0.0174662
659.363	0.0175707
659.442	0.0174142
659.520	0.0175169
659.598	0.0175198
659.676	0.0175626
659.754	0.0174907
659.832	0.0174161
659.910	0.0175618
659.988	0.0174857
660.067	0.0174500
660.145	0.0173627
660.223	0.0173604
660.301	0.0174673
660.379	0.0173853
660.457	0.0173335
660.535	0.0172484
660.613	0.0172681
660.692	0.0173697
660.770	0.0174483
660.848	0.0174996
660.926	0.0172987
661.004	0.0173824
661.082	0.0173955
661.160	0.0174055
661.238	0.0173309
661.317	0.0172881
661.395	0.0174098
661.473	0.0174429
661.551	0.0174737
661.629	0.0175416
661.707	0.0175190
661.785	0.0175753
661.863	0.0175420
661.942	0.0173963
662.020	0.0174181
662.098	0.0175737
662.176	0.0175325
662.254	0.0175761
662.332	0.0174057
662.410	0.0174353
662.488	0.0175396
662.567	0.0174007
662.645	0.0175151
662.723	0.0174948
662.801	0.0174285
662.879	0.0174928
662.957	0.0175346
663.035	0.0176205
663.113	0.0176811
663.192	0.0176912
663.270	0.0175255
663.348	0.0175131
663.426	0.0176472
663.504	0.0175445
663.582	0.0176477
663.660	0.0176868
663.738	0.0177383
663.817	0.0174888
663.895	0.0175455
663.973	0.0175742
664.051	0.0176135
664.129	0.0174982
664.207	0.0175743
664.285	0.0176816
664.363	0.0176688
664.442	0.0176900
664.520	0.0176231
664.598	0.0175978
664.676	0.0174948
664.754	0.0175700
664.832	0.0175282
664.910	0.0175542
664.988	0.0175327
665.067	0.0175732
665.145	0.0174377
665.223	0.0175714
665.301	0.0174455
665.379	0.0175342
665.457	0.0174680
665.535	0.0175134
665.613	0.0175465
665.692	0.0173664
665.770	0.0174579
665.848	0.0174638
665.926	0.0176055
666.004	0.0175208
666.082	0.0175333
666.160	0.0175780
666.238	0.0174964
666.317	0.0175866
666.395	0.0176419
666.473	0.0175932
666.551	0.0174850
666.629	0.0175099
666.707	0.0174371
666.785	0.0175213
666.863	0.0175374
666.942	0.0173830
667.020	0.0174621
667.098	0.0175464
667.176	0.0175505
667.254	0.0174697
667.332	0.0175086
667.410	0.0176277
667.488	0.0175644
667.567	0.0175202
667.645	0.0176846
667.723	0.0176067
667.801	0.0176334
667.879	0.0177313
667.957	0.0177007
668.035	0.0177219
668.113	0.0176070
668.192	0.0174847
668.270	0.0176992
668.348	0.0176929
668.426	0.0177703
668.504	0.0177225
668.582	0.0176779
668.660	0.0176884
668.738	0.0176660
668.817	0.0177119
668.895	0.0176839
668.973	0.0176568
669.051	0.0176476
669.129	0.0175606
669.207	0.0176700
669.285	0.0178336
669.363	0.0176857
669.442	0.0177705
669.520	0.0177161
669.598	0.0175600
669.676	0.0177864
669.754	0.0177937
669.832	0.0176047
669.910	0.0176653
669.988	0.0175505
670.067	0.0176320
670.145	0.0176037
670.223	0.0175059
670.301	0.0176236
670.379	0.0175598
670.457	0.0176960
670.535	0.0175492
670.613	0.0176088
670.692	0.0175693
670.770	0.0174870
670.848	0.0175633
670.926	0.0175445
671.004	0.0175677
671.082	0.0175979
671.160	0.0176778
671.238	0.0176474
671.317	0.0175636
671.395	0.0176601
671.473	0.0175591
671.551	0.0175629
671.629	0.0175522
671.707	0.0177345
671.785	0.0177020
671.863	0.0177100
671.942	0.0175013
672.020	0.0175716
672.098	0.0176830
672.176	0.0176074
672.254	0.0176552
672.332	0.0177077
672.410	0.0176106
672.488	0.0173931
672.567	0.0174582
672.645	0.0176600
672.723	0.0175253
672.801	0.0175410
672.879	0.0174331
672.957	0.0175246
673.035	0.0174461
673.113	0.0175040
673.192	0.0175665
673.270	0.0174880
673.348	0.0175237
673.426	0.0173711
673.504	0.0174118
673.582	0.0174858
673.660	0.0176061
673.738	0.0175043
673.817	0.0175636
673.895	0.0176491
673.973	0.0176455
674.051	0.0176627
674.129	0.0175852
674.207	0.0176315
674.285	0.0176884
674.363	0.0177731
674.442	0.0177421
674.520	0.0177003
674.598	0.0177013
674.676	0.0176818
674.754	0.0176746
674.832	0.0177548
674.910	0.0177063
674.988	0.0176192
675.067	0.0176369
675.145	0.0174696
675.223	0.0175854
675.301	0.0176001
675.379	0.0175713
675.457	0.0176172
675.535	0.0175798
675.613	0.0175941
675.692	0.0174680
675.770	0.0175097
675.848	0.0176910
675.926	0.0174371
676.004	0.0175288
676.082	0.0176244
676.160	0.0175642
676.238	0.0175826
676.317	0.0176449
676.395	0.0175346
676.473	0.0174369
676.551	0.0175150
676.629	0.0175766
676.707	0.0174926
676.785	0.0177202
676.863	0.0176737
676.942	0.0175308
677.020	0.0175894
677.098	0.0175338
677.176	0.0175628
677.254	0.0175790
677.332	0.0176537
677.410	0.0177117
677.488	0.0175856
677.567	0.0174534
677.645	0.0175609
677.723	0.0174992
677.801	0.0175055
677.879	0.0174474
677.957	0.0173470
678.035	0.0174511
678.113	0.0174589
678.192	0.0174499
678.270	0.0174610
678.348	0.0175760
678.426	0.0174249
678.504	0.0175217
678.582	0.0176453
678.660	0.0176546
678.738	0.0176568
678.817	0.0177125
678.895	0.0177170
678.973	0.0176947
679.051	0.0177242
679.129	0.0176482
679.207	0.0175800
679.285	0.0176873
679.363	0.0176000
679.442	0.0175436
679.520	0.0174278
679.598	0.0176872
679.676	0.0175868
679.754	0.0176863
679.832	0.0176302
679.910	0.0175879
679.988	0.0176674
680.067	0.0176938
680.145	0.0176621
680.223	0.0178059
680.301	0.0177631
680.379	0.0175927
680.457	0.0177119
680.535	0.0177001
680.613	0.0176921
680.692	0.0177802
680.770	0.0176411
680.848	0.0176086
680.926	0.0177229
681.004	0.0176360
681.082	0.0177727
681.160	0.0177808
681.238	0.0175943
681.317	0.0176208
681.395	0.0176461
681.473	0.0176368
681.551	0.0176113
681.629	0.0176892
681.707	0.0174667
681.785	0.0176283
681.863	0.0176479
681.942	0.0176362
682.020	0.0175852
682.098	0.0176792
682.176	0.0177452
682.254	0.0176280
682.332	0.0176165
682.410	0.0176324
682.488	0.0174968
682.567	0.0178047
682.645	0.0176854
682.723	0.0175063
682.801	0.0176427
682.879	0.0177596
682.957	0.0177984
683.035	0.0177737
683.113	0.0177131
683.192	0.0177597
683.270	0.0178337
683.348	0.0179987
683.426	0.0175999
683.504	0.0176447
683.582	0.0176909
683.660	0.0176125
683.738	0.0176349
683.817	0.0175125
683.895	0.0175249
683.973	0.0175574
684.051	0.0176298
684.129	0.0175333
684.207	0.0174674
684.285	0.0174702
684.363	0.0175084
684.442	0.0174202
684.520	0.0174798
684.598	0.0174708
684.676	0.0173244
684.754	0.0173367
684.832	0.0175890
684.910	0.0175010
684.988	0.0174859
685.067	0.0173195
685.145	0.0174990
685.223	0.0175151
685.301	0.0172860
685.379	0.0174426
685.457	0.0174618
685.535	0.0173709
685.613	0.0174397
685.692	0.0174663
685.770	0.0174281
685.848	0.0173478
685.926	0.0174932
686.004	0.0173048
686.082	0.0173371
686.160	0.0174097
686.238	0.0172599
686.317	0.0172970
686.395	0.0172844
686.473	0.0174275
686.551	0.0174872
686.629	0.0173280
686.707	0.0173330
686.785	0.0173785
686.863	0.0173124
686.942	0.0173648
687.020	0.0174708
687.098	0.0173546
687.176	0.0172834
687.254	0.0173373
687.332	0.0174600
687.410	0.0175352
687.488	0.0175607
687.567	0.0174775
687.645	0.0173763
687.723	0.0174506
687.801	0.0174384
687.879	0.0174097
687.957	0.0174815
688.035	0.0173682
688.113	0.0174435
688.192	0.0174056
688.270	0.0173108
688.348	0.0173061
688.426	0.0174999
688.504	0.0175697
688.582	0.0172585
688.660	0.0173515
688.738	0.0173699
688.817	0.0177303
688.895	0.0176125
688.973	0.0175500
689.051	0.0176684
689.129	0.0177603
689.207	0.0177814
689.285	0.0177448
689.363	0.0178930
689.442	0.0178368
689.520	0.0177515
689.598	0.0177212
689.676	0.0179037
689.754	0.0179160
689.832	0.0178074
689.910	0.0177840
689.988	0.0176791
690.067	0.0178811
690.145	0.0178989
690.223	0.0178708
690.301	0.0178249
690.379	0.0177979
690.457	0.0177024
690.535	0.0178764
690.613	0.0177897
690.692	0.0177502
690.770	0.0175427
690.848	0.0176039
690.926	0.0177982
691.004	0.0177416
691.082	0.0174859
691.160	0.0175923
691.238	0.0176519
691.317	0.0176920
691.395	0.0176555
691.473	0.0175250
691.551	0.0177515
691.629	0.0177038
691.707	0.0177230
691.785	0.0178342
691.863	0.0178600
691.942	0.0176918
692.020	0.0175996
692.098	0.0177521
692.176	0.0178417
692.254	0.0177028
692.332	0.0177941
692.410	0.0177182
692.488	0.0177663
692.567	0.0177288
692.645	0.0178120
692.723	0.0178138
692.801	0.0177032
692.879	0.0176042
692.957	0.0176513
693.035	0.0177042
693.113	0.0177837
693.192	0.0176993
693.270	0.0178106
693.348	0.0176638
693.426	0.0177729
693.504	0.0178291
693.582	0.0178082
693.660	0.0178458
693.738	0.0178276
693.817	0.0179711
693.895	0.0178488
693.973	0.0179575
694.051	0.0178720
694.129	0.0178202
694.207	0.0178374
694.285	0.0178363
694.363	0.0179646
694.442	0.0179053
694.520	0.0178851
694.598	0.0177561
694.676	0.0178641
694.754	0.0180126
694.832	0.0178680
694.910	0.0178854
694.988	0.0179793
695.067	0.0178795
695.145	0.0178931
695.223	0.0178799
695.301	0.0179846
695.379	0.0179354
695.457	0.0179581
695.535	0.0180521
695.613	0.0179651
695.692	0.0179556
695.770	0.0178687
695.848	0.0178524
695.926	0.0178468
696.004	0.0177817
696.082	0.0178517
696.160	0.0177966
696.238	0.0177579
696.317	0.0177996
696.395	0.0176756
696.473	0.0175879
696.551	0.0176864
696.629	0.0178807
696.707	0.0176398
696.785	0.0175494
696.863	0.0177733
696.942	0.0177100
697.020	0.0178513
697.098	0.0177568
697.176	0.0178833
697.254	0.0176847
697.332	0.0177289
697.410	0.0178158
697.488	0.0177099
697.567	0.0178197
697.645	0.0179042
697.723	0.0177994
697.801	0.0178928
697.879	0.0179607
697.957	0.0178594
698.035	0.0176122
698.113	0.0177352
698.192	0.0175575
698.270	0.0175838
698.348	0.0176011
698.426	0.0175868
698.504	0.0175276
698.582	0.0174253
698.660	0.0172362
698.738	0.0172332
698.817	0.0173386
698.895	0.0172050
698.973	0.0171352
699.051	0.0172636
699.129	0.0172879
699.207	0.0171712
699.285	0.0172348
699.363	0.0171600
699.442	0.0172493
699.520	0.0172166
699.598	0.0172555
699.676	0.0173913
699.754	0.0174541
699.832	0.0172977
699.910	0.0174233
699.988	0.0176231
700.067	0.0175323
700.145	0.0176140
700.223	0.0176163
700.301	0.0175488
700.379	0.0175811
700.457	0.0176148
700.535	0.0178555
700.613	0.0177692
700.692	0.0177100
700.770	0.0178352
700.848	0.0177907
700.926	0.0178919
701.004	0.0178494
701.082	0.0177932
701.160	0.0178375
701.238	0.0180009
701.317	0.0179370
701.395	0.0179118
701.473	0.0177573
701.551	0.0178425
701.629	0.0179195
701.707	0.0179339
701.785	0.0177785
701.863	0.0177357
701.942	0.0179082
702.020	0.0178757
702.098	0.0178973
702.176	0.0179783
702.254	0.0179377
702.332	0.0179740
702.410	0.0178800
702.488	0.0179721
702.567	0.0178898
702.645	0.0178539
702.723	0.0176711
702.801	0.0176144
702.879	0.0175603
702.957	0.0175393
703.035	0.0173621
703.113	0.0173583
703.192	0.0174287
703.270	0.0172010
703.348	0.0172370
703.426	0.0173167
703.504	0.0172477
703.582	0.0172137
703.660	0.0170952
703.738	0.0171980
703.817	0.0171791
703.895	0.0171278
703.973	0.0171270
704.051	0.0172768
704.129	0.0171679
704.207	0.0171878
704.285	0.0172697
704.363	0.0171785
704.442	0.0173291
704.520	0.0173705
704.598	0.0173473
704.676	0.0174080
704.754	0.0174226
704.832	0.0174169
704.910	0.0176673
704.988	0.0176459
705.067	0.0175359
705.145	0.0176205
705.223	0.0177177
705.301	0.0177448
705.379	0.0177183
705.457	0.0177650
705.535	0.0178748
705.613	0.0177595
705.692	0.0178100
705.770	0.0180563
705.848	0.0180110
705.926	0.0181012
706.004	0.0180356
706.082	0.0180914
706.160	0.0181718
706.238	0.0180936
706.317	0.0181656
706.395	0.0180332
706.473	0.0181470
706.551	0.0181165
706.629	0.0179925
706.707	0.0180070
706.785	0.0179711
706.863	0.0178514
706.942	0.0177811
707.020	0.0176517
707.098	0.0176662
707.176	0.0175498
707.254	0.0173579
707.332	0.0173660
707.410	0.0173017
707.488	0.0173100
707.567	0.0172527
707.645	0.0172374
707.723	0.0170033
707.801	0.0170779
707.879	0.0171032
707.957	0.0170092
708.035	0.0170952
708.113	0.0171568
708.192	0.0172028
708.270	0.0171302
708.348	0.0172519
708.426	0.0172784
708.504	0.0172250
708.582	0.0172215
708.660	0.0171947
708.738	0.0172579
708.817	0.0173545
708.895	0.0172667
708.973	0.0174158
709.051	0.0172938
709.129	0.0172772
709.207	0.0172366
709.285	0.0172021
709.363	0.0171323
709.442	0.0171502
709.520	0.0171760
709.598	0.0172300
709.676	0.0172341
709.754	0.0172226
709.832	0.0172358
709.910	0.0174638
709.988	0.0175393
710.067	0.0173386
710.145	0.0176856
710.223	0.0177400
710.301	0.0177572
710.379	0.0179070
710.457	0.0179913
710.535	0.0180226
710.613	0.0179067
710.692	0.0179576
710.770	0.0180650
710.848	0.0179648
710.926	0.0179858
711.004	0.0179443
711.082	0.0180246
711.160	0.0180186
711.238	0.0179069
711.317	0.0178812
711.395	0.0179328
711.473	0.0178438
711.551	0.0177478
711.629	0.0178016
711.707	0.0176743
711.785	0.0177143
711.863	0.0176920
711.942	0.0175954
712.020	0.0175857
712.098	0.0176369
712.176	0.0176395
712.254	0.0176617
712.332	0.0176832
712.410	0.0175305
712.488	0.0175731
712.567	0.0175230
712.645	0.0174841
712.723	0.0173641
712.801	0.0173599
712.879	0.0172679
712.957	0.0173017
713.035	0.0171625
713.113	0.0172797
713.192	0.0171539
713.270	0.0170667
713.348	0.0171263
713.426	0.0171516
713.504	0.0170876
713.582	0.0172027
713.660	0.0170892
713.738	0.0171701
713.817	0.0172980
713.895	0.0172083
713.973	0.0172189
714.051	0.0173058
714.129	0.0173024
714.207	0.0172533
714.285	0.0174456
714.363	0.0173673
714.442	0.0173495
714.520	0.0174429
714.598	0.0173966
714.676	0.0176180
714.754	0.0177183
714.832	0.0176968
714.910	0.0176551
714.988	0.0178703
715.067	0.0179886
715.145	0.0180054
715.223	0.0181918
715.301	0.0179966
715.379	0.0179253
715.457	0.0182700
715.535	0.0181343
715.613	0.0181631
715.692	0.0181993
715.770	0.0180553
715.848	0.0180910
715.926	0.0180476
716.004	0.0178416
716.082	0.0179353
716.160	0.0180194
716.238	0.0178713
716.317	0.0178165
716.395	0.0177837
716.473	0.0178906
716.551	0.0179123
716.629	0.0178863
716.707	0.0179644
716.785	0.0178843
716.863	0.0179785
716.942	0.0181017
717.020	0.0180151
717.098	0.0180769
717.176	0.0180790
717.254	0.0180364
717.332	0.0179845
717.410	0.0179499
717.488	0.0179987
717.567	0.0179754
717.645	0.0180222
717.723	0.0180176
717.801	0.0179337
717.879	0.0177388
717.957	0.0177133
718.035	0.0178294
718.113	0.0178927
718.192	0.0177560
718.270	0.0177367
718.348	0.0178698
718.426	0.0177223
718.504	0.0177783
718.582	0.0176635
718.660	0.0175957
718.738	0.0176163
718.817	0.0175661
718.895	0.0173703
718.973	0.0173608
719.051	0.0173296
719.129	0.0171851
719.207	0.0171350
719.285	0.0170295
719.363	0.0170434
719.442	0.0170173
719.520	0.0170293
719.598	0.0168819
719.676	0.0169295
719.754	0.0170116
719.832	0.0170377
719.910	0.0171679
719.988	0.0173252
720.067	0.0173747
720.145	0.0174514
720.223	0.0173973
720.301	0.0176009
720.379	0.0177165
720.457	0.0177891
720.535	0.0176575
720.613	0.0178775
720.692	0.0178794
720.770	0.0178881
720.848	0.0178197
720.926	0.0179263
721.004	0.0178542
721.082	0.0178953
721.160	0.0178958
721.238	0.0180029
721.317	0.0179987
721.395	0.0178413
721.473	0.0180460
721.551	0.0181363
721.629	0.0181526
721.707	0.0182269
721.785	0.0182697
721.863	0.0182552
721.942	0.0183199
722.020	0.0181468
722.098	0.0182536
722.176	0.0181967
722.254	0.0181620
722.332	0.0181271
722.410	0.0180037
722.488	0.0180196
722.567	0.0179350
722.645	0.0178819
722.723	0.0178673
722.801	0.0177999
722.879	0.0177630
722.957	0.0177308
723.035	0.0177593
723.113	0.0175639
723.192	0.0176206
723.270	0.0176544
723.348	0.0174126
723.426	0.0174942
723.504	0.0173569
723.582	0.0174828
723.660	0.0175176
723.738	0.0173869
723.817	0.0173040
723.895	0.0174207
723.973	0.0174403
724.051	0.0171584
724.129	0.0172864
724.207	0.0172925
724.285	0.0172127
724.363	0.0171407
724.442	0.0171958
724.520	0.0172161
724.598	0.0170609
724.676	0.0170097
724.754	0.0171078
724.832	0.0171054
724.910	0.0171716
724.988	0.0172454
725.067	0.0174025
725.145	0.0173225
725.223	0.0174018
725.301	0.0174485
725.379	0.0175116
725.457	0.0176562
725.535	0.0175491
725.613	0.0174150
725.692	0.0176216
725.770	0.0177863
725.848	0.0175172
725.926	0.0176907
726.004	0.0178356
726.082	0.0178632
726.160	0.0178626
726.238	0.0179379
726.317	0.0178967
726.395	0.0179462
726.473	0.0179622
726.551	0.0178204
726.629	0.0181482
726.707	0.0179345
726.785	0.0179425
726.863	0.0177650
726.942	0.0178405
727.020	0.0179100
727.098	0.0178266
727.176	0.0176875
727.254	0.0178295
727.332	0.0177328
727.410	0.0176989
727.488	0.0177831
727.567	0.0175837
727.645	0.0178099
727.723	0.0176528
727.801	0.0176945
727.879	0.0177834
727.957	0.0177598
728.035	0.0178614
728.113	0.0176772
728.192	0.0177335
728.270	0.0177720
728.348	0.0177397
728.426	0.0177205
728.504	0.0178716
728.582	0.0178152
728.660	0.0176695
728.738	0.0177205
728.817	0.0178196
728.895	0.0176031
728.973	0.0177013
729.051	0.0176308
729.129	0.0176523
729.207	0.0177382
729.285	0.0176438
729.363	0.0176482
729.442	0.0175956
729.520	0.0174763
729.598	0.0175308
729.676	0.0174417
729.754	0.0175150
729.832	0.0175090
729.910	0.0174749
729.988	0.0172643
730.067	0.0173614
730.145	0.0173315
730.223	0.0173771
730.301	0.0171980
730.379	0.0172419
730.457	0.0173974
730.535	0.0173389
730.613	0.0173700
730.692	0.0173251
730.770	0.0174406
730.848	0.0175211
730.926	0.0175194
731.004	0.0176089
731.082	0.0175011
731.160	0.0174828
731.238	0.0173501
731.317	0.0175422
731.395	0.0173150
731.473	0.0172073
731.551	0.0173121
731.629	0.0172804
731.707	0.0173966
731.785	0.0171733
731.863	0.0173607
731.942	0.0172894
732.020	0.0172417
732.098	0.0172345
732.176	0.0172227
732.254	0.0172559
732.332	0.0172453
732.410	0.0172959
732.488	0.0171530
732.567	0.0171612
732.645	0.0171033
732.723	0.0169357
732.801	0.0171179
732.879	0.0170270
732.957	0.0170891
733.035	0.0169791
733.113	0.0170573
733.192	0.0172077
733.270	0.0172189
733.348	0.0172261
733.426	0.0172888
733.504	0.0172985
733.582	0.0175729
733.660	0.0176273
733.738	0.0175010
733.817	0.0177094
733.895	0.0178217
733.973	0.0177534
734.051	0.0177949
734.129	0.0178634
734.207	0.0180855
734.285	0.0179182
734.363	0.0178734
734.442	0.0179281
734.520	0.0178839
734.598	0.0178851
734.676	0.0179384
734.754	0.0178531
734.832	0.0178024
734.910	0.0176870
734.988	0.0175349
735.067	0.0176790
735.145	0.0175119
735.223	0.0175739
735.301	0.0173647
735.379	0.0175818
735.457	0.0174545
735.535	0.0172860
735.613	0.0173219
735.692	0.0174616
735.770	0.0174609
735.848	0.0174849
735.926	0.0173412
736.004	0.0172700
736.082	0.0172863
736.160	0.0174383
736.238	0.0173476
736.317	0.0174272
736.395	0.0175340
736.473	0.0173147
736.551	0.0172623
736.629	0.0174206
736.707	0.0174497
736.785	0.0173837
736.863	0.0173080
736.942	0.0172943
737.020	0.0173710
737.098	0.0174165
737.176	0.0174641
737.254	0.0174945
737.332	0.0172785
737.410	0.0174952
737.488	0.0174197
737.567	0.0173038
737.645	0.0174287
737.723	0.0173263
737.801	0.0172861
737.879	0.0171583
737.957	0.0172966
738.035	0.0172549
738.113	0.0172646
738.192	0.0171790
738.270	0.0173170
738.348	0.0174594
738.426	0.0173820
738.504	0.0173659
738.582	0.0175583
738.660	0.0175849
738.738	0.0176459
738.817	0.0176795
738.895	0.0176105
738.973	0.0175986
739.051	0.0175799
739.129	0.0176119
739.207	0.0176463
739.285	0.0175828
739.363	0.0176569
739.442	0.0176697
739.520	0.0176562
739.598	0.0176869
739.676	0.0176639
739.754	0.0176700
739.832	0.0175425
739.910	0.0175983
739.988	0.0175831
740.067	0.0176602
740.145	0.0175155
740.223	0.0175017
740.301	0.0176623
740.379	0.0177099
740.457	0.0178132
740.535	0.0176718
740.613	0.0177972
740.692	0.0178029
740.770	0.0177258
740.848	0.0179676
740.926	0.0178918
741.004	0.0177943
741.082	0.0178163
741.160	0.0178415
741.238	0.0178346
741.317	0.0177680
741.395	0.0177615
741.473	0.0178664
741.551	0.0178996
741.629	0.0178790
741.707	0.0177695
741.785	0.0177455
741.863	0.0177348
741.942	0.0178249
742.020	0.0176113
742.098	0.0177505
742.176	0.0178848
742.254	0.0177083
742.332	0.0177892
742.410	0.0178435
742.488	0.0178794
742.567	0.0177747
742.645	0.0176603
742.723	0.0177725
742.801	0.0177879
742.879	0.0175745
742.957	0.0175568
743.035	0.0175646
743.113	0.0174449
743.192	0.0173987
743.270	0.0173143
743.348	0.0173189
743.426	0.0174227
743.504	0.0172797
743.582	0.0173003
743.660	0.0171761
743.738	0.0171741
743.817	0.0171560
743.895	0.0172079
743.973	0.0171724
744.051	0.0170995
744.129	0.0170693
744.207	0.0171144
744.285	0.0169279
744.363	0.0170860
744.442	0.0170844
744.520	0.0171886
744.598	0.0170921
744.676	0.0171397
744.754	0.0170992
744.832	0.0171225
744.910	0.0171796
744.988	0.0172993
745.067	0.0172665
745.145	0.0173956
745.223	0.0174540
745.301	0.0174838
745.379	0.0175276
745.457	0.0175953
745.535	0.0176658
745.613	0.0177068
745.692	0.0177922
745.770	0.0177463
745.848	0.0178034
745.926	0.0178996
746.004	0.0177567
746.082	0.0178267
746.160	0.0177376
746.238	0.0179280
746.317	0.0180094
746.395	0.0177354
746.473	0.0179955
746.551	0.0180427
746.629	0.0179545
746.707	0.0179465
746.785	0.0181094
746.863	0.0183698
746.942	0.0180511
747.020	0.0182093
747.098	0.0183212
747.176	0.0182109
747.254	0.0181563
747.332	0.0181791
747.410	0.0181669
747.488	0.0182124
747.567	0.0181954
747.645	0.0182584
747.723	0.0181338
747.801	0.0180686
747.879	0.0180206
747.957	0.0180960
748.035	0.0178600
748.113	0.0177628
748.192	0.0178761
748.270	0.0176096
748.348	0.0177308
748.426	0.0177821
748.504	0.0174653
748.582	0.0173013
748.660	0.0173460
748.738	0.0173809
748.817	0.0173103
748.895	0.0172623
748.973	0.0172348
749.051	0.0171420
749.129	0.0170897
749.207	0.0168847
749.285	0.0168847
749.363	0.0169502
749.442	0.0169698
749.520	0.0169922
749.598	0.0168925
749.676	0.0169079
749.754	0.0170639
749.832	0.0168771
749.910	0.0169785
749.988	0.0168980
750.067	0.0169559
750.145	0.0168868
750.223	0.0168870
750.301	0.0168117
750.379	0.0166278
750.457	0.0167947
750.535	0.0167576
750.613	0.0166589
750.692	0.0167914
750.770	0.0167514
750.848	0.0167252
750.926	0.0165865
751.004	0.0166315
751.082	0.0167053
751.160	0.0167771
751.238	0.0168420
751.317	0.0168204
751.395	0.0168642
751.473	0.0170882
751.551	0.0169511
751.629	0.0170163
751.707	0.0171470
751.785	0.0172702
751.863	0.0172837
751.942	0.0173848
752.020	0.0174249
752.098	0.0175777
752.176	0.0174759
752.254	0.0176440
752.332	0.0177676
752.410	0.0177037
752.488	0.0177233
752.567	0.0177568
752.645	0.0178100
752.723	0.0178393
752.801	0.0178798
752.879	0.0177652
752.957	0.0179518
753.035	0.0179251
753.113	0.0179502
753.192	0.0178159
753.270	0.0178661
753.348	0.0178483
753.426	0.0178627
753.504	0.0179252
753.582	0.0178502
753.660	0.0178445
753.738	0.0178088
753.817	0.0180527
753.895	0.0179268
753.973	0.0178584
754.051	0.0178731
754.129	0.0178611
754.207	0.0178955
754.285	0.0177792
754.363	0.0178074
754.442	0.0179220
754.520	0.0178139
754.598	0.0177409
754.676	0.0176970
754.754	0.0176789
754.832	0.0176868
754.910	0.0176289
754.988	0.0177447
755.067	0.0177428
755.145	0.0176437
755.223	0.0176551
755.301	0.0177702
755.379	0.0175497
755.457	0.0176926
755.535	0.0177225
755.613	0.0176995
755.692	0.0178584
755.770	0.0176550
755.848	0.0177834
755.926	0.0177325
756.004	0.0179747
756.082	0.0179309
756.160	0.0179003
756.238	0.0179559
756.317	0.0179362
756.395	0.0176969
756.473	0.0177196
756.551	0.0178178
756.629	0.0178221
756.707	0.0177524
756.785	0.0177447
756.863	0.0177576
756.942	0.0177551
757.020	0.0177309
757.098	0.0177013
757.176	0.0177600
757.254	0.0175553
757.332	0.0177615
757.410	0.0177366
757.488	0.0174803
757.567	0.0176194
757.645	0.0177774
757.723	0.0176668
757.801	0.0177348
757.879	0.0175816
757.957	0.0174955
758.035	0.0176615
758.113	0.0177327
758.192	0.0174229
758.270	0.0176842
758.348	0.0177012
758.426	0.0177997
758.504	0.0176951
758.582	0.0175897
758.660	0.0177453
758.738	0.0176442
758.817	0.0176108
758.895	0.0176873
758.973	0.0177014
759.051	0.0176961
759.129	0.0177699
759.207	0.0175340
759.285	0.0176406
759.363	0.0176075
759.442	0.0175024
759.520	0.0175917
759.598	0.0175254
759.676	0.0176350
759.754	0.0175838
759.832	0.0175437
759.910	0.0174895
759.988	0.0174223
760.067	0.0174739
760.145	0.0175623
760.223	0.0175261
760.301	0.0175688
760.379	0.0176283
760.457	0.0175879
760.535	0.0176710
760.613	0.0175836
760.692	0.0175065
760.770	0.0174110
760.848	0.0175749
760.926	0.0175749
761.004	0.0176336
761.082	0.0176577
761.160	0.0175945
761.238	0.0174421
761.317	0.0176314
761.395	0.0176225
761.473	0.0176565
761.551	0.0175323
761.629	0.0174828
761.707	0.0176723
761.785	0.0175470
761.863	0.0175588
761.942	0.0176427
762.020	0.0176746
762.098	0.0176291
762.176	0.0176077
762.254	0.0176105
762.332	0.0176242
762.410	0.0176498
762.488	0.0175702
762.567	0.0174277
762.645	0.0175885
762.723	0.0173195
762.801	0.0173534
762.879	0.0173893
762.957	0.0174782
763.035	0.0172945
763.113	0.0173334
763.192	0.0173109
763.270	0.0174454
763.348	0.0173592
763.426	0.0173482
763.504	0.0174865
763.582	0.0174489
763.660	0.0173453
763.738	0.0173547
763.817	0.0174284
763.895	0.0174662
763.973	0.0172945
764.051	0.0174578
764.129	0.0173819
764.207	0.0173535
764.285	0.0174294
764.363	0.0173342
764.442	0.0172866
764.520	0.0172617
764.598	0.0172695
764.676	0.0174152
764.754	0.0172049
764.832	0.0172126
764.910	0.0173279
764.988	0.0173600
765.067	0.0173232
765.145	0.0173348
765.223	0.0174660
765.301	0.0173719
765.379	0.0173727
765.457	0.0174863
765.535	0.0175534
765.613	0.0175107
765.692	0.0176797
765.770	0.0175886
765.848	0.0175185
765.926	0.0175723
766.004	0.0177357
766.082	0.0176273
766.160	0.0175208
766.238	0.0176051
766.317	0.0176149
766.395	0.0175544
766.473	0.0175793
766.551	0.0175903
766.629	0.0175847
766.707	0.0176424
766.785	0.0176761
766.863	0.0176765
766.942	0.0176340
767.020	0.0176144
767.098	0.0175875
767.176	0.0176489
767.254	0.0175824
767.332	0.0177167
767.410	0.0176823
767.488	0.0176296
767.567	0.0176987
767.645	0.0177736
767.723	0.0177124
767.801	0.0175937
767.879	0.0177182
767.957	0.0178022
768.035	0.0176626
768.113	0.0176300
768.192	0.0177748
768.270	0.0176301
768.348	0.0176223
768.426	0.0175355
768.504	0.0176820
768.582	0.0176729
768.660	0.0176677
768.738	0.0176491
768.817	0.0177058
768.895	0.0176357
768.973	0.0176698
769.051	0.0177496
769.129	0.0178795
769.207	0.0179406
769.285	0.0180111
769.363	0.0177937
769.442	0.0178834
769.520	0.0179733
769.598	0.0179050
769.676	0.0179712
769.754	0.0179719
769.832	0.0179116
769.910	0.0180359
769.988	0.0180586
770.067	0.0179247
770.145	0.0178452
770.223	0.0177277
770.301	0.0177279
770.379	0.0178201
770.457	0.0176631
770.535	0.0176679
770.613	0.0175459
770.692	0.0173894
770.770	0.0174409
770.848	0.0174138
770.926	0.0174610
771.004	0.0173898
771.082	0.0173212
771.160	0.0173959
771.238	0.0173435
771.317	0.0172411
771.395	0.0173327
771.473	0.0172159
771.551	0.0172222
771.629	0.0172445
771.707	0.0172211
771.785	0.0171842
771.863	0.0171248
771.942	0.0171405
772.020	0.0171909
772.098	0.0171609
772.176	0.0171315
772.254	0.0170554
772.332	0.0171857
772.410	0.0172147
772.488	0.0171905
772.567	0.0171770
772.645	0.0172213
772.723	0.0170753
772.801	0.0171836
772.879	0.0172498
772.957	0.0173486
773.035	0.0173894
773.113	0.0171983
773.192	0.0172619
773.270	0.0174497
773.348	0.0174172
773.426	0.0175732
773.504	0.0175788
773.582	0.0173969
773.660	0.0173637
773.738	0.0176233
773.817	0.0174889
773.895	0.0174613
773.973	0.0175632
774.051	0.0174330
774.129	0.0176236
774.207	0.0176012
774.285	0.0176547
774.363	0.0176739
774.442	0.0176109
774.520	0.0176633
774.598	0.0177144
774.676	0.0177395
774.754	0.0177002
774.832	0.0177283
774.910	0.0178377
774.988	0.0176885
775.067	0.0177348
775.145	0.0174867
775.223	0.0176920
775.301	0.0176310
775.379	0.0177718
775.457	0.0176559
775.535	0.0177962
775.613	0.0178170
775.692	0.0177905
775.770	0.0178450
775.848	0.0177761
775.926	0.0179114
776.004	0.0178077
776.082	0.0178573
776.160	0.0177081
776.238	0.0177836
776.317	0.0178093
776.395	0.0178817
776.473	0.0179389
776.551	0.0177663
776.629	0.0178268
776.707	0.0178709
776.785	0.0177274
776.863	0.0177328
776.942	0.0177557
777.020	0.0177207
777.098	0.0175939
777.176	0.0176158
777.254	0.0177133
777.332	0.0176639
777.410	0.0174646
777.488	0.0175291
777.567	0.0176003
777.645	0.0175701
777.723	0.0175860
777.801	0.0175908
777.879	0.0175179
777.957	0.0174862
778.035	0.0174532
778.113	0.0174753
778.192	0.0176110
778.270	0.0172485
778.348	0.0175525
778.426	0.0174420
778.504	0.0172266
778.582	0.0174578
778.660	0.0174571
778.738	0.0174042
778.817	0.0174882
778.895	0.0176311
778.973	0.0175253
779.051	0.0175197
779.129	0.0176340
779.207	0.0175256
779.285	0.0176562
779.363	0.0176028
779.442	0.0174997
779.520	0.0176571
779.598	0.0175845
779.676	0.0175079
779.754	0.0175636
779.832	0.0175409
779.910	0.0176024
779.988	0.0175219
780.067	0.0175046
780.145	0.0175743
780.223	0.0174660
780.301	0.0176112
780.379	0.0174680
780.457	0.0177071
780.535	0.0175655
780.613	0.0174858
780.692	0.0175568
780.770	0.0176645
780.848	0.0176093
780.926	0.0177264
781.004	0.0176435
781.082	0.0175497
781.160	0.0176595
781.238	0.0178369
781.317	0.0177712
781.395	0.0176414
781.473	0.0176850
781.551	0.0178351
781.629	0.0177265
781.707	0.0176969
781.785	0.0178018
781.863	0.0176176
781.942	0.0176417
782.020	0.0176534
782.098	0.0176370
782.176	0.0175031
782.254	0.0177297
782.332	0.0176398
782.410	0.0175177
782.488	0.0175153
782.567	0.0176917
782.645	0.0175332
782.723	0.0177129
782.801	0.0175509
782.879	0.0175997
782.957	0.0178412
783.035	0.0177129
783.113	0.0177500
783.192	0.0178195
783.270	0.0177918
783.348	0.0178541
783.426	0.0178256
783.504	0.0177789
783.582	0.0177681
783.660	0.0178799
783.738	0.0177173
783.817	0.0176894
783.895	0.0176774
783.973	0.0176356
784.051	0.0176102
784.129	0.0176498
784.207	0.0176839
784.285	0.0177720
784.363	0.0177399
784.442	0.0176742
784.520	0.0176284
784.598	0.0175491
784.676	0.0177048
784.754	0.0178143
784.832	0.0176020
784.910	0.0177425
784.988	0.0178249
785.067	0.0177973
785.145	0.0178025
785.223	0.0178806
785.301	0.0178200
785.379	0.0178400
785.457	0.0178516
785.535	0.0177655
785.613	0.0178621
785.692	0.0179572
785.770	0.0178085
785.848	0.0179075
785.926	0.0177422
786.004	0.0178433
786.082	0.0176748
786.160	0.0178052
786.238	0.0179730
786.317	0.0177761
786.395	0.0177770
786.473	0.0176661
786.551	0.0177877
786.629	0.0179201
786.707	0.0179612
786.785	0.0178115
786.863	0.0178076
786.942	0.0179078
787.020	0.0179798
787.098	0.0178366
787.176	0.0180323
787.254	0.0179127
787.332	0.0179267
787.410	0.0179733
787.488	0.0179362
787.567	0.0178823
787.645	0.0178282
787.723	0.0176901
787.801	0.0177975
787.879	0.0176173
787.957	0.0175872
788.035	0.0176563
788.113	0.0175787
788.192	0.0174091
788.270	0.0175803
788.348	0.0175423
788.426	0.0173829
788.504	0.0174374
788.582	0.0172491
788.660	0.0173031
788.738	0.0173299
788.817	0.0173313
788.895	0.0172434
788.973	0.0172301
789.051	0.0171803
789.129	0.0172196
789.207	0.0172111
789.285	0.0171101
789.363	0.0169782
789.442	0.0170011
789.520	0.0169402
789.598	0.0170895
789.676	0.0169757
789.754	0.0170608
789.832	0.0169614
789.910	0.0169937
789.988	0.0168744
790.067	0.0168609
790.145	0.0170483
790.223	0.0170362
790.301	0.0170602
790.379	0.0170320
790.457	0.0170602
790.535	0.0170287
790.613	0.0170908
790.692	0.0171994
790.770	0.0171443
790.848	0.0172791
790.926	0.0172545
791.004	0.0172765
791.082	0.0174441
791.160	0.0173640
791.238	0.0174566
791.317	0.0174471
791.395	0.0175777
791.473	0.0175018
791.551	0.0175285
791.629	0.0175137
791.707	0.0176009
791.785	0.0174345
791.863	0.0175984
791.942	0.0175771
792.020	0.0175428
792.098	0.0176693
792.176	0.0176624
792.254	0.0176513
792.332	0.0174765
792.410	0.0174557
792.488	0.0175372
792.567	0.0176150
792.645	0.0176221
792.723	0.0177592
792.801	0.0174954
792.879	0.0176710
792.957	0.0175475
793.035	0.0176225
793.113	0.0176517
793.192	0.0177310
793.270	0.0176833
793.348	0.0177930
793.426	0.0177217
793.504	0.0174984
793.582	0.0177553
793.660	0.0177598
793.738	0.0178069
793.817	0.0177124
793.895	0.0176455
793.973	0.0176582
794.051	0.0175518
794.129	0.0177073
794.207	0.0176441
794.285	0.0176865
794.363	0.0177129
794.442	0.0176187
794.520	0.0177349
794.598	0.0175439
794.676	0.0176158
794.754	0.0176518
794.832	0.0177339
794.910	0.0176428
794.988	0.0177806
795.067	0.0178159
795.145	0.0177538
795.223	0.0178446
795.301	0.0178304
795.379	0.0178458
795.457	0.0178442
795.535	0.0179626
795.613	0.0178593
795.692	0.0179167
795.770	0.0179517
795.848	0.0177763
795.926	0.0179753
796.004	0.0180708
796.082	0.0179224
796.160	0.0179403
796.238	0.0178703
796.317	0.0178146
796.395	0.0179250
796.473	0.0179466
796.551	0.0179743
796.629	0.0180240
796.707	0.0178242
796.785	0.0179872
796.863	0.0180470
796.942	0.0179675
797.020	0.0178502
797.098	0.0178779
797.176	0.0178692
797.254	0.0178858
797.332	0.0178555
797.410	0.0179015
797.488	0.0177946
797.567	0.0178117
797.645	0.0178275
797.723	0.0179646
797.801	0.0177985
797.879	0.0178584
797.957	0.0179568
798.035	0.0179175
798.113	0.0178536
798.192	0.0177820
798.270	0.0178526
798.348	0.0177547
798.426	0.0178843
798.504	0.0178008
798.582	0.0178230
798.660	0.0178659
798.738	0.0178276
798.817	0.0178241
798.895	0.0177188
798.973	0.0176682
799.051	0.0176025
799.129	0.0177697
799.207	0.0175700
799.285	0.0176167
799.363	0.0176669
799.442	0.0176259
799.520	0.0176251
799.598	0.0174839
799.676	0.0175307
799.754	0.0174411
799.832	0.0176907
799.910	0.0174377
799.988	0.0175842
800.067	0.0174967
800.145	0.0174677
800.223	0.0174796
800.301	0.0174074
800.379	0.0175189
800.457	0.0175146
800.535	0.0174970
800.613	0.0175004
800.692	0.0173379
800.770	0.0171630
800.848	0.0173034
800.926	0.0173473
801.004	0.0172755
801.082	0.0170184
801.160	0.0171558
801.238	0.0171355
801.317	0.0171478
801.395	0.0171189
801.473	0.0171599
801.551	0.0172811
801.629	0.0172737
801.707	0.0171387
801.785	0.0172255
801.863	0.0171375
801.942	0.0172928
802.020	0.0172117
802.098	0.0173230
802.176	0.0173245
802.254	0.0173444
802.332	0.0173709
802.410	0.0175325
802.488	0.0176025
802.567	0.0174483
802.645	0.0176085
802.723	0.0174689
802.801	0.0175551
802.879	0.0174716
802.957	0.0175675
803.035	0.0175687
803.113	0.0174442
803.192	0.0175163
803.270	0.0175417
803.348	0.0175500
803.426	0.0175941
803.504	0.0176106
803.582	0.0175099
803.660	0.0176026
803.738	0.0176900
803.817	0.0176714
803.895	0.0176292
803.973	0.0177831
804.051	0.0176454
804.129	0.0177424
804.207	0.0177827
804.285	0.0177025
804.363	0.0178797
804.442	0.0177565
804.520	0.0177666
804.598	0.0178744
804.676	0.0178603
804.754	0.0178423
804.832	0.0178640
804.910	0.0179716
804.988	0.0179696
805.067	0.0179373
805.145	0.0178218
805.223	0.0178846
805.301	0.0180164
805.379	0.0178151
805.457	0.0177959
805.535	0.0179648
805.613	0.0179262
805.692	0.0178049
805.770	0.0178464
805.848	0.0178899
805.926	0.0179388
806.004	0.0178226
806.082	0.0178461
806.160	0.0178535
806.238	0.0177982
806.317	0.0177661
806.395	0.0178463
806.473	0.0178535
806.551	0.0179814
806.629	0.0177508
806.707	0.0177326
806.785	0.0178979
806.863	0.0179218
806.942	0.0178051
807.020	0.0178078
807.098	0.0178667
807.176	0.0177773
807.254	0.0178795
807.332	0.0176869
807.410	0.0177247
807.488	0.0177939
807.567	0.0175519
807.645	0.0178410
807.723	0.0176888
807.801	0.0176109
807.879	0.0176593
807.957	0.0177468
808.035	0.0178955
808.113	0.0177832
808.192	0.0178653
808.270	0.0178027
808.348	0.0178329
808.426	0.0177527
808.504	0.0178121
808.582	0.0177029
808.660	0.0178715
808.738	0.0178442
808.817	0.0178806
808.895	0.0177221
808.973	0.0176878
809.051	0.0177204
809.129	0.0177547
809.207	0.0175715
809.285	0.0176258
809.363	0.0176557
809.442	0.0176961
809.520	0.0175930
809.598	0.0175706
809.676	0.0177440
809.754	0.0176299
809.832	0.0174462
809.910	0.0175822
809.988	0.0175255
810.067	0.0174877
810.145	0.0174328
810.223	0.0174993
810.301	0.0173183
810.379	0.0174053
810.457	0.0175733
810.535	0.0173171
810.613	0.0172896
810.692	0.0174445
810.770	0.0172827
810.848	0.0173242
810.926	0.0174108
811.004	0.0173320
811.082	0.0172690
811.160	0.0172199
811.238	0.0174442
811.317	0.0173691
811.395	0.0174424
811.473	0.0173536
811.551	0.0174543
811.629	0.0174223
811.707	0.0175141
811.785	0.0174223
811.863	0.0173931
811.942	0.0173895
812.020	0.0173643
812.098	0.0173215
812.176	0.0172562
812.254	0.0174461
812.332	0.0172215
812.410	0.0172110
812.488	0.0174191
812.567	0.0171733
812.645	0.0171502
812.723	0.0172684
812.801	0.0173700
812.879	0.0172063
812.957	0.0174209
813.035	0.0173496
813.113	0.0171803
813.192	0.0173277
813.270	0.0173611
813.348	0.0172787
813.426	0.0174298
813.504	0.0175801
813.582	0.0173470
813.660	0.0174426
813.738	0.0175628
813.817	0.0174098
813.895	0.0174258
813.973	0.0174538
814.051	0.0175265
814.129	0.0174458
814.207	0.0175938
814.285	0.0175259
814.363	0.0175382
814.442	0.0174916
814.520	0.0176543
814.598	0.0175986
814.676	0.0176188
814.754	0.0176297
814.832	0.0176524
814.910	0.0174406
814.988	0.0175275
815.067	0.0176204
815.145	0.0175552
815.223	0.0175489
815.301	0.0174688
815.379	0.0174641
815.457	0.0176171
815.535	0.0174199
815.613	0.0175780
815.692	0.0175264
815.770	0.0174177
815.848	0.0176030
815.926	0.0174893
816.004	0.0174721
816.082	0.0175399
816.160	0.0176022
816.238	0.0175529
816.317	0.0176516
816.395	0.0176408
816.473	0.0174759
816.551	0.0178043
816.629	0.0177009
816.707	0.0176934
816.785	0.0177338
816.863	0.0177881
816.942	0.0176701
817.020	0.0177644
817.098	0.0178741
817.176	0.0178085
817.254	0.0178931
817.332	0.0178901
817.410	0.0178009
817.488	0.0178364
817.567	0.0178573
817.645	0.0180690
817.723	0.0180656
817.801	0.0179842
817.879	0.0180756
817.957	0.0180888
818.035	0.0181223
818.113	0.0182233
818.192	0.0182669
818.270	0.0182916
818.348	0.0182510
818.426	0.0181460
818.504	0.0181936
818.582	0.0182998
818.660	0.0181496
818.738	0.0181725
818.817	0.0182525
818.895	0.0182882
818.973	0.0182067
819.051	0.0180513
819.129	0.0180195
819.207	0.0178716
819.285	0.0179620
819.363	0.0179209
819.442	0.0179403
819.520	0.0177583
819.598	0.0177241
819.676	0.0177749
819.754	0.0177068
819.832	0.0176867
819.910	0.0176708
819.988	0.0174856
820.067	0.0175428
820.145	0.0174516
820.223	0.0174747
820.301	0.0174752
820.379	0.0173743
820.457	0.0174198
820.535	0.0173400
820.613	0.0174853
820.692	0.0173597
820.770	0.0173019
820.848	0.0173240
820.926	0.0173128
821.004	0.0173705
821.082	0.0174177
821.160	0.0175777
821.238	0.0174804
821.317	0.0175325
821.395	0.0176455
821.473	0.0178098
821.551	0.0176311
821.629	0.0176541
821.707	0.0176761
821.785	0.0175978
821.863	0.0177371
821.942	0.0177723
822.020	0.0177413
822.098	0.0178244
822.176	0.0179158
822.254	0.0178625
822.332	0.0177137
822.410	0.0178075
822.488	0.0176481
822.567	0.0176274
822.645	0.0175750
822.723	0.0177392
822.801	0.0175481
822.879	0.0174509
822.957	0.0175684
823.035	0.0175571
823.113	0.0174684
823.192	0.0175375
823.270	0.0174722
823.348	0.0175217
823.426	0.0175646
823.504	0.0174882
823.582	0.0176282
823.660	0.0174820
823.738	0.0174094
823.817	0.0174403
823.895	0.0174714
823.973	0.0175131
824.051	0.0174693
824.129	0.0175156
824.207	0.0174127
824.285	0.0173808
824.363	0.0174491
824.442	0.0174091
824.520	0.0173445
824.598	0.0173963
824.676	0.0173499
824.754	0.0173438
824.832	0.0174107
824.910	0.0173743
824.988	0.0172723
825.067	0.0173244
825.145	0.0173877
825.223	0.0174632
825.301	0.0173650
825.379	0.0173391
825.457	0.0173169
825.535	0.0175328
825.613	0.0173660
825.692	0.0173051
825.770	0.0173766
825.848	0.0175323
825.926	0.0174686
826.004	0.0173289
826.082	0.0176428
826.160	0.0174117
826.238	0.0174952
826.317	0.0174741
826.395	0.0175131
826.473	0.0175366
826.551	0.0176478
826.629	0.0176606
826.707	0.0175185
826.785	0.0175233
826.863	0.0176047
826.942	0.0175626
827.020	0.0176833
827.098	0.0177746
827.176	0.0176517
827.254	0.0175362
827.332	0.0174951
827.410	0.0175092
827.488	0.0175853
827.567	0.0175709
827.645	0.0176147
827.723	0.0174738
827.801	0.0173998
827.879	0.0174018
827.957	0.0173003
828.035	0.0172690
828.113	0.0172953
828.192	0.0171615
828.270	0.0171220
828.348	0.0172758
828.426	0.0172637
828.504	0.0172009
828.582	0.0171853
828.660	0.0171442
828.738	0.0171231
828.817	0.0171740
828.895	0.0172148
828.973	0.0173341
829.051	0.0172444
829.129	0.0171606
829.207	0.0172735
829.285	0.0173052
829.363	0.0174080
829.442	0.0173293
829.520	0.0174147
829.598	0.0173838
829.676	0.0173885
829.754	0.0174489
829.832	0.0176051
829.910	0.0176547
829.988	0.0176131
830.067	0.0176268
830.145	0.0177501
830.223	0.0177921
830.301	0.0176846
830.379	0.0177847
830.457	0.0178610
830.535	0.0178600
830.613	0.0177428
830.692	0.0179695
830.770	0.0178780
830.848	0.0179038
830.926	0.0178520
831.004	0.0180302
831.082	0.0180862
831.160	0.0179515
831.238	0.0178679
831.317	0.0178970
831.395	0.0180515
831.473	0.0180291
831.551	0.0179156
831.629	0.0180029
831.707	0.0180163
831.785	0.0178781
831.863	0.0179470
831.942	0.0178441
832.020	0.0178786
832.098	0.0178490
832.176	0.0177558
832.254	0.0176725
832.332	0.0176163
832.410	0.0176147
832.488	0.0177027
832.567	0.0176436
832.645	0.0176131
832.723	0.0175343
832.801	0.0175657
832.879	0.0174846
832.957	0.0174699
833.035	0.0175652
833.113	0.0175986
833.192	0.0174295
833.270	0.0175076
833.348	0.0176151
833.426	0.0174864
833.504	0.0174609
833.582	0.0177062
833.660	0.0176836
833.738	0.0176431
833.817	0.0176850
833.895	0.0177826
833.973	0.0176245
834.051	0.0176624
834.129	0.0176748
834.207	0.0178764
834.285	0.0177360
834.363	0.0179319
834.442	0.0178689
834.520	0.0178829
834.598	0.0179778
834.676	0.0179325
834.754	0.0177940
834.832	0.0180134
834.910	0.0179895
834.988	0.0179581
835.067	0.0178725
835.145	0.0178802
835.223	0.0181205
835.301	0.0179462
835.379	0.0179935
835.457	0.0180111
835.535	0.0178142
835.613	0.0179112
835.692	0.0178552
835.770	0.0179195
835.848	0.0179280
835.926	0.0179151
836.004	0.0176582
836.082	0.0179171
836.160	0.0177524
836.238	0.0177633
836.317	0.0176863
836.395	0.0176363
836.473	0.0177133
836.551	0.0176021
836.629	0.0176109
836.707	0.0177016
836.785	0.0176286
836.863	0.0175272
836.942	0.0175895
837.020	0.0175172
837.098	0.0175278
837.176	0.0174718
837.254	0.0174653
837.332	0.0174268
837.410	0.0173244
837.488	0.0173322
837.567	0.0175349
837.645	0.0173098
837.723	0.0173743
837.801	0.0173169
837.879	0.0172545
837.957	0.0173785
838.035	0.0172958
838.113	0.0173390
838.192	0.0172733
838.270	0.0173046
838.348	0.0172848
838.426	0.0172495
838.504	0.0171552
838.582	0.0171378
838.660	0.0170790
838.738	0.0171007
838.817	0.0171525
838.895	0.0172025
838.973	0.0171827
839.051	0.0172141
839.129	0.0172163
839.207	0.0173119
839.285	0.0172234
839.363	0.0172546
839.442	0.0173847
839.520	0.0172968
839.598	0.0172868
839.676	0.0174692
839.754	0.0173916
839.832	0.0173651
839.910	0.0173969
839.988	0.0172773
840.067	0.0174667
840.145	0.0175632
840.223	0.0175047
840.301	0.0174715
840.379	0.0175539
840.457	0.0175779
840.535	0.0174305
840.613	0.0175898
840.692	0.0176654
840.770	0.0174956
840.848	0.0176393
840.926	0.0175857
841.004	0.0174878
841.082	0.0176207
841.160	0.0173673
841.238	0.0173209
841.317	0.0173352
841.395	0.0173303
841.473	0.0174784
841.551	0.0174992
841.629	0.0174189
841.707	0.0174709
841.785	0.0175121
841.863	0.0175239
841.942	0.0175794
842.020	0.0175735
842.098	0.0176188
842.176	0.0176333
842.254	0.0176334
842.332	0.0177985
842.410	0.0178169
842.488	0.0177415
842.567	0.0177492
842.645	0.0177363
842.723	0.0178709
842.801	0.0178651
842.879	0.0179206
842.957	0.0178239
843.035	0.0180410
843.113	0.0179610
843.192	0.0178902
843.270	0.0179246
843.348	0.0178879
843.426	0.0180296
843.504	0.0179225
843.582	0.0180662
843.660	0.0181470
843.738	0.0181768
843.817	0.0180320
843.895	0.0181825
843.973	0.0181804
844.051	0.0181701
844.129	0.0182346
844.207	0.0183577
844.285	0.0182648
844.363	0.0181130
844.442	0.0182294
844.520	0.0181925
844.598	0.0180916
844.676	0.0181814
844.754	0.0182301
844.832	0.0180806
844.910	0.0180806
844.988	0.0180309
845.067	0.0179704
845.145	0.0179665
845.223	0.0178416
845.301	0.0177216
845.379	0.0177445
845.457	0.0177982
845.535	0.0177044
845.613	0.0176845
845.692	0.0175212
845.770	0.0175635
845.848	0.0175364
845.926	0.0175697
846.004	0.0175151
846.082	0.0174210
846.160	0.0174255
846.238	0.0174744
846.317	0.0174359
846.395	0.0173388
846.473	0.0173202
846.551	0.0174081
846.629	0.0172655
846.707	0.0173083
846.785	0.0172294
846.863	0.0172298
846.942	0.0172425
847.020	0.0173055
847.098	0.0172277
847.176	0.0172188
847.254	0.0171187
847.332	0.0171337
847.410	0.0172173
847.488	0.0171171
847.567	0.0171976
847.645	0.0170844
847.723	0.0170591
847.801	0.0172912
847.879	0.0172523
847.957	0.0172648
848.035	0.0172040
848.113	0.0172030
848.192	0.0172430
848.270	0.0171154
848.348	0.0171602
848.426	0.0172328
848.504	0.0171668
848.582	0.0171300
848.660	0.0170889
848.738	0.0170475
848.817	0.0170779
848.895	0.0172417
848.973	0.0172049
849.051	0.0172280
849.129	0.0171859
849.207	0.0171028
849.285	0.0172082
849.363	0.0171874
849.442	0.0172375
849.520	0.0171581
849.598	0.0170038
849.676	0.0171121
849.754	0.0171069
849.832	0.0170266
849.910	0.0171498
849.988	0.0171991
850.067	0.0172647
850.145	0.0171882
850.223	0.0171452
850.301	0.0172108
850.379	0.0172540
850.457	0.0171746
850.535	0.0173325
850.613	0.0172278
850.692	0.0174117
850.770	0.0173634
850.848	0.0174029
850.926	0.0175634
851.004	0.0175304
851.082	0.0175243
851.160	0.0173411
851.238	0.0175071
851.317	0.0176547
851.395	0.0175610
851.473	0.0174962
851.551	0.0175600
851.629	0.0175256
851.707	0.0175075
851.785	0.0174921
851.863	0.0175254
851.942	0.0175576
852.020	0.0176990
852.098	0.0177253
852.176	0.0175524
852.254	0.0176350
852.332	0.0177638
852.410	0.0177642
852.488	0.0176258
852.567	0.0177240
852.645	0.0176703
852.723	0.0177959
852.801	0.0178828
852.879	0.0178058
852.957	0.0178922
853.035	0.0177968
853.113	0.0178432
853.192	0.0178271
853.270	0.0179243
853.348	0.0180156
853.426	0.0179118
853.504	0.0179560
853.582	0.0179382
853.660	0.0178537
853.738	0.0177423
853.817	0.0180293
853.895	0.0177972
853.973	0.0178236
854.051	0.0177928
854.129	0.0179359
854.207	0.0177861
854.285	0.0176672
854.363	0.0177536
854.442	0.0177696
854.520	0.0177709
854.598	0.0176933
854.676	0.0175340
854.754	0.0177068
854.832	0.0175218
854.910	0.0174102
854.988	0.0175067
855.067	0.0175150
855.145	0.0175001
855.223	0.0174255
855.301	0.0174284
855.379	0.0173686
855.457	0.0173916
855.535	0.0174689
855.613	0.0173101
855.692	0.0173672
855.770	0.0174825
855.848	0.0174195
855.926	0.0174873
856.004	0.0173316
856.082	0.0174940
856.160	0.0174672
856.238	0.0174072
856.317	0.0173153
856.395	0.0172301
856.473	0.0174374
856.551	0.0174931
856.629	0.0173486
856.707	0.0172986
856.785	0.0174668
856.863	0.0174155
856.942	0.0175055
857.020	0.0174407
857.098	0.0174161
857.176	0.0172839
857.254	0.0175388
857.332	0.0173335
857.410	0.0175281
857.488	0.0175438
857.567	0.0173953
857.645	0.0173347
857.723	0.0173993
857.801	0.0174804
857.879	0.0174133
857.957	0.0174812
858.035	0.0174654
858.113	0.0174612
858.192	0.0176363
858.270	0.0176055
858.348	0.0177125
858.426	0.0175320
858.504	0.0176397
858.582	0.0175793
858.660	0.0177219
858.738	0.0176477
858.817	0.0176936
858.895	0.0176892
858.973	0.0176130
859.051	0.0176748
859.129	0.0175748
859.207	0.0175732
859.285	0.0176930
859.363	0.0177445
859.442	0.0176849
859.520	0.0177821
859.598	0.0179024
859.676	0.0176856
859.754	0.0177414
859.832	0.0177672
859.910	0.0177171
859.988	0.0176917
860.067	0.0177760
860.145	0.0178452
860.223	0.0177688
860.301	0.0177585
860.379	0.0177069
860.457	0.0176704
860.535	0.0177692
860.613	0.0176775
860.692	0.0176492
860.770	0.0176357
860.848	0.0176666
860.926	0.0175900
861.004	0.0177744
861.082	0.0176884
861.160	0.0175365
861.238	0.0178017
861.317	0.0179388
861.395	0.0177864
861.473	0.0177896
861.551	0.0179700
861.629	0.0178355
861.707	0.0179950
861.785	0.0178790
861.863	0.0179182
861.942	0.0179804
862.020	0.0179606
862.098	0.0179400
862.176	0.0179359
862.254	0.0179431
862.332	0.0179070
862.410	0.0179149
862.488	0.0179042
862.567	0.0178482
862.645	0.0178846
862.723	0.0178860
862.801	0.0179283
862.879	0.0179529
862.957	0.0178812
863.035	0.0178117
863.113	0.0178060
863.192	0.0179944
863.270	0.0179223
863.348	0.0179266
863.426	0.0178210
863.504	0.0179236
863.582	0.0178799
863.660	0.0178555
863.738	0.0176990
863.817	0.0177434
863.895	0.0177278
863.973	0.0178125
864.051	0.0176244
864.129	0.0176818
864.207	0.0177841
864.285	0.0176128
864.363	0.0174654
864.442	0.0175676
864.520	0.0176119
864.598	0.0176841
864.676	0.0176654
864.754	0.0176735
864.832	0.0175471
864.910	0.0174812
864.988	0.0175503
865.067	0.0176160
865.145	0.0173661
865.223	0.0174652
865.301	0.0173646
865.379	0.0175375
865.457	0.0175171
865.535	0.0173264
865.613	0.0172662
865.692	0.0173733
865.770	0.0173635
865.848	0.0172726
865.926	0.0172922
866.004	0.0171938
866.082	0.0173250
866.160	0.0174501
866.238	0.0172176
866.317	0.0172421
866.395	0.0173232
866.473	0.0172758
866.551	0.0170944
866.629	0.0173583
866.707	0.0173382
866.785	0.0173234
866.863	0.0172910
866.942	0.0173003
867.020	0.0173404
867.098	0.0172377
867.176	0.0173252
867.254	0.0173650
867.332	0.0172200
867.410	0.0171128
867.488	0.0171776
867.567	0.0171602
867.645	0.0171730
867.723	0.0171812
867.801	0.0171060
867.879	0.0170744
867.957	0.0170300
868.035	0.0171017
868.113	0.0170242
868.192	0.0171189
868.270	0.0170710
868.348	0.0170209
868.426	0.0169491
868.504	0.0171111
868.582	0.0171025
868.660	0.0171174
868.738	0.0171964
868.817	0.0172132
868.895	0.0172668
868.973	0.0171832
869.051	0.0171635
869.129	0.0172742
869.207	0.0172122
869.285	0.0172778
869.363	0.0171734
869.442	0.0174855
869.520	0.0173243
869.598	0.0172238
869.676	0.0174797
869.754	0.0175904
869.832	0.0174800
869.910	0.0175545
869.988	0.0177660
870.067	0.0177046
870.145	0.0177430
870.223	0.0176431
870.301	0.0175584
870.379	0.0179398
870.457	0.0178574
870.535	0.0178973
870.613	0.0179603
870.692	0.0178297
870.770	0.0179773
870.848	0.0179038
870.926	0.0179004
871.004	0.0179829
871.082	0.0181442
871.160	0.0181672
871.238	0.0181456
871.317	0.0180746
871.395	0.0179459
871.473	0.0181084
871.551	0.0181724
871.629	0.0180099
871.707	0.0180312
871.785	0.0179294
871.863	0.0180820
871.942	0.0177066
872.020	0.0179997
872.098	0.0179926
872.176	0.0178632
872.254	0.0178388
872.332	0.0177774
872.410	0.0178113
872.488	0.0178848
872.567	0.0179877
872.645	0.0178142
872.723	0.0178654
872.801	0.0178688
872.879	0.0178344
872.957	0.0180106
873.035	0.0179134
873.113	0.0180207
873.192	0.0179980
873.270	0.0180711
873.348	0.0179792
873.426	0.0180447
873.504	0.0179420
873.582	0.0178339
873.660	0.0179317
873.738	0.0178115
873.817	0.0177228
873.895	0.0178142
873.973	0.0175906
874.051	0.0177309
874.129	0.0176723
874.207	0.0177665
874.285	0.0177976
874.363	0.0176389
874.442	0.0175381
874.520	0.0176395
874.598	0.0176725
874.676	0.0176695
874.754	0.0177119
874.832	0.0177471
874.910	0.0176062
874.988	0.0177990
875.067	0.0177760
875.145	0.0178253
875.223	0.0177102
875.301	0.0178516
875.379	0.0176332
875.457	0.0176848
875.535	0.0177330
875.613	0.0176365
875.692	0.0178217
875.770	0.0176605
875.848	0.0178145
875.926	0.0176636
876.004	0.0177087
876.082	0.0176270
876.160	0.0176706
876.238	0.0177512
876.317	0.0176278
876.395	0.0176652
876.473	0.0175169
876.551	0.0175622
876.629	0.0174882
876.707	0.0176204
876.785	0.0175865
876.863	0.0176825
876.942	0.0175515
877.020	0.0175704
877.098	0.0176293
877.176	0.0176017
877.254	0.0175710
877.332	0.0175835
877.410	0.0177518
877.488	0.0177063
877.567	0.0176209
877.645	0.0175101
877.723	0.0175045
877.801	0.0176756
877.879	0.0175981
877.957	0.0175605
878.035	0.0176112
878.113	0.0176264
878.192	0.0174571
878.270	0.0175899
878.348	0.0175963
878.426	0.0176138
878.504	0.0176625
878.582	0.0175538
878.660	0.0175151
878.738	0.0175532
878.817	0.0175428
878.895	0.0175547
878.973	0.0174883
879.051	0.0175982
879.129	0.0176970
879.207	0.0176927
879.285	0.0176351
879.363	0.0176346
879.442	0.0174672
879.520	0.0174932
879.598	0.0174911
879.676	0.0174376
879.754	0.0174701
879.832	0.0174425
879.910	0.0174359
879.988	0.0172974
880.067	0.0174637
880.145	0.0174863
880.223	0.0174067
880.301	0.0173067
880.379	0.0174886
880.457	0.0174270
880.535	0.0173819
880.613	0.0172494
880.692	0.0173344
880.770	0.0173905
880.848	0.0173949
880.926	0.0173076
881.004	0.0174692
881.082	0.0173468
881.160	0.0173499
881.238	0.0172739
881.317	0.0172874
881.395	0.0172748
881.473	0.0171719
881.551	0.0172858
881.629	0.0173611
881.707	0.0173695
881.785	0.0172842
881.863	0.0173494
881.942	0.0173950
882.020	0.0174640
882.098	0.0172951
882.176	0.0175207
882.254	0.0173812
882.332	0.0174096
882.410	0.0175295
882.488	0.0174841
882.567	0.0174246
882.645	0.0174696
882.723	0.0174611
882.801	0.0175238
882.879	0.0175925
882.957	0.0174184
883.035	0.0174873
883.113	0.0175628
883.192	0.0176413
883.270	0.0175000
883.348	0.0174468
883.426	0.0175053
883.504	0.0175769
883.582	0.0175550
883.660	0.0176289
883.738	0.0176378
883.817	0.0175787
883.895	0.0177451
883.973	0.0175722
884.051	0.0177199
884.129	0.0176714
884.207	0.0177216
884.285	0.0176063
884.363	0.0176717
884.442	0.0175984
884.520	0.0175734
884.598	0.0176164
884.676	0.0176229
884.754	0.0175340
884.832	0.0176035
884.910	0.0176696
884.988	0.0176642
885.067	0.0175333
885.145	0.0176380
885.223	0.0176920
885.301	0.0178535
885.379	0.0177136
885.457	0.0177363
885.535	0.0177454
885.613	0.0176770
885.692	0.0177370
885.770	0.0174139
885.848	0.0174092
885.926	0.0173964
886.004	0.0175230
886.082	0.0174753
886.160	0.0173442
886.238	0.0172727
886.317	0.0174197
886.395	0.0174673
886.473	0.0173421
886.551	0.0173110
886.629	0.0172599
886.707	0.0174836
886.785	0.0175037
886.863	0.0175365
886.942	0.0175979
887.020	0.0176160
887.098	0.0176520
887.176	0.0175816
887.254	0.0177408
887.332	0.0178470
887.410	0.0178257
887.488	0.0178043
887.567	0.0178790
887.645	0.0179823
887.723	0.0179125
887.801	0.0178883
887.879	0.0179126
887.957	0.0178441
888.035	0.0179133
888.113	0.0179248
888.192	0.0180206
888.270	0.0180292
888.348	0.0180471
888.426	0.0180080
888.504	0.0179150
888.582	0.0179240
888.660	0.0179600
888.738	0.0180036
888.817	0.0179478
888.895	0.0180741
888.973	0.0181062
889.051	0.0181151
889.129	0.0180524
889.207	0.0180005
889.285	0.0180148
889.363	0.0179378
889.442	0.0179964
889.520	0.0180208
889.598	0.0180263
889.676	0.0179341
889.754	0.0179460
889.832	0.0180003
889.910	0.0179778
889.988	0.0179360
890.067	0.0178453
890.145	0.0178299
890.223	0.0178603
890.301	0.0177376
890.379	0.0177037
890.457	0.0177025
890.535	0.0176338
890.613	0.0176238
890.692	0.0175904
890.770	0.0175979
890.848	0.0174654
890.926	0.0176045
891.004	0.0175758
891.082	0.0175121
891.160	0.0175024
891.238	0.0175317
891.317	0.0175237
891.395	0.0174989
891.473	0.0174100
891.551	0.0174412
891.629	0.0174665
891.707	0.0175827
891.785	0.0174687
891.863	0.0174039
891.942	0.0174055
892.020	0.0174017
892.098	0.0173885
892.176	0.0171978
892.254	0.0174168
892.332	0.0173872
892.410	0.0173995
892.488	0.0173202
892.567	0.0173914
892.645	0.0172627
892.723	0.0171815
892.801	0.0172458
892.879	0.0173546
892.957	0.0172824
893.035	0.0173241
893.113	0.0173847
893.192	0.0173713
893.270	0.0174957
893.348	0.0173071
893.426	0.0174441
893.504	0.0174515
893.582	0.0175365
893.660	0.0175380
893.738	0.0175143
893.817	0.0175201
893.895	0.0174548
893.973	0.0174281
894.051	0.0173811
894.129	0.0173918
894.207	0.0173533
894.285	0.0175941
894.363	0.0174648
894.442	0.0175030
894.520	0.0176379
894.598	0.0174430
894.676	0.0175179
894.754	0.0175774
894.832	0.0176005
894.910	0.0175536
894.988	0.0177468
895.067	0.0176842
895.145	0.0177470
895.223	0.0176685
895.301	0.0177081
895.379	0.0176466
895.457	0.0176990
895.535	0.0176365
895.613	0.0176035
895.692	0.0176842
895.770	0.0175606
895.848	0.0176923
895.926	0.0176441
896.004	0.0178075
896.082	0.0176034
896.160	0.0177388
896.238	0.0177342
896.317	0.0178960
896.395	0.0178235
896.473	0.0178460
896.551	0.0177719
896.629	0.0179115
896.707	0.0180790
896.785	0.0179771
896.863	0.0179944
896.942	0.0179794
897.020	0.0181250
897.098	0.0179304
897.176	0.0180613
897.254	0.0180589
897.332	0.0179842
897.410	0.0180545
897.488	0.0179131
897.567	0.0179424
897.645	0.0180403
897.723	0.0180163
897.801	0.0180029
897.879	0.0179668
897.957	0.0178596
898.035	0.0179126
898.113	0.0179489
898.192	0.0180848
898.270	0.0180622
898.348	0.0180276
898.426	0.0180659
898.504	0.0181114
898.582	0.0180036
898.660	0.0181532
898.738	0.0180986
898.817	0.0181425
898.895	0.0179617
898.973	0.0180502
899.051	0.0180920
899.129	0.0182101
899.207	0.0181456
899.285	0.0181091
899.363	0.0180821
899.442	0.0181534
899.520	0.0180518
899.598	0.0180869
899.676	0.0180573
899.754	0.0179794
899.832	0.0180247
899.910	0.0179309
899.988	0.0178470
900.067	0.0178138
900.145	0.0177378
900.223	0.0176399
900.301	0.0175311
900.379	0.0176055
900.457	0.0176242
900.535	0.0174796
900.613	0.0175917
900.692	0.0175179
900.770	0.0178056
900.848	0.0175962
900.926	0.0174745
901.004	0.0176276
901.082	0.0175996
901.160	0.0175176
901.238	0.0175909
901.317	0.0176007
901.395	0.0175545
901.473	0.0175539
901.551	0.0175919
901.629	0.0175047
901.707	0.0175843
901.785	0.0175333
901.863	0.0176479
901.942	0.0176821
902.020	0.0177711
902.098	0.0176320
902.176	0.0176144
902.254	0.0176132
902.332	0.0177752
902.410	0.0175520
902.488	0.0175363
902.567	0.0175381
902.645	0.0174721
902.723	0.0175018
902.801	0.0174207
902.879	0.0175120
902.957	0.0175957
903.035	0.0174220
903.113	0.0174548
903.192	0.0175770
903.270	0.0175495
903.348	0.0176651
903.426	0.0176268
903.504	0.0176356
903.582	0.0176247
903.660	0.0175849
903.738	0.0176496
903.817	0.0177397
903.895	0.0176723
903.973	0.0178056
904.051	0.0177879
904.129	0.0176626
904.207	0.0176161
904.285	0.0176113
904.363	0.0174371
904.442	0.0176384
904.520	0.0176783
904.598	0.0175201
904.676	0.0175885
904.754	0.0175750
904.832	0.0175628
904.910	0.0174908
904.988	0.0176012
905.067	0.0175344
905.145	0.0174822
905.223	0.0176058
905.301	0.0174504
905.379	0.0174137
905.457	0.0174507
905.535	0.0175597
905.613	0.0175292
905.692	0.0173926
905.770	0.0175214
905.848	0.0173961
905.926	0.0175214
906.004	0.0173692
906.082	0.0173989
906.160	0.0174153
906.238	0.0173631
906.317	0.0174449
906.395	0.0173807
906.473	0.0173605
906.551	0.0172603
906.629	0.0173534
906.707	0.0173267
906.785	0.0172655
906.863	0.0173669
906.942	0.0173695
907.020	0.0172541
907.098	0.0173882
907.176	0.0174689
907.254	0.0174296
907.332	0.0173210
907.410	0.0175121
907.488	0.0174252
907.567	0.0175570
907.645	0.0175277
907.723	0.0175549
907.801	0.0174197
907.879	0.0175204
907.957	0.0175859
908.035	0.0176050
908.113	0.0176442
908.192	0.0176379
908.270	0.0176221
908.348	0.0178165
908.426	0.0177004
908.504	0.0175938
908.582	0.0177154
908.660	0.0176980
908.738	0.0176676
908.817	0.0175968
908.895	0.0175850
908.973	0.0177097
909.051	0.0177048
909.129	0.0176386
909.207	0.0175871
909.285	0.0174969
909.363	0.0174342
909.442	0.0175528
909.520	0.0175309
909.598	0.0175494
909.676	0.0173240
909.754	0.0174785
909.832	0.0175404
909.910	0.0175401
909.988	0.0175449
910.067	0.0173134
910.145	0.0173795
910.223	0.0175443
910.301	0.0175121
910.379	0.0175645
910.457	0.0176318
910.535	0.0176062
910.613	0.0174667
910.692	0.0176089
910.770	0.0177664
910.848	0.0176276
910.926	0.0177779
911.004	0.0176736
911.082	0.0177528
911.160	0.0176533
911.238	0.0175468
911.317	0.0178745
911.395	0.0177737
911.473	0.0175967
911.551	0.0177061
911.629	0.0177136
911.707	0.0177091
911.785	0.0176882
911.863	0.0176970
911.942	0.0177869
912.020	0.0176145
912.098	0.0176309
912.176	0.0176310
912.254	0.0175526
912.332	0.0176890
912.410	0.0175662
912.488	0.0174533
912.567	0.0175106
912.645	0.0175526
912.723	0.0174375
912.801	0.0174450
912.879	0.0173466
912.957	0.0174829
913.035	0.0173184
913.113	0.0174308
913.192	0.0173570
913.270	0.0174216
913.348	0.0172643
913.426	0.0174911
913.504	0.0172444
913.582	0.0173815
913.660	0.0173853
913.738	0.0174430
913.817	0.0174434
913.895	0.0174214
913.973	0.0175424
914.051	0.0174106
914.129	0.0174932
914.207	0.0173570
914.285	0.0173719
914.363	0.0174944
914.442	0.0174155
914.520	0.0173934
914.598	0.0173102
914.676	0.0172266
914.754	0.0174433
914.832	0.0174788
914.910	0.0174120
914.988	0.0173262
915.067	0.0173368
915.145	0.0174496
915.223	0.0175134
915.301	0.0173900
915.379	0.0175649
915.457	0.0175802
915.535	0.0174227
915.613	0.0175557
915.692	0.0175185
915.770	0.0173778
915.848	0.0173163
915.926	0.0173870
916.004	0.0174102
916.082	0.0172829
916.160	0.0173757
916.238	0.0174549
916.317	0.0172728
916.395	0.0172956
916.473	0.0172836
916.551	0.0171439
916.629	0.0173373
916.707	0.0172765
916.785	0.0172432
916.863	0.0173692
916.942	0.0174717
917.020	0.0174733
917.098	0.0174444
917.176	0.0173746
917.254	0.0173065
917.332	0.0174773
917.410	0.0175217
917.488	0.0175636
917.567	0.0176231
917.645	0.0174230
917.723	0.0175368
917.801	0.0175172
917.879	0.0174596
917.957	0.0174992
918.035	0.0173705
918.113	0.0174350
918.192	0.0173744
918.270	0.0174360
918.348	0.0175061
918.426	0.0174002
918.504	0.0173937
918.582	0.0174295
918.660	0.0174060
918.738	0.0173447
918.817	0.0173447
918.895	0.0174278
918.973	0.0174111
919.051	0.0174187
919.129	0.0174301
919.207	0.0175095
919.285	0.0173410
919.363	0.0174815
919.442	0.0175013
919.520	0.0174796
919.598	0.0175425
919.676	0.0174115
919.754	0.0175431
919.832	0.0174718
919.910	0.0173943
