06/01/2022	22:18:14	Ver.	4.1	UNKNOWN
Optical Delay	599.988409	Delta X		0.078125	Sweeps	1	Scan Rate	0/0
Coordinates	Axis 1	NaN	Axis 2	NaN	Axis 3	NaN	Axis 4	NaN	Axis 5	NaN	Axis 6	0.000000
TX Power	0.000000	RX Power	0.000000

599.988	0.0168818
600.067	0.0169566
600.145	0.0169577
600.223	0.0170308
600.301	0.0171721
600.379	0.0169928
600.457	0.0170256
600.535	0.0170071
600.613	0.0171265
600.692	0.0170800
600.770	0.0169209
600.848	0.0170597
600.926	0.0169726
601.004	0.0170242
601.082	0.0170522
601.160	0.0168819
601.238	0.0170247
601.317	0.0169646
601.395	0.0169610
601.473	0.0168952
601.551	0.0168312
601.629	0.0168369
601.707	0.0167708
601.785	0.0169163
601.863	0.0167344
601.942	0.0167242
602.020	0.0167892
602.098	0.0168461
602.176	0.0167725
602.254	0.0167354
602.332	0.0165849
602.410	0.0166102
602.488	0.0168463
602.567	0.0169469
602.645	0.0169064
602.723	0.0168585
602.801	0.0167516
602.879	0.0167017
602.957	0.0167129
603.035	0.0168901
603.113	0.0167851
603.192	0.0166806
603.270	0.0168261
603.348	0.0167505
603.426	0.0169276
603.504	0.0169418
603.582	0.0168367
603.660	0.0168381
603.738	0.0169859
603.817	0.0167685
603.895	0.0167966
603.973	0.0168545
604.051	0.0167904
604.129	0.0170041
604.207	0.0169279
604.285	0.0169010
604.363	0.0169506
604.442	0.0170522
604.520	0.0169306
604.598	0.0169547
604.676	0.0168776
604.754	0.0169018
604.832	0.0169791
604.910	0.0170057
604.988	0.0169848
605.067	0.0168582
605.145	0.0168376
605.223	0.0169298
605.301	0.0169947
605.379	0.0170029
605.457	0.0170232
605.535	0.0170171
605.613	0.0171011
605.692	0.0170351
605.770	0.0169699
605.848	0.0169049
605.926	0.0169436
606.004	0.0171156
606.082	0.0170100
606.160	0.0170730
606.238	0.0170394
606.317	0.0170135
606.395	0.0170206
606.473	0.0171507
606.551	0.0170467
606.629	0.0169873
606.707	0.0171544
606.785	0.0168935
606.863	0.0169564
606.942	0.0171289
607.020	0.0169366
607.098	0.0170442
607.176	0.0170222
607.254	0.0169121
607.332	0.0170725
607.410	0.0170132
607.488	0.0170449
607.567	0.0169466
607.645	0.0169090
607.723	0.0170303
607.801	0.0169627
607.879	0.0169171
607.957	0.0170572
608.035	0.0170688
608.113	0.0169180
608.192	0.0170892
608.270	0.0170211
608.348	0.0170497
608.426	0.0169408
608.504	0.0170013
608.582	0.0169142
608.660	0.0169701
608.738	0.0170596
608.817	0.0169678
608.895	0.0170621
608.973	0.0169633
609.051	0.0169941
609.129	0.0169487
609.207	0.0170776
609.285	0.0169759
609.363	0.0170661
609.442	0.0170432
609.520	0.0170918
609.598	0.0170126
609.676	0.0169948
609.754	0.0170135
609.832	0.0169407
609.910	0.0169788
609.988	0.0169415
610.067	0.0169507
610.145	0.0171608
610.223	0.0169225
610.301	0.0169645
610.379	0.0170149
610.457	0.0168825
610.535	0.0169698
610.613	0.0170334
610.692	0.0169060
610.770	0.0168424
610.848	0.0168605
610.926	0.0168530
611.004	0.0167937
611.082	0.0167722
611.160	0.0168769
611.238	0.0168568
611.317	0.0168024
611.395	0.0167584
611.473	0.0167441
611.551	0.0167603
611.629	0.0167866
611.707	0.0167562
611.785	0.0167495
611.863	0.0168002
611.942	0.0167941
612.020	0.0168007
612.098	0.0167519
612.176	0.0167041
612.254	0.0167614
612.332	0.0169164
612.410	0.0168579
612.488	0.0166930
612.567	0.0166881
612.645	0.0169309
612.723	0.0169750
612.801	0.0168465
612.879	0.0167683
612.957	0.0167216
613.035	0.0168775
613.113	0.0168617
613.192	0.0168138
613.270	0.0167622
613.348	0.0169003
613.426	0.0168862
613.504	0.0169208
613.582	0.0169389
613.660	0.0168756
613.738	0.0168090
613.817	0.0169179
613.895	0.0170331
613.973	0.0169238
614.051	0.0170518
614.129	0.0170493
614.207	0.0171410
614.285	0.0172189
614.363	0.0170920
614.442	0.0171824
614.520	0.0172510
614.598	0.0172253
614.676	0.0173315
614.754	0.0173119
614.832	0.0173550
614.910	0.0173040
614.988	0.0173826
615.067	0.0173533
615.145	0.0172990
615.223	0.0173222
615.301	0.0173791
615.379	0.0173333
615.457	0.0172817
615.535	0.0173457
615.613	0.0172643
615.692	0.0173589
615.770	0.0174707
615.848	0.0173992
615.926	0.0174728
616.004	0.0174475
616.082	0.0175462
616.160	0.0173090
616.238	0.0173753
616.317	0.0175802
616.395	0.0175021
616.473	0.0175536
616.551	0.0176672
616.629	0.0174363
616.707	0.0175698
616.785	0.0175320
616.863	0.0174675
616.942	0.0173904
617.020	0.0174515
617.098	0.0175207
617.176	0.0174612
617.254	0.0174239
617.332	0.0173811
617.410	0.0173069
617.488	0.0171910
617.567	0.0171970
617.645	0.0171702
617.723	0.0171339
617.801	0.0169959
617.879	0.0169262
617.957	0.0170005
618.035	0.0168468
618.113	0.0168539
618.192	0.0168546
618.270	0.0168243
618.348	0.0169157
618.426	0.0167821
618.504	0.0166471
618.582	0.0166634
618.660	0.0168822
618.738	0.0167536
618.817	0.0167500
618.895	0.0165759
618.973	0.0166695
619.051	0.0167401
619.129	0.0166256
619.207	0.0165331
619.285	0.0165557
619.363	0.0166756
619.442	0.0166861
619.520	0.0166499
619.598	0.0166121
619.676	0.0165511
619.754	0.0166463
619.832	0.0166525
619.910	0.0166543
619.988	0.0166119
620.067	0.0166193
620.145	0.0165696
620.223	0.0166238
620.301	0.0166559
620.379	0.0165526
620.457	0.0166048
620.535	0.0168693
620.613	0.0168403
620.692	0.0168936
620.770	0.0169234
620.848	0.0168443
620.926	0.0168665
621.004	0.0169785
621.082	0.0170242
621.160	0.0170701
621.238	0.0169093
621.317	0.0169324
621.395	0.0170216
621.473	0.0170690
621.551	0.0169881
621.629	0.0169929
621.707	0.0171349
621.785	0.0171126
621.863	0.0169337
621.942	0.0169350
622.020	0.0170793
622.098	0.0169453
622.176	0.0167799
622.254	0.0168023
622.332	0.0168101
622.410	0.0168288
622.488	0.0168247
622.567	0.0166826
622.645	0.0166900
622.723	0.0167484
622.801	0.0168098
622.879	0.0167235
622.957	0.0167226
623.035	0.0167729
623.113	0.0167780
623.192	0.0168587
623.270	0.0167536
623.348	0.0166267
623.426	0.0167776
623.504	0.0169712
623.582	0.0169107
623.660	0.0168556
623.738	0.0169286
623.817	0.0168961
623.895	0.0167654
623.973	0.0168863
624.051	0.0169471
624.129	0.0170334
624.207	0.0169958
624.285	0.0169527
624.363	0.0170157
624.442	0.0169627
624.520	0.0169999
624.598	0.0169497
624.676	0.0168771
624.754	0.0168982
624.832	0.0169503
624.910	0.0168774
624.988	0.0169050
625.067	0.0169490
625.145	0.0170151
625.223	0.0169261
625.301	0.0170802
625.379	0.0169764
625.457	0.0170697
625.535	0.0171706
625.613	0.0169540
625.692	0.0171160
625.770	0.0172690
625.848	0.0171201
625.926	0.0170959
626.004	0.0172020
626.082	0.0171656
626.160	0.0170214
626.238	0.0170444
626.317	0.0168435
626.395	0.0170675
626.473	0.0171181
626.551	0.0169989
626.629	0.0170966
626.707	0.0170069
626.785	0.0170157
626.863	0.0170585
626.942	0.0169853
627.020	0.0171223
627.098	0.0170818
627.176	0.0169844
627.254	0.0170899
627.332	0.0170949
627.410	0.0170974
627.488	0.0172273
627.567	0.0170141
627.645	0.0170038
627.723	0.0170947
627.801	0.0171461
627.879	0.0172457
627.957	0.0170875
628.035	0.0172292
628.113	0.0172722
628.192	0.0171587
628.270	0.0171782
628.348	0.0171025
628.426	0.0171037
628.504	0.0170650
628.582	0.0170703
628.660	0.0170324
628.738	0.0170736
628.817	0.0169028
628.895	0.0169664
628.973	0.0169747
629.051	0.0169910
629.129	0.0169191
629.207	0.0168791
629.285	0.0168640
629.363	0.0167667
629.442	0.0168095
629.520	0.0167529
629.598	0.0168516
629.676	0.0167623
629.754	0.0167230
629.832	0.0167133
629.910	0.0167526
629.988	0.0167771
630.067	0.0167448
630.145	0.0167503
630.223	0.0166640
630.301	0.0167171
630.379	0.0168359
630.457	0.0166970
630.535	0.0167618
630.613	0.0167922
630.692	0.0166314
630.770	0.0167220
630.848	0.0166963
630.926	0.0168681
631.004	0.0168296
631.082	0.0167190
631.160	0.0167200
631.238	0.0167562
631.317	0.0168330
631.395	0.0167907
631.473	0.0168686
631.551	0.0168272
631.629	0.0168583
631.707	0.0168615
631.785	0.0168487
631.863	0.0168821
631.942	0.0168446
632.020	0.0168884
632.098	0.0169439
632.176	0.0168555
632.254	0.0169241
632.332	0.0171353
632.410	0.0170155
632.488	0.0170969
632.567	0.0171191
632.645	0.0171268
632.723	0.0170872
632.801	0.0171317
632.879	0.0172229
632.957	0.0170914
633.035	0.0171995
633.113	0.0171437
633.192	0.0171540
633.270	0.0172231
633.348	0.0171857
633.426	0.0172128
633.504	0.0172491
633.582	0.0171709
633.660	0.0172060
633.738	0.0171472
633.817	0.0171678
633.895	0.0170056
633.973	0.0169822
634.051	0.0170851
634.129	0.0171378
634.207	0.0171985
634.285	0.0169953
634.363	0.0170408
634.442	0.0170805
634.520	0.0171110
634.598	0.0171387
634.676	0.0170238
634.754	0.0170928
634.832	0.0170210
634.910	0.0169288
634.988	0.0170345
635.067	0.0170213
635.145	0.0169810
635.223	0.0169099
635.301	0.0170058
635.379	0.0169331
635.457	0.0169003
635.535	0.0167847
635.613	0.0169029
635.692	0.0168059
635.770	0.0169286
635.848	0.0167970
635.926	0.0167859
636.004	0.0166763
636.082	0.0167989
636.160	0.0167057
636.238	0.0168192
636.317	0.0167074
636.395	0.0168938
636.473	0.0168341
636.551	0.0167744
636.629	0.0168676
636.707	0.0167967
636.785	0.0168774
636.863	0.0167905
636.942	0.0167525
637.020	0.0169491
637.098	0.0169828
637.176	0.0169801
637.254	0.0168085
637.332	0.0167867
637.410	0.0169410
637.488	0.0169994
637.567	0.0169817
637.645	0.0170180
637.723	0.0169963
637.801	0.0170248
637.879	0.0169890
637.957	0.0169830
638.035	0.0170077
638.113	0.0170759
638.192	0.0171139
638.270	0.0171375
638.348	0.0170322
638.426	0.0170560
638.504	0.0170157
638.582	0.0170163
638.660	0.0170266
638.738	0.0169993
638.817	0.0169479
638.895	0.0169709
638.973	0.0171025
639.051	0.0168879
639.129	0.0168497
639.207	0.0170493
639.285	0.0169574
639.363	0.0171015
639.442	0.0171342
639.520	0.0170900
639.598	0.0169904
639.676	0.0169624
639.754	0.0170035
639.832	0.0172131
639.910	0.0170200
639.988	0.0170219
640.067	0.0171294
640.145	0.0172651
640.223	0.0172914
640.301	0.0171305
640.379	0.0170960
640.457	0.0171211
640.535	0.0170198
640.613	0.0172090
640.692	0.0170489
640.770	0.0169214
640.848	0.0170278
640.926	0.0172329
641.004	0.0170254
641.082	0.0170143
641.160	0.0169749
641.238	0.0169376
641.317	0.0168290
641.395	0.0170017
641.473	0.0169787
641.551	0.0170077
641.629	0.0169972
641.707	0.0170111
641.785	0.0169336
641.863	0.0169998
641.942	0.0169798
642.020	0.0169147
642.098	0.0169696
642.176	0.0168983
642.254	0.0169337
642.332	0.0168735
642.410	0.0167229
642.488	0.0169083
642.567	0.0168499
642.645	0.0167122
642.723	0.0166595
642.801	0.0167065
642.879	0.0167571
642.957	0.0166074
643.035	0.0166581
643.113	0.0166382
643.192	0.0166807
643.270	0.0166376
643.348	0.0166486
643.426	0.0167381
643.504	0.0167707
643.582	0.0167941
643.660	0.0167841
643.738	0.0167384
643.817	0.0170164
643.895	0.0169678
643.973	0.0168166
644.051	0.0169162
644.129	0.0170027
644.207	0.0169854
644.285	0.0169666
644.363	0.0169750
644.442	0.0169352
644.520	0.0170612
644.598	0.0170177
644.676	0.0170880
644.754	0.0169942
644.832	0.0169725
644.910	0.0171528
644.988	0.0168936
645.067	0.0168861
645.145	0.0170768
645.223	0.0169601
645.301	0.0171170
645.379	0.0170892
645.457	0.0168957
645.535	0.0169534
645.613	0.0169455
645.692	0.0168806
645.770	0.0169402
645.848	0.0170327
645.926	0.0169181
646.004	0.0169511
646.082	0.0170393
646.160	0.0168314
646.238	0.0169223
646.317	0.0168483
646.395	0.0169757
646.473	0.0170406
646.551	0.0170807
646.629	0.0171695
646.707	0.0170465
646.785	0.0170469
646.863	0.0169047
646.942	0.0170678
647.020	0.0170778
647.098	0.0169465
647.176	0.0170061
647.254	0.0170152
647.332	0.0169125
647.410	0.0170034
647.488	0.0169334
647.567	0.0169847
647.645	0.0170976
647.723	0.0170940
647.801	0.0170468
647.879	0.0169601
647.957	0.0168940
648.035	0.0169280
648.113	0.0169303
648.192	0.0169158
648.270	0.0169080
648.348	0.0169382
648.426	0.0169572
648.504	0.0169253
648.582	0.0169438
648.660	0.0170564
648.738	0.0170346
648.817	0.0170412
648.895	0.0171329
648.973	0.0169737
649.051	0.0171037
649.129	0.0169763
649.207	0.0170128
649.285	0.0170290
649.363	0.0169532
649.442	0.0170122
649.520	0.0171208
649.598	0.0170779
649.676	0.0171816
649.754	0.0169455
649.832	0.0170554
649.910	0.0170419
649.988	0.0170225
650.067	0.0171318
650.145	0.0171668
650.223	0.0171536
650.301	0.0170805
650.379	0.0171324
650.457	0.0171972
650.535	0.0171793
650.613	0.0171262
650.692	0.0171324
650.770	0.0171706
650.848	0.0170935
650.926	0.0171468
651.004	0.0171351
651.082	0.0173493
651.160	0.0172298
651.238	0.0172426
651.317	0.0172593
651.395	0.0171249
651.473	0.0172332
651.551	0.0173067
651.629	0.0172095
651.707	0.0171760
651.785	0.0173918
651.863	0.0171766
651.942	0.0173364
652.020	0.0172681
652.098	0.0172562
652.176	0.0173212
652.254	0.0172832
652.332	0.0172608
652.410	0.0172148
652.488	0.0172718
652.567	0.0170956
652.645	0.0172465
652.723	0.0171202
652.801	0.0171240
652.879	0.0170893
652.957	0.0170971
653.035	0.0171043
653.113	0.0169878
653.192	0.0169269
653.270	0.0169277
653.348	0.0168791
653.426	0.0171696
653.504	0.0172029
653.582	0.0169152
653.660	0.0168203
653.738	0.0167570
653.817	0.0168561
653.895	0.0168147
653.973	0.0167620
654.051	0.0168166
654.129	0.0168878
654.207	0.0167294
654.285	0.0167427
654.363	0.0167712
654.442	0.0168288
654.520	0.0167040
654.598	0.0167133
654.676	0.0167731
654.754	0.0167101
654.832	0.0166464
654.910	0.0166352
654.988	0.0165894
655.067	0.0167272
655.145	0.0166402
655.223	0.0168084
655.301	0.0167678
655.379	0.0167708
655.457	0.0168227
655.535	0.0167666
655.613	0.0167446
655.692	0.0168941
655.770	0.0169048
655.848	0.0168582
655.926	0.0169508
656.004	0.0170077
656.082	0.0168405
656.160	0.0170630
656.238	0.0171906
656.317	0.0171222
656.395	0.0170313
656.473	0.0170106
656.551	0.0168921
656.629	0.0169849
656.707	0.0171939
656.785	0.0172030
656.863	0.0170741
656.942	0.0170509
657.020	0.0168845
657.098	0.0170551
657.176	0.0169447
657.254	0.0171984
657.332	0.0169905
657.410	0.0170264
657.488	0.0170970
657.567	0.0171445
657.645	0.0170571
657.723	0.0171386
657.801	0.0169799
657.879	0.0171345
657.957	0.0169430
658.035	0.0170430
658.113	0.0171264
658.192	0.0170918
658.270	0.0168839
658.348	0.0168777
658.426	0.0168471
658.504	0.0168227
658.582	0.0166102
658.660	0.0167249
658.738	0.0167377
658.817	0.0165446
658.895	0.0166544
658.973	0.0167083
659.051	0.0163727
659.129	0.0165585
659.207	0.0166320
659.285	0.0167134
659.363	0.0165868
659.442	0.0165942
659.520	0.0166644
659.598	0.0167045
659.676	0.0167247
659.754	0.0166486
659.832	0.0165027
659.910	0.0166031
659.988	0.0168629
660.067	0.0168395
660.145	0.0167965
660.223	0.0168860
660.301	0.0168185
660.379	0.0168937
660.457	0.0169721
660.535	0.0169570
660.613	0.0168852
660.692	0.0169720
660.770	0.0169360
660.848	0.0168873
660.926	0.0168135
661.004	0.0168265
661.082	0.0170244
661.160	0.0168111
661.238	0.0169485
661.317	0.0167834
661.395	0.0168549
661.473	0.0169411
661.551	0.0168487
661.629	0.0169088
661.707	0.0168458
661.785	0.0168996
661.863	0.0168811
661.942	0.0169003
662.020	0.0169419
662.098	0.0169897
662.176	0.0168791
662.254	0.0168575
662.332	0.0168502
662.410	0.0169139
662.488	0.0168033
662.567	0.0169218
662.645	0.0169866
662.723	0.0168785
662.801	0.0168349
662.879	0.0167738
662.957	0.0167799
663.035	0.0168742
663.113	0.0168687
663.192	0.0168640
663.270	0.0167859
663.348	0.0168542
663.426	0.0169303
663.504	0.0167241
663.582	0.0167976
663.660	0.0169226
663.738	0.0169372
663.817	0.0167007
663.895	0.0167522
663.973	0.0169476
664.051	0.0168036
664.129	0.0167059
664.207	0.0167601
664.285	0.0168386
664.363	0.0168226
664.442	0.0168932
664.520	0.0167719
664.598	0.0169254
664.676	0.0169424
664.754	0.0169514
664.832	0.0169414
664.910	0.0169604
664.988	0.0169808
665.067	0.0170922
665.145	0.0169186
665.223	0.0169733
665.301	0.0170792
665.379	0.0169752
665.457	0.0168906
665.535	0.0170882
665.613	0.0172306
665.692	0.0172054
665.770	0.0171660
665.848	0.0170355
665.926	0.0170992
666.004	0.0172237
666.082	0.0171880
666.160	0.0172009
666.238	0.0169785
666.317	0.0169756
666.395	0.0169109
666.473	0.0171133
666.551	0.0169809
666.629	0.0170142
666.707	0.0169210
666.785	0.0170184
666.863	0.0169814
666.942	0.0169180
667.020	0.0171028
667.098	0.0170129
667.176	0.0169437
667.254	0.0169080
667.332	0.0169666
667.410	0.0170553
667.488	0.0170086
667.567	0.0170409
667.645	0.0170776
667.723	0.0169394
667.801	0.0170276
667.879	0.0170410
667.957	0.0170272
668.035	0.0169629
668.113	0.0170219
668.192	0.0169595
668.270	0.0170429
668.348	0.0169933
668.426	0.0168955
668.504	0.0169820
668.582	0.0169707
668.660	0.0170641
668.738	0.0171115
668.817	0.0170428
668.895	0.0171269
668.973	0.0171069
669.051	0.0170850
669.129	0.0169995
669.207	0.0171273
669.285	0.0172353
669.363	0.0171830
669.442	0.0172990
669.520	0.0172196
669.598	0.0171065
669.676	0.0172504
669.754	0.0171552
669.832	0.0171558
669.910	0.0169642
669.988	0.0171435
670.067	0.0171162
670.145	0.0170161
670.223	0.0172116
670.301	0.0170802
670.379	0.0171298
670.457	0.0169152
670.535	0.0169131
670.613	0.0169348
670.692	0.0170286
670.770	0.0168343
670.848	0.0169733
670.926	0.0169508
671.004	0.0168694
671.082	0.0168873
671.160	0.0168024
671.238	0.0168935
671.317	0.0168697
671.395	0.0169411
671.473	0.0169231
671.551	0.0169632
671.629	0.0168777
671.707	0.0169536
671.785	0.0169770
671.863	0.0170074
671.942	0.0168141
672.020	0.0169669
672.098	0.0169614
672.176	0.0169524
672.254	0.0170432
672.332	0.0171788
672.410	0.0169250
672.488	0.0169341
672.567	0.0171588
672.645	0.0171432
672.723	0.0170760
672.801	0.0170944
672.879	0.0171748
672.957	0.0170084
673.035	0.0170186
673.113	0.0170664
673.192	0.0172157
673.270	0.0170869
673.348	0.0169477
673.426	0.0170735
673.504	0.0170321
673.582	0.0169186
673.660	0.0170747
673.738	0.0170427
673.817	0.0170609
673.895	0.0169533
673.973	0.0168974
674.051	0.0169643
674.129	0.0168980
674.207	0.0168056
674.285	0.0169220
674.363	0.0168582
674.442	0.0167306
674.520	0.0167291
674.598	0.0167913
674.676	0.0167433
674.754	0.0168167
674.832	0.0167591
674.910	0.0168925
674.988	0.0167439
675.067	0.0166988
675.145	0.0167363
675.223	0.0167901
675.301	0.0166376
675.379	0.0168275
675.457	0.0168166
675.535	0.0168276
675.613	0.0167271
675.692	0.0167033
675.770	0.0168027
675.848	0.0167211
675.926	0.0167995
676.004	0.0166773
676.082	0.0168078
676.160	0.0166283
676.238	0.0168070
676.317	0.0168417
676.395	0.0167742
676.473	0.0168964
676.551	0.0167686
676.629	0.0167090
676.707	0.0166679
676.785	0.0168288
676.863	0.0168130
676.942	0.0169257
677.020	0.0168384
677.098	0.0170559
677.176	0.0170459
677.254	0.0169214
677.332	0.0168089
677.410	0.0169955
677.488	0.0171133
677.567	0.0170193
677.645	0.0170660
677.723	0.0171579
677.801	0.0169630
677.879	0.0170932
677.957	0.0169862
678.035	0.0171310
678.113	0.0169907
678.192	0.0169218
678.270	0.0169608
678.348	0.0169240
678.426	0.0168444
678.504	0.0168245
678.582	0.0169836
678.660	0.0168970
678.738	0.0168118
678.817	0.0168494
678.895	0.0167255
678.973	0.0168235
679.051	0.0168260
679.129	0.0168145
679.207	0.0167565
679.285	0.0168640
679.363	0.0169937
679.442	0.0169328
679.520	0.0169028
679.598	0.0168634
679.676	0.0169511
679.754	0.0169366
679.832	0.0169270
679.910	0.0169016
679.988	0.0170312
680.067	0.0170079
680.145	0.0169091
680.223	0.0168802
680.301	0.0169576
680.379	0.0169533
680.457	0.0169894
680.535	0.0170586
680.613	0.0169080
680.692	0.0169050
680.770	0.0169646
680.848	0.0170621
680.926	0.0169881
681.004	0.0170631
681.082	0.0170250
681.160	0.0170417
681.238	0.0171915
681.317	0.0171512
681.395	0.0171028
681.473	0.0171770
681.551	0.0171700
681.629	0.0170890
681.707	0.0170541
681.785	0.0171191
681.863	0.0170066
681.942	0.0170921
682.020	0.0170277
682.098	0.0169987
682.176	0.0170232
682.254	0.0168509
682.332	0.0170229
682.410	0.0169324
682.488	0.0169112
682.567	0.0169116
682.645	0.0168432
682.723	0.0167844
682.801	0.0168329
682.879	0.0168551
682.957	0.0170698
683.035	0.0169090
683.113	0.0169424
683.192	0.0170650
683.270	0.0169203
683.348	0.0171304
683.426	0.0169837
683.504	0.0169695
683.582	0.0169627
683.660	0.0170545
683.738	0.0169232
683.817	0.0170845
683.895	0.0170530
683.973	0.0170095
684.051	0.0169529
684.129	0.0169511
684.207	0.0169726
684.285	0.0168682
684.363	0.0169548
684.442	0.0169453
684.520	0.0169965
684.598	0.0168106
684.676	0.0167818
684.754	0.0166061
684.832	0.0166066
684.910	0.0166854
684.988	0.0168434
685.067	0.0168930
685.145	0.0167902
685.223	0.0168274
685.301	0.0168615
685.379	0.0167921
685.457	0.0168742
685.535	0.0168783
685.613	0.0169254
685.692	0.0168475
685.770	0.0169372
685.848	0.0168959
685.926	0.0168446
686.004	0.0169463
686.082	0.0167937
686.160	0.0169287
686.238	0.0168848
686.317	0.0169075
686.395	0.0169243
686.473	0.0169215
686.551	0.0169118
686.629	0.0170370
686.707	0.0169285
686.785	0.0168848
686.863	0.0168325
686.942	0.0170283
687.020	0.0171008
687.098	0.0171875
687.176	0.0170102
687.254	0.0171597
687.332	0.0172775
687.410	0.0170591
687.488	0.0171870
687.567	0.0172740
687.645	0.0173203
687.723	0.0171736
687.801	0.0172913
687.879	0.0171734
687.957	0.0171236
688.035	0.0171748
688.113	0.0171074
688.192	0.0171721
688.270	0.0171091
688.348	0.0170415
688.426	0.0170963
688.504	0.0170302
688.582	0.0169531
688.660	0.0171098
688.738	0.0171049
688.817	0.0170114
688.895	0.0169118
688.973	0.0170353
689.051	0.0169540
689.129	0.0170532
689.207	0.0170369
689.285	0.0170804
689.363	0.0171813
689.442	0.0171647
689.520	0.0170542
689.598	0.0172033
689.676	0.0172422
689.754	0.0171883
689.832	0.0171917
689.910	0.0172048
689.988	0.0173231
690.067	0.0174573
690.145	0.0172710
690.223	0.0173040
690.301	0.0172369
690.379	0.0173884
690.457	0.0172201
690.535	0.0171551
690.613	0.0172031
690.692	0.0171282
690.770	0.0171921
690.848	0.0171364
690.926	0.0172968
691.004	0.0172047
691.082	0.0172376
691.160	0.0171002
691.238	0.0170761
691.317	0.0172458
691.395	0.0170974
691.473	0.0170232
691.551	0.0169131
691.629	0.0169859
691.707	0.0170144
691.785	0.0169098
691.863	0.0168513
691.942	0.0169084
692.020	0.0169477
692.098	0.0170258
692.176	0.0169661
692.254	0.0170896
692.332	0.0171031
692.410	0.0172044
692.488	0.0171603
692.567	0.0171411
692.645	0.0173272
692.723	0.0172656
692.801	0.0172849
692.879	0.0172967
692.957	0.0173546
693.035	0.0173827
693.113	0.0174074
693.192	0.0173450
693.270	0.0173122
693.348	0.0173127
693.426	0.0173090
693.504	0.0172687
693.582	0.0173464
693.660	0.0171055
693.738	0.0170263
693.817	0.0170007
693.895	0.0170360
693.973	0.0171018
694.051	0.0170395
694.129	0.0170821
694.207	0.0170834
694.285	0.0170720
694.363	0.0171732
694.442	0.0171513
694.520	0.0171567
694.598	0.0171814
694.676	0.0171342
694.754	0.0171024
694.832	0.0169906
694.910	0.0170314
694.988	0.0170717
695.067	0.0170089
695.145	0.0169281
695.223	0.0169695
695.301	0.0168798
695.379	0.0169841
695.457	0.0169315
695.535	0.0168853
695.613	0.0167699
695.692	0.0168736
695.770	0.0169173
695.848	0.0168708
695.926	0.0167815
696.004	0.0169045
696.082	0.0170148
696.160	0.0169028
696.238	0.0168301
696.317	0.0168864
696.395	0.0169707
696.473	0.0169209
696.551	0.0170518
696.629	0.0167712
696.707	0.0169651
696.785	0.0168837
696.863	0.0168667
696.942	0.0169417
697.020	0.0169182
697.098	0.0169644
697.176	0.0168272
697.254	0.0168024
697.332	0.0169976
697.410	0.0170734
697.488	0.0168458
697.567	0.0169395
697.645	0.0168535
697.723	0.0168256
697.801	0.0169457
697.879	0.0170831
697.957	0.0169950
698.035	0.0170036
698.113	0.0169415
698.192	0.0169322
698.270	0.0170889
698.348	0.0169948
698.426	0.0169926
698.504	0.0170087
698.582	0.0170055
698.660	0.0171135
698.738	0.0170538
698.817	0.0169660
698.895	0.0170351
698.973	0.0170296
699.051	0.0170255
699.129	0.0169897
699.207	0.0169604
699.285	0.0169333
699.363	0.0167161
699.442	0.0166762
699.520	0.0167144
699.598	0.0166442
699.676	0.0166080
699.754	0.0167187
699.832	0.0165170
699.910	0.0165049
699.988	0.0164772
700.067	0.0165079
700.145	0.0165807
700.223	0.0165293
700.301	0.0166768
700.379	0.0167854
700.457	0.0168534
700.535	0.0167931
700.613	0.0168227
700.692	0.0169748
700.770	0.0169519
700.848	0.0170700
700.926	0.0169936
701.004	0.0171638
701.082	0.0171581
701.160	0.0172024
701.238	0.0172224
701.317	0.0172124
701.395	0.0172150
701.473	0.0171880
701.551	0.0172282
701.629	0.0172445
701.707	0.0172318
701.785	0.0171744
701.863	0.0172276
701.942	0.0172716
702.020	0.0172879
702.098	0.0172975
702.176	0.0173309
702.254	0.0173392
702.332	0.0172218
702.410	0.0172689
702.488	0.0171826
702.567	0.0171991
702.645	0.0172459
702.723	0.0172262
702.801	0.0172575
702.879	0.0173280
702.957	0.0171159
703.035	0.0171870
703.113	0.0173416
703.192	0.0171587
703.270	0.0172601
703.348	0.0172083
703.426	0.0172184
703.504	0.0172854
703.582	0.0172729
703.660	0.0170303
703.738	0.0170780
703.817	0.0168945
703.895	0.0169611
703.973	0.0168290
704.051	0.0168114
704.129	0.0167537
704.207	0.0167699
704.285	0.0166611
704.363	0.0165599
704.442	0.0166369
704.520	0.0166093
704.598	0.0166677
704.676	0.0165887
704.754	0.0167549
704.832	0.0166708
704.910	0.0165691
704.988	0.0166695
705.067	0.0167684
705.145	0.0166236
705.223	0.0168503
705.301	0.0169181
705.379	0.0167084
705.457	0.0167413
705.535	0.0168146
705.613	0.0168623
705.692	0.0169083
705.770	0.0169121
705.848	0.0168600
705.926	0.0168699
706.004	0.0168964
706.082	0.0167506
706.160	0.0169608
706.238	0.0169386
706.317	0.0169566
706.395	0.0169859
706.473	0.0170632
706.551	0.0170296
706.629	0.0171732
706.707	0.0172280
706.785	0.0172477
706.863	0.0174094
706.942	0.0170835
707.020	0.0172243
707.098	0.0173019
707.176	0.0172321
707.254	0.0172260
707.332	0.0173190
707.410	0.0173989
707.488	0.0171954
707.567	0.0171578
707.645	0.0172283
707.723	0.0172359
707.801	0.0171483
707.879	0.0171350
707.957	0.0169926
708.035	0.0169493
708.113	0.0168945
708.192	0.0169566
708.270	0.0168575
708.348	0.0168447
708.426	0.0167117
708.504	0.0168068
708.582	0.0167648
708.660	0.0166929
708.738	0.0166563
708.817	0.0165712
708.895	0.0165574
708.973	0.0166565
709.051	0.0165620
709.129	0.0164468
709.207	0.0166248
709.285	0.0165878
709.363	0.0164619
709.442	0.0166442
709.520	0.0167410
709.598	0.0166557
709.676	0.0166656
709.754	0.0166985
709.832	0.0166264
709.910	0.0166526
709.988	0.0167170
710.067	0.0166323
710.145	0.0166032
710.223	0.0168079
710.301	0.0169733
710.379	0.0168075
710.457	0.0168609
710.535	0.0168224
710.613	0.0170187
710.692	0.0169089
710.770	0.0170523
710.848	0.0171284
710.926	0.0170403
711.004	0.0170789
711.082	0.0171648
711.160	0.0172412
711.238	0.0173921
711.317	0.0173505
711.395	0.0173876
711.473	0.0172715
711.551	0.0174412
711.629	0.0174100
711.707	0.0173401
711.785	0.0173948
711.863	0.0173563
711.942	0.0174804
712.020	0.0174111
712.098	0.0173976
712.176	0.0172984
712.254	0.0172526
712.332	0.0171119
712.410	0.0173158
712.488	0.0170901
712.567	0.0169809
712.645	0.0167808
712.723	0.0166860
712.801	0.0167676
712.879	0.0165675
712.957	0.0165856
713.035	0.0164554
713.113	0.0164088
713.192	0.0162749
713.270	0.0164150
713.348	0.0164497
713.426	0.0163038
713.504	0.0164850
713.582	0.0164977
713.660	0.0164678
713.738	0.0166258
713.817	0.0166946
713.895	0.0166036
713.973	0.0166872
714.051	0.0167596
714.129	0.0166811
714.207	0.0167132
714.285	0.0167561
714.363	0.0166731
714.442	0.0167501
714.520	0.0168839
714.598	0.0168558
714.676	0.0168311
714.754	0.0169998
714.832	0.0170390
714.910	0.0170840
714.988	0.0172082
715.067	0.0171849
715.145	0.0173067
715.223	0.0174511
715.301	0.0173913
715.379	0.0175275
715.457	0.0175865
715.535	0.0175989
715.613	0.0176566
715.692	0.0176658
715.770	0.0176744
715.848	0.0177255
715.926	0.0176975
716.004	0.0177247
716.082	0.0175186
716.160	0.0176894
716.238	0.0177526
716.317	0.0176799
716.395	0.0176183
716.473	0.0175080
716.551	0.0175603
716.629	0.0175259
716.707	0.0175276
716.785	0.0173988
716.863	0.0174004
716.942	0.0172806
717.020	0.0172652
717.098	0.0171658
717.176	0.0170442
717.254	0.0172050
717.332	0.0169675
717.410	0.0170219
717.488	0.0167269
717.567	0.0166838
717.645	0.0166883
717.723	0.0167324
717.801	0.0166730
717.879	0.0164828
717.957	0.0166319
718.035	0.0165634
718.113	0.0168085
718.192	0.0167383
718.270	0.0168019
718.348	0.0168264
718.426	0.0168256
718.504	0.0169593
718.582	0.0169868
718.660	0.0171083
718.738	0.0170430
718.817	0.0170792
718.895	0.0171832
718.973	0.0171796
719.051	0.0172817
719.129	0.0171570
719.207	0.0172644
719.285	0.0172109
719.363	0.0173106
719.442	0.0172375
719.520	0.0172214
719.598	0.0172444
719.676	0.0172074
719.754	0.0172037
719.832	0.0172192
719.910	0.0173537
719.988	0.0171796
720.067	0.0171998
720.145	0.0172238
720.223	0.0171404
720.301	0.0171742
720.379	0.0170998
720.457	0.0171329
720.535	0.0169398
720.613	0.0168612
720.692	0.0170033
720.770	0.0169379
720.848	0.0169186
720.926	0.0167331
721.004	0.0168131
721.082	0.0168880
721.160	0.0167419
721.238	0.0168825
721.317	0.0167874
721.395	0.0166935
721.473	0.0168137
721.551	0.0165927
721.629	0.0167699
721.707	0.0168379
721.785	0.0168449
721.863	0.0167097
721.942	0.0168564
722.020	0.0169366
722.098	0.0169611
722.176	0.0169987
722.254	0.0171069
722.332	0.0170442
722.410	0.0170483
722.488	0.0171886
722.567	0.0173636
722.645	0.0174245
722.723	0.0172765
722.801	0.0173060
722.879	0.0175655
722.957	0.0174841
723.035	0.0174908
723.113	0.0174133
723.192	0.0174547
723.270	0.0172909
723.348	0.0173629
723.426	0.0173643
723.504	0.0172943
723.582	0.0173249
723.660	0.0171510
723.738	0.0171868
723.817	0.0171198
723.895	0.0171175
723.973	0.0171030
724.051	0.0169397
724.129	0.0169626
724.207	0.0170912
724.285	0.0169048
724.363	0.0170729
724.442	0.0171467
724.520	0.0170496
724.598	0.0170206
724.676	0.0171375
724.754	0.0171703
724.832	0.0170817
724.910	0.0171051
724.988	0.0170235
725.067	0.0171463
725.145	0.0169813
725.223	0.0170393
725.301	0.0170921
725.379	0.0167958
725.457	0.0168660
725.535	0.0167443
725.613	0.0168221
725.692	0.0169028
725.770	0.0167356
725.848	0.0168495
725.926	0.0168404
726.004	0.0166755
726.082	0.0167410
726.160	0.0166314
726.238	0.0167358
726.317	0.0169569
726.395	0.0168387
726.473	0.0166953
726.551	0.0167495
726.629	0.0168229
726.707	0.0168623
726.785	0.0169138
726.863	0.0168513
726.942	0.0170019
727.020	0.0169457
727.098	0.0169089
727.176	0.0170650
727.254	0.0170483
727.332	0.0173055
727.410	0.0171957
727.488	0.0170512
727.567	0.0171408
727.645	0.0169818
727.723	0.0169753
727.801	0.0171029
727.879	0.0171373
727.957	0.0169769
728.035	0.0170030
728.113	0.0170911
728.192	0.0168886
728.270	0.0169327
728.348	0.0169867
728.426	0.0167184
728.504	0.0166544
728.582	0.0166753
728.660	0.0167573
728.738	0.0166779
728.817	0.0165316
728.895	0.0166115
728.973	0.0165659
729.051	0.0164317
729.129	0.0165957
729.207	0.0165701
729.285	0.0166547
729.363	0.0165265
729.442	0.0167312
729.520	0.0167450
729.598	0.0166835
729.676	0.0166659
729.754	0.0166113
729.832	0.0166165
729.910	0.0166228
729.988	0.0164183
730.067	0.0162843
730.145	0.0162968
730.223	0.0165073
730.301	0.0164674
730.379	0.0161990
730.457	0.0164433
730.535	0.0163599
730.613	0.0163795
730.692	0.0164231
730.770	0.0164725
730.848	0.0164046
730.926	0.0165110
731.004	0.0165405
731.082	0.0166334
731.160	0.0168678
731.238	0.0167928
731.317	0.0169028
731.395	0.0169128
731.473	0.0168292
731.551	0.0169726
731.629	0.0170013
731.707	0.0170203
731.785	0.0171294
731.863	0.0170405
731.942	0.0170942
732.020	0.0170135
732.098	0.0171102
732.176	0.0171332
732.254	0.0170896
732.332	0.0170638
732.410	0.0170181
732.488	0.0171111
732.567	0.0170606
732.645	0.0169764
732.723	0.0170548
732.801	0.0170755
732.879	0.0169168
732.957	0.0169197
733.035	0.0168203
733.113	0.0166403
733.192	0.0168274
733.270	0.0166325
733.348	0.0166514
733.426	0.0165363
733.504	0.0164960
733.582	0.0164502
733.660	0.0163144
733.738	0.0163835
733.817	0.0162946
733.895	0.0163056
733.973	0.0162867
734.051	0.0163546
734.129	0.0162357
734.207	0.0163515
734.285	0.0163839
734.363	0.0164634
734.442	0.0165920
734.520	0.0164638
734.598	0.0166611
734.676	0.0166068
734.754	0.0166924
734.832	0.0166360
734.910	0.0168877
734.988	0.0168914
735.067	0.0168189
735.145	0.0168665
735.223	0.0169791
735.301	0.0169433
735.379	0.0169196
735.457	0.0170248
735.535	0.0172657
735.613	0.0172997
735.692	0.0171586
735.770	0.0171556
735.848	0.0172786
735.926	0.0173149
736.004	0.0173478
736.082	0.0173643
736.160	0.0173502
736.238	0.0173409
736.317	0.0174307
736.395	0.0173692
736.473	0.0174702
736.551	0.0173496
736.629	0.0172237
736.707	0.0172986
736.785	0.0174223
736.863	0.0174252
736.942	0.0173162
737.020	0.0172017
737.098	0.0173383
737.176	0.0171358
737.254	0.0172448
737.332	0.0170815
737.410	0.0169648
737.488	0.0172215
737.567	0.0168793
737.645	0.0170628
737.723	0.0170721
737.801	0.0170195
737.879	0.0168443
737.957	0.0170089
738.035	0.0170612
738.113	0.0169254
738.192	0.0169043
738.270	0.0169202
738.348	0.0169477
738.426	0.0170467
738.504	0.0167947
738.582	0.0166993
738.660	0.0168779
738.738	0.0166200
738.817	0.0165408
738.895	0.0166445
738.973	0.0164725
739.051	0.0164724
739.129	0.0165096
739.207	0.0164864
739.285	0.0163628
739.363	0.0163483
739.442	0.0163280
739.520	0.0163184
739.598	0.0163319
739.676	0.0162352
739.754	0.0163699
739.832	0.0164482
739.910	0.0163754
739.988	0.0165083
740.067	0.0164967
740.145	0.0165630
740.223	0.0166138
740.301	0.0166675
740.379	0.0167345
740.457	0.0167445
740.535	0.0168441
740.613	0.0170124
740.692	0.0169286
740.770	0.0168581
740.848	0.0170937
740.926	0.0169939
741.004	0.0171030
741.082	0.0171101
741.160	0.0172144
741.238	0.0171839
741.317	0.0173617
741.395	0.0173993
741.473	0.0172427
741.551	0.0171819
741.629	0.0173521
741.707	0.0172936
741.785	0.0174147
741.863	0.0172337
741.942	0.0172160
742.020	0.0171902
742.098	0.0170618
742.176	0.0171822
742.254	0.0172121
742.332	0.0171761
742.410	0.0171561
742.488	0.0171375
742.567	0.0171310
742.645	0.0173635
742.723	0.0172895
742.801	0.0173131
742.879	0.0174380
742.957	0.0172362
743.035	0.0171778
743.113	0.0173827
743.192	0.0173994
743.270	0.0172895
743.348	0.0172596
743.426	0.0171865
743.504	0.0172447
743.582	0.0172995
743.660	0.0172301
743.738	0.0172022
743.817	0.0171461
743.895	0.0171603
743.973	0.0171559
744.051	0.0171218
744.129	0.0170534
744.207	0.0170797
744.285	0.0170673
744.363	0.0169123
744.442	0.0169450
744.520	0.0167672
744.598	0.0166975
744.676	0.0168008
744.754	0.0169400
744.832	0.0166150
744.910	0.0168168
744.988	0.0168146
745.067	0.0167381
745.145	0.0166869
745.223	0.0166582
745.301	0.0166525
745.379	0.0165853
745.457	0.0165724
745.535	0.0164816
745.613	0.0166047
745.692	0.0167379
745.770	0.0166618
745.848	0.0165736
745.926	0.0165698
746.004	0.0164401
746.082	0.0166243
746.160	0.0166949
746.238	0.0165719
746.317	0.0165175
746.395	0.0165834
746.473	0.0165858
746.551	0.0166798
746.629	0.0166232
746.707	0.0166357
746.785	0.0167673
746.863	0.0166578
746.942	0.0167044
747.020	0.0168496
747.098	0.0167898
747.176	0.0167400
747.254	0.0168878
747.332	0.0170717
747.410	0.0170987
747.488	0.0170210
747.567	0.0170574
747.645	0.0169331
747.723	0.0172049
747.801	0.0170889
747.879	0.0171484
747.957	0.0172568
748.035	0.0172408
748.113	0.0173637
748.192	0.0173334
748.270	0.0173340
748.348	0.0174517
748.426	0.0173508
748.504	0.0174081
748.582	0.0174036
748.660	0.0173984
748.738	0.0173432
748.817	0.0174138
748.895	0.0172791
748.973	0.0173698
749.051	0.0172294
749.129	0.0171294
749.207	0.0172413
749.285	0.0171445
749.363	0.0169968
749.442	0.0170394
749.520	0.0170598
749.598	0.0169147
749.676	0.0167345
749.754	0.0168436
749.832	0.0167129
749.910	0.0166583
749.988	0.0166171
750.067	0.0166010
750.145	0.0165017
750.223	0.0164021
750.301	0.0164348
750.379	0.0162944
750.457	0.0163554
750.535	0.0163449
750.613	0.0162318
750.692	0.0163036
750.770	0.0162881
750.848	0.0163376
750.926	0.0164038
751.004	0.0162499
751.082	0.0162177
751.160	0.0162622
751.238	0.0165145
751.317	0.0163892
751.395	0.0164098
751.473	0.0164080
751.551	0.0164574
751.629	0.0165016
751.707	0.0165293
751.785	0.0164389
751.863	0.0164337
751.942	0.0164202
752.020	0.0166734
752.098	0.0165736
752.176	0.0165699
752.254	0.0166197
752.332	0.0168837
752.410	0.0168412
752.488	0.0168719
752.567	0.0171268
752.645	0.0172325
752.723	0.0171528
752.801	0.0172089
752.879	0.0173492
752.957	0.0174506
753.035	0.0174037
753.113	0.0176109
753.192	0.0176263
753.270	0.0175955
753.348	0.0176231
753.426	0.0176311
753.504	0.0176535
753.582	0.0176680
753.660	0.0176579
753.738	0.0178413
753.817	0.0178075
753.895	0.0177132
753.973	0.0177495
754.051	0.0176997
754.129	0.0176347
754.207	0.0177037
754.285	0.0176563
754.363	0.0174702
754.442	0.0175150
754.520	0.0175312
754.598	0.0174318
754.676	0.0174088
754.754	0.0173196
754.832	0.0173814
754.910	0.0173208
754.988	0.0172045
755.067	0.0171305
755.145	0.0171058
755.223	0.0171911
755.301	0.0171794
755.379	0.0170445
755.457	0.0170898
755.535	0.0171616
755.613	0.0170308
755.692	0.0168814
755.770	0.0169639
755.848	0.0169428
755.926	0.0169541
756.004	0.0169147
756.082	0.0169402
756.160	0.0169536
756.238	0.0169335
756.317	0.0168553
756.395	0.0168468
756.473	0.0168129
756.551	0.0167078
756.629	0.0169784
756.707	0.0169772
756.785	0.0169013
756.863	0.0168539
756.942	0.0168252
757.020	0.0170369
757.098	0.0168583
757.176	0.0169638
757.254	0.0171489
757.332	0.0171009
757.410	0.0171645
757.488	0.0170700
757.567	0.0170229
757.645	0.0171101
757.723	0.0170122
757.801	0.0170673
757.879	0.0171390
757.957	0.0170152
758.035	0.0169795
758.113	0.0168808
758.192	0.0169275
758.270	0.0168571
758.348	0.0168413
758.426	0.0170139
758.504	0.0168544
758.582	0.0167638
758.660	0.0168861
758.738	0.0167377
758.817	0.0167247
758.895	0.0165958
758.973	0.0167321
759.051	0.0167468
759.129	0.0164709
759.207	0.0166369
759.285	0.0166438
759.363	0.0165726
759.442	0.0166176
759.520	0.0165256
759.598	0.0165961
759.676	0.0166656
759.754	0.0168546
759.832	0.0165892
759.910	0.0165170
759.988	0.0168810
760.067	0.0168587
760.145	0.0167850
760.223	0.0168872
760.301	0.0168232
760.379	0.0167842
760.457	0.0166993
760.535	0.0166996
760.613	0.0168155
760.692	0.0168522
760.770	0.0168103
760.848	0.0167776
760.926	0.0167178
761.004	0.0166411
761.082	0.0165958
761.160	0.0166409
761.238	0.0166633
761.317	0.0165980
761.395	0.0165330
761.473	0.0165429
761.551	0.0166579
761.629	0.0166782
761.707	0.0165863
761.785	0.0163794
761.863	0.0164742
761.942	0.0166265
762.020	0.0165887
762.098	0.0166576
762.176	0.0167011
762.254	0.0166616
762.332	0.0166851
762.410	0.0168391
762.488	0.0167185
762.567	0.0167804
762.645	0.0168068
762.723	0.0168602
762.801	0.0168895
762.879	0.0170297
762.957	0.0171636
763.035	0.0173322
763.113	0.0171465
763.192	0.0173568
763.270	0.0172282
763.348	0.0174238
763.426	0.0175784
763.504	0.0173560
763.582	0.0174235
763.660	0.0174087
763.738	0.0174684
763.817	0.0174477
763.895	0.0174192
763.973	0.0174010
764.051	0.0172325
764.129	0.0173078
764.207	0.0172663
764.285	0.0172418
764.363	0.0172238
764.442	0.0172153
764.520	0.0171153
764.598	0.0172031
764.676	0.0171580
764.754	0.0171304
764.832	0.0170094
764.910	0.0170872
764.988	0.0172105
765.067	0.0171832
765.145	0.0170876
765.223	0.0172417
765.301	0.0169020
765.379	0.0166919
765.457	0.0168465
765.535	0.0169736
765.613	0.0168185
765.692	0.0167528
765.770	0.0167673
765.848	0.0166527
765.926	0.0165252
766.004	0.0166566
766.082	0.0166197
766.160	0.0165833
766.238	0.0165873
766.317	0.0164693
766.395	0.0164919
766.473	0.0165732
766.551	0.0164182
766.629	0.0164724
766.707	0.0165396
766.785	0.0166383
766.863	0.0165333
766.942	0.0165526
767.020	0.0166570
767.098	0.0167918
767.176	0.0166602
767.254	0.0167184
767.332	0.0167692
767.410	0.0168340
767.488	0.0169799
767.567	0.0167862
767.645	0.0168769
767.723	0.0169810
767.801	0.0170981
767.879	0.0171160
767.957	0.0170292
768.035	0.0170561
768.113	0.0170593
768.192	0.0170649
768.270	0.0171701
768.348	0.0170256
768.426	0.0171111
768.504	0.0171392
768.582	0.0171304
768.660	0.0169988
768.738	0.0170515
768.817	0.0170662
768.895	0.0170542
768.973	0.0170401
769.051	0.0170763
769.129	0.0170318
769.207	0.0169427
769.285	0.0168758
769.363	0.0169640
769.442	0.0168517
769.520	0.0169923
769.598	0.0169161
769.676	0.0169512
769.754	0.0168117
769.832	0.0167766
769.910	0.0168228
769.988	0.0168162
770.067	0.0168315
770.145	0.0168887
770.223	0.0168567
770.301	0.0168845
770.379	0.0167587
770.457	0.0169357
770.535	0.0170370
770.613	0.0170132
770.692	0.0170056
770.770	0.0170283
770.848	0.0169582
770.926	0.0169382
771.004	0.0168916
771.082	0.0171117
771.160	0.0169479
771.238	0.0168288
771.317	0.0168613
771.395	0.0168620
771.473	0.0168198
771.551	0.0169306
771.629	0.0169381
771.707	0.0169295
771.785	0.0167889
771.863	0.0168238
771.942	0.0169304
772.020	0.0168765
772.098	0.0168089
772.176	0.0168227
772.254	0.0168655
772.332	0.0168954
772.410	0.0168829
772.488	0.0168613
772.567	0.0168379
772.645	0.0167130
772.723	0.0168531
772.801	0.0168378
772.879	0.0167313
772.957	0.0167860
773.035	0.0167995
773.113	0.0167601
773.192	0.0168715
773.270	0.0167802
773.348	0.0167959
773.426	0.0168314
773.504	0.0169147
773.582	0.0169355
773.660	0.0168410
773.738	0.0170190
773.817	0.0169695
773.895	0.0170827
773.973	0.0169731
774.051	0.0167969
774.129	0.0171357
774.207	0.0171780
774.285	0.0168875
774.363	0.0171350
774.442	0.0171239
774.520	0.0171773
774.598	0.0172213
774.676	0.0170733
774.754	0.0171057
774.832	0.0171667
774.910	0.0172036
774.988	0.0173118
775.067	0.0171468
775.145	0.0171552
775.223	0.0170972
775.301	0.0173245
775.379	0.0171969
775.457	0.0171850
775.535	0.0171497
775.613	0.0172683
775.692	0.0171961
775.770	0.0171788
775.848	0.0173550
775.926	0.0172789
776.004	0.0173199
776.082	0.0172551
776.160	0.0172211
776.238	0.0171752
776.317	0.0172572
776.395	0.0172887
776.473	0.0174323
776.551	0.0173315
776.629	0.0172758
776.707	0.0173707
776.785	0.0174053
776.863	0.0173268
776.942	0.0173798
777.020	0.0173374
777.098	0.0172608
777.176	0.0173022
777.254	0.0173235
777.332	0.0172934
777.410	0.0171978
777.488	0.0171648
777.567	0.0172375
777.645	0.0172890
777.723	0.0169656
777.801	0.0169689
777.879	0.0172134
777.957	0.0169699
778.035	0.0170303
778.113	0.0171062
778.192	0.0170448
778.270	0.0169508
778.348	0.0170570
778.426	0.0167731
778.504	0.0168726
778.582	0.0167984
778.660	0.0169684
778.738	0.0168291
778.817	0.0166769
778.895	0.0166514
778.973	0.0167255
779.051	0.0167538
779.129	0.0165969
779.207	0.0165588
779.285	0.0164175
779.363	0.0165359
779.442	0.0166419
779.520	0.0166457
779.598	0.0164930
779.676	0.0165945
779.754	0.0163992
779.832	0.0166100
779.910	0.0165737
779.988	0.0164641
780.067	0.0166128
780.145	0.0165495
780.223	0.0166467
780.301	0.0166444
780.379	0.0167518
780.457	0.0166668
780.535	0.0166422
780.613	0.0167098
780.692	0.0166930
780.770	0.0168416
780.848	0.0168375
780.926	0.0167477
781.004	0.0167789
781.082	0.0169221
781.160	0.0169929
781.238	0.0169503
781.317	0.0169341
781.395	0.0170236
781.473	0.0171291
781.551	0.0170113
781.629	0.0171014
781.707	0.0169898
781.785	0.0170292
781.863	0.0173310
781.942	0.0172112
782.020	0.0171329
782.098	0.0172340
782.176	0.0172789
782.254	0.0172719
782.332	0.0173288
782.410	0.0171602
782.488	0.0172233
782.567	0.0173582
782.645	0.0174065
782.723	0.0172771
782.801	0.0173745
782.879	0.0174485
782.957	0.0173500
783.035	0.0172221
783.113	0.0172853
783.192	0.0172977
783.270	0.0173625
783.348	0.0172894
783.426	0.0174291
783.504	0.0174693
783.582	0.0173345
783.660	0.0172318
783.738	0.0173079
783.817	0.0173218
783.895	0.0174332
783.973	0.0173019
784.051	0.0173312
784.129	0.0173007
784.207	0.0173956
784.285	0.0174301
784.363	0.0174147
784.442	0.0173093
784.520	0.0174162
784.598	0.0173430
784.676	0.0172607
784.754	0.0173248
784.832	0.0172112
784.910	0.0172912
784.988	0.0171104
785.067	0.0171164
785.145	0.0171508
785.223	0.0172697
785.301	0.0169262
785.379	0.0170840
785.457	0.0171139
785.535	0.0172547
785.613	0.0171291
785.692	0.0170912
785.770	0.0170267
785.848	0.0169909
785.926	0.0168843
786.004	0.0168452
786.082	0.0169704
786.160	0.0169670
786.238	0.0169128
786.317	0.0168377
786.395	0.0169788
786.473	0.0168650
786.551	0.0167429
786.629	0.0167402
786.707	0.0167136
786.785	0.0166480
786.863	0.0166879
786.942	0.0166628
787.020	0.0166079
787.098	0.0164887
787.176	0.0166200
787.254	0.0165261
787.332	0.0165248
787.410	0.0165237
787.488	0.0167021
787.567	0.0166046
787.645	0.0166789
787.723	0.0165375
787.801	0.0167104
787.879	0.0165650
787.957	0.0166213
788.035	0.0165613
788.113	0.0165800
788.192	0.0166943
788.270	0.0167106
788.348	0.0165794
788.426	0.0167994
788.504	0.0167091
788.582	0.0166813
788.660	0.0166871
788.738	0.0165461
788.817	0.0165450
788.895	0.0166312
788.973	0.0167045
789.051	0.0166435
789.129	0.0167392
789.207	0.0168618
789.285	0.0167949
789.363	0.0167627
789.442	0.0168232
789.520	0.0168152
789.598	0.0168276
789.676	0.0168892
789.754	0.0169981
789.832	0.0169965
789.910	0.0169218
789.988	0.0170185
790.067	0.0168981
790.145	0.0168530
790.223	0.0167824
790.301	0.0169021
790.379	0.0168211
790.457	0.0168736
790.535	0.0167935
790.613	0.0168443
790.692	0.0169352
790.770	0.0168561
790.848	0.0167226
790.926	0.0168579
791.004	0.0167406
791.082	0.0168889
791.160	0.0167886
791.238	0.0168685
791.317	0.0169511
791.395	0.0168916
791.473	0.0168461
791.551	0.0169056
791.629	0.0170421
791.707	0.0170142
791.785	0.0170283
791.863	0.0170003
791.942	0.0171873
792.020	0.0171488
792.098	0.0170503
792.176	0.0170632
792.254	0.0171342
792.332	0.0169938
792.410	0.0169608
792.488	0.0170519
792.567	0.0172183
792.645	0.0171303
792.723	0.0172554
792.801	0.0171788
792.879	0.0172322
792.957	0.0172781
793.035	0.0171813
793.113	0.0172461
793.192	0.0173360
793.270	0.0172728
793.348	0.0173834
793.426	0.0173285
793.504	0.0173476
793.582	0.0173745
793.660	0.0174391
793.738	0.0172354
793.817	0.0173470
793.895	0.0172895
793.973	0.0174277
794.051	0.0172472
794.129	0.0174255
794.207	0.0173945
794.285	0.0174010
794.363	0.0172733
794.442	0.0173705
794.520	0.0174487
794.598	0.0172128
794.676	0.0173329
794.754	0.0173560
794.832	0.0173795
794.910	0.0172216
794.988	0.0172905
795.067	0.0174059
795.145	0.0172792
795.223	0.0174184
795.301	0.0172285
795.379	0.0174052
795.457	0.0174242
795.535	0.0172756
795.613	0.0172199
795.692	0.0171629
795.770	0.0172517
795.848	0.0172886
795.926	0.0172249
796.004	0.0171078
796.082	0.0171272
796.160	0.0172877
796.238	0.0172074
796.317	0.0171387
796.395	0.0170325
796.473	0.0170219
796.551	0.0170374
796.629	0.0170177
796.707	0.0170707
796.785	0.0170302
796.863	0.0169525
796.942	0.0170171
797.020	0.0169727
797.098	0.0170625
797.176	0.0171015
797.254	0.0169415
797.332	0.0168883
797.410	0.0169558
797.488	0.0171340
797.567	0.0169296
797.645	0.0170068
797.723	0.0168858
797.801	0.0168665
797.879	0.0169999
797.957	0.0170220
798.035	0.0170155
798.113	0.0169460
798.192	0.0167929
798.270	0.0168562
798.348	0.0168913
798.426	0.0167942
798.504	0.0168770
798.582	0.0168655
798.660	0.0169110
798.738	0.0169450
798.817	0.0168219
798.895	0.0168277
798.973	0.0169233
799.051	0.0169382
799.129	0.0170707
799.207	0.0170194
799.285	0.0167608
799.363	0.0167716
799.442	0.0169563
799.520	0.0169240
799.598	0.0168653
799.676	0.0168168
799.754	0.0168989
799.832	0.0169385
799.910	0.0166416
799.988	0.0168815
800.067	0.0167265
800.145	0.0168043
800.223	0.0167545
800.301	0.0167968
800.379	0.0167561
800.457	0.0167808
800.535	0.0168599
800.613	0.0168309
800.692	0.0168404
800.770	0.0168559
800.848	0.0168406
800.926	0.0168085
801.004	0.0169123
801.082	0.0168791
801.160	0.0168507
801.238	0.0169262
801.317	0.0169711
801.395	0.0170473
801.473	0.0170527
801.551	0.0169902
801.629	0.0170129
801.707	0.0169850
801.785	0.0169706
801.863	0.0169913
801.942	0.0170029
802.020	0.0170574
802.098	0.0169739
802.176	0.0169427
802.254	0.0171078
802.332	0.0170342
802.410	0.0170345
802.488	0.0171093
802.567	0.0172494
802.645	0.0172915
802.723	0.0171732
802.801	0.0171227
802.879	0.0171156
802.957	0.0172205
803.035	0.0171014
803.113	0.0170759
803.192	0.0172012
803.270	0.0172538
803.348	0.0170520
803.426	0.0172194
803.504	0.0173032
803.582	0.0171435
803.660	0.0172054
803.738	0.0172942
803.817	0.0172359
803.895	0.0173436
803.973	0.0172102
804.051	0.0172646
804.129	0.0172181
804.207	0.0171777
804.285	0.0171429
804.363	0.0170589
804.442	0.0170876
804.520	0.0169929
804.598	0.0170136
804.676	0.0169740
804.754	0.0171327
804.832	0.0170734
804.910	0.0169359
804.988	0.0170571
805.067	0.0170703
805.145	0.0170242
805.223	0.0169060
805.301	0.0168221
805.379	0.0170004
805.457	0.0170820
805.535	0.0169183
805.613	0.0168605
805.692	0.0169723
805.770	0.0169580
805.848	0.0168929
805.926	0.0168649
806.004	0.0169135
806.082	0.0167780
806.160	0.0167236
806.238	0.0168660
806.317	0.0169582
806.395	0.0169259
806.473	0.0169681
806.551	0.0168880
806.629	0.0168245
806.707	0.0169063
806.785	0.0170034
806.863	0.0170306
806.942	0.0170614
807.020	0.0170949
807.098	0.0171074
807.176	0.0172472
807.254	0.0171862
807.332	0.0171822
807.410	0.0171451
807.488	0.0171981
807.567	0.0173947
807.645	0.0173394
807.723	0.0173884
807.801	0.0173397
807.879	0.0173528
807.957	0.0174021
808.035	0.0173959
808.113	0.0174173
808.192	0.0173466
808.270	0.0174484
808.348	0.0172802
808.426	0.0172082
808.504	0.0172718
808.582	0.0172056
808.660	0.0172129
808.738	0.0170459
808.817	0.0170642
808.895	0.0170757
808.973	0.0169292
809.051	0.0168161
809.129	0.0168385
809.207	0.0169535
809.285	0.0168638
809.363	0.0166238
809.442	0.0166950
809.520	0.0166563
809.598	0.0165858
809.676	0.0166563
809.754	0.0166284
809.832	0.0163864
809.910	0.0164239
809.988	0.0163538
810.067	0.0165350
810.145	0.0165140
810.223	0.0164976
810.301	0.0165195
810.379	0.0165530
810.457	0.0166116
810.535	0.0165492
810.613	0.0166527
810.692	0.0166356
810.770	0.0166148
810.848	0.0165527
810.926	0.0165643
811.004	0.0166115
811.082	0.0167202
811.160	0.0167158
811.238	0.0165321
811.317	0.0168525
811.395	0.0167339
811.473	0.0167222
811.551	0.0167133
811.629	0.0167190
811.707	0.0167207
811.785	0.0166583
811.863	0.0167809
811.942	0.0166977
812.020	0.0168997
812.098	0.0167693
812.176	0.0167331
812.254	0.0168213
812.332	0.0169283
812.410	0.0169220
812.488	0.0168530
812.567	0.0167723
812.645	0.0168172
812.723	0.0167390
812.801	0.0167636
812.879	0.0167915
812.957	0.0166605
813.035	0.0167346
813.113	0.0165578
813.192	0.0164765
813.270	0.0165016
813.348	0.0166951
813.426	0.0166038
813.504	0.0165435
813.582	0.0164640
813.660	0.0165646
813.738	0.0165942
813.817	0.0165202
813.895	0.0165389
813.973	0.0167799
814.051	0.0167395
814.129	0.0166318
814.207	0.0168470
814.285	0.0169277
814.363	0.0169720
814.442	0.0169689
814.520	0.0170310
814.598	0.0171466
814.676	0.0171148
814.754	0.0171796
814.832	0.0172485
814.910	0.0173856
814.988	0.0173554
815.067	0.0173337
815.145	0.0173206
815.223	0.0173797
815.301	0.0174123
815.379	0.0174785
815.457	0.0174400
815.535	0.0173741
815.613	0.0175887
815.692	0.0175930
815.770	0.0176984
815.848	0.0176348
815.926	0.0175623
816.004	0.0175870
816.082	0.0177530
816.160	0.0175264
816.238	0.0176321
816.317	0.0177720
816.395	0.0178385
816.473	0.0177279
816.551	0.0178128
816.629	0.0177972
816.707	0.0178304
816.785	0.0176859
816.863	0.0176688
816.942	0.0176421
817.020	0.0176511
817.098	0.0174408
817.176	0.0175125
817.254	0.0175173
817.332	0.0173933
817.410	0.0173830
817.488	0.0173153
817.567	0.0171707
817.645	0.0171986
817.723	0.0171865
817.801	0.0170322
817.879	0.0170739
817.957	0.0170960
818.035	0.0170339
818.113	0.0169284
818.192	0.0168304
818.270	0.0169456
818.348	0.0169299
818.426	0.0169144
818.504	0.0168858
818.582	0.0168395
818.660	0.0170362
818.738	0.0169388
818.817	0.0167500
818.895	0.0168400
818.973	0.0168223
819.051	0.0169106
819.129	0.0169434
819.207	0.0168567
819.285	0.0169512
819.363	0.0169236
819.442	0.0169023
819.520	0.0168041
819.598	0.0169339
819.676	0.0168974
819.754	0.0168453
819.832	0.0168764
819.910	0.0168264
819.988	0.0169845
820.067	0.0168850
820.145	0.0169617
820.223	0.0169292
820.301	0.0169508
820.379	0.0169440
820.457	0.0170740
820.535	0.0170055
820.613	0.0170989
820.692	0.0169952
820.770	0.0169511
820.848	0.0169285
820.926	0.0168639
821.004	0.0166015
821.082	0.0168591
821.160	0.0168213
821.238	0.0167374
821.317	0.0167791
821.395	0.0167752
821.473	0.0167982
821.551	0.0168115
821.629	0.0168722
821.707	0.0166679
821.785	0.0165572
821.863	0.0168333
821.942	0.0165836
822.020	0.0167602
822.098	0.0167439
822.176	0.0167551
822.254	0.0167216
822.332	0.0168391
822.410	0.0168693
822.488	0.0168787
822.567	0.0168964
822.645	0.0168376
822.723	0.0168757
822.801	0.0170103
822.879	0.0169410
822.957	0.0170029
823.035	0.0168765
823.113	0.0169931
823.192	0.0170124
823.270	0.0169725
823.348	0.0170301
823.426	0.0170979
823.504	0.0169714
823.582	0.0170460
823.660	0.0169643
823.738	0.0169267
823.817	0.0169446
823.895	0.0169240
823.973	0.0169306
824.051	0.0170509
824.129	0.0168954
824.207	0.0169035
824.285	0.0168548
824.363	0.0166963
824.442	0.0168348
824.520	0.0167658
824.598	0.0167854
824.676	0.0170004
824.754	0.0169123
824.832	0.0168196
824.910	0.0168433
824.988	0.0168845
825.067	0.0167818
825.145	0.0167887
825.223	0.0168671
825.301	0.0167466
825.379	0.0166753
825.457	0.0166525
825.535	0.0167141
825.613	0.0166916
825.692	0.0167154
825.770	0.0165859
825.848	0.0165273
825.926	0.0166488
826.004	0.0166129
826.082	0.0166411
826.160	0.0167771
826.238	0.0165133
826.317	0.0163478
826.395	0.0165414
826.473	0.0165244
826.551	0.0165680
826.629	0.0165947
826.707	0.0166180
826.785	0.0165736
826.863	0.0166270
826.942	0.0166302
827.020	0.0166527
827.098	0.0168780
827.176	0.0168234
827.254	0.0167455
827.332	0.0167310
827.410	0.0167818
827.488	0.0169055
827.567	0.0168650
827.645	0.0168832
827.723	0.0169487
827.801	0.0170356
827.879	0.0169798
827.957	0.0169995
828.035	0.0171171
828.113	0.0170445
828.192	0.0171341
828.270	0.0172046
828.348	0.0171903
828.426	0.0172100
828.504	0.0172108
828.582	0.0171441
828.660	0.0174437
828.738	0.0173042
828.817	0.0171947
828.895	0.0173544
828.973	0.0174155
829.051	0.0173743
829.129	0.0172832
829.207	0.0172507
829.285	0.0173186
829.363	0.0173048
829.442	0.0174658
829.520	0.0172276
829.598	0.0172375
829.676	0.0173029
829.754	0.0173824
829.832	0.0172971
829.910	0.0172911
829.988	0.0174658
830.067	0.0173072
830.145	0.0173166
830.223	0.0172704
830.301	0.0171867
830.379	0.0172050
830.457	0.0172164
830.535	0.0174046
830.613	0.0172486
830.692	0.0171564
830.770	0.0171970
830.848	0.0170255
830.926	0.0170919
831.004	0.0170723
831.082	0.0170304
831.160	0.0171220
831.238	0.0171901
831.317	0.0172505
831.395	0.0171138
831.473	0.0171809
831.551	0.0171443
831.629	0.0169958
831.707	0.0171915
831.785	0.0171096
831.863	0.0169962
831.942	0.0170681
832.020	0.0170700
832.098	0.0171098
832.176	0.0171260
832.254	0.0170554
832.332	0.0170183
832.410	0.0169927
832.488	0.0169423
832.567	0.0169675
832.645	0.0169353
832.723	0.0170094
832.801	0.0170075
832.879	0.0169714
832.957	0.0169134
833.035	0.0168541
833.113	0.0168511
833.192	0.0168127
833.270	0.0168271
833.348	0.0168229
833.426	0.0169560
833.504	0.0167519
833.582	0.0167299
833.660	0.0167496
833.738	0.0169056
833.817	0.0168299
833.895	0.0167445
833.973	0.0167303
834.051	0.0166095
834.129	0.0166986
834.207	0.0166902
834.285	0.0166481
834.363	0.0166300
834.442	0.0165990
834.520	0.0165302
834.598	0.0164346
834.676	0.0165453
834.754	0.0165320
834.832	0.0165060
834.910	0.0165105
834.988	0.0165029
835.067	0.0163178
835.145	0.0165118
835.223	0.0163576
835.301	0.0163646
835.379	0.0164964
835.457	0.0164559
835.535	0.0162456
835.613	0.0164536
835.692	0.0165269
835.770	0.0165090
835.848	0.0165394
835.926	0.0165155
836.004	0.0165747
836.082	0.0165235
836.160	0.0166072
836.238	0.0166975
836.317	0.0167733
836.395	0.0167498
836.473	0.0166676
836.551	0.0166621
836.629	0.0167624
836.707	0.0169232
836.785	0.0169016
836.863	0.0168948
836.942	0.0169218
837.020	0.0169476
837.098	0.0170010
837.176	0.0169260
837.254	0.0170178
837.332	0.0171113
837.410	0.0169414
837.488	0.0169327
837.567	0.0170069
837.645	0.0170391
837.723	0.0169923
837.801	0.0169597
837.879	0.0170838
837.957	0.0170898
838.035	0.0170187
838.113	0.0170473
838.192	0.0171571
838.270	0.0172811
838.348	0.0171735
838.426	0.0172053
838.504	0.0172240
838.582	0.0173347
838.660	0.0174989
838.738	0.0175654
838.817	0.0173673
838.895	0.0173040
838.973	0.0174429
839.051	0.0174289
839.129	0.0172765
839.207	0.0174218
839.285	0.0173966
839.363	0.0173811
839.442	0.0173038
839.520	0.0172199
839.598	0.0171131
839.676	0.0171014
839.754	0.0171631
839.832	0.0172041
839.910	0.0171135
839.988	0.0169424
840.067	0.0170455
840.145	0.0171093
840.223	0.0170944
840.301	0.0170541
840.379	0.0170461
840.457	0.0169458
840.535	0.0169453
840.613	0.0171789
840.692	0.0172200
840.770	0.0172446
840.848	0.0171658
840.926	0.0171300
841.004	0.0170687
841.082	0.0171744
841.160	0.0171451
841.238	0.0171777
841.317	0.0170875
841.395	0.0169914
841.473	0.0171172
841.551	0.0169226
841.629	0.0170361
841.707	0.0168349
841.785	0.0169249
841.863	0.0170914
841.942	0.0170311
842.020	0.0169729
842.098	0.0170190
842.176	0.0169830
842.254	0.0168970
842.332	0.0170247
842.410	0.0169193
842.488	0.0168512
842.567	0.0170337
842.645	0.0171424
842.723	0.0170946
842.801	0.0171599
842.879	0.0170838
842.957	0.0170816
843.035	0.0170023
843.113	0.0169173
843.192	0.0171247
843.270	0.0169968
843.348	0.0170650
843.426	0.0170750
843.504	0.0169982
843.582	0.0170528
843.660	0.0170141
843.738	0.0170205
843.817	0.0170402
843.895	0.0169489
843.973	0.0169324
844.051	0.0168779
844.129	0.0168822
844.207	0.0167754
844.285	0.0169695
844.363	0.0167489
844.442	0.0167922
844.520	0.0167999
844.598	0.0166525
844.676	0.0168044
844.754	0.0168118
844.832	0.0168469
844.910	0.0168887
844.988	0.0167456
845.067	0.0167212
845.145	0.0168143
845.223	0.0168310
845.301	0.0167539
845.379	0.0165706
845.457	0.0167790
845.535	0.0167247
845.613	0.0166679
845.692	0.0167215
845.770	0.0167577
845.848	0.0166940
845.926	0.0165878
846.004	0.0165617
846.082	0.0165092
846.160	0.0165690
846.238	0.0165530
846.317	0.0166551
846.395	0.0164079
846.473	0.0164677
846.551	0.0166258
846.629	0.0164697
846.707	0.0165488
846.785	0.0166522
846.863	0.0166674
846.942	0.0166534
847.020	0.0166844
847.098	0.0167427
847.176	0.0167347
847.254	0.0167229
847.332	0.0167435
847.410	0.0167879
847.488	0.0168595
847.567	0.0167580
847.645	0.0167274
847.723	0.0167161
847.801	0.0167537
847.879	0.0165198
847.957	0.0166818
848.035	0.0166262
848.113	0.0166080
848.192	0.0166894
848.270	0.0166151
848.348	0.0167079
848.426	0.0166344
848.504	0.0168410
848.582	0.0165897
848.660	0.0166293
848.738	0.0167353
848.817	0.0167085
848.895	0.0168013
848.973	0.0166787
849.051	0.0167532
849.129	0.0168449
849.207	0.0168226
849.285	0.0167937
849.363	0.0168867
849.442	0.0169979
849.520	0.0168037
849.598	0.0171552
849.676	0.0172212
849.754	0.0169730
849.832	0.0170220
849.910	0.0171647
849.988	0.0170333
850.067	0.0169794
850.145	0.0171436
850.223	0.0171180
850.301	0.0170900
850.379	0.0170363
850.457	0.0171057
850.535	0.0169530
850.613	0.0169964
850.692	0.0171771
850.770	0.0171080
850.848	0.0170332
850.926	0.0169912
851.004	0.0172155
851.082	0.0172201
851.160	0.0172406
851.238	0.0172987
851.317	0.0172689
851.395	0.0171828
851.473	0.0172939
851.551	0.0173647
851.629	0.0174838
851.707	0.0173426
851.785	0.0172811
851.863	0.0173669
851.942	0.0174187
852.020	0.0173428
852.098	0.0173174
852.176	0.0173410
852.254	0.0172855
852.332	0.0172657
852.410	0.0173033
852.488	0.0173526
852.567	0.0172726
852.645	0.0171331
852.723	0.0171548
852.801	0.0171966
852.879	0.0169846
852.957	0.0170358
853.035	0.0169879
853.113	0.0169434
853.192	0.0169401
853.270	0.0170697
853.348	0.0167922
853.426	0.0168057
853.504	0.0169811
853.582	0.0168282
853.660	0.0168159
853.738	0.0168074
853.817	0.0168693
853.895	0.0166934
853.973	0.0168295
854.051	0.0167665
854.129	0.0166799
854.207	0.0165999
854.285	0.0165850
854.363	0.0167174
854.442	0.0165457
854.520	0.0165556
854.598	0.0167336
854.676	0.0164975
854.754	0.0164427
854.832	0.0165869
854.910	0.0166616
854.988	0.0167054
855.067	0.0166039
855.145	0.0165347
855.223	0.0167881
855.301	0.0167532
855.379	0.0167765
855.457	0.0167976
855.535	0.0168154
855.613	0.0168415
855.692	0.0168658
855.770	0.0168927
855.848	0.0168856
855.926	0.0168909
856.004	0.0169439
856.082	0.0169726
856.160	0.0168373
856.238	0.0167840
856.317	0.0168732
856.395	0.0168514
856.473	0.0168974
856.551	0.0169122
856.629	0.0169749
856.707	0.0168291
856.785	0.0169847
856.863	0.0167921
856.942	0.0168738
857.020	0.0168353
857.098	0.0168002
857.176	0.0168225
857.254	0.0167378
857.332	0.0167200
857.410	0.0166331
857.488	0.0167471
857.567	0.0166508
857.645	0.0167282
857.723	0.0166836
857.801	0.0167541
857.879	0.0167181
857.957	0.0166014
858.035	0.0167760
858.113	0.0167041
858.192	0.0167733
858.270	0.0167745
858.348	0.0167114
858.426	0.0167062
858.504	0.0169554
858.582	0.0168622
858.660	0.0168188
858.738	0.0169219
858.817	0.0168874
858.895	0.0167495
858.973	0.0168118
859.051	0.0169456
859.129	0.0169897
859.207	0.0168266
859.285	0.0169300
859.363	0.0169704
859.442	0.0169320
859.520	0.0172420
859.598	0.0170257
859.676	0.0171060
859.754	0.0170975
859.832	0.0174129
859.910	0.0174003
859.988	0.0172816
860.067	0.0172846
860.145	0.0174122
860.223	0.0174123
860.301	0.0172803
860.379	0.0175296
860.457	0.0173212
860.535	0.0174023
860.613	0.0174452
860.692	0.0174509
860.770	0.0176027
860.848	0.0174989
860.926	0.0175111
861.004	0.0175699
861.082	0.0174935
861.160	0.0176678
861.238	0.0176454
861.317	0.0175763
861.395	0.0176430
861.473	0.0176405
861.551	0.0176186
861.629	0.0175026
861.707	0.0176171
861.785	0.0175246
861.863	0.0175227
861.942	0.0175066
862.020	0.0173830
862.098	0.0171586
862.176	0.0173561
862.254	0.0172363
862.332	0.0172360
862.410	0.0171754
862.488	0.0170931
862.567	0.0171022
862.645	0.0171393
862.723	0.0170601
862.801	0.0170523
862.879	0.0170351
862.957	0.0170009
863.035	0.0170268
863.113	0.0169391
863.192	0.0168003
863.270	0.0168639
863.348	0.0167629
863.426	0.0167802
863.504	0.0167857
863.582	0.0166944
863.660	0.0167331
863.738	0.0167142
863.817	0.0167041
863.895	0.0167688
863.973	0.0164375
864.051	0.0164605
864.129	0.0165400
864.207	0.0165421
864.285	0.0165026
864.363	0.0164171
864.442	0.0164886
864.520	0.0164587
864.598	0.0164364
864.676	0.0164203
864.754	0.0164722
864.832	0.0163731
864.910	0.0163339
864.988	0.0163921
865.067	0.0163425
865.145	0.0163333
865.223	0.0163239
865.301	0.0164886
865.379	0.0164025
865.457	0.0164256
865.535	0.0163129
865.613	0.0164444
865.692	0.0162712
865.770	0.0162851
865.848	0.0164514
865.926	0.0165319
866.004	0.0164118
866.082	0.0164716
866.160	0.0165207
866.238	0.0165826
866.317	0.0164578
866.395	0.0163329
866.473	0.0164503
866.551	0.0163404
866.629	0.0165852
866.707	0.0165373
866.785	0.0164944
866.863	0.0166434
866.942	0.0168217
867.020	0.0166022
867.098	0.0166727
867.176	0.0166672
867.254	0.0168130
867.332	0.0167690
867.410	0.0169043
867.488	0.0169826
867.567	0.0168427
867.645	0.0169241
867.723	0.0168468
867.801	0.0169738
867.879	0.0169298
867.957	0.0170621
868.035	0.0171548
868.113	0.0171901
868.192	0.0172202
868.270	0.0171425
868.348	0.0171502
868.426	0.0172751
868.504	0.0171756
868.582	0.0172153
868.660	0.0173516
868.738	0.0173447
868.817	0.0171594
868.895	0.0173661
868.973	0.0172785
869.051	0.0173737
869.129	0.0174036
869.207	0.0173361
869.285	0.0172778
869.363	0.0173133
869.442	0.0173409
869.520	0.0173740
869.598	0.0173169
869.676	0.0174734
869.754	0.0173887
869.832	0.0172537
869.910	0.0172843
869.988	0.0173476
870.067	0.0173355
870.145	0.0173867
870.223	0.0172968
870.301	0.0171789
870.379	0.0173624
870.457	0.0173227
870.535	0.0173123
870.613	0.0174358
870.692	0.0174210
870.770	0.0174268
870.848	0.0174638
870.926	0.0174161
871.004	0.0175353
871.082	0.0173757
871.160	0.0175648
871.238	0.0174822
871.317	0.0175948
871.395	0.0174861
871.473	0.0175700
871.551	0.0175127
871.629	0.0174132
871.707	0.0174839
871.785	0.0174564
871.863	0.0174966
871.942	0.0174674
872.020	0.0174665
872.098	0.0172923
872.176	0.0174850
872.254	0.0172958
872.332	0.0171937
872.410	0.0172032
872.488	0.0171927
872.567	0.0170924
872.645	0.0170995
872.723	0.0172120
872.801	0.0172724
872.879	0.0172733
872.957	0.0170852
873.035	0.0170576
873.113	0.0171645
873.192	0.0171243
873.270	0.0169083
873.348	0.0170463
873.426	0.0170876
873.504	0.0170733
873.582	0.0169889
873.660	0.0169796
873.738	0.0170907
873.817	0.0169731
873.895	0.0169315
873.973	0.0170096
874.051	0.0171225
874.129	0.0171356
874.207	0.0171246
874.285	0.0170827
874.363	0.0170876
874.442	0.0169912
874.520	0.0171249
874.598	0.0171089
874.676	0.0168829
874.754	0.0170578
874.832	0.0169733
874.910	0.0169139
874.988	0.0170129
875.067	0.0170256
875.145	0.0168718
875.223	0.0168029
875.301	0.0169547
875.379	0.0168630
875.457	0.0169232
875.535	0.0170197
875.613	0.0168525
875.692	0.0168082
875.770	0.0167722
875.848	0.0169200
875.926	0.0168337
876.004	0.0167620
876.082	0.0168778
876.160	0.0168589
876.238	0.0167906
876.317	0.0167194
876.395	0.0167477
876.473	0.0168340
876.551	0.0167270
876.629	0.0167564
876.707	0.0168014
876.785	0.0166033
876.863	0.0167444
876.942	0.0166208
877.020	0.0166218
877.098	0.0167565
877.176	0.0165782
877.254	0.0165910
877.332	0.0167192
877.410	0.0166441
877.488	0.0166837
877.567	0.0167707
877.645	0.0168351
877.723	0.0168585
877.801	0.0166415
877.879	0.0167781
877.957	0.0166451
878.035	0.0168009
878.113	0.0168597
878.192	0.0167279
878.270	0.0168544
878.348	0.0167834
878.426	0.0167551
878.504	0.0167964
878.582	0.0167543
878.660	0.0166080
878.738	0.0168517
878.817	0.0167606
878.895	0.0167193
878.973	0.0167579
879.051	0.0167454
879.129	0.0167467
879.207	0.0167503
879.285	0.0167550
879.363	0.0168484
879.442	0.0169255
879.520	0.0169579
879.598	0.0169635
879.676	0.0169333
879.754	0.0168906
879.832	0.0170635
879.910	0.0170266
879.988	0.0169759
880.067	0.0169510
880.145	0.0170690
880.223	0.0171177
880.301	0.0169492
880.379	0.0169840
880.457	0.0171031
880.535	0.0170126
880.613	0.0170291
880.692	0.0172076
880.770	0.0172446
880.848	0.0171195
880.926	0.0171661
881.004	0.0172987
881.082	0.0170988
881.160	0.0171830
881.238	0.0173396
881.317	0.0170961
881.395	0.0170863
881.473	0.0170810
881.551	0.0170833
881.629	0.0171819
881.707	0.0169618
881.785	0.0170660
881.863	0.0171331
881.942	0.0170470
882.020	0.0170427
882.098	0.0169567
882.176	0.0168544
882.254	0.0168204
882.332	0.0169650
882.410	0.0169756
882.488	0.0169566
882.567	0.0169366
882.645	0.0169281
882.723	0.0169737
882.801	0.0168956
882.879	0.0170697
882.957	0.0170114
883.035	0.0169296
883.113	0.0168937
883.192	0.0168216
883.270	0.0169568
883.348	0.0169569
883.426	0.0168563
883.504	0.0168777
883.582	0.0170161
883.660	0.0170210
883.738	0.0169275
883.817	0.0168655
883.895	0.0169762
883.973	0.0169838
884.051	0.0168474
884.129	0.0168890
884.207	0.0168429
884.285	0.0168526
884.363	0.0168935
884.442	0.0169473
884.520	0.0168076
884.598	0.0169086
884.676	0.0170026
884.754	0.0169655
884.832	0.0171498
884.910	0.0171570
884.988	0.0170336
885.067	0.0169999
885.145	0.0170049
885.223	0.0170544
885.301	0.0171157
885.379	0.0169817
885.457	0.0169857
885.535	0.0171821
885.613	0.0171626
885.692	0.0172098
885.770	0.0171415
885.848	0.0171714
885.926	0.0172264
886.004	0.0171026
886.082	0.0172763
886.160	0.0173119
886.238	0.0172736
886.317	0.0172351
886.395	0.0172755
886.473	0.0174304
886.551	0.0172408
886.629	0.0171797
886.707	0.0171133
886.785	0.0172598
886.863	0.0171262
886.942	0.0171971
887.020	0.0171153
887.098	0.0170223
887.176	0.0170511
887.254	0.0172433
887.332	0.0172670
887.410	0.0169969
887.488	0.0169101
887.567	0.0170214
887.645	0.0170606
887.723	0.0170502
887.801	0.0170950
887.879	0.0168949
887.957	0.0168143
888.035	0.0169740
888.113	0.0169185
888.192	0.0168993
888.270	0.0168634
888.348	0.0168227
888.426	0.0168668
888.504	0.0168088
888.582	0.0167641
888.660	0.0166830
888.738	0.0168140
888.817	0.0168365
888.895	0.0167677
888.973	0.0167622
889.051	0.0167438
889.129	0.0166846
889.207	0.0165682
889.285	0.0166661
889.363	0.0168477
889.442	0.0169361
889.520	0.0168393
889.598	0.0166309
889.676	0.0166837
889.754	0.0168087
889.832	0.0166712
889.910	0.0168122
889.988	0.0167129
890.067	0.0168238
890.145	0.0169975
890.223	0.0169471
890.301	0.0169537
890.379	0.0170024
890.457	0.0169152
890.535	0.0172055
890.613	0.0171418
890.692	0.0171048
890.770	0.0171651
890.848	0.0171513
890.926	0.0171736
891.004	0.0172106
891.082	0.0172878
891.160	0.0172275
891.238	0.0172972
891.317	0.0172843
891.395	0.0171982
891.473	0.0174463
891.551	0.0172746
891.629	0.0172288
891.707	0.0173145
891.785	0.0174854
891.863	0.0172312
891.942	0.0173148
892.020	0.0173631
892.098	0.0174055
892.176	0.0172723
892.254	0.0174301
892.332	0.0173179
892.410	0.0173061
892.488	0.0173535
892.567	0.0172607
892.645	0.0172434
892.723	0.0172038
892.801	0.0173408
892.879	0.0174040
892.957	0.0173695
893.035	0.0174460
893.113	0.0173116
893.192	0.0174635
893.270	0.0175400
893.348	0.0174341
893.426	0.0174847
893.504	0.0174612
893.582	0.0174123
893.660	0.0175074
893.738	0.0174356
893.817	0.0174792
893.895	0.0176005
893.973	0.0174532
894.051	0.0174892
894.129	0.0174194
894.207	0.0174393
894.285	0.0174487
894.363	0.0174259
894.442	0.0174886
894.520	0.0175018
894.598	0.0174329
894.676	0.0174419
894.754	0.0173872
894.832	0.0174110
894.910	0.0173964
894.988	0.0174026
895.067	0.0172491
895.145	0.0174998
895.223	0.0173930
895.301	0.0175126
895.379	0.0173377
895.457	0.0173560
895.535	0.0173646
895.613	0.0172266
895.692	0.0172611
895.770	0.0172201
895.848	0.0173502
895.926	0.0172099
896.004	0.0171587
896.082	0.0172084
896.160	0.0171902
896.238	0.0172433
896.317	0.0174461
896.395	0.0171883
896.473	0.0171690
896.551	0.0172485
896.629	0.0171471
896.707	0.0171788
896.785	0.0172530
896.863	0.0171984
896.942	0.0171985
897.020	0.0173208
897.098	0.0171759
897.176	0.0171896
897.254	0.0171394
897.332	0.0170861
897.410	0.0171735
897.488	0.0172500
897.567	0.0169809
897.645	0.0171201
897.723	0.0171429
897.801	0.0170673
897.879	0.0170171
897.957	0.0171183
898.035	0.0169217
898.113	0.0169683
898.192	0.0171443
898.270	0.0170267
898.348	0.0169762
898.426	0.0170056
898.504	0.0171450
898.582	0.0169340
898.660	0.0168552
898.738	0.0169784
898.817	0.0169633
898.895	0.0169978
898.973	0.0168986
899.051	0.0168593
899.129	0.0169191
899.207	0.0168527
899.285	0.0170828
899.363	0.0169353
899.442	0.0167525
899.520	0.0168585
899.598	0.0168470
899.676	0.0167111
899.754	0.0169402
899.832	0.0167564
899.910	0.0168207
899.988	0.0168536
900.067	0.0169541
900.145	0.0168703
900.223	0.0167542
900.301	0.0168997
900.379	0.0169154
900.457	0.0168587
900.535	0.0169299
900.613	0.0168154
900.692	0.0169596
900.770	0.0170800
900.848	0.0169424
900.926	0.0169219
901.004	0.0170404
901.082	0.0169808
901.160	0.0168751
901.238	0.0168646
901.317	0.0169457
901.395	0.0168882
901.473	0.0170782
901.551	0.0170305
901.629	0.0170215
901.707	0.0170079
901.785	0.0170860
901.863	0.0171573
901.942	0.0170266
902.020	0.0169215
902.098	0.0170779
902.176	0.0170860
902.254	0.0169852
902.332	0.0169061
902.410	0.0170754
902.488	0.0170678
902.567	0.0169947
902.645	0.0169694
902.723	0.0170020
902.801	0.0169810
902.879	0.0170317
902.957	0.0168479
903.035	0.0168878
903.113	0.0168835
903.192	0.0167331
903.270	0.0166782
903.348	0.0167668
903.426	0.0168348
903.504	0.0166921
903.582	0.0165525
903.660	0.0166402
903.738	0.0166740
903.817	0.0165191
903.895	0.0167187
903.973	0.0165693
904.051	0.0165226
904.129	0.0165022
904.207	0.0165956
904.285	0.0166846
904.363	0.0165986
904.442	0.0164101
904.520	0.0164124
904.598	0.0166119
904.676	0.0165475
904.754	0.0165413
904.832	0.0163792
904.910	0.0163436
904.988	0.0163288
905.067	0.0165031
905.145	0.0165165
905.223	0.0165751
905.301	0.0163233
905.379	0.0164034
905.457	0.0163740
905.535	0.0163087
905.613	0.0165038
905.692	0.0165475
905.770	0.0164890
905.848	0.0163160
905.926	0.0164491
906.004	0.0166280
906.082	0.0164581
906.160	0.0164590
906.238	0.0166447
906.317	0.0167109
906.395	0.0166371
906.473	0.0166328
906.551	0.0167375
906.629	0.0167963
906.707	0.0168121
906.785	0.0167065
906.863	0.0166205
906.942	0.0167208
907.020	0.0166215
907.098	0.0169386
907.176	0.0167165
907.254	0.0168937
907.332	0.0168099
907.410	0.0168874
907.488	0.0168819
907.567	0.0168724
907.645	0.0170119
907.723	0.0170756
907.801	0.0169577
907.879	0.0169979
907.957	0.0169963
908.035	0.0169889
908.113	0.0171063
908.192	0.0170776
908.270	0.0168877
908.348	0.0169211
908.426	0.0170455
908.504	0.0171688
908.582	0.0170427
908.660	0.0170663
908.738	0.0171202
908.817	0.0172308
908.895	0.0171226
908.973	0.0171541
909.051	0.0172820
909.129	0.0172404
909.207	0.0172489
909.285	0.0172585
909.363	0.0173079
909.442	0.0173076
909.520	0.0173995
909.598	0.0174158
909.676	0.0174152
909.754	0.0173263
909.832	0.0175491
909.910	0.0175337
909.988	0.0173958
910.067	0.0174133
910.145	0.0175027
910.223	0.0173724
910.301	0.0174719
910.379	0.0174269
910.457	0.0173296
910.535	0.0172278
910.613	0.0173566
910.692	0.0172424
910.770	0.0172247
910.848	0.0171581
910.926	0.0173180
911.004	0.0172021
911.082	0.0172058
911.160	0.0170663
911.238	0.0170327
911.317	0.0170941
911.395	0.0170111
911.473	0.0170092
911.551	0.0170066
911.629	0.0169759
911.707	0.0170208
911.785	0.0168861
911.863	0.0169060
911.942	0.0169566
912.020	0.0169485
912.098	0.0169820
912.176	0.0169604
912.254	0.0167920
912.332	0.0169844
912.410	0.0170223
912.488	0.0169814
912.567	0.0169054
912.645	0.0169338
912.723	0.0170676
912.801	0.0168164
912.879	0.0169251
912.957	0.0169582
913.035	0.0170576
913.113	0.0169336
913.192	0.0168640
913.270	0.0169943
913.348	0.0169938
913.426	0.0168547
913.504	0.0169332
913.582	0.0168239
913.660	0.0168796
913.738	0.0168597
913.817	0.0168644
913.895	0.0168797
913.973	0.0169808
914.051	0.0170349
914.129	0.0170182
914.207	0.0170706
914.285	0.0169592
914.363	0.0169290
914.442	0.0169965
914.520	0.0169612
914.598	0.0168703
914.676	0.0168687
914.754	0.0168227
914.832	0.0167180
914.910	0.0167796
914.988	0.0167579
915.067	0.0167612
915.145	0.0168298
915.223	0.0167631
915.301	0.0168896
915.379	0.0169982
915.457	0.0168195
915.535	0.0168254
915.613	0.0168698
915.692	0.0168800
915.770	0.0168419
915.848	0.0168139
915.926	0.0167015
916.004	0.0166805
916.082	0.0167769
916.160	0.0167418
916.238	0.0167726
916.317	0.0166924
916.395	0.0166438
916.473	0.0166519
916.551	0.0166831
916.629	0.0167239
916.707	0.0166226
916.785	0.0166080
916.863	0.0165794
916.942	0.0165484
917.020	0.0165396
917.098	0.0165726
917.176	0.0165450
917.254	0.0167030
917.332	0.0166583
917.410	0.0167638
917.488	0.0167850
917.567	0.0168204
917.645	0.0169178
917.723	0.0169040
917.801	0.0167381
917.879	0.0169232
917.957	0.0169015
918.035	0.0168923
918.113	0.0169057
918.192	0.0169453
918.270	0.0169614
918.348	0.0168040
918.426	0.0169727
918.504	0.0170267
918.582	0.0170202
918.660	0.0169828
918.738	0.0171741
918.817	0.0170197
918.895	0.0170354
918.973	0.0170355
919.051	0.0170405
919.129	0.0171681
919.207	0.0172301
919.285	0.0171555
919.363	0.0171953
919.442	0.0172767
919.520	0.0172308
919.598	0.0173826
919.676	0.0172775
919.754	0.0172839
919.832	0.0172206
919.910	0.0172873
