06/01/2022	22:18:44	Ver.	4.1	UNKNOWN
Optical Delay	599.988409	Delta X		0.078125	Sweeps	1	Scan Rate	0/0
Coordinates	Axis 1	NaN	Axis 2	NaN	Axis 3	NaN	Axis 4	NaN	Axis 5	NaN	Axis 6	0.000000
TX Power	0.000000	RX Power	0.000000

599.988	0.0177847
600.067	0.0174852
600.145	0.0177217
600.223	0.0175736
600.301	0.0175161
600.379	0.0175531
600.457	0.0175755
600.535	0.0173516
600.613	0.0175149
600.692	0.0175470
600.770	0.0175749
600.848	0.0173408
600.926	0.0174802
601.004	0.0174655
601.082	0.0174717
601.160	0.0175012
601.238	0.0174813
601.317	0.0174201
601.395	0.0174190
601.473	0.0173946
601.551	0.0172619
601.629	0.0173318
601.707	0.0175107
601.785	0.0173737
601.863	0.0173383
601.942	0.0173215
602.020	0.0174452
602.098	0.0172916
602.176	0.0173096
602.254	0.0172514
602.332	0.0173269
602.410	0.0172690
602.488	0.0172436
602.567	0.0172240
602.645	0.0172991
602.723	0.0171890
602.801	0.0174711
602.879	0.0173049
602.957	0.0173703
603.035	0.0174270
603.113	0.0173817
603.192	0.0172600
603.270	0.0175159
603.348	0.0175219
603.426	0.0174960
603.504	0.0175533
603.582	0.0174225
603.660	0.0174197
603.738	0.0175443
603.817	0.0174564
603.895	0.0174239
603.973	0.0174831
604.051	0.0175482
604.129	0.0174770
604.207	0.0173980
604.285	0.0175206
604.363	0.0174090
604.442	0.0174561
604.520	0.0176472
604.598	0.0175568
604.676	0.0174420
604.754	0.0176064
604.832	0.0175462
604.910	0.0175137
604.988	0.0174696
605.067	0.0175225
605.145	0.0175948
605.223	0.0175735
605.301	0.0175522
605.379	0.0174395
605.457	0.0175275
605.535	0.0176877
605.613	0.0177063
605.692	0.0176328
605.770	0.0174576
605.848	0.0177188
605.926	0.0176408
606.004	0.0175776
606.082	0.0176264
606.160	0.0174529
606.238	0.0176869
606.317	0.0175125
606.395	0.0176455
606.473	0.0174987
606.551	0.0175179
606.629	0.0174980
606.707	0.0174570
606.785	0.0174731
606.863	0.0175702
606.942	0.0172599
607.020	0.0174805
607.098	0.0173351
607.176	0.0174512
607.254	0.0176468
607.332	0.0175715
607.410	0.0173276
607.488	0.0174079
607.567	0.0175010
607.645	0.0174342
607.723	0.0176073
607.801	0.0175666
607.879	0.0175453
607.957	0.0175079
608.035	0.0176028
608.113	0.0175416
608.192	0.0175678
608.270	0.0176157
608.348	0.0175249
608.426	0.0175809
608.504	0.0176828
608.582	0.0176778
608.660	0.0177046
608.738	0.0176001
608.817	0.0175921
608.895	0.0176125
608.973	0.0178613
609.051	0.0176246
609.129	0.0175841
609.207	0.0175829
609.285	0.0175452
609.363	0.0176636
609.442	0.0176294
609.520	0.0175869
609.598	0.0174927
609.676	0.0174867
609.754	0.0175311
609.832	0.0176309
609.910	0.0175874
609.988	0.0174646
610.067	0.0174657
610.145	0.0174522
610.223	0.0174763
610.301	0.0174290
610.379	0.0175211
610.457	0.0175490
610.535	0.0174973
610.613	0.0174858
610.692	0.0174111
610.770	0.0173503
610.848	0.0175562
610.926	0.0174853
611.004	0.0173334
611.082	0.0173666
611.160	0.0174709
611.238	0.0174929
611.317	0.0175376
611.395	0.0174797
611.473	0.0174577
611.551	0.0176228
611.629	0.0174926
611.707	0.0174973
611.785	0.0176212
611.863	0.0178319
611.942	0.0176471
612.020	0.0176337
612.098	0.0178442
612.176	0.0177474
612.254	0.0178091
612.332	0.0178314
612.410	0.0178374
612.488	0.0180563
612.567	0.0179774
612.645	0.0180313
612.723	0.0179124
612.801	0.0180007
612.879	0.0179751
612.957	0.0180142
613.035	0.0181566
613.113	0.0180824
613.192	0.0182930
613.270	0.0182919
613.348	0.0182499
613.426	0.0181173
613.504	0.0184167
613.582	0.0183116
613.660	0.0182672
613.738	0.0182950
613.817	0.0182913
613.895	0.0183797
613.973	0.0184228
614.051	0.0182659
614.129	0.0183338
614.207	0.0183965
614.285	0.0184341
614.363	0.0182604
614.442	0.0182755
614.520	0.0184845
614.598	0.0184449
614.676	0.0183271
614.754	0.0183891
614.832	0.0183465
614.910	0.0183335
614.988	0.0183667
615.067	0.0182585
615.145	0.0182761
615.223	0.0182519
615.301	0.0183157
615.379	0.0180840
615.457	0.0181306
615.535	0.0183298
615.613	0.0181603
615.692	0.0181635
615.770	0.0180658
615.848	0.0179166
615.926	0.0180177
616.004	0.0179207
616.082	0.0176675
616.160	0.0177738
616.238	0.0177179
616.317	0.0175925
616.395	0.0177414
616.473	0.0175208
616.551	0.0173914
616.629	0.0172882
616.707	0.0171254
616.785	0.0171790
616.863	0.0171236
616.942	0.0170442
617.020	0.0170965
617.098	0.0169873
617.176	0.0169749
617.254	0.0169794
617.332	0.0169070
617.410	0.0168300
617.488	0.0170309
617.567	0.0169704
617.645	0.0169860
617.723	0.0169810
617.801	0.0170712
617.879	0.0169731
617.957	0.0169921
618.035	0.0170796
618.113	0.0170154
618.192	0.0173273
618.270	0.0171880
618.348	0.0172565
618.426	0.0172087
618.504	0.0174360
618.582	0.0172737
618.660	0.0174036
618.738	0.0174101
618.817	0.0174365
618.895	0.0174643
618.973	0.0173846
619.051	0.0174161
619.129	0.0175832
619.207	0.0175586
619.285	0.0176899
619.363	0.0176698
619.442	0.0176112
619.520	0.0175385
619.598	0.0177554
619.676	0.0176685
619.754	0.0177250
619.832	0.0176715
619.910	0.0176508
619.988	0.0177996
620.067	0.0177891
620.145	0.0176903
620.223	0.0177157
620.301	0.0177083
620.379	0.0177632
620.457	0.0177140
620.535	0.0175471
620.613	0.0175662
620.692	0.0175169
620.770	0.0175234
620.848	0.0175342
620.926	0.0175883
621.004	0.0174531
621.082	0.0173763
621.160	0.0174775
621.238	0.0173104
621.317	0.0172542
621.395	0.0173068
621.473	0.0172819
621.551	0.0173767
621.629	0.0172964
621.707	0.0174645
621.785	0.0174008
621.863	0.0174751
621.942	0.0173956
622.020	0.0174776
622.098	0.0174407
622.176	0.0174059
622.254	0.0174663
622.332	0.0176119
622.410	0.0176427
622.488	0.0176301
622.567	0.0176375
622.645	0.0177094
622.723	0.0177206
622.801	0.0177704
622.879	0.0176760
622.957	0.0175161
623.035	0.0178049
623.113	0.0177874
623.192	0.0178309
623.270	0.0177121
623.348	0.0177445
623.426	0.0178269
623.504	0.0176553
623.582	0.0175963
623.660	0.0177343
623.738	0.0177010
623.817	0.0176627
623.895	0.0176963
623.973	0.0178129
624.051	0.0177336
624.129	0.0176320
624.207	0.0176724
624.285	0.0177776
624.363	0.0177613
624.442	0.0175860
624.520	0.0177521
624.598	0.0176045
624.676	0.0177874
624.754	0.0177959
624.832	0.0176282
624.910	0.0177230
624.988	0.0178539
625.067	0.0178806
625.145	0.0177914
625.223	0.0178568
625.301	0.0179333
625.379	0.0179273
625.457	0.0178664
625.535	0.0178888
625.613	0.0179414
625.692	0.0179404
625.770	0.0178971
625.848	0.0179239
625.926	0.0179926
626.004	0.0178910
626.082	0.0178204
626.160	0.0177902
626.238	0.0178300
626.317	0.0177311
626.395	0.0179125
626.473	0.0177388
626.551	0.0177641
626.629	0.0179053
626.707	0.0177834
626.785	0.0176913
626.863	0.0179668
626.942	0.0177090
627.020	0.0177281
627.098	0.0178833
627.176	0.0178560
627.254	0.0177113
627.332	0.0176263
627.410	0.0177157
627.488	0.0177793
627.567	0.0175753
627.645	0.0176324
627.723	0.0175294
627.801	0.0174931
627.879	0.0176242
627.957	0.0175980
628.035	0.0175333
628.113	0.0174066
628.192	0.0173137
628.270	0.0174314
628.348	0.0172822
628.426	0.0172392
628.504	0.0174459
628.582	0.0174532
628.660	0.0173170
628.738	0.0173119
628.817	0.0173885
628.895	0.0173958
628.973	0.0174467
629.051	0.0174510
629.129	0.0173410
629.207	0.0175234
629.285	0.0174766
629.363	0.0173701
629.442	0.0174243
629.520	0.0175834
629.598	0.0175283
629.676	0.0174894
629.754	0.0175252
629.832	0.0175798
629.910	0.0174265
629.988	0.0174924
630.067	0.0174104
630.145	0.0175609
630.223	0.0175834
630.301	0.0174149
630.379	0.0173705
630.457	0.0174010
630.535	0.0174151
630.613	0.0174818
630.692	0.0174844
630.770	0.0174662
630.848	0.0175855
630.926	0.0174911
631.004	0.0173767
631.082	0.0175415
631.160	0.0176034
631.238	0.0176157
631.317	0.0176127
631.395	0.0177116
631.473	0.0177679
631.551	0.0176439
631.629	0.0177454
631.707	0.0177330
631.785	0.0177434
631.863	0.0176813
631.942	0.0176913
632.020	0.0177136
632.098	0.0176861
632.176	0.0176810
632.254	0.0177325
632.332	0.0176290
632.410	0.0177021
632.488	0.0177705
632.567	0.0175877
632.645	0.0176117
632.723	0.0176020
632.801	0.0176762
632.879	0.0177156
632.957	0.0175454
633.035	0.0176555
633.113	0.0177467
633.192	0.0175305
633.270	0.0175974
633.348	0.0176253
633.426	0.0177004
633.504	0.0176110
633.582	0.0175980
633.660	0.0176173
633.738	0.0176141
633.817	0.0176179
633.895	0.0176597
633.973	0.0175277
634.051	0.0174293
634.129	0.0174485
634.207	0.0174093
634.285	0.0173596
634.363	0.0175143
634.442	0.0175852
634.520	0.0174442
634.598	0.0174352
634.676	0.0174206
634.754	0.0174516
634.832	0.0175489
634.910	0.0174155
634.988	0.0174730
635.067	0.0175855
635.145	0.0174066
635.223	0.0174245
635.301	0.0175892
635.379	0.0175671
635.457	0.0175272
635.535	0.0177606
635.613	0.0176244
635.692	0.0177095
635.770	0.0175880
635.848	0.0176940
635.926	0.0176617
636.004	0.0177637
636.082	0.0178197
636.160	0.0178439
636.238	0.0178216
636.317	0.0178622
636.395	0.0177364
636.473	0.0178305
636.551	0.0179910
636.629	0.0178970
636.707	0.0177719
636.785	0.0178665
636.863	0.0178459
636.942	0.0179768
637.020	0.0178880
637.098	0.0178649
637.176	0.0178164
637.254	0.0180540
637.332	0.0179471
637.410	0.0179012
637.488	0.0179050
637.567	0.0179475
637.645	0.0180499
637.723	0.0179179
637.801	0.0179960
637.879	0.0178936
637.957	0.0180081
638.035	0.0179086
638.113	0.0179701
638.192	0.0179278
638.270	0.0179674
638.348	0.0179791
638.426	0.0180672
638.504	0.0180492
638.582	0.0180238
638.660	0.0179255
638.738	0.0179691
638.817	0.0180547
638.895	0.0179673
638.973	0.0180175
639.051	0.0178445
639.129	0.0178906
639.207	0.0178494
639.285	0.0179774
639.363	0.0177785
639.442	0.0178728
639.520	0.0178014
639.598	0.0177250
639.676	0.0177666
639.754	0.0176743
639.832	0.0176905
639.910	0.0175404
639.988	0.0175608
640.067	0.0174878
640.145	0.0174839
640.223	0.0175203
640.301	0.0175233
640.379	0.0175159
640.457	0.0174863
640.535	0.0175980
640.613	0.0174390
640.692	0.0173619
640.770	0.0174730
640.848	0.0174560
640.926	0.0173348
641.004	0.0174509
641.082	0.0174509
641.160	0.0174218
641.238	0.0173440
641.317	0.0173175
641.395	0.0174290
641.473	0.0174160
641.551	0.0174244
641.629	0.0173967
641.707	0.0172684
641.785	0.0173096
641.863	0.0174929
641.942	0.0173995
642.020	0.0173431
642.098	0.0174810
642.176	0.0175374
642.254	0.0175757
642.332	0.0174766
642.410	0.0174821
642.488	0.0174989
642.567	0.0175827
642.645	0.0176581
642.723	0.0176188
642.801	0.0175111
642.879	0.0176949
642.957	0.0176286
643.035	0.0175262
643.113	0.0175794
643.192	0.0176729
643.270	0.0175856
643.348	0.0175954
643.426	0.0175981
643.504	0.0174985
643.582	0.0175055
643.660	0.0174740
643.738	0.0176120
643.817	0.0175510
643.895	0.0174705
643.973	0.0174599
644.051	0.0175212
644.129	0.0174185
644.207	0.0174815
644.285	0.0175410
644.363	0.0174876
644.442	0.0174333
644.520	0.0175569
644.598	0.0176579
644.676	0.0175688
644.754	0.0177825
644.832	0.0177818
644.910	0.0176595
644.988	0.0177610
645.067	0.0176279
645.145	0.0176623
645.223	0.0179089
645.301	0.0177853
645.379	0.0178268
645.457	0.0178762
645.535	0.0177455
645.613	0.0178775
645.692	0.0177660
645.770	0.0178326
645.848	0.0179233
645.926	0.0178948
646.004	0.0177451
646.082	0.0178452
646.160	0.0177392
646.238	0.0176806
646.317	0.0176702
646.395	0.0175677
646.473	0.0176764
646.551	0.0178134
646.629	0.0176741
646.707	0.0178003
646.785	0.0176563
646.863	0.0177071
646.942	0.0176701
647.020	0.0175665
647.098	0.0175605
647.176	0.0176666
647.254	0.0175885
647.332	0.0177489
647.410	0.0178586
647.488	0.0176749
647.567	0.0177298
647.645	0.0177523
647.723	0.0177148
647.801	0.0176828
647.879	0.0177145
647.957	0.0176242
648.035	0.0177426
648.113	0.0177966
648.192	0.0175912
648.270	0.0176931
648.348	0.0176468
648.426	0.0176477
648.504	0.0176675
648.582	0.0177843
648.660	0.0178172
648.738	0.0176799
648.817	0.0177689
648.895	0.0177837
648.973	0.0177093
649.051	0.0178539
649.129	0.0176411
649.207	0.0176868
649.285	0.0176628
649.363	0.0177863
649.442	0.0178340
649.520	0.0177381
649.598	0.0175989
649.676	0.0177394
649.754	0.0177294
649.832	0.0177393
649.910	0.0179169
649.988	0.0176850
650.067	0.0176891
650.145	0.0177582
650.223	0.0175988
650.301	0.0177065
650.379	0.0177275
650.457	0.0177756
650.535	0.0177728
650.613	0.0176124
650.692	0.0176788
650.770	0.0177097
650.848	0.0176913
650.926	0.0178748
651.004	0.0177554
651.082	0.0176718
651.160	0.0177792
651.238	0.0177932
651.317	0.0178117
651.395	0.0178128
651.473	0.0177795
651.551	0.0177962
651.629	0.0176255
651.707	0.0177578
651.785	0.0175592
651.863	0.0175227
651.942	0.0176404
652.020	0.0177090
652.098	0.0174206
652.176	0.0175892
652.254	0.0174368
652.332	0.0174126
652.410	0.0174214
652.488	0.0172762
652.567	0.0173935
652.645	0.0173724
652.723	0.0172684
652.801	0.0173208
652.879	0.0173471
652.957	0.0171120
653.035	0.0173053
653.113	0.0172845
653.192	0.0172145
653.270	0.0171003
653.348	0.0171307
653.426	0.0171986
653.504	0.0171849
653.582	0.0172473
653.660	0.0171733
653.738	0.0172430
653.817	0.0172921
653.895	0.0173248
653.973	0.0172067
654.051	0.0174507
654.129	0.0176291
654.207	0.0175359
654.285	0.0175030
654.363	0.0176425
654.442	0.0176448
654.520	0.0176141
654.598	0.0177420
654.676	0.0177713
654.754	0.0177663
654.832	0.0178162
654.910	0.0178117
654.988	0.0178657
655.067	0.0178070
655.145	0.0178445
655.223	0.0178738
655.301	0.0179551
655.379	0.0178263
655.457	0.0178429
655.535	0.0178954
655.613	0.0178687
655.692	0.0178652
655.770	0.0178976
655.848	0.0178777
655.926	0.0179895
656.004	0.0176975
656.082	0.0178872
656.160	0.0178519
656.238	0.0178846
656.317	0.0179295
656.395	0.0178399
656.473	0.0178049
656.551	0.0176880
656.629	0.0177626
656.707	0.0176002
656.785	0.0176541
656.863	0.0176222
656.942	0.0176054
657.020	0.0175829
657.098	0.0175282
657.176	0.0174989
657.254	0.0174426
657.332	0.0174179
657.410	0.0174927
657.488	0.0175642
657.567	0.0174752
657.645	0.0173460
657.723	0.0174637
657.801	0.0173322
657.879	0.0173640
657.957	0.0173714
658.035	0.0173789
658.113	0.0172887
658.192	0.0173496
658.270	0.0173835
658.348	0.0174009
658.426	0.0175008
658.504	0.0173724
658.582	0.0175157
658.660	0.0174719
658.738	0.0173763
658.817	0.0175532
658.895	0.0174988
658.973	0.0174074
659.051	0.0174366
659.129	0.0176632
659.207	0.0175641
659.285	0.0175182
659.363	0.0175021
659.442	0.0174138
659.520	0.0173399
659.598	0.0175307
659.676	0.0176228
659.754	0.0174228
659.832	0.0174408
659.910	0.0176269
659.988	0.0174497
660.067	0.0174738
660.145	0.0173274
660.223	0.0174356
660.301	0.0176112
660.379	0.0175977
660.457	0.0175042
660.535	0.0175676
660.613	0.0175786
660.692	0.0177277
660.770	0.0176131
660.848	0.0176646
660.926	0.0177538
661.004	0.0175462
661.082	0.0177094
661.160	0.0176601
661.238	0.0176485
661.317	0.0176058
661.395	0.0176414
661.473	0.0177010
661.551	0.0177059
661.629	0.0175384
661.707	0.0176373
661.785	0.0176765
661.863	0.0175269
661.942	0.0175328
662.020	0.0177281
662.098	0.0176755
662.176	0.0176166
662.254	0.0176126
662.332	0.0176859
662.410	0.0175694
662.488	0.0176502
662.567	0.0177055
662.645	0.0176219
662.723	0.0176464
662.801	0.0176376
662.879	0.0176583
662.957	0.0176749
663.035	0.0177384
663.113	0.0177191
663.192	0.0176224
663.270	0.0177576
663.348	0.0176888
663.426	0.0174775
663.504	0.0175266
663.582	0.0174998
663.660	0.0176514
663.738	0.0175624
663.817	0.0175860
663.895	0.0173942
663.973	0.0175859
664.051	0.0175341
664.129	0.0176397
664.207	0.0174997
664.285	0.0175349
664.363	0.0174918
664.442	0.0175533
664.520	0.0174783
664.598	0.0175030
664.676	0.0175478
664.754	0.0175800
664.832	0.0175256
664.910	0.0175835
664.988	0.0175599
665.067	0.0175710
665.145	0.0176019
665.223	0.0175323
665.301	0.0175380
665.379	0.0175475
665.457	0.0176199
665.535	0.0176999
665.613	0.0175733
665.692	0.0177150
665.770	0.0177707
665.848	0.0177061
665.926	0.0175967
666.004	0.0176429
666.082	0.0176289
666.160	0.0176958
666.238	0.0176694
666.317	0.0176882
666.395	0.0177286
666.473	0.0176433
666.551	0.0176462
666.629	0.0176767
666.707	0.0175810
666.785	0.0176540
666.863	0.0177754
666.942	0.0176527
667.020	0.0176185
667.098	0.0176807
667.176	0.0177370
667.254	0.0175815
667.332	0.0175431
667.410	0.0177249
667.488	0.0177247
667.567	0.0175586
667.645	0.0177151
667.723	0.0178761
667.801	0.0176668
667.879	0.0177320
667.957	0.0177096
668.035	0.0175758
668.113	0.0176495
668.192	0.0177548
668.270	0.0178152
668.348	0.0177659
668.426	0.0178203
668.504	0.0176933
668.582	0.0177602
668.660	0.0175684
668.738	0.0176423
668.817	0.0177152
668.895	0.0176295
668.973	0.0174708
669.051	0.0176907
669.129	0.0176185
669.207	0.0175132
669.285	0.0175050
669.363	0.0175615
669.442	0.0174391
669.520	0.0175179
669.598	0.0175928
669.676	0.0175935
669.754	0.0175452
669.832	0.0175491
669.910	0.0175785
669.988	0.0176163
670.067	0.0175723
670.145	0.0175263
670.223	0.0175323
670.301	0.0175572
670.379	0.0174717
670.457	0.0177303
670.535	0.0176230
670.613	0.0175423
670.692	0.0174948
670.770	0.0177087
670.848	0.0177214
670.926	0.0175549
671.004	0.0176403
671.082	0.0176897
671.160	0.0176367
671.238	0.0175414
671.317	0.0176288
671.395	0.0176333
671.473	0.0176548
671.551	0.0176112
671.629	0.0174689
671.707	0.0175809
671.785	0.0176815
671.863	0.0176489
671.942	0.0176392
672.020	0.0175951
672.098	0.0175361
672.176	0.0176207
672.254	0.0175597
672.332	0.0175596
672.410	0.0174532
672.488	0.0175778
672.567	0.0173735
672.645	0.0174019
672.723	0.0174258
672.801	0.0174198
672.879	0.0173485
672.957	0.0172962
673.035	0.0174385
673.113	0.0173599
673.192	0.0172584
673.270	0.0172543
673.348	0.0171977
673.426	0.0172872
673.504	0.0172091
673.582	0.0171608
673.660	0.0172515
673.738	0.0171980
673.817	0.0172194
673.895	0.0172191
673.973	0.0173189
674.051	0.0172913
674.129	0.0172369
674.207	0.0172124
674.285	0.0172180
674.363	0.0174001
674.442	0.0172913
674.520	0.0173094
674.598	0.0173256
674.676	0.0174068
674.754	0.0173640
674.832	0.0172676
674.910	0.0174487
674.988	0.0173852
675.067	0.0173984
675.145	0.0174095
675.223	0.0174504
675.301	0.0175775
675.379	0.0175229
675.457	0.0173859
675.535	0.0173998
675.613	0.0176661
675.692	0.0175887
675.770	0.0177755
675.848	0.0176224
675.926	0.0175309
676.004	0.0178213
676.082	0.0177661
676.160	0.0176409
676.238	0.0176886
676.317	0.0177830
676.395	0.0177784
676.473	0.0177563
676.551	0.0176504
676.629	0.0176777
676.707	0.0178210
676.785	0.0178218
676.863	0.0177536
676.942	0.0177781
677.020	0.0175801
677.098	0.0176650
677.176	0.0176788
677.254	0.0177872
677.332	0.0176974
677.410	0.0178476
677.488	0.0178450
677.567	0.0176830
677.645	0.0177697
677.723	0.0178635
677.801	0.0179539
677.879	0.0177926
677.957	0.0177650
678.035	0.0177660
678.113	0.0179727
678.192	0.0178418
678.270	0.0177247
678.348	0.0178306
678.426	0.0178197
678.504	0.0176115
678.582	0.0179421
678.660	0.0179049
678.738	0.0177791
678.817	0.0178007
678.895	0.0176894
678.973	0.0177140
679.051	0.0178528
679.129	0.0177988
679.207	0.0178728
679.285	0.0177573
679.363	0.0177286
679.442	0.0179478
679.520	0.0177747
679.598	0.0176883
679.676	0.0178990
679.754	0.0180164
679.832	0.0178824
679.910	0.0178988
679.988	0.0177965
680.067	0.0179758
680.145	0.0180566
680.223	0.0178851
680.301	0.0177474
680.379	0.0177369
680.457	0.0178775
680.535	0.0177918
680.613	0.0177090
680.692	0.0176512
680.770	0.0178173
680.848	0.0177067
680.926	0.0176663
681.004	0.0176273
681.082	0.0175659
681.160	0.0175093
681.238	0.0175056
681.317	0.0175811
681.395	0.0175267
681.473	0.0176472
681.551	0.0176155
681.629	0.0176189
681.707	0.0175131
681.785	0.0176682
681.863	0.0175706
681.942	0.0176373
682.020	0.0176464
682.098	0.0176053
682.176	0.0175349
682.254	0.0175564
682.332	0.0174911
682.410	0.0174809
682.488	0.0175040
682.567	0.0175344
682.645	0.0174081
682.723	0.0172889
682.801	0.0174629
682.879	0.0174137
682.957	0.0172407
683.035	0.0173877
683.113	0.0174487
683.192	0.0172527
683.270	0.0173289
683.348	0.0173434
683.426	0.0173674
683.504	0.0173004
683.582	0.0174542
683.660	0.0173616
683.738	0.0173965
683.817	0.0175686
683.895	0.0174465
683.973	0.0174271
684.051	0.0173987
684.129	0.0175623
684.207	0.0175434
684.285	0.0173061
684.363	0.0175387
684.442	0.0174305
684.520	0.0173640
684.598	0.0173338
684.676	0.0174223
684.754	0.0174108
684.832	0.0174137
684.910	0.0174468
684.988	0.0173474
685.067	0.0173878
685.145	0.0174082
685.223	0.0174427
685.301	0.0173861
685.379	0.0174435
685.457	0.0174834
685.535	0.0175697
685.613	0.0176467
685.692	0.0177454
685.770	0.0177244
685.848	0.0176869
685.926	0.0177074
686.004	0.0177260
686.082	0.0177152
686.160	0.0177453
686.238	0.0178558
686.317	0.0177566
686.395	0.0176625
686.473	0.0176678
686.551	0.0177320
686.629	0.0176374
686.707	0.0176483
686.785	0.0177653
686.863	0.0177625
686.942	0.0175624
687.020	0.0176643
687.098	0.0176883
687.176	0.0178151
687.254	0.0177454
687.332	0.0178159
687.410	0.0178313
687.488	0.0178960
687.567	0.0178633
687.645	0.0179032
687.723	0.0178853
687.801	0.0178388
687.879	0.0179325
687.957	0.0179379
688.035	0.0179435
688.113	0.0179275
688.192	0.0180187
688.270	0.0179182
688.348	0.0178960
688.426	0.0177827
688.504	0.0177607
688.582	0.0176860
688.660	0.0177345
688.738	0.0177355
688.817	0.0176438
688.895	0.0174907
688.973	0.0174638
689.051	0.0174667
689.129	0.0175928
689.207	0.0175353
689.285	0.0173506
689.363	0.0173418
689.442	0.0175178
689.520	0.0174182
689.598	0.0174638
689.676	0.0174448
689.754	0.0175496
689.832	0.0175430
689.910	0.0175067
689.988	0.0174250
690.067	0.0175539
690.145	0.0176125
690.223	0.0175430
690.301	0.0176872
690.379	0.0176763
690.457	0.0177267
690.535	0.0176609
690.613	0.0177277
690.692	0.0177105
690.770	0.0178449
690.848	0.0177903
690.926	0.0178780
691.004	0.0178937
691.082	0.0179262
691.160	0.0177771
691.238	0.0178455
691.317	0.0179708
691.395	0.0179431
691.473	0.0180814
691.551	0.0179877
691.629	0.0179943
691.707	0.0178975
691.785	0.0179458
691.863	0.0179153
691.942	0.0178876
692.020	0.0177292
692.098	0.0177632
692.176	0.0175342
692.254	0.0175770
692.332	0.0176391
692.410	0.0177276
692.488	0.0177535
692.567	0.0177296
692.645	0.0175832
692.723	0.0177114
692.801	0.0176678
692.879	0.0178349
692.957	0.0177271
693.035	0.0177379
693.113	0.0176492
693.192	0.0176896
693.270	0.0177744
693.348	0.0176733
693.426	0.0178489
693.504	0.0176035
693.582	0.0175583
693.660	0.0176780
693.738	0.0176655
693.817	0.0174507
693.895	0.0175369
693.973	0.0174735
694.051	0.0172920
694.129	0.0174513
694.207	0.0173271
694.285	0.0175790
694.363	0.0173945
694.442	0.0173790
694.520	0.0174439
694.598	0.0173943
694.676	0.0173622
694.754	0.0174443
694.832	0.0175993
694.910	0.0176561
694.988	0.0175001
695.067	0.0176667
695.145	0.0176470
695.223	0.0176990
695.301	0.0179977
695.379	0.0180185
695.457	0.0178388
695.535	0.0177822
695.613	0.0179684
695.692	0.0177831
695.770	0.0177553
695.848	0.0178479
695.926	0.0176638
696.004	0.0175351
696.082	0.0176536
696.160	0.0175784
696.238	0.0175333
696.317	0.0174702
696.395	0.0173339
696.473	0.0174778
696.551	0.0173135
696.629	0.0172478
696.707	0.0174223
696.785	0.0174078
696.863	0.0173769
696.942	0.0173002
697.020	0.0173853
697.098	0.0173464
697.176	0.0175296
697.254	0.0175777
697.332	0.0175487
697.410	0.0176143
697.488	0.0176533
697.567	0.0177506
697.645	0.0177218
697.723	0.0175926
697.801	0.0176953
697.879	0.0177321
697.957	0.0176726
698.035	0.0177190
698.113	0.0177170
698.192	0.0177499
698.270	0.0176859
698.348	0.0177705
698.426	0.0178988
698.504	0.0176913
698.582	0.0176797
698.660	0.0176945
698.738	0.0177614
698.817	0.0178199
698.895	0.0179748
698.973	0.0178954
699.051	0.0178712
699.129	0.0179961
699.207	0.0178774
699.285	0.0179632
699.363	0.0179155
699.442	0.0179668
699.520	0.0181054
699.598	0.0180492
699.676	0.0181032
699.754	0.0178027
699.832	0.0179001
699.910	0.0177457
699.988	0.0177838
700.067	0.0178655
700.145	0.0175125
700.223	0.0175804
700.301	0.0175025
700.379	0.0175531
700.457	0.0173576
700.535	0.0174051
700.613	0.0173836
700.692	0.0174411
700.770	0.0174789
700.848	0.0173766
700.926	0.0174579
701.004	0.0174711
701.082	0.0174614
701.160	0.0175407
701.238	0.0175982
701.317	0.0175163
701.395	0.0176495
701.473	0.0176240
701.551	0.0176449
701.629	0.0177788
701.707	0.0178846
701.785	0.0179925
701.863	0.0179574
701.942	0.0180453
702.020	0.0178619
702.098	0.0179222
702.176	0.0180996
702.254	0.0178342
702.332	0.0178081
702.410	0.0178429
702.488	0.0177859
702.567	0.0179121
702.645	0.0177888
702.723	0.0178167
702.801	0.0177701
702.879	0.0177992
702.957	0.0177297
703.035	0.0176682
703.113	0.0177907
703.192	0.0176275
703.270	0.0176569
703.348	0.0177341
703.426	0.0176559
703.504	0.0176846
703.582	0.0177607
703.660	0.0177542
703.738	0.0177095
703.817	0.0178872
703.895	0.0176891
703.973	0.0176354
704.051	0.0175258
704.129	0.0176263
704.207	0.0176545
704.285	0.0174724
704.363	0.0174740
704.442	0.0173962
704.520	0.0174143
704.598	0.0174329
704.676	0.0172369
704.754	0.0171589
704.832	0.0171705
704.910	0.0171297
704.988	0.0173840
705.067	0.0171647
705.145	0.0171411
705.223	0.0171799
705.301	0.0171956
705.379	0.0171635
705.457	0.0173967
705.535	0.0173920
705.613	0.0171110
705.692	0.0173017
705.770	0.0173232
705.848	0.0173376
705.926	0.0174077
706.004	0.0172840
706.082	0.0173763
706.160	0.0175285
706.238	0.0173055
706.317	0.0175082
706.395	0.0176173
706.473	0.0174837
706.551	0.0175401
706.629	0.0175837
706.707	0.0175706
706.785	0.0175538
706.863	0.0175280
706.942	0.0176096
707.020	0.0176252
707.098	0.0177100
707.176	0.0177675
707.254	0.0177012
707.332	0.0177097
707.410	0.0177902
707.488	0.0177303
707.567	0.0176688
707.645	0.0178037
707.723	0.0176699
707.801	0.0178277
707.879	0.0178322
707.957	0.0177438
708.035	0.0176709
708.113	0.0176398
708.192	0.0176913
708.270	0.0176390
708.348	0.0176649
708.426	0.0177079
708.504	0.0175578
708.582	0.0175018
708.660	0.0174258
708.738	0.0174023
708.817	0.0175774
708.895	0.0174414
708.973	0.0174860
709.051	0.0175394
709.129	0.0176782
709.207	0.0175898
709.285	0.0176951
709.363	0.0175962
709.442	0.0175642
709.520	0.0174468
709.598	0.0174148
709.676	0.0174831
709.754	0.0174722
709.832	0.0174625
709.910	0.0176005
709.988	0.0175874
710.067	0.0174902
710.145	0.0175494
710.223	0.0174172
710.301	0.0174433
710.379	0.0174073
710.457	0.0176764
710.535	0.0176563
710.613	0.0177029
710.692	0.0176735
710.770	0.0175743
710.848	0.0175468
710.926	0.0176125
711.004	0.0176392
711.082	0.0177055
711.160	0.0175307
711.238	0.0175952
711.317	0.0175386
711.395	0.0175962
711.473	0.0176432
711.551	0.0175659
711.629	0.0176565
711.707	0.0175771
711.785	0.0175408
711.863	0.0175943
711.942	0.0176917
712.020	0.0177151
712.098	0.0177933
712.176	0.0180310
712.254	0.0179273
712.332	0.0178797
712.410	0.0181950
712.488	0.0181762
712.567	0.0180270
712.645	0.0181309
712.723	0.0182145
712.801	0.0182744
712.879	0.0182887
712.957	0.0181134
713.035	0.0181916
713.113	0.0180802
713.192	0.0182086
713.270	0.0181265
713.348	0.0180941
713.426	0.0180234
713.504	0.0178568
713.582	0.0177852
713.660	0.0178094
713.738	0.0176943
713.817	0.0176476
713.895	0.0176862
713.973	0.0175247
714.051	0.0174841
714.129	0.0175087
714.207	0.0174116
714.285	0.0174926
714.363	0.0174480
714.442	0.0174482
714.520	0.0173980
714.598	0.0174327
714.676	0.0174321
714.754	0.0173756
714.832	0.0172625
714.910	0.0172857
714.988	0.0171903
715.067	0.0172105
715.145	0.0171336
715.223	0.0169615
715.301	0.0170986
715.379	0.0171571
715.457	0.0172071
715.535	0.0169540
715.613	0.0171357
715.692	0.0170755
715.770	0.0171498
715.848	0.0173315
715.926	0.0174306
716.004	0.0173701
716.082	0.0173607
716.160	0.0174126
716.238	0.0174216
716.317	0.0176269
716.395	0.0175708
716.473	0.0177479
716.551	0.0177392
716.629	0.0178414
716.707	0.0180718
716.785	0.0179041
716.863	0.0178884
716.942	0.0179633
717.020	0.0179586
717.098	0.0180465
717.176	0.0179998
717.254	0.0179279
717.332	0.0181155
717.410	0.0181431
717.488	0.0180251
717.567	0.0181834
717.645	0.0181882
717.723	0.0182416
717.801	0.0181332
717.879	0.0181612
717.957	0.0181145
718.035	0.0181511
718.113	0.0181333
718.192	0.0181008
718.270	0.0181822
718.348	0.0178920
718.426	0.0178287
718.504	0.0177871
718.582	0.0179884
718.660	0.0179253
718.738	0.0179666
718.817	0.0177200
718.895	0.0177498
718.973	0.0176720
719.051	0.0176680
719.129	0.0176923
719.207	0.0177226
719.285	0.0176831
719.363	0.0177611
719.442	0.0177041
719.520	0.0177489
719.598	0.0177962
719.676	0.0177676
719.754	0.0177409
719.832	0.0178280
719.910	0.0178263
719.988	0.0176887
720.067	0.0176978
720.145	0.0176237
720.223	0.0177291
720.301	0.0176991
720.379	0.0176863
720.457	0.0177069
720.535	0.0176135
720.613	0.0177197
720.692	0.0178610
720.770	0.0176235
720.848	0.0178154
720.926	0.0178389
721.004	0.0178532
721.082	0.0178835
721.160	0.0178489
721.238	0.0178143
721.317	0.0177884
721.395	0.0177853
721.473	0.0177675
721.551	0.0177588
721.629	0.0177024
721.707	0.0176796
721.785	0.0176228
721.863	0.0176442
721.942	0.0176305
722.020	0.0178294
722.098	0.0177757
722.176	0.0177404
722.254	0.0177087
722.332	0.0178656
722.410	0.0178436
722.488	0.0177814
722.567	0.0180386
722.645	0.0180695
722.723	0.0179720
722.801	0.0180657
722.879	0.0181969
722.957	0.0181438
723.035	0.0181275
723.113	0.0182959
723.192	0.0181937
723.270	0.0183160
723.348	0.0183678
723.426	0.0183308
723.504	0.0182261
723.582	0.0181881
723.660	0.0181888
723.738	0.0180222
723.817	0.0179572
723.895	0.0177527
723.973	0.0177472
724.051	0.0176859
724.129	0.0175835
724.207	0.0176031
724.285	0.0175501
724.363	0.0174603
724.442	0.0174516
724.520	0.0174105
724.598	0.0172746
724.676	0.0173375
724.754	0.0173154
724.832	0.0172654
724.910	0.0171101
724.988	0.0171484
725.067	0.0172053
725.145	0.0171185
725.223	0.0172781
725.301	0.0172199
725.379	0.0171646
725.457	0.0172333
725.535	0.0172815
725.613	0.0172720
725.692	0.0173179
725.770	0.0173769
725.848	0.0172579
725.926	0.0172055
726.004	0.0172279
726.082	0.0173452
726.160	0.0172730
726.238	0.0172797
726.317	0.0172916
726.395	0.0171485
726.473	0.0171436
726.551	0.0172427
726.629	0.0172295
726.707	0.0173299
726.785	0.0171517
726.863	0.0171992
726.942	0.0172604
727.020	0.0173022
727.098	0.0173447
727.176	0.0172151
727.254	0.0172769
727.332	0.0172396
727.410	0.0173412
727.488	0.0174809
727.567	0.0174511
727.645	0.0174409
727.723	0.0174740
727.801	0.0176601
727.879	0.0175568
727.957	0.0176425
728.035	0.0175520
728.113	0.0175951
728.192	0.0174732
728.270	0.0175046
728.348	0.0174628
728.426	0.0175543
728.504	0.0174683
728.582	0.0174413
728.660	0.0175148
728.738	0.0172836
728.817	0.0173342
728.895	0.0173215
728.973	0.0172438
729.051	0.0174043
729.129	0.0174298
729.207	0.0173259
729.285	0.0173400
729.363	0.0174809
729.442	0.0173523
729.520	0.0173919
729.598	0.0175730
729.676	0.0177041
729.754	0.0175170
729.832	0.0175972
729.910	0.0178223
729.988	0.0178017
730.067	0.0178531
730.145	0.0177022
730.223	0.0177650
730.301	0.0178677
730.379	0.0178462
730.457	0.0177599
730.535	0.0177834
730.613	0.0176497
730.692	0.0177210
730.770	0.0176820
730.848	0.0176617
730.926	0.0176035
731.004	0.0174666
731.082	0.0172945
731.160	0.0173942
731.238	0.0173967
731.317	0.0174075
731.395	0.0173273
731.473	0.0172965
731.551	0.0173468
731.629	0.0173505
731.707	0.0172655
731.785	0.0173180
731.863	0.0173412
731.942	0.0172848
732.020	0.0172762
732.098	0.0173278
732.176	0.0172710
732.254	0.0172660
732.332	0.0172697
732.410	0.0172684
732.488	0.0172179
732.567	0.0171325
732.645	0.0170229
732.723	0.0172155
732.801	0.0171582
732.879	0.0170986
732.957	0.0171033
733.035	0.0171647
733.113	0.0172280
733.192	0.0171420
733.270	0.0173934
733.348	0.0173103
733.426	0.0173003
733.504	0.0174477
733.582	0.0174027
733.660	0.0172211
733.738	0.0172907
733.817	0.0174917
733.895	0.0173542
733.973	0.0173895
734.051	0.0172600
734.129	0.0174168
734.207	0.0175283
734.285	0.0174899
734.363	0.0175534
734.442	0.0175905
734.520	0.0176480
734.598	0.0176604
734.676	0.0175425
734.754	0.0175688
734.832	0.0176073
734.910	0.0177464
734.988	0.0176361
735.067	0.0176284
735.145	0.0176775
735.223	0.0178365
735.301	0.0178008
735.379	0.0178258
735.457	0.0178407
735.535	0.0178092
735.613	0.0178867
735.692	0.0177364
735.770	0.0177640
735.848	0.0178970
735.926	0.0178915
736.004	0.0178596
736.082	0.0178986
736.160	0.0179421
736.238	0.0178167
736.317	0.0178469
736.395	0.0179025
736.473	0.0179954
736.551	0.0178059
736.629	0.0179613
736.707	0.0179044
736.785	0.0179520
736.863	0.0179497
736.942	0.0177890
737.020	0.0176755
737.098	0.0177560
737.176	0.0177498
737.254	0.0177435
737.332	0.0178487
737.410	0.0177676
737.488	0.0177602
737.567	0.0176177
737.645	0.0175745
737.723	0.0174861
737.801	0.0175906
737.879	0.0175938
737.957	0.0175840
738.035	0.0175668
738.113	0.0177065
738.192	0.0175292
738.270	0.0176636
738.348	0.0176574
738.426	0.0174170
738.504	0.0176448
738.582	0.0176238
738.660	0.0176173
738.738	0.0176888
738.817	0.0177113
738.895	0.0175978
738.973	0.0177075
739.051	0.0178180
739.129	0.0176682
739.207	0.0176540
739.285	0.0176908
739.363	0.0176136
739.442	0.0176405
739.520	0.0174963
739.598	0.0173843
739.676	0.0174536
739.754	0.0174364
739.832	0.0172173
739.910	0.0172843
739.988	0.0172760
740.067	0.0172471
740.145	0.0171681
740.223	0.0171156
740.301	0.0171262
740.379	0.0170612
740.457	0.0170246
740.535	0.0170699
740.613	0.0171288
740.692	0.0173045
740.770	0.0173356
740.848	0.0172136
740.926	0.0171929
741.004	0.0172255
741.082	0.0173051
741.160	0.0172516
741.238	0.0173852
741.317	0.0174081
741.395	0.0173518
741.473	0.0174162
741.551	0.0175582
741.629	0.0175641
741.707	0.0175782
741.785	0.0175359
741.863	0.0176830
741.942	0.0177159
742.020	0.0178295
742.098	0.0177614
742.176	0.0178868
742.254	0.0179121
742.332	0.0179583
742.410	0.0179481
742.488	0.0178816
742.567	0.0179131
742.645	0.0180457
742.723	0.0181850
742.801	0.0180829
742.879	0.0179837
742.957	0.0181557
743.035	0.0181307
743.113	0.0180430
743.192	0.0180711
743.270	0.0181686
743.348	0.0182471
743.426	0.0183443
743.504	0.0181166
743.582	0.0182242
743.660	0.0182462
743.738	0.0182608
743.817	0.0181887
743.895	0.0181986
743.973	0.0181117
744.051	0.0182720
744.129	0.0178678
744.207	0.0179001
744.285	0.0180209
744.363	0.0178286
744.442	0.0177953
744.520	0.0177571
744.598	0.0177736
744.676	0.0175491
744.754	0.0178007
744.832	0.0176772
744.910	0.0175155
744.988	0.0176865
745.067	0.0175711
745.145	0.0174844
745.223	0.0175565
745.301	0.0175108
745.379	0.0174256
745.457	0.0173337
745.535	0.0172826
745.613	0.0173296
745.692	0.0174087
745.770	0.0171851
745.848	0.0172302
745.926	0.0173774
746.004	0.0170572
746.082	0.0171442
746.160	0.0171615
746.238	0.0170126
746.317	0.0171206
746.395	0.0170508
746.473	0.0170267
746.551	0.0168729
746.629	0.0170380
746.707	0.0171163
746.785	0.0169918
746.863	0.0169749
746.942	0.0171956
747.020	0.0170871
747.098	0.0171193
747.176	0.0172746
747.254	0.0172377
747.332	0.0173053
747.410	0.0173452
747.488	0.0175242
747.567	0.0173766
747.645	0.0175589
747.723	0.0175457
747.801	0.0174509
747.879	0.0176482
747.957	0.0175945
748.035	0.0175781
748.113	0.0176463
748.192	0.0176736
748.270	0.0176715
748.348	0.0178503
748.426	0.0177240
748.504	0.0177318
748.582	0.0177303
748.660	0.0178997
748.738	0.0178118
748.817	0.0179121
748.895	0.0178116
748.973	0.0179752
749.051	0.0178249
749.129	0.0177931
749.207	0.0180116
749.285	0.0178423
749.363	0.0179578
749.442	0.0179858
749.520	0.0179934
749.598	0.0180591
749.676	0.0181075
749.754	0.0180489
749.832	0.0180603
749.910	0.0179778
749.988	0.0178673
750.067	0.0179719
750.145	0.0180199
750.223	0.0178949
750.301	0.0177281
750.379	0.0178181
750.457	0.0178200
750.535	0.0176875
750.613	0.0176167
750.692	0.0176189
750.770	0.0176743
750.848	0.0174937
750.926	0.0175088
751.004	0.0175873
751.082	0.0174924
751.160	0.0175714
751.238	0.0174993
751.317	0.0174863
751.395	0.0175728
751.473	0.0175498
751.551	0.0175738
751.629	0.0175990
751.707	0.0174324
751.785	0.0175206
751.863	0.0175392
751.942	0.0173956
752.020	0.0172935
752.098	0.0175622
752.176	0.0173759
752.254	0.0172999
752.332	0.0173959
752.410	0.0173125
752.488	0.0173775
752.567	0.0173548
752.645	0.0173642
752.723	0.0173980
752.801	0.0172956
752.879	0.0174393
752.957	0.0175306
753.035	0.0174934
753.113	0.0175160
753.192	0.0174657
753.270	0.0175323
753.348	0.0177132
753.426	0.0176640
753.504	0.0177349
753.582	0.0176647
753.660	0.0177567
753.738	0.0178261
753.817	0.0179356
753.895	0.0178790
753.973	0.0178992
754.051	0.0178455
754.129	0.0177912
754.207	0.0178160
754.285	0.0180122
754.363	0.0178917
754.442	0.0178336
754.520	0.0178008
754.598	0.0178928
754.676	0.0177946
754.754	0.0178487
754.832	0.0177048
754.910	0.0177730
754.988	0.0177528
755.067	0.0175977
755.145	0.0176303
755.223	0.0176799
755.301	0.0177041
755.379	0.0176676
755.457	0.0175172
755.535	0.0175295
755.613	0.0175937
755.692	0.0175520
755.770	0.0176213
755.848	0.0176940
755.926	0.0176099
756.004	0.0176222
756.082	0.0175529
756.160	0.0176138
756.238	0.0176107
756.317	0.0176525
756.395	0.0176928
756.473	0.0175752
756.551	0.0175486
756.629	0.0176319
756.707	0.0173588
756.785	0.0175301
756.863	0.0175606
756.942	0.0175047
757.020	0.0173493
757.098	0.0174117
757.176	0.0174830
757.254	0.0173520
757.332	0.0174295
757.410	0.0173872
757.488	0.0174638
757.567	0.0172900
757.645	0.0172780
757.723	0.0174018
757.801	0.0174088
757.879	0.0173251
757.957	0.0174389
758.035	0.0173026
758.113	0.0172527
758.192	0.0172250
758.270	0.0175246
758.348	0.0174535
758.426	0.0174122
758.504	0.0174887
758.582	0.0174616
758.660	0.0176723
758.738	0.0176493
758.817	0.0175132
758.895	0.0175328
758.973	0.0177837
759.051	0.0175801
759.129	0.0175111
759.207	0.0176894
759.285	0.0176038
759.363	0.0175381
759.442	0.0174311
759.520	0.0175014
759.598	0.0175629
759.676	0.0175638
759.754	0.0174247
759.832	0.0174817
759.910	0.0174556
759.988	0.0173173
760.067	0.0173970
760.145	0.0173927
760.223	0.0174108
760.301	0.0174904
760.379	0.0175977
760.457	0.0175771
760.535	0.0178124
760.613	0.0176859
760.692	0.0178124
760.770	0.0178384
760.848	0.0179676
760.926	0.0178973
761.004	0.0179532
761.082	0.0179918
761.160	0.0180138
761.238	0.0180338
761.317	0.0180388
761.395	0.0179972
761.473	0.0179510
761.551	0.0180447
761.629	0.0179449
761.707	0.0179940
761.785	0.0178880
761.863	0.0178113
761.942	0.0177583
762.020	0.0178207
762.098	0.0176907
762.176	0.0176825
762.254	0.0177561
762.332	0.0176828
762.410	0.0175826
762.488	0.0175982
762.567	0.0176340
762.645	0.0175040
762.723	0.0175768
762.801	0.0176030
762.879	0.0174967
762.957	0.0175933
763.035	0.0174031
763.113	0.0175664
763.192	0.0174379
763.270	0.0174290
763.348	0.0175618
763.426	0.0175547
763.504	0.0175483
763.582	0.0174393
763.660	0.0174776
763.738	0.0176165
763.817	0.0176844
763.895	0.0175576
763.973	0.0174772
764.051	0.0174870
764.129	0.0175558
764.207	0.0175183
764.285	0.0175802
764.363	0.0174263
764.442	0.0175021
764.520	0.0174033
764.598	0.0173139
764.676	0.0172810
764.754	0.0173491
764.832	0.0173601
764.910	0.0173390
764.988	0.0173404
765.067	0.0171190
765.145	0.0172637
765.223	0.0174148
765.301	0.0173265
765.379	0.0173977
765.457	0.0173895
765.535	0.0174757
765.613	0.0173248
765.692	0.0174258
765.770	0.0174197
765.848	0.0174733
765.926	0.0173894
766.004	0.0174096
766.082	0.0172315
766.160	0.0174491
766.238	0.0175439
766.317	0.0174297
766.395	0.0174767
766.473	0.0176276
766.551	0.0174889
766.629	0.0173583
766.707	0.0174830
766.785	0.0174505
766.863	0.0175568
766.942	0.0175143
767.020	0.0175302
767.098	0.0175763
767.176	0.0176021
767.254	0.0175530
767.332	0.0174928
767.410	0.0174695
767.488	0.0175056
767.567	0.0173313
767.645	0.0175420
767.723	0.0175871
767.801	0.0173949
767.879	0.0174991
767.957	0.0174504
768.035	0.0174912
768.113	0.0175542
768.192	0.0176474
768.270	0.0175674
768.348	0.0177233
768.426	0.0177302
768.504	0.0178316
768.582	0.0177420
768.660	0.0179111
768.738	0.0178472
768.817	0.0177650
768.895	0.0178583
768.973	0.0179652
769.051	0.0179294
769.129	0.0179095
769.207	0.0179166
769.285	0.0179237
769.363	0.0178379
769.442	0.0177612
769.520	0.0179472
769.598	0.0179595
769.676	0.0178631
769.754	0.0179967
769.832	0.0178461
769.910	0.0179124
769.988	0.0178859
770.067	0.0178622
770.145	0.0179716
770.223	0.0179224
770.301	0.0178893
770.379	0.0179739
770.457	0.0179096
770.535	0.0179024
770.613	0.0180344
770.692	0.0179824
770.770	0.0179994
770.848	0.0180451
770.926	0.0179211
771.004	0.0180166
771.082	0.0179181
771.160	0.0180556
771.238	0.0178999
771.317	0.0177081
771.395	0.0179173
771.473	0.0178957
771.551	0.0178410
771.629	0.0178411
771.707	0.0177805
771.785	0.0177848
771.863	0.0179214
771.942	0.0178851
772.020	0.0177731
772.098	0.0177837
772.176	0.0178904
772.254	0.0177675
772.332	0.0179362
772.410	0.0177644
772.488	0.0176377
772.567	0.0177245
772.645	0.0176670
772.723	0.0175957
772.801	0.0177229
772.879	0.0176606
772.957	0.0174464
773.035	0.0175904
773.113	0.0176145
773.192	0.0176990
773.270	0.0175849
773.348	0.0175074
773.426	0.0174191
773.504	0.0174277
773.582	0.0173318
773.660	0.0172360
773.738	0.0173972
773.817	0.0174255
773.895	0.0172804
773.973	0.0174473
774.051	0.0174056
774.129	0.0174348
774.207	0.0174544
774.285	0.0174928
774.363	0.0173276
774.442	0.0176016
774.520	0.0176023
774.598	0.0176121
774.676	0.0175459
774.754	0.0176071
774.832	0.0176597
774.910	0.0177014
774.988	0.0177224
775.067	0.0176928
775.145	0.0178114
775.223	0.0177882
775.301	0.0177024
775.379	0.0177375
775.457	0.0177364
775.535	0.0177030
775.613	0.0176821
775.692	0.0177461
775.770	0.0178013
775.848	0.0177888
775.926	0.0176025
776.004	0.0176808
776.082	0.0176957
776.160	0.0176396
776.238	0.0176653
776.317	0.0175998
776.395	0.0175678
776.473	0.0176067
776.551	0.0176668
776.629	0.0175005
776.707	0.0176057
776.785	0.0176031
776.863	0.0174755
776.942	0.0175491
777.020	0.0174950
777.098	0.0173965
777.176	0.0173900
777.254	0.0175141
777.332	0.0174757
777.410	0.0173681
777.488	0.0174937
777.567	0.0174573
777.645	0.0174536
777.723	0.0175352
777.801	0.0175204
777.879	0.0173552
777.957	0.0174648
778.035	0.0176466
778.113	0.0176422
778.192	0.0174649
778.270	0.0174390
778.348	0.0174789
778.426	0.0174368
778.504	0.0174297
778.582	0.0173650
778.660	0.0173615
778.738	0.0173267
778.817	0.0174835
778.895	0.0173174
778.973	0.0173492
779.051	0.0173086
779.129	0.0173936
779.207	0.0173882
779.285	0.0174075
779.363	0.0175015
779.442	0.0174542
779.520	0.0173597
779.598	0.0174808
779.676	0.0174541
779.754	0.0174191
779.832	0.0175095
779.910	0.0175900
779.988	0.0174548
780.067	0.0175659
780.145	0.0174277
780.223	0.0174183
780.301	0.0174544
780.379	0.0176128
780.457	0.0176687
780.535	0.0174584
780.613	0.0175026
780.692	0.0177255
780.770	0.0177497
780.848	0.0176237
780.926	0.0178123
781.004	0.0176615
781.082	0.0178139
781.160	0.0178515
781.238	0.0177590
781.317	0.0178884
781.395	0.0178266
781.473	0.0178914
781.551	0.0179300
781.629	0.0178271
781.707	0.0178265
781.785	0.0178692
781.863	0.0181383
781.942	0.0179023
782.020	0.0178677
782.098	0.0178655
782.176	0.0179125
782.254	0.0180269
782.332	0.0179984
782.410	0.0179044
782.488	0.0180782
782.567	0.0178629
782.645	0.0179908
782.723	0.0179334
782.801	0.0180407
782.879	0.0181365
782.957	0.0180956
783.035	0.0181527
783.113	0.0182649
783.192	0.0182469
783.270	0.0182445
783.348	0.0180749
783.426	0.0181789
783.504	0.0181580
783.582	0.0181574
783.660	0.0181039
783.738	0.0181987
783.817	0.0182133
783.895	0.0180634
783.973	0.0179922
784.051	0.0181366
784.129	0.0179875
784.207	0.0181880
784.285	0.0181301
784.363	0.0180045
784.442	0.0181214
784.520	0.0179851
784.598	0.0179134
784.676	0.0180566
784.754	0.0179545
784.832	0.0178316
784.910	0.0179850
784.988	0.0178418
785.067	0.0177711
785.145	0.0177577
785.223	0.0175883
785.301	0.0176181
785.379	0.0175485
785.457	0.0174907
785.535	0.0175381
785.613	0.0174094
785.692	0.0174513
785.770	0.0173368
785.848	0.0172225
785.926	0.0172415
786.004	0.0172581
786.082	0.0172884
786.160	0.0173005
786.238	0.0172549
786.317	0.0172245
786.395	0.0171759
786.473	0.0171932
786.551	0.0171913
786.629	0.0172905
786.707	0.0171654
786.785	0.0171308
786.863	0.0172437
786.942	0.0171304
787.020	0.0170425
787.098	0.0171399
787.176	0.0172642
787.254	0.0171598
787.332	0.0171529
787.410	0.0171112
787.488	0.0170924
787.567	0.0171574
787.645	0.0171303
787.723	0.0172563
787.801	0.0172857
787.879	0.0173280
787.957	0.0173871
788.035	0.0173033
788.113	0.0174902
788.192	0.0175364
788.270	0.0175554
788.348	0.0174787
788.426	0.0175654
788.504	0.0175281
788.582	0.0175343
788.660	0.0175105
788.738	0.0176436
788.817	0.0177152
788.895	0.0176737
788.973	0.0175998
789.051	0.0175945
789.129	0.0177702
789.207	0.0177001
789.285	0.0177107
789.363	0.0177177
789.442	0.0176892
789.520	0.0176881
789.598	0.0176844
789.676	0.0176264
789.754	0.0178250
789.832	0.0178461
789.910	0.0178024
789.988	0.0178179
790.067	0.0178201
790.145	0.0179485
790.223	0.0179105
790.301	0.0179086
790.379	0.0179144
790.457	0.0178452
790.535	0.0180279
790.613	0.0180435
790.692	0.0179206
790.770	0.0179241
790.848	0.0179676
790.926	0.0177885
791.004	0.0177578
791.082	0.0178122
791.160	0.0177361
791.238	0.0176867
791.317	0.0178232
791.395	0.0177631
791.473	0.0176697
791.551	0.0176050
791.629	0.0176601
791.707	0.0176215
791.785	0.0177470
791.863	0.0176994
791.942	0.0177445
792.020	0.0176476
792.098	0.0178358
792.176	0.0177369
792.254	0.0179404
792.332	0.0177654
792.410	0.0177780
792.488	0.0178547
792.567	0.0179816
792.645	0.0179281
792.723	0.0178958
792.801	0.0178481
792.879	0.0178613
792.957	0.0180038
793.035	0.0179726
793.113	0.0180066
793.192	0.0179189
793.270	0.0179161
793.348	0.0179290
793.426	0.0179294
793.504	0.0178935
793.582	0.0179303
793.660	0.0178321
793.738	0.0179741
793.817	0.0179414
793.895	0.0179734
793.973	0.0180102
794.051	0.0180008
794.129	0.0180087
794.207	0.0179702
794.285	0.0180388
794.363	0.0180246
794.442	0.0180574
794.520	0.0180402
794.598	0.0179192
794.676	0.0180154
794.754	0.0179736
794.832	0.0179784
794.910	0.0179114
794.988	0.0179369
795.067	0.0178162
795.145	0.0179308
795.223	0.0177822
795.301	0.0178418
795.379	0.0177696
795.457	0.0177714
795.535	0.0177248
795.613	0.0176990
795.692	0.0177411
795.770	0.0177776
795.848	0.0178137
795.926	0.0177646
796.004	0.0176197
796.082	0.0175924
796.160	0.0177544
796.238	0.0177500
796.317	0.0178349
796.395	0.0176919
796.473	0.0177277
796.551	0.0177499
796.629	0.0177544
796.707	0.0177218
796.785	0.0176448
796.863	0.0176062
796.942	0.0177064
797.020	0.0178536
797.098	0.0175194
797.176	0.0174763
797.254	0.0173851
797.332	0.0175532
797.410	0.0175849
797.488	0.0174317
797.567	0.0172948
797.645	0.0172772
797.723	0.0174709
797.801	0.0173448
797.879	0.0172444
797.957	0.0172725
798.035	0.0171620
798.113	0.0173904
798.192	0.0174666
798.270	0.0173219
798.348	0.0172701
798.426	0.0173151
798.504	0.0170647
798.582	0.0172225
798.660	0.0173342
798.738	0.0171693
798.817	0.0172771
798.895	0.0172579
798.973	0.0172711
799.051	0.0172321
799.129	0.0173233
799.207	0.0173154
799.285	0.0174001
799.363	0.0174195
799.442	0.0175617
799.520	0.0174544
799.598	0.0174452
799.676	0.0175835
799.754	0.0174516
799.832	0.0176610
799.910	0.0176470
799.988	0.0176233
800.067	0.0176587
800.145	0.0177270
800.223	0.0177491
800.301	0.0179446
800.379	0.0177396
800.457	0.0177088
800.535	0.0178108
800.613	0.0179218
800.692	0.0177338
800.770	0.0178961
800.848	0.0178841
800.926	0.0178671
801.004	0.0179128
801.082	0.0178386
801.160	0.0179477
801.238	0.0178025
801.317	0.0179723
801.395	0.0178163
801.473	0.0178825
801.551	0.0178909
801.629	0.0178422
801.707	0.0178899
801.785	0.0177010
801.863	0.0177667
801.942	0.0178078
802.020	0.0178313
802.098	0.0177132
802.176	0.0176562
802.254	0.0176103
802.332	0.0177772
802.410	0.0177970
802.488	0.0177021
802.567	0.0176643
802.645	0.0176204
802.723	0.0176884
802.801	0.0175600
802.879	0.0176463
802.957	0.0175060
803.035	0.0174800
803.113	0.0174819
803.192	0.0175346
803.270	0.0175431
803.348	0.0175245
803.426	0.0174023
803.504	0.0175481
803.582	0.0174065
803.660	0.0174438
803.738	0.0175481
803.817	0.0175930
803.895	0.0175546
803.973	0.0175417
804.051	0.0174503
804.129	0.0174165
804.207	0.0175536
804.285	0.0174791
804.363	0.0175549
804.442	0.0174871
804.520	0.0174095
804.598	0.0172814
804.676	0.0174013
804.754	0.0175027
804.832	0.0174432
804.910	0.0175459
804.988	0.0175448
805.067	0.0174558
805.145	0.0174661
805.223	0.0177689
805.301	0.0177422
805.379	0.0177020
805.457	0.0177788
805.535	0.0177201
805.613	0.0176527
805.692	0.0177412
805.770	0.0177039
805.848	0.0179675
805.926	0.0178459
806.004	0.0177808
806.082	0.0179551
806.160	0.0178182
806.238	0.0179017
806.317	0.0180167
806.395	0.0179540
806.473	0.0176913
806.551	0.0179348
806.629	0.0178539
806.707	0.0177956
806.785	0.0177783
806.863	0.0175783
806.942	0.0176598
807.020	0.0177094
807.098	0.0175935
807.176	0.0177200
807.254	0.0176825
807.332	0.0175553
807.410	0.0175565
807.488	0.0174456
807.567	0.0175262
807.645	0.0175908
807.723	0.0175492
807.801	0.0173582
807.879	0.0175455
807.957	0.0173566
808.035	0.0174539
808.113	0.0174873
808.192	0.0173692
808.270	0.0173149
808.348	0.0174160
808.426	0.0175237
808.504	0.0173925
808.582	0.0175979
808.660	0.0173132
808.738	0.0175019
808.817	0.0173490
808.895	0.0174515
808.973	0.0174863
809.051	0.0174303
809.129	0.0175229
809.207	0.0174976
809.285	0.0175190
809.363	0.0175401
809.442	0.0176164
809.520	0.0177202
809.598	0.0175260
809.676	0.0177020
809.754	0.0176795
809.832	0.0176283
809.910	0.0176873
809.988	0.0176604
810.067	0.0177639
810.145	0.0176933
810.223	0.0177784
810.301	0.0177067
810.379	0.0175471
810.457	0.0175571
810.535	0.0176833
810.613	0.0177626
810.692	0.0179026
810.770	0.0177938
810.848	0.0177733
810.926	0.0176868
811.004	0.0176756
811.082	0.0177713
811.160	0.0177428
811.238	0.0176541
811.317	0.0176759
811.395	0.0175564
811.473	0.0177065
811.551	0.0175168
811.629	0.0176313
811.707	0.0174889
811.785	0.0174910
811.863	0.0173942
811.942	0.0174340
812.020	0.0175306
812.098	0.0174537
812.176	0.0174873
812.254	0.0173253
812.332	0.0175211
812.410	0.0173470
812.488	0.0173475
812.567	0.0174472
812.645	0.0175111
812.723	0.0176102
812.801	0.0176270
812.879	0.0175883
812.957	0.0176970
813.035	0.0177096
813.113	0.0178644
813.192	0.0178645
813.270	0.0178591
813.348	0.0180189
813.426	0.0179469
813.504	0.0178450
813.582	0.0179509
813.660	0.0180331
813.738	0.0179024
813.817	0.0179971
813.895	0.0179775
813.973	0.0178745
814.051	0.0179050
814.129	0.0180531
814.207	0.0180362
814.285	0.0179613
814.363	0.0179095
814.442	0.0179475
814.520	0.0180711
814.598	0.0180141
814.676	0.0179881
814.754	0.0180708
814.832	0.0180963
814.910	0.0180262
814.988	0.0181052
815.067	0.0180222
815.145	0.0180578
815.223	0.0180137
815.301	0.0181007
815.379	0.0180999
815.457	0.0180715
815.535	0.0179891
815.613	0.0179090
815.692	0.0178590
815.770	0.0178243
815.848	0.0179105
815.926	0.0175658
816.004	0.0176729
816.082	0.0176461
816.160	0.0175239
816.238	0.0177140
816.317	0.0175703
816.395	0.0174715
816.473	0.0175584
816.551	0.0173781
816.629	0.0173360
816.707	0.0172949
816.785	0.0172765
816.863	0.0175503
816.942	0.0173145
817.020	0.0174691
817.098	0.0174713
817.176	0.0172984
817.254	0.0173841
817.332	0.0174696
817.410	0.0174141
817.488	0.0175512
817.567	0.0174891
817.645	0.0175091
817.723	0.0175291
817.801	0.0175058
817.879	0.0175020
817.957	0.0175070
818.035	0.0174755
818.113	0.0175185
818.192	0.0177084
818.270	0.0175123
818.348	0.0174747
818.426	0.0175788
818.504	0.0176348
818.582	0.0175732
818.660	0.0176500
818.738	0.0177910
818.817	0.0175507
818.895	0.0175948
818.973	0.0176418
819.051	0.0178701
819.129	0.0177938
819.207	0.0177148
819.285	0.0177715
819.363	0.0177682
819.442	0.0178843
819.520	0.0178515
819.598	0.0177832
819.676	0.0178251
819.754	0.0178006
819.832	0.0179381
819.910	0.0177963
819.988	0.0178266
820.067	0.0178564
820.145	0.0178219
820.223	0.0178669
820.301	0.0177919
820.379	0.0178286
820.457	0.0179494
820.535	0.0177719
820.613	0.0177502
820.692	0.0177974
820.770	0.0175981
820.848	0.0177300
820.926	0.0178378
821.004	0.0177641
821.082	0.0177783
821.160	0.0177090
821.238	0.0174966
821.317	0.0176244
821.395	0.0177013
821.473	0.0176013
821.551	0.0176885
821.629	0.0176064
821.707	0.0175833
821.785	0.0175873
821.863	0.0173822
821.942	0.0173804
822.020	0.0175062
822.098	0.0175610
822.176	0.0176041
822.254	0.0174065
822.332	0.0175636
822.410	0.0174517
822.488	0.0174420
822.567	0.0175069
822.645	0.0174763
822.723	0.0173913
822.801	0.0174571
822.879	0.0174140
822.957	0.0175634
823.035	0.0174689
823.113	0.0174432
823.192	0.0175925
823.270	0.0176182
823.348	0.0173331
823.426	0.0175073
823.504	0.0175858
823.582	0.0175845
823.660	0.0175397
823.738	0.0176736
823.817	0.0176104
823.895	0.0175915
823.973	0.0176305
824.051	0.0176397
824.129	0.0175840
824.207	0.0176228
824.285	0.0175862
824.363	0.0176306
824.442	0.0177654
824.520	0.0176662
824.598	0.0176542
824.676	0.0177336
824.754	0.0176630
824.832	0.0175648
824.910	0.0176354
824.988	0.0176149
825.067	0.0175784
825.145	0.0175787
825.223	0.0177113
825.301	0.0176199
825.379	0.0175085
825.457	0.0175484
825.535	0.0174889
825.613	0.0175812
825.692	0.0174752
825.770	0.0174674
825.848	0.0176978
825.926	0.0175540
826.004	0.0173732
826.082	0.0175645
826.160	0.0174561
826.238	0.0174791
826.317	0.0175314
826.395	0.0174538
826.473	0.0176273
826.551	0.0175609
826.629	0.0174564
826.707	0.0175417
826.785	0.0176469
826.863	0.0175324
826.942	0.0176714
827.020	0.0177128
827.098	0.0177694
827.176	0.0177184
827.254	0.0176921
827.332	0.0176748
827.410	0.0177462
827.488	0.0176118
827.567	0.0177233
827.645	0.0176716
827.723	0.0177695
827.801	0.0178280
827.879	0.0177837
827.957	0.0176917
828.035	0.0177649
828.113	0.0176733
828.192	0.0175772
828.270	0.0176181
828.348	0.0177038
828.426	0.0177612
828.504	0.0177040
828.582	0.0176551
828.660	0.0176389
828.738	0.0176903
828.817	0.0177492
828.895	0.0175975
828.973	0.0175800
829.051	0.0176326
829.129	0.0176332
829.207	0.0174802
829.285	0.0173881
829.363	0.0175120
829.442	0.0174275
829.520	0.0174549
829.598	0.0173901
829.676	0.0173505
829.754	0.0173061
829.832	0.0172549
829.910	0.0171691
829.988	0.0172974
830.067	0.0172812
830.145	0.0172866
830.223	0.0173493
830.301	0.0173512
830.379	0.0172920
830.457	0.0173422
830.535	0.0173815
830.613	0.0173557
830.692	0.0174093
830.770	0.0175275
830.848	0.0175540
830.926	0.0175705
831.004	0.0174535
831.082	0.0175267
831.160	0.0175506
831.238	0.0176968
831.317	0.0176854
831.395	0.0176801
831.473	0.0177439
831.551	0.0177369
831.629	0.0177306
831.707	0.0178070
831.785	0.0178199
831.863	0.0176700
831.942	0.0177985
832.020	0.0178419
832.098	0.0178101
832.176	0.0176405
832.254	0.0177267
832.332	0.0177400
832.410	0.0175232
832.488	0.0176964
832.567	0.0176815
832.645	0.0176358
832.723	0.0176488
832.801	0.0177311
832.879	0.0177645
832.957	0.0176155
833.035	0.0176133
833.113	0.0177578
833.192	0.0176412
833.270	0.0175504
833.348	0.0175028
833.426	0.0174744
833.504	0.0174142
833.582	0.0174561
833.660	0.0173157
833.738	0.0173662
833.817	0.0173195
833.895	0.0173755
833.973	0.0173450
834.051	0.0172817
834.129	0.0171571
834.207	0.0172343
834.285	0.0172963
834.363	0.0173158
834.442	0.0172193
834.520	0.0171543
834.598	0.0172514
834.676	0.0172710
834.754	0.0173112
834.832	0.0171317
834.910	0.0172130
834.988	0.0172775
835.067	0.0172944
835.145	0.0172486
835.223	0.0174296
835.301	0.0172977
835.379	0.0172140
835.457	0.0173206
835.535	0.0173459
835.613	0.0174220
835.692	0.0173618
835.770	0.0174049
835.848	0.0174928
835.926	0.0175582
836.004	0.0175487
836.082	0.0175070
836.160	0.0174901
836.238	0.0176686
836.317	0.0175073
836.395	0.0176848
836.473	0.0177887
836.551	0.0178410
836.629	0.0178874
836.707	0.0177364
836.785	0.0178427
836.863	0.0177858
836.942	0.0177799
837.020	0.0179662
837.098	0.0178512
837.176	0.0178490
837.254	0.0179024
837.332	0.0180193
837.410	0.0180016
837.488	0.0179408
837.567	0.0177722
837.645	0.0180685
837.723	0.0179307
837.801	0.0178748
837.879	0.0179386
837.957	0.0179115
838.035	0.0179030
838.113	0.0178815
838.192	0.0178314
838.270	0.0178629
838.348	0.0179507
838.426	0.0179504
838.504	0.0178725
838.582	0.0179304
838.660	0.0179202
838.738	0.0177996
838.817	0.0178099
838.895	0.0177760
838.973	0.0178094
839.051	0.0177695
839.129	0.0177655
839.207	0.0177393
839.285	0.0177143
839.363	0.0178274
839.442	0.0177389
839.520	0.0179489
839.598	0.0178025
839.676	0.0177905
839.754	0.0178142
839.832	0.0179184
839.910	0.0178951
839.988	0.0177612
840.067	0.0176678
840.145	0.0176277
840.223	0.0177631
840.301	0.0177501
840.379	0.0176744
840.457	0.0177874
840.535	0.0176394
840.613	0.0175465
840.692	0.0177111
840.770	0.0176595
840.848	0.0175634
840.926	0.0175122
841.004	0.0174771
841.082	0.0176546
841.160	0.0175266
841.238	0.0176732
841.317	0.0175083
841.395	0.0174783
841.473	0.0174461
841.551	0.0175911
841.629	0.0176219
841.707	0.0175336
841.785	0.0174049
841.863	0.0175185
841.942	0.0175410
842.020	0.0174345
842.098	0.0173693
842.176	0.0174757
842.254	0.0174262
842.332	0.0173460
842.410	0.0171931
842.488	0.0174487
842.567	0.0172520
842.645	0.0172521
842.723	0.0172808
842.801	0.0172115
842.879	0.0171325
842.957	0.0173449
843.035	0.0172866
843.113	0.0173244
843.192	0.0172472
843.270	0.0173675
843.348	0.0172797
843.426	0.0172884
843.504	0.0172394
843.582	0.0173409
843.660	0.0174238
843.738	0.0172972
843.817	0.0174236
843.895	0.0175488
843.973	0.0173186
844.051	0.0174445
844.129	0.0175552
844.207	0.0174462
844.285	0.0176601
844.363	0.0177474
844.442	0.0176179
844.520	0.0176740
844.598	0.0177077
844.676	0.0177047
844.754	0.0175437
844.832	0.0175934
844.910	0.0176034
844.988	0.0175902
845.067	0.0176567
845.145	0.0176559
845.223	0.0174205
845.301	0.0175430
845.379	0.0174786
845.457	0.0175744
845.535	0.0174951
845.613	0.0174770
845.692	0.0174612
845.770	0.0173209
845.848	0.0174229
845.926	0.0175417
846.004	0.0174757
846.082	0.0175887
846.160	0.0176383
846.238	0.0174874
846.317	0.0175746
846.395	0.0175542
846.473	0.0174770
846.551	0.0174031
846.629	0.0175379
846.707	0.0173649
846.785	0.0172937
846.863	0.0175472
846.942	0.0174251
847.020	0.0173260
847.098	0.0172362
847.176	0.0173467
847.254	0.0170840
847.332	0.0171908
847.410	0.0172203
847.488	0.0172339
847.567	0.0171930
847.645	0.0171704
847.723	0.0171761
847.801	0.0173678
847.879	0.0171613
847.957	0.0172832
848.035	0.0172955
848.113	0.0173222
848.192	0.0172350
848.270	0.0172075
848.348	0.0172993
848.426	0.0172733
848.504	0.0172690
848.582	0.0173975
848.660	0.0172591
848.738	0.0172709
848.817	0.0174378
848.895	0.0171967
848.973	0.0173190
849.051	0.0174244
849.129	0.0174484
849.207	0.0173935
849.285	0.0175445
849.363	0.0177008
849.442	0.0174797
849.520	0.0176189
849.598	0.0176096
849.676	0.0176487
849.754	0.0176498
849.832	0.0177137
849.910	0.0177573
849.988	0.0177204
850.067	0.0177023
850.145	0.0177680
850.223	0.0177184
850.301	0.0178311
850.379	0.0177187
850.457	0.0177908
850.535	0.0177517
850.613	0.0177825
850.692	0.0177512
850.770	0.0178997
850.848	0.0178329
850.926	0.0179303
851.004	0.0178825
851.082	0.0178744
851.160	0.0178899
851.238	0.0180425
851.317	0.0178314
851.395	0.0177370
851.473	0.0177675
851.551	0.0177721
851.629	0.0177645
851.707	0.0178317
851.785	0.0178232
851.863	0.0177464
851.942	0.0177351
852.020	0.0175773
852.098	0.0176106
852.176	0.0177148
852.254	0.0176134
852.332	0.0177406
852.410	0.0174720
852.488	0.0175294
852.567	0.0174120
852.645	0.0172607
852.723	0.0173506
852.801	0.0173035
852.879	0.0173736
852.957	0.0172507
853.035	0.0172456
853.113	0.0173676
853.192	0.0172817
853.270	0.0173453
853.348	0.0171995
853.426	0.0173138
853.504	0.0173576
853.582	0.0173671
853.660	0.0172373
853.738	0.0171875
853.817	0.0172245
853.895	0.0173100
853.973	0.0173611
854.051	0.0173776
854.129	0.0173951
854.207	0.0173351
854.285	0.0173557
854.363	0.0173243
854.442	0.0173717
854.520	0.0175012
854.598	0.0174205
854.676	0.0173904
854.754	0.0173825
854.832	0.0174590
854.910	0.0175098
854.988	0.0173849
855.067	0.0174325
855.145	0.0173402
855.223	0.0175366
855.301	0.0173981
855.379	0.0172820
855.457	0.0174556
855.535	0.0174487
855.613	0.0174497
855.692	0.0173562
855.770	0.0174606
855.848	0.0173103
855.926	0.0173447
856.004	0.0174329
856.082	0.0175011
856.160	0.0173349
856.238	0.0173528
856.317	0.0173743
856.395	0.0172941
856.473	0.0173905
856.551	0.0173586
856.629	0.0173924
856.707	0.0174595
856.785	0.0174677
856.863	0.0175710
856.942	0.0174911
857.020	0.0173984
857.098	0.0174375
857.176	0.0175349
857.254	0.0175208
857.332	0.0176186
857.410	0.0175491
857.488	0.0176337
857.567	0.0175656
857.645	0.0174337
857.723	0.0177599
857.801	0.0177481
857.879	0.0176501
857.957	0.0176337
858.035	0.0178281
858.113	0.0178614
858.192	0.0178271
858.270	0.0177103
858.348	0.0178513
858.426	0.0179279
858.504	0.0180498
858.582	0.0179895
858.660	0.0180200
858.738	0.0179158
858.817	0.0180719
858.895	0.0180887
858.973	0.0180375
859.051	0.0181379
859.129	0.0180426
859.207	0.0182168
859.285	0.0181582
859.363	0.0181410
859.442	0.0182420
859.520	0.0181731
859.598	0.0181489
859.676	0.0182262
859.754	0.0181409
859.832	0.0182442
859.910	0.0183563
859.988	0.0182965
860.067	0.0182617
860.145	0.0181155
860.223	0.0182903
860.301	0.0182742
860.379	0.0182420
860.457	0.0181634
860.535	0.0183149
860.613	0.0181583
860.692	0.0181660
860.770	0.0181567
860.848	0.0179491
860.926	0.0178746
861.004	0.0180604
861.082	0.0179157
861.160	0.0178893
861.238	0.0177522
861.317	0.0178263
861.395	0.0175986
861.473	0.0177122
861.551	0.0176429
861.629	0.0174973
861.707	0.0175352
861.785	0.0175818
861.863	0.0174703
861.942	0.0173759
862.020	0.0173833
862.098	0.0173322
862.176	0.0172295
862.254	0.0172273
862.332	0.0172757
862.410	0.0170864
862.488	0.0172016
862.567	0.0172178
862.645	0.0171275
862.723	0.0171674
862.801	0.0171950
862.879	0.0170743
862.957	0.0171290
863.035	0.0169858
863.113	0.0171677
863.192	0.0170995
863.270	0.0170203
863.348	0.0170805
863.426	0.0171330
863.504	0.0169684
863.582	0.0170527
863.660	0.0171591
863.738	0.0170493
863.817	0.0169455
863.895	0.0169747
863.973	0.0170920
864.051	0.0171246
864.129	0.0171105
864.207	0.0170688
864.285	0.0171938
864.363	0.0171916
864.442	0.0170650
864.520	0.0170183
864.598	0.0171329
864.676	0.0171901
864.754	0.0171667
864.832	0.0172646
864.910	0.0171525
864.988	0.0171584
865.067	0.0172723
865.145	0.0171536
865.223	0.0174206
865.301	0.0172870
865.379	0.0174307
865.457	0.0171757
865.535	0.0173427
865.613	0.0175027
865.692	0.0174481
865.770	0.0175391
865.848	0.0175324
865.926	0.0176488
866.004	0.0176023
866.082	0.0178521
866.160	0.0176958
866.238	0.0176046
866.317	0.0177218
866.395	0.0177317
866.473	0.0177686
866.551	0.0178571
866.629	0.0179620
866.707	0.0178396
866.785	0.0178178
866.863	0.0178452
866.942	0.0178159
867.020	0.0178119
867.098	0.0179073
867.176	0.0179608
867.254	0.0179678
867.332	0.0178635
867.410	0.0180449
867.488	0.0179900
867.567	0.0180433
867.645	0.0181561
867.723	0.0182091
867.801	0.0180895
867.879	0.0179282
867.957	0.0181573
868.035	0.0181022
868.113	0.0182738
868.192	0.0181847
868.270	0.0181164
868.348	0.0181181
868.426	0.0181680
868.504	0.0181120
868.582	0.0181135
868.660	0.0181129
868.738	0.0179952
868.817	0.0180270
868.895	0.0181268
868.973	0.0179630
869.051	0.0179997
869.129	0.0180626
869.207	0.0180560
869.285	0.0179727
869.363	0.0178901
869.442	0.0177760
869.520	0.0177888
869.598	0.0179409
869.676	0.0180434
869.754	0.0179567
869.832	0.0179371
869.910	0.0179249
869.988	0.0179166
870.067	0.0181087
870.145	0.0178725
870.223	0.0178488
870.301	0.0179602
870.379	0.0179848
870.457	0.0178486
870.535	0.0178343
870.613	0.0177774
870.692	0.0177897
870.770	0.0177455
870.848	0.0178866
870.926	0.0177808
871.004	0.0178036
871.082	0.0178064
871.160	0.0177213
871.238	0.0175964
871.317	0.0176092
871.395	0.0175613
871.473	0.0176001
871.551	0.0176733
871.629	0.0178062
871.707	0.0176551
871.785	0.0175380
871.863	0.0177220
871.942	0.0176685
872.020	0.0176244
872.098	0.0175269
872.176	0.0176653
872.254	0.0174423
872.332	0.0175180
872.410	0.0175248
872.488	0.0174732
872.567	0.0174168
872.645	0.0174761
872.723	0.0174706
872.801	0.0173172
872.879	0.0173769
872.957	0.0173709
873.035	0.0173440
873.113	0.0173085
873.192	0.0173321
873.270	0.0173312
873.348	0.0172287
873.426	0.0173737
873.504	0.0173918
873.582	0.0173460
873.660	0.0173418
873.738	0.0173135
873.817	0.0174089
873.895	0.0174072
873.973	0.0175407
874.051	0.0174726
874.129	0.0174305
874.207	0.0175130
874.285	0.0175690
874.363	0.0175730
874.442	0.0175277
874.520	0.0175190
874.598	0.0174553
874.676	0.0175740
874.754	0.0174344
874.832	0.0175200
874.910	0.0174832
874.988	0.0174597
875.067	0.0174892
875.145	0.0176807
875.223	0.0176446
875.301	0.0175122
875.379	0.0176188
875.457	0.0177501
875.535	0.0176770
875.613	0.0177472
875.692	0.0177219
875.770	0.0176932
875.848	0.0177939
875.926	0.0176629
876.004	0.0177270
876.082	0.0176566
876.160	0.0177338
876.238	0.0177531
876.317	0.0175550
876.395	0.0176295
876.473	0.0175507
876.551	0.0177256
876.629	0.0176173
876.707	0.0176666
876.785	0.0177550
876.863	0.0177109
876.942	0.0176451
877.020	0.0178735
877.098	0.0177448
877.176	0.0176035
877.254	0.0176228
877.332	0.0177575
877.410	0.0177790
877.488	0.0177415
877.567	0.0176754
877.645	0.0177436
877.723	0.0176841
877.801	0.0177475
877.879	0.0178651
877.957	0.0178339
878.035	0.0178182
878.113	0.0177937
878.192	0.0178044
878.270	0.0179527
878.348	0.0178783
878.426	0.0178381
878.504	0.0179806
878.582	0.0178609
878.660	0.0178932
878.738	0.0179315
878.817	0.0178925
878.895	0.0178534
878.973	0.0178851
879.051	0.0179484
879.129	0.0177697
879.207	0.0176555
879.285	0.0179062
879.363	0.0177837
879.442	0.0177943
879.520	0.0177436
879.598	0.0176675
879.676	0.0177625
879.754	0.0177682
879.832	0.0178205
879.910	0.0178284
879.988	0.0176305
880.067	0.0176516
880.145	0.0177535
880.223	0.0176064
880.301	0.0177146
880.379	0.0176238
880.457	0.0176172
880.535	0.0176041
880.613	0.0176151
880.692	0.0175700
880.770	0.0175208
880.848	0.0175840
880.926	0.0175922
881.004	0.0175935
881.082	0.0176573
881.160	0.0176286
881.238	0.0176067
881.317	0.0176265
881.395	0.0176067
881.473	0.0175939
881.551	0.0175951
881.629	0.0175672
881.707	0.0177036
881.785	0.0176292
881.863	0.0174384
881.942	0.0175146
882.020	0.0175685
882.098	0.0175609
882.176	0.0175687
882.254	0.0175874
882.332	0.0175124
882.410	0.0177359
882.488	0.0176493
882.567	0.0175818
882.645	0.0175210
882.723	0.0175146
882.801	0.0175637
882.879	0.0174491
882.957	0.0174509
883.035	0.0175590
883.113	0.0174279
883.192	0.0175394
883.270	0.0175331
883.348	0.0175108
883.426	0.0175859
883.504	0.0176547
883.582	0.0176147
883.660	0.0175423
883.738	0.0176833
883.817	0.0176085
883.895	0.0176225
883.973	0.0176263
884.051	0.0179149
884.129	0.0178233
884.207	0.0177383
884.285	0.0177656
884.363	0.0176754
884.442	0.0176000
884.520	0.0177423
884.598	0.0178340
884.676	0.0177460
884.754	0.0177973
884.832	0.0178428
884.910	0.0178188
884.988	0.0178562
885.067	0.0178275
885.145	0.0178268
885.223	0.0178866
885.301	0.0178307
885.379	0.0178456
885.457	0.0177731
885.535	0.0177283
885.613	0.0178667
885.692	0.0179111
885.770	0.0179112
885.848	0.0178330
885.926	0.0178391
886.004	0.0177384
886.082	0.0177599
886.160	0.0178058
886.238	0.0179015
886.317	0.0178631
886.395	0.0177116
886.473	0.0177425
886.551	0.0178817
886.629	0.0177960
886.707	0.0177965
886.785	0.0178523
886.863	0.0181025
886.942	0.0179266
887.020	0.0177482
887.098	0.0178442
887.176	0.0178423
887.254	0.0179705
887.332	0.0178118
887.410	0.0179265
887.488	0.0179248
887.567	0.0178587
887.645	0.0178900
887.723	0.0178669
887.801	0.0177813
887.879	0.0177238
887.957	0.0178148
888.035	0.0178130
888.113	0.0178236
888.192	0.0176403
888.270	0.0178120
888.348	0.0179163
888.426	0.0177374
888.504	0.0177830
888.582	0.0176859
888.660	0.0176895
888.738	0.0176569
888.817	0.0177185
888.895	0.0176669
888.973	0.0178142
889.051	0.0178756
889.129	0.0178108
889.207	0.0178143
889.285	0.0177786
889.363	0.0178623
889.442	0.0177185
889.520	0.0177304
889.598	0.0178149
889.676	0.0179836
889.754	0.0179652
889.832	0.0178623
889.910	0.0178810
889.988	0.0179355
890.067	0.0179215
890.145	0.0180090
890.223	0.0180984
890.301	0.0181364
890.379	0.0181202
890.457	0.0180257
890.535	0.0181743
890.613	0.0181675
890.692	0.0179944
890.770	0.0180032
890.848	0.0181890
890.926	0.0179961
891.004	0.0180019
891.082	0.0181094
891.160	0.0181388
891.238	0.0180188
891.317	0.0180631
891.395	0.0179893
891.473	0.0180489
891.551	0.0180145
891.629	0.0180242
891.707	0.0178731
891.785	0.0179962
891.863	0.0182063
891.942	0.0180102
892.020	0.0181924
892.098	0.0182565
892.176	0.0181096
892.254	0.0181019
892.332	0.0182027
892.410	0.0181995
892.488	0.0182242
892.567	0.0181503
892.645	0.0181489
892.723	0.0181094
892.801	0.0181147
892.879	0.0180309
892.957	0.0179603
893.035	0.0180791
893.113	0.0179356
893.192	0.0177998
893.270	0.0179140
893.348	0.0177226
893.426	0.0178181
893.504	0.0177772
893.582	0.0177528
893.660	0.0176445
893.738	0.0176900
893.817	0.0177234
893.895	0.0177867
893.973	0.0177969
894.051	0.0177128
894.129	0.0175186
894.207	0.0175960
894.285	0.0175769
894.363	0.0177530
894.442	0.0177659
894.520	0.0175138
894.598	0.0177792
894.676	0.0178502
894.754	0.0177228
894.832	0.0176225
894.910	0.0175439
894.988	0.0176137
895.067	0.0175643
895.145	0.0176677
895.223	0.0176685
895.301	0.0175809
895.379	0.0176004
895.457	0.0176931
895.535	0.0176653
895.613	0.0175135
895.692	0.0175726
895.770	0.0175783
895.848	0.0175500
895.926	0.0174895
896.004	0.0175514
896.082	0.0175193
896.160	0.0173037
896.238	0.0173250
896.317	0.0175335
896.395	0.0174454
896.473	0.0175827
896.551	0.0175932
896.629	0.0174855
896.707	0.0176232
896.785	0.0175027
896.863	0.0175822
896.942	0.0175818
897.020	0.0176413
897.098	0.0176815
897.176	0.0177200
897.254	0.0176413
897.332	0.0175887
897.410	0.0175891
897.488	0.0177516
897.567	0.0176755
897.645	0.0177163
897.723	0.0178069
897.801	0.0177001
897.879	0.0177193
897.957	0.0177689
898.035	0.0176419
898.113	0.0177621
898.192	0.0176572
898.270	0.0176970
898.348	0.0177050
898.426	0.0178053
898.504	0.0176920
898.582	0.0178485
898.660	0.0177564
898.738	0.0177241
898.817	0.0176620
898.895	0.0178707
898.973	0.0178384
899.051	0.0178951
899.129	0.0177860
899.207	0.0178168
899.285	0.0176534
899.363	0.0177386
899.442	0.0178053
899.520	0.0180728
899.598	0.0179176
899.676	0.0178796
899.754	0.0179723
899.832	0.0178700
899.910	0.0177625
899.988	0.0179956
900.067	0.0179211
900.145	0.0178371
900.223	0.0179309
900.301	0.0179225
900.379	0.0178107
900.457	0.0177473
900.535	0.0177065
900.613	0.0177827
900.692	0.0177341
900.770	0.0177329
900.848	0.0176489
900.926	0.0176530
901.004	0.0174914
901.082	0.0175828
901.160	0.0174895
901.238	0.0173276
901.317	0.0173987
901.395	0.0173612
901.473	0.0173068
901.551	0.0172681
901.629	0.0170828
901.707	0.0171329
901.785	0.0172810
901.863	0.0170551
901.942	0.0170535
902.020	0.0169020
902.098	0.0168435
902.176	0.0167962
902.254	0.0168482
902.332	0.0167517
902.410	0.0168089
902.488	0.0167474
902.567	0.0167966
902.645	0.0168889
902.723	0.0167795
902.801	0.0167485
902.879	0.0168117
902.957	0.0168076
903.035	0.0168479
903.113	0.0170132
903.192	0.0170433
903.270	0.0169257
903.348	0.0169328
903.426	0.0169400
903.504	0.0170709
903.582	0.0169499
903.660	0.0170829
903.738	0.0171320
903.817	0.0171720
903.895	0.0172227
903.973	0.0172664
904.051	0.0173889
904.129	0.0174596
904.207	0.0172833
904.285	0.0173878
904.363	0.0174716
904.442	0.0174734
904.520	0.0175021
904.598	0.0174832
904.676	0.0173080
904.754	0.0175079
904.832	0.0176318
904.910	0.0174304
904.988	0.0175322
905.067	0.0176530
905.145	0.0176986
905.223	0.0175274
905.301	0.0177749
905.379	0.0178265
905.457	0.0177167
905.535	0.0177547
905.613	0.0178603
905.692	0.0175945
905.770	0.0177158
905.848	0.0179258
905.926	0.0177589
906.004	0.0178345
906.082	0.0178465
906.160	0.0177845
906.238	0.0177615
906.317	0.0177899
906.395	0.0178352
906.473	0.0179409
906.551	0.0179424
906.629	0.0177356
906.707	0.0177930
906.785	0.0177614
906.863	0.0178048
906.942	0.0178745
907.020	0.0178610
907.098	0.0178727
907.176	0.0178269
907.254	0.0178411
907.332	0.0178430
907.410	0.0180746
907.488	0.0180635
907.567	0.0179367
907.645	0.0182011
907.723	0.0182868
907.801	0.0182711
907.879	0.0183118
907.957	0.0183010
908.035	0.0183250
908.113	0.0183418
908.192	0.0181078
908.270	0.0183092
908.348	0.0183038
908.426	0.0182349
908.504	0.0182148
908.582	0.0180471
908.660	0.0181590
908.738	0.0181390
908.817	0.0182283
908.895	0.0179819
908.973	0.0178874
909.051	0.0181267
909.129	0.0178271
909.207	0.0178862
909.285	0.0178589
909.363	0.0179115
909.442	0.0178609
909.520	0.0178320
909.598	0.0177201
909.676	0.0177304
909.754	0.0175717
909.832	0.0176804
909.910	0.0177629
909.988	0.0175943
910.067	0.0175348
910.145	0.0175485
910.223	0.0174290
910.301	0.0176368
910.379	0.0175309
910.457	0.0176148
910.535	0.0174423
910.613	0.0173993
910.692	0.0175697
910.770	0.0175716
910.848	0.0174892
910.926	0.0174896
911.004	0.0175128
911.082	0.0176627
911.160	0.0175986
911.238	0.0177229
911.317	0.0175745
911.395	0.0174798
911.473	0.0176579
911.551	0.0175450
911.629	0.0176641
911.707	0.0175664
911.785	0.0175314
911.863	0.0176945
911.942	0.0177430
912.020	0.0175356
912.098	0.0176340
912.176	0.0176698
912.254	0.0176585
912.332	0.0177262
912.410	0.0176209
912.488	0.0177895
912.567	0.0177396
912.645	0.0176298
912.723	0.0175626
912.801	0.0176945
912.879	0.0175976
912.957	0.0174612
913.035	0.0175800
913.113	0.0176586
913.192	0.0174744
913.270	0.0175004
913.348	0.0176593
913.426	0.0174619
913.504	0.0175220
913.582	0.0174202
913.660	0.0173565
913.738	0.0174931
913.817	0.0173581
913.895	0.0172610
913.973	0.0175322
914.051	0.0171928
914.129	0.0171516
914.207	0.0171870
914.285	0.0172747
914.363	0.0172861
914.442	0.0172338
914.520	0.0172212
914.598	0.0171474
914.676	0.0172358
914.754	0.0172678
914.832	0.0173077
914.910	0.0172945
914.988	0.0172224
915.067	0.0172853
915.145	0.0173607
915.223	0.0171812
915.301	0.0173397
915.379	0.0174128
915.457	0.0173026
915.535	0.0173692
915.613	0.0172886
915.692	0.0172612
915.770	0.0174467
915.848	0.0174684
915.926	0.0173913
916.004	0.0175226
916.082	0.0174995
916.160	0.0175491
916.238	0.0174727
916.317	0.0175269
916.395	0.0174450
916.473	0.0176637
916.551	0.0175774
916.629	0.0175911
916.707	0.0175360
916.785	0.0176298
916.863	0.0176107
916.942	0.0176167
917.020	0.0177449
917.098	0.0177231
917.176	0.0176460
917.254	0.0176084
917.332	0.0177818
917.410	0.0178442
917.488	0.0178149
917.567	0.0178206
917.645	0.0178941
917.723	0.0178255
917.801	0.0180586
917.879	0.0178680
917.957	0.0181306
918.035	0.0178632
918.113	0.0178942
918.192	0.0178422
918.270	0.0178091
918.348	0.0179316
918.426	0.0180112
918.504	0.0179356
918.582	0.0179832
918.660	0.0180398
918.738	0.0179768
918.817	0.0182527
918.895	0.0181410
918.973	0.0180952
919.051	0.0182757
919.129	0.0181814
919.207	0.0181601
919.285	0.0182520
919.363	0.0182533
919.442	0.0183405
919.520	0.0182801
919.598	0.0180766
919.676	0.0181741
919.754	0.0181306
919.832	0.0180640
919.910	0.0180244
