06/01/2022	22:19:59	Ver.	4.1	UNKNOWN
Optical Delay	599.988409	Delta X		0.078125	Sweeps	1	Scan Rate	0/0
Coordinates	Axis 1	NaN	Axis 2	NaN	Axis 3	NaN	Axis 4	NaN	Axis 5	NaN	Axis 6	0.000000
TX Power	0.000000	RX Power	0.000000

599.988	0.0177811
600.067	0.0176339
600.145	0.0175373
600.223	0.0175524
600.301	0.0175311
600.379	0.0174776
600.457	0.0174069
600.535	0.0174590
600.613	0.0173985
600.692	0.0174544
600.770	0.0173405
600.848	0.0173687
600.926	0.0173077
601.004	0.0173871
601.082	0.0173755
601.160	0.0174068
601.238	0.0176249
601.317	0.0175305
601.395	0.0174934
601.473	0.0176260
601.551	0.0176188
601.629	0.0176608
601.707	0.0177158
601.785	0.0176443
601.863	0.0177345
601.942	0.0177979
602.020	0.0176550
602.098	0.0178295
602.176	0.0176872
602.254	0.0176726
602.332	0.0177750
602.410	0.0177148
602.488	0.0176050
602.567	0.0176189
602.645	0.0176646
602.723	0.0176524
602.801	0.0177333
602.879	0.0176816
602.957	0.0175376
603.035	0.0177468
603.113	0.0176750
603.192	0.0175493
603.270	0.0176968
603.348	0.0178302
603.426	0.0178634
603.504	0.0176669
603.582	0.0178517
603.660	0.0178790
603.738	0.0178324
603.817	0.0179590
603.895	0.0179624
603.973	0.0179594
604.051	0.0180119
604.129	0.0180556
604.207	0.0180463
604.285	0.0180340
604.363	0.0180619
604.442	0.0180226
604.520	0.0179793
604.598	0.0180556
604.676	0.0178850
604.754	0.0179182
604.832	0.0178094
604.910	0.0178294
604.988	0.0179001
605.067	0.0177951
605.145	0.0179028
605.223	0.0180460
605.301	0.0179487
605.379	0.0180140
605.457	0.0179701
605.535	0.0179775
605.613	0.0179982
605.692	0.0180936
605.770	0.0181863
605.848	0.0180903
605.926	0.0180947
606.004	0.0179778
606.082	0.0180074
606.160	0.0181301
606.238	0.0182236
606.317	0.0182417
606.395	0.0181803
606.473	0.0181705
606.551	0.0180363
606.629	0.0180453
606.707	0.0180310
606.785	0.0181834
606.863	0.0181339
606.942	0.0180753
607.020	0.0181095
607.098	0.0180810
607.176	0.0179144
607.254	0.0181265
607.332	0.0181384
607.410	0.0180907
607.488	0.0180575
607.567	0.0179347
607.645	0.0180326
607.723	0.0180452
607.801	0.0178248
607.879	0.0179062
607.957	0.0180976
608.035	0.0179954
608.113	0.0179139
608.192	0.0178748
608.270	0.0178757
608.348	0.0180143
608.426	0.0179665
608.504	0.0178761
608.582	0.0179510
608.660	0.0181653
608.738	0.0179322
608.817	0.0178614
608.895	0.0179063
608.973	0.0178515
609.051	0.0177708
609.129	0.0177771
609.207	0.0177309
609.285	0.0177942
609.363	0.0178075
609.442	0.0178716
609.520	0.0176525
609.598	0.0176228
609.676	0.0176913
609.754	0.0176427
609.832	0.0178939
609.910	0.0177182
609.988	0.0176361
610.067	0.0178315
610.145	0.0177924
610.223	0.0177776
610.301	0.0177400
610.379	0.0179141
610.457	0.0179482
610.535	0.0179038
610.613	0.0180711
610.692	0.0179508
610.770	0.0181221
610.848	0.0181435
610.926	0.0180865
611.004	0.0180344
611.082	0.0180198
611.160	0.0179789
611.238	0.0180293
611.317	0.0179750
611.395	0.0179099
611.473	0.0180911
611.551	0.0181185
611.629	0.0179910
611.707	0.0181383
611.785	0.0180186
611.863	0.0179539
611.942	0.0180409
612.020	0.0181134
612.098	0.0179040
612.176	0.0180028
612.254	0.0180921
612.332	0.0180115
612.410	0.0180461
612.488	0.0180403
612.567	0.0181153
612.645	0.0180595
612.723	0.0180579
612.801	0.0180524
612.879	0.0181651
612.957	0.0183000
613.035	0.0181340
613.113	0.0182023
613.192	0.0182324
613.270	0.0182291
613.348	0.0182192
613.426	0.0183636
613.504	0.0183476
613.582	0.0182288
613.660	0.0181667
613.738	0.0181601
613.817	0.0180965
613.895	0.0180719
613.973	0.0178333
614.051	0.0178783
614.129	0.0178256
614.207	0.0176315
614.285	0.0176608
614.363	0.0176596
614.442	0.0173718
614.520	0.0175809
614.598	0.0173724
614.676	0.0173807
614.754	0.0175237
614.832	0.0174496
614.910	0.0174060
614.988	0.0173133
615.067	0.0174517
615.145	0.0175145
615.223	0.0176649
615.301	0.0174283
615.379	0.0174991
615.457	0.0177625
615.535	0.0177472
615.613	0.0178209
615.692	0.0176543
615.770	0.0177254
615.848	0.0178416
615.926	0.0178880
616.004	0.0179052
616.082	0.0178719
616.160	0.0179257
616.238	0.0179295
616.317	0.0181390
616.395	0.0179456
616.473	0.0181141
616.551	0.0182545
616.629	0.0181696
616.707	0.0181242
616.785	0.0179763
616.863	0.0181519
616.942	0.0182317
617.020	0.0178922
617.098	0.0179243
617.176	0.0179319
617.254	0.0179517
617.332	0.0180004
617.410	0.0178571
617.488	0.0177033
617.567	0.0176745
617.645	0.0178797
617.723	0.0177505
617.801	0.0178410
617.879	0.0176289
617.957	0.0176275
618.035	0.0177635
618.113	0.0176832
618.192	0.0176917
618.270	0.0176006
618.348	0.0175082
618.426	0.0176391
618.504	0.0175723
618.582	0.0175577
618.660	0.0176145
618.738	0.0176492
618.817	0.0173956
618.895	0.0174387
618.973	0.0176041
619.051	0.0176062
619.129	0.0176801
619.207	0.0175308
619.285	0.0175467
619.363	0.0175355
619.442	0.0177198
619.520	0.0176675
619.598	0.0176395
619.676	0.0176356
619.754	0.0176156
619.832	0.0177617
619.910	0.0178314
619.988	0.0178979
620.067	0.0179404
620.145	0.0180666
620.223	0.0182158
620.301	0.0181843
620.379	0.0182155
620.457	0.0181656
620.535	0.0182252
620.613	0.0183257
620.692	0.0183007
620.770	0.0183324
620.848	0.0182821
620.926	0.0183562
621.004	0.0182930
621.082	0.0183271
621.160	0.0183490
621.238	0.0184113
621.317	0.0184305
621.395	0.0184830
621.473	0.0183012
621.551	0.0184892
621.629	0.0183150
621.707	0.0182376
621.785	0.0183389
621.863	0.0182674
621.942	0.0182864
622.020	0.0182926
622.098	0.0182406
622.176	0.0182072
622.254	0.0182239
622.332	0.0179749
622.410	0.0178958
622.488	0.0178513
622.567	0.0179082
622.645	0.0177065
622.723	0.0177882
622.801	0.0177888
622.879	0.0177265
622.957	0.0177352
623.035	0.0178403
623.113	0.0178817
623.192	0.0177726
623.270	0.0178638
623.348	0.0177428
623.426	0.0178583
623.504	0.0178062
623.582	0.0179375
623.660	0.0179896
623.738	0.0180681
623.817	0.0180369
623.895	0.0180469
623.973	0.0180240
624.051	0.0180877
624.129	0.0182195
624.207	0.0181886
624.285	0.0182300
624.363	0.0182377
624.442	0.0182375
624.520	0.0182545
624.598	0.0182812
624.676	0.0181457
624.754	0.0182601
624.832	0.0181148
624.910	0.0179916
624.988	0.0179322
625.067	0.0179977
625.145	0.0179105
625.223	0.0179736
625.301	0.0179128
625.379	0.0179698
625.457	0.0178342
625.535	0.0178355
625.613	0.0179359
625.692	0.0177161
625.770	0.0178504
625.848	0.0179240
625.926	0.0178587
626.004	0.0178347
626.082	0.0178712
626.160	0.0178053
626.238	0.0179176
626.317	0.0178297
626.395	0.0178133
626.473	0.0177557
626.551	0.0175933
626.629	0.0176976
626.707	0.0177756
626.785	0.0177162
626.863	0.0177152
626.942	0.0178456
627.020	0.0178187
627.098	0.0177683
627.176	0.0176881
627.254	0.0177936
627.332	0.0177944
627.410	0.0177609
627.488	0.0179128
627.567	0.0178725
627.645	0.0178536
627.723	0.0176918
627.801	0.0179150
627.879	0.0180458
627.957	0.0178841
628.035	0.0177881
628.113	0.0178252
628.192	0.0179423
628.270	0.0176501
628.348	0.0177253
628.426	0.0177898
628.504	0.0179099
628.582	0.0177870
628.660	0.0178385
628.738	0.0178465
628.817	0.0179644
628.895	0.0178628
628.973	0.0179060
629.051	0.0178780
629.129	0.0179266
629.207	0.0178327
629.285	0.0177489
629.363	0.0178535
629.442	0.0177834
629.520	0.0179148
629.598	0.0179790
629.676	0.0179729
629.754	0.0179294
629.832	0.0179225
629.910	0.0179431
629.988	0.0178988
630.067	0.0179666
630.145	0.0178894
630.223	0.0179926
630.301	0.0180502
630.379	0.0179171
630.457	0.0179457
630.535	0.0179571
630.613	0.0179996
630.692	0.0178961
630.770	0.0179107
630.848	0.0178798
630.926	0.0178539
631.004	0.0178300
631.082	0.0177938
631.160	0.0177590
631.238	0.0176529
631.317	0.0176611
631.395	0.0176187
631.473	0.0176713
631.551	0.0175979
631.629	0.0176354
631.707	0.0176994
631.785	0.0178516
631.863	0.0177546
631.942	0.0177019
632.020	0.0177733
632.098	0.0176649
632.176	0.0178399
632.254	0.0177443
632.332	0.0177843
632.410	0.0178468
632.488	0.0178366
632.567	0.0178987
632.645	0.0178880
632.723	0.0175970
632.801	0.0177961
632.879	0.0177591
632.957	0.0175880
633.035	0.0177406
633.113	0.0177064
633.192	0.0177361
633.270	0.0177624
633.348	0.0179207
633.426	0.0178635
633.504	0.0178239
633.582	0.0179154
633.660	0.0178724
633.738	0.0178152
633.817	0.0179379
633.895	0.0178726
633.973	0.0178139
634.051	0.0179296
634.129	0.0180101
634.207	0.0179339
634.285	0.0178251
634.363	0.0179270
634.442	0.0179387
634.520	0.0178477
634.598	0.0178481
634.676	0.0177528
634.754	0.0177724
634.832	0.0177856
634.910	0.0177615
634.988	0.0177160
635.067	0.0176590
635.145	0.0176552
635.223	0.0176871
635.301	0.0176152
635.379	0.0176775
635.457	0.0175666
635.535	0.0176485
635.613	0.0176601
635.692	0.0178555
635.770	0.0177272
635.848	0.0177542
635.926	0.0176935
636.004	0.0176794
636.082	0.0176884
636.160	0.0177494
636.238	0.0178461
636.317	0.0177969
636.395	0.0177456
636.473	0.0179634
636.551	0.0179480
636.629	0.0180030
636.707	0.0180136
636.785	0.0179671
636.863	0.0179714
636.942	0.0180381
637.020	0.0180605
637.098	0.0179956
637.176	0.0182121
637.254	0.0181231
637.332	0.0181174
637.410	0.0181910
637.488	0.0181310
637.567	0.0180588
637.645	0.0180662
637.723	0.0182962
637.801	0.0181981
637.879	0.0182348
637.957	0.0180469
638.035	0.0181160
638.113	0.0180136
638.192	0.0180020
638.270	0.0181255
638.348	0.0180474
638.426	0.0181538
638.504	0.0179993
638.582	0.0180685
638.660	0.0181724
638.738	0.0182375
638.817	0.0180626
638.895	0.0180741
638.973	0.0182482
639.051	0.0182340
639.129	0.0181530
639.207	0.0181618
639.285	0.0181142
639.363	0.0180758
639.442	0.0180585
639.520	0.0179687
639.598	0.0179605
639.676	0.0178812
639.754	0.0179998
639.832	0.0179463
639.910	0.0177902
639.988	0.0177829
640.067	0.0178483
640.145	0.0177549
640.223	0.0178032
640.301	0.0178610
640.379	0.0177929
640.457	0.0176960
640.535	0.0177671
640.613	0.0177818
640.692	0.0178384
640.770	0.0177501
640.848	0.0177841
640.926	0.0175626
641.004	0.0176466
641.082	0.0178826
641.160	0.0179119
641.238	0.0177113
641.317	0.0178587
641.395	0.0179419
641.473	0.0177571
641.551	0.0178228
641.629	0.0178951
641.707	0.0178090
641.785	0.0178779
641.863	0.0177105
641.942	0.0177042
642.020	0.0178150
642.098	0.0178207
642.176	0.0176996
642.254	0.0175921
642.332	0.0176753
642.410	0.0177460
642.488	0.0176630
642.567	0.0174844
642.645	0.0176157
642.723	0.0175337
642.801	0.0176559
642.879	0.0177058
642.957	0.0175898
643.035	0.0176646
643.113	0.0176389
643.192	0.0177277
643.270	0.0178229
643.348	0.0175117
643.426	0.0176386
643.504	0.0176120
643.582	0.0174739
643.660	0.0175635
643.738	0.0174082
643.817	0.0175497
643.895	0.0174136
643.973	0.0172614
644.051	0.0173956
644.129	0.0172345
644.207	0.0173240
644.285	0.0172282
644.363	0.0171992
644.442	0.0171857
644.520	0.0170315
644.598	0.0171529
644.676	0.0171862
644.754	0.0170573
644.832	0.0171075
644.910	0.0171152
644.988	0.0171451
645.067	0.0172177
645.145	0.0171101
645.223	0.0170927
645.301	0.0172176
645.379	0.0173232
645.457	0.0174563
645.535	0.0174858
645.613	0.0175236
645.692	0.0173311
645.770	0.0174241
645.848	0.0175175
645.926	0.0176895
646.004	0.0176660
646.082	0.0177254
646.160	0.0177987
646.238	0.0179159
646.317	0.0178673
646.395	0.0179646
646.473	0.0177764
646.551	0.0177979
646.629	0.0177216
646.707	0.0180117
646.785	0.0178830
646.863	0.0176921
646.942	0.0179359
647.020	0.0178732
647.098	0.0176894
647.176	0.0176908
647.254	0.0178592
647.332	0.0179443
647.410	0.0178021
647.488	0.0178781
647.567	0.0179204
647.645	0.0178495
647.723	0.0178717
647.801	0.0178479
647.879	0.0179321
647.957	0.0178908
648.035	0.0180376
648.113	0.0179995
648.192	0.0181537
648.270	0.0181432
648.348	0.0180398
648.426	0.0180615
648.504	0.0181247
648.582	0.0181873
648.660	0.0183434
648.738	0.0184823
648.817	0.0183619
648.895	0.0181350
648.973	0.0184039
649.051	0.0184656
649.129	0.0183620
649.207	0.0182947
649.285	0.0181757
649.363	0.0184026
649.442	0.0184489
649.520	0.0182965
649.598	0.0182018
649.676	0.0183150
649.754	0.0181618
649.832	0.0180810
649.910	0.0182631
649.988	0.0181866
650.067	0.0183077
650.145	0.0182759
650.223	0.0181907
650.301	0.0182940
650.379	0.0182730
650.457	0.0182912
650.535	0.0183544
650.613	0.0183077
650.692	0.0181824
650.770	0.0182577
650.848	0.0183511
650.926	0.0181421
651.004	0.0182618
651.082	0.0181522
651.160	0.0181885
651.238	0.0182107
651.317	0.0182223
651.395	0.0180660
651.473	0.0180290
651.551	0.0180425
651.629	0.0180252
651.707	0.0178251
651.785	0.0178614
651.863	0.0179016
651.942	0.0179126
652.020	0.0177811
652.098	0.0178671
652.176	0.0178741
652.254	0.0177624
652.332	0.0178484
652.410	0.0177611
652.488	0.0177686
652.567	0.0176798
652.645	0.0177716
652.723	0.0176333
652.801	0.0177029
652.879	0.0176938
652.957	0.0176614
653.035	0.0177058
653.113	0.0175514
653.192	0.0175691
653.270	0.0175548
653.348	0.0173850
653.426	0.0173778
653.504	0.0175400
653.582	0.0174335
653.660	0.0173577
653.738	0.0172624
653.817	0.0172504
653.895	0.0173764
653.973	0.0172790
654.051	0.0172304
654.129	0.0173120
654.207	0.0172182
654.285	0.0172721
654.363	0.0172319
654.442	0.0171918
654.520	0.0172996
654.598	0.0171243
654.676	0.0172528
654.754	0.0173576
654.832	0.0171904
654.910	0.0171603
654.988	0.0171199
655.067	0.0172819
655.145	0.0172740
655.223	0.0172652
655.301	0.0172497
655.379	0.0173293
655.457	0.0171632
655.535	0.0171574
655.613	0.0172471
655.692	0.0172724
655.770	0.0173502
655.848	0.0174193
655.926	0.0174596
656.004	0.0173924
656.082	0.0175434
656.160	0.0175001
656.238	0.0175383
656.317	0.0176746
656.395	0.0177135
656.473	0.0177143
656.551	0.0178046
656.629	0.0178066
656.707	0.0178522
656.785	0.0178128
656.863	0.0179342
656.942	0.0180312
657.020	0.0178955
657.098	0.0179279
657.176	0.0178546
657.254	0.0179220
657.332	0.0180376
657.410	0.0181838
657.488	0.0179992
657.567	0.0178293
657.645	0.0179448
657.723	0.0180712
657.801	0.0180770
657.879	0.0178683
657.957	0.0181261
658.035	0.0180588
658.113	0.0179462
658.192	0.0181221
658.270	0.0181027
658.348	0.0181497
658.426	0.0181648
658.504	0.0180820
658.582	0.0181033
658.660	0.0180357
658.738	0.0180994
658.817	0.0180281
658.895	0.0180611
658.973	0.0181339
659.051	0.0180280
659.129	0.0180246
659.207	0.0179889
659.285	0.0179430
659.363	0.0179133
659.442	0.0178473
659.520	0.0178622
659.598	0.0179021
659.676	0.0177510
659.754	0.0178172
659.832	0.0176817
659.910	0.0176853
659.988	0.0177554
660.067	0.0177507
660.145	0.0177879
660.223	0.0176247
660.301	0.0176265
660.379	0.0175141
660.457	0.0174533
660.535	0.0175882
660.613	0.0175343
660.692	0.0174872
660.770	0.0174672
660.848	0.0173959
660.926	0.0173808
661.004	0.0174229
661.082	0.0173248
661.160	0.0173871
661.238	0.0173594
661.317	0.0174230
661.395	0.0174395
661.473	0.0174315
661.551	0.0174410
661.629	0.0176295
661.707	0.0175309
661.785	0.0176264
661.863	0.0177467
661.942	0.0175837
662.020	0.0176756
662.098	0.0178908
662.176	0.0175907
662.254	0.0176690
662.332	0.0177683
662.410	0.0178897
662.488	0.0177254
662.567	0.0174964
662.645	0.0176697
662.723	0.0177209
662.801	0.0176199
662.879	0.0176098
662.957	0.0174420
663.035	0.0175289
663.113	0.0178001
663.192	0.0176579
663.270	0.0176115
663.348	0.0176067
663.426	0.0177224
663.504	0.0176593
663.582	0.0178112
663.660	0.0178699
663.738	0.0178446
663.817	0.0178735
663.895	0.0179860
663.973	0.0179478
664.051	0.0178493
664.129	0.0178574
664.207	0.0177278
664.285	0.0177153
664.363	0.0175643
664.442	0.0174892
664.520	0.0175775
664.598	0.0175065
664.676	0.0174477
664.754	0.0174528
664.832	0.0174426
664.910	0.0175053
664.988	0.0176618
665.067	0.0176280
665.145	0.0177364
665.223	0.0177374
665.301	0.0177151
665.379	0.0177070
665.457	0.0176228
665.535	0.0178462
665.613	0.0178744
665.692	0.0177611
665.770	0.0177882
665.848	0.0178238
665.926	0.0177628
666.004	0.0176705
666.082	0.0176504
666.160	0.0177923
666.238	0.0178325
666.317	0.0174656
666.395	0.0175792
666.473	0.0174748
666.551	0.0175290
666.629	0.0175217
666.707	0.0174883
666.785	0.0176025
666.863	0.0175470
666.942	0.0173939
667.020	0.0175460
667.098	0.0174856
667.176	0.0175099
667.254	0.0175359
667.332	0.0176672
667.410	0.0175216
667.488	0.0175242
667.567	0.0177179
667.645	0.0177205
667.723	0.0175825
667.801	0.0174174
667.879	0.0176658
667.957	0.0177219
668.035	0.0177645
668.113	0.0176780
668.192	0.0177297
668.270	0.0176922
668.348	0.0177859
668.426	0.0177309
668.504	0.0178305
668.582	0.0178203
668.660	0.0176505
668.738	0.0179042
668.817	0.0179955
668.895	0.0179840
668.973	0.0177383
669.051	0.0178893
669.129	0.0177973
669.207	0.0178693
669.285	0.0177439
669.363	0.0178049
669.442	0.0178202
669.520	0.0177328
669.598	0.0177098
669.676	0.0178424
669.754	0.0177123
669.832	0.0176749
669.910	0.0176661
669.988	0.0177644
670.067	0.0177917
670.145	0.0176605
670.223	0.0176328
670.301	0.0177494
670.379	0.0175708
670.457	0.0175383
670.535	0.0175101
670.613	0.0175975
670.692	0.0175414
670.770	0.0174532
670.848	0.0175121
670.926	0.0176054
671.004	0.0174281
671.082	0.0173607
671.160	0.0174400
671.238	0.0174424
671.317	0.0174481
671.395	0.0173914
671.473	0.0173456
671.551	0.0175112
671.629	0.0175234
671.707	0.0174650
671.785	0.0175807
671.863	0.0175990
671.942	0.0175716
672.020	0.0174278
672.098	0.0175657
672.176	0.0175538
672.254	0.0177848
672.332	0.0176485
672.410	0.0174895
672.488	0.0175549
672.567	0.0175946
672.645	0.0176834
672.723	0.0177942
672.801	0.0176264
672.879	0.0176931
672.957	0.0176502
673.035	0.0176009
673.113	0.0177274
673.192	0.0176521
673.270	0.0176281
673.348	0.0177033
673.426	0.0178891
673.504	0.0177180
673.582	0.0178717
673.660	0.0178919
673.738	0.0178076
673.817	0.0179115
673.895	0.0178440
673.973	0.0179617
674.051	0.0178384
674.129	0.0178325
674.207	0.0180253
674.285	0.0180239
674.363	0.0180713
674.442	0.0179222
674.520	0.0181102
674.598	0.0181002
674.676	0.0180628
674.754	0.0181642
674.832	0.0181266
674.910	0.0180718
674.988	0.0181216
675.067	0.0182419
675.145	0.0181019
675.223	0.0181498
675.301	0.0180737
675.379	0.0180790
675.457	0.0181312
675.535	0.0180991
675.613	0.0180685
675.692	0.0179243
675.770	0.0180199
675.848	0.0179197
675.926	0.0179928
676.004	0.0180740
676.082	0.0181034
676.160	0.0179978
676.238	0.0181243
676.317	0.0180572
676.395	0.0179405
676.473	0.0180413
676.551	0.0180693
676.629	0.0180566
676.707	0.0179992
676.785	0.0180692
676.863	0.0179554
676.942	0.0180788
677.020	0.0181015
677.098	0.0180747
677.176	0.0181586
677.254	0.0179066
677.332	0.0177792
677.410	0.0178028
677.488	0.0178429
677.567	0.0178574
677.645	0.0179025
677.723	0.0178883
677.801	0.0177551
677.879	0.0176985
677.957	0.0175777
678.035	0.0175523
678.113	0.0175044
678.192	0.0175764
678.270	0.0175544
678.348	0.0175311
678.426	0.0175625
678.504	0.0176453
678.582	0.0176098
678.660	0.0175935
678.738	0.0177110
678.817	0.0177257
678.895	0.0179044
678.973	0.0178434
679.051	0.0177554
679.129	0.0178352
679.207	0.0179012
679.285	0.0180379
679.363	0.0178529
679.442	0.0179554
679.520	0.0179547
679.598	0.0179162
679.676	0.0179704
679.754	0.0178758
679.832	0.0178553
679.910	0.0180006
679.988	0.0178422
680.067	0.0177197
680.145	0.0177805
680.223	0.0178325
680.301	0.0178241
680.379	0.0176736
680.457	0.0177705
680.535	0.0177721
680.613	0.0176947
680.692	0.0174210
680.770	0.0177776
680.848	0.0175158
680.926	0.0175256
681.004	0.0175632
681.082	0.0176460
681.160	0.0177161
681.238	0.0177298
681.317	0.0177164
681.395	0.0176717
681.473	0.0176686
681.551	0.0176675
681.629	0.0177662
681.707	0.0178724
681.785	0.0177246
681.863	0.0177127
681.942	0.0177765
682.020	0.0180148
682.098	0.0178913
682.176	0.0178307
682.254	0.0179021
682.332	0.0179304
682.410	0.0179176
682.488	0.0178700
682.567	0.0178877
682.645	0.0178979
682.723	0.0178459
682.801	0.0178464
682.879	0.0178025
682.957	0.0176190
683.035	0.0179195
683.113	0.0178880
683.192	0.0180128
683.270	0.0178242
683.348	0.0178637
683.426	0.0180126
683.504	0.0178895
683.582	0.0178819
683.660	0.0179347
683.738	0.0178597
683.817	0.0179166
683.895	0.0178870
683.973	0.0179404
684.051	0.0179365
684.129	0.0178413
684.207	0.0177985
684.285	0.0177040
684.363	0.0177415
684.442	0.0178276
684.520	0.0178514
684.598	0.0177329
684.676	0.0175943
684.754	0.0177698
684.832	0.0177454
684.910	0.0176714
684.988	0.0176605
685.067	0.0177091
685.145	0.0175768
685.223	0.0175035
685.301	0.0175446
685.379	0.0175341
685.457	0.0175529
685.535	0.0173641
685.613	0.0175407
685.692	0.0175338
685.770	0.0175675
685.848	0.0175226
685.926	0.0175987
686.004	0.0176797
686.082	0.0176246
686.160	0.0175445
686.238	0.0176306
686.317	0.0176995
686.395	0.0175801
686.473	0.0177331
686.551	0.0177062
686.629	0.0177012
686.707	0.0176962
686.785	0.0177750
686.863	0.0178967
686.942	0.0178764
687.020	0.0178462
687.098	0.0177435
687.176	0.0175780
687.254	0.0177364
687.332	0.0178239
687.410	0.0177219
687.488	0.0178139
687.567	0.0176537
687.645	0.0178772
687.723	0.0178702
687.801	0.0177282
687.879	0.0177885
687.957	0.0178688
688.035	0.0178457
688.113	0.0178327
688.192	0.0179819
688.270	0.0177873
688.348	0.0179327
688.426	0.0178780
688.504	0.0177672
688.582	0.0178909
688.660	0.0177654
688.738	0.0178872
688.817	0.0178400
688.895	0.0177672
688.973	0.0178594
689.051	0.0180210
689.129	0.0179153
689.207	0.0179726
689.285	0.0181649
689.363	0.0179829
689.442	0.0180301
689.520	0.0181936
689.598	0.0182478
689.676	0.0181460
689.754	0.0182269
689.832	0.0181488
689.910	0.0183827
689.988	0.0182804
690.067	0.0181438
690.145	0.0180186
690.223	0.0180461
690.301	0.0179829
690.379	0.0179726
690.457	0.0179176
690.535	0.0179108
690.613	0.0177195
690.692	0.0175718
690.770	0.0176239
690.848	0.0176740
690.926	0.0176015
691.004	0.0175272
691.082	0.0175444
691.160	0.0174213
691.238	0.0176456
691.317	0.0177122
691.395	0.0176845
691.473	0.0176836
691.551	0.0176619
691.629	0.0176871
691.707	0.0178071
691.785	0.0178840
691.863	0.0177746
691.942	0.0178712
692.020	0.0177784
692.098	0.0179005
692.176	0.0179947
692.254	0.0178997
692.332	0.0179058
692.410	0.0179185
692.488	0.0178313
692.567	0.0178416
692.645	0.0178960
692.723	0.0179593
692.801	0.0178403
692.879	0.0177872
692.957	0.0178832
693.035	0.0179327
693.113	0.0177932
693.192	0.0179317
693.270	0.0179031
693.348	0.0179179
693.426	0.0179082
693.504	0.0179366
693.582	0.0178508
693.660	0.0178363
693.738	0.0177457
693.817	0.0176881
693.895	0.0179007
693.973	0.0179710
694.051	0.0179393
694.129	0.0178417
694.207	0.0179404
694.285	0.0179299
694.363	0.0179108
694.442	0.0180186
694.520	0.0179745
694.598	0.0181192
694.676	0.0180925
694.754	0.0180568
694.832	0.0180589
694.910	0.0180042
694.988	0.0180310
695.067	0.0181446
695.145	0.0180275
695.223	0.0180706
695.301	0.0180827
695.379	0.0181718
695.457	0.0180931
695.535	0.0179364
695.613	0.0179195
695.692	0.0180318
695.770	0.0180308
695.848	0.0178493
695.926	0.0180119
696.004	0.0179246
696.082	0.0179428
696.160	0.0178807
696.238	0.0179020
696.317	0.0178194
696.395	0.0177686
696.473	0.0177155
696.551	0.0178864
696.629	0.0178358
696.707	0.0178525
696.785	0.0179176
696.863	0.0178954
696.942	0.0179442
697.020	0.0179316
697.098	0.0179972
697.176	0.0180913
697.254	0.0181821
697.332	0.0183440
697.410	0.0182065
697.488	0.0180312
697.567	0.0181174
697.645	0.0180984
697.723	0.0179275
697.801	0.0179266
697.879	0.0179058
697.957	0.0176421
698.035	0.0178781
698.113	0.0176800
698.192	0.0176279
698.270	0.0174815
698.348	0.0174734
698.426	0.0175352
698.504	0.0173315
698.582	0.0175750
698.660	0.0174372
698.738	0.0174483
698.817	0.0175086
698.895	0.0174366
698.973	0.0175925
699.051	0.0176168
699.129	0.0176128
699.207	0.0176562
699.285	0.0178635
699.363	0.0178688
699.442	0.0176337
699.520	0.0177405
699.598	0.0178779
699.676	0.0179104
699.754	0.0177364
699.832	0.0177972
699.910	0.0177578
699.988	0.0177676
700.067	0.0177048
700.145	0.0177806
700.223	0.0177795
700.301	0.0176757
700.379	0.0177362
700.457	0.0177467
700.535	0.0176670
700.613	0.0176512
700.692	0.0178004
700.770	0.0176486
700.848	0.0178252
700.926	0.0177985
701.004	0.0179420
701.082	0.0179071
701.160	0.0177040
701.238	0.0177328
701.317	0.0179041
701.395	0.0180013
701.473	0.0178314
701.551	0.0178005
701.629	0.0178925
701.707	0.0179539
701.785	0.0178871
701.863	0.0179622
701.942	0.0179991
702.020	0.0177584
702.098	0.0177731
702.176	0.0177630
702.254	0.0177492
702.332	0.0175710
702.410	0.0176153
702.488	0.0176610
702.567	0.0174813
702.645	0.0174469
702.723	0.0175672
702.801	0.0174039
702.879	0.0174085
702.957	0.0176908
703.035	0.0175411
703.113	0.0175053
703.192	0.0175313
703.270	0.0177270
703.348	0.0178260
703.426	0.0178904
703.504	0.0178941
703.582	0.0179815
703.660	0.0180222
703.738	0.0181889
703.817	0.0181326
703.895	0.0180907
703.973	0.0180128
704.051	0.0179772
704.129	0.0179358
704.207	0.0179896
704.285	0.0178652
704.363	0.0177770
704.442	0.0177328
704.520	0.0178856
704.598	0.0176605
704.676	0.0176579
704.754	0.0176389
704.832	0.0176328
704.910	0.0176863
704.988	0.0176742
705.067	0.0177699
705.145	0.0175410
705.223	0.0175337
705.301	0.0177009
705.379	0.0177694
705.457	0.0177089
705.535	0.0176689
705.613	0.0177286
705.692	0.0176653
705.770	0.0178794
705.848	0.0179260
705.926	0.0178021
706.004	0.0179068
706.082	0.0178839
706.160	0.0178262
706.238	0.0177895
706.317	0.0179239
706.395	0.0178143
706.473	0.0177753
706.551	0.0178374
706.629	0.0177093
706.707	0.0176095
706.785	0.0177174
706.863	0.0176157
706.942	0.0176786
707.020	0.0177895
707.098	0.0178928
707.176	0.0178314
707.254	0.0177757
707.332	0.0178073
707.410	0.0177113
707.488	0.0177652
707.567	0.0175761
707.645	0.0176117
707.723	0.0175879
707.801	0.0174460
707.879	0.0175747
707.957	0.0176501
708.035	0.0174604
708.113	0.0177361
708.192	0.0178436
708.270	0.0179621
708.348	0.0179953
708.426	0.0180798
708.504	0.0181811
708.582	0.0183901
708.660	0.0185242
708.738	0.0184209
708.817	0.0184321
708.895	0.0184055
708.973	0.0185012
709.051	0.0184474
709.129	0.0182490
709.207	0.0181227
709.285	0.0179130
709.363	0.0178661
709.442	0.0176880
709.520	0.0174839
709.598	0.0173899
709.676	0.0171146
709.754	0.0170129
709.832	0.0170851
709.910	0.0171019
709.988	0.0172357
710.067	0.0173428
710.145	0.0173940
710.223	0.0175168
710.301	0.0176834
710.379	0.0179294
710.457	0.0181705
710.535	0.0181097
710.613	0.0181149
710.692	0.0181445
710.770	0.0183074
710.848	0.0184396
710.926	0.0182824
711.004	0.0182880
711.082	0.0182928
711.160	0.0180981
711.238	0.0182433
711.317	0.0181590
711.395	0.0181396
711.473	0.0182072
711.551	0.0182656
711.629	0.0181690
711.707	0.0180566
711.785	0.0181020
711.863	0.0180429
711.942	0.0179675
712.020	0.0179462
712.098	0.0180132
712.176	0.0178345
712.254	0.0178156
712.332	0.0177152
712.410	0.0177596
712.488	0.0178235
712.567	0.0178056
712.645	0.0177139
712.723	0.0176252
712.801	0.0178835
712.879	0.0179140
712.957	0.0177731
713.035	0.0179014
713.113	0.0179742
713.192	0.0178838
713.270	0.0178246
713.348	0.0179787
713.426	0.0180063
713.504	0.0180423
713.582	0.0179654
713.660	0.0179877
713.738	0.0180029
713.817	0.0180117
713.895	0.0180064
713.973	0.0180648
714.051	0.0181164
714.129	0.0180301
714.207	0.0180220
714.285	0.0182028
714.363	0.0181467
714.442	0.0180746
714.520	0.0182598
714.598	0.0184287
714.676	0.0182459
714.754	0.0183168
714.832	0.0183949
714.910	0.0182881
714.988	0.0183006
715.067	0.0182604
715.145	0.0183852
715.223	0.0184041
715.301	0.0183181
715.379	0.0181671
715.457	0.0182976
715.535	0.0182663
715.613	0.0181812
715.692	0.0180589
715.770	0.0181097
715.848	0.0180382
715.926	0.0181322
716.004	0.0179540
716.082	0.0181736
716.160	0.0181427
716.238	0.0181420
716.317	0.0181365
716.395	0.0182024
716.473	0.0182266
716.551	0.0181834
716.629	0.0181716
716.707	0.0181264
716.785	0.0180847
716.863	0.0180447
716.942	0.0180983
717.020	0.0179301
717.098	0.0178713
717.176	0.0179623
717.254	0.0178398
717.332	0.0177037
717.410	0.0177833
717.488	0.0177319
717.567	0.0176833
717.645	0.0176929
717.723	0.0177354
717.801	0.0177515
717.879	0.0176467
717.957	0.0176567
718.035	0.0174898
718.113	0.0175824
718.192	0.0174596
718.270	0.0174381
718.348	0.0174810
718.426	0.0174536
718.504	0.0173646
718.582	0.0172439
718.660	0.0173421
718.738	0.0174430
718.817	0.0172799
718.895	0.0173656
718.973	0.0174119
719.051	0.0175623
719.129	0.0176064
719.207	0.0176220
719.285	0.0176600
719.363	0.0177293
719.442	0.0178394
719.520	0.0178168
719.598	0.0176566
719.676	0.0180401
719.754	0.0179062
719.832	0.0179681
719.910	0.0180474
719.988	0.0180702
720.067	0.0179983
720.145	0.0178841
720.223	0.0179675
720.301	0.0179329
720.379	0.0180663
720.457	0.0179380
720.535	0.0179656
720.613	0.0180029
720.692	0.0180076
720.770	0.0180999
720.848	0.0180442
720.926	0.0178996
721.004	0.0178313
721.082	0.0178644
721.160	0.0179819
721.238	0.0178529
721.317	0.0178603
721.395	0.0178621
721.473	0.0178173
721.551	0.0176291
721.629	0.0175745
721.707	0.0175885
721.785	0.0175676
721.863	0.0175158
721.942	0.0174536
722.020	0.0174054
722.098	0.0174747
722.176	0.0176077
722.254	0.0174743
722.332	0.0175815
722.410	0.0174445
722.488	0.0174709
722.567	0.0173616
722.645	0.0175027
722.723	0.0175155
722.801	0.0173917
722.879	0.0175072
722.957	0.0174281
723.035	0.0174437
723.113	0.0173757
723.192	0.0174377
723.270	0.0174246
723.348	0.0175687
723.426	0.0173708
723.504	0.0174435
723.582	0.0175155
723.660	0.0175142
723.738	0.0176448
723.817	0.0175768
723.895	0.0174695
723.973	0.0175200
724.051	0.0174882
724.129	0.0177398
724.207	0.0177470
724.285	0.0176382
724.363	0.0176616
724.442	0.0176910
724.520	0.0176388
724.598	0.0176942
724.676	0.0176812
724.754	0.0177152
724.832	0.0176189
724.910	0.0177015
724.988	0.0176880
725.067	0.0176122
725.145	0.0177252
725.223	0.0177318
725.301	0.0176584
725.379	0.0176420
725.457	0.0175927
725.535	0.0175460
725.613	0.0175388
725.692	0.0175046
725.770	0.0174699
725.848	0.0174196
725.926	0.0174464
726.004	0.0173180
726.082	0.0172905
726.160	0.0173880
726.238	0.0173030
726.317	0.0174266
726.395	0.0173808
726.473	0.0174133
726.551	0.0173389
726.629	0.0176073
726.707	0.0175504
726.785	0.0175974
726.863	0.0175381
726.942	0.0177760
727.020	0.0178502
727.098	0.0178899
727.176	0.0179480
727.254	0.0179236
727.332	0.0179346
727.410	0.0179079
727.488	0.0180280
727.567	0.0179287
727.645	0.0180125
727.723	0.0178335
727.801	0.0180009
727.879	0.0179910
727.957	0.0180594
728.035	0.0178976
728.113	0.0177739
728.192	0.0178583
728.270	0.0177213
728.348	0.0179075
728.426	0.0178207
728.504	0.0178181
728.582	0.0178156
728.660	0.0178183
728.738	0.0178307
728.817	0.0177290
728.895	0.0178331
728.973	0.0178990
729.051	0.0180954
729.129	0.0179165
729.207	0.0177963
729.285	0.0180217
729.363	0.0181243
729.442	0.0181932
729.520	0.0180763
729.598	0.0181175
729.676	0.0182427
729.754	0.0182217
729.832	0.0182238
729.910	0.0182044
729.988	0.0180331
730.067	0.0182220
730.145	0.0181286
730.223	0.0182135
730.301	0.0181577
730.379	0.0181770
730.457	0.0182964
730.535	0.0181805
730.613	0.0181458
730.692	0.0180960
730.770	0.0180463
730.848	0.0182217
730.926	0.0182459
731.004	0.0182639
731.082	0.0182710
731.160	0.0183067
731.238	0.0182832
731.317	0.0183258
731.395	0.0183395
731.473	0.0183429
731.551	0.0183701
731.629	0.0183630
731.707	0.0183610
731.785	0.0184212
731.863	0.0184609
731.942	0.0184104
732.020	0.0183132
732.098	0.0183415
732.176	0.0184517
732.254	0.0183807
732.332	0.0182230
732.410	0.0182941
732.488	0.0181965
732.567	0.0179727
732.645	0.0179380
732.723	0.0178320
732.801	0.0178995
732.879	0.0178670
732.957	0.0177324
733.035	0.0177454
733.113	0.0178568
733.192	0.0176886
733.270	0.0176394
733.348	0.0176554
733.426	0.0176030
733.504	0.0174707
733.582	0.0175105
733.660	0.0176316
733.738	0.0175385
733.817	0.0174317
733.895	0.0174620
733.973	0.0172931
734.051	0.0174116
734.129	0.0173058
734.207	0.0172740
734.285	0.0171560
734.363	0.0170552
734.442	0.0170473
734.520	0.0170473
734.598	0.0168300
734.676	0.0168314
734.754	0.0169707
734.832	0.0167912
734.910	0.0167719
734.988	0.0168353
735.067	0.0167878
735.145	0.0167516
735.223	0.0168760
735.301	0.0167210
735.379	0.0167826
735.457	0.0170367
735.535	0.0168001
735.613	0.0168486
735.692	0.0169389
735.770	0.0169682
735.848	0.0169125
735.926	0.0169211
736.004	0.0169243
736.082	0.0169124
736.160	0.0169983
736.238	0.0171186
736.317	0.0173433
736.395	0.0172877
736.473	0.0171810
736.551	0.0172665
736.629	0.0171257
736.707	0.0173523
736.785	0.0174738
736.863	0.0173077
736.942	0.0173360
737.020	0.0174712
737.098	0.0173723
737.176	0.0173278
737.254	0.0174297
737.332	0.0174049
737.410	0.0173675
737.488	0.0174471
737.567	0.0173792
737.645	0.0174821
737.723	0.0177132
737.801	0.0175755
737.879	0.0176606
737.957	0.0178539
738.035	0.0177235
738.113	0.0178017
738.192	0.0180140
738.270	0.0181293
738.348	0.0180057
738.426	0.0181061
738.504	0.0180932
738.582	0.0183090
738.660	0.0182050
738.738	0.0183041
738.817	0.0183797
738.895	0.0184123
738.973	0.0183579
739.051	0.0183993
739.129	0.0184433
739.207	0.0183955
739.285	0.0185876
739.363	0.0183497
739.442	0.0183923
739.520	0.0185260
739.598	0.0183672
739.676	0.0184123
739.754	0.0183295
739.832	0.0183316
739.910	0.0182954
739.988	0.0183206
740.067	0.0183031
740.145	0.0182967
740.223	0.0182456
740.301	0.0181319
740.379	0.0182829
740.457	0.0182963
740.535	0.0182583
740.613	0.0182253
740.692	0.0181351
740.770	0.0181377
740.848	0.0182063
740.926	0.0181055
741.004	0.0180917
741.082	0.0183146
741.160	0.0179718
741.238	0.0179610
741.317	0.0181108
741.395	0.0178801
741.473	0.0178905
741.551	0.0179137
741.629	0.0176995
741.707	0.0177563
741.785	0.0176559
741.863	0.0176260
741.942	0.0176804
742.020	0.0175786
742.098	0.0177307
742.176	0.0177029
742.254	0.0176792
742.332	0.0177567
742.410	0.0177725
742.488	0.0178233
742.567	0.0177135
742.645	0.0178579
742.723	0.0178283
742.801	0.0179134
742.879	0.0177003
742.957	0.0176599
743.035	0.0177684
743.113	0.0176800
743.192	0.0175227
743.270	0.0177153
743.348	0.0176814
743.426	0.0177304
743.504	0.0175832
743.582	0.0175211
743.660	0.0176862
743.738	0.0176963
743.817	0.0176267
743.895	0.0176318
743.973	0.0177383
744.051	0.0176984
744.129	0.0177377
744.207	0.0176781
744.285	0.0178146
744.363	0.0177529
744.442	0.0175781
744.520	0.0178154
744.598	0.0178611
744.676	0.0177673
744.754	0.0176349
744.832	0.0176891
744.910	0.0177441
744.988	0.0177439
745.067	0.0176582
745.145	0.0177534
745.223	0.0178681
745.301	0.0177892
745.379	0.0179031
745.457	0.0177820
745.535	0.0178506
745.613	0.0177163
745.692	0.0179675
745.770	0.0178799
745.848	0.0178386
745.926	0.0178439
746.004	0.0177544
746.082	0.0177103
746.160	0.0178476
746.238	0.0177095
746.317	0.0176055
746.395	0.0178011
746.473	0.0177245
746.551	0.0174907
746.629	0.0176062
746.707	0.0176494
746.785	0.0174875
746.863	0.0175370
746.942	0.0174874
747.020	0.0174652
747.098	0.0174851
747.176	0.0175436
747.254	0.0174380
747.332	0.0173297
747.410	0.0174950
747.488	0.0174303
747.567	0.0174258
747.645	0.0173898
747.723	0.0174385
747.801	0.0174422
747.879	0.0174070
747.957	0.0174056
748.035	0.0173846
748.113	0.0172771
748.192	0.0174284
748.270	0.0173917
748.348	0.0174009
748.426	0.0173513
748.504	0.0174012
748.582	0.0173671
748.660	0.0173177
748.738	0.0175098
748.817	0.0175323
748.895	0.0176762
748.973	0.0176692
749.051	0.0177244
749.129	0.0178391
749.207	0.0177871
749.285	0.0176645
749.363	0.0178612
749.442	0.0177816
749.520	0.0178442
749.598	0.0178439
749.676	0.0179114
749.754	0.0179261
749.832	0.0178899
749.910	0.0179140
749.988	0.0179453
750.067	0.0180692
750.145	0.0179707
750.223	0.0180192
750.301	0.0181155
750.379	0.0179894
750.457	0.0181116
750.535	0.0182035
750.613	0.0180671
750.692	0.0181841
750.770	0.0181624
750.848	0.0182376
750.926	0.0182038
751.004	0.0180870
751.082	0.0181217
751.160	0.0181642
751.238	0.0182599
751.317	0.0181991
751.395	0.0181887
751.473	0.0182043
751.551	0.0182017
751.629	0.0184011
751.707	0.0183278
751.785	0.0181784
751.863	0.0183349
751.942	0.0183140
752.020	0.0183377
752.098	0.0183416
752.176	0.0183453
752.254	0.0182906
752.332	0.0181287
752.410	0.0182050
752.488	0.0181891
752.567	0.0182244
752.645	0.0181454
752.723	0.0180185
752.801	0.0181087
752.879	0.0180640
752.957	0.0180320
753.035	0.0178407
753.113	0.0178179
753.192	0.0178416
753.270	0.0179867
753.348	0.0179477
753.426	0.0179102
753.504	0.0179845
753.582	0.0180685
753.660	0.0179816
753.738	0.0179522
753.817	0.0179881
753.895	0.0179140
753.973	0.0179691
754.051	0.0180196
754.129	0.0179675
754.207	0.0178786
754.285	0.0179169
754.363	0.0179794
754.442	0.0178853
754.520	0.0178818
754.598	0.0179024
754.676	0.0176519
754.754	0.0178484
754.832	0.0178954
754.910	0.0176292
754.988	0.0177436
755.067	0.0177282
755.145	0.0177425
755.223	0.0177423
755.301	0.0177184
755.379	0.0177695
755.457	0.0177179
755.535	0.0177083
755.613	0.0178359
755.692	0.0177621
755.770	0.0178033
755.848	0.0178123
755.926	0.0177101
756.004	0.0177530
756.082	0.0178255
756.160	0.0178362
756.238	0.0178147
756.317	0.0178833
756.395	0.0179602
756.473	0.0178802
756.551	0.0179385
756.629	0.0179391
756.707	0.0179918
756.785	0.0178937
756.863	0.0178979
756.942	0.0178880
757.020	0.0179063
757.098	0.0179059
757.176	0.0178858
757.254	0.0178523
757.332	0.0178707
757.410	0.0178735
757.488	0.0178064
757.567	0.0177927
757.645	0.0175841
757.723	0.0178164
757.801	0.0176943
757.879	0.0174645
757.957	0.0175542
758.035	0.0176607
758.113	0.0174615
758.192	0.0174345
758.270	0.0174858
758.348	0.0174212
758.426	0.0173615
758.504	0.0174755
758.582	0.0175095
758.660	0.0174640
758.738	0.0174728
758.817	0.0175285
758.895	0.0173431
758.973	0.0174961
759.051	0.0175042
759.129	0.0174166
759.207	0.0176128
759.285	0.0174623
759.363	0.0174625
759.442	0.0177175
759.520	0.0175194
759.598	0.0175828
759.676	0.0175714
759.754	0.0175313
759.832	0.0175667
759.910	0.0175877
759.988	0.0174702
760.067	0.0174828
760.145	0.0174061
760.223	0.0175498
760.301	0.0174371
760.379	0.0173508
760.457	0.0175710
760.535	0.0172917
760.613	0.0173409
760.692	0.0174879
760.770	0.0172661
760.848	0.0171812
760.926	0.0172096
761.004	0.0173739
761.082	0.0173743
761.160	0.0173741
761.238	0.0175434
761.317	0.0174638
761.395	0.0175753
761.473	0.0175552
761.551	0.0176120
761.629	0.0175309
761.707	0.0176109
761.785	0.0176152
761.863	0.0176034
761.942	0.0174873
762.020	0.0176547
762.098	0.0174200
762.176	0.0174575
762.254	0.0173819
762.332	0.0174912
762.410	0.0173861
762.488	0.0173617
762.567	0.0175121
762.645	0.0174793
762.723	0.0172771
762.801	0.0175252
762.879	0.0175081
762.957	0.0175327
763.035	0.0175879
763.113	0.0177736
763.192	0.0177194
763.270	0.0178332
763.348	0.0178574
763.426	0.0179263
763.504	0.0179308
763.582	0.0178728
763.660	0.0180051
763.738	0.0180679
763.817	0.0178678
763.895	0.0182052
763.973	0.0182462
764.051	0.0180608
764.129	0.0181271
764.207	0.0180105
764.285	0.0180002
764.363	0.0179597
764.442	0.0180128
764.520	0.0178507
764.598	0.0180154
764.676	0.0180468
764.754	0.0180492
764.832	0.0180137
764.910	0.0181187
764.988	0.0179829
765.067	0.0180893
765.145	0.0181655
765.223	0.0180615
765.301	0.0181078
765.379	0.0181144
765.457	0.0182626
765.535	0.0181584
765.613	0.0182146
765.692	0.0181754
765.770	0.0182992
765.848	0.0183393
765.926	0.0182252
766.004	0.0182739
766.082	0.0180083
766.160	0.0180105
766.238	0.0181331
766.317	0.0181140
766.395	0.0180960
766.473	0.0181261
766.551	0.0181326
766.629	0.0182093
766.707	0.0180060
766.785	0.0181953
766.863	0.0180780
766.942	0.0181694
767.020	0.0181860
767.098	0.0180692
767.176	0.0180578
767.254	0.0180867
767.332	0.0179482
767.410	0.0180012
767.488	0.0179800
767.567	0.0178900
767.645	0.0179366
767.723	0.0178933
767.801	0.0178412
767.879	0.0178214
767.957	0.0176900
768.035	0.0178412
768.113	0.0178759
768.192	0.0178870
768.270	0.0176484
768.348	0.0177446
768.426	0.0176949
768.504	0.0177919
768.582	0.0179102
768.660	0.0177449
768.738	0.0177602
768.817	0.0176670
768.895	0.0177716
768.973	0.0178677
769.051	0.0176514
769.129	0.0177435
769.207	0.0178048
769.285	0.0177381
769.363	0.0178383
769.442	0.0179250
769.520	0.0179099
769.598	0.0178416
769.676	0.0178401
769.754	0.0178881
769.832	0.0179935
769.910	0.0180016
769.988	0.0180535
770.067	0.0180234
770.145	0.0181540
770.223	0.0178877
770.301	0.0180110
770.379	0.0181066
770.457	0.0180621
770.535	0.0179333
770.613	0.0179729
770.692	0.0180199
770.770	0.0178799
770.848	0.0176997
770.926	0.0177943
771.004	0.0176834
771.082	0.0178623
771.160	0.0177032
771.238	0.0178149
771.317	0.0178249
771.395	0.0177695
771.473	0.0177341
771.551	0.0178328
771.629	0.0177695
771.707	0.0177938
771.785	0.0180587
771.863	0.0179796
771.942	0.0181387
772.020	0.0180524
772.098	0.0181128
772.176	0.0183289
772.254	0.0183031
772.332	0.0182702
772.410	0.0182024
772.488	0.0182813
772.567	0.0182734
772.645	0.0182056
772.723	0.0183315
772.801	0.0182240
772.879	0.0182786
772.957	0.0182231
773.035	0.0180909
773.113	0.0180049
773.192	0.0179148
773.270	0.0177805
773.348	0.0177926
773.426	0.0177477
773.504	0.0177187
773.582	0.0176389
773.660	0.0175484
773.738	0.0175239
773.817	0.0174821
773.895	0.0176101
773.973	0.0174775
774.051	0.0175415
774.129	0.0173686
774.207	0.0174419
774.285	0.0173660
774.363	0.0173881
774.442	0.0173568
774.520	0.0173771
774.598	0.0172728
774.676	0.0173306
774.754	0.0174458
774.832	0.0174382
774.910	0.0174556
774.988	0.0174790
775.067	0.0173994
775.145	0.0174046
775.223	0.0175471
775.301	0.0174224
775.379	0.0174598
775.457	0.0176317
775.535	0.0175933
775.613	0.0175805
775.692	0.0176595
775.770	0.0176861
775.848	0.0176897
775.926	0.0175362
776.004	0.0177048
776.082	0.0176931
776.160	0.0176594
776.238	0.0175255
776.317	0.0175403
776.395	0.0176338
776.473	0.0176612
776.551	0.0176290
776.629	0.0176734
776.707	0.0176058
776.785	0.0176347
776.863	0.0176273
776.942	0.0176854
777.020	0.0175600
777.098	0.0176949
777.176	0.0176917
777.254	0.0176271
777.332	0.0176016
777.410	0.0177306
777.488	0.0177425
777.567	0.0177457
777.645	0.0178209
777.723	0.0178684
777.801	0.0179478
777.879	0.0179903
777.957	0.0180429
778.035	0.0179761
778.113	0.0181472
778.192	0.0182005
778.270	0.0181771
778.348	0.0181940
778.426	0.0182493
778.504	0.0182098
778.582	0.0182490
778.660	0.0183437
778.738	0.0182439
778.817	0.0183628
778.895	0.0184292
778.973	0.0183253
779.051	0.0184714
779.129	0.0181767
779.207	0.0183078
779.285	0.0182941
779.363	0.0183832
779.442	0.0182747
779.520	0.0183504
779.598	0.0183849
779.676	0.0182005
779.754	0.0181992
779.832	0.0181779
779.910	0.0181179
779.988	0.0181841
780.067	0.0180420
780.145	0.0179000
780.223	0.0181936
780.301	0.0180890
780.379	0.0181356
780.457	0.0182984
780.535	0.0182101
780.613	0.0182313
780.692	0.0182667
780.770	0.0181548
780.848	0.0183519
780.926	0.0183957
781.004	0.0184334
781.082	0.0183002
781.160	0.0183589
781.238	0.0183224
781.317	0.0182876
781.395	0.0183620
781.473	0.0184734
781.551	0.0183539
781.629	0.0181159
781.707	0.0181983
781.785	0.0182080
781.863	0.0181387
781.942	0.0180112
782.020	0.0179743
782.098	0.0180067
782.176	0.0179771
782.254	0.0178860
782.332	0.0179409
782.410	0.0178633
782.488	0.0178583
782.567	0.0178733
782.645	0.0177576
782.723	0.0177372
782.801	0.0177962
782.879	0.0179054
782.957	0.0179224
783.035	0.0177360
783.113	0.0177167
783.192	0.0177454
783.270	0.0177750
783.348	0.0176488
783.426	0.0175887
783.504	0.0174641
783.582	0.0175848
783.660	0.0174754
783.738	0.0175925
783.817	0.0175749
783.895	0.0175793
783.973	0.0175699
784.051	0.0176370
784.129	0.0175761
784.207	0.0175681
784.285	0.0175127
784.363	0.0176022
784.442	0.0176048
784.520	0.0175851
784.598	0.0175758
784.676	0.0176569
784.754	0.0176840
784.832	0.0176153
784.910	0.0177697
784.988	0.0177018
785.067	0.0177447
785.145	0.0177990
785.223	0.0176232
785.301	0.0177552
785.379	0.0176766
785.457	0.0175645
785.535	0.0175867
785.613	0.0176573
785.692	0.0174978
785.770	0.0175754
785.848	0.0175093
785.926	0.0175068
786.004	0.0175561
786.082	0.0175180
786.160	0.0175994
786.238	0.0175623
786.317	0.0176273
786.395	0.0175982
786.473	0.0176891
786.551	0.0176454
786.629	0.0175779
786.707	0.0176439
786.785	0.0177830
786.863	0.0177324
786.942	0.0176743
787.020	0.0176343
787.098	0.0176674
787.176	0.0176913
787.254	0.0176933
787.332	0.0175106
787.410	0.0175565
787.488	0.0177223
787.567	0.0176836
787.645	0.0176659
787.723	0.0176761
787.801	0.0176833
787.879	0.0175417
787.957	0.0176694
788.035	0.0177880
788.113	0.0176414
788.192	0.0175435
788.270	0.0176756
788.348	0.0177592
788.426	0.0176955
788.504	0.0177621
788.582	0.0176775
788.660	0.0177316
788.738	0.0176299
788.817	0.0175327
788.895	0.0173487
788.973	0.0175005
789.051	0.0175446
789.129	0.0175626
789.207	0.0174919
789.285	0.0174762
789.363	0.0174516
789.442	0.0174474
789.520	0.0175340
789.598	0.0174351
789.676	0.0173838
789.754	0.0176073
789.832	0.0175152
789.910	0.0175925
789.988	0.0177026
790.067	0.0177109
790.145	0.0176662
790.223	0.0177988
790.301	0.0177109
790.379	0.0177558
790.457	0.0178902
790.535	0.0177710
790.613	0.0179980
790.692	0.0180022
790.770	0.0180758
790.848	0.0179606
790.926	0.0178191
791.004	0.0181815
791.082	0.0180727
791.160	0.0179928
791.238	0.0181400
791.317	0.0181239
791.395	0.0182150
791.473	0.0182134
791.551	0.0181586
791.629	0.0181567
791.707	0.0182983
791.785	0.0182377
791.863	0.0182190
791.942	0.0183522
792.020	0.0183331
792.098	0.0182773
792.176	0.0181305
792.254	0.0182876
792.332	0.0183723
792.410	0.0183253
792.488	0.0182862
792.567	0.0182738
792.645	0.0182707
792.723	0.0182156
792.801	0.0183156
792.879	0.0183198
792.957	0.0181782
793.035	0.0181810
793.113	0.0181131
793.192	0.0181093
793.270	0.0180984
793.348	0.0181788
793.426	0.0180521
793.504	0.0180153
793.582	0.0180666
793.660	0.0181815
793.738	0.0179196
793.817	0.0178682
793.895	0.0180186
793.973	0.0181059
794.051	0.0179759
794.129	0.0178241
794.207	0.0179303
794.285	0.0179707
794.363	0.0178745
794.442	0.0178913
794.520	0.0178134
794.598	0.0178819
794.676	0.0178405
794.754	0.0178139
794.832	0.0179080
794.910	0.0178619
794.988	0.0177714
795.067	0.0178383
795.145	0.0178972
795.223	0.0177270
795.301	0.0178086
795.379	0.0177779
795.457	0.0178003
795.535	0.0178410
795.613	0.0178748
795.692	0.0178913
795.770	0.0178495
795.848	0.0179366
795.926	0.0180012
796.004	0.0179199
796.082	0.0178853
796.160	0.0178546
796.238	0.0177522
796.317	0.0177414
796.395	0.0178173
796.473	0.0177575
796.551	0.0178002
796.629	0.0178606
796.707	0.0176538
796.785	0.0176567
796.863	0.0177998
796.942	0.0177791
797.020	0.0177765
797.098	0.0176588
797.176	0.0175934
797.254	0.0177277
797.332	0.0177437
797.410	0.0177528
797.488	0.0177744
797.567	0.0178011
797.645	0.0177789
797.723	0.0177128
797.801	0.0178201
797.879	0.0177681
797.957	0.0176285
798.035	0.0177441
798.113	0.0177244
798.192	0.0176752
798.270	0.0177336
798.348	0.0177395
798.426	0.0178077
798.504	0.0177396
798.582	0.0176817
798.660	0.0177395
798.738	0.0178164
798.817	0.0177425
798.895	0.0176817
798.973	0.0176503
799.051	0.0176913
799.129	0.0178100
799.207	0.0177669
799.285	0.0178313
799.363	0.0177068
799.442	0.0175998
799.520	0.0176105
799.598	0.0176799
799.676	0.0177040
799.754	0.0176903
799.832	0.0177734
799.910	0.0177734
799.988	0.0176410
800.067	0.0177730
800.145	0.0178223
800.223	0.0178301
800.301	0.0178458
800.379	0.0178517
800.457	0.0178314
800.535	0.0178870
800.613	0.0180069
800.692	0.0180019
800.770	0.0179290
800.848	0.0180449
800.926	0.0179077
801.004	0.0177370
801.082	0.0178356
801.160	0.0178776
801.238	0.0176342
801.317	0.0178473
801.395	0.0178529
801.473	0.0178150
801.551	0.0177915
801.629	0.0178349
801.707	0.0180048
801.785	0.0177563
801.863	0.0177525
801.942	0.0178929
802.020	0.0178820
802.098	0.0179099
802.176	0.0178180
802.254	0.0179330
802.332	0.0179162
802.410	0.0179596
802.488	0.0178722
802.567	0.0179387
802.645	0.0179240
802.723	0.0179910
802.801	0.0178363
802.879	0.0178813
802.957	0.0179630
803.035	0.0180214
803.113	0.0179358
803.192	0.0181689
803.270	0.0181292
803.348	0.0182137
803.426	0.0181395
803.504	0.0182652
803.582	0.0182796
803.660	0.0182054
803.738	0.0184482
803.817	0.0182112
803.895	0.0183657
803.973	0.0183645
804.051	0.0183855
804.129	0.0184261
804.207	0.0183838
804.285	0.0182975
804.363	0.0184051
804.442	0.0182454
804.520	0.0184759
804.598	0.0182514
804.676	0.0181792
804.754	0.0181728
804.832	0.0181966
804.910	0.0179224
804.988	0.0179456
805.067	0.0179359
805.145	0.0179766
805.223	0.0179856
805.301	0.0180256
805.379	0.0180284
805.457	0.0181656
805.535	0.0180463
805.613	0.0179063
805.692	0.0178582
805.770	0.0179496
805.848	0.0178455
805.926	0.0178304
806.004	0.0178735
806.082	0.0177621
806.160	0.0176048
806.238	0.0176155
806.317	0.0177100
806.395	0.0175745
806.473	0.0176292
806.551	0.0177091
806.629	0.0176662
806.707	0.0177022
806.785	0.0176997
806.863	0.0177947
806.942	0.0178889
807.020	0.0177000
807.098	0.0177737
807.176	0.0178883
807.254	0.0178647
807.332	0.0179044
807.410	0.0178113
807.488	0.0179807
807.567	0.0180629
807.645	0.0179128
807.723	0.0179327
807.801	0.0179993
807.879	0.0179808
807.957	0.0179493
808.035	0.0179556
808.113	0.0178622
808.192	0.0179621
808.270	0.0178885
808.348	0.0176806
808.426	0.0175739
808.504	0.0175553
808.582	0.0175719
808.660	0.0176048
808.738	0.0174010
808.817	0.0173798
808.895	0.0172955
808.973	0.0171859
809.051	0.0171520
809.129	0.0172610
809.207	0.0173177
809.285	0.0173795
809.363	0.0172014
809.442	0.0173147
809.520	0.0173195
809.598	0.0173823
809.676	0.0174865
809.754	0.0174328
809.832	0.0173875
809.910	0.0174786
809.988	0.0176216
810.067	0.0176021
810.145	0.0175497
810.223	0.0177058
810.301	0.0177650
810.379	0.0176788
810.457	0.0177132
810.535	0.0176441
810.613	0.0177007
810.692	0.0178268
810.770	0.0176574
810.848	0.0176624
810.926	0.0175800
811.004	0.0175077
811.082	0.0176102
811.160	0.0174741
811.238	0.0175857
811.317	0.0173764
811.395	0.0172963
811.473	0.0174029
811.551	0.0174309
811.629	0.0174142
811.707	0.0173788
811.785	0.0173216
811.863	0.0173477
811.942	0.0174158
812.020	0.0174222
812.098	0.0173402
812.176	0.0175089
812.254	0.0175514
812.332	0.0174396
812.410	0.0175660
812.488	0.0176687
812.567	0.0176251
812.645	0.0174440
812.723	0.0176039
812.801	0.0175605
812.879	0.0175742
812.957	0.0175008
813.035	0.0174812
813.113	0.0173542
813.192	0.0173822
813.270	0.0173108
813.348	0.0173241
813.426	0.0172902
813.504	0.0170995
813.582	0.0170754
813.660	0.0171876
813.738	0.0170200
813.817	0.0171843
813.895	0.0171626
813.973	0.0170890
814.051	0.0172729
814.129	0.0172299
814.207	0.0172266
814.285	0.0173646
814.363	0.0173563
814.442	0.0174384
814.520	0.0174601
814.598	0.0176349
814.676	0.0176247
814.754	0.0176692
814.832	0.0178288
814.910	0.0179884
814.988	0.0180630
815.067	0.0180049
815.145	0.0180293
815.223	0.0180775
815.301	0.0181522
815.379	0.0180080
815.457	0.0181652
815.535	0.0183320
815.613	0.0182202
815.692	0.0180459
815.770	0.0181675
815.848	0.0181273
815.926	0.0181447
816.004	0.0181797
816.082	0.0182561
816.160	0.0183662
816.238	0.0181210
816.317	0.0181698
816.395	0.0182015
816.473	0.0182800
816.551	0.0179808
816.629	0.0182786
816.707	0.0183846
816.785	0.0182480
816.863	0.0183411
816.942	0.0183319
817.020	0.0182570
817.098	0.0183691
817.176	0.0183842
817.254	0.0183704
817.332	0.0182557
817.410	0.0182429
817.488	0.0182050
817.567	0.0182893
817.645	0.0181786
817.723	0.0181059
817.801	0.0180095
817.879	0.0180733
817.957	0.0181395
818.035	0.0180247
818.113	0.0178935
818.192	0.0180090
818.270	0.0181055
818.348	0.0179137
818.426	0.0178774
818.504	0.0179014
818.582	0.0177377
818.660	0.0178698
818.738	0.0177507
818.817	0.0179240
818.895	0.0178777
818.973	0.0179362
819.051	0.0179790
819.129	0.0179880
819.207	0.0179698
819.285	0.0180730
819.363	0.0179517
819.442	0.0180142
819.520	0.0180907
819.598	0.0180375
819.676	0.0181317
819.754	0.0181655
819.832	0.0181528
819.910	0.0180141
819.988	0.0180634
820.067	0.0180097
820.145	0.0179996
820.223	0.0178066
820.301	0.0178978
820.379	0.0180871
820.457	0.0178622
820.535	0.0178751
820.613	0.0179641
820.692	0.0177580
820.770	0.0177566
820.848	0.0177905
820.926	0.0177626
821.004	0.0177961
821.082	0.0177274
821.160	0.0177993
821.238	0.0176425
821.317	0.0176867
821.395	0.0176862
821.473	0.0176237
821.551	0.0177213
821.629	0.0177301
821.707	0.0176920
821.785	0.0175977
821.863	0.0175979
821.942	0.0175513
822.020	0.0175191
822.098	0.0177080
822.176	0.0175279
822.254	0.0177808
822.332	0.0177533
822.410	0.0177243
822.488	0.0176198
822.567	0.0175693
822.645	0.0176530
822.723	0.0176761
822.801	0.0176552
822.879	0.0175130
822.957	0.0175822
823.035	0.0174622
823.113	0.0175036
823.192	0.0174421
823.270	0.0173709
823.348	0.0173464
823.426	0.0173283
823.504	0.0173748
823.582	0.0172915
823.660	0.0172771
823.738	0.0173006
823.817	0.0170039
823.895	0.0171781
823.973	0.0172467
824.051	0.0171078
824.129	0.0171946
824.207	0.0170610
824.285	0.0169962
824.363	0.0169907
824.442	0.0171902
824.520	0.0171408
824.598	0.0171349
824.676	0.0171980
824.754	0.0172163
824.832	0.0172920
824.910	0.0171760
824.988	0.0173357
825.067	0.0174013
825.145	0.0173870
825.223	0.0175594
825.301	0.0174575
825.379	0.0175700
825.457	0.0175822
825.535	0.0176200
825.613	0.0176952
825.692	0.0177303
825.770	0.0176555
825.848	0.0177485
825.926	0.0178195
826.004	0.0179898
826.082	0.0179125
826.160	0.0180074
826.238	0.0180235
826.317	0.0179662
826.395	0.0180894
826.473	0.0179475
826.551	0.0180737
826.629	0.0180699
826.707	0.0179814
826.785	0.0179909
826.863	0.0179832
826.942	0.0179138
827.020	0.0179106
827.098	0.0179171
827.176	0.0178939
827.254	0.0178374
827.332	0.0178694
827.410	0.0178224
827.488	0.0179510
827.567	0.0179456
827.645	0.0178518
827.723	0.0178517
827.801	0.0178387
827.879	0.0179089
827.957	0.0178830
828.035	0.0178465
828.113	0.0178780
828.192	0.0178670
828.270	0.0177035
828.348	0.0179700
828.426	0.0177868
828.504	0.0177380
828.582	0.0177314
828.660	0.0176748
828.738	0.0177952
828.817	0.0178224
828.895	0.0178342
828.973	0.0177547
829.051	0.0178054
829.129	0.0178779
829.207	0.0177910
829.285	0.0178859
829.363	0.0179005
829.442	0.0177761
829.520	0.0180143
829.598	0.0180159
829.676	0.0179942
829.754	0.0179443
829.832	0.0179916
829.910	0.0180403
829.988	0.0180199
830.067	0.0179841
830.145	0.0179305
830.223	0.0179941
830.301	0.0179075
830.379	0.0177954
830.457	0.0178432
830.535	0.0179287
830.613	0.0177229
830.692	0.0178942
830.770	0.0178822
830.848	0.0176871
830.926	0.0177735
831.004	0.0178410
831.082	0.0177920
831.160	0.0177625
831.238	0.0178074
831.317	0.0176817
831.395	0.0175632
831.473	0.0177498
831.551	0.0175766
831.629	0.0175928
831.707	0.0175774
831.785	0.0175311
831.863	0.0176580
831.942	0.0176927
832.020	0.0174203
832.098	0.0174835
832.176	0.0174637
832.254	0.0175592
832.332	0.0177390
832.410	0.0175973
832.488	0.0175529
832.567	0.0176601
832.645	0.0176989
832.723	0.0176973
832.801	0.0178226
832.879	0.0178996
832.957	0.0178658
833.035	0.0178225
833.113	0.0179376
833.192	0.0178239
833.270	0.0179565
833.348	0.0179942
833.426	0.0180512
833.504	0.0180729
833.582	0.0178173
833.660	0.0179205
833.738	0.0179095
833.817	0.0178164
833.895	0.0178275
833.973	0.0178732
834.051	0.0177312
834.129	0.0177690
834.207	0.0175993
834.285	0.0175887
834.363	0.0176860
834.442	0.0175026
834.520	0.0175796
834.598	0.0174200
834.676	0.0177283
834.754	0.0174802
834.832	0.0174146
834.910	0.0174202
834.988	0.0174287
835.067	0.0173679
835.145	0.0175243
835.223	0.0173034
835.301	0.0173946
835.379	0.0174909
835.457	0.0173874
835.535	0.0173755
835.613	0.0174209
835.692	0.0173363
835.770	0.0174616
835.848	0.0173504
835.926	0.0173501
836.004	0.0173350
836.082	0.0172999
836.160	0.0173374
836.238	0.0174465
836.317	0.0172839
836.395	0.0172916
836.473	0.0172682
836.551	0.0173258
836.629	0.0172837
836.707	0.0173698
836.785	0.0175542
836.863	0.0173123
836.942	0.0173907
837.020	0.0173673
837.098	0.0173402
837.176	0.0173395
837.254	0.0174842
837.332	0.0174619
837.410	0.0173678
837.488	0.0174204
837.567	0.0175864
837.645	0.0175645
837.723	0.0174696
837.801	0.0175623
837.879	0.0175145
837.957	0.0175729
838.035	0.0175969
838.113	0.0176408
838.192	0.0176780
838.270	0.0177029
838.348	0.0177727
838.426	0.0177769
838.504	0.0177211
838.582	0.0177480
838.660	0.0178869
838.738	0.0178468
838.817	0.0178335
838.895	0.0178945
838.973	0.0178423
839.051	0.0178142
839.129	0.0178426
839.207	0.0177663
839.285	0.0175991
839.363	0.0177207
839.442	0.0176653
839.520	0.0177185
839.598	0.0176620
839.676	0.0176284
839.754	0.0177546
839.832	0.0175739
839.910	0.0175262
839.988	0.0177083
840.067	0.0178262
840.145	0.0178128
840.223	0.0177006
840.301	0.0176803
840.379	0.0178473
840.457	0.0177582
840.535	0.0178046
840.613	0.0178155
840.692	0.0179057
840.770	0.0180286
840.848	0.0179727
840.926	0.0179049
841.004	0.0178188
841.082	0.0178875
841.160	0.0179079
841.238	0.0178974
841.317	0.0179017
841.395	0.0179286
841.473	0.0179039
841.551	0.0178609
841.629	0.0177515
841.707	0.0178944
841.785	0.0179094
841.863	0.0178816
841.942	0.0178699
842.020	0.0178001
842.098	0.0178779
842.176	0.0179292
842.254	0.0178727
842.332	0.0178893
842.410	0.0178510
842.488	0.0179106
842.567	0.0179681
842.645	0.0178436
842.723	0.0180546
842.801	0.0180431
842.879	0.0178988
842.957	0.0178941
843.035	0.0178214
843.113	0.0178812
843.192	0.0179691
843.270	0.0179008
843.348	0.0178268
843.426	0.0179299
843.504	0.0178869
843.582	0.0178094
843.660	0.0178885
843.738	0.0179539
843.817	0.0179057
843.895	0.0179003
843.973	0.0178770
844.051	0.0178665
844.129	0.0180339
844.207	0.0178336
844.285	0.0176935
844.363	0.0179005
844.442	0.0179134
844.520	0.0178902
844.598	0.0177631
844.676	0.0178139
844.754	0.0177473
844.832	0.0177080
844.910	0.0177410
844.988	0.0178249
845.067	0.0178619
845.145	0.0177894
845.223	0.0177813
845.301	0.0179613
845.379	0.0178369
845.457	0.0178157
845.535	0.0180556
845.613	0.0179907
845.692	0.0179623
845.770	0.0178517
845.848	0.0180096
845.926	0.0180612
846.004	0.0180077
846.082	0.0180439
846.160	0.0180385
846.238	0.0181184
846.317	0.0180801
846.395	0.0180649
846.473	0.0180022
846.551	0.0178732
846.629	0.0180256
846.707	0.0180202
846.785	0.0179128
846.863	0.0178761
846.942	0.0179350
847.020	0.0176863
847.098	0.0179445
847.176	0.0178392
847.254	0.0178644
847.332	0.0178185
847.410	0.0178550
847.488	0.0177606
847.567	0.0178028
847.645	0.0177782
847.723	0.0179348
847.801	0.0178010
847.879	0.0177451
847.957	0.0178696
848.035	0.0178149
848.113	0.0177359
848.192	0.0179234
848.270	0.0177736
848.348	0.0177618
848.426	0.0177391
848.504	0.0178524
848.582	0.0177823
848.660	0.0176819
848.738	0.0177541
848.817	0.0178170
848.895	0.0177593
848.973	0.0175407
849.051	0.0176308
849.129	0.0176099
849.207	0.0175798
849.285	0.0176392
849.363	0.0175930
849.442	0.0176633
849.520	0.0174365
849.598	0.0174500
849.676	0.0174709
849.754	0.0174763
849.832	0.0175815
849.910	0.0174185
849.988	0.0174635
850.067	0.0174226
850.145	0.0173083
850.223	0.0175083
850.301	0.0175197
850.379	0.0175012
850.457	0.0174162
850.535	0.0173229
850.613	0.0174964
850.692	0.0173093
850.770	0.0174384
850.848	0.0174816
850.926	0.0173212
851.004	0.0174046
851.082	0.0173576
851.160	0.0172974
851.238	0.0174618
851.317	0.0173941
851.395	0.0174467
851.473	0.0175697
851.551	0.0176328
851.629	0.0176811
851.707	0.0177420
851.785	0.0176911
851.863	0.0177531
851.942	0.0178648
852.020	0.0179583
852.098	0.0178613
852.176	0.0178995
852.254	0.0179612
852.332	0.0179562
852.410	0.0179907
852.488	0.0179754
852.567	0.0180686
852.645	0.0181050
852.723	0.0180813
852.801	0.0181219
852.879	0.0180531
852.957	0.0181244
853.035	0.0180504
853.113	0.0179300
853.192	0.0180393
853.270	0.0180330
853.348	0.0180507
853.426	0.0179942
853.504	0.0179816
853.582	0.0178848
853.660	0.0180040
853.738	0.0178758
853.817	0.0180520
853.895	0.0179504
853.973	0.0179565
854.051	0.0178482
854.129	0.0178948
854.207	0.0180188
854.285	0.0180512
854.363	0.0179457
854.442	0.0180032
854.520	0.0180234
854.598	0.0180025
854.676	0.0180637
854.754	0.0179343
854.832	0.0180849
854.910	0.0180976
854.988	0.0180962
855.067	0.0179549
855.145	0.0181133
855.223	0.0179730
855.301	0.0180856
855.379	0.0180161
855.457	0.0179257
855.535	0.0180407
855.613	0.0181039
855.692	0.0180290
855.770	0.0179518
855.848	0.0178735
855.926	0.0179344
856.004	0.0178192
856.082	0.0178838
856.160	0.0179320
856.238	0.0178201
856.317	0.0177972
856.395	0.0178979
856.473	0.0179050
856.551	0.0177393
856.629	0.0179652
856.707	0.0178090
856.785	0.0177903
856.863	0.0178544
856.942	0.0178934
857.020	0.0178030
857.098	0.0179232
857.176	0.0180028
857.254	0.0177836
857.332	0.0177872
857.410	0.0179764
857.488	0.0179835
857.567	0.0180444
857.645	0.0178812
857.723	0.0179457
857.801	0.0179868
857.879	0.0178619
857.957	0.0181042
858.035	0.0181346
858.113	0.0180050
858.192	0.0179539
858.270	0.0180067
858.348	0.0180261
858.426	0.0179651
858.504	0.0179088
858.582	0.0180545
858.660	0.0180640
858.738	0.0179367
858.817	0.0180779
858.895	0.0180144
858.973	0.0179608
859.051	0.0179763
859.129	0.0180856
859.207	0.0181559
859.285	0.0179682
859.363	0.0180168
859.442	0.0182255
859.520	0.0180806
859.598	0.0181117
859.676	0.0181773
859.754	0.0180614
859.832	0.0181075
859.910	0.0180791
859.988	0.0180630
860.067	0.0181211
860.145	0.0182106
860.223	0.0182050
860.301	0.0182894
860.379	0.0183195
860.457	0.0181512
860.535	0.0182757
860.613	0.0183164
860.692	0.0182691
860.770	0.0182225
860.848	0.0182773
860.926	0.0182510
861.004	0.0182263
861.082	0.0180495
861.160	0.0181281
861.238	0.0181407
861.317	0.0180147
861.395	0.0180013
861.473	0.0179395
861.551	0.0178728
861.629	0.0178863
861.707	0.0179181
861.785	0.0179059
861.863	0.0178159
861.942	0.0177834
862.020	0.0180259
862.098	0.0179227
862.176	0.0180476
862.254	0.0179922
862.332	0.0178950
862.410	0.0179993
862.488	0.0180309
862.567	0.0181441
862.645	0.0179884
862.723	0.0179490
862.801	0.0181000
862.879	0.0179990
862.957	0.0179441
863.035	0.0178289
863.113	0.0179089
863.192	0.0179308
863.270	0.0177495
863.348	0.0177677
863.426	0.0177866
863.504	0.0177624
863.582	0.0178154
863.660	0.0177193
863.738	0.0177279
863.817	0.0177558
863.895	0.0176663
863.973	0.0176514
864.051	0.0176910
864.129	0.0177773
864.207	0.0177651
864.285	0.0177175
864.363	0.0177325
864.442	0.0178413
864.520	0.0177887
864.598	0.0179015
864.676	0.0178557
864.754	0.0178979
864.832	0.0179700
864.910	0.0178951
864.988	0.0179231
865.067	0.0179835
865.145	0.0179886
865.223	0.0178584
865.301	0.0179204
865.379	0.0179365
865.457	0.0181233
865.535	0.0179889
865.613	0.0180867
865.692	0.0181467
865.770	0.0179948
865.848	0.0180587
865.926	0.0180273
866.004	0.0180664
866.082	0.0180685
866.160	0.0181185
866.238	0.0181304
866.317	0.0181046
866.395	0.0180298
866.473	0.0181402
866.551	0.0180679
866.629	0.0179890
866.707	0.0180885
866.785	0.0182240
866.863	0.0181711
866.942	0.0179351
867.020	0.0179810
867.098	0.0180273
867.176	0.0180360
867.254	0.0180297
867.332	0.0179633
867.410	0.0180846
867.488	0.0180004
867.567	0.0179585
867.645	0.0179618
867.723	0.0180774
867.801	0.0180154
867.879	0.0179588
867.957	0.0179848
868.035	0.0180691
868.113	0.0179835
868.192	0.0180933
868.270	0.0180209
868.348	0.0180424
868.426	0.0179108
868.504	0.0178672
868.582	0.0180986
868.660	0.0179306
868.738	0.0178999
868.817	0.0179523
868.895	0.0179355
868.973	0.0177745
869.051	0.0178264
869.129	0.0177974
869.207	0.0176480
869.285	0.0178304
869.363	0.0176231
869.442	0.0179001
869.520	0.0177382
869.598	0.0178556
869.676	0.0178841
869.754	0.0178172
869.832	0.0178500
869.910	0.0180169
869.988	0.0178620
870.067	0.0178765
870.145	0.0178479
870.223	0.0178381
870.301	0.0177834
870.379	0.0176900
870.457	0.0177214
870.535	0.0176705
870.613	0.0175647
870.692	0.0176221
870.770	0.0176552
870.848	0.0176635
870.926	0.0174841
871.004	0.0175814
871.082	0.0175381
871.160	0.0177510
871.238	0.0177243
871.317	0.0177198
871.395	0.0178344
871.473	0.0179642
871.551	0.0179297
871.629	0.0180679
871.707	0.0182514
871.785	0.0181858
871.863	0.0180029
871.942	0.0181052
872.020	0.0181128
872.098	0.0180760
872.176	0.0180180
872.254	0.0180869
872.332	0.0179872
872.410	0.0180942
872.488	0.0180848
872.567	0.0182153
872.645	0.0180415
872.723	0.0179580
872.801	0.0181551
872.879	0.0180846
872.957	0.0180990
873.035	0.0178506
873.113	0.0179990
873.192	0.0181796
873.270	0.0180750
873.348	0.0181662
873.426	0.0182200
873.504	0.0181582
873.582	0.0181199
873.660	0.0182102
873.738	0.0182000
873.817	0.0181314
873.895	0.0181382
873.973	0.0182010
874.051	0.0181944
874.129	0.0181424
874.207	0.0181133
874.285	0.0181996
874.363	0.0181869
874.442	0.0180128
874.520	0.0180478
874.598	0.0180543
874.676	0.0180669
874.754	0.0180103
874.832	0.0179657
874.910	0.0178433
874.988	0.0178989
875.067	0.0178733
875.145	0.0178087
875.223	0.0178218
875.301	0.0177747
875.379	0.0178561
875.457	0.0179346
875.535	0.0179504
875.613	0.0178879
875.692	0.0178313
875.770	0.0179874
875.848	0.0179169
875.926	0.0177952
876.004	0.0179105
876.082	0.0178383
876.160	0.0178339
876.238	0.0178526
876.317	0.0178452
876.395	0.0178999
876.473	0.0178679
876.551	0.0179238
876.629	0.0180869
876.707	0.0178848
876.785	0.0179066
876.863	0.0179136
876.942	0.0178809
877.020	0.0178937
877.098	0.0179314
877.176	0.0178323
877.254	0.0178029
877.332	0.0179742
877.410	0.0178756
877.488	0.0177965
877.567	0.0178387
877.645	0.0177410
877.723	0.0177454
877.801	0.0177738
877.879	0.0178635
877.957	0.0178131
878.035	0.0177357
878.113	0.0177538
878.192	0.0178026
878.270	0.0178725
878.348	0.0176698
878.426	0.0177724
878.504	0.0176579
878.582	0.0176746
878.660	0.0177347
878.738	0.0176428
878.817	0.0175751
878.895	0.0176932
878.973	0.0176128
879.051	0.0175954
879.129	0.0175825
879.207	0.0175909
879.285	0.0176893
879.363	0.0173968
879.442	0.0175958
879.520	0.0174982
879.598	0.0176389
879.676	0.0177114
879.754	0.0176937
879.832	0.0176908
879.910	0.0177838
879.988	0.0176928
880.067	0.0177563
880.145	0.0178390
880.223	0.0177322
880.301	0.0176713
880.379	0.0177955
880.457	0.0178406
880.535	0.0177721
880.613	0.0177866
880.692	0.0177917
880.770	0.0179738
880.848	0.0178110
880.926	0.0179060
881.004	0.0178540
881.082	0.0180130
881.160	0.0180106
881.238	0.0178191
881.317	0.0179101
881.395	0.0179442
881.473	0.0180157
881.551	0.0180000
881.629	0.0180289
881.707	0.0181350
881.785	0.0181472
881.863	0.0181456
881.942	0.0181944
882.020	0.0183010
882.098	0.0182553
882.176	0.0182825
882.254	0.0183399
882.332	0.0182497
882.410	0.0183706
882.488	0.0183130
882.567	0.0182947
882.645	0.0183199
882.723	0.0182622
882.801	0.0183498
882.879	0.0182463
882.957	0.0183120
883.035	0.0182550
883.113	0.0183103
883.192	0.0182928
883.270	0.0182758
883.348	0.0182725
883.426	0.0181667
883.504	0.0182159
883.582	0.0183279
883.660	0.0182143
883.738	0.0182583
883.817	0.0181602
883.895	0.0183250
883.973	0.0183348
884.051	0.0182124
884.129	0.0184045
884.207	0.0182389
884.285	0.0181325
884.363	0.0182124
884.442	0.0182809
884.520	0.0183244
884.598	0.0182141
884.676	0.0181795
884.754	0.0183395
884.832	0.0180764
884.910	0.0181535
884.988	0.0180991
885.067	0.0181348
885.145	0.0181889
885.223	0.0179676
885.301	0.0179762
885.379	0.0179925
885.457	0.0180793
885.535	0.0180852
885.613	0.0180548
885.692	0.0180965
885.770	0.0181503
885.848	0.0181219
885.926	0.0180769
886.004	0.0179286
886.082	0.0178103
886.160	0.0180537
886.238	0.0179333
886.317	0.0179609
886.395	0.0180438
886.473	0.0180990
886.551	0.0179654
886.629	0.0178887
886.707	0.0178799
886.785	0.0179352
886.863	0.0178149
886.942	0.0178201
887.020	0.0178127
887.098	0.0178458
887.176	0.0178947
887.254	0.0178380
887.332	0.0177995
887.410	0.0178934
887.488	0.0179106
887.567	0.0179800
887.645	0.0179323
887.723	0.0178755
887.801	0.0179293
887.879	0.0180622
887.957	0.0181034
888.035	0.0181551
888.113	0.0179726
888.192	0.0180415
888.270	0.0180865
888.348	0.0180833
888.426	0.0180393
888.504	0.0180849
888.582	0.0180600
888.660	0.0178000
888.738	0.0178846
888.817	0.0178767
888.895	0.0178920
888.973	0.0177898
889.051	0.0176937
889.129	0.0178082
889.207	0.0176826
889.285	0.0176986
889.363	0.0177551
889.442	0.0177898
889.520	0.0178331
889.598	0.0177224
889.676	0.0178465
889.754	0.0177717
889.832	0.0180059
889.910	0.0179125
889.988	0.0179675
890.067	0.0180601
890.145	0.0180508
890.223	0.0180087
890.301	0.0180727
890.379	0.0181669
890.457	0.0181291
890.535	0.0181190
890.613	0.0180360
890.692	0.0180630
890.770	0.0179761
890.848	0.0178098
890.926	0.0179572
891.004	0.0179364
891.082	0.0179605
891.160	0.0179730
891.238	0.0179399
891.317	0.0180702
891.395	0.0178391
891.473	0.0176994
891.551	0.0178973
891.629	0.0179319
891.707	0.0180410
891.785	0.0180918
891.863	0.0178871
891.942	0.0179228
892.020	0.0180539
892.098	0.0181176
892.176	0.0180058
892.254	0.0178374
892.332	0.0178838
892.410	0.0179549
892.488	0.0179149
892.567	0.0179221
892.645	0.0179430
892.723	0.0178394
892.801	0.0179579
892.879	0.0178417
892.957	0.0177673
893.035	0.0178648
893.113	0.0179014
893.192	0.0178069
893.270	0.0178354
893.348	0.0176999
893.426	0.0178777
893.504	0.0179709
893.582	0.0179008
893.660	0.0179475
893.738	0.0179333
893.817	0.0178246
893.895	0.0179344
893.973	0.0179408
894.051	0.0177980
894.129	0.0178810
894.207	0.0177694
894.285	0.0177254
894.363	0.0176961
894.442	0.0177470
894.520	0.0176592
894.598	0.0176150
894.676	0.0175930
894.754	0.0176220
894.832	0.0176466
894.910	0.0174854
894.988	0.0175398
895.067	0.0175114
895.145	0.0175031
895.223	0.0174114
895.301	0.0173483
895.379	0.0173766
895.457	0.0173879
895.535	0.0172916
895.613	0.0172972
895.692	0.0173234
895.770	0.0172207
895.848	0.0173013
895.926	0.0173051
896.004	0.0173915
896.082	0.0174378
896.160	0.0174617
896.238	0.0174386
896.317	0.0174609
896.395	0.0174373
896.473	0.0177415
896.551	0.0175367
896.629	0.0176420
896.707	0.0176342
896.785	0.0177016
896.863	0.0177456
896.942	0.0176884
897.020	0.0177380
897.098	0.0175755
897.176	0.0176765
897.254	0.0179177
897.332	0.0178350
897.410	0.0176309
897.488	0.0179223
897.567	0.0177539
897.645	0.0177595
897.723	0.0178975
897.801	0.0178906
897.879	0.0179900
897.957	0.0179652
898.035	0.0178972
898.113	0.0179396
898.192	0.0180805
898.270	0.0181964
898.348	0.0181026
898.426	0.0181131
898.504	0.0180662
898.582	0.0181461
898.660	0.0179816
898.738	0.0180419
898.817	0.0180514
898.895	0.0179256
898.973	0.0178356
899.051	0.0178982
899.129	0.0177390
899.207	0.0179060
899.285	0.0178964
899.363	0.0177452
899.442	0.0177331
899.520	0.0177520
899.598	0.0176127
899.676	0.0177435
899.754	0.0176305
899.832	0.0175814
899.910	0.0174519
899.988	0.0174303
900.067	0.0176341
900.145	0.0173547
900.223	0.0174544
900.301	0.0174528
900.379	0.0174035
900.457	0.0174979
900.535	0.0175160
900.613	0.0176471
900.692	0.0175951
900.770	0.0177338
900.848	0.0177608
900.926	0.0177972
901.004	0.0180032
901.082	0.0179101
901.160	0.0179700
901.238	0.0180314
901.317	0.0181623
901.395	0.0179865
901.473	0.0178727
901.551	0.0177637
901.629	0.0178387
901.707	0.0177723
901.785	0.0176517
901.863	0.0175371
901.942	0.0175565
902.020	0.0175423
902.098	0.0174155
902.176	0.0172826
902.254	0.0173839
902.332	0.0175320
902.410	0.0174973
902.488	0.0174257
902.567	0.0174072
902.645	0.0174068
902.723	0.0175195
902.801	0.0175573
902.879	0.0173903
902.957	0.0174245
903.035	0.0176363
903.113	0.0175581
903.192	0.0175749
903.270	0.0176383
903.348	0.0177595
903.426	0.0176794
903.504	0.0176284
903.582	0.0178651
903.660	0.0178053
903.738	0.0178912
903.817	0.0177596
903.895	0.0177834
903.973	0.0178259
904.051	0.0178120
904.129	0.0177827
904.207	0.0176824
904.285	0.0177067
904.363	0.0178815
904.442	0.0177415
904.520	0.0178317
904.598	0.0178336
904.676	0.0179009
904.754	0.0178440
904.832	0.0178080
904.910	0.0178286
904.988	0.0178506
905.067	0.0178737
905.145	0.0178334
905.223	0.0180066
905.301	0.0179175
905.379	0.0179848
905.457	0.0179218
905.535	0.0178530
905.613	0.0179240
905.692	0.0179744
905.770	0.0179458
905.848	0.0178514
905.926	0.0178418
906.004	0.0180037
906.082	0.0178479
906.160	0.0178128
906.238	0.0178439
906.317	0.0179201
906.395	0.0178592
906.473	0.0178938
906.551	0.0179353
906.629	0.0180826
906.707	0.0180537
906.785	0.0180804
906.863	0.0179147
906.942	0.0179642
907.020	0.0180024
907.098	0.0179191
907.176	0.0179231
907.254	0.0178223
907.332	0.0177882
907.410	0.0177057
907.488	0.0178011
907.567	0.0177206
907.645	0.0175978
907.723	0.0175352
907.801	0.0175642
907.879	0.0175124
907.957	0.0175804
908.035	0.0173953
908.113	0.0174324
908.192	0.0174496
908.270	0.0174667
908.348	0.0174697
908.426	0.0175224
908.504	0.0174708
908.582	0.0175240
908.660	0.0175081
908.738	0.0175727
908.817	0.0175652
908.895	0.0176450
908.973	0.0177636
909.051	0.0177303
909.129	0.0176102
909.207	0.0177201
909.285	0.0177538
909.363	0.0176253
909.442	0.0176943
909.520	0.0178134
909.598	0.0178520
909.676	0.0178313
909.754	0.0177699
909.832	0.0177786
909.910	0.0178929
909.988	0.0178337
910.067	0.0178211
910.145	0.0177086
910.223	0.0178351
910.301	0.0178094
910.379	0.0179555
910.457	0.0178666
910.535	0.0178741
910.613	0.0178143
910.692	0.0178796
910.770	0.0179130
910.848	0.0178237
910.926	0.0180048
911.004	0.0178127
911.082	0.0177503
911.160	0.0177995
911.238	0.0177497
911.317	0.0175812
911.395	0.0175888
911.473	0.0176577
911.551	0.0176208
911.629	0.0175886
911.707	0.0175389
911.785	0.0174633
911.863	0.0174949
911.942	0.0175578
912.020	0.0174560
912.098	0.0173623
912.176	0.0174529
912.254	0.0172177
912.332	0.0172505
912.410	0.0173074
912.488	0.0174932
912.567	0.0172932
912.645	0.0172462
912.723	0.0172450
912.801	0.0173493
912.879	0.0172780
912.957	0.0174580
913.035	0.0173536
913.113	0.0174075
913.192	0.0174677
913.270	0.0175442
913.348	0.0174927
913.426	0.0174073
913.504	0.0174922
913.582	0.0174821
913.660	0.0174755
913.738	0.0175466
913.817	0.0175831
913.895	0.0174821
913.973	0.0175063
914.051	0.0174248
914.129	0.0173863
914.207	0.0174745
914.285	0.0173903
914.363	0.0174332
914.442	0.0175608
914.520	0.0173950
914.598	0.0174431
914.676	0.0172354
914.754	0.0173226
914.832	0.0173454
914.910	0.0172976
914.988	0.0173486
915.067	0.0173100
915.145	0.0174336
915.223	0.0174401
915.301	0.0174203
915.379	0.0175046
915.457	0.0176118
915.535	0.0175584
915.613	0.0175611
915.692	0.0175498
915.770	0.0176083
915.848	0.0175584
915.926	0.0176180
916.004	0.0175054
916.082	0.0176289
916.160	0.0178413
916.238	0.0177153
916.317	0.0176102
916.395	0.0177792
916.473	0.0178349
916.551	0.0178139
916.629	0.0176610
916.707	0.0177200
916.785	0.0177055
916.863	0.0177184
916.942	0.0178178
917.020	0.0177631
917.098	0.0178855
917.176	0.0178231
917.254	0.0177717
917.332	0.0178717
917.410	0.0178826
917.488	0.0178471
917.567	0.0178521
917.645	0.0177753
917.723	0.0176908
917.801	0.0176144
917.879	0.0177679
917.957	0.0176516
918.035	0.0177739
918.113	0.0177017
918.192	0.0177531
918.270	0.0176871
918.348	0.0177159
918.426	0.0176251
918.504	0.0177051
918.582	0.0177278
918.660	0.0175932
918.738	0.0175022
918.817	0.0176542
918.895	0.0177295
918.973	0.0176146
919.051	0.0175568
919.129	0.0175907
919.207	0.0175479
919.285	0.0174583
919.363	0.0175736
919.442	0.0175319
919.520	0.0175760
919.598	0.0175927
919.676	0.0177838
919.754	0.0176496
919.832	0.0176809
919.910	0.0177069
