06/01/2022	21:33:32	Ver.	4.1	UNKNOWN
Optical Delay	599.988409	Delta X		0.078125	Sweeps	1	Scan Rate	0/0
Coordinates	Axis 1	NaN	Axis 2	NaN	Axis 3	NaN	Axis 4	NaN	Axis 5	NaN	Axis 6	0.000000
TX Power	0.000000	RX Power	0.000000

599.988	0.0177679
600.067	0.0177600
600.145	0.0177882
600.223	0.0176321
600.301	0.0177029
600.379	0.0176591
600.457	0.0177386
600.535	0.0177151
600.613	0.0177393
600.692	0.0177069
600.770	0.0176544
600.848	0.0177097
600.926	0.0177423
601.004	0.0176524
601.082	0.0178059
601.160	0.0178711
601.238	0.0178211
601.317	0.0176599
601.395	0.0177306
601.473	0.0176571
601.551	0.0177142
601.629	0.0177319
601.707	0.0177606
601.785	0.0177192
601.863	0.0176874
601.942	0.0177145
602.020	0.0176836
602.098	0.0177376
602.176	0.0179166
602.254	0.0179025
602.332	0.0177352
602.410	0.0178280
602.488	0.0178127
602.567	0.0178452
602.645	0.0176922
602.723	0.0178635
602.801	0.0177278
602.879	0.0177112
602.957	0.0178500
603.035	0.0176287
603.113	0.0176871
603.192	0.0178000
603.270	0.0178378
603.348	0.0178410
603.426	0.0177487
603.504	0.0177827
603.582	0.0176884
603.660	0.0177259
603.738	0.0177781
603.817	0.0177074
603.895	0.0177798
603.973	0.0177521
604.051	0.0176747
604.129	0.0179225
604.207	0.0179069
604.285	0.0177853
604.363	0.0176696
604.442	0.0177330
604.520	0.0178390
604.598	0.0178050
604.676	0.0178208
604.754	0.0177045
604.832	0.0177880
604.910	0.0177338
604.988	0.0177583
605.067	0.0178751
605.145	0.0177522
605.223	0.0177959
605.301	0.0176788
605.379	0.0177434
605.457	0.0177979
605.535	0.0178454
605.613	0.0178350
605.692	0.0178040
605.770	0.0177335
605.848	0.0175647
605.926	0.0177153
606.004	0.0177403
606.082	0.0176345
606.160	0.0177241
606.238	0.0178150
606.317	0.0177874
606.395	0.0176499
606.473	0.0178274
606.551	0.0178748
606.629	0.0176398
606.707	0.0175547
606.785	0.0178408
606.863	0.0177853
606.942	0.0177763
607.020	0.0177464
607.098	0.0178784
607.176	0.0177878
607.254	0.0178452
607.332	0.0177171
607.410	0.0177462
607.488	0.0176620
607.567	0.0177240
607.645	0.0178158
607.723	0.0178830
607.801	0.0178606
607.879	0.0178143
607.957	0.0177736
608.035	0.0177341
608.113	0.0177195
608.192	0.0177729
608.270	0.0179144
608.348	0.0178819
608.426	0.0176922
608.504	0.0177506
608.582	0.0176687
608.660	0.0177425
608.738	0.0178991
608.817	0.0178112
608.895	0.0177431
608.973	0.0177289
609.051	0.0176664
609.129	0.0176199
609.207	0.0178075
609.285	0.0178349
609.363	0.0178130
609.442	0.0176457
609.520	0.0177354
609.598	0.0176756
609.676	0.0176642
609.754	0.0176781
609.832	0.0176649
609.910	0.0177461
609.988	0.0177542
610.067	0.0177946
610.145	0.0177719
610.223	0.0176439
610.301	0.0177957
610.379	0.0176336
610.457	0.0176436
610.535	0.0178851
610.613	0.0178909
610.692	0.0177518
610.770	0.0177338
610.848	0.0177209
610.926	0.0175615
611.004	0.0177797
611.082	0.0179787
611.160	0.0177120
611.238	0.0175970
611.317	0.0177117
611.395	0.0177962
611.473	0.0176862
611.551	0.0177164
611.629	0.0177051
611.707	0.0178625
611.785	0.0177441
611.863	0.0176575
611.942	0.0176830
612.020	0.0178590
612.098	0.0178362
612.176	0.0177447
612.254	0.0176995
612.332	0.0178033
612.410	0.0178161
612.488	0.0177097
612.567	0.0176452
612.645	0.0178371
612.723	0.0177490
612.801	0.0175717
612.879	0.0177123
612.957	0.0176736
613.035	0.0176880
613.113	0.0177061
613.192	0.0177293
613.270	0.0177795
613.348	0.0178196
613.426	0.0178139
613.504	0.0177513
613.582	0.0177039
613.660	0.0177450
613.738	0.0177531
613.817	0.0177429
613.895	0.0177812
613.973	0.0177917
614.051	0.0177734
614.129	0.0177955
614.207	0.0177637
614.285	0.0176843
614.363	0.0177085
614.442	0.0178558
614.520	0.0177119
614.598	0.0177487
614.676	0.0177602
614.754	0.0176694
614.832	0.0176640
614.910	0.0177769
614.988	0.0176995
615.067	0.0176246
615.145	0.0175954
615.223	0.0175249
615.301	0.0176334
615.379	0.0177293
615.457	0.0178106
615.535	0.0176113
615.613	0.0177318
615.692	0.0176499
615.770	0.0178019
615.848	0.0179150
615.926	0.0178631
616.004	0.0179573
616.082	0.0178094
616.160	0.0177653
616.238	0.0177724
616.317	0.0178535
616.395	0.0178906
616.473	0.0179015
616.551	0.0178694
616.629	0.0178642
616.707	0.0177286
616.785	0.0176585
616.863	0.0177751
616.942	0.0177943
617.020	0.0177914
617.098	0.0176510
617.176	0.0177538
617.254	0.0177483
617.332	0.0176900
617.410	0.0176638
617.488	0.0175499
617.567	0.0176171
617.645	0.0177092
617.723	0.0176879
617.801	0.0178076
617.879	0.0177045
617.957	0.0176827
618.035	0.0176647
618.113	0.0176660
618.192	0.0177979
618.270	0.0177849
618.348	0.0177183
618.426	0.0178699
618.504	0.0178754
618.582	0.0177312
618.660	0.0178049
618.738	0.0178467
618.817	0.0178798
618.895	0.0178300
618.973	0.0177316
619.051	0.0176881
619.129	0.0177721
619.207	0.0177254
619.285	0.0178490
619.363	0.0177518
619.442	0.0177005
619.520	0.0177631
619.598	0.0177959
619.676	0.0176563
619.754	0.0176810
619.832	0.0177863
619.910	0.0177222
619.988	0.0178052
620.067	0.0177941
620.145	0.0176628
620.223	0.0178598
620.301	0.0178001
620.379	0.0178091
620.457	0.0177843
620.535	0.0177288
620.613	0.0177595
620.692	0.0177602
620.770	0.0178103
620.848	0.0178002
620.926	0.0177642
621.004	0.0177298
621.082	0.0177857
621.160	0.0177172
621.238	0.0178025
621.317	0.0177779
621.395	0.0176232
621.473	0.0176343
621.551	0.0175871
621.629	0.0178214
621.707	0.0176727
621.785	0.0176242
621.863	0.0177003
621.942	0.0176993
622.020	0.0177306
622.098	0.0176895
622.176	0.0177460
622.254	0.0177573
622.332	0.0178687
622.410	0.0177239
622.488	0.0177074
622.567	0.0178214
622.645	0.0177605
622.723	0.0177439
622.801	0.0177068
622.879	0.0176451
622.957	0.0176361
623.035	0.0176535
623.113	0.0177048
623.192	0.0176913
623.270	0.0177612
623.348	0.0176748
623.426	0.0176529
623.504	0.0178259
623.582	0.0177014
623.660	0.0177909
623.738	0.0178221
623.817	0.0177377
623.895	0.0176620
623.973	0.0177670
624.051	0.0176797
624.129	0.0176475
624.207	0.0177206
624.285	0.0177060
624.363	0.0178539
624.442	0.0177669
624.520	0.0176197
624.598	0.0177402
624.676	0.0177695
624.754	0.0176173
624.832	0.0176897
624.910	0.0177695
624.988	0.0177222
625.067	0.0176524
625.145	0.0177238
625.223	0.0177607
625.301	0.0177198
625.379	0.0176838
625.457	0.0176353
625.535	0.0178060
625.613	0.0176717
625.692	0.0177206
625.770	0.0176768
625.848	0.0177415
625.926	0.0176530
626.004	0.0176308
626.082	0.0177261
626.160	0.0177882
626.238	0.0178014
626.317	0.0177144
626.395	0.0177459
626.473	0.0177937
626.551	0.0177265
626.629	0.0176815
626.707	0.0176257
626.785	0.0179013
626.863	0.0178546
626.942	0.0177428
627.020	0.0177205
627.098	0.0176935
627.176	0.0177596
627.254	0.0176915
627.332	0.0176217
627.410	0.0177388
627.488	0.0177438
627.567	0.0177305
627.645	0.0176868
627.723	0.0177460
627.801	0.0176187
627.879	0.0177510
627.957	0.0177901
628.035	0.0176133
628.113	0.0176893
628.192	0.0178546
628.270	0.0177467
628.348	0.0177819
628.426	0.0177737
628.504	0.0178671
628.582	0.0177794
628.660	0.0178316
628.738	0.0177743
628.817	0.0176366
628.895	0.0178443
628.973	0.0177346
629.051	0.0175820
629.129	0.0178279
629.207	0.0179843
629.285	0.0178587
629.363	0.0177621
629.442	0.0177059
629.520	0.0176608
629.598	0.0178394
629.676	0.0177379
629.754	0.0177225
629.832	0.0176131
629.910	0.0178368
629.988	0.0176783
630.067	0.0177612
630.145	0.0177859
630.223	0.0176340
630.301	0.0177535
630.379	0.0176196
630.457	0.0177353
630.535	0.0177814
630.613	0.0178108
630.692	0.0177428
630.770	0.0177405
630.848	0.0175566
630.926	0.0176987
631.004	0.0177821
631.082	0.0178242
631.160	0.0178368
631.238	0.0177430
631.317	0.0176840
631.395	0.0177592
631.473	0.0177797
631.551	0.0176202
631.629	0.0177116
631.707	0.0177594
631.785	0.0177560
631.863	0.0177976
631.942	0.0177261
632.020	0.0177328
632.098	0.0178360
632.176	0.0177295
632.254	0.0178055
632.332	0.0177512
632.410	0.0178661
632.488	0.0178773
632.567	0.0178461
632.645	0.0176743
632.723	0.0177159
632.801	0.0176945
632.879	0.0176486
632.957	0.0179784
633.035	0.0176915
633.113	0.0177548
633.192	0.0178443
633.270	0.0177409
633.348	0.0177636
633.426	0.0177396
633.504	0.0176503
633.582	0.0177983
633.660	0.0178090
633.738	0.0178019
633.817	0.0176031
633.895	0.0177808
633.973	0.0178996
634.051	0.0178744
634.129	0.0177285
634.207	0.0178522
634.285	0.0176414
634.363	0.0176382
634.442	0.0177686
634.520	0.0177648
634.598	0.0176961
634.676	0.0176830
634.754	0.0177996
634.832	0.0178017
634.910	0.0179282
634.988	0.0178134
635.067	0.0176982
635.145	0.0177056
635.223	0.0177156
635.301	0.0177952
635.379	0.0178298
635.457	0.0177464
635.535	0.0177914
635.613	0.0176817
635.692	0.0178251
635.770	0.0177679
635.848	0.0177609
635.926	0.0177422
636.004	0.0177909
636.082	0.0176830
636.160	0.0177039
636.238	0.0178171
636.317	0.0178099
636.395	0.0178544
636.473	0.0177934
636.551	0.0176722
636.629	0.0177039
636.707	0.0176943
636.785	0.0178361
636.863	0.0177271
636.942	0.0176786
637.020	0.0176591
637.098	0.0178855
637.176	0.0178099
637.254	0.0177411
637.332	0.0178036
637.410	0.0177859
637.488	0.0177174
637.567	0.0176521
637.645	0.0176234
637.723	0.0176855
637.801	0.0177364
637.879	0.0177458
637.957	0.0176790
638.035	0.0177182
638.113	0.0177124
638.192	0.0178086
638.270	0.0177084
638.348	0.0178060
638.426	0.0177731
638.504	0.0175692
638.582	0.0177714
638.660	0.0177963
638.738	0.0177481
638.817	0.0178337
638.895	0.0180064
638.973	0.0178484
639.051	0.0175999
639.129	0.0178263
639.207	0.0179079
639.285	0.0178403
639.363	0.0178548
639.442	0.0177411
639.520	0.0178625
639.598	0.0178687
639.676	0.0177030
639.754	0.0177586
639.832	0.0177712
639.910	0.0179024
639.988	0.0177528
640.067	0.0177663
640.145	0.0177110
640.223	0.0178516
640.301	0.0178016
640.379	0.0178133
640.457	0.0176897
640.535	0.0177366
640.613	0.0177593
640.692	0.0178427
640.770	0.0177309
640.848	0.0176775
640.926	0.0178491
641.004	0.0177433
641.082	0.0178053
641.160	0.0177822
641.238	0.0177637
641.317	0.0177712
641.395	0.0177372
641.473	0.0177370
641.551	0.0178027
641.629	0.0176985
641.707	0.0178522
641.785	0.0177816
641.863	0.0177203
641.942	0.0178139
642.020	0.0178068
642.098	0.0178466
642.176	0.0178362
642.254	0.0177558
642.332	0.0176221
642.410	0.0176201
642.488	0.0177396
642.567	0.0177924
642.645	0.0177213
642.723	0.0178177
642.801	0.0179103
642.879	0.0177605
642.957	0.0177129
643.035	0.0176765
643.113	0.0176631
643.192	0.0177990
643.270	0.0177579
643.348	0.0177888
643.426	0.0178391
643.504	0.0176855
643.582	0.0178207
643.660	0.0177630
643.738	0.0177890
643.817	0.0176311
643.895	0.0177471
643.973	0.0177563
644.051	0.0176516
644.129	0.0177357
644.207	0.0178185
644.285	0.0178348
644.363	0.0177541
644.442	0.0178236
644.520	0.0177639
644.598	0.0176468
644.676	0.0178194
644.754	0.0177775
644.832	0.0177112
644.910	0.0177514
644.988	0.0177306
645.067	0.0177522
645.145	0.0177747
645.223	0.0177329
645.301	0.0178130
645.379	0.0178661
645.457	0.0176503
645.535	0.0177067
645.613	0.0177055
645.692	0.0176255
645.770	0.0175974
645.848	0.0177375
645.926	0.0177049
646.004	0.0177632
646.082	0.0178148
646.160	0.0176707
646.238	0.0177622
646.317	0.0177464
646.395	0.0177441
646.473	0.0177735
646.551	0.0177445
646.629	0.0176234
646.707	0.0179301
646.785	0.0176981
646.863	0.0177781
646.942	0.0178336
647.020	0.0176558
647.098	0.0177174
647.176	0.0178481
647.254	0.0178195
647.332	0.0177414
647.410	0.0177023
647.488	0.0177157
647.567	0.0176129
647.645	0.0176859
647.723	0.0178160
647.801	0.0178619
647.879	0.0177608
647.957	0.0177511
648.035	0.0177364
648.113	0.0177038
648.192	0.0177905
648.270	0.0177066
648.348	0.0179152
648.426	0.0177549
648.504	0.0177621
648.582	0.0177869
648.660	0.0177790
648.738	0.0176419
648.817	0.0176506
648.895	0.0177959
648.973	0.0178007
649.051	0.0177832
649.129	0.0177766
649.207	0.0177428
649.285	0.0177104
649.363	0.0177480
649.442	0.0176846
649.520	0.0178062
649.598	0.0177262
649.676	0.0177859
649.754	0.0178344
649.832	0.0178246
649.910	0.0177469
649.988	0.0176751
650.067	0.0177158
650.145	0.0176881
650.223	0.0176405
650.301	0.0177795
650.379	0.0177755
650.457	0.0176909
650.535	0.0176403
650.613	0.0177810
650.692	0.0176715
650.770	0.0177777
650.848	0.0177706
650.926	0.0178014
651.004	0.0177965
651.082	0.0176974
651.160	0.0177241
651.238	0.0177855
651.317	0.0177485
651.395	0.0177613
651.473	0.0179205
651.551	0.0177221
651.629	0.0179071
651.707	0.0177857
651.785	0.0177935
651.863	0.0178749
651.942	0.0176406
652.020	0.0178116
652.098	0.0178201
652.176	0.0178555
652.254	0.0177066
652.332	0.0177773
652.410	0.0178242
652.488	0.0178375
652.567	0.0177610
652.645	0.0177336
652.723	0.0177507
652.801	0.0177278
652.879	0.0178474
652.957	0.0177833
653.035	0.0178381
653.113	0.0177683
653.192	0.0177885
653.270	0.0178077
653.348	0.0177242
653.426	0.0176231
653.504	0.0178400
653.582	0.0177981
653.660	0.0177261
653.738	0.0178015
653.817	0.0178479
653.895	0.0176669
653.973	0.0177557
654.051	0.0179303
654.129	0.0179474
654.207	0.0178812
654.285	0.0176836
654.363	0.0178744
654.442	0.0178486
654.520	0.0177663
654.598	0.0177285
654.676	0.0178004
654.754	0.0177625
654.832	0.0176898
654.910	0.0175769
654.988	0.0177183
655.067	0.0177464
655.145	0.0178723
655.223	0.0177688
655.301	0.0176870
655.379	0.0176431
655.457	0.0177892
655.535	0.0177277
655.613	0.0177895
655.692	0.0177085
655.770	0.0177162
655.848	0.0177374
655.926	0.0177378
656.004	0.0178099
656.082	0.0176855
656.160	0.0177685
656.238	0.0177895
656.317	0.0177148
656.395	0.0176908
656.473	0.0178842
656.551	0.0178000
656.629	0.0176753
656.707	0.0177640
656.785	0.0177544
656.863	0.0178160
656.942	0.0178439
657.020	0.0177450
657.098	0.0178292
657.176	0.0178400
657.254	0.0177548
657.332	0.0179015
657.410	0.0177294
657.488	0.0177712
657.567	0.0178678
657.645	0.0178780
657.723	0.0177200
657.801	0.0178407
657.879	0.0177613
657.957	0.0177183
658.035	0.0176700
658.113	0.0177692
658.192	0.0177505
658.270	0.0178362
658.348	0.0177661
658.426	0.0178056
658.504	0.0177190
658.582	0.0176733
658.660	0.0178408
658.738	0.0178358
658.817	0.0177714
658.895	0.0177705
658.973	0.0177676
659.051	0.0176285
659.129	0.0177831
659.207	0.0176518
659.285	0.0176685
659.363	0.0178239
659.442	0.0176368
659.520	0.0178423
659.598	0.0177154
659.676	0.0176897
659.754	0.0178726
659.832	0.0178385
659.910	0.0177469
659.988	0.0177287
660.067	0.0178747
660.145	0.0177755
660.223	0.0177795
660.301	0.0178581
660.379	0.0178703
660.457	0.0175163
660.535	0.0177238
660.613	0.0178153
660.692	0.0177560
660.770	0.0177884
660.848	0.0177064
660.926	0.0177220
661.004	0.0177887
661.082	0.0177861
661.160	0.0178950
661.238	0.0177545
661.317	0.0177130
661.395	0.0178003
661.473	0.0178672
661.551	0.0178531
661.629	0.0178616
661.707	0.0178397
661.785	0.0177914
661.863	0.0176766
661.942	0.0177037
662.020	0.0178155
662.098	0.0178226
662.176	0.0177284
662.254	0.0178012
662.332	0.0178930
662.410	0.0177211
662.488	0.0177509
662.567	0.0178957
662.645	0.0179882
662.723	0.0176730
662.801	0.0176537
662.879	0.0177623
662.957	0.0178100
663.035	0.0178789
663.113	0.0177760
663.192	0.0177299
663.270	0.0177558
663.348	0.0177000
663.426	0.0176914
663.504	0.0178296
663.582	0.0178516
663.660	0.0177295
663.738	0.0177335
663.817	0.0179568
663.895	0.0178371
663.973	0.0178102
664.051	0.0177911
664.129	0.0177143
664.207	0.0179156
664.285	0.0178914
664.363	0.0177887
664.442	0.0177258
664.520	0.0178878
664.598	0.0178021
664.676	0.0178312
664.754	0.0177288
664.832	0.0178175
664.910	0.0176982
664.988	0.0177169
665.067	0.0178664
665.145	0.0178752
665.223	0.0177560
665.301	0.0178167
665.379	0.0176974
665.457	0.0177652
665.535	0.0178028
665.613	0.0176515
665.692	0.0177905
665.770	0.0179342
665.848	0.0177214
665.926	0.0177952
666.004	0.0177927
666.082	0.0177096
666.160	0.0177277
666.238	0.0176503
666.317	0.0176807
666.395	0.0177522
666.473	0.0178302
666.551	0.0178434
666.629	0.0176848
666.707	0.0178402
666.785	0.0177168
666.863	0.0176712
666.942	0.0175737
667.020	0.0176707
667.098	0.0178766
667.176	0.0176965
667.254	0.0176698
667.332	0.0175964
667.410	0.0176536
667.488	0.0178492
667.567	0.0177029
667.645	0.0177299
667.723	0.0178006
667.801	0.0177435
667.879	0.0177729
667.957	0.0177567
668.035	0.0176963
668.113	0.0177283
668.192	0.0177345
668.270	0.0177720
668.348	0.0177418
668.426	0.0176473
668.504	0.0177056
668.582	0.0177747
668.660	0.0175613
668.738	0.0176311
668.817	0.0176930
668.895	0.0177438
668.973	0.0177582
669.051	0.0176690
669.129	0.0176589
669.207	0.0176231
669.285	0.0176614
669.363	0.0176386
669.442	0.0176701
669.520	0.0175816
669.598	0.0176406
669.676	0.0175806
669.754	0.0176235
669.832	0.0176558
669.910	0.0176022
669.988	0.0176834
670.067	0.0176925
670.145	0.0176888
670.223	0.0176832
670.301	0.0176920
670.379	0.0176485
670.457	0.0177084
670.535	0.0177648
670.613	0.0176334
670.692	0.0177863
670.770	0.0177601
670.848	0.0176764
670.926	0.0176369
671.004	0.0176201
671.082	0.0175980
671.160	0.0175614
671.238	0.0175847
671.317	0.0176769
671.395	0.0177413
671.473	0.0177617
671.551	0.0177430
671.629	0.0175964
671.707	0.0176334
671.785	0.0178025
671.863	0.0175638
671.942	0.0177499
672.020	0.0177058
672.098	0.0177625
672.176	0.0177969
672.254	0.0176005
672.332	0.0176553
672.410	0.0177369
672.488	0.0177491
672.567	0.0178015
672.645	0.0177754
672.723	0.0178194
672.801	0.0177331
672.879	0.0176192
672.957	0.0177180
673.035	0.0176437
673.113	0.0178134
673.192	0.0177521
673.270	0.0177612
673.348	0.0176254
673.426	0.0176445
673.504	0.0177871
673.582	0.0177215
673.660	0.0177965
673.738	0.0177900
673.817	0.0177666
673.895	0.0176823
673.973	0.0176457
674.051	0.0178090
674.129	0.0177161
674.207	0.0176048
674.285	0.0178796
674.363	0.0178728
674.442	0.0177721
674.520	0.0177222
674.598	0.0176575
674.676	0.0178085
674.754	0.0178012
674.832	0.0179311
674.910	0.0178318
674.988	0.0177847
675.067	0.0178209
675.145	0.0177926
675.223	0.0178513
675.301	0.0178265
675.379	0.0177524
675.457	0.0179496
675.535	0.0179836
675.613	0.0177024
675.692	0.0178371
675.770	0.0179503
675.848	0.0179639
675.926	0.0179350
676.004	0.0179786
676.082	0.0179288
676.160	0.0178963
676.238	0.0179036
676.317	0.0178899
676.395	0.0178093
676.473	0.0178349
676.551	0.0178932
676.629	0.0179520
676.707	0.0178094
676.785	0.0179346
676.863	0.0178575
676.942	0.0178845
677.020	0.0178638
677.098	0.0176929
677.176	0.0177227
677.254	0.0178551
677.332	0.0178126
677.410	0.0178592
677.488	0.0178940
677.567	0.0178280
677.645	0.0177433
677.723	0.0179473
677.801	0.0178058
677.879	0.0179163
677.957	0.0178872
678.035	0.0178348
678.113	0.0177541
678.192	0.0178239
678.270	0.0178854
678.348	0.0178726
678.426	0.0178149
678.504	0.0178352
678.582	0.0177335
678.660	0.0178365
678.738	0.0177276
678.817	0.0178069
678.895	0.0178420
678.973	0.0176850
679.051	0.0178076
679.129	0.0177684
679.207	0.0177918
679.285	0.0176599
679.363	0.0177881
679.442	0.0177084
679.520	0.0177618
679.598	0.0177011
679.676	0.0178089
679.754	0.0176719
679.832	0.0178158
679.910	0.0178896
679.988	0.0177599
680.067	0.0177227
680.145	0.0176217
680.223	0.0177160
680.301	0.0176535
680.379	0.0178002
680.457	0.0178096
680.535	0.0175560
680.613	0.0175243
680.692	0.0177717
680.770	0.0177138
680.848	0.0177158
680.926	0.0178208
681.004	0.0177660
681.082	0.0176321
681.160	0.0177036
681.238	0.0177197
681.317	0.0178160
681.395	0.0178407
681.473	0.0177743
681.551	0.0178147
681.629	0.0177471
681.707	0.0177631
681.785	0.0177654
681.863	0.0177092
681.942	0.0174796
682.020	0.0176296
682.098	0.0176557
682.176	0.0175426
682.254	0.0176823
682.332	0.0176304
682.410	0.0176682
682.488	0.0175834
682.567	0.0176002
682.645	0.0176299
682.723	0.0176218
682.801	0.0176796
682.879	0.0176745
682.957	0.0176593
683.035	0.0178454
683.113	0.0176715
683.192	0.0176727
683.270	0.0176640
683.348	0.0177707
683.426	0.0176865
683.504	0.0175253
683.582	0.0177238
683.660	0.0178364
683.738	0.0176305
683.817	0.0177068
683.895	0.0175996
683.973	0.0176095
684.051	0.0178172
684.129	0.0176181
684.207	0.0177698
684.285	0.0177090
684.363	0.0177674
684.442	0.0177859
684.520	0.0177125
684.598	0.0178117
684.676	0.0177477
684.754	0.0175932
684.832	0.0176913
684.910	0.0177235
684.988	0.0176955
685.067	0.0178349
685.145	0.0179178
685.223	0.0178899
685.301	0.0177908
685.379	0.0176205
685.457	0.0177671
685.535	0.0177242
685.613	0.0177960
685.692	0.0177884
685.770	0.0176993
685.848	0.0178571
685.926	0.0176355
686.004	0.0179224
686.082	0.0178639
686.160	0.0177389
686.238	0.0177352
686.317	0.0177328
686.395	0.0178201
686.473	0.0178436
686.551	0.0178289
686.629	0.0177098
686.707	0.0179977
686.785	0.0177862
686.863	0.0178356
686.942	0.0178000
687.020	0.0177422
687.098	0.0177505
687.176	0.0178018
687.254	0.0178378
687.332	0.0180019
687.410	0.0178127
687.488	0.0177559
687.567	0.0176971
687.645	0.0178091
687.723	0.0177811
687.801	0.0178020
687.879	0.0179533
687.957	0.0177798
688.035	0.0178078
688.113	0.0178796
688.192	0.0177698
688.270	0.0176505
688.348	0.0177262
688.426	0.0177018
688.504	0.0178057
688.582	0.0179670
688.660	0.0177918
688.738	0.0177444
688.817	0.0178108
688.895	0.0179447
688.973	0.0179143
689.051	0.0179797
689.129	0.0179108
689.207	0.0179768
689.285	0.0179964
689.363	0.0181075
689.442	0.0180666
689.520	0.0181203
689.598	0.0180352
689.676	0.0178629
689.754	0.0178751
689.832	0.0176068
689.910	0.0174615
689.988	0.0172760
690.067	0.0169190
690.145	0.0166649
690.223	0.0165543
690.301	0.0164266
690.379	0.0162714
690.457	0.0163414
690.535	0.0165672
690.613	0.0168265
690.692	0.0172447
690.770	0.0178358
690.848	0.0185642
690.926	0.0192947
691.004	0.0199750
691.082	0.0207217
691.160	0.0212740
691.238	0.0217330
691.317	0.0219798
691.395	0.0218026
691.473	0.0213091
691.551	0.0206277
691.629	0.0195655
691.707	0.0184019
691.785	0.0170786
691.863	0.0156631
691.942	0.0141489
692.020	0.0127090
692.098	0.0116672
692.176	0.0106232
692.254	0.00996933
692.332	0.00973511
692.410	0.00987663
692.488	0.0105709
692.567	0.0115656
692.645	0.0132041
692.723	0.0151186
692.801	0.0174498
692.879	0.0199596
692.957	0.0223724
693.035	0.0248803
693.113	0.0271414
693.192	0.0290837
693.270	0.0305729
693.348	0.0315044
693.426	0.0316087
693.504	0.0309173
693.582	0.0295940
693.660	0.0275608
693.738	0.0246199
693.817	0.0213831
693.895	0.0179048
693.973	0.0142500
694.051	0.0106802
694.129	0.00724663
694.207	0.00433250
694.285	0.00223976
694.363	0.000831299
694.442	0.000208282
694.520	0.000255127
694.598	0.00120674
694.676	0.00303314
694.754	0.00537476
694.832	0.00816063
694.910	0.0115673
694.988	0.0151357
695.067	0.0186317
695.145	0.0224237
695.223	0.0256244
695.301	0.0286521
695.379	0.0309549
695.457	0.0328669
695.535	0.0342489
695.613	0.0346046
695.692	0.0346177
695.770	0.0338498
695.848	0.0323734
695.926	0.0303725
696.004	0.0282454
696.082	0.0256345
696.160	0.0224872
696.238	0.0195609
696.317	0.0167825
696.395	0.0138718
696.473	0.0113168
696.551	0.00904617
696.629	0.00711784
696.707	0.00582352
696.785	0.00472649
696.863	0.00425781
696.942	0.00413071
697.020	0.00477753
697.098	0.00572853
697.176	0.00677147
697.254	0.00843193
697.332	0.0102843
697.410	0.0121721
697.488	0.0141682
697.567	0.0164088
697.645	0.0181216
697.723	0.0200262
697.801	0.0215758
697.879	0.0227653
697.957	0.0240998
698.035	0.0246815
698.113	0.0249826
698.192	0.0250383
698.270	0.0249944
698.348	0.0243169
698.426	0.0237598
698.504	0.0230743
698.582	0.0221497
698.660	0.0213408
698.738	0.0204659
698.817	0.0195937
698.895	0.0190756
698.973	0.0185985
699.051	0.0182367
699.129	0.0180104
699.207	0.0178693
699.285	0.0180032
699.363	0.0179692
699.442	0.0180898
699.520	0.0182410
699.598	0.0182845
699.676	0.0184241
699.754	0.0184745
699.832	0.0185178
699.910	0.0184863
699.988	0.0184743
700.067	0.0180831
700.145	0.0177623
700.223	0.0173349
700.301	0.0166942
700.379	0.0161894
700.457	0.0154823
700.535	0.0149004
700.613	0.0141768
700.692	0.0134773
700.770	0.0131554
700.848	0.0126064
700.926	0.0124979
701.004	0.0123701
701.082	0.0124836
701.160	0.0128735
701.238	0.0134948
701.317	0.0140559
701.395	0.0147194
701.473	0.0152900
701.551	0.0160555
701.629	0.0168383
701.707	0.0176414
701.785	0.0183617
701.863	0.0191155
701.942	0.0197318
702.020	0.0202430
702.098	0.0209117
702.176	0.0212531
702.254	0.0217079
702.332	0.0219637
702.410	0.0221843
702.488	0.0223681
702.567	0.0224918
702.645	0.0223663
702.723	0.0223525
702.801	0.0222708
702.879	0.0219844
702.957	0.0216933
703.035	0.0213493
703.113	0.0209467
703.192	0.0208124
703.270	0.0204984
703.348	0.0199844
703.426	0.0194528
703.504	0.0190528
703.582	0.0186346
703.660	0.0179774
703.738	0.0173772
703.817	0.0168613
703.895	0.0161532
703.973	0.0156597
704.051	0.0152010
704.129	0.0146234
704.207	0.0142860
704.285	0.0139838
704.363	0.0136823
704.442	0.0136712
704.520	0.0135968
704.598	0.0135416
704.676	0.0136098
704.754	0.0139975
704.832	0.0142090
704.910	0.0147321
704.988	0.0149632
705.067	0.0154251
705.145	0.0156870
705.223	0.0162331
705.301	0.0165403
705.379	0.0170004
705.457	0.0174478
705.535	0.0180517
705.613	0.0182074
705.692	0.0185265
705.770	0.0189615
705.848	0.0191640
705.926	0.0194331
706.004	0.0196601
706.082	0.0198249
706.160	0.0200257
706.238	0.0200976
706.317	0.0201221
706.395	0.0201981
706.473	0.0201087
706.551	0.0200879
706.629	0.0198090
706.707	0.0196278
706.785	0.0194519
706.863	0.0192820
706.942	0.0189159
707.020	0.0186388
707.098	0.0183402
707.176	0.0180314
707.254	0.0177953
707.332	0.0175110
707.410	0.0173259
707.488	0.0173183
707.567	0.0173237
707.645	0.0173737
707.723	0.0174848
707.801	0.0177425
707.879	0.0181790
707.957	0.0182755
708.035	0.0185230
708.113	0.0188922
708.192	0.0189221
708.270	0.0191745
708.348	0.0191553
708.426	0.0190334
708.504	0.0189194
708.582	0.0185080
708.660	0.0182447
708.738	0.0180176
708.817	0.0175556
708.895	0.0171454
708.973	0.0166456
709.051	0.0161623
709.129	0.0155978
709.207	0.0151576
709.285	0.0148298
709.363	0.0142350
709.442	0.0141430
709.520	0.0139834
709.598	0.0139997
709.676	0.0141648
709.754	0.0143411
709.832	0.0147124
709.910	0.0150964
709.988	0.0157140
710.067	0.0163644
710.145	0.0169092
710.223	0.0174830
710.301	0.0181393
710.379	0.0186699
710.457	0.0192068
710.535	0.0197321
710.613	0.0199268
710.692	0.0199575
710.770	0.0202142
710.848	0.0201752
710.926	0.0199638
711.004	0.0198158
711.082	0.0195880
711.160	0.0192870
711.238	0.0189875
711.317	0.0187617
711.395	0.0184902
711.473	0.0181661
711.551	0.0180347
711.629	0.0179549
711.707	0.0178541
711.785	0.0178871
711.863	0.0178857
711.942	0.0179724
712.020	0.0181839
712.098	0.0182101
712.176	0.0185081
712.254	0.0185847
712.332	0.0186877
712.410	0.0188241
712.488	0.0186848
712.567	0.0187521
712.645	0.0186327
712.723	0.0185997
712.801	0.0185322
712.879	0.0182597
712.957	0.0179997
713.035	0.0180798
713.113	0.0178497
713.192	0.0177598
713.270	0.0175854
713.348	0.0176215
713.426	0.0175854
713.504	0.0173843
713.582	0.0173376
713.660	0.0174200
713.738	0.0173411
713.817	0.0172866
713.895	0.0172421
713.973	0.0170326
714.051	0.0169884
714.129	0.0166959
714.207	0.0165563
714.285	0.0165471
714.363	0.0163815
714.442	0.0161761
714.520	0.0161811
714.598	0.0162448
714.676	0.0162220
714.754	0.0161914
714.832	0.0162802
714.910	0.0163866
714.988	0.0166022
715.067	0.0168185
715.145	0.0171001
715.223	0.0172527
715.301	0.0175482
715.379	0.0178766
715.457	0.0180970
715.535	0.0181941
715.613	0.0185340
715.692	0.0187110
715.770	0.0188811
715.848	0.0189817
715.926	0.0189723
716.004	0.0189960
716.082	0.0188854
716.160	0.0189277
716.238	0.0188383
716.317	0.0187798
716.395	0.0186419
716.473	0.0183978
716.551	0.0184677
716.629	0.0183077
716.707	0.0181025
716.785	0.0179771
716.863	0.0179047
716.942	0.0177794
717.020	0.0177664
717.098	0.0175453
717.176	0.0174873
717.254	0.0176082
717.332	0.0176589
717.410	0.0176243
717.488	0.0179182
717.567	0.0178706
717.645	0.0180698
717.723	0.0183614
717.801	0.0183717
717.879	0.0183356
717.957	0.0184330
718.035	0.0185165
718.113	0.0184464
718.192	0.0184444
718.270	0.0184070
718.348	0.0182819
718.426	0.0181844
718.504	0.0181470
718.582	0.0179692
718.660	0.0178549
718.738	0.0177075
718.817	0.0175887
718.895	0.0173815
718.973	0.0173283
719.051	0.0171106
719.129	0.0170782
719.207	0.0170309
719.285	0.0170280
719.363	0.0167868
719.442	0.0167046
719.520	0.0166923
719.598	0.0164762
719.676	0.0165370
719.754	0.0164781
719.832	0.0163723
719.910	0.0165604
719.988	0.0163551
720.067	0.0164430
720.145	0.0164016
720.223	0.0164536
720.301	0.0165933
720.379	0.0167011
720.457	0.0167078
720.535	0.0169915
720.613	0.0171466
720.692	0.0172047
720.770	0.0175079
720.848	0.0178107
720.926	0.0181019
721.004	0.0183177
721.082	0.0185816
721.160	0.0187782
721.238	0.0188222
721.317	0.0189780
721.395	0.0191663
721.473	0.0191100
721.551	0.0190483
721.629	0.0191256
721.707	0.0192168
721.785	0.0189362
721.863	0.0190717
721.942	0.0187836
722.020	0.0187083
722.098	0.0186690
722.176	0.0183729
722.254	0.0182258
722.332	0.0180650
722.410	0.0177348
722.488	0.0178030
722.567	0.0175255
722.645	0.0173314
722.723	0.0172182
722.801	0.0170511
722.879	0.0170486
722.957	0.0170343
723.035	0.0171017
723.113	0.0171524
723.192	0.0171766
723.270	0.0172662
723.348	0.0172758
723.426	0.0174331
723.504	0.0177119
723.582	0.0177562
723.660	0.0178615
723.738	0.0181229
723.817	0.0181086
723.895	0.0183059
723.973	0.0183394
724.051	0.0183809
724.129	0.0182707
724.207	0.0181869
724.285	0.0181421
724.363	0.0180070
724.442	0.0179744
724.520	0.0178999
724.598	0.0178938
724.676	0.0177039
724.754	0.0175706
724.832	0.0173910
724.910	0.0172437
724.988	0.0169221
725.067	0.0170257
725.145	0.0168739
725.223	0.0169147
725.301	0.0168610
725.379	0.0168671
725.457	0.0168919
725.535	0.0169620
725.613	0.0171262
725.692	0.0171490
725.770	0.0172820
725.848	0.0174301
725.926	0.0178212
726.004	0.0179465
726.082	0.0179572
726.160	0.0182114
726.238	0.0184035
726.317	0.0185603
726.395	0.0186438
726.473	0.0186527
726.551	0.0186868
726.629	0.0187474
726.707	0.0186922
726.785	0.0185275
726.863	0.0181735
726.942	0.0179929
727.020	0.0178481
727.098	0.0177628
727.176	0.0175889
727.254	0.0173370
727.332	0.0173003
727.410	0.0173216
727.488	0.0171611
727.567	0.0171669
727.645	0.0173479
727.723	0.0173388
727.801	0.0174245
727.879	0.0177033
727.957	0.0178017
728.035	0.0181209
728.113	0.0182600
728.192	0.0183632
728.270	0.0184982
728.348	0.0184320
728.426	0.0185486
728.504	0.0186073
728.582	0.0184933
728.660	0.0185843
728.738	0.0185805
728.817	0.0182747
728.895	0.0181866
728.973	0.0181473
729.051	0.0179398
729.129	0.0176876
729.207	0.0176386
729.285	0.0175006
729.363	0.0175025
729.442	0.0174013
729.520	0.0172644
729.598	0.0172185
729.676	0.0171506
729.754	0.0172382
729.832	0.0172697
729.910	0.0172659
729.988	0.0173214
730.067	0.0173338
730.145	0.0173180
730.223	0.0174146
730.301	0.0174077
730.379	0.0173784
730.457	0.0173163
730.535	0.0174144
730.613	0.0174059
730.692	0.0175459
730.770	0.0176231
730.848	0.0176016
730.926	0.0174286
731.004	0.0176536
731.082	0.0179065
731.160	0.0180564
731.238	0.0180224
731.317	0.0180180
731.395	0.0181584
731.473	0.0181756
731.551	0.0182648
731.629	0.0182895
731.707	0.0183420
731.785	0.0183115
731.863	0.0181586
731.942	0.0181898
732.020	0.0181844
732.098	0.0181320
732.176	0.0181155
732.254	0.0180281
732.332	0.0179233
732.410	0.0177769
732.488	0.0176286
732.567	0.0176251
732.645	0.0174241
732.723	0.0174270
732.801	0.0173927
732.879	0.0173695
732.957	0.0173528
733.035	0.0172974
733.113	0.0174629
733.192	0.0173228
733.270	0.0174103
733.348	0.0174856
733.426	0.0174947
733.504	0.0175121
733.582	0.0175742
733.660	0.0176018
733.738	0.0176725
733.817	0.0176995
733.895	0.0177537
733.973	0.0176339
734.051	0.0177683
734.129	0.0178762
734.207	0.0177566
734.285	0.0177105
734.363	0.0175506
734.442	0.0177707
734.520	0.0175948
734.598	0.0175432
734.676	0.0175423
734.754	0.0174131
734.832	0.0173674
734.910	0.0174247
734.988	0.0173495
735.067	0.0172756
735.145	0.0173982
735.223	0.0173766
735.301	0.0174741
735.379	0.0175481
735.457	0.0175833
735.535	0.0175667
735.613	0.0175406
735.692	0.0176235
735.770	0.0176233
735.848	0.0175628
735.926	0.0176274
736.004	0.0177139
736.082	0.0176013
736.160	0.0176288
736.238	0.0175649
736.317	0.0175710
736.395	0.0176502
736.473	0.0176459
736.551	0.0178687
736.629	0.0178101
736.707	0.0178235
736.785	0.0179996
736.863	0.0180378
736.942	0.0180739
737.020	0.0181692
737.098	0.0181867
737.176	0.0182147
737.254	0.0183205
737.332	0.0182609
737.410	0.0181779
737.488	0.0181257
737.567	0.0181266
737.645	0.0181434
737.723	0.0179077
737.801	0.0179911
737.879	0.0178134
737.957	0.0178970
738.035	0.0176910
738.113	0.0177624
738.192	0.0176408
738.270	0.0177404
738.348	0.0176768
738.426	0.0175765
738.504	0.0176443
738.582	0.0175989
738.660	0.0176525
738.738	0.0176192
738.817	0.0176630
738.895	0.0176366
738.973	0.0175539
739.051	0.0174757
739.129	0.0174778
739.207	0.0175307
739.285	0.0176238
739.363	0.0176954
739.442	0.0176911
739.520	0.0176076
739.598	0.0176555
739.676	0.0178069
739.754	0.0176465
739.832	0.0177227
739.910	0.0177364
739.988	0.0178230
740.067	0.0179216
740.145	0.0178632
740.223	0.0179504
740.301	0.0180140
740.379	0.0180087
740.457	0.0179156
740.535	0.0179709
740.613	0.0178686
740.692	0.0179675
740.770	0.0177454
740.848	0.0177725
740.926	0.0177492
741.004	0.0176257
741.082	0.0175191
741.160	0.0175520
741.238	0.0176135
741.317	0.0173775
741.395	0.0174879
741.473	0.0175163
741.551	0.0171934
741.629	0.0173392
741.707	0.0171107
741.785	0.0172766
741.863	0.0172164
741.942	0.0173463
742.020	0.0174185
742.098	0.0173464
742.176	0.0173492
742.254	0.0175658
742.332	0.0176267
742.410	0.0176666
742.488	0.0177155
742.567	0.0178168
742.645	0.0180240
742.723	0.0180637
742.801	0.0181424
742.879	0.0183032
742.957	0.0182255
743.035	0.0183276
743.113	0.0182405
743.192	0.0182638
743.270	0.0181041
743.348	0.0182024
743.426	0.0180813
743.504	0.0180826
743.582	0.0180080
743.660	0.0177460
743.738	0.0177254
743.817	0.0176657
743.895	0.0174878
743.973	0.0175549
744.051	0.0174386
744.129	0.0174089
744.207	0.0174006
744.285	0.0174767
744.363	0.0175484
744.442	0.0176537
744.520	0.0177424
744.598	0.0177952
744.676	0.0177181
744.754	0.0178283
744.832	0.0178259
744.910	0.0180158
744.988	0.0181774
745.067	0.0180901
745.145	0.0179919
745.223	0.0181155
745.301	0.0181064
745.379	0.0179619
745.457	0.0180260
745.535	0.0180352
745.613	0.0179116
745.692	0.0178697
745.770	0.0178826
745.848	0.0177992
745.926	0.0178001
746.004	0.0176607
746.082	0.0175741
746.160	0.0174088
746.238	0.0173843
746.317	0.0173534
746.395	0.0172715
746.473	0.0171526
746.551	0.0170662
746.629	0.0171041
746.707	0.0170367
746.785	0.0170831
746.863	0.0170509
746.942	0.0170936
747.020	0.0171227
747.098	0.0172611
747.176	0.0173680
747.254	0.0174435
747.332	0.0175256
747.410	0.0176778
747.488	0.0178819
747.567	0.0179379
747.645	0.0179650
747.723	0.0179417
747.801	0.0180859
747.879	0.0179926
747.957	0.0181371
748.035	0.0181364
748.113	0.0180363
748.192	0.0180036
748.270	0.0179561
748.348	0.0179680
748.426	0.0178846
748.504	0.0177251
748.582	0.0177969
748.660	0.0176127
748.738	0.0175978
748.817	0.0176591
748.895	0.0176246
748.973	0.0175102
749.051	0.0174928
749.129	0.0174580
749.207	0.0175826
749.285	0.0176411
749.363	0.0176779
749.442	0.0177779
749.520	0.0178161
749.598	0.0178761
749.676	0.0179623
749.754	0.0179538
749.832	0.0177780
749.910	0.0179671
749.988	0.0180368
750.067	0.0178422
750.145	0.0178577
750.223	0.0178996
750.301	0.0178168
750.379	0.0177483
750.457	0.0177724
750.535	0.0176329
750.613	0.0176986
750.692	0.0175328
750.770	0.0176557
750.848	0.0177928
750.926	0.0176732
751.004	0.0178397
751.082	0.0177410
751.160	0.0180169
751.238	0.0179449
751.317	0.0181306
751.395	0.0180515
751.473	0.0180682
751.551	0.0181282
751.629	0.0180688
751.707	0.0182658
751.785	0.0181835
751.863	0.0181158
751.942	0.0181988
752.020	0.0180629
752.098	0.0181321
752.176	0.0179860
752.254	0.0179507
752.332	0.0179256
752.410	0.0177731
752.488	0.0179292
752.567	0.0177370
752.645	0.0176553
752.723	0.0175378
752.801	0.0175167
752.879	0.0175983
752.957	0.0174595
753.035	0.0173579
753.113	0.0173923
753.192	0.0175915
753.270	0.0175329
753.348	0.0175716
753.426	0.0177193
753.504	0.0177617
753.582	0.0177238
753.660	0.0177163
753.738	0.0178690
753.817	0.0176056
753.895	0.0175700
753.973	0.0177665
754.051	0.0178983
754.129	0.0176953
754.207	0.0177174
754.285	0.0177999
754.363	0.0178383
754.442	0.0178571
754.520	0.0178577
754.598	0.0176315
754.676	0.0176482
754.754	0.0177183
754.832	0.0176405
754.910	0.0175338
754.988	0.0175737
755.067	0.0174042
755.145	0.0174985
755.223	0.0175441
755.301	0.0176801
755.379	0.0176302
755.457	0.0176693
755.535	0.0176322
755.613	0.0177124
755.692	0.0177237
755.770	0.0177806
755.848	0.0177562
755.926	0.0178286
756.004	0.0178402
756.082	0.0179572
756.160	0.0179140
756.238	0.0178572
756.317	0.0178646
756.395	0.0180202
756.473	0.0180258
756.551	0.0178152
756.629	0.0177898
756.707	0.0179823
756.785	0.0178120
756.863	0.0177958
756.942	0.0178704
757.020	0.0177053
757.098	0.0177904
757.176	0.0177168
757.254	0.0176828
757.332	0.0175357
757.410	0.0175806
757.488	0.0175372
757.567	0.0174239
757.645	0.0175801
757.723	0.0175430
757.801	0.0174514
757.879	0.0174338
757.957	0.0175982
758.035	0.0175490
758.113	0.0175570
758.192	0.0177467
758.270	0.0177061
758.348	0.0177465
758.426	0.0177629
758.504	0.0178777
758.582	0.0178604
758.660	0.0178806
758.738	0.0180659
758.817	0.0179976
758.895	0.0180315
758.973	0.0182468
759.051	0.0181720
759.129	0.0181564
759.207	0.0181572
759.285	0.0180476
759.363	0.0179212
759.442	0.0179268
759.520	0.0178004
759.598	0.0176637
759.676	0.0176524
759.754	0.0174978
759.832	0.0175706
759.910	0.0174626
759.988	0.0173412
760.067	0.0174391
760.145	0.0173984
760.223	0.0175173
760.301	0.0175279
760.379	0.0174246
760.457	0.0173531
760.535	0.0176053
760.613	0.0175759
760.692	0.0175088
760.770	0.0176910
760.848	0.0176709
760.926	0.0175874
761.004	0.0177273
761.082	0.0177262
761.160	0.0176535
761.238	0.0177391
761.317	0.0178628
761.395	0.0177392
761.473	0.0179622
761.551	0.0177369
761.629	0.0178458
761.707	0.0177263
761.785	0.0177236
761.863	0.0177927
761.942	0.0179691
762.020	0.0178139
762.098	0.0177595
762.176	0.0177982
762.254	0.0178732
762.332	0.0178624
762.410	0.0178202
762.488	0.0177646
762.567	0.0176936
762.645	0.0175784
762.723	0.0177155
762.801	0.0176923
762.879	0.0177287
762.957	0.0176424
763.035	0.0175440
763.113	0.0175869
763.192	0.0175433
763.270	0.0176431
763.348	0.0174619
763.426	0.0175394
763.504	0.0175835
763.582	0.0176666
763.660	0.0177583
763.738	0.0177634
763.817	0.0177306
763.895	0.0176853
763.973	0.0178606
764.051	0.0178153
764.129	0.0178780
764.207	0.0180669
764.285	0.0179709
764.363	0.0179681
764.442	0.0182325
764.520	0.0182484
764.598	0.0180239
764.676	0.0181322
764.754	0.0180167
764.832	0.0180642
764.910	0.0180071
764.988	0.0179214
765.067	0.0178812
765.145	0.0176532
765.223	0.0177383
765.301	0.0178220
765.379	0.0176743
765.457	0.0175950
765.535	0.0176067
765.613	0.0176777
765.692	0.0176718
765.770	0.0175496
765.848	0.0175643
765.926	0.0175443
766.004	0.0176467
766.082	0.0176534
766.160	0.0177110
766.238	0.0177035
766.317	0.0179131
766.395	0.0176530
766.473	0.0177357
766.551	0.0177495
766.629	0.0177568
766.707	0.0177709
766.785	0.0177180
766.863	0.0176328
766.942	0.0176782
767.020	0.0177446
767.098	0.0176187
767.176	0.0176499
767.254	0.0176167
767.332	0.0174027
767.410	0.0177039
767.488	0.0176630
767.567	0.0175394
767.645	0.0176714
767.723	0.0176408
767.801	0.0176478
767.879	0.0177168
767.957	0.0176816
768.035	0.0176450
768.113	0.0175128
768.192	0.0177635
768.270	0.0179292
768.348	0.0176563
768.426	0.0178574
768.504	0.0177944
768.582	0.0177996
768.660	0.0179770
768.738	0.0178513
768.817	0.0176756
768.895	0.0178581
768.973	0.0177313
769.051	0.0179380
769.129	0.0178487
769.207	0.0177559
769.285	0.0177455
769.363	0.0177994
769.442	0.0178815
769.520	0.0177860
769.598	0.0177489
769.676	0.0177715
769.754	0.0178651
769.832	0.0177853
769.910	0.0176719
769.988	0.0176644
770.067	0.0176230
770.145	0.0176857
770.223	0.0175912
770.301	0.0176849
770.379	0.0176460
770.457	0.0177949
770.535	0.0175368
770.613	0.0176495
770.692	0.0176639
770.770	0.0176327
770.848	0.0175548
770.926	0.0176071
771.004	0.0176488
771.082	0.0177237
771.160	0.0177324
771.238	0.0175966
771.317	0.0176350
771.395	0.0176917
771.473	0.0178774
771.551	0.0177596
771.629	0.0178413
771.707	0.0177261
771.785	0.0177538
771.863	0.0176637
771.942	0.0177452
772.020	0.0177222
772.098	0.0177480
772.176	0.0179357
772.254	0.0179321
772.332	0.0179015
772.410	0.0179632
772.488	0.0180317
772.567	0.0180354
772.645	0.0178571
772.723	0.0181236
772.801	0.0181769
772.879	0.0180237
772.957	0.0181731
773.035	0.0179504
773.113	0.0179794
773.192	0.0181597
773.270	0.0179570
773.348	0.0178722
773.426	0.0178709
773.504	0.0178036
773.582	0.0177979
773.660	0.0177084
773.738	0.0177408
773.817	0.0174847
773.895	0.0176215
773.973	0.0176083
774.051	0.0176093
774.129	0.0175359
774.207	0.0176248
774.285	0.0175803
774.363	0.0174582
774.442	0.0175994
774.520	0.0174981
774.598	0.0175089
774.676	0.0177627
774.754	0.0176970
774.832	0.0177795
774.910	0.0177789
774.988	0.0177974
775.067	0.0177061
775.145	0.0177582
775.223	0.0179488
775.301	0.0179237
775.379	0.0179606
775.457	0.0178241
775.535	0.0179465
775.613	0.0178282
775.692	0.0177224
775.770	0.0177412
775.848	0.0177905
775.926	0.0177390
776.004	0.0176009
776.082	0.0176978
776.160	0.0176526
776.238	0.0177005
776.317	0.0177744
776.395	0.0176961
776.473	0.0176488
776.551	0.0176776
776.629	0.0177067
776.707	0.0177481
776.785	0.0177592
776.863	0.0178985
776.942	0.0178349
777.020	0.0179101
777.098	0.0178118
777.176	0.0179344
777.254	0.0178894
777.332	0.0177973
777.410	0.0178106
777.488	0.0178619
777.567	0.0178732
777.645	0.0177343
777.723	0.0179823
777.801	0.0178600
777.879	0.0177510
777.957	0.0177445
778.035	0.0177560
778.113	0.0178602
778.192	0.0177740
778.270	0.0177605
778.348	0.0177277
778.426	0.0177608
778.504	0.0178509
778.582	0.0179161
778.660	0.0177988
778.738	0.0177901
778.817	0.0177928
778.895	0.0177863
778.973	0.0178426
779.051	0.0178111
779.129	0.0178203
779.207	0.0176955
779.285	0.0177454
779.363	0.0177656
779.442	0.0178518
779.520	0.0176921
779.598	0.0177372
779.676	0.0176778
779.754	0.0177309
779.832	0.0176453
779.910	0.0176688
779.988	0.0177656
780.067	0.0178416
780.145	0.0177377
780.223	0.0178060
780.301	0.0177536
780.379	0.0179572
780.457	0.0178903
780.535	0.0176729
780.613	0.0179262
780.692	0.0178868
780.770	0.0179382
780.848	0.0180074
780.926	0.0180596
781.004	0.0179124
781.082	0.0178850
781.160	0.0178842
781.238	0.0178476
781.317	0.0179482
781.395	0.0178490
781.473	0.0180160
781.551	0.0178458
781.629	0.0178491
781.707	0.0178507
781.785	0.0178004
781.863	0.0177216
781.942	0.0176747
782.020	0.0177398
782.098	0.0176669
782.176	0.0178130
782.254	0.0178360
782.332	0.0176336
782.410	0.0177326
782.488	0.0177658
782.567	0.0177661
782.645	0.0176453
782.723	0.0179539
782.801	0.0180521
782.879	0.0179038
782.957	0.0179424
783.035	0.0179813
783.113	0.0178615
783.192	0.0180621
783.270	0.0179013
783.348	0.0176656
783.426	0.0178623
783.504	0.0176653
783.582	0.0178276
783.660	0.0178259
783.738	0.0177694
783.817	0.0176527
783.895	0.0176881
783.973	0.0176500
784.051	0.0175619
784.129	0.0175129
784.207	0.0175475
784.285	0.0175424
784.363	0.0175368
784.442	0.0174309
784.520	0.0175183
784.598	0.0175654
784.676	0.0174463
784.754	0.0176408
784.832	0.0175975
784.910	0.0175649
784.988	0.0175660
785.067	0.0176637
785.145	0.0177429
785.223	0.0176969
785.301	0.0176708
785.379	0.0178374
785.457	0.0177802
785.535	0.0177875
785.613	0.0177679
785.692	0.0178802
785.770	0.0177995
785.848	0.0179417
785.926	0.0179559
786.004	0.0178779
786.082	0.0178516
786.160	0.0179012
786.238	0.0178809
786.317	0.0179646
786.395	0.0178891
786.473	0.0179373
786.551	0.0179160
786.629	0.0180489
786.707	0.0178834
786.785	0.0179554
786.863	0.0180330
786.942	0.0179557
787.020	0.0179148
787.098	0.0180199
787.176	0.0179740
787.254	0.0179043
787.332	0.0180002
787.410	0.0179332
787.488	0.0179884
787.567	0.0179646
787.645	0.0180003
787.723	0.0178784
787.801	0.0176321
787.879	0.0178658
787.957	0.0178112
788.035	0.0175085
788.113	0.0174965
788.192	0.0175945
788.270	0.0175177
788.348	0.0173440
788.426	0.0172953
788.504	0.0173429
788.582	0.0172854
788.660	0.0171493
788.738	0.0171419
788.817	0.0170859
788.895	0.0171719
788.973	0.0173593
789.051	0.0173365
789.129	0.0174365
789.207	0.0176246
789.285	0.0178205
789.363	0.0180047
789.442	0.0181277
789.520	0.0181744
789.598	0.0182146
789.676	0.0183524
789.754	0.0184827
789.832	0.0184949
789.910	0.0184550
789.988	0.0185025
790.067	0.0184911
790.145	0.0184265
790.223	0.0183654
790.301	0.0181500
790.379	0.0179613
790.457	0.0177101
790.535	0.0176821
790.613	0.0173692
790.692	0.0172713
790.770	0.0170666
790.848	0.0170207
790.926	0.0169440
791.004	0.0167796
791.082	0.0167581
791.160	0.0167061
791.238	0.0167731
791.317	0.0167859
791.395	0.0168031
791.473	0.0169937
791.551	0.0171273
791.629	0.0173600
791.707	0.0175213
791.785	0.0177026
791.863	0.0180672
791.942	0.0182954
792.020	0.0183109
792.098	0.0186199
792.176	0.0186926
792.254	0.0188619
792.332	0.0189415
792.410	0.0188832
792.488	0.0188618
792.567	0.0187742
792.645	0.0186040
792.723	0.0183919
792.801	0.0183324
792.879	0.0179175
792.957	0.0177987
793.035	0.0175269
793.113	0.0173058
793.192	0.0172245
793.270	0.0168915
793.348	0.0167461
793.426	0.0167089
793.504	0.0165211
793.582	0.0164967
793.660	0.0163474
793.738	0.0164484
793.817	0.0166418
793.895	0.0166879
793.973	0.0169329
794.051	0.0171348
794.129	0.0171461
794.207	0.0174276
794.285	0.0177569
794.363	0.0178402
794.442	0.0180439
794.520	0.0181029
794.598	0.0183893
794.676	0.0185760
794.754	0.0187470
794.832	0.0186529
794.910	0.0186042
794.988	0.0187054
795.067	0.0187041
795.145	0.0185926
795.223	0.0184428
795.301	0.0183601
795.379	0.0184733
795.457	0.0183601
795.535	0.0181800
795.613	0.0181758
795.692	0.0181264
795.770	0.0179324
795.848	0.0179552
795.926	0.0178889
796.004	0.0178680
796.082	0.0177642
796.160	0.0177917
796.238	0.0178624
796.317	0.0178839
796.395	0.0179316
796.473	0.0179009
796.551	0.0178535
796.629	0.0175843
796.707	0.0176740
796.785	0.0176894
796.863	0.0175259
796.942	0.0175828
797.020	0.0174403
797.098	0.0172243
797.176	0.0173041
797.254	0.0171149
797.332	0.0170101
797.410	0.0169720
797.488	0.0170218
797.567	0.0170369
797.645	0.0170626
797.723	0.0170299
797.801	0.0171931
797.879	0.0172527
797.957	0.0172436
798.035	0.0173919
798.113	0.0175048
798.192	0.0178281
798.270	0.0177950
798.348	0.0178929
798.426	0.0179510
798.504	0.0182020
798.582	0.0183769
798.660	0.0184088
798.738	0.0184172
798.817	0.0184137
798.895	0.0183843
798.973	0.0182468
799.051	0.0182608
799.129	0.0181709
799.207	0.0181618
799.285	0.0180460
799.363	0.0179544
799.442	0.0178310
799.520	0.0178204
799.598	0.0176000
799.676	0.0177080
799.754	0.0177116
799.832	0.0176275
799.910	0.0175991
799.988	0.0176482
800.067	0.0177189
800.145	0.0175414
800.223	0.0176218
800.301	0.0175844
800.379	0.0175263
800.457	0.0176460
800.535	0.0175345
800.613	0.0176569
800.692	0.0176282
800.770	0.0174726
800.848	0.0174943
800.926	0.0174926
801.004	0.0175153
801.082	0.0176814
801.160	0.0175382
801.238	0.0175186
801.317	0.0176073
801.395	0.0176501
801.473	0.0175963
801.551	0.0176473
801.629	0.0175359
801.707	0.0175554
801.785	0.0176533
801.863	0.0175671
801.942	0.0175739
802.020	0.0176843
802.098	0.0176840
802.176	0.0175572
802.254	0.0178547
802.332	0.0178181
802.410	0.0177851
802.488	0.0177516
802.567	0.0177997
802.645	0.0178403
802.723	0.0179126
802.801	0.0177154
802.879	0.0179319
802.957	0.0179156
803.035	0.0178951
803.113	0.0179890
803.192	0.0180281
803.270	0.0179836
803.348	0.0180520
803.426	0.0181208
803.504	0.0180878
803.582	0.0181303
803.660	0.0179702
803.738	0.0180244
803.817	0.0181854
803.895	0.0180629
803.973	0.0181534
804.051	0.0180765
804.129	0.0180180
804.207	0.0179500
804.285	0.0180778
804.363	0.0180422
804.442	0.0178990
804.520	0.0178599
804.598	0.0180217
804.676	0.0178905
804.754	0.0177764
804.832	0.0178245
804.910	0.0177353
804.988	0.0177869
805.067	0.0176566
805.145	0.0175774
805.223	0.0175784
805.301	0.0176567
805.379	0.0174221
805.457	0.0174761
805.535	0.0175049
805.613	0.0172527
805.692	0.0173406
805.770	0.0174261
805.848	0.0172863
805.926	0.0173458
806.004	0.0171338
806.082	0.0171667
806.160	0.0173585
806.238	0.0172523
806.317	0.0172820
806.395	0.0172096
806.473	0.0173112
806.551	0.0173746
806.629	0.0174525
806.707	0.0175496
806.785	0.0175820
806.863	0.0176699
806.942	0.0176221
807.020	0.0177507
807.098	0.0175927
807.176	0.0175531
807.254	0.0178035
807.332	0.0178246
807.410	0.0178540
807.488	0.0178028
807.567	0.0178649
807.645	0.0178922
807.723	0.0179629
807.801	0.0180843
807.879	0.0180821
807.957	0.0180827
808.035	0.0180017
808.113	0.0181144
808.192	0.0181479
808.270	0.0181059
808.348	0.0180366
808.426	0.0180299
808.504	0.0179915
808.582	0.0180178
808.660	0.0181326
808.738	0.0179339
808.817	0.0178612
808.895	0.0179749
808.973	0.0180301
809.051	0.0177567
809.129	0.0176908
809.207	0.0179394
809.285	0.0179659
809.363	0.0178453
809.442	0.0178524
809.520	0.0178892
809.598	0.0179537
809.676	0.0178761
809.754	0.0179072
809.832	0.0178139
809.910	0.0179223
809.988	0.0179417
810.067	0.0179318
810.145	0.0179310
810.223	0.0178912
810.301	0.0178932
810.379	0.0177959
810.457	0.0176206
810.535	0.0175932
810.613	0.0176351
810.692	0.0176302
810.770	0.0174522
810.848	0.0174468
810.926	0.0174630
811.004	0.0174126
811.082	0.0172811
811.160	0.0173658
811.238	0.0174413
811.317	0.0174743
811.395	0.0173945
811.473	0.0174548
811.551	0.0175687
811.629	0.0176437
811.707	0.0177281
811.785	0.0177407
811.863	0.0178188
811.942	0.0177304
812.020	0.0179346
812.098	0.0180801
812.176	0.0179157
812.254	0.0180437
812.332	0.0181627
812.410	0.0180698
812.488	0.0180577
812.567	0.0181498
812.645	0.0180002
812.723	0.0179810
812.801	0.0180946
812.879	0.0178901
812.957	0.0179073
813.035	0.0178880
813.113	0.0179117
813.192	0.0178714
813.270	0.0177845
813.348	0.0176901
813.426	0.0177486
813.504	0.0175567
813.582	0.0177875
813.660	0.0177630
813.738	0.0176562
813.817	0.0176188
813.895	0.0177898
813.973	0.0176825
814.051	0.0176071
814.129	0.0176296
814.207	0.0176957
814.285	0.0176496
814.363	0.0176654
814.442	0.0176531
814.520	0.0176992
814.598	0.0176559
814.676	0.0177956
814.754	0.0179443
814.832	0.0177316
814.910	0.0178201
814.988	0.0178855
815.067	0.0178415
815.145	0.0178825
815.223	0.0177895
815.301	0.0177215
815.379	0.0176636
815.457	0.0176461
815.535	0.0177903
815.613	0.0178571
815.692	0.0176492
815.770	0.0176490
815.848	0.0176015
815.926	0.0175355
816.004	0.0175647
816.082	0.0176740
816.160	0.0175728
816.238	0.0175479
816.317	0.0174438
816.395	0.0175382
816.473	0.0175337
816.551	0.0175971
816.629	0.0175555
816.707	0.0177065
816.785	0.0175943
816.863	0.0172520
816.942	0.0176305
817.020	0.0176903
817.098	0.0177021
817.176	0.0176720
817.254	0.0177900
817.332	0.0177187
817.410	0.0178082
817.488	0.0179381
817.567	0.0179494
817.645	0.0179956
817.723	0.0180418
817.801	0.0180116
817.879	0.0180514
817.957	0.0180288
818.035	0.0181210
818.113	0.0180538
818.192	0.0182178
818.270	0.0181154
818.348	0.0180381
818.426	0.0180429
818.504	0.0179190
818.582	0.0179494
818.660	0.0179858
818.738	0.0179248
818.817	0.0177296
818.895	0.0177290
818.973	0.0176700
819.051	0.0176232
819.129	0.0177542
819.207	0.0175242
819.285	0.0176410
819.363	0.0178890
819.442	0.0176370
819.520	0.0177329
819.598	0.0178868
819.676	0.0177453
819.754	0.0179121
819.832	0.0179142
819.910	0.0178613
819.988	0.0180741
820.067	0.0180002
820.145	0.0179559
820.223	0.0178420
820.301	0.0179794
820.379	0.0180513
820.457	0.0180530
820.535	0.0181026
820.613	0.0178375
820.692	0.0178433
820.770	0.0177045
820.848	0.0177809
820.926	0.0176945
821.004	0.0175716
821.082	0.0175176
821.160	0.0173328
821.238	0.0173327
821.317	0.0171553
821.395	0.0171436
821.473	0.0172588
821.551	0.0171097
821.629	0.0170911
821.707	0.0171033
821.785	0.0171584
821.863	0.0172399
821.942	0.0172159
822.020	0.0173057
822.098	0.0173485
822.176	0.0174351
822.254	0.0174445
822.332	0.0175121
822.410	0.0176152
822.488	0.0177336
822.567	0.0178360
822.645	0.0178838
822.723	0.0178542
822.801	0.0178172
822.879	0.0179919
822.957	0.0178748
823.035	0.0179633
823.113	0.0179406
823.192	0.0180345
823.270	0.0177820
823.348	0.0178595
823.426	0.0179026
823.504	0.0177091
823.582	0.0177766
823.660	0.0177084
823.738	0.0178404
823.817	0.0176794
823.895	0.0177603
823.973	0.0176970
824.051	0.0177157
824.129	0.0176263
824.207	0.0177930
824.285	0.0177717
824.363	0.0178257
824.442	0.0178671
824.520	0.0179386
824.598	0.0180224
824.676	0.0179504
824.754	0.0178589
824.832	0.0179975
824.910	0.0180039
824.988	0.0180795
825.067	0.0181059
825.145	0.0180930
825.223	0.0180522
825.301	0.0180926
825.379	0.0179208
825.457	0.0181198
825.535	0.0181783
825.613	0.0179030
825.692	0.0178997
825.770	0.0179906
825.848	0.0178122
825.926	0.0177148
826.004	0.0176755
826.082	0.0178275
826.160	0.0176994
826.238	0.0176191
826.317	0.0175793
826.395	0.0177608
826.473	0.0175983
826.551	0.0175764
826.629	0.0175814
826.707	0.0175055
826.785	0.0174971
826.863	0.0173574
826.942	0.0176477
827.020	0.0175907
827.098	0.0175460
827.176	0.0174081
827.254	0.0175394
827.332	0.0177380
827.410	0.0176613
827.488	0.0176079
827.567	0.0175412
827.645	0.0175589
827.723	0.0177021
827.801	0.0176855
827.879	0.0174721
827.957	0.0176075
828.035	0.0177736
828.113	0.0176757
828.192	0.0177208
828.270	0.0178298
828.348	0.0179108
828.426	0.0179731
828.504	0.0178950
828.582	0.0179879
828.660	0.0180444
828.738	0.0179986
828.817	0.0180025
828.895	0.0180360
828.973	0.0181241
829.051	0.0178949
829.129	0.0179180
829.207	0.0180071
829.285	0.0180113
829.363	0.0180312
829.442	0.0179251
829.520	0.0178786
829.598	0.0178233
829.676	0.0176894
829.754	0.0176312
829.832	0.0177756
829.910	0.0175828
829.988	0.0176429
830.067	0.0174593
830.145	0.0176505
830.223	0.0175898
830.301	0.0176033
830.379	0.0175434
830.457	0.0175255
830.535	0.0175059
830.613	0.0177135
830.692	0.0177399
830.770	0.0176590
830.848	0.0176968
830.926	0.0177260
831.004	0.0178358
831.082	0.0177905
831.160	0.0177469
831.238	0.0178464
831.317	0.0180482
831.395	0.0179154
831.473	0.0177932
831.551	0.0176846
831.629	0.0178075
831.707	0.0176482
831.785	0.0177619
831.863	0.0177764
831.942	0.0177818
832.020	0.0177103
832.098	0.0177817
832.176	0.0175812
832.254	0.0177551
832.332	0.0177512
832.410	0.0178685
832.488	0.0178397
832.567	0.0177996
832.645	0.0177622
832.723	0.0177609
832.801	0.0178372
832.879	0.0178326
832.957	0.0179251
833.035	0.0177863
833.113	0.0178601
833.192	0.0178288
833.270	0.0179340
833.348	0.0179032
833.426	0.0178870
833.504	0.0179424
833.582	0.0179279
833.660	0.0178720
833.738	0.0178561
833.817	0.0180540
833.895	0.0179350
833.973	0.0180499
834.051	0.0179259
834.129	0.0178400
834.207	0.0178276
834.285	0.0178983
834.363	0.0179284
834.442	0.0178342
834.520	0.0178201
834.598	0.0178113
834.676	0.0179317
834.754	0.0178815
834.832	0.0176963
834.910	0.0177297
834.988	0.0178300
835.067	0.0178173
835.145	0.0178678
835.223	0.0178014
835.301	0.0178098
835.379	0.0178348
835.457	0.0177728
835.535	0.0177760
835.613	0.0178033
835.692	0.0178560
835.770	0.0178241
835.848	0.0179030
835.926	0.0178558
836.004	0.0178193
836.082	0.0178284
836.160	0.0178380
836.238	0.0178226
836.317	0.0179102
836.395	0.0178835
836.473	0.0176894
836.551	0.0177084
836.629	0.0178003
836.707	0.0178217
836.785	0.0177105
836.863	0.0178236
836.942	0.0177110
837.020	0.0176894
837.098	0.0176626
837.176	0.0177593
837.254	0.0175925
837.332	0.0176415
837.410	0.0176360
837.488	0.0177477
837.567	0.0177808
837.645	0.0176971
837.723	0.0177289
837.801	0.0177361
837.879	0.0177099
837.957	0.0175458
838.035	0.0177648
838.113	0.0177702
838.192	0.0177223
838.270	0.0177576
838.348	0.0177940
838.426	0.0176856
838.504	0.0177236
838.582	0.0177434
838.660	0.0177016
838.738	0.0176366
838.817	0.0176627
838.895	0.0177245
838.973	0.0177042
839.051	0.0178333
839.129	0.0177436
839.207	0.0176779
839.285	0.0176891
839.363	0.0176421
839.442	0.0177806
839.520	0.0177238
839.598	0.0178761
839.676	0.0179247
839.754	0.0179472
839.832	0.0180300
839.910	0.0179677
839.988	0.0180198
840.067	0.0180910
840.145	0.0180597
840.223	0.0180981
840.301	0.0182702
840.379	0.0180656
840.457	0.0179503
840.535	0.0179935
840.613	0.0182429
840.692	0.0180114
840.770	0.0180008
840.848	0.0180361
840.926	0.0181184
841.004	0.0181696
841.082	0.0179010
841.160	0.0179848
841.238	0.0179659
841.317	0.0178402
841.395	0.0178336
841.473	0.0178455
841.551	0.0178985
841.629	0.0176908
841.707	0.0178045
841.785	0.0176417
841.863	0.0177405
841.942	0.0177522
842.020	0.0179214
842.098	0.0177494
842.176	0.0178355
842.254	0.0178098
842.332	0.0176505
842.410	0.0176440
842.488	0.0177108
842.567	0.0177013
842.645	0.0175600
842.723	0.0175178
842.801	0.0176191
842.879	0.0176968
842.957	0.0176762
843.035	0.0175355
843.113	0.0174192
843.192	0.0174218
843.270	0.0174216
843.348	0.0174848
843.426	0.0174386
843.504	0.0176165
843.582	0.0174391
843.660	0.0174258
843.738	0.0175509
843.817	0.0175354
843.895	0.0176612
843.973	0.0178021
844.051	0.0177158
844.129	0.0178092
844.207	0.0177496
844.285	0.0179420
844.363	0.0178458
844.442	0.0179696
844.520	0.0179427
844.598	0.0181073
844.676	0.0180045
844.754	0.0178968
844.832	0.0180162
844.910	0.0180099
844.988	0.0180224
845.067	0.0177653
845.145	0.0178471
845.223	0.0178758
845.301	0.0178826
845.379	0.0175986
845.457	0.0177308
845.535	0.0176902
845.613	0.0175560
845.692	0.0175854
845.770	0.0176450
845.848	0.0176093
845.926	0.0176321
846.004	0.0178872
846.082	0.0177107
846.160	0.0176318
846.238	0.0177106
846.317	0.0176762
846.395	0.0176200
846.473	0.0176678
846.551	0.0176385
846.629	0.0177665
846.707	0.0177821
846.785	0.0177679
846.863	0.0177836
846.942	0.0176935
847.020	0.0178259
847.098	0.0177515
847.176	0.0178475
847.254	0.0178839
847.332	0.0178231
847.410	0.0178355
847.488	0.0178539
847.567	0.0178557
847.645	0.0178880
847.723	0.0178787
847.801	0.0178081
847.879	0.0178812
847.957	0.0178694
848.035	0.0177980
848.113	0.0177990
848.192	0.0177907
848.270	0.0178587
848.348	0.0177554
848.426	0.0178008
848.504	0.0176976
848.582	0.0177743
848.660	0.0178311
848.738	0.0176498
848.817	0.0177695
848.895	0.0177862
848.973	0.0176723
849.051	0.0178937
849.129	0.0178074
849.207	0.0178772
849.285	0.0178893
849.363	0.0178487
849.442	0.0178837
849.520	0.0177824
849.598	0.0178657
849.676	0.0178703
849.754	0.0178336
849.832	0.0179785
849.910	0.0179352
849.988	0.0177826
850.067	0.0180209
850.145	0.0179321
850.223	0.0179484
850.301	0.0179099
850.379	0.0177934
850.457	0.0178071
850.535	0.0178401
850.613	0.0178978
850.692	0.0178135
850.770	0.0177121
850.848	0.0175805
850.926	0.0176712
851.004	0.0174630
851.082	0.0175543
851.160	0.0173727
851.238	0.0173489
851.317	0.0173891
851.395	0.0172333
851.473	0.0173675
851.551	0.0172746
851.629	0.0173103
851.707	0.0174849
851.785	0.0173790
851.863	0.0174231
851.942	0.0175813
852.020	0.0177261
852.098	0.0177101
852.176	0.0176170
852.254	0.0179442
852.332	0.0178236
852.410	0.0179506
852.488	0.0178980
852.567	0.0177998
852.645	0.0180499
852.723	0.0181491
852.801	0.0180289
852.879	0.0180805
852.957	0.0180240
853.035	0.0179690
853.113	0.0179169
853.192	0.0179317
853.270	0.0179591
853.348	0.0179028
853.426	0.0177918
853.504	0.0178107
853.582	0.0177516
853.660	0.0176656
853.738	0.0178316
853.817	0.0176865
853.895	0.0176562
853.973	0.0176138
854.051	0.0176796
854.129	0.0178302
854.207	0.0176838
854.285	0.0176458
854.363	0.0178680
854.442	0.0178299
854.520	0.0177242
854.598	0.0178274
854.676	0.0177508
854.754	0.0179559
854.832	0.0177139
854.910	0.0179272
854.988	0.0177355
855.067	0.0177962
855.145	0.0177787
855.223	0.0178011
855.301	0.0177866
855.379	0.0178112
855.457	0.0178724
855.535	0.0177707
855.613	0.0179593
855.692	0.0178548
855.770	0.0178681
855.848	0.0178200
855.926	0.0177885
856.004	0.0179931
856.082	0.0178674
856.160	0.0178259
856.238	0.0178154
856.317	0.0178484
856.395	0.0178378
856.473	0.0180386
856.551	0.0178882
856.629	0.0179190
856.707	0.0180539
856.785	0.0178285
856.863	0.0178870
856.942	0.0177818
857.020	0.0177894
857.098	0.0176822
857.176	0.0177596
857.254	0.0177099
857.332	0.0176360
857.410	0.0175266
857.488	0.0176207
857.567	0.0175530
857.645	0.0175217
857.723	0.0174266
857.801	0.0175230
857.879	0.0175257
857.957	0.0176051
858.035	0.0175069
858.113	0.0176377
858.192	0.0176441
858.270	0.0174824
858.348	0.0177778
858.426	0.0177619
858.504	0.0178377
858.582	0.0178786
858.660	0.0178693
858.738	0.0177924
858.817	0.0178896
858.895	0.0179965
858.973	0.0181342
859.051	0.0179732
859.129	0.0178470
859.207	0.0179769
859.285	0.0178284
859.363	0.0179119
859.442	0.0178833
859.520	0.0177994
859.598	0.0178958
859.676	0.0177966
859.754	0.0175764
859.832	0.0176125
859.910	0.0175954
859.988	0.0175052
860.067	0.0175355
860.145	0.0174360
860.223	0.0175909
860.301	0.0174892
860.379	0.0175399
860.457	0.0174626
860.535	0.0174636
860.613	0.0177477
860.692	0.0175965
860.770	0.0177581
860.848	0.0177862
860.926	0.0177632
861.004	0.0179842
861.082	0.0178467
861.160	0.0179299
861.238	0.0179496
861.317	0.0179140
861.395	0.0179382
861.473	0.0181773
861.551	0.0182105
861.629	0.0180259
861.707	0.0179742
861.785	0.0180386
861.863	0.0177913
861.942	0.0179408
862.020	0.0177723
862.098	0.0176819
862.176	0.0177287
862.254	0.0176669
862.332	0.0176772
862.410	0.0176200
862.488	0.0176444
862.567	0.0176900
862.645	0.0175286
862.723	0.0175310
862.801	0.0177839
862.879	0.0177406
862.957	0.0178759
863.035	0.0177322
863.113	0.0177635
863.192	0.0178789
863.270	0.0179317
863.348	0.0177908
863.426	0.0180470
863.504	0.0180128
863.582	0.0180293
863.660	0.0180283
863.738	0.0180435
863.817	0.0179149
863.895	0.0179913
863.973	0.0180199
864.051	0.0178490
864.129	0.0177579
864.207	0.0177303
864.285	0.0178270
864.363	0.0177826
864.442	0.0177611
864.520	0.0175773
864.598	0.0176541
864.676	0.0176375
864.754	0.0175402
864.832	0.0175659
864.910	0.0176614
864.988	0.0176214
865.067	0.0176153
865.145	0.0176804
865.223	0.0177109
865.301	0.0178187
865.379	0.0176929
865.457	0.0178252
865.535	0.0177437
865.613	0.0177893
865.692	0.0178827
865.770	0.0179884
865.848	0.0179554
865.926	0.0178728
866.004	0.0179527
866.082	0.0180116
866.160	0.0179351
866.238	0.0180434
866.317	0.0179812
866.395	0.0177500
866.473	0.0177389
866.551	0.0177324
866.629	0.0177298
866.707	0.0177444
866.785	0.0176849
866.863	0.0176334
866.942	0.0176006
867.020	0.0176420
867.098	0.0174797
867.176	0.0175296
867.254	0.0175094
867.332	0.0174342
867.410	0.0175656
867.488	0.0177738
867.567	0.0176326
867.645	0.0176756
867.723	0.0176376
867.801	0.0176417
867.879	0.0177031
867.957	0.0176665
868.035	0.0176508
868.113	0.0176152
868.192	0.0178409
868.270	0.0177697
868.348	0.0176833
868.426	0.0177078
868.504	0.0178069
868.582	0.0177241
868.660	0.0177299
868.738	0.0178568
868.817	0.0178178
868.895	0.0177348
868.973	0.0177222
869.051	0.0176924
869.129	0.0177191
869.207	0.0176237
869.285	0.0176548
869.363	0.0176280
869.442	0.0175502
869.520	0.0175203
869.598	0.0177180
869.676	0.0178203
869.754	0.0177020
869.832	0.0176475
869.910	0.0176942
869.988	0.0179017
870.067	0.0178011
870.145	0.0177527
870.223	0.0177477
870.301	0.0178763
870.379	0.0179948
870.457	0.0177895
870.535	0.0179447
870.613	0.0179612
870.692	0.0179520
870.770	0.0177734
870.848	0.0178973
870.926	0.0180280
871.004	0.0179234
871.082	0.0179655
871.160	0.0179230
871.238	0.0178526
871.317	0.0177801
871.395	0.0178101
871.473	0.0177126
871.551	0.0177930
871.629	0.0177998
871.707	0.0177878
871.785	0.0178001
871.863	0.0177260
871.942	0.0177534
872.020	0.0176218
872.098	0.0177155
872.176	0.0177097
872.254	0.0177470
872.332	0.0178886
872.410	0.0177835
872.488	0.0177627
872.567	0.0177626
872.645	0.0179630
872.723	0.0179277
872.801	0.0179254
872.879	0.0179087
872.957	0.0179367
873.035	0.0179549
873.113	0.0179953
873.192	0.0178358
873.270	0.0179079
873.348	0.0178574
873.426	0.0179874
873.504	0.0177067
873.582	0.0177862
873.660	0.0178940
873.738	0.0177789
873.817	0.0176427
873.895	0.0178714
873.973	0.0177766
874.051	0.0178960
874.129	0.0176815
874.207	0.0176247
874.285	0.0178394
874.363	0.0177664
874.442	0.0176678
874.520	0.0178171
874.598	0.0177547
874.676	0.0176777
874.754	0.0177120
874.832	0.0178011
874.910	0.0177534
874.988	0.0176386
875.067	0.0177637
875.145	0.0176655
875.223	0.0177382
875.301	0.0177006
875.379	0.0175745
875.457	0.0174974
875.535	0.0174662
875.613	0.0175793
875.692	0.0175631
875.770	0.0176871
875.848	0.0177086
875.926	0.0175962
876.004	0.0175351
876.082	0.0176811
876.160	0.0176508
876.238	0.0177267
876.317	0.0178436
876.395	0.0177728
876.473	0.0176340
876.551	0.0178400
876.629	0.0178211
876.707	0.0176972
876.785	0.0176960
876.863	0.0177072
876.942	0.0179838
877.020	0.0179694
877.098	0.0178761
877.176	0.0178432
877.254	0.0178806
877.332	0.0179328
877.410	0.0179605
877.488	0.0178889
877.567	0.0180119
877.645	0.0181093
877.723	0.0179879
877.801	0.0179548
877.879	0.0179949
877.957	0.0179899
878.035	0.0179317
878.113	0.0180967
878.192	0.0179449
878.270	0.0178984
878.348	0.0180508
878.426	0.0179095
878.504	0.0177917
878.582	0.0179731
878.660	0.0177660
878.738	0.0178308
878.817	0.0177859
878.895	0.0178344
878.973	0.0177978
879.051	0.0178017
879.129	0.0177795
879.207	0.0176925
879.285	0.0176867
879.363	0.0176805
879.442	0.0177022
879.520	0.0176735
879.598	0.0176077
879.676	0.0175811
879.754	0.0176306
879.832	0.0176586
879.910	0.0175308
879.988	0.0175591
880.067	0.0177285
880.145	0.0175932
880.223	0.0176019
880.301	0.0176572
880.379	0.0176989
880.457	0.0175430
880.535	0.0176517
880.613	0.0176917
880.692	0.0176962
880.770	0.0176554
880.848	0.0177635
880.926	0.0177788
881.004	0.0177147
881.082	0.0176492
881.160	0.0176486
881.238	0.0179048
881.317	0.0178625
881.395	0.0177589
881.473	0.0176240
881.551	0.0178340
881.629	0.0176926
881.707	0.0177346
881.785	0.0177126
881.863	0.0177621
881.942	0.0177068
882.020	0.0177322
882.098	0.0178841
882.176	0.0177776
882.254	0.0177635
882.332	0.0176712
882.410	0.0179449
882.488	0.0179630
882.567	0.0180561
882.645	0.0182531
882.723	0.0181733
882.801	0.0182236
882.879	0.0182954
882.957	0.0183369
883.035	0.0184067
883.113	0.0182599
883.192	0.0180168
883.270	0.0179759
883.348	0.0179214
883.426	0.0176225
883.504	0.0175254
883.582	0.0175495
883.660	0.0173296
883.738	0.0172722
883.817	0.0170699
883.895	0.0170998
883.973	0.0170988
884.051	0.0170860
884.129	0.0170872
884.207	0.0169908
884.285	0.0173408
884.363	0.0173354
884.442	0.0175408
884.520	0.0179175
884.598	0.0179930
884.676	0.0181141
884.754	0.0184104
884.832	0.0186172
884.910	0.0186031
884.988	0.0187379
885.067	0.0188879
885.145	0.0187914
885.223	0.0186613
885.301	0.0184175
885.379	0.0181040
885.457	0.0178748
885.535	0.0174673
885.613	0.0174903
885.692	0.0170128
885.770	0.0166264
885.848	0.0165347
885.926	0.0163712
886.004	0.0162264
886.082	0.0161782
886.160	0.0162597
886.238	0.0164971
886.317	0.0164969
886.395	0.0171441
886.473	0.0175491
886.551	0.0177651
886.629	0.0180728
886.707	0.0185745
886.785	0.0188562
886.863	0.0192136
886.942	0.0194282
887.020	0.0195650
887.098	0.0195687
887.176	0.0197176
887.254	0.0197739
887.332	0.0194344
887.410	0.0191544
887.488	0.0190278
887.567	0.0186477
887.645	0.0182496
887.723	0.0178316
887.801	0.0175667
887.879	0.0171729
887.957	0.0168639
888.035	0.0164284
888.113	0.0161929
888.192	0.0161451
888.270	0.0161268
888.348	0.0161454
888.426	0.0161130
888.504	0.0162611
888.582	0.0164542
888.660	0.0166938
888.738	0.0168867
888.817	0.0171285
888.895	0.0174259
888.973	0.0176565
889.051	0.0179559
889.129	0.0181192
889.207	0.0182846
889.285	0.0185264
889.363	0.0186606
889.442	0.0186444
889.520	0.0186996
889.598	0.0185740
889.676	0.0184798
889.754	0.0183164
889.832	0.0182192
889.910	0.0180438
889.988	0.0178488
890.067	0.0178187
890.145	0.0177437
890.223	0.0176094
890.301	0.0174192
890.379	0.0173373
890.457	0.0173325
890.535	0.0173179
890.613	0.0173014
890.692	0.0174088
890.770	0.0173532
890.848	0.0174907
890.926	0.0174575
891.004	0.0176730
891.082	0.0177035
891.160	0.0177631
891.238	0.0178139
891.317	0.0178712
891.395	0.0178369
891.473	0.0178806
891.551	0.0178706
891.629	0.0178654
891.707	0.0179049
891.785	0.0177030
891.863	0.0179073
891.942	0.0177321
892.020	0.0176991
892.098	0.0176089
892.176	0.0176591
892.254	0.0175771
892.332	0.0174953
892.410	0.0175497
892.488	0.0173090
892.567	0.0174271
892.645	0.0176411
892.723	0.0174654
892.801	0.0173183
892.879	0.0174464
892.957	0.0175791
893.035	0.0176772
893.113	0.0177444
893.192	0.0177653
893.270	0.0179166
893.348	0.0181222
893.426	0.0180872
893.504	0.0182079
893.582	0.0182391
893.660	0.0182072
893.738	0.0183913
893.817	0.0185217
893.895	0.0183081
893.973	0.0183289
894.051	0.0184687
894.129	0.0184322
894.207	0.0184193
894.285	0.0182695
894.363	0.0182101
894.442	0.0181238
894.520	0.0180383
894.598	0.0180816
894.676	0.0179800
894.754	0.0177039
894.832	0.0178277
894.910	0.0176316
894.988	0.0175018
895.067	0.0174049
895.145	0.0174090
895.223	0.0172565
895.301	0.0172907
895.379	0.0170802
895.457	0.0170511
895.535	0.0170943
895.613	0.0170507
895.692	0.0170603
895.770	0.0171240
895.848	0.0171651
895.926	0.0172198
896.004	0.0172278
896.082	0.0173717
896.160	0.0175468
896.238	0.0175719
896.317	0.0176518
896.395	0.0178753
896.473	0.0180192
896.551	0.0182032
896.629	0.0181900
896.707	0.0181614
896.785	0.0182035
896.863	0.0182613
896.942	0.0182384
897.020	0.0182878
897.098	0.0182708
897.176	0.0181528
897.254	0.0181648
897.332	0.0182738
897.410	0.0180576
897.488	0.0179504
897.567	0.0179402
897.645	0.0179234
897.723	0.0177349
897.801	0.0177634
897.879	0.0175806
897.957	0.0174667
898.035	0.0175841
898.113	0.0174564
898.192	0.0173888
898.270	0.0173326
898.348	0.0173608
898.426	0.0174599
898.504	0.0173165
898.582	0.0174920
898.660	0.0175722
898.738	0.0176671
898.817	0.0176226
898.895	0.0175623
898.973	0.0177587
899.051	0.0177958
899.129	0.0178851
899.207	0.0179981
899.285	0.0179307
899.363	0.0180693
899.442	0.0180908
899.520	0.0182008
899.598	0.0182343
899.676	0.0182893
899.754	0.0181923
899.832	0.0182817
899.910	0.0181512
899.988	0.0181203
900.067	0.0181461
900.145	0.0181405
900.223	0.0178473
900.301	0.0179696
900.379	0.0176879
900.457	0.0175732
900.535	0.0174617
900.613	0.0175937
900.692	0.0173773
900.770	0.0171133
900.848	0.0171284
900.926	0.0172459
901.004	0.0170638
901.082	0.0170783
901.160	0.0171114
901.238	0.0169864
901.317	0.0171362
901.395	0.0172301
901.473	0.0174106
901.551	0.0174939
901.629	0.0175603
901.707	0.0176978
901.785	0.0178784
901.863	0.0177994
901.942	0.0179858
902.020	0.0182280
902.098	0.0180889
902.176	0.0181043
902.254	0.0181425
902.332	0.0181374
902.410	0.0180479
902.488	0.0180188
902.567	0.0178829
902.645	0.0179418
902.723	0.0177538
902.801	0.0175592
902.879	0.0176256
902.957	0.0176993
903.035	0.0175935
903.113	0.0175303
903.192	0.0175134
903.270	0.0175495
903.348	0.0174867
903.426	0.0175936
903.504	0.0176376
903.582	0.0176129
903.660	0.0175298
903.738	0.0176430
903.817	0.0177023
903.895	0.0176887
903.973	0.0175807
904.051	0.0175558
904.129	0.0177855
904.207	0.0176542
904.285	0.0175935
904.363	0.0176395
904.442	0.0175843
904.520	0.0176817
904.598	0.0175859
904.676	0.0177139
904.754	0.0177409
904.832	0.0177254
904.910	0.0176215
904.988	0.0176598
905.067	0.0176653
905.145	0.0177266
905.223	0.0177817
905.301	0.0178625
905.379	0.0178070
905.457	0.0177964
905.535	0.0179783
905.613	0.0179726
905.692	0.0178893
905.770	0.0178775
905.848	0.0182043
905.926	0.0181884
906.004	0.0181885
906.082	0.0179977
906.160	0.0180382
906.238	0.0179700
906.317	0.0180103
906.395	0.0179220
906.473	0.0178309
906.551	0.0178904
906.629	0.0179324
906.707	0.0178805
906.785	0.0178684
906.863	0.0177817
906.942	0.0178220
907.020	0.0178444
907.098	0.0177384
907.176	0.0176424
907.254	0.0177068
907.332	0.0176505
907.410	0.0176695
907.488	0.0176637
907.567	0.0177518
907.645	0.0176827
907.723	0.0176977
907.801	0.0176377
907.879	0.0177972
907.957	0.0175649
908.035	0.0176080
908.113	0.0176101
908.192	0.0176868
908.270	0.0175727
908.348	0.0176338
908.426	0.0177016
908.504	0.0176162
908.582	0.0177140
908.660	0.0175472
908.738	0.0176776
908.817	0.0177127
908.895	0.0176994
908.973	0.0177293
909.051	0.0177758
909.129	0.0177599
909.207	0.0178237
909.285	0.0180490
909.363	0.0180752
909.442	0.0179690
909.520	0.0180226
909.598	0.0180926
909.676	0.0181677
909.754	0.0180994
909.832	0.0181931
909.910	0.0181084
909.988	0.0181081
910.067	0.0180511
910.145	0.0181355
910.223	0.0179922
910.301	0.0178844
910.379	0.0179446
910.457	0.0178980
910.535	0.0177506
910.613	0.0179111
910.692	0.0177807
910.770	0.0175881
910.848	0.0176379
910.926	0.0175190
911.004	0.0175085
911.082	0.0174731
911.160	0.0172890
911.238	0.0173446
911.317	0.0173791
911.395	0.0174336
911.473	0.0174527
911.551	0.0174826
911.629	0.0174699
911.707	0.0175338
911.785	0.0174088
911.863	0.0176037
911.942	0.0176166
912.020	0.0176813
912.098	0.0177272
912.176	0.0179157
912.254	0.0179072
912.332	0.0180475
912.410	0.0179764
912.488	0.0179211
912.567	0.0181233
912.645	0.0179420
912.723	0.0179017
912.801	0.0181150
912.879	0.0180929
912.957	0.0181082
913.035	0.0181565
913.113	0.0182161
913.192	0.0180430
913.270	0.0181702
913.348	0.0180821
913.426	0.0180287
913.504	0.0180593
913.582	0.0179575
913.660	0.0180241
913.738	0.0179221
913.817	0.0176424
913.895	0.0177491
913.973	0.0176263
914.051	0.0177205
914.129	0.0177178
914.207	0.0177984
914.285	0.0177185
914.363	0.0176435
914.442	0.0176544
914.520	0.0176591
914.598	0.0175916
914.676	0.0176888
914.754	0.0175397
914.832	0.0175909
914.910	0.0174487
914.988	0.0174799
915.067	0.0173381
915.145	0.0175239
915.223	0.0175124
915.301	0.0177269
915.379	0.0174457
915.457	0.0174586
915.535	0.0175208
915.613	0.0176711
915.692	0.0175875
915.770	0.0175613
915.848	0.0177293
915.926	0.0176511
916.004	0.0176433
916.082	0.0178486
916.160	0.0179291
916.238	0.0179488
916.317	0.0179321
916.395	0.0178233
916.473	0.0179131
916.551	0.0177987
916.629	0.0178912
916.707	0.0178614
916.785	0.0178468
916.863	0.0178899
916.942	0.0178596
917.020	0.0176934
917.098	0.0177007
917.176	0.0177370
917.254	0.0176260
917.332	0.0177396
917.410	0.0176369
917.488	0.0176797
917.567	0.0176964
917.645	0.0175899
917.723	0.0175395
917.801	0.0175677
917.879	0.0176952
917.957	0.0177206
918.035	0.0176750
918.113	0.0177830
918.192	0.0177320
918.270	0.0177916
918.348	0.0179211
918.426	0.0179083
918.504	0.0178995
918.582	0.0181032
918.660	0.0180432
918.738	0.0181536
918.817	0.0180027
918.895	0.0180152
918.973	0.0180624
919.051	0.0180909
919.129	0.0180987
919.207	0.0180191
919.285	0.0179731
919.363	0.0178480
919.442	0.0179028
919.520	0.0178016
919.598	0.0179172
919.676	0.0178476
919.754	0.0177421
919.832	0.0177448
919.910	0.0176749
