06/01/2022	21:34:22	Ver.	4.1	UNKNOWN
Optical Delay	599.988409	Delta X		0.078125	Sweeps	1	Scan Rate	0/0
Coordinates	Axis 1	NaN	Axis 2	NaN	Axis 3	NaN	Axis 4	NaN	Axis 5	NaN	Axis 6	0.000000
TX Power	0.000000	RX Power	0.000000

599.988	0.0182720
600.067	0.0182177
600.145	0.0183984
600.223	0.0182543
600.301	0.0183264
600.379	0.0183004
600.457	0.0182788
600.535	0.0182379
600.613	0.0182522
600.692	0.0183275
600.770	0.0182610
600.848	0.0181876
600.926	0.0183045
601.004	0.0183009
601.082	0.0181924
601.160	0.0181410
601.238	0.0183692
601.317	0.0183331
601.395	0.0182266
601.473	0.0182098
601.551	0.0182661
601.629	0.0182047
601.707	0.0182956
601.785	0.0184769
601.863	0.0181892
601.942	0.0182662
602.020	0.0183205
602.098	0.0182921
602.176	0.0182916
602.254	0.0182580
602.332	0.0181687
602.410	0.0182408
602.488	0.0180787
602.567	0.0181596
602.645	0.0183060
602.723	0.0183407
602.801	0.0183065
602.879	0.0183273
602.957	0.0183021
603.035	0.0182580
603.113	0.0182225
603.192	0.0181682
603.270	0.0182068
603.348	0.0183316
603.426	0.0182990
603.504	0.0182795
603.582	0.0182273
603.660	0.0183236
603.738	0.0182468
603.817	0.0181967
603.895	0.0181514
603.973	0.0183288
604.051	0.0183128
604.129	0.0182146
604.207	0.0183842
604.285	0.0183793
604.363	0.0182059
604.442	0.0182058
604.520	0.0183958
604.598	0.0183939
604.676	0.0182508
604.754	0.0182137
604.832	0.0182493
604.910	0.0182200
604.988	0.0182211
605.067	0.0183630
605.145	0.0181639
605.223	0.0182393
605.301	0.0182813
605.379	0.0183298
605.457	0.0182857
605.535	0.0183323
605.613	0.0181963
605.692	0.0183724
605.770	0.0181445
605.848	0.0182010
605.926	0.0181540
606.004	0.0181096
606.082	0.0183256
606.160	0.0182630
606.238	0.0183327
606.317	0.0183665
606.395	0.0184256
606.473	0.0182523
606.551	0.0182021
606.629	0.0181490
606.707	0.0182336
606.785	0.0182700
606.863	0.0183700
606.942	0.0182658
607.020	0.0184061
607.098	0.0182386
607.176	0.0181760
607.254	0.0182955
607.332	0.0182525
607.410	0.0182087
607.488	0.0183244
607.567	0.0182183
607.645	0.0183121
607.723	0.0184025
607.801	0.0182137
607.879	0.0182999
607.957	0.0183476
608.035	0.0182413
608.113	0.0181992
608.192	0.0182541
608.270	0.0182637
608.348	0.0182693
608.426	0.0182386
608.504	0.0183726
608.582	0.0183139
608.660	0.0182555
608.738	0.0182442
608.817	0.0182979
608.895	0.0183176
608.973	0.0182313
609.051	0.0181845
609.129	0.0183398
609.207	0.0182743
609.285	0.0182912
609.363	0.0183170
609.442	0.0182291
609.520	0.0182610
609.598	0.0183576
609.676	0.0182378
609.754	0.0182030
609.832	0.0182561
609.910	0.0183607
609.988	0.0183041
610.067	0.0182538
610.145	0.0182787
610.223	0.0183163
610.301	0.0183522
610.379	0.0182433
610.457	0.0182900
610.535	0.0183491
610.613	0.0182636
610.692	0.0182773
610.770	0.0181082
610.848	0.0183604
610.926	0.0182967
611.004	0.0182288
611.082	0.0183576
611.160	0.0183026
611.238	0.0183484
611.317	0.0182918
611.395	0.0182034
611.473	0.0182640
611.551	0.0183369
611.629	0.0182121
611.707	0.0183754
611.785	0.0182633
611.863	0.0182748
611.942	0.0181194
612.020	0.0181678
612.098	0.0181695
612.176	0.0182090
612.254	0.0182277
612.332	0.0182579
612.410	0.0182455
612.488	0.0181259
612.567	0.0180917
612.645	0.0182034
612.723	0.0182426
612.801	0.0183047
612.879	0.0182012
612.957	0.0181976
613.035	0.0182806
613.113	0.0184203
613.192	0.0183565
613.270	0.0183887
613.348	0.0183463
613.426	0.0183768
613.504	0.0183204
613.582	0.0182629
613.660	0.0184354
613.738	0.0183349
613.817	0.0183427
613.895	0.0182810
613.973	0.0182268
614.051	0.0182272
614.129	0.0182032
614.207	0.0181824
614.285	0.0182473
614.363	0.0181459
614.442	0.0182762
614.520	0.0182405
614.598	0.0182825
614.676	0.0182863
614.754	0.0181216
614.832	0.0183082
614.910	0.0183453
614.988	0.0181158
615.067	0.0182899
615.145	0.0183569
615.223	0.0183216
615.301	0.0182450
615.379	0.0183904
615.457	0.0184130
615.535	0.0183262
615.613	0.0183250
615.692	0.0183072
615.770	0.0183275
615.848	0.0185025
615.926	0.0185240
616.004	0.0184023
616.082	0.0184258
616.160	0.0184660
616.238	0.0183986
616.317	0.0183070
616.395	0.0182848
616.473	0.0181994
616.551	0.0182821
616.629	0.0180951
616.707	0.0182514
616.785	0.0181298
616.863	0.0180386
616.942	0.0182700
617.020	0.0181070
617.098	0.0180579
617.176	0.0182895
617.254	0.0182947
617.332	0.0182494
617.410	0.0181728
617.488	0.0182793
617.567	0.0182359
617.645	0.0183852
617.723	0.0184187
617.801	0.0183357
617.879	0.0183530
617.957	0.0182265
618.035	0.0184733
618.113	0.0183594
618.192	0.0184039
618.270	0.0181977
618.348	0.0184513
618.426	0.0182623
618.504	0.0184492
618.582	0.0184187
618.660	0.0183514
618.738	0.0185280
618.817	0.0182987
618.895	0.0181474
618.973	0.0182935
619.051	0.0183984
619.129	0.0183257
619.207	0.0182056
619.285	0.0182497
619.363	0.0184599
619.442	0.0183521
619.520	0.0182323
619.598	0.0182582
619.676	0.0181805
619.754	0.0183084
619.832	0.0182555
619.910	0.0182243
619.988	0.0181676
620.067	0.0181567
620.145	0.0182481
620.223	0.0182643
620.301	0.0182099
620.379	0.0182460
620.457	0.0182642
620.535	0.0182569
620.613	0.0184294
620.692	0.0182236
620.770	0.0182993
620.848	0.0183527
620.926	0.0183084
621.004	0.0183923
621.082	0.0182572
621.160	0.0183299
621.238	0.0183311
621.317	0.0181990
621.395	0.0182189
621.473	0.0182996
621.551	0.0182625
621.629	0.0182210
621.707	0.0183627
621.785	0.0181711
621.863	0.0182104
621.942	0.0183913
622.020	0.0183768
622.098	0.0182103
622.176	0.0183636
622.254	0.0183552
622.332	0.0182803
622.410	0.0183967
622.488	0.0182264
622.567	0.0183056
622.645	0.0183097
622.723	0.0183568
622.801	0.0182890
622.879	0.0183304
622.957	0.0183363
623.035	0.0183354
623.113	0.0182896
623.192	0.0183180
623.270	0.0182861
623.348	0.0183979
623.426	0.0183177
623.504	0.0182817
623.582	0.0182781
623.660	0.0184457
623.738	0.0182516
623.817	0.0182738
623.895	0.0184097
623.973	0.0182713
624.051	0.0182765
624.129	0.0182365
624.207	0.0182890
624.285	0.0183250
624.363	0.0183195
624.442	0.0182081
624.520	0.0183379
624.598	0.0182554
624.676	0.0183298
624.754	0.0181658
624.832	0.0182292
624.910	0.0182811
624.988	0.0182282
625.067	0.0182810
625.145	0.0183316
625.223	0.0182742
625.301	0.0181712
625.379	0.0182417
625.457	0.0183650
625.535	0.0182967
625.613	0.0182678
625.692	0.0183524
625.770	0.0183499
625.848	0.0182837
625.926	0.0182024
626.004	0.0183216
626.082	0.0182491
626.160	0.0182688
626.238	0.0183383
626.317	0.0182446
626.395	0.0181786
626.473	0.0183646
626.551	0.0182254
626.629	0.0183199
626.707	0.0183260
626.785	0.0183612
626.863	0.0181716
626.942	0.0184495
627.020	0.0182525
627.098	0.0181294
627.176	0.0183573
627.254	0.0182707
627.332	0.0183149
627.410	0.0183607
627.488	0.0183501
627.567	0.0182355
627.645	0.0181763
627.723	0.0182842
627.801	0.0183054
627.879	0.0183353
627.957	0.0182661
628.035	0.0182365
628.113	0.0181396
628.192	0.0182585
628.270	0.0183476
628.348	0.0184200
628.426	0.0182355
628.504	0.0181668
628.582	0.0182741
628.660	0.0183198
628.738	0.0182488
628.817	0.0182679
628.895	0.0181705
628.973	0.0181426
629.051	0.0181425
629.129	0.0182507
629.207	0.0182224
629.285	0.0182314
629.363	0.0182159
629.442	0.0182056
629.520	0.0182126
629.598	0.0183583
629.676	0.0183215
629.754	0.0182644
629.832	0.0182491
629.910	0.0183219
629.988	0.0183510
630.067	0.0181682
630.145	0.0182629
630.223	0.0182306
630.301	0.0182822
630.379	0.0182097
630.457	0.0183091
630.535	0.0182471
630.613	0.0182782
630.692	0.0182499
630.770	0.0182427
630.848	0.0181851
630.926	0.0181719
631.004	0.0182626
631.082	0.0182618
631.160	0.0183534
631.238	0.0182417
631.317	0.0183543
631.395	0.0183231
631.473	0.0182775
631.551	0.0183671
631.629	0.0182569
631.707	0.0183338
631.785	0.0182306
631.863	0.0183962
631.942	0.0182895
632.020	0.0182942
632.098	0.0182803
632.176	0.0182407
632.254	0.0183771
632.332	0.0183533
632.410	0.0184150
632.488	0.0183746
632.567	0.0183174
632.645	0.0183987
632.723	0.0183423
632.801	0.0182975
632.879	0.0184133
632.957	0.0182976
633.035	0.0181628
633.113	0.0182822
633.192	0.0182985
633.270	0.0183405
633.348	0.0183150
633.426	0.0182561
633.504	0.0182355
633.582	0.0182791
633.660	0.0183872
633.738	0.0181952
633.817	0.0183086
633.895	0.0181474
633.973	0.0182658
634.051	0.0184794
634.129	0.0182260
634.207	0.0182004
634.285	0.0184239
634.363	0.0184065
634.442	0.0181828
634.520	0.0181499
634.598	0.0183303
634.676	0.0182041
634.754	0.0182812
634.832	0.0183157
634.910	0.0182750
634.988	0.0182431
635.067	0.0183969
635.145	0.0181104
635.223	0.0181654
635.301	0.0183965
635.379	0.0182571
635.457	0.0183260
635.535	0.0181674
635.613	0.0183105
635.692	0.0183604
635.770	0.0183671
635.848	0.0183002
635.926	0.0182085
636.004	0.0181350
636.082	0.0183436
636.160	0.0182482
636.238	0.0183270
636.317	0.0181719
636.395	0.0183362
636.473	0.0181956
636.551	0.0182603
636.629	0.0181799
636.707	0.0182587
636.785	0.0182848
636.863	0.0182558
636.942	0.0182507
637.020	0.0182221
637.098	0.0183165
637.176	0.0183031
637.254	0.0181886
637.332	0.0183288
637.410	0.0183234
637.488	0.0182281
637.567	0.0182896
637.645	0.0182955
637.723	0.0182272
637.801	0.0182086
637.879	0.0182970
637.957	0.0183280
638.035	0.0182765
638.113	0.0180969
638.192	0.0182387
638.270	0.0182961
638.348	0.0182925
638.426	0.0182925
638.504	0.0183282
638.582	0.0182430
638.660	0.0183674
638.738	0.0182732
638.817	0.0182424
638.895	0.0180837
638.973	0.0182141
639.051	0.0182755
639.129	0.0181937
639.207	0.0182617
639.285	0.0181396
639.363	0.0182735
639.442	0.0181660
639.520	0.0183753
639.598	0.0182227
639.676	0.0183358
639.754	0.0182021
639.832	0.0182579
639.910	0.0182568
639.988	0.0182952
640.067	0.0181831
640.145	0.0182170
640.223	0.0181680
640.301	0.0182471
640.379	0.0184156
640.457	0.0182988
640.535	0.0182364
640.613	0.0181587
640.692	0.0181964
640.770	0.0182635
640.848	0.0182186
640.926	0.0181650
641.004	0.0182523
641.082	0.0181461
641.160	0.0183577
641.238	0.0182143
641.317	0.0180573
641.395	0.0182755
641.473	0.0183323
641.551	0.0183357
641.629	0.0183569
641.707	0.0182295
641.785	0.0181754
641.863	0.0183521
641.942	0.0182462
642.020	0.0182233
642.098	0.0182474
642.176	0.0183752
642.254	0.0182261
642.332	0.0183619
642.410	0.0183251
642.488	0.0182271
642.567	0.0182059
642.645	0.0183679
642.723	0.0182830
642.801	0.0183750
642.879	0.0182210
642.957	0.0181544
643.035	0.0182841
643.113	0.0181814
643.192	0.0181844
643.270	0.0182908
643.348	0.0183678
643.426	0.0183242
643.504	0.0182560
643.582	0.0182454
643.660	0.0182021
643.738	0.0182174
643.817	0.0183369
643.895	0.0183784
643.973	0.0182035
644.051	0.0181840
644.129	0.0182870
644.207	0.0182304
644.285	0.0182233
644.363	0.0182017
644.442	0.0182809
644.520	0.0182264
644.598	0.0180857
644.676	0.0181284
644.754	0.0182391
644.832	0.0182361
644.910	0.0183150
644.988	0.0182919
645.067	0.0182735
645.145	0.0182876
645.223	0.0182083
645.301	0.0183264
645.379	0.0182838
645.457	0.0183416
645.535	0.0182094
645.613	0.0183053
645.692	0.0181718
645.770	0.0181686
645.848	0.0182301
645.926	0.0182806
646.004	0.0181873
646.082	0.0183313
646.160	0.0181876
646.238	0.0181963
646.317	0.0181763
646.395	0.0184626
646.473	0.0183717
646.551	0.0182413
646.629	0.0183549
646.707	0.0183221
646.785	0.0182814
646.863	0.0183459
646.942	0.0184751
647.020	0.0182668
647.098	0.0182020
647.176	0.0182124
647.254	0.0182526
647.332	0.0182969
647.410	0.0183607
647.488	0.0182784
647.567	0.0182922
647.645	0.0183694
647.723	0.0183347
647.801	0.0182906
647.879	0.0182932
647.957	0.0183922
648.035	0.0183315
648.113	0.0182482
648.192	0.0182339
648.270	0.0182346
648.348	0.0183273
648.426	0.0183317
648.504	0.0183091
648.582	0.0183231
648.660	0.0182681
648.738	0.0182790
648.817	0.0183211
648.895	0.0182475
648.973	0.0184315
649.051	0.0181843
649.129	0.0182631
649.207	0.0182973
649.285	0.0182087
649.363	0.0182494
649.442	0.0182420
649.520	0.0182620
649.598	0.0181222
649.676	0.0182565
649.754	0.0183483
649.832	0.0182542
649.910	0.0182129
649.988	0.0182388
650.067	0.0181275
650.145	0.0183633
650.223	0.0182842
650.301	0.0182588
650.379	0.0182713
650.457	0.0183272
650.535	0.0182364
650.613	0.0183006
650.692	0.0181750
650.770	0.0182023
650.848	0.0184055
650.926	0.0182114
651.004	0.0182574
651.082	0.0184293
651.160	0.0182705
651.238	0.0182389
651.317	0.0182414
651.395	0.0182588
651.473	0.0181802
651.551	0.0184296
651.629	0.0182202
651.707	0.0181503
651.785	0.0182934
651.863	0.0183382
651.942	0.0181544
652.020	0.0181954
652.098	0.0183329
652.176	0.0180298
652.254	0.0183109
652.332	0.0182024
652.410	0.0183344
652.488	0.0182675
652.567	0.0181850
652.645	0.0181628
652.723	0.0181852
652.801	0.0183044
652.879	0.0183939
652.957	0.0182289
653.035	0.0183722
653.113	0.0181824
653.192	0.0183070
653.270	0.0182716
653.348	0.0181811
653.426	0.0182597
653.504	0.0182613
653.582	0.0182072
653.660	0.0182155
653.738	0.0182386
653.817	0.0183041
653.895	0.0182938
653.973	0.0182754
654.051	0.0182853
654.129	0.0183526
654.207	0.0183797
654.285	0.0182208
654.363	0.0182339
654.442	0.0183376
654.520	0.0181990
654.598	0.0183061
654.676	0.0183080
654.754	0.0181794
654.832	0.0181570
654.910	0.0182201
654.988	0.0183647
655.067	0.0182829
655.145	0.0182420
655.223	0.0182977
655.301	0.0184168
655.379	0.0182391
655.457	0.0183457
655.535	0.0182980
655.613	0.0182368
655.692	0.0184121
655.770	0.0183059
655.848	0.0183656
655.926	0.0183732
656.004	0.0182498
656.082	0.0182630
656.160	0.0183392
656.238	0.0183410
656.317	0.0183409
656.395	0.0182691
656.473	0.0182369
656.551	0.0183180
656.629	0.0182654
656.707	0.0184104
656.785	0.0183466
656.863	0.0182272
656.942	0.0182811
657.020	0.0183533
657.098	0.0181174
657.176	0.0182928
657.254	0.0182661
657.332	0.0183174
657.410	0.0183543
657.488	0.0182445
657.567	0.0182835
657.645	0.0183230
657.723	0.0182784
657.801	0.0182625
657.879	0.0182558
657.957	0.0181607
658.035	0.0183247
658.113	0.0182409
658.192	0.0182624
658.270	0.0181695
658.348	0.0182059
658.426	0.0183350
658.504	0.0183562
658.582	0.0183183
658.660	0.0181627
658.738	0.0183426
658.817	0.0182955
658.895	0.0182663
658.973	0.0182464
659.051	0.0182485
659.129	0.0182096
659.207	0.0183338
659.285	0.0183182
659.363	0.0183254
659.442	0.0183253
659.520	0.0181715
659.598	0.0183807
659.676	0.0182809
659.754	0.0182341
659.832	0.0184898
659.910	0.0183332
659.988	0.0182616
660.067	0.0182609
660.145	0.0183617
660.223	0.0182156
660.301	0.0183797
660.379	0.0182723
660.457	0.0183211
660.535	0.0181619
660.613	0.0181945
660.692	0.0182497
660.770	0.0183852
660.848	0.0183218
660.926	0.0182431
661.004	0.0182682
661.082	0.0183440
661.160	0.0182540
661.238	0.0182037
661.317	0.0183374
661.395	0.0182433
661.473	0.0181911
661.551	0.0183759
661.629	0.0184154
661.707	0.0181249
661.785	0.0181534
661.863	0.0182495
661.942	0.0181996
662.020	0.0183372
662.098	0.0182067
662.176	0.0181693
662.254	0.0181962
662.332	0.0182523
662.410	0.0182321
662.488	0.0180920
662.567	0.0183093
662.645	0.0182632
662.723	0.0182941
662.801	0.0181237
662.879	0.0181359
662.957	0.0181729
663.035	0.0182719
663.113	0.0182851
663.192	0.0182764
663.270	0.0181804
663.348	0.0181487
663.426	0.0182380
663.504	0.0183567
663.582	0.0182504
663.660	0.0181427
663.738	0.0181585
663.817	0.0182211
663.895	0.0182137
663.973	0.0182240
664.051	0.0182115
664.129	0.0182778
664.207	0.0182103
664.285	0.0182605
664.363	0.0182211
664.442	0.0181593
664.520	0.0182915
664.598	0.0183287
664.676	0.0180669
664.754	0.0182113
664.832	0.0183817
664.910	0.0182626
664.988	0.0181366
665.067	0.0181387
665.145	0.0181722
665.223	0.0181622
665.301	0.0183047
665.379	0.0182274
665.457	0.0182131
665.535	0.0182905
665.613	0.0182449
665.692	0.0181860
665.770	0.0183309
665.848	0.0183568
665.926	0.0183454
666.004	0.0182578
666.082	0.0181651
666.160	0.0181475
666.238	0.0181885
666.317	0.0181828
666.395	0.0181443
666.473	0.0182706
666.551	0.0183674
666.629	0.0181986
666.707	0.0181642
666.785	0.0182825
666.863	0.0182120
666.942	0.0182658
667.020	0.0182279
667.098	0.0182590
667.176	0.0181683
667.254	0.0181332
667.332	0.0182098
667.410	0.0182660
667.488	0.0181613
667.567	0.0182137
667.645	0.0181790
667.723	0.0182209
667.801	0.0182943
667.879	0.0181533
667.957	0.0183680
668.035	0.0181841
668.113	0.0181338
668.192	0.0182014
668.270	0.0182740
668.348	0.0182167
668.426	0.0182364
668.504	0.0182622
668.582	0.0182700
668.660	0.0181239
668.738	0.0182259
668.817	0.0181503
668.895	0.0182111
668.973	0.0182034
669.051	0.0181843
669.129	0.0182805
669.207	0.0182162
669.285	0.0183171
669.363	0.0181947
669.442	0.0182723
669.520	0.0182961
669.598	0.0182919
669.676	0.0182415
669.754	0.0181820
669.832	0.0181515
669.910	0.0183028
669.988	0.0182140
670.067	0.0182237
670.145	0.0182795
670.223	0.0183565
670.301	0.0181776
670.379	0.0181800
670.457	0.0180792
670.535	0.0181051
670.613	0.0182693
670.692	0.0182307
670.770	0.0181884
670.848	0.0181744
670.926	0.0183581
671.004	0.0182816
671.082	0.0182162
671.160	0.0182354
671.238	0.0182807
671.317	0.0181519
671.395	0.0182457
671.473	0.0184266
671.551	0.0183031
671.629	0.0181745
671.707	0.0182186
671.785	0.0182787
671.863	0.0183162
671.942	0.0184248
672.020	0.0182469
672.098	0.0182072
672.176	0.0182825
672.254	0.0183402
672.332	0.0183201
672.410	0.0184515
672.488	0.0183056
672.567	0.0181676
672.645	0.0183450
672.723	0.0182652
672.801	0.0181886
672.879	0.0183869
672.957	0.0183271
673.035	0.0184200
673.113	0.0183556
673.192	0.0182693
673.270	0.0184158
673.348	0.0182072
673.426	0.0182835
673.504	0.0182699
673.582	0.0182586
673.660	0.0182546
673.738	0.0183581
673.817	0.0183064
673.895	0.0184016
673.973	0.0184071
674.051	0.0183018
674.129	0.0182591
674.207	0.0183421
674.285	0.0183934
674.363	0.0182588
674.442	0.0182277
674.520	0.0183161
674.598	0.0182779
674.676	0.0183955
674.754	0.0184023
674.832	0.0182356
674.910	0.0183385
674.988	0.0183567
675.067	0.0183624
675.145	0.0182524
675.223	0.0182907
675.301	0.0182830
675.379	0.0182109
675.457	0.0183885
675.535	0.0184052
675.613	0.0182458
675.692	0.0183197
675.770	0.0183927
675.848	0.0183005
675.926	0.0182016
676.004	0.0183703
676.082	0.0183298
676.160	0.0183224
676.238	0.0182046
676.317	0.0183027
676.395	0.0183694
676.473	0.0183542
676.551	0.0182567
676.629	0.0182615
676.707	0.0184058
676.785	0.0183284
676.863	0.0184296
676.942	0.0181477
677.020	0.0182595
677.098	0.0183233
677.176	0.0183264
677.254	0.0184654
677.332	0.0182670
677.410	0.0182128
677.488	0.0182902
677.567	0.0183458
677.645	0.0183252
677.723	0.0182051
677.801	0.0182890
677.879	0.0182238
677.957	0.0182886
678.035	0.0182791
678.113	0.0183231
678.192	0.0182417
678.270	0.0183142
678.348	0.0182006
678.426	0.0182086
678.504	0.0182646
678.582	0.0182443
678.660	0.0184071
678.738	0.0182816
678.817	0.0182515
678.895	0.0182130
678.973	0.0182954
679.051	0.0182684
679.129	0.0180897
679.207	0.0182584
679.285	0.0183355
679.363	0.0181532
679.442	0.0183244
679.520	0.0183451
679.598	0.0183174
679.676	0.0181111
679.754	0.0182162
679.832	0.0181367
679.910	0.0182078
679.988	0.0180408
680.067	0.0182236
680.145	0.0183301
680.223	0.0181371
680.301	0.0183118
680.379	0.0182512
680.457	0.0181038
680.535	0.0181079
680.613	0.0182964
680.692	0.0181837
680.770	0.0182504
680.848	0.0182078
680.926	0.0183338
681.004	0.0183383
681.082	0.0181682
681.160	0.0182306
681.238	0.0182748
681.317	0.0182796
681.395	0.0182541
681.473	0.0181170
681.551	0.0180978
681.629	0.0183184
681.707	0.0183401
681.785	0.0182275
681.863	0.0182395
681.942	0.0180731
682.020	0.0181680
682.098	0.0183311
682.176	0.0181689
682.254	0.0181590
682.332	0.0181346
682.410	0.0180703
682.488	0.0182462
682.567	0.0181445
682.645	0.0181830
682.723	0.0181510
682.801	0.0182940
682.879	0.0183517
682.957	0.0184076
683.035	0.0183270
683.113	0.0183231
683.192	0.0183613
683.270	0.0183246
683.348	0.0183882
683.426	0.0181740
683.504	0.0183602
683.582	0.0182819
683.660	0.0182638
683.738	0.0182637
683.817	0.0182986
683.895	0.0184111
683.973	0.0183834
684.051	0.0182499
684.129	0.0182529
684.207	0.0183450
684.285	0.0180824
684.363	0.0181758
684.442	0.0182950
684.520	0.0182812
684.598	0.0182194
684.676	0.0182317
684.754	0.0181433
684.832	0.0181859
684.910	0.0181628
684.988	0.0181100
685.067	0.0182843
685.145	0.0183440
685.223	0.0180692
685.301	0.0181660
685.379	0.0182977
685.457	0.0182085
685.535	0.0182501
685.613	0.0183279
685.692	0.0183109
685.770	0.0183855
685.848	0.0182269
685.926	0.0182497
686.004	0.0183807
686.082	0.0181879
686.160	0.0183761
686.238	0.0183775
686.317	0.0182124
686.395	0.0182043
686.473	0.0183160
686.551	0.0183219
686.629	0.0183307
686.707	0.0182997
686.785	0.0182910
686.863	0.0183774
686.942	0.0182676
687.020	0.0182097
687.098	0.0183064
687.176	0.0183482
687.254	0.0184097
687.332	0.0182728
687.410	0.0182426
687.488	0.0182494
687.567	0.0181839
687.645	0.0183163
687.723	0.0182944
687.801	0.0181479
687.879	0.0182224
687.957	0.0183622
688.035	0.0182803
688.113	0.0183684
688.192	0.0183828
688.270	0.0183369
688.348	0.0183546
688.426	0.0181880
688.504	0.0182675
688.582	0.0183353
688.660	0.0184706
688.738	0.0183606
688.817	0.0184024
688.895	0.0183338
688.973	0.0181666
689.051	0.0181220
689.129	0.0180402
689.207	0.0179619
689.285	0.0177983
689.363	0.0176104
689.442	0.0175035
689.520	0.0174666
689.598	0.0172954
689.676	0.0173242
689.754	0.0175330
689.832	0.0178037
689.910	0.0179511
689.988	0.0181546
690.067	0.0185776
690.145	0.0192663
690.223	0.0195267
690.301	0.0201172
690.379	0.0207008
690.457	0.0210740
690.535	0.0211914
690.613	0.0212101
690.692	0.0209650
690.770	0.0207428
690.848	0.0200485
690.926	0.0193945
691.004	0.0185519
691.082	0.0173914
691.160	0.0163092
691.238	0.0153262
691.317	0.0144144
691.395	0.0136737
691.473	0.0129465
691.551	0.0121754
691.629	0.0118932
691.707	0.0119244
691.785	0.0123283
691.863	0.0128983
691.942	0.0139986
692.020	0.0151196
692.098	0.0163810
692.176	0.0185287
692.254	0.0204539
692.332	0.0223003
692.410	0.0243922
692.488	0.0262469
692.567	0.0280464
692.645	0.0296027
692.723	0.0306544
692.801	0.0310249
692.879	0.0310124
692.957	0.0303041
693.035	0.0286205
693.113	0.0265762
693.192	0.0237971
693.270	0.0206888
693.348	0.0171425
693.426	0.0135077
693.504	0.00992172
693.582	0.00670433
693.660	0.00387535
693.738	0.00157761
693.817	0.0000759125
693.895	-0.000729065
693.973	-0.000719299
694.051	0.00000190735
694.129	0.00166122
694.207	0.00397758
694.285	0.00687126
694.363	0.0103583
694.442	0.0140044
694.520	0.0181598
694.598	0.0221360
694.676	0.0263927
694.754	0.0300895
694.832	0.0334283
694.910	0.0362537
694.988	0.0386337
695.067	0.0401977
695.145	0.0410505
695.223	0.0410072
695.301	0.0402314
695.379	0.0382187
695.457	0.0355943
695.535	0.0321601
695.613	0.0283002
695.692	0.0239777
695.770	0.0194798
695.848	0.0147428
695.926	0.0104185
696.004	0.00634933
696.082	0.00252922
696.160	-0.000705338
696.238	-0.00306808
696.317	-0.00460220
696.395	-0.00536438
696.473	-0.00524574
696.551	-0.00414597
696.629	-0.00240860
696.707	0.00000411987
696.785	0.00318848
696.863	0.00650436
696.942	0.0104241
697.020	0.0144645
697.098	0.0183830
697.176	0.0223448
697.254	0.0261289
697.332	0.0295409
697.410	0.0321819
697.488	0.0343704
697.567	0.0359036
697.645	0.0366687
697.723	0.0367196
697.801	0.0360541
697.879	0.0347881
697.957	0.0330804
698.035	0.0310008
698.113	0.0286472
698.192	0.0262106
698.270	0.0233901
698.348	0.0209236
698.426	0.0187444
698.504	0.0164514
698.582	0.0141939
698.660	0.0127536
698.738	0.0115117
698.817	0.0103418
698.895	0.00984871
698.973	0.00963654
699.051	0.00979454
699.129	0.0101855
699.207	0.0108139
699.285	0.0117757
699.363	0.0127923
699.442	0.0140838
699.520	0.0152925
699.598	0.0163956
699.676	0.0175732
699.754	0.0183475
699.832	0.0189822
699.910	0.0190910
699.988	0.0194574
700.067	0.0191805
700.145	0.0187215
700.223	0.0184210
700.301	0.0179924
700.379	0.0174008
700.457	0.0169005
700.535	0.0167138
700.613	0.0163461
700.692	0.0161713
700.770	0.0161222
700.848	0.0163546
700.926	0.0164609
701.004	0.0165356
701.082	0.0168920
701.160	0.0174525
701.238	0.0181297
701.317	0.0185697
701.395	0.0189783
701.473	0.0196901
701.551	0.0204271
701.629	0.0210612
701.707	0.0215020
701.785	0.0219935
701.863	0.0223318
701.942	0.0227438
702.020	0.0231408
702.098	0.0232616
702.176	0.0234488
702.254	0.0233102
702.332	0.0230411
702.410	0.0229042
702.488	0.0224546
702.567	0.0220466
702.645	0.0214983
702.723	0.0210616
702.801	0.0204049
702.879	0.0198387
702.957	0.0193817
703.035	0.0187656
703.113	0.0180693
703.192	0.0175288
703.270	0.0169138
703.348	0.0162343
703.426	0.0155926
703.504	0.0150940
703.582	0.0146350
703.660	0.0141499
703.738	0.0137234
703.817	0.0135629
703.895	0.0131300
703.973	0.0130174
704.051	0.0130833
704.129	0.0131156
704.207	0.0134506
704.285	0.0138970
704.363	0.0142483
704.442	0.0147089
704.520	0.0151585
704.598	0.0158189
704.676	0.0164444
704.754	0.0170366
704.832	0.0176773
704.910	0.0183062
704.988	0.0187865
705.067	0.0192928
705.145	0.0198864
705.223	0.0205344
705.301	0.0207769
705.379	0.0211686
705.457	0.0215136
705.535	0.0218679
705.613	0.0220740
705.692	0.0220550
705.770	0.0221170
705.848	0.0220134
705.926	0.0219337
706.004	0.0215863
706.082	0.0212428
706.160	0.0209973
706.238	0.0204264
706.317	0.0199329
706.395	0.0193893
706.473	0.0189578
706.551	0.0183797
706.629	0.0180312
706.707	0.0174646
706.785	0.0170944
706.863	0.0171102
706.942	0.0168742
707.020	0.0168302
707.098	0.0169484
707.176	0.0172570
707.254	0.0173856
707.332	0.0176494
707.410	0.0180068
707.488	0.0182568
707.567	0.0185384
707.645	0.0188163
707.723	0.0189704
707.801	0.0192733
707.879	0.0193246
707.957	0.0191145
708.035	0.0191405
708.113	0.0190263
708.192	0.0187608
708.270	0.0184089
708.348	0.0180643
708.426	0.0176781
708.504	0.0171460
708.582	0.0166438
708.660	0.0162714
708.738	0.0159553
708.817	0.0155379
708.895	0.0152103
708.973	0.0152947
709.051	0.0151962
709.129	0.0152417
709.207	0.0151561
709.285	0.0153685
709.363	0.0156967
709.442	0.0159058
709.520	0.0162805
709.598	0.0168376
709.676	0.0174108
709.754	0.0179306
709.832	0.0183125
709.910	0.0187913
709.988	0.0191819
710.067	0.0196497
710.145	0.0200981
710.223	0.0203436
710.301	0.0206865
710.379	0.0205983
710.457	0.0207703
710.535	0.0208690
710.613	0.0206332
710.692	0.0205740
710.770	0.0201613
710.848	0.0199715
710.926	0.0198161
711.004	0.0196368
711.082	0.0193243
711.160	0.0190967
711.238	0.0188397
711.317	0.0186050
711.395	0.0185827
711.473	0.0184401
711.551	0.0185815
711.629	0.0184827
711.707	0.0184270
711.785	0.0185581
711.863	0.0187327
711.942	0.0188058
712.020	0.0190224
712.098	0.0190752
712.176	0.0191700
712.254	0.0192025
712.332	0.0192431
712.410	0.0191445
712.488	0.0192130
712.567	0.0191369
712.645	0.0190298
712.723	0.0188651
712.801	0.0187356
712.879	0.0185062
712.957	0.0183139
713.035	0.0180296
713.113	0.0176674
713.192	0.0171468
713.270	0.0170026
713.348	0.0166348
713.426	0.0162646
713.504	0.0161975
713.582	0.0159025
713.660	0.0156773
713.738	0.0155595
713.817	0.0154391
713.895	0.0155672
713.973	0.0155598
714.051	0.0156428
714.129	0.0159374
714.207	0.0161720
714.285	0.0165732
714.363	0.0169551
714.442	0.0172112
714.520	0.0177683
714.598	0.0182422
714.676	0.0187053
714.754	0.0191348
714.832	0.0193791
714.910	0.0198511
714.988	0.0200393
715.067	0.0203061
715.145	0.0203456
715.223	0.0203421
715.301	0.0203893
715.379	0.0203251
715.457	0.0200150
715.535	0.0198360
715.613	0.0197624
715.692	0.0194319
715.770	0.0191407
715.848	0.0189346
715.926	0.0187719
716.004	0.0185520
716.082	0.0183241
716.160	0.0182138
716.238	0.0179856
716.317	0.0178734
716.395	0.0176569
716.473	0.0177863
716.551	0.0178349
716.629	0.0178069
716.707	0.0179031
716.785	0.0181213
716.863	0.0181567
716.942	0.0184734
717.020	0.0185874
717.098	0.0188503
717.176	0.0189420
717.254	0.0190473
717.332	0.0192484
717.410	0.0193157
717.488	0.0192159
717.567	0.0192379
717.645	0.0193835
717.723	0.0191869
717.801	0.0190929
717.879	0.0191818
717.957	0.0189289
718.035	0.0188511
718.113	0.0185618
718.192	0.0184283
718.270	0.0180571
718.348	0.0178059
718.426	0.0176403
718.504	0.0175105
718.582	0.0173099
718.660	0.0171630
718.738	0.0169628
718.817	0.0167662
718.895	0.0166051
718.973	0.0166837
719.051	0.0165172
719.129	0.0163679
719.207	0.0164856
719.285	0.0165858
719.363	0.0165843
719.442	0.0166659
719.520	0.0166965
719.598	0.0168492
719.676	0.0169205
719.754	0.0172341
719.832	0.0175354
719.910	0.0175818
719.988	0.0179337
720.067	0.0183239
720.145	0.0183730
720.223	0.0186091
720.301	0.0190130
720.379	0.0192554
720.457	0.0193381
720.535	0.0194553
720.613	0.0197630
720.692	0.0198727
720.770	0.0198332
720.848	0.0196375
720.926	0.0195878
721.004	0.0195603
721.082	0.0194553
721.160	0.0194843
721.238	0.0193574
721.317	0.0190726
721.395	0.0188027
721.473	0.0188863
721.551	0.0185670
721.629	0.0182230
721.707	0.0182551
721.785	0.0181580
721.863	0.0180655
721.942	0.0178866
722.020	0.0180248
722.098	0.0179818
722.176	0.0181664
722.254	0.0181952
722.332	0.0180299
722.410	0.0181007
722.488	0.0181945
722.567	0.0184824
722.645	0.0184689
722.723	0.0184515
722.801	0.0186422
722.879	0.0187479
722.957	0.0186859
723.035	0.0186555
723.113	0.0188258
723.192	0.0187502
723.270	0.0186030
723.348	0.0186276
723.426	0.0185060
723.504	0.0184960
723.582	0.0182575
723.660	0.0181367
723.738	0.0181624
723.817	0.0180546
723.895	0.0177608
723.973	0.0178375
724.051	0.0176553
724.129	0.0176523
724.207	0.0174751
724.285	0.0175439
724.363	0.0175502
724.442	0.0177238
724.520	0.0176002
724.598	0.0176121
724.676	0.0175726
724.754	0.0175800
724.832	0.0177711
724.910	0.0177126
724.988	0.0178162
725.067	0.0180898
725.145	0.0180674
725.223	0.0181893
725.301	0.0181394
725.379	0.0184286
725.457	0.0185407
725.535	0.0187078
725.613	0.0187640
725.692	0.0188463
725.770	0.0189779
725.848	0.0190180
725.926	0.0189610
726.004	0.0189224
726.082	0.0189838
726.160	0.0188641
726.238	0.0186768
726.317	0.0186098
726.395	0.0185318
726.473	0.0183641
726.551	0.0181431
726.629	0.0181335
726.707	0.0180426
726.785	0.0181046
726.863	0.0179448
726.942	0.0180167
727.020	0.0181249
727.098	0.0182764
727.176	0.0183192
727.254	0.0183176
727.332	0.0183347
727.410	0.0185267
727.488	0.0186551
727.567	0.0185648
727.645	0.0186816
727.723	0.0187702
727.801	0.0189120
727.879	0.0189182
727.957	0.0188755
728.035	0.0189202
728.113	0.0189930
728.192	0.0190054
728.270	0.0188093
728.348	0.0188357
728.426	0.0187950
728.504	0.0186640
728.582	0.0186661
728.660	0.0183427
728.738	0.0182917
728.817	0.0183018
728.895	0.0181965
728.973	0.0179834
729.051	0.0178741
729.129	0.0178196
729.207	0.0177546
729.285	0.0175259
729.363	0.0176372
729.442	0.0174185
729.520	0.0174619
729.598	0.0174156
729.676	0.0174432
729.754	0.0173766
729.832	0.0172849
729.910	0.0174263
729.988	0.0175031
730.067	0.0175621
730.145	0.0177278
730.223	0.0177674
730.301	0.0179809
730.379	0.0183656
730.457	0.0183988
730.535	0.0184745
730.613	0.0185396
730.692	0.0187756
730.770	0.0190131
730.848	0.0191718
730.926	0.0190824
731.004	0.0190509
731.082	0.0191379
731.160	0.0190098
731.238	0.0189280
731.317	0.0187682
731.395	0.0186929
731.473	0.0186479
731.551	0.0185963
731.629	0.0183894
731.707	0.0182391
731.785	0.0182012
731.863	0.0182518
731.942	0.0180290
732.020	0.0179684
732.098	0.0179032
732.176	0.0179181
732.254	0.0177900
732.332	0.0177715
732.410	0.0178256
732.488	0.0178000
732.567	0.0178678
732.645	0.0178468
732.723	0.0179736
732.801	0.0182347
732.879	0.0181232
732.957	0.0182953
733.035	0.0183405
733.113	0.0184779
733.192	0.0184174
733.270	0.0183455
733.348	0.0184880
733.426	0.0184292
733.504	0.0182628
733.582	0.0184146
733.660	0.0183427
733.738	0.0184010
733.817	0.0182261
733.895	0.0182148
733.973	0.0181767
734.051	0.0180100
734.129	0.0180483
734.207	0.0180930
734.285	0.0180607
734.363	0.0180872
734.442	0.0180274
734.520	0.0178635
734.598	0.0179198
734.676	0.0180067
734.754	0.0180343
734.832	0.0180118
734.910	0.0181761
734.988	0.0180597
735.067	0.0180482
735.145	0.0181870
735.223	0.0181196
735.301	0.0179686
735.379	0.0181478
735.457	0.0181490
735.535	0.0181744
735.613	0.0180914
735.692	0.0181410
735.770	0.0181231
735.848	0.0182684
735.926	0.0182565
736.004	0.0183010
736.082	0.0185160
736.160	0.0185923
736.238	0.0186728
736.317	0.0187225
736.395	0.0187267
736.473	0.0187970
736.551	0.0188105
736.629	0.0188921
736.707	0.0190186
736.785	0.0188289
736.863	0.0189397
736.942	0.0188251
737.020	0.0188211
737.098	0.0186991
737.176	0.0186589
737.254	0.0185764
737.332	0.0184428
737.410	0.0183258
737.488	0.0183218
737.567	0.0182745
737.645	0.0180766
737.723	0.0181544
737.801	0.0180931
737.879	0.0179379
737.957	0.0177522
738.035	0.0178592
738.113	0.0176819
738.192	0.0176287
738.270	0.0177235
738.348	0.0177641
738.426	0.0176724
738.504	0.0177036
738.582	0.0178007
738.660	0.0179137
738.738	0.0180783
738.817	0.0180651
738.895	0.0182104
738.973	0.0184598
739.051	0.0186250
739.129	0.0185596
739.207	0.0187804
739.285	0.0188104
739.363	0.0188324
739.442	0.0188145
739.520	0.0188565
739.598	0.0188394
739.676	0.0189275
739.754	0.0187476
739.832	0.0187820
739.910	0.0186301
739.988	0.0185876
740.067	0.0183179
740.145	0.0182823
740.223	0.0181544
740.301	0.0178207
740.379	0.0177258
740.457	0.0177399
740.535	0.0177091
740.613	0.0176308
740.692	0.0175089
740.770	0.0176049
740.848	0.0175701
740.926	0.0176183
741.004	0.0175891
741.082	0.0176990
741.160	0.0178776
741.238	0.0179439
741.317	0.0179681
741.395	0.0181984
741.473	0.0182887
741.551	0.0183801
741.629	0.0182580
741.707	0.0182716
741.785	0.0184867
741.863	0.0185801
741.942	0.0186640
742.020	0.0186698
742.098	0.0187995
742.176	0.0189597
742.254	0.0190503
742.332	0.0188300
742.410	0.0188457
742.488	0.0188357
742.567	0.0186514
742.645	0.0187079
742.723	0.0185954
742.801	0.0185384
742.879	0.0184763
742.957	0.0182269
743.035	0.0181515
743.113	0.0181401
743.192	0.0180320
743.270	0.0180879
743.348	0.0179475
743.426	0.0179103
743.504	0.0178528
743.582	0.0177807
743.660	0.0181074
743.738	0.0180357
743.817	0.0180667
743.895	0.0180537
743.973	0.0182622
744.051	0.0182582
744.129	0.0183472
744.207	0.0185686
744.285	0.0184853
744.363	0.0186699
744.442	0.0186899
744.520	0.0187135
744.598	0.0188713
744.676	0.0189635
744.754	0.0188194
744.832	0.0187613
744.910	0.0188461
744.988	0.0186210
745.067	0.0186602
745.145	0.0185246
745.223	0.0184669
745.301	0.0184780
745.379	0.0183374
745.457	0.0181805
745.535	0.0179934
745.613	0.0179358
745.692	0.0177332
745.770	0.0175047
745.848	0.0176331
745.926	0.0172585
746.004	0.0172971
746.082	0.0173279
746.160	0.0172993
746.238	0.0174474
746.317	0.0172522
746.395	0.0174529
746.473	0.0174892
746.551	0.0176582
746.629	0.0177361
746.707	0.0178249
746.785	0.0180844
746.863	0.0182424
746.942	0.0183241
747.020	0.0183595
747.098	0.0185773
747.176	0.0185332
747.254	0.0186880
747.332	0.0187933
747.410	0.0188426
747.488	0.0188824
747.567	0.0188606
747.645	0.0188435
747.723	0.0187891
747.801	0.0187376
747.879	0.0187439
747.957	0.0185871
748.035	0.0187047
748.113	0.0184103
748.192	0.0183561
748.270	0.0183754
748.348	0.0183398
748.426	0.0183913
748.504	0.0181355
748.582	0.0181010
748.660	0.0181438
748.738	0.0179311
748.817	0.0180255
748.895	0.0179422
748.973	0.0179482
749.051	0.0180806
749.129	0.0181328
749.207	0.0179324
749.285	0.0182606
749.363	0.0182247
749.442	0.0181367
749.520	0.0181798
749.598	0.0183894
749.676	0.0182137
749.754	0.0183659
749.832	0.0183852
749.910	0.0184222
749.988	0.0185406
750.067	0.0185346
750.145	0.0186006
750.223	0.0186128
750.301	0.0186941
750.379	0.0187962
750.457	0.0188720
750.535	0.0188317
750.613	0.0189134
750.692	0.0188461
750.770	0.0187428
750.848	0.0188078
750.926	0.0186051
751.004	0.0185578
751.082	0.0184750
751.160	0.0183118
751.238	0.0182391
751.317	0.0182630
751.395	0.0183588
751.473	0.0182390
751.551	0.0182246
751.629	0.0182342
751.707	0.0180743
751.785	0.0179598
751.863	0.0180465
751.942	0.0182072
752.020	0.0180627
752.098	0.0181313
752.176	0.0181358
752.254	0.0181306
752.332	0.0181999
752.410	0.0183103
752.488	0.0182690
752.567	0.0182072
752.645	0.0181387
752.723	0.0182542
752.801	0.0184239
752.879	0.0184801
752.957	0.0183544
753.035	0.0184224
753.113	0.0185404
753.192	0.0184423
753.270	0.0184716
753.348	0.0183798
753.426	0.0184046
753.504	0.0183407
753.582	0.0182382
753.660	0.0183112
753.738	0.0183047
753.817	0.0181647
753.895	0.0180981
753.973	0.0179707
754.051	0.0177753
754.129	0.0179436
754.207	0.0179199
754.285	0.0179039
754.363	0.0179189
754.442	0.0180090
754.520	0.0178642
754.598	0.0181194
754.676	0.0181110
754.754	0.0182115
754.832	0.0183291
754.910	0.0184868
754.988	0.0184574
755.067	0.0185244
755.145	0.0186149
755.223	0.0186390
755.301	0.0186958
755.379	0.0187156
755.457	0.0186324
755.535	0.0186976
755.613	0.0186546
755.692	0.0183558
755.770	0.0184315
755.848	0.0185442
755.926	0.0182834
756.004	0.0182767
756.082	0.0185584
756.160	0.0183694
756.238	0.0182895
756.317	0.0183045
756.395	0.0182243
756.473	0.0181131
756.551	0.0181907
756.629	0.0180560
756.707	0.0180484
756.785	0.0179991
756.863	0.0179932
756.942	0.0180339
757.020	0.0180302
757.098	0.0181154
757.176	0.0181506
757.254	0.0181672
757.332	0.0181994
757.410	0.0183057
757.488	0.0182016
757.567	0.0182944
757.645	0.0184195
757.723	0.0182527
757.801	0.0183511
757.879	0.0184812
757.957	0.0184750
758.035	0.0184763
758.113	0.0185638
758.192	0.0186333
758.270	0.0187246
758.348	0.0186626
758.426	0.0185876
758.504	0.0185541
758.582	0.0185453
758.660	0.0185640
758.738	0.0185476
758.817	0.0185300
758.895	0.0183195
758.973	0.0185018
759.051	0.0183260
759.129	0.0181229
759.207	0.0182376
759.285	0.0182821
759.363	0.0181176
759.442	0.0181364
759.520	0.0179801
759.598	0.0179126
759.676	0.0179073
759.754	0.0178378
759.832	0.0180482
759.910	0.0180156
759.988	0.0179539
760.067	0.0180358
760.145	0.0181001
760.223	0.0181123
760.301	0.0181866
760.379	0.0182558
760.457	0.0181068
760.535	0.0181712
760.613	0.0182832
760.692	0.0181995
760.770	0.0183715
760.848	0.0182994
760.926	0.0183158
761.004	0.0184143
761.082	0.0185481
761.160	0.0185960
761.238	0.0186230
761.317	0.0185333
761.395	0.0185925
761.473	0.0185514
761.551	0.0184949
761.629	0.0184364
761.707	0.0184567
761.785	0.0182016
761.863	0.0182021
761.942	0.0181067
762.020	0.0181033
762.098	0.0180170
762.176	0.0178068
762.254	0.0178365
762.332	0.0179171
762.410	0.0177980
762.488	0.0179230
762.567	0.0181138
762.645	0.0178549
762.723	0.0179962
762.801	0.0181722
762.879	0.0181913
762.957	0.0182139
763.035	0.0183490
763.113	0.0184659
763.192	0.0185642
763.270	0.0185957
763.348	0.0186467
763.426	0.0187014
763.504	0.0187878
763.582	0.0186385
763.660	0.0187692
763.738	0.0187872
763.817	0.0186490
763.895	0.0187522
763.973	0.0186418
764.051	0.0185679
764.129	0.0185995
764.207	0.0186287
764.285	0.0184015
764.363	0.0182912
764.442	0.0183719
764.520	0.0180888
764.598	0.0181689
764.676	0.0180039
764.754	0.0182153
764.832	0.0181736
764.910	0.0181020
764.988	0.0179986
765.067	0.0180068
765.145	0.0181685
765.223	0.0181046
765.301	0.0180917
765.379	0.0184082
765.457	0.0182767
765.535	0.0182664
765.613	0.0182244
765.692	0.0183215
765.770	0.0183776
765.848	0.0182951
765.926	0.0180167
766.004	0.0180672
766.082	0.0182323
766.160	0.0182026
766.238	0.0181136
766.317	0.0181085
766.395	0.0181433
766.473	0.0182239
766.551	0.0183170
766.629	0.0180785
766.707	0.0181414
766.785	0.0182296
766.863	0.0182689
766.942	0.0182545
767.020	0.0181171
767.098	0.0183090
767.176	0.0182463
767.254	0.0183920
767.332	0.0182970
767.410	0.0183948
767.488	0.0183875
767.567	0.0182824
767.645	0.0183076
767.723	0.0183389
767.801	0.0182743
767.879	0.0182259
767.957	0.0181990
768.035	0.0182948
768.113	0.0181417
768.192	0.0181464
768.270	0.0181845
768.348	0.0182189
768.426	0.0181889
768.504	0.0181673
768.582	0.0181883
768.660	0.0181487
768.738	0.0180483
768.817	0.0181577
768.895	0.0181726
768.973	0.0182780
769.051	0.0183519
769.129	0.0183340
769.207	0.0184537
769.285	0.0184470
769.363	0.0184470
769.442	0.0183710
769.520	0.0184654
769.598	0.0183723
769.676	0.0183842
769.754	0.0182681
769.832	0.0184013
769.910	0.0182564
769.988	0.0182032
770.067	0.0183387
770.145	0.0182640
770.223	0.0182330
770.301	0.0181611
770.379	0.0182076
770.457	0.0182430
770.535	0.0182597
770.613	0.0181912
770.692	0.0182834
770.770	0.0182115
770.848	0.0182869
770.926	0.0180947
771.004	0.0181531
771.082	0.0182786
771.160	0.0182294
771.238	0.0183791
771.317	0.0182109
771.395	0.0181705
771.473	0.0184575
771.551	0.0185506
771.629	0.0184090
771.707	0.0185218
771.785	0.0186385
771.863	0.0184848
771.942	0.0185208
772.020	0.0186006
772.098	0.0186764
772.176	0.0187816
772.254	0.0185757
772.332	0.0186508
772.410	0.0184978
772.488	0.0184760
772.567	0.0185822
772.645	0.0185095
772.723	0.0183221
772.801	0.0184342
772.879	0.0182483
772.957	0.0182198
773.035	0.0180883
773.113	0.0181297
773.192	0.0181595
773.270	0.0179597
773.348	0.0179668
773.426	0.0180374
773.504	0.0178828
773.582	0.0179805
773.660	0.0179977
773.738	0.0178797
773.817	0.0180277
773.895	0.0178916
773.973	0.0180235
774.051	0.0181060
774.129	0.0182172
774.207	0.0181129
774.285	0.0183936
774.363	0.0184963
774.442	0.0183265
774.520	0.0184415
774.598	0.0183667
774.676	0.0183771
774.754	0.0183254
774.832	0.0184615
774.910	0.0183678
774.988	0.0182547
775.067	0.0183009
775.145	0.0180753
775.223	0.0180740
775.301	0.0181003
775.379	0.0179828
775.457	0.0179465
775.535	0.0180666
775.613	0.0182185
775.692	0.0180836
775.770	0.0180259
775.848	0.0181319
775.926	0.0181642
776.004	0.0181265
776.082	0.0181259
776.160	0.0183172
776.238	0.0183048
776.317	0.0183758
776.395	0.0184632
776.473	0.0185739
776.551	0.0186222
776.629	0.0185612
776.707	0.0186691
776.785	0.0185741
776.863	0.0187319
776.942	0.0187173
777.020	0.0185427
777.098	0.0186029
777.176	0.0184830
777.254	0.0183463
777.332	0.0183528
777.410	0.0182390
777.488	0.0182615
777.567	0.0183865
777.645	0.0181789
777.723	0.0180785
777.801	0.0179649
777.879	0.0180598
777.957	0.0180891
778.035	0.0180472
778.113	0.0179730
778.192	0.0180846
778.270	0.0179270
778.348	0.0181007
778.426	0.0180946
778.504	0.0182185
778.582	0.0182593
778.660	0.0182414
778.738	0.0184201
778.817	0.0183551
778.895	0.0182678
778.973	0.0184438
779.051	0.0184740
779.129	0.0184882
779.207	0.0184746
779.285	0.0185497
779.363	0.0184386
779.442	0.0185883
779.520	0.0184832
779.598	0.0185648
779.676	0.0185236
779.754	0.0184290
779.832	0.0183649
779.910	0.0185419
779.988	0.0184113
780.067	0.0182958
780.145	0.0183173
780.223	0.0184379
780.301	0.0183989
780.379	0.0183697
780.457	0.0184399
780.535	0.0184431
780.613	0.0184023
780.692	0.0184784
780.770	0.0182853
780.848	0.0182401
780.926	0.0183110
781.004	0.0184880
781.082	0.0183621
781.160	0.0184610
781.238	0.0184676
781.317	0.0184766
781.395	0.0182800
781.473	0.0182973
781.551	0.0182344
781.629	0.0182456
781.707	0.0183692
781.785	0.0182732
781.863	0.0180704
781.942	0.0182442
782.020	0.0182449
782.098	0.0182602
782.176	0.0182197
782.254	0.0182521
782.332	0.0183672
782.410	0.0182708
782.488	0.0182588
782.567	0.0183035
782.645	0.0182565
782.723	0.0182447
782.801	0.0182046
782.879	0.0182349
782.957	0.0181535
783.035	0.0181433
783.113	0.0182298
783.192	0.0181081
783.270	0.0180798
783.348	0.0180924
783.426	0.0179304
783.504	0.0180290
783.582	0.0180881
783.660	0.0180678
783.738	0.0179949
783.817	0.0180465
783.895	0.0179871
783.973	0.0180624
784.051	0.0180708
784.129	0.0180973
784.207	0.0180669
784.285	0.0181525
784.363	0.0182094
784.442	0.0182181
784.520	0.0181765
784.598	0.0182832
784.676	0.0181805
784.754	0.0180487
784.832	0.0181387
784.910	0.0181364
784.988	0.0183525
785.067	0.0184158
785.145	0.0183448
785.223	0.0184572
785.301	0.0185867
785.379	0.0184566
785.457	0.0184609
785.535	0.0184297
785.613	0.0184600
785.692	0.0184906
785.770	0.0185246
785.848	0.0185666
785.926	0.0185386
786.004	0.0185790
786.082	0.0184937
786.160	0.0186028
786.238	0.0185474
786.317	0.0185402
786.395	0.0185359
786.473	0.0184988
786.551	0.0183642
786.629	0.0184518
786.707	0.0183874
786.785	0.0183163
786.863	0.0182545
786.942	0.0182289
787.020	0.0182819
787.098	0.0182511
787.176	0.0181989
787.254	0.0181139
787.332	0.0181389
787.410	0.0180711
787.488	0.0180203
787.567	0.0178493
787.645	0.0179966
787.723	0.0179472
787.801	0.0178312
787.879	0.0177472
787.957	0.0177578
788.035	0.0177590
788.113	0.0178094
788.192	0.0177931
788.270	0.0177047
788.348	0.0178992
788.426	0.0178751
788.504	0.0180930
788.582	0.0180925
788.660	0.0182015
788.738	0.0183654
788.817	0.0185596
788.895	0.0188041
788.973	0.0188190
789.051	0.0189296
789.129	0.0191918
789.207	0.0191531
789.285	0.0191031
789.363	0.0192012
789.442	0.0191100
789.520	0.0190891
789.598	0.0189434
789.676	0.0188662
789.754	0.0186033
789.832	0.0184613
789.910	0.0181864
789.988	0.0178136
790.067	0.0177335
790.145	0.0174608
790.223	0.0174216
790.301	0.0172453
790.379	0.0170313
790.457	0.0169082
790.535	0.0167603
790.613	0.0167168
790.692	0.0168263
790.770	0.0170329
790.848	0.0171871
790.926	0.0173290
791.004	0.0176246
791.082	0.0178977
791.160	0.0179439
791.238	0.0183854
791.317	0.0187053
791.395	0.0191094
791.473	0.0193549
791.551	0.0195905
791.629	0.0195858
791.707	0.0198536
791.785	0.0197852
791.863	0.0196443
791.942	0.0195741
792.020	0.0194628
792.098	0.0192226
792.176	0.0190247
792.254	0.0186784
792.332	0.0186647
792.410	0.0182683
792.488	0.0179568
792.567	0.0176797
792.645	0.0171875
792.723	0.0170042
792.801	0.0167340
792.879	0.0167277
792.957	0.0167228
793.035	0.0163996
793.113	0.0165754
793.192	0.0166339
793.270	0.0167515
793.348	0.0169424
793.426	0.0170744
793.504	0.0173743
793.582	0.0177188
793.660	0.0178100
793.738	0.0182511
793.817	0.0184238
793.895	0.0187469
793.973	0.0190163
794.051	0.0192194
794.129	0.0193378
794.207	0.0196518
794.285	0.0195849
794.363	0.0196400
794.442	0.0197421
794.520	0.0199120
794.598	0.0195831
794.676	0.0195646
794.754	0.0193150
794.832	0.0193482
794.910	0.0191489
794.988	0.0190777
795.067	0.0188223
795.145	0.0187306
795.223	0.0184235
795.301	0.0183751
795.379	0.0183086
795.457	0.0181629
795.535	0.0179883
795.613	0.0179470
795.692	0.0178606
795.770	0.0177178
795.848	0.0178192
795.926	0.0177145
796.004	0.0177586
796.082	0.0178571
796.160	0.0176845
796.238	0.0176077
796.317	0.0177261
796.395	0.0176691
796.473	0.0175042
796.551	0.0175181
796.629	0.0175543
796.707	0.0175336
796.785	0.0176821
796.863	0.0173856
796.942	0.0175819
797.020	0.0177535
797.098	0.0178657
797.176	0.0179280
797.254	0.0178876
797.332	0.0179788
797.410	0.0181922
797.488	0.0182941
797.567	0.0184291
797.645	0.0184401
797.723	0.0185133
797.801	0.0187853
797.879	0.0188049
797.957	0.0189656
798.035	0.0189440
798.113	0.0189314
798.192	0.0188718
798.270	0.0189725
798.348	0.0189602
798.426	0.0188806
798.504	0.0186927
798.582	0.0186493
798.660	0.0185099
798.738	0.0183434
798.817	0.0182207
798.895	0.0181464
798.973	0.0180264
799.051	0.0180122
799.129	0.0180138
799.207	0.0178946
799.285	0.0177478
799.363	0.0180763
799.442	0.0179625
799.520	0.0179800
799.598	0.0180654
799.676	0.0182024
799.754	0.0181104
799.832	0.0181308
799.910	0.0182615
799.988	0.0184199
800.067	0.0182265
800.145	0.0182209
800.223	0.0183289
800.301	0.0180679
800.379	0.0181493
800.457	0.0181258
800.535	0.0181588
800.613	0.0179940
800.692	0.0180122
800.770	0.0180600
800.848	0.0179543
800.926	0.0178757
801.004	0.0179353
801.082	0.0180034
801.160	0.0179137
801.238	0.0179707
801.317	0.0178034
801.395	0.0180229
801.473	0.0182130
801.551	0.0181898
801.629	0.0182664
801.707	0.0183289
801.785	0.0183994
801.863	0.0184309
801.942	0.0184705
802.020	0.0185713
802.098	0.0186446
802.176	0.0185751
802.254	0.0187880
802.332	0.0186798
802.410	0.0186751
802.488	0.0188094
802.567	0.0187302
802.645	0.0186559
802.723	0.0186546
802.801	0.0186974
802.879	0.0185821
802.957	0.0185236
803.035	0.0185772
803.113	0.0185530
803.192	0.0183569
803.270	0.0184572
803.348	0.0183994
803.426	0.0183869
803.504	0.0183870
803.582	0.0183496
803.660	0.0184429
803.738	0.0182025
803.817	0.0183676
803.895	0.0181956
803.973	0.0183134
804.051	0.0182887
804.129	0.0183787
804.207	0.0183041
804.285	0.0183547
804.363	0.0183287
804.442	0.0183163
804.520	0.0183267
804.598	0.0183350
804.676	0.0181845
804.754	0.0181443
804.832	0.0181692
804.910	0.0181240
804.988	0.0179383
805.067	0.0178963
805.145	0.0178119
805.223	0.0178497
805.301	0.0177197
805.379	0.0176058
805.457	0.0175907
805.535	0.0175465
805.613	0.0174375
805.692	0.0174533
805.770	0.0175272
805.848	0.0175278
805.926	0.0174259
806.004	0.0176639
806.082	0.0178458
806.160	0.0177634
806.238	0.0179355
806.317	0.0179077
806.395	0.0180752
806.473	0.0181779
806.551	0.0182406
806.629	0.0183047
806.707	0.0185255
806.785	0.0185019
806.863	0.0186448
806.942	0.0187882
807.020	0.0186746
807.098	0.0186168
807.176	0.0187813
807.254	0.0188164
807.332	0.0186187
807.410	0.0187342
807.488	0.0185958
807.567	0.0186138
807.645	0.0185361
807.723	0.0185539
807.801	0.0185097
807.879	0.0185614
807.957	0.0185655
808.035	0.0184660
808.113	0.0183412
808.192	0.0183092
808.270	0.0183279
808.348	0.0183658
808.426	0.0182900
808.504	0.0183831
808.582	0.0183503
808.660	0.0182221
808.738	0.0182937
808.817	0.0182626
808.895	0.0184180
808.973	0.0183379
809.051	0.0182555
809.129	0.0184805
809.207	0.0184836
809.285	0.0182938
809.363	0.0183630
809.442	0.0182415
809.520	0.0181927
809.598	0.0182076
809.676	0.0181400
809.754	0.0180150
809.832	0.0179752
809.910	0.0182355
809.988	0.0181528
810.067	0.0180135
810.145	0.0179993
810.223	0.0179967
810.301	0.0179180
810.379	0.0180129
810.457	0.0179097
810.535	0.0179732
810.613	0.0180832
810.692	0.0180099
810.770	0.0179652
810.848	0.0179929
810.926	0.0181319
811.004	0.0180730
811.082	0.0181271
811.160	0.0183527
811.238	0.0181809
811.317	0.0182775
811.395	0.0182192
811.473	0.0184115
811.551	0.0182439
811.629	0.0183733
811.707	0.0183683
811.785	0.0184782
811.863	0.0184872
811.942	0.0184738
812.020	0.0185760
812.098	0.0186152
812.176	0.0183858
812.254	0.0184424
812.332	0.0184341
812.410	0.0184396
812.488	0.0184901
812.567	0.0184583
812.645	0.0184074
812.723	0.0182796
812.801	0.0183662
812.879	0.0182035
812.957	0.0182892
813.035	0.0183061
813.113	0.0183282
813.192	0.0181421
813.270	0.0181441
813.348	0.0181613
813.426	0.0181930
813.504	0.0181346
813.582	0.0182427
813.660	0.0182380
813.738	0.0182539
813.817	0.0181733
813.895	0.0182908
813.973	0.0182067
814.051	0.0182153
814.129	0.0183182
814.207	0.0183831
814.285	0.0183111
814.363	0.0181600
814.442	0.0182566
814.520	0.0181620
814.598	0.0182533
814.676	0.0181502
814.754	0.0180861
814.832	0.0180261
814.910	0.0181404
814.988	0.0180650
815.067	0.0180095
815.145	0.0180824
815.223	0.0181474
815.301	0.0181643
815.379	0.0179925
815.457	0.0180714
815.535	0.0179596
815.613	0.0180462
815.692	0.0182353
815.770	0.0179250
815.848	0.0180620
815.926	0.0180169
816.004	0.0180107
816.082	0.0180641
816.160	0.0180609
816.238	0.0182016
816.317	0.0181722
816.395	0.0182012
816.473	0.0180827
816.551	0.0181791
816.629	0.0182765
816.707	0.0182339
816.785	0.0184027
816.863	0.0182452
816.942	0.0184343
817.020	0.0185498
817.098	0.0183816
817.176	0.0184779
817.254	0.0185612
817.332	0.0185070
817.410	0.0186331
817.488	0.0186243
817.567	0.0185395
817.645	0.0185236
817.723	0.0185030
817.801	0.0185637
817.879	0.0183875
817.957	0.0183820
818.035	0.0184193
818.113	0.0181728
818.192	0.0181711
818.270	0.0182800
818.348	0.0181851
818.426	0.0182851
818.504	0.0182763
818.582	0.0182473
818.660	0.0181268
818.738	0.0182962
818.817	0.0184554
818.895	0.0183784
818.973	0.0184151
819.051	0.0183591
819.129	0.0185225
819.207	0.0186937
819.285	0.0186143
819.363	0.0185712
819.442	0.0186063
819.520	0.0186625
819.598	0.0185728
819.676	0.0186446
819.754	0.0185717
819.832	0.0185101
819.910	0.0183303
819.988	0.0182231
820.067	0.0181265
820.145	0.0182941
820.223	0.0181279
820.301	0.0179485
820.379	0.0177460
820.457	0.0177062
820.535	0.0177278
820.613	0.0176562
820.692	0.0174863
820.770	0.0175227
820.848	0.0175795
820.926	0.0174142
821.004	0.0175003
821.082	0.0176757
821.160	0.0175887
821.238	0.0174767
821.317	0.0177194
821.395	0.0177119
821.473	0.0178046
821.551	0.0178945
821.629	0.0179421
821.707	0.0181065
821.785	0.0180609
821.863	0.0182064
821.942	0.0181667
822.020	0.0183863
822.098	0.0185496
822.176	0.0184383
822.254	0.0184199
822.332	0.0185480
822.410	0.0186619
822.488	0.0184907
822.567	0.0185259
822.645	0.0185973
822.723	0.0185599
822.801	0.0184991
822.879	0.0185355
822.957	0.0184228
823.035	0.0185499
823.113	0.0184962
823.192	0.0182757
823.270	0.0182549
823.348	0.0184261
823.426	0.0184222
823.504	0.0183044
823.582	0.0183215
823.660	0.0183426
823.738	0.0183080
823.817	0.0184684
823.895	0.0185606
823.973	0.0184585
824.051	0.0185015
824.129	0.0185959
824.207	0.0186289
824.285	0.0186225
824.363	0.0186713
824.442	0.0186134
824.520	0.0185936
824.598	0.0185264
824.676	0.0187105
824.754	0.0186216
824.832	0.0185258
824.910	0.0185168
824.988	0.0185091
825.067	0.0184223
825.145	0.0184286
825.223	0.0184339
825.301	0.0183689
825.379	0.0182878
825.457	0.0182279
825.535	0.0183300
825.613	0.0182934
825.692	0.0181469
825.770	0.0180821
825.848	0.0182234
825.926	0.0180801
826.004	0.0181133
826.082	0.0180606
826.160	0.0178835
826.238	0.0179965
826.317	0.0179049
826.395	0.0179330
826.473	0.0178876
826.551	0.0178877
826.629	0.0178990
826.707	0.0179369
826.785	0.0179661
826.863	0.0179752
826.942	0.0180804
827.020	0.0182037
827.098	0.0181227
827.176	0.0181390
827.254	0.0182335
827.332	0.0183849
827.410	0.0182344
827.488	0.0182912
827.567	0.0184782
827.645	0.0185316
827.723	0.0184723
827.801	0.0186118
827.879	0.0186661
827.957	0.0185217
828.035	0.0185556
828.113	0.0185931
828.192	0.0185213
828.270	0.0184882
828.348	0.0183839
828.426	0.0183396
828.504	0.0183226
828.582	0.0184129
828.660	0.0181670
828.738	0.0182652
828.817	0.0182132
828.895	0.0182560
828.973	0.0182483
829.051	0.0182790
829.129	0.0181382
829.207	0.0181969
829.285	0.0182018
829.363	0.0181615
829.442	0.0181367
829.520	0.0182129
829.598	0.0182298
829.676	0.0181384
829.754	0.0182517
829.832	0.0182278
829.910	0.0183054
829.988	0.0181661
830.067	0.0183636
830.145	0.0183808
830.223	0.0183980
830.301	0.0183153
830.379	0.0183483
830.457	0.0183509
830.535	0.0182403
830.613	0.0184402
830.692	0.0184341
830.770	0.0182600
830.848	0.0182472
830.926	0.0182891
831.004	0.0182330
831.082	0.0181728
831.160	0.0182249
831.238	0.0180592
831.317	0.0180370
831.395	0.0181451
831.473	0.0180546
831.551	0.0181397
831.629	0.0180929
831.707	0.0181381
831.785	0.0181918
831.863	0.0180844
831.942	0.0181918
832.020	0.0181336
832.098	0.0182131
832.176	0.0181863
832.254	0.0180238
832.332	0.0183512
832.410	0.0182111
832.488	0.0181149
832.567	0.0183438
832.645	0.0184329
832.723	0.0184296
832.801	0.0183728
832.879	0.0183581
832.957	0.0184379
833.035	0.0185651
833.113	0.0185577
833.192	0.0185565
833.270	0.0185373
833.348	0.0186880
833.426	0.0184937
833.504	0.0187021
833.582	0.0185405
833.660	0.0186098
833.738	0.0184819
833.817	0.0184850
833.895	0.0185802
833.973	0.0185726
834.051	0.0184000
834.129	0.0183904
834.207	0.0183288
834.285	0.0182726
834.363	0.0183208
834.442	0.0183623
834.520	0.0179947
834.598	0.0180292
834.676	0.0181100
834.754	0.0181192
834.832	0.0180949
834.910	0.0180595
834.988	0.0180890
835.067	0.0180394
835.145	0.0181384
835.223	0.0181287
835.301	0.0181943
835.379	0.0181449
835.457	0.0181919
835.535	0.0183616
835.613	0.0182893
835.692	0.0182962
835.770	0.0183669
835.848	0.0182783
835.926	0.0182435
836.004	0.0184657
836.082	0.0183599
836.160	0.0184079
836.238	0.0182821
836.317	0.0185122
836.395	0.0184972
836.473	0.0183984
836.551	0.0183302
836.629	0.0183924
836.707	0.0183743
836.785	0.0183037
836.863	0.0181380
836.942	0.0181907
837.020	0.0181876
837.098	0.0181380
837.176	0.0182000
837.254	0.0181461
837.332	0.0180296
837.410	0.0181193
837.488	0.0179646
837.567	0.0180720
837.645	0.0179900
837.723	0.0180480
837.801	0.0181594
837.879	0.0181586
837.957	0.0180727
838.035	0.0180637
838.113	0.0181738
838.192	0.0180981
838.270	0.0180707
838.348	0.0181695
838.426	0.0181343
838.504	0.0180573
838.582	0.0180860
838.660	0.0182912
838.738	0.0181905
838.817	0.0183060
838.895	0.0183587
838.973	0.0182492
839.051	0.0183327
839.129	0.0183813
839.207	0.0183907
839.285	0.0185672
839.363	0.0185154
839.442	0.0185044
839.520	0.0186161
839.598	0.0186459
839.676	0.0186696
839.754	0.0185201
839.832	0.0187059
839.910	0.0187781
839.988	0.0187211
840.067	0.0186893
840.145	0.0187492
840.223	0.0188070
840.301	0.0186814
840.379	0.0186433
840.457	0.0185686
840.535	0.0185316
840.613	0.0185863
840.692	0.0186565
840.770	0.0183318
840.848	0.0182101
840.926	0.0182742
841.004	0.0181606
841.082	0.0180962
841.160	0.0180984
841.238	0.0181767
841.317	0.0182003
841.395	0.0181487
841.473	0.0179347
841.551	0.0180758
841.629	0.0180129
841.707	0.0179330
841.785	0.0178331
841.863	0.0180567
841.942	0.0181699
842.020	0.0180041
842.098	0.0178854
842.176	0.0180666
842.254	0.0179441
842.332	0.0179303
842.410	0.0181244
842.488	0.0181134
842.567	0.0181277
842.645	0.0179454
842.723	0.0181145
842.801	0.0180212
842.879	0.0181101
842.957	0.0180222
843.035	0.0181734
843.113	0.0182911
843.192	0.0181392
843.270	0.0183160
843.348	0.0182336
843.426	0.0182563
843.504	0.0183165
843.582	0.0182164
843.660	0.0184438
843.738	0.0184115
843.817	0.0184987
843.895	0.0184831
843.973	0.0185039
844.051	0.0183804
844.129	0.0184752
844.207	0.0183076
844.285	0.0184581
844.363	0.0184175
844.442	0.0183223
844.520	0.0182124
844.598	0.0182509
844.676	0.0182267
844.754	0.0182487
844.832	0.0181297
844.910	0.0180504
844.988	0.0181490
845.067	0.0180444
845.145	0.0181207
845.223	0.0180228
845.301	0.0181815
845.379	0.0181774
845.457	0.0181938
845.535	0.0181724
845.613	0.0181642
845.692	0.0182351
845.770	0.0181506
845.848	0.0182185
845.926	0.0184043
846.004	0.0181707
846.082	0.0182328
846.160	0.0183690
846.238	0.0183200
846.317	0.0182249
846.395	0.0184026
846.473	0.0184050
846.551	0.0182682
846.629	0.0183389
846.707	0.0183421
846.785	0.0182529
846.863	0.0184161
846.942	0.0182812
847.020	0.0182635
847.098	0.0181696
847.176	0.0183441
847.254	0.0183190
847.332	0.0182494
847.410	0.0181801
847.488	0.0182847
847.567	0.0183573
847.645	0.0182777
847.723	0.0183202
847.801	0.0182679
847.879	0.0182460
847.957	0.0183095
848.035	0.0183053
848.113	0.0183718
848.192	0.0183239
848.270	0.0182124
848.348	0.0183237
848.426	0.0183905
848.504	0.0182969
848.582	0.0183073
848.660	0.0183286
848.738	0.0183060
848.817	0.0182491
848.895	0.0183087
848.973	0.0183167
849.051	0.0183755
849.129	0.0184220
849.207	0.0182990
849.285	0.0184190
849.363	0.0185468
849.442	0.0184531
849.520	0.0184283
849.598	0.0184438
849.676	0.0185255
849.754	0.0184787
849.832	0.0184778
849.910	0.0185181
849.988	0.0185456
850.067	0.0184622
850.145	0.0184956
850.223	0.0184431
850.301	0.0183157
850.379	0.0182976
850.457	0.0182832
850.535	0.0181644
850.613	0.0180639
850.692	0.0179324
850.770	0.0180285
850.848	0.0179173
850.926	0.0181100
851.004	0.0179501
851.082	0.0179256
851.160	0.0178442
851.238	0.0180152
851.317	0.0179844
851.395	0.0181149
851.473	0.0181645
851.551	0.0182940
851.629	0.0181628
851.707	0.0182150
851.785	0.0182429
851.863	0.0182022
851.942	0.0182568
852.020	0.0184231
852.098	0.0182172
852.176	0.0182638
852.254	0.0181918
852.332	0.0182169
852.410	0.0183917
852.488	0.0182031
852.567	0.0179701
852.645	0.0181699
852.723	0.0182040
852.801	0.0179837
852.879	0.0181818
852.957	0.0181863
853.035	0.0181913
853.113	0.0181764
853.192	0.0182034
853.270	0.0181619
853.348	0.0183186
853.426	0.0183034
853.504	0.0182897
853.582	0.0183657
853.660	0.0183387
853.738	0.0183708
853.817	0.0183216
853.895	0.0184389
853.973	0.0183308
854.051	0.0185727
854.129	0.0183894
854.207	0.0184493
854.285	0.0185507
854.363	0.0185684
854.442	0.0184949
854.520	0.0185200
854.598	0.0184607
854.676	0.0185696
854.754	0.0184031
854.832	0.0183857
854.910	0.0183939
854.988	0.0183525
855.067	0.0184345
855.145	0.0183553
855.223	0.0183653
855.301	0.0185426
855.379	0.0182709
855.457	0.0183128
855.535	0.0185596
855.613	0.0185043
855.692	0.0184099
855.770	0.0184560
855.848	0.0184312
855.926	0.0183389
856.004	0.0184393
856.082	0.0183290
856.160	0.0184569
856.238	0.0182455
856.317	0.0182784
856.395	0.0182811
856.473	0.0181998
856.551	0.0181881
856.629	0.0182089
856.707	0.0182174
856.785	0.0180521
856.863	0.0179682
856.942	0.0180109
857.020	0.0180700
857.098	0.0180351
857.176	0.0179754
857.254	0.0180853
857.332	0.0181593
857.410	0.0180264
857.488	0.0180160
857.567	0.0181365
857.645	0.0181017
857.723	0.0180756
857.801	0.0181979
857.879	0.0182390
857.957	0.0181185
858.035	0.0182982
858.113	0.0182471
858.192	0.0183643
858.270	0.0183544
858.348	0.0181803
858.426	0.0184889
858.504	0.0184052
858.582	0.0183652
858.660	0.0184354
858.738	0.0183144
858.817	0.0183613
858.895	0.0183601
858.973	0.0182665
859.051	0.0182173
859.129	0.0182313
859.207	0.0181973
859.285	0.0182129
859.363	0.0182320
859.442	0.0181628
859.520	0.0179462
859.598	0.0181760
859.676	0.0182986
859.754	0.0182125
859.832	0.0181171
859.910	0.0179960
859.988	0.0181528
860.067	0.0182571
860.145	0.0182115
860.223	0.0183047
860.301	0.0183131
860.379	0.0183834
860.457	0.0184615
860.535	0.0183367
860.613	0.0185411
860.692	0.0184838
860.770	0.0185369
860.848	0.0184604
860.926	0.0186452
861.004	0.0186806
861.082	0.0184668
861.160	0.0185668
861.238	0.0183862
861.317	0.0182507
861.395	0.0183971
861.473	0.0182509
861.551	0.0182320
861.629	0.0181055
861.707	0.0179859
861.785	0.0180833
861.863	0.0180399
861.942	0.0179897
862.020	0.0180779
862.098	0.0180019
862.176	0.0179956
862.254	0.0181354
862.332	0.0182264
862.410	0.0180158
862.488	0.0180550
862.567	0.0181336
862.645	0.0182378
862.723	0.0183116
862.801	0.0182462
862.879	0.0184333
862.957	0.0184395
863.035	0.0184144
863.113	0.0185047
863.192	0.0184147
863.270	0.0183927
863.348	0.0184728
863.426	0.0184279
863.504	0.0183726
863.582	0.0183545
863.660	0.0182661
863.738	0.0182681
863.817	0.0180845
863.895	0.0182117
863.973	0.0181553
864.051	0.0180772
864.129	0.0180759
864.207	0.0179476
864.285	0.0180569
864.363	0.0179862
864.442	0.0179840
864.520	0.0180590
864.598	0.0181085
864.676	0.0182764
864.754	0.0181960
864.832	0.0181477
864.910	0.0183385
864.988	0.0184144
865.067	0.0184471
865.145	0.0184165
865.223	0.0185337
865.301	0.0185439
865.379	0.0186044
865.457	0.0186172
865.535	0.0185284
865.613	0.0186538
865.692	0.0185266
865.770	0.0185174
865.848	0.0183582
865.926	0.0182995
866.004	0.0183881
866.082	0.0182191
866.160	0.0182059
866.238	0.0180446
866.317	0.0180109
866.395	0.0182667
866.473	0.0180721
866.551	0.0180824
866.629	0.0179967
866.707	0.0180007
866.785	0.0178973
866.863	0.0179705
866.942	0.0179708
867.020	0.0179932
867.098	0.0179180
867.176	0.0179148
867.254	0.0178474
867.332	0.0180441
867.410	0.0180649
867.488	0.0180319
867.567	0.0180397
867.645	0.0181889
867.723	0.0181560
867.801	0.0182698
867.879	0.0182547
867.957	0.0181574
868.035	0.0182996
868.113	0.0183517
868.192	0.0181989
868.270	0.0183164
868.348	0.0183327
868.426	0.0183471
868.504	0.0184136
868.582	0.0184631
868.660	0.0184318
868.738	0.0184749
868.817	0.0183627
868.895	0.0181876
868.973	0.0183347
869.051	0.0184197
869.129	0.0183366
869.207	0.0182425
869.285	0.0183543
869.363	0.0183507
869.442	0.0183294
869.520	0.0183158
869.598	0.0183503
869.676	0.0181871
869.754	0.0183897
869.832	0.0183509
869.910	0.0184094
869.988	0.0183363
870.067	0.0182832
870.145	0.0184066
870.223	0.0184626
870.301	0.0185002
870.379	0.0183305
870.457	0.0183276
870.535	0.0182744
870.613	0.0183158
870.692	0.0182273
870.770	0.0184402
870.848	0.0182190
870.926	0.0182597
871.004	0.0181740
871.082	0.0181233
871.160	0.0181670
871.238	0.0181944
871.317	0.0181795
871.395	0.0180516
871.473	0.0182564
871.551	0.0183644
871.629	0.0181037
871.707	0.0181395
871.785	0.0181683
871.863	0.0182945
871.942	0.0182764
872.020	0.0183166
872.098	0.0183695
872.176	0.0183894
872.254	0.0184361
872.332	0.0184949
872.410	0.0185236
872.488	0.0185410
872.567	0.0182493
872.645	0.0184053
872.723	0.0183168
872.801	0.0184345
872.879	0.0183976
872.957	0.0183756
873.035	0.0183029
873.113	0.0184061
873.192	0.0182409
873.270	0.0182049
873.348	0.0183025
873.426	0.0182782
873.504	0.0183332
873.582	0.0182699
873.660	0.0182431
873.738	0.0182355
873.817	0.0183217
873.895	0.0182027
873.973	0.0181342
874.051	0.0181957
874.129	0.0181493
874.207	0.0182526
874.285	0.0181461
874.363	0.0181345
874.442	0.0181139
874.520	0.0181989
874.598	0.0180867
874.676	0.0180453
874.754	0.0181195
874.832	0.0181133
874.910	0.0180799
874.988	0.0180133
875.067	0.0180611
875.145	0.0178596
875.223	0.0179042
875.301	0.0181457
875.379	0.0180904
875.457	0.0181464
875.535	0.0180268
875.613	0.0181170
875.692	0.0182489
875.770	0.0182339
875.848	0.0181045
875.926	0.0182908
876.004	0.0182179
876.082	0.0181421
876.160	0.0182027
876.238	0.0184177
876.317	0.0184224
876.395	0.0182503
876.473	0.0183320
876.551	0.0183081
876.629	0.0184683
876.707	0.0185036
876.785	0.0184251
876.863	0.0185120
876.942	0.0184077
877.020	0.0184898
877.098	0.0185438
877.176	0.0184483
877.254	0.0185233
877.332	0.0185610
877.410	0.0183208
877.488	0.0184673
877.567	0.0184456
877.645	0.0184552
877.723	0.0184483
877.801	0.0184657
877.879	0.0183356
877.957	0.0182926
878.035	0.0182596
878.113	0.0182675
878.192	0.0183818
878.270	0.0184032
878.348	0.0181989
878.426	0.0180797
878.504	0.0180776
878.582	0.0181762
878.660	0.0181026
878.738	0.0182652
878.817	0.0180595
878.895	0.0181631
878.973	0.0181808
879.051	0.0181520
879.129	0.0180978
879.207	0.0179131
879.285	0.0180350
879.363	0.0180872
879.442	0.0180418
879.520	0.0179335
879.598	0.0180917
879.676	0.0179738
879.754	0.0180642
879.832	0.0179917
879.910	0.0180013
879.988	0.0180052
880.067	0.0181667
880.145	0.0182396
880.223	0.0181425
880.301	0.0182375
880.379	0.0183450
880.457	0.0183794
880.535	0.0183781
880.613	0.0183457
880.692	0.0184120
880.770	0.0183036
880.848	0.0183273
880.926	0.0182591
881.004	0.0183355
881.082	0.0182693
881.160	0.0181379
881.238	0.0183173
881.317	0.0181942
881.395	0.0184083
881.473	0.0183173
881.551	0.0181626
881.629	0.0180949
881.707	0.0184708
881.785	0.0185350
881.863	0.0182630
881.942	0.0185046
882.020	0.0184868
882.098	0.0186016
882.176	0.0185897
882.254	0.0184970
882.332	0.0185209
882.410	0.0185303
882.488	0.0184718
882.567	0.0183827
882.645	0.0184520
882.723	0.0182827
882.801	0.0182166
882.879	0.0182875
882.957	0.0180885
883.035	0.0179156
883.113	0.0178115
883.192	0.0178736
883.270	0.0177459
883.348	0.0178053
883.426	0.0176088
883.504	0.0177222
883.582	0.0176901
883.660	0.0178715
883.738	0.0178479
883.817	0.0179359
883.895	0.0180138
883.973	0.0181589
884.051	0.0183671
884.129	0.0184748
884.207	0.0187521
884.285	0.0188087
884.363	0.0189655
884.442	0.0191541
884.520	0.0191173
884.598	0.0191391
884.676	0.0190578
884.754	0.0187304
884.832	0.0184198
884.910	0.0183773
884.988	0.0180313
885.067	0.0178788
885.145	0.0174969
885.223	0.0172768
885.301	0.0170226
885.379	0.0169290
885.457	0.0167445
885.535	0.0168890
885.613	0.0168527
885.692	0.0168688
885.770	0.0171220
885.848	0.0175073
885.926	0.0175956
886.004	0.0178923
886.082	0.0184690
886.160	0.0188633
886.238	0.0191057
886.317	0.0196093
886.395	0.0199438
886.473	0.0202386
886.551	0.0205913
886.629	0.0206073
886.707	0.0206363
886.785	0.0205386
886.863	0.0202889
886.942	0.0200033
887.020	0.0198128
887.098	0.0194472
887.176	0.0189261
887.254	0.0183907
887.332	0.0177619
887.410	0.0172989
887.488	0.0168219
887.567	0.0165545
887.645	0.0159998
887.723	0.0159235
887.801	0.0157452
887.879	0.0156467
887.957	0.0157171
888.035	0.0158607
888.113	0.0163067
888.192	0.0165507
888.270	0.0168146
888.348	0.0173344
888.426	0.0177636
888.504	0.0183056
888.582	0.0186443
888.660	0.0189548
888.738	0.0193587
888.817	0.0195577
888.895	0.0198493
888.973	0.0200914
889.051	0.0200813
889.129	0.0202460
889.207	0.0201929
889.285	0.0200203
889.363	0.0198070
889.442	0.0194709
889.520	0.0190988
889.598	0.0188826
889.676	0.0186039
889.754	0.0183398
889.832	0.0180443
889.910	0.0178024
889.988	0.0174101
890.067	0.0173374
890.145	0.0171873
890.223	0.0170313
890.301	0.0170979
890.379	0.0172603
890.457	0.0172240
890.535	0.0174438
890.613	0.0174571
890.692	0.0174621
890.770	0.0177522
890.848	0.0179154
890.926	0.0180112
891.004	0.0182171
891.082	0.0184162
891.160	0.0184280
891.238	0.0185726
891.317	0.0189027
891.395	0.0189020
891.473	0.0190046
891.551	0.0189338
891.629	0.0189954
891.707	0.0189354
891.785	0.0188998
891.863	0.0187130
891.942	0.0185287
892.020	0.0183818
892.098	0.0183294
892.176	0.0181440
892.254	0.0179475
892.332	0.0179848
892.410	0.0177864
892.488	0.0177499
892.567	0.0177797
892.645	0.0178307
892.723	0.0178191
892.801	0.0178384
892.879	0.0181628
892.957	0.0179235
893.035	0.0182234
893.113	0.0183226
893.192	0.0182861
893.270	0.0184460
893.348	0.0184328
893.426	0.0186030
893.504	0.0187141
893.582	0.0187224
893.660	0.0188583
893.738	0.0187331
893.817	0.0188979
893.895	0.0188245
893.973	0.0188744
894.051	0.0187910
894.129	0.0188058
894.207	0.0186301
894.285	0.0186298
894.363	0.0185494
894.442	0.0183963
894.520	0.0183401
894.598	0.0181467
894.676	0.0178909
894.754	0.0178170
894.832	0.0177739
894.910	0.0177890
894.988	0.0176118
895.067	0.0173258
895.145	0.0172877
895.223	0.0173596
895.301	0.0172266
895.379	0.0172406
895.457	0.0173270
895.535	0.0174087
895.613	0.0175038
895.692	0.0176214
895.770	0.0178288
895.848	0.0179623
895.926	0.0182208
896.004	0.0182133
896.082	0.0185386
896.160	0.0187782
896.238	0.0189938
896.317	0.0188883
896.395	0.0190392
896.473	0.0192458
896.551	0.0192511
896.629	0.0190952
896.707	0.0192398
896.785	0.0191938
896.863	0.0191430
896.942	0.0191379
897.020	0.0189232
897.098	0.0188941
897.176	0.0186654
897.254	0.0186356
897.332	0.0184213
897.410	0.0183427
897.488	0.0181354
897.567	0.0181038
897.645	0.0180062
897.723	0.0178352
897.801	0.0177546
897.879	0.0178562
897.957	0.0175827
898.035	0.0175628
898.113	0.0174374
898.192	0.0175626
898.270	0.0175829
898.348	0.0176045
898.426	0.0176455
898.504	0.0178159
898.582	0.0178655
898.660	0.0178860
898.738	0.0180895
898.817	0.0182007
898.895	0.0182484
898.973	0.0184010
899.051	0.0186357
899.129	0.0186460
899.207	0.0187463
899.285	0.0189401
899.363	0.0187585
899.442	0.0188840
899.520	0.0189391
899.598	0.0189156
899.676	0.0188760
899.754	0.0187856
899.832	0.0184905
899.910	0.0184929
899.988	0.0183034
900.067	0.0182511
900.145	0.0180402
900.223	0.0180827
900.301	0.0178605
900.379	0.0178107
900.457	0.0176623
900.535	0.0174654
900.613	0.0175706
900.692	0.0174338
900.770	0.0174845
900.848	0.0175083
900.926	0.0174524
901.004	0.0175606
901.082	0.0177174
901.160	0.0179562
901.238	0.0180275
901.317	0.0180899
901.395	0.0181200
901.473	0.0183730
901.551	0.0184115
901.629	0.0185667
901.707	0.0186311
901.785	0.0185551
901.863	0.0186852
901.942	0.0186667
902.020	0.0188197
902.098	0.0188313
902.176	0.0187958
902.254	0.0187959
902.332	0.0188027
902.410	0.0186735
902.488	0.0186445
902.567	0.0186952
902.645	0.0185020
902.723	0.0185118
902.801	0.0185372
902.879	0.0184956
902.957	0.0183688
903.035	0.0182585
903.113	0.0181448
903.192	0.0181503
903.270	0.0182255
903.348	0.0181088
903.426	0.0181694
903.504	0.0180896
903.582	0.0180741
903.660	0.0180759
903.738	0.0180640
903.817	0.0181458
903.895	0.0180952
903.973	0.0180783
904.051	0.0182276
904.129	0.0181259
904.207	0.0181155
904.285	0.0182442
904.363	0.0183516
904.442	0.0181239
904.520	0.0181539
904.598	0.0182022
904.676	0.0181405
904.754	0.0182632
904.832	0.0182876
904.910	0.0181676
904.988	0.0181499
905.067	0.0182268
905.145	0.0183794
905.223	0.0183956
905.301	0.0183069
905.379	0.0182300
905.457	0.0184185
905.535	0.0182579
905.613	0.0183447
905.692	0.0183639
905.770	0.0184980
905.848	0.0184550
905.926	0.0184099
906.004	0.0184181
906.082	0.0185667
906.160	0.0185123
906.238	0.0184855
906.317	0.0184856
906.395	0.0184531
906.473	0.0183526
906.551	0.0184861
906.629	0.0184456
906.707	0.0183488
906.785	0.0182278
906.863	0.0182339
906.942	0.0182446
907.020	0.0182261
907.098	0.0181555
907.176	0.0181227
907.254	0.0179890
907.332	0.0179513
907.410	0.0178802
907.488	0.0178232
907.567	0.0178148
907.645	0.0179069
907.723	0.0178266
907.801	0.0180137
907.879	0.0179461
907.957	0.0180447
908.035	0.0179717
908.113	0.0180296
908.192	0.0179866
908.270	0.0181587
908.348	0.0182187
908.426	0.0182386
908.504	0.0184476
908.582	0.0185303
908.660	0.0183273
908.738	0.0184804
908.817	0.0187074
908.895	0.0187433
908.973	0.0188493
909.051	0.0187094
909.129	0.0188316
909.207	0.0187645
909.285	0.0188181
909.363	0.0187845
909.442	0.0187591
909.520	0.0186884
909.598	0.0186380
909.676	0.0186309
909.754	0.0185026
909.832	0.0186536
909.910	0.0184036
909.988	0.0182710
910.067	0.0182604
910.145	0.0182600
910.223	0.0183369
910.301	0.0182999
910.379	0.0180522
910.457	0.0181197
910.535	0.0181948
910.613	0.0179989
910.692	0.0181179
910.770	0.0179288
910.848	0.0179489
910.926	0.0181548
911.004	0.0179543
911.082	0.0180439
911.160	0.0180506
911.238	0.0180746
911.317	0.0180128
911.395	0.0181327
911.473	0.0182030
911.551	0.0182825
911.629	0.0182385
911.707	0.0182331
911.785	0.0183223
911.863	0.0183537
911.942	0.0184258
912.020	0.0184402
912.098	0.0184204
912.176	0.0184917
912.254	0.0185806
912.332	0.0184213
912.410	0.0184879
912.488	0.0185024
912.567	0.0185189
912.645	0.0185981
912.723	0.0186260
912.801	0.0185648
912.879	0.0185338
912.957	0.0187277
913.035	0.0186037
913.113	0.0187220
913.192	0.0186842
913.270	0.0186120
913.348	0.0187003
913.426	0.0186986
913.504	0.0185048
913.582	0.0184229
913.660	0.0185862
913.738	0.0184519
913.817	0.0184077
913.895	0.0182096
913.973	0.0180448
914.051	0.0180428
914.129	0.0180202
914.207	0.0178974
914.285	0.0178813
914.363	0.0178898
914.442	0.0178275
914.520	0.0178455
914.598	0.0179299
914.676	0.0178873
914.754	0.0177044
914.832	0.0178140
914.910	0.0178661
914.988	0.0179263
915.067	0.0179931
915.145	0.0180525
915.223	0.0181425
915.301	0.0180758
915.379	0.0181173
915.457	0.0182313
915.535	0.0183418
915.613	0.0183167
915.692	0.0183920
915.770	0.0184325
915.848	0.0184647
915.926	0.0184264
916.004	0.0185044
916.082	0.0186234
916.160	0.0184215
916.238	0.0185032
916.317	0.0183923
916.395	0.0185628
916.473	0.0185313
916.551	0.0184428
916.629	0.0184077
916.707	0.0183073
916.785	0.0184344
916.863	0.0182976
916.942	0.0182314
917.020	0.0182094
917.098	0.0182085
917.176	0.0182310
917.254	0.0181691
917.332	0.0181512
917.410	0.0180996
917.488	0.0181604
917.567	0.0182428
917.645	0.0181463
917.723	0.0183504
917.801	0.0182434
917.879	0.0182294
917.957	0.0181983
918.035	0.0183555
918.113	0.0185191
918.192	0.0183598
918.270	0.0184581
918.348	0.0183622
918.426	0.0184792
918.504	0.0183784
918.582	0.0184856
918.660	0.0185311
918.738	0.0185439
918.817	0.0183519
918.895	0.0183484
918.973	0.0184976
919.051	0.0183283
919.129	0.0183150
919.207	0.0182835
919.285	0.0181959
919.363	0.0182775
919.442	0.0183034
919.520	0.0183788
919.598	0.0182059
919.676	0.0181545
919.754	0.0180685
919.832	0.0182222
919.910	0.0182531
