06/01/2022	21:28:17	Ver.	4.1	UNKNOWN
Optical Delay	599.988409	Delta X		0.078125	Sweeps	1	Scan Rate	0/0
Coordinates	Axis 1	NaN	Axis 2	NaN	Axis 3	NaN	Axis 4	NaN	Axis 5	NaN	Axis 6	0.000000
TX Power	0.000000	RX Power	0.000000

599.988	0.0176441
600.067	0.0175504
600.145	0.0177756
600.223	0.0176114
600.301	0.0177840
600.379	0.0177035
600.457	0.0175068
600.535	0.0176219
600.613	0.0176064
600.692	0.0176186
600.770	0.0175085
600.848	0.0176798
600.926	0.0175913
601.004	0.0176678
601.082	0.0175755
601.160	0.0175534
601.238	0.0178217
601.317	0.0177710
601.395	0.0175706
601.473	0.0176709
601.551	0.0175955
601.629	0.0177200
601.707	0.0177404
601.785	0.0176563
601.863	0.0175753
601.942	0.0175203
602.020	0.0176278
602.098	0.0176018
602.176	0.0176481
602.254	0.0176197
602.332	0.0176254
602.410	0.0176761
602.488	0.0175456
602.567	0.0176853
602.645	0.0177142
602.723	0.0175876
602.801	0.0176047
602.879	0.0175481
602.957	0.0177337
603.035	0.0176256
603.113	0.0177456
603.192	0.0176653
603.270	0.0176311
603.348	0.0175663
603.426	0.0176392
603.504	0.0177324
603.582	0.0176115
603.660	0.0176240
603.738	0.0176498
603.817	0.0176322
603.895	0.0176869
603.973	0.0174963
604.051	0.0175679
604.129	0.0175759
604.207	0.0177364
604.285	0.0177555
604.363	0.0176184
604.442	0.0175616
604.520	0.0177870
604.598	0.0176427
604.676	0.0176315
604.754	0.0176218
604.832	0.0177039
604.910	0.0176122
604.988	0.0177475
605.067	0.0175753
605.145	0.0175668
605.223	0.0175841
605.301	0.0175994
605.379	0.0176299
605.457	0.0175676
605.535	0.0177155
605.613	0.0176180
605.692	0.0175929
605.770	0.0176158
605.848	0.0176537
605.926	0.0175988
606.004	0.0177302
606.082	0.0175774
606.160	0.0177693
606.238	0.0176819
606.317	0.0176077
606.395	0.0175653
606.473	0.0175723
606.551	0.0176813
606.629	0.0177096
606.707	0.0176648
606.785	0.0176827
606.863	0.0177431
606.942	0.0176096
607.020	0.0175264
607.098	0.0176082
607.176	0.0176011
607.254	0.0175957
607.332	0.0177826
607.410	0.0175875
607.488	0.0176737
607.567	0.0176038
607.645	0.0177168
607.723	0.0177062
607.801	0.0177603
607.879	0.0176015
607.957	0.0175793
608.035	0.0176431
608.113	0.0178197
608.192	0.0177643
608.270	0.0176287
608.348	0.0176173
608.426	0.0177386
608.504	0.0176602
608.582	0.0175684
608.660	0.0177984
608.738	0.0177371
608.817	0.0176527
608.895	0.0175932
608.973	0.0176842
609.051	0.0176783
609.129	0.0176308
609.207	0.0176243
609.285	0.0176077
609.363	0.0175243
609.442	0.0176254
609.520	0.0176571
609.598	0.0176159
609.676	0.0175524
609.754	0.0175159
609.832	0.0176841
609.910	0.0176115
609.988	0.0175970
610.067	0.0176371
610.145	0.0175941
610.223	0.0175346
610.301	0.0176588
610.379	0.0175092
610.457	0.0176933
610.535	0.0175722
610.613	0.0175359
610.692	0.0176172
610.770	0.0176190
610.848	0.0176607
610.926	0.0177303
611.004	0.0176405
611.082	0.0176809
611.160	0.0176162
611.238	0.0176112
611.317	0.0177404
611.395	0.0176706
611.473	0.0175833
611.551	0.0176713
611.629	0.0176546
611.707	0.0176550
611.785	0.0176868
611.863	0.0176602
611.942	0.0176871
612.020	0.0176694
612.098	0.0175313
612.176	0.0176369
612.254	0.0176195
612.332	0.0177534
612.410	0.0176354
612.488	0.0176617
612.567	0.0176131
612.645	0.0174514
612.723	0.0177699
612.801	0.0176413
612.879	0.0175211
612.957	0.0175520
613.035	0.0176551
613.113	0.0176267
613.192	0.0175698
613.270	0.0176399
613.348	0.0175163
613.426	0.0175858
613.504	0.0175109
613.582	0.0176212
613.660	0.0176091
613.738	0.0175087
613.817	0.0176540
613.895	0.0176450
613.973	0.0178184
614.051	0.0175060
614.129	0.0175863
614.207	0.0176979
614.285	0.0175272
614.363	0.0176018
614.442	0.0177651
614.520	0.0176110
614.598	0.0174766
614.676	0.0176899
614.754	0.0176894
614.832	0.0176313
614.910	0.0175493
614.988	0.0176020
615.067	0.0177225
615.145	0.0176431
615.223	0.0176286
615.301	0.0175805
615.379	0.0178085
615.457	0.0177554
615.535	0.0176982
615.613	0.0175874
615.692	0.0176781
615.770	0.0176092
615.848	0.0177557
615.926	0.0177372
616.004	0.0175681
616.082	0.0175943
616.160	0.0176974
616.238	0.0177206
616.317	0.0177191
616.395	0.0175258
616.473	0.0175388
616.551	0.0176596
616.629	0.0175217
616.707	0.0176298
616.785	0.0176337
616.863	0.0176230
616.942	0.0177035
617.020	0.0175229
617.098	0.0176091
617.176	0.0176141
617.254	0.0177103
617.332	0.0177320
617.410	0.0175694
617.488	0.0176004
617.567	0.0175939
617.645	0.0176847
617.723	0.0176522
617.801	0.0177725
617.879	0.0177446
617.957	0.0176843
618.035	0.0175690
618.113	0.0176421
618.192	0.0177133
618.270	0.0176434
618.348	0.0175790
618.426	0.0177097
618.504	0.0176727
618.582	0.0175512
618.660	0.0176201
618.738	0.0175622
618.817	0.0175314
618.895	0.0176048
618.973	0.0177016
619.051	0.0176522
619.129	0.0175011
619.207	0.0176930
619.285	0.0176270
619.363	0.0176691
619.442	0.0176246
619.520	0.0177100
619.598	0.0176162
619.676	0.0176325
619.754	0.0175889
619.832	0.0176337
619.910	0.0176975
619.988	0.0177554
620.067	0.0176093
620.145	0.0175452
620.223	0.0177553
620.301	0.0176847
620.379	0.0176624
620.457	0.0175507
620.535	0.0175862
620.613	0.0177859
620.692	0.0176204
620.770	0.0175307
620.848	0.0175908
620.926	0.0176451
621.004	0.0176019
621.082	0.0175346
621.160	0.0177168
621.238	0.0176649
621.317	0.0176012
621.395	0.0175230
621.473	0.0176672
621.551	0.0175785
621.629	0.0175615
621.707	0.0175446
621.785	0.0176684
621.863	0.0175757
621.942	0.0176236
622.020	0.0177615
622.098	0.0175867
622.176	0.0176730
622.254	0.0176030
622.332	0.0175917
622.410	0.0177288
622.488	0.0176087
622.567	0.0176501
622.645	0.0175216
622.723	0.0176580
622.801	0.0175912
622.879	0.0175192
622.957	0.0175279
623.035	0.0177123
623.113	0.0176058
623.192	0.0176093
623.270	0.0176383
623.348	0.0175575
623.426	0.0175337
623.504	0.0175599
623.582	0.0175654
623.660	0.0176754
623.738	0.0177199
623.817	0.0175784
623.895	0.0176288
623.973	0.0174790
624.051	0.0175176
624.129	0.0176244
624.207	0.0176293
624.285	0.0177139
624.363	0.0176244
624.442	0.0176684
624.520	0.0176541
624.598	0.0176640
624.676	0.0176076
624.754	0.0176601
624.832	0.0176249
624.910	0.0176395
624.988	0.0176894
625.067	0.0176074
625.145	0.0176935
625.223	0.0177953
625.301	0.0176441
625.379	0.0175667
625.457	0.0176128
625.535	0.0175824
625.613	0.0178014
625.692	0.0176450
625.770	0.0175648
625.848	0.0177073
625.926	0.0177025
626.004	0.0177317
626.082	0.0177553
626.160	0.0176637
626.238	0.0175080
626.317	0.0176260
626.395	0.0176846
626.473	0.0175606
626.551	0.0175755
626.629	0.0176723
626.707	0.0175988
626.785	0.0175856
626.863	0.0175997
626.942	0.0176716
627.020	0.0176514
627.098	0.0176037
627.176	0.0177123
627.254	0.0176138
627.332	0.0175224
627.410	0.0176517
627.488	0.0174771
627.567	0.0176157
627.645	0.0176407
627.723	0.0177155
627.801	0.0176589
627.879	0.0176098
627.957	0.0177041
628.035	0.0177866
628.113	0.0175578
628.192	0.0176583
628.270	0.0175037
628.348	0.0175384
628.426	0.0175579
628.504	0.0176342
628.582	0.0178366
628.660	0.0177439
628.738	0.0176829
628.817	0.0175854
628.895	0.0175789
628.973	0.0176591
629.051	0.0175578
629.129	0.0175364
629.207	0.0175357
629.285	0.0176358
629.363	0.0176885
629.442	0.0176929
629.520	0.0177021
629.598	0.0177205
629.676	0.0175435
629.754	0.0175097
629.832	0.0175861
629.910	0.0175964
629.988	0.0176144
630.067	0.0176585
630.145	0.0177233
630.223	0.0175966
630.301	0.0175187
630.379	0.0176801
630.457	0.0177908
630.535	0.0176769
630.613	0.0176067
630.692	0.0176360
630.770	0.0176324
630.848	0.0176434
630.926	0.0175332
631.004	0.0175502
631.082	0.0175465
631.160	0.0175784
631.238	0.0175555
631.317	0.0175837
631.395	0.0175591
631.473	0.0175584
631.551	0.0176318
631.629	0.0176427
631.707	0.0176098
631.785	0.0175404
631.863	0.0175218
631.942	0.0175851
632.020	0.0176366
632.098	0.0176789
632.176	0.0175502
632.254	0.0176207
632.332	0.0176834
632.410	0.0176420
632.488	0.0177246
632.567	0.0175486
632.645	0.0175765
632.723	0.0176011
632.801	0.0174974
632.879	0.0177451
632.957	0.0175964
633.035	0.0176673
633.113	0.0174898
633.192	0.0174651
633.270	0.0175231
633.348	0.0175768
633.426	0.0176880
633.504	0.0176393
633.582	0.0176778
633.660	0.0176281
633.738	0.0177438
633.817	0.0176383
633.895	0.0176151
633.973	0.0176227
634.051	0.0176138
634.129	0.0175549
634.207	0.0176326
634.285	0.0176103
634.363	0.0176923
634.442	0.0175811
634.520	0.0176760
634.598	0.0176514
634.676	0.0175807
634.754	0.0176122
634.832	0.0178271
634.910	0.0176885
634.988	0.0176105
635.067	0.0175690
635.145	0.0175684
635.223	0.0176574
635.301	0.0177306
635.379	0.0175859
635.457	0.0177737
635.535	0.0177430
635.613	0.0176229
635.692	0.0177576
635.770	0.0176918
635.848	0.0177199
635.926	0.0175798
636.004	0.0176173
636.082	0.0176229
636.160	0.0175932
636.238	0.0177705
636.317	0.0175974
636.395	0.0175770
636.473	0.0176448
636.551	0.0175105
636.629	0.0177385
636.707	0.0175527
636.785	0.0175743
636.863	0.0176717
636.942	0.0176922
637.020	0.0176046
637.098	0.0176675
637.176	0.0177524
637.254	0.0176810
637.332	0.0176727
637.410	0.0175518
637.488	0.0176057
637.567	0.0175777
637.645	0.0175822
637.723	0.0176533
637.801	0.0175773
637.879	0.0176385
637.957	0.0177035
638.035	0.0178365
638.113	0.0175830
638.192	0.0175607
638.270	0.0176143
638.348	0.0177074
638.426	0.0176567
638.504	0.0176691
638.582	0.0176203
638.660	0.0176402
638.738	0.0176646
638.817	0.0175727
638.895	0.0174679
638.973	0.0176642
639.051	0.0175893
639.129	0.0175950
639.207	0.0178259
639.285	0.0176530
639.363	0.0177383
639.442	0.0176238
639.520	0.0176167
639.598	0.0175882
639.676	0.0175695
639.754	0.0176310
639.832	0.0175668
639.910	0.0177948
639.988	0.0175999
640.067	0.0175115
640.145	0.0176502
640.223	0.0176176
640.301	0.0177135
640.379	0.0176712
640.457	0.0176078
640.535	0.0177216
640.613	0.0179190
640.692	0.0176858
640.770	0.0175166
640.848	0.0175257
640.926	0.0175877
641.004	0.0177879
641.082	0.0179247
641.160	0.0175509
641.238	0.0176014
641.317	0.0176475
641.395	0.0176678
641.473	0.0177529
641.551	0.0176560
641.629	0.0176196
641.707	0.0177238
641.785	0.0175684
641.863	0.0175712
641.942	0.0176858
642.020	0.0176604
642.098	0.0175720
642.176	0.0176215
642.254	0.0176254
642.332	0.0175825
642.410	0.0175663
642.488	0.0176112
642.567	0.0176778
642.645	0.0175692
642.723	0.0176073
642.801	0.0176933
642.879	0.0177381
642.957	0.0175179
643.035	0.0176460
643.113	0.0176455
643.192	0.0176814
643.270	0.0177542
643.348	0.0176748
643.426	0.0176224
643.504	0.0177544
643.582	0.0177068
643.660	0.0176978
643.738	0.0175517
643.817	0.0176664
643.895	0.0175615
643.973	0.0177767
644.051	0.0176723
644.129	0.0177553
644.207	0.0176051
644.285	0.0175945
644.363	0.0175784
644.442	0.0176923
644.520	0.0177225
644.598	0.0176407
644.676	0.0175743
644.754	0.0176888
644.832	0.0176400
644.910	0.0176156
644.988	0.0176664
645.067	0.0176204
645.145	0.0177320
645.223	0.0176352
645.301	0.0176344
645.379	0.0176583
645.457	0.0176592
645.535	0.0175925
645.613	0.0176984
645.692	0.0175723
645.770	0.0175057
645.848	0.0175626
645.926	0.0175860
646.004	0.0174916
646.082	0.0175745
646.160	0.0176465
646.238	0.0176565
646.317	0.0176893
646.395	0.0175277
646.473	0.0175238
646.551	0.0175400
646.629	0.0175084
646.707	0.0175298
646.785	0.0175772
646.863	0.0176157
646.942	0.0176136
647.020	0.0176115
647.098	0.0176206
647.176	0.0175558
647.254	0.0176704
647.332	0.0176232
647.410	0.0176057
647.488	0.0176675
647.567	0.0176583
647.645	0.0176684
647.723	0.0176943
647.801	0.0176613
647.879	0.0176632
647.957	0.0175841
648.035	0.0175752
648.113	0.0175735
648.192	0.0175745
648.270	0.0177170
648.348	0.0175835
648.426	0.0174944
648.504	0.0176311
648.582	0.0175230
648.660	0.0177619
648.738	0.0176965
648.817	0.0177155
648.895	0.0175663
648.973	0.0175405
649.051	0.0175501
649.129	0.0175833
649.207	0.0176651
649.285	0.0176714
649.363	0.0175136
649.442	0.0175709
649.520	0.0175253
649.598	0.0174957
649.676	0.0176324
649.754	0.0174973
649.832	0.0175160
649.910	0.0177051
649.988	0.0177013
650.067	0.0176454
650.145	0.0176167
650.223	0.0176039
650.301	0.0177072
650.379	0.0177081
650.457	0.0175446
650.535	0.0176598
650.613	0.0176685
650.692	0.0176434
650.770	0.0175756
650.848	0.0176288
650.926	0.0176912
651.004	0.0176503
651.082	0.0176772
651.160	0.0176245
651.238	0.0176218
651.317	0.0177162
651.395	0.0175388
651.473	0.0176617
651.551	0.0176105
651.629	0.0177841
651.707	0.0175642
651.785	0.0176984
651.863	0.0176921
651.942	0.0177032
652.020	0.0176762
652.098	0.0176130
652.176	0.0176675
652.254	0.0177332
652.332	0.0177233
652.410	0.0176720
652.488	0.0177401
652.567	0.0175375
652.645	0.0175731
652.723	0.0175734
652.801	0.0177251
652.879	0.0177258
652.957	0.0177099
653.035	0.0176458
653.113	0.0176270
653.192	0.0176535
653.270	0.0176205
653.348	0.0176680
653.426	0.0175710
653.504	0.0177014
653.582	0.0176073
653.660	0.0175428
653.738	0.0175117
653.817	0.0176707
653.895	0.0176813
653.973	0.0176760
654.051	0.0176346
654.129	0.0175124
654.207	0.0176535
654.285	0.0176695
654.363	0.0174654
654.442	0.0176896
654.520	0.0176653
654.598	0.0176538
654.676	0.0176227
654.754	0.0176044
654.832	0.0177061
654.910	0.0176083
654.988	0.0176635
655.067	0.0175307
655.145	0.0176633
655.223	0.0176738
655.301	0.0176155
655.379	0.0175662
655.457	0.0176704
655.535	0.0176754
655.613	0.0175639
655.692	0.0176228
655.770	0.0176906
655.848	0.0175406
655.926	0.0176363
656.004	0.0177014
656.082	0.0177084
656.160	0.0174580
656.238	0.0177119
656.317	0.0177467
656.395	0.0175895
656.473	0.0176093
656.551	0.0176765
656.629	0.0175210
656.707	0.0176611
656.785	0.0176468
656.863	0.0176889
656.942	0.0177112
657.020	0.0175872
657.098	0.0176480
657.176	0.0177640
657.254	0.0177546
657.332	0.0175986
657.410	0.0174435
657.488	0.0175291
657.567	0.0176587
657.645	0.0175912
657.723	0.0175719
657.801	0.0175854
657.879	0.0176470
657.957	0.0177344
658.035	0.0176617
658.113	0.0176649
658.192	0.0176035
658.270	0.0175583
658.348	0.0176061
658.426	0.0175818
658.504	0.0175246
658.582	0.0177304
658.660	0.0177425
658.738	0.0176776
658.817	0.0175830
658.895	0.0175449
658.973	0.0175617
659.051	0.0176751
659.129	0.0175386
659.207	0.0175886
659.285	0.0174557
659.363	0.0175761
659.442	0.0175989
659.520	0.0176376
659.598	0.0176610
659.676	0.0175517
659.754	0.0177634
659.832	0.0177027
659.910	0.0174888
659.988	0.0175913
660.067	0.0176990
660.145	0.0177443
660.223	0.0175890
660.301	0.0176920
660.379	0.0175896
660.457	0.0175729
660.535	0.0176389
660.613	0.0176977
660.692	0.0176972
660.770	0.0176997
660.848	0.0176022
660.926	0.0177693
661.004	0.0177047
661.082	0.0176118
661.160	0.0176408
661.238	0.0176160
661.317	0.0175391
661.395	0.0174833
661.473	0.0176865
661.551	0.0177152
661.629	0.0177290
661.707	0.0176741
661.785	0.0175625
661.863	0.0176978
661.942	0.0177552
662.020	0.0176163
662.098	0.0176539
662.176	0.0176701
662.254	0.0176121
662.332	0.0175507
662.410	0.0176775
662.488	0.0174708
662.567	0.0175707
662.645	0.0177136
662.723	0.0177735
662.801	0.0176565
662.879	0.0175954
662.957	0.0177399
663.035	0.0177223
663.113	0.0176740
663.192	0.0176559
663.270	0.0176736
663.348	0.0175158
663.426	0.0176641
663.504	0.0176016
663.582	0.0176552
663.660	0.0178439
663.738	0.0176340
663.817	0.0175693
663.895	0.0174992
663.973	0.0176183
664.051	0.0177180
664.129	0.0176231
664.207	0.0175381
664.285	0.0176314
664.363	0.0176811
664.442	0.0175374
664.520	0.0176115
664.598	0.0176653
664.676	0.0175745
664.754	0.0176414
664.832	0.0177775
664.910	0.0177020
664.988	0.0176090
665.067	0.0176984
665.145	0.0176075
665.223	0.0176138
665.301	0.0175996
665.379	0.0175409
665.457	0.0174799
665.535	0.0175953
665.613	0.0177184
665.692	0.0177561
665.770	0.0175559
665.848	0.0175332
665.926	0.0176718
666.004	0.0176036
666.082	0.0176714
666.160	0.0176077
666.238	0.0175772
666.317	0.0177010
666.395	0.0176252
666.473	0.0176237
666.551	0.0176707
666.629	0.0177934
666.707	0.0176073
666.785	0.0174375
666.863	0.0175064
666.942	0.0177154
667.020	0.0175952
667.098	0.0176855
667.176	0.0175291
667.254	0.0175760
667.332	0.0175943
667.410	0.0175867
667.488	0.0175100
667.567	0.0175758
667.645	0.0177441
667.723	0.0177000
667.801	0.0176978
667.879	0.0177146
667.957	0.0175919
668.035	0.0176735
668.113	0.0176844
668.192	0.0176824
668.270	0.0176579
668.348	0.0175392
668.426	0.0175476
668.504	0.0177513
668.582	0.0177340
668.660	0.0175983
668.738	0.0177052
668.817	0.0176643
668.895	0.0175150
668.973	0.0175845
669.051	0.0176248
669.129	0.0176895
669.207	0.0176730
669.285	0.0176610
669.363	0.0176369
669.442	0.0175442
669.520	0.0176186
669.598	0.0177322
669.676	0.0175853
669.754	0.0175577
669.832	0.0175967
669.910	0.0176395
669.988	0.0176294
670.067	0.0177037
670.145	0.0176059
670.223	0.0178046
670.301	0.0176035
670.379	0.0175417
670.457	0.0176538
670.535	0.0176171
670.613	0.0174773
670.692	0.0176244
670.770	0.0177331
670.848	0.0175480
670.926	0.0175842
671.004	0.0176675
671.082	0.0175234
671.160	0.0176881
671.238	0.0176728
671.317	0.0176053
671.395	0.0175643
671.473	0.0175878
671.551	0.0176216
671.629	0.0175732
671.707	0.0176732
671.785	0.0176407
671.863	0.0177022
671.942	0.0176180
672.020	0.0176067
672.098	0.0175544
672.176	0.0176788
672.254	0.0176205
672.332	0.0176807
672.410	0.0175834
672.488	0.0176234
672.567	0.0176836
672.645	0.0175625
672.723	0.0175516
672.801	0.0174886
672.879	0.0174735
672.957	0.0176428
673.035	0.0177117
673.113	0.0176218
673.192	0.0176163
673.270	0.0176706
673.348	0.0175382
673.426	0.0176264
673.504	0.0176762
673.582	0.0177590
673.660	0.0176122
673.738	0.0176794
673.817	0.0176168
673.895	0.0176650
673.973	0.0175874
674.051	0.0176903
674.129	0.0178506
674.207	0.0176972
674.285	0.0176208
674.363	0.0175932
674.442	0.0177077
674.520	0.0176573
674.598	0.0176318
674.676	0.0177005
674.754	0.0177242
674.832	0.0177085
674.910	0.0175489
674.988	0.0176811
675.067	0.0175526
675.145	0.0176125
675.223	0.0177473
675.301	0.0176357
675.379	0.0176712
675.457	0.0175568
675.535	0.0176842
675.613	0.0176536
675.692	0.0176570
675.770	0.0174886
675.848	0.0178008
675.926	0.0177637
676.004	0.0177108
676.082	0.0176613
676.160	0.0177187
676.238	0.0176513
676.317	0.0177585
676.395	0.0176389
676.473	0.0176220
676.551	0.0176175
676.629	0.0177311
676.707	0.0177209
676.785	0.0176087
676.863	0.0177584
676.942	0.0177486
677.020	0.0176081
677.098	0.0176501
677.176	0.0176278
677.254	0.0174269
677.332	0.0175897
677.410	0.0177090
677.488	0.0175419
677.567	0.0176811
677.645	0.0175278
677.723	0.0176570
677.801	0.0175418
677.879	0.0175733
677.957	0.0177151
678.035	0.0177039
678.113	0.0176909
678.192	0.0175647
678.270	0.0176691
678.348	0.0176766
678.426	0.0176360
678.504	0.0175785
678.582	0.0175336
678.660	0.0176429
678.738	0.0176215
678.817	0.0175668
678.895	0.0177364
678.973	0.0176717
679.051	0.0175414
679.129	0.0176051
679.207	0.0176794
679.285	0.0177505
679.363	0.0175867
679.442	0.0173325
679.520	0.0176869
679.598	0.0176730
679.676	0.0175157
679.754	0.0175039
679.832	0.0175290
679.910	0.0176819
679.988	0.0176898
680.067	0.0177363
680.145	0.0177383
680.223	0.0175488
680.301	0.0176565
680.379	0.0176452
680.457	0.0176777
680.535	0.0176591
680.613	0.0176115
680.692	0.0176556
680.770	0.0175682
680.848	0.0175080
680.926	0.0176395
681.004	0.0178346
681.082	0.0175750
681.160	0.0175487
681.238	0.0177205
681.317	0.0175100
681.395	0.0175447
681.473	0.0175050
681.551	0.0177053
681.629	0.0176443
681.707	0.0175153
681.785	0.0174540
681.863	0.0177551
681.942	0.0176472
682.020	0.0175793
682.098	0.0176107
682.176	0.0175838
682.254	0.0176520
682.332	0.0175077
682.410	0.0175971
682.488	0.0176392
682.567	0.0176197
682.645	0.0176533
682.723	0.0176759
682.801	0.0176907
682.879	0.0176662
682.957	0.0175455
683.035	0.0175941
683.113	0.0176064
683.192	0.0176631
683.270	0.0175703
683.348	0.0176575
683.426	0.0175669
683.504	0.0175769
683.582	0.0175987
683.660	0.0176794
683.738	0.0176826
683.817	0.0175607
683.895	0.0175811
683.973	0.0176957
684.051	0.0176437
684.129	0.0177311
684.207	0.0177100
684.285	0.0176619
684.363	0.0176472
684.442	0.0177132
684.520	0.0177334
684.598	0.0175665
684.676	0.0176556
684.754	0.0176916
684.832	0.0177515
684.910	0.0176345
684.988	0.0177129
685.067	0.0176668
685.145	0.0176472
685.223	0.0176466
685.301	0.0176117
685.379	0.0177288
685.457	0.0179092
685.535	0.0176335
685.613	0.0176659
685.692	0.0175872
685.770	0.0176754
685.848	0.0177111
685.926	0.0176401
686.004	0.0177565
686.082	0.0177289
686.160	0.0176424
686.238	0.0177351
686.317	0.0178207
686.395	0.0176752
686.473	0.0177131
686.551	0.0176817
686.629	0.0177352
686.707	0.0176759
686.785	0.0175887
686.863	0.0176576
686.942	0.0176654
687.020	0.0177296
687.098	0.0176745
687.176	0.0175311
687.254	0.0176167
687.332	0.0176465
687.410	0.0176882
687.488	0.0176260
687.567	0.0176678
687.645	0.0176257
687.723	0.0177233
687.801	0.0177330
687.879	0.0176529
687.957	0.0176856
688.035	0.0176688
688.113	0.0175464
688.192	0.0175945
688.270	0.0176680
688.348	0.0177418
688.426	0.0176636
688.504	0.0177431
688.582	0.0177001
688.660	0.0176960
688.738	0.0175936
688.817	0.0176012
688.895	0.0177820
688.973	0.0176807
689.051	0.0176275
689.129	0.0174796
689.207	0.0176888
689.285	0.0176860
689.363	0.0177730
689.442	0.0176115
689.520	0.0176906
689.598	0.0176848
689.676	0.0175847
689.754	0.0176118
689.832	0.0175410
689.910	0.0175997
689.988	0.0177919
690.067	0.0176757
690.145	0.0176557
690.223	0.0175466
690.301	0.0175657
690.379	0.0176223
690.457	0.0175933
690.535	0.0175829
690.613	0.0177103
690.692	0.0177140
690.770	0.0174783
690.848	0.0175401
690.926	0.0177172
691.004	0.0176162
691.082	0.0174635
691.160	0.0176549
691.238	0.0176347
691.317	0.0176808
691.395	0.0175870
691.473	0.0175528
691.551	0.0177047
691.629	0.0175252
691.707	0.0176884
691.785	0.0177168
691.863	0.0175288
691.942	0.0175929
692.020	0.0177425
692.098	0.0177164
692.176	0.0177197
692.254	0.0177269
692.332	0.0176261
692.410	0.0176556
692.488	0.0175923
692.567	0.0176817
692.645	0.0176485
692.723	0.0175706
692.801	0.0176009
692.879	0.0176326
692.957	0.0177831
693.035	0.0177016
693.113	0.0175014
693.192	0.0177046
693.270	0.0176851
693.348	0.0176302
693.426	0.0176114
693.504	0.0174313
693.582	0.0176569
693.660	0.0177088
693.738	0.0177178
693.817	0.0174966
693.895	0.0174773
693.973	0.0176669
694.051	0.0175210
694.129	0.0174673
694.207	0.0177957
694.285	0.0176403
694.363	0.0175628
694.442	0.0176730
694.520	0.0175934
694.598	0.0175304
694.676	0.0175277
694.754	0.0176501
694.832	0.0175690
694.910	0.0176833
694.988	0.0178070
695.067	0.0176655
695.145	0.0176701
695.223	0.0177067
695.301	0.0177827
695.379	0.0176250
695.457	0.0176274
695.535	0.0176999
695.613	0.0176154
695.692	0.0175157
695.770	0.0175334
695.848	0.0174082
695.926	0.0174900
696.004	0.0175745
696.082	0.0175176
696.160	0.0175425
696.238	0.0176944
696.317	0.0178211
696.395	0.0178623
696.473	0.0179382
696.551	0.0179278
696.629	0.0180612
696.707	0.0180406
696.785	0.0179171
696.863	0.0179748
696.942	0.0179985
697.020	0.0179313
697.098	0.0177271
697.176	0.0176805
697.254	0.0175437
697.332	0.0175984
697.410	0.0174402
697.488	0.0173705
697.567	0.0173655
697.645	0.0173198
697.723	0.0174229
697.801	0.0174030
697.879	0.0174537
697.957	0.0173841
698.035	0.0174483
698.113	0.0175314
698.192	0.0176612
698.270	0.0175068
698.348	0.0178315
698.426	0.0177139
698.504	0.0177319
698.582	0.0177170
698.660	0.0178920
698.738	0.0178591
698.817	0.0177843
698.895	0.0177704
698.973	0.0179019
699.051	0.0177914
699.129	0.0177891
699.207	0.0178887
699.285	0.0178479
699.363	0.0177256
699.442	0.0178606
699.520	0.0177932
699.598	0.0177950
699.676	0.0176669
699.754	0.0175499
699.832	0.0173996
699.910	0.0172786
699.988	0.0173227
700.067	0.0173905
700.145	0.0172370
700.223	0.0172485
700.301	0.0170097
700.379	0.0172833
700.457	0.0172014
700.535	0.0170536
700.613	0.0172201
700.692	0.0173293
700.770	0.0173838
700.848	0.0173359
700.926	0.0175358
701.004	0.0176627
701.082	0.0178226
701.160	0.0177402
701.238	0.0178172
701.317	0.0179721
701.395	0.0179713
701.473	0.0181869
701.551	0.0180905
701.629	0.0181055
701.707	0.0182210
701.785	0.0181613
701.863	0.0181881
701.942	0.0181944
702.020	0.0180580
702.098	0.0180457
702.176	0.0180002
702.254	0.0178783
702.332	0.0176752
702.410	0.0176601
702.488	0.0175758
702.567	0.0176089
702.645	0.0172352
702.723	0.0172521
702.801	0.0174110
702.879	0.0171914
702.957	0.0172330
703.035	0.0172379
703.113	0.0170769
703.192	0.0171886
703.270	0.0171368
703.348	0.0171804
703.426	0.0171474
703.504	0.0172439
703.582	0.0172305
703.660	0.0172556
703.738	0.0173461
703.817	0.0174604
703.895	0.0172599
703.973	0.0175207
704.051	0.0176497
704.129	0.0176196
704.207	0.0177669
704.285	0.0178769
704.363	0.0178869
704.442	0.0179464
704.520	0.0179680
704.598	0.0181863
704.676	0.0180924
704.754	0.0180116
704.832	0.0180883
704.910	0.0179831
704.988	0.0181112
705.067	0.0180835
705.145	0.0178827
705.223	0.0179924
705.301	0.0179233
705.379	0.0178889
705.457	0.0178871
705.535	0.0177611
705.613	0.0177541
705.692	0.0178947
705.770	0.0178096
705.848	0.0176007
705.926	0.0175775
706.004	0.0175198
706.082	0.0174654
706.160	0.0174438
706.238	0.0172900
706.317	0.0172371
706.395	0.0172965
706.473	0.0172353
706.551	0.0173150
706.629	0.0171162
706.707	0.0172628
706.785	0.0171618
706.863	0.0170702
706.942	0.0172401
707.020	0.0171109
707.098	0.0171962
707.176	0.0172868
707.254	0.0174254
707.332	0.0173524
707.410	0.0174525
707.488	0.0175555
707.567	0.0174757
707.645	0.0175523
707.723	0.0175207
707.801	0.0176203
707.879	0.0177084
707.957	0.0177078
708.035	0.0178307
708.113	0.0178638
708.192	0.0178680
708.270	0.0177255
708.348	0.0177988
708.426	0.0179085
708.504	0.0179253
708.582	0.0180026
708.660	0.0180110
708.738	0.0180550
708.817	0.0179259
708.895	0.0179301
708.973	0.0179775
709.051	0.0179752
709.129	0.0179353
709.207	0.0179945
709.285	0.0179265
709.363	0.0178513
709.442	0.0176987
709.520	0.0177673
709.598	0.0178516
709.676	0.0176120
709.754	0.0175153
709.832	0.0176297
709.910	0.0175745
709.988	0.0174826
710.067	0.0174906
710.145	0.0173941
710.223	0.0172924
710.301	0.0172823
710.379	0.0173251
710.457	0.0172118
710.535	0.0172446
710.613	0.0171540
710.692	0.0172460
710.770	0.0172437
710.848	0.0172419
710.926	0.0172957
711.004	0.0172760
711.082	0.0173886
711.160	0.0173652
711.238	0.0173589
711.317	0.0173961
711.395	0.0174907
711.473	0.0174284
711.551	0.0173710
711.629	0.0176806
711.707	0.0177198
711.785	0.0177895
711.863	0.0177103
711.942	0.0179017
712.020	0.0179020
712.098	0.0178048
712.176	0.0178347
712.254	0.0177873
712.332	0.0179304
712.410	0.0178191
712.488	0.0179163
712.567	0.0178437
712.645	0.0177403
712.723	0.0178401
712.801	0.0178442
712.879	0.0178344
712.957	0.0178313
713.035	0.0178403
713.113	0.0177227
713.192	0.0177467
713.270	0.0179067
713.348	0.0177804
713.426	0.0176985
713.504	0.0178053
713.582	0.0177706
713.660	0.0177805
713.738	0.0177105
713.817	0.0175915
713.895	0.0177512
713.973	0.0176244
714.051	0.0175944
714.129	0.0174960
714.207	0.0174371
714.285	0.0175626
714.363	0.0174571
714.442	0.0174846
714.520	0.0175027
714.598	0.0175718
714.676	0.0174123
714.754	0.0174662
714.832	0.0174104
714.910	0.0174432
714.988	0.0175857
715.067	0.0174863
715.145	0.0175143
715.223	0.0176375
715.301	0.0175752
715.379	0.0174033
715.457	0.0176479
715.535	0.0175780
715.613	0.0176984
715.692	0.0176859
715.770	0.0176595
715.848	0.0175436
715.926	0.0176227
716.004	0.0176266
716.082	0.0175400
716.160	0.0176676
716.238	0.0176151
716.317	0.0175346
716.395	0.0175536
716.473	0.0174991
716.551	0.0177201
716.629	0.0176130
716.707	0.0177165
716.785	0.0175217
716.863	0.0174930
716.942	0.0176859
717.020	0.0176727
717.098	0.0176698
717.176	0.0175776
717.254	0.0175793
717.332	0.0176151
717.410	0.0175879
717.488	0.0176036
717.567	0.0176612
717.645	0.0176906
717.723	0.0175256
717.801	0.0175857
717.879	0.0176585
717.957	0.0176844
718.035	0.0177456
718.113	0.0176371
718.192	0.0178156
718.270	0.0175877
718.348	0.0176790
718.426	0.0177262
718.504	0.0177672
718.582	0.0176070
718.660	0.0176779
718.738	0.0177836
718.817	0.0177409
718.895	0.0176586
718.973	0.0176344
719.051	0.0176918
719.129	0.0177325
719.207	0.0176442
719.285	0.0176102
719.363	0.0176242
719.442	0.0176746
719.520	0.0176228
719.598	0.0175595
719.676	0.0176057
719.754	0.0175497
719.832	0.0175167
719.910	0.0174463
719.988	0.0175307
720.067	0.0175869
720.145	0.0173628
720.223	0.0174729
720.301	0.0175578
720.379	0.0173871
720.457	0.0175289
720.535	0.0174902
720.613	0.0174620
720.692	0.0175075
720.770	0.0175226
720.848	0.0175291
720.926	0.0176398
721.004	0.0175896
721.082	0.0175001
721.160	0.0175996
721.238	0.0175340
721.317	0.0176053
721.395	0.0175763
721.473	0.0177991
721.551	0.0176745
721.629	0.0177355
721.707	0.0178844
721.785	0.0177138
721.863	0.0177661
721.942	0.0178704
722.020	0.0178707
722.098	0.0178349
722.176	0.0176254
722.254	0.0176551
722.332	0.0177270
722.410	0.0178210
722.488	0.0177361
722.567	0.0177264
722.645	0.0177861
722.723	0.0178204
722.801	0.0176430
722.879	0.0177518
722.957	0.0177808
723.035	0.0177101
723.113	0.0177306
723.192	0.0177672
723.270	0.0176868
723.348	0.0175798
723.426	0.0176823
723.504	0.0177251
723.582	0.0178439
723.660	0.0177239
723.738	0.0174493
723.817	0.0177464
723.895	0.0177227
723.973	0.0176249
724.051	0.0175065
724.129	0.0174770
724.207	0.0175677
724.285	0.0175703
724.363	0.0175112
724.442	0.0175503
724.520	0.0175333
724.598	0.0175471
724.676	0.0175907
724.754	0.0174261
724.832	0.0175024
724.910	0.0175390
724.988	0.0175885
725.067	0.0175150
725.145	0.0175222
725.223	0.0175898
725.301	0.0174818
725.379	0.0175500
725.457	0.0175458
725.535	0.0175967
725.613	0.0175198
725.692	0.0174585
725.770	0.0175404
725.848	0.0175065
725.926	0.0176883
726.004	0.0175773
726.082	0.0175146
726.160	0.0176506
726.238	0.0176027
726.317	0.0176942
726.395	0.0177068
726.473	0.0176186
726.551	0.0176434
726.629	0.0175969
726.707	0.0178226
726.785	0.0178011
726.863	0.0177650
726.942	0.0177775
727.020	0.0176477
727.098	0.0178644
727.176	0.0176688
727.254	0.0177225
727.332	0.0177591
727.410	0.0176677
727.488	0.0177778
727.567	0.0176699
727.645	0.0177541
727.723	0.0176655
727.801	0.0178579
727.879	0.0175509
727.957	0.0177239
728.035	0.0176572
728.113	0.0176298
728.192	0.0176655
728.270	0.0175879
728.348	0.0174666
728.426	0.0175578
728.504	0.0174245
728.582	0.0174743
728.660	0.0175220
728.738	0.0175249
728.817	0.0176157
728.895	0.0175760
728.973	0.0174952
729.051	0.0176315
729.129	0.0176170
729.207	0.0175420
729.285	0.0175952
729.363	0.0175983
729.442	0.0176147
729.520	0.0176143
729.598	0.0176856
729.676	0.0177089
729.754	0.0176801
729.832	0.0176161
729.910	0.0175834
729.988	0.0175890
730.067	0.0176162
730.145	0.0176273
730.223	0.0176396
730.301	0.0176352
730.379	0.0175377
730.457	0.0176460
730.535	0.0176214
730.613	0.0176344
730.692	0.0176019
730.770	0.0175131
730.848	0.0174688
730.926	0.0176217
731.004	0.0174393
731.082	0.0173966
731.160	0.0175317
731.238	0.0175726
731.317	0.0174240
731.395	0.0175285
731.473	0.0176437
731.551	0.0175268
731.629	0.0176081
731.707	0.0175237
731.785	0.0176176
731.863	0.0174616
731.942	0.0175587
732.020	0.0176646
732.098	0.0176280
732.176	0.0176788
732.254	0.0177213
732.332	0.0175703
732.410	0.0177011
732.488	0.0176371
732.567	0.0176373
732.645	0.0176847
732.723	0.0177061
732.801	0.0175865
732.879	0.0176361
732.957	0.0177950
733.035	0.0177609
733.113	0.0175379
733.192	0.0174913
733.270	0.0175143
733.348	0.0176386
733.426	0.0174652
733.504	0.0176038
733.582	0.0176421
733.660	0.0176988
733.738	0.0177395
733.817	0.0175179
733.895	0.0176910
733.973	0.0176386
734.051	0.0176134
734.129	0.0176115
734.207	0.0175663
734.285	0.0175850
734.363	0.0175674
734.442	0.0177288
734.520	0.0175941
734.598	0.0174252
734.676	0.0176278
734.754	0.0176111
734.832	0.0174612
734.910	0.0175725
734.988	0.0177882
735.067	0.0174495
735.145	0.0175567
735.223	0.0175828
735.301	0.0176469
735.379	0.0175130
735.457	0.0175471
735.535	0.0175818
735.613	0.0176322
735.692	0.0175990
735.770	0.0177814
735.848	0.0175921
735.926	0.0175179
736.004	0.0175532
736.082	0.0176801
736.160	0.0176691
736.238	0.0176421
736.317	0.0177307
736.395	0.0176909
736.473	0.0177005
736.551	0.0177774
736.629	0.0178988
736.707	0.0177719
736.785	0.0178203
736.863	0.0177235
736.942	0.0177598
737.020	0.0176421
737.098	0.0178127
737.176	0.0177793
737.254	0.0176054
737.332	0.0177155
737.410	0.0176553
737.488	0.0177173
737.567	0.0175971
737.645	0.0176223
737.723	0.0175559
737.801	0.0176639
737.879	0.0176599
737.957	0.0176096
738.035	0.0176290
738.113	0.0176586
738.192	0.0176923
738.270	0.0175631
738.348	0.0176565
738.426	0.0176109
738.504	0.0176960
738.582	0.0177261
738.660	0.0176879
738.738	0.0177711
738.817	0.0176514
738.895	0.0177279
738.973	0.0176735
739.051	0.0177979
739.129	0.0177044
739.207	0.0176584
739.285	0.0177109
739.363	0.0176246
739.442	0.0177140
739.520	0.0176233
739.598	0.0175481
739.676	0.0176762
739.754	0.0176180
739.832	0.0174815
739.910	0.0175492
739.988	0.0174876
740.067	0.0177915
740.145	0.0176829
740.223	0.0176495
740.301	0.0176301
740.379	0.0175585
740.457	0.0176147
740.535	0.0176508
740.613	0.0175728
740.692	0.0176810
740.770	0.0175859
740.848	0.0176549
740.926	0.0176158
741.004	0.0175259
741.082	0.0177629
741.160	0.0177484
741.238	0.0176942
741.317	0.0175906
741.395	0.0177185
741.473	0.0176179
741.551	0.0177438
741.629	0.0175683
741.707	0.0176895
741.785	0.0176807
741.863	0.0176218
741.942	0.0175959
742.020	0.0176260
742.098	0.0176234
742.176	0.0176071
742.254	0.0176418
742.332	0.0176205
742.410	0.0176836
742.488	0.0176616
742.567	0.0176291
742.645	0.0176989
742.723	0.0176466
742.801	0.0176215
742.879	0.0176208
742.957	0.0175475
743.035	0.0177884
743.113	0.0177408
743.192	0.0177490
743.270	0.0177000
743.348	0.0176250
743.426	0.0175983
743.504	0.0175201
743.582	0.0176767
743.660	0.0176321
743.738	0.0176052
743.817	0.0175388
743.895	0.0176205
743.973	0.0177673
744.051	0.0176121
744.129	0.0176499
744.207	0.0175957
744.285	0.0176253
744.363	0.0176135
744.442	0.0176198
744.520	0.0175898
744.598	0.0177699
744.676	0.0176976
744.754	0.0175610
744.832	0.0175763
744.910	0.0176332
744.988	0.0175231
745.067	0.0176969
745.145	0.0174886
745.223	0.0176599
745.301	0.0175213
745.379	0.0176772
745.457	0.0176908
745.535	0.0174886
745.613	0.0174477
745.692	0.0175382
745.770	0.0174604
745.848	0.0176132
745.926	0.0174933
746.004	0.0175820
746.082	0.0176344
746.160	0.0176668
746.238	0.0176329
746.317	0.0175388
746.395	0.0177125
746.473	0.0176144
746.551	0.0175150
746.629	0.0176340
746.707	0.0174261
746.785	0.0174821
746.863	0.0175917
746.942	0.0174991
747.020	0.0174844
747.098	0.0175441
747.176	0.0175479
747.254	0.0175570
747.332	0.0175945
747.410	0.0175375
747.488	0.0176047
747.567	0.0175391
747.645	0.0174843
747.723	0.0175053
747.801	0.0175446
747.879	0.0175446
747.957	0.0175778
748.035	0.0175471
748.113	0.0175101
748.192	0.0174967
748.270	0.0174894
748.348	0.0177090
748.426	0.0177387
748.504	0.0176050
748.582	0.0175761
748.660	0.0176763
748.738	0.0175342
748.817	0.0176012
748.895	0.0175646
748.973	0.0175713
749.051	0.0175309
749.129	0.0175940
749.207	0.0176915
749.285	0.0175929
749.363	0.0177158
749.442	0.0176356
749.520	0.0175436
749.598	0.0175341
749.676	0.0175537
749.754	0.0176846
749.832	0.0176209
749.910	0.0176501
749.988	0.0175204
750.067	0.0176423
750.145	0.0174934
750.223	0.0176062
750.301	0.0176283
750.379	0.0175208
750.457	0.0175456
750.535	0.0175255
750.613	0.0175746
750.692	0.0175632
750.770	0.0176158
750.848	0.0176961
750.926	0.0176458
751.004	0.0176051
751.082	0.0175746
751.160	0.0175889
751.238	0.0177940
751.317	0.0176825
751.395	0.0175331
751.473	0.0176853
751.551	0.0177094
751.629	0.0177013
751.707	0.0175018
751.785	0.0176662
751.863	0.0177003
751.942	0.0174902
752.020	0.0175877
752.098	0.0176984
752.176	0.0175901
752.254	0.0175574
752.332	0.0176810
752.410	0.0175709
752.488	0.0175513
752.567	0.0175885
752.645	0.0174835
752.723	0.0175623
752.801	0.0176757
752.879	0.0175968
752.957	0.0175990
753.035	0.0177170
753.113	0.0177293
753.192	0.0176354
753.270	0.0174310
753.348	0.0176711
753.426	0.0175605
753.504	0.0176163
753.582	0.0175681
753.660	0.0176061
753.738	0.0176123
753.817	0.0175251
753.895	0.0175139
753.973	0.0176669
754.051	0.0174876
754.129	0.0175195
754.207	0.0174213
754.285	0.0174656
754.363	0.0175843
754.442	0.0175283
754.520	0.0174727
754.598	0.0175903
754.676	0.0174499
754.754	0.0175137
754.832	0.0175077
754.910	0.0175433
754.988	0.0175962
755.067	0.0175280
755.145	0.0176514
755.223	0.0175538
755.301	0.0176811
755.379	0.0175713
755.457	0.0175301
755.535	0.0176348
755.613	0.0176508
755.692	0.0175374
755.770	0.0175597
755.848	0.0175742
755.926	0.0174787
756.004	0.0175551
756.082	0.0175572
756.160	0.0176278
756.238	0.0177747
756.317	0.0176043
756.395	0.0176013
756.473	0.0175528
756.551	0.0175762
756.629	0.0176003
756.707	0.0176324
756.785	0.0176818
756.863	0.0176096
756.942	0.0176478
757.020	0.0176525
757.098	0.0175714
757.176	0.0178843
757.254	0.0177258
757.332	0.0175241
757.410	0.0175681
757.488	0.0177161
757.567	0.0176512
757.645	0.0175575
757.723	0.0176565
757.801	0.0177264
757.879	0.0175664
757.957	0.0176520
758.035	0.0176766
758.113	0.0176015
758.192	0.0177505
758.270	0.0177335
758.348	0.0175634
758.426	0.0176057
758.504	0.0176770
758.582	0.0176789
758.660	0.0176215
758.738	0.0175373
758.817	0.0176136
758.895	0.0177088
758.973	0.0176239
759.051	0.0175640
759.129	0.0177417
759.207	0.0176902
759.285	0.0175749
759.363	0.0176836
759.442	0.0176640
759.520	0.0177002
759.598	0.0176878
759.676	0.0175606
759.754	0.0176156
759.832	0.0176682
759.910	0.0175765
759.988	0.0176679
760.067	0.0177717
760.145	0.0176839
760.223	0.0176485
760.301	0.0177056
760.379	0.0175262
760.457	0.0177209
760.535	0.0176600
760.613	0.0177324
760.692	0.0176994
760.770	0.0175950
760.848	0.0176104
760.926	0.0176221
761.004	0.0177448
761.082	0.0175610
761.160	0.0175520
761.238	0.0176155
761.317	0.0175265
761.395	0.0175501
761.473	0.0176318
761.551	0.0175693
761.629	0.0176505
761.707	0.0175858
761.785	0.0175756
761.863	0.0176009
761.942	0.0176781
762.020	0.0176825
762.098	0.0177583
762.176	0.0176100
762.254	0.0176388
762.332	0.0179488
762.410	0.0176617
762.488	0.0176369
762.567	0.0176066
762.645	0.0176424
762.723	0.0177722
762.801	0.0176211
762.879	0.0175999
762.957	0.0177261
763.035	0.0177174
763.113	0.0176464
763.192	0.0176010
763.270	0.0177788
763.348	0.0175509
763.426	0.0174081
763.504	0.0176077
763.582	0.0176101
763.660	0.0176569
763.738	0.0177043
763.817	0.0175174
763.895	0.0175758
763.973	0.0176163
764.051	0.0175736
764.129	0.0176653
764.207	0.0175233
764.285	0.0176401
764.363	0.0176981
764.442	0.0176306
764.520	0.0178086
764.598	0.0175937
764.676	0.0177570
764.754	0.0177925
764.832	0.0176195
764.910	0.0176434
764.988	0.0177193
765.067	0.0177721
765.145	0.0177728
765.223	0.0177692
765.301	0.0176006
765.379	0.0177808
765.457	0.0176600
765.535	0.0176382
765.613	0.0175058
765.692	0.0177474
765.770	0.0176514
765.848	0.0175380
765.926	0.0175108
766.004	0.0175512
766.082	0.0175671
766.160	0.0175610
766.238	0.0175060
766.317	0.0175872
766.395	0.0176382
766.473	0.0176576
766.551	0.0175876
766.629	0.0177092
766.707	0.0177190
766.785	0.0176494
766.863	0.0176853
766.942	0.0177427
767.020	0.0175833
767.098	0.0176138
767.176	0.0176321
767.254	0.0176159
767.332	0.0176577
767.410	0.0177227
767.488	0.0177391
767.567	0.0174928
767.645	0.0175881
767.723	0.0175797
767.801	0.0176123
767.879	0.0176312
767.957	0.0175920
768.035	0.0176744
768.113	0.0176427
768.192	0.0175907
768.270	0.0176550
768.348	0.0175925
768.426	0.0175342
768.504	0.0175622
768.582	0.0174478
768.660	0.0176685
768.738	0.0175889
768.817	0.0175601
768.895	0.0175718
768.973	0.0176209
769.051	0.0175673
769.129	0.0176312
769.207	0.0177909
769.285	0.0176698
769.363	0.0175379
769.442	0.0177130
769.520	0.0176960
769.598	0.0175987
769.676	0.0176125
769.754	0.0175866
769.832	0.0176723
769.910	0.0175521
769.988	0.0175810
770.067	0.0175842
770.145	0.0177608
770.223	0.0176668
770.301	0.0176424
770.379	0.0176224
770.457	0.0176890
770.535	0.0177808
770.613	0.0176301
770.692	0.0175264
770.770	0.0177148
770.848	0.0176447
770.926	0.0175639
771.004	0.0175976
771.082	0.0176211
771.160	0.0175989
771.238	0.0176865
771.317	0.0176019
771.395	0.0176326
771.473	0.0177682
771.551	0.0178088
771.629	0.0175602
771.707	0.0177235
771.785	0.0176871
771.863	0.0177038
771.942	0.0177260
772.020	0.0175806
772.098	0.0176088
772.176	0.0176382
772.254	0.0176371
772.332	0.0175961
772.410	0.0176609
772.488	0.0175887
772.567	0.0176810
772.645	0.0176561
772.723	0.0175632
772.801	0.0174870
772.879	0.0176333
772.957	0.0177802
773.035	0.0174992
773.113	0.0175758
773.192	0.0176058
773.270	0.0177017
773.348	0.0175935
773.426	0.0175762
773.504	0.0175761
773.582	0.0176354
773.660	0.0176278
773.738	0.0176993
773.817	0.0177298
773.895	0.0177460
773.973	0.0176803
774.051	0.0176439
774.129	0.0176325
774.207	0.0176074
774.285	0.0176035
774.363	0.0176753
774.442	0.0174267
774.520	0.0176794
774.598	0.0175674
774.676	0.0174635
774.754	0.0176140
774.832	0.0176482
774.910	0.0176626
774.988	0.0175804
775.067	0.0175451
775.145	0.0175729
775.223	0.0175660
775.301	0.0176295
775.379	0.0176692
775.457	0.0175674
775.535	0.0176222
775.613	0.0177154
775.692	0.0176335
775.770	0.0175221
775.848	0.0176257
775.926	0.0175708
776.004	0.0175904
776.082	0.0175778
776.160	0.0176499
776.238	0.0175277
776.317	0.0174596
776.395	0.0176186
776.473	0.0174187
776.551	0.0174336
776.629	0.0175024
776.707	0.0174195
776.785	0.0175085
776.863	0.0175813
776.942	0.0175889
777.020	0.0176381
777.098	0.0174747
777.176	0.0175848
777.254	0.0176897
777.332	0.0176283
777.410	0.0177632
777.488	0.0177897
777.567	0.0176672
777.645	0.0175853
777.723	0.0174966
777.801	0.0176077
777.879	0.0174850
777.957	0.0177180
778.035	0.0176431
778.113	0.0176111
778.192	0.0175767
778.270	0.0175751
778.348	0.0176461
778.426	0.0174795
778.504	0.0174883
778.582	0.0175202
778.660	0.0177020
778.738	0.0176997
778.817	0.0176959
778.895	0.0177020
778.973	0.0175113
779.051	0.0175798
779.129	0.0176403
779.207	0.0175726
779.285	0.0176564
779.363	0.0176659
779.442	0.0176344
779.520	0.0176001
779.598	0.0177322
779.676	0.0176431
779.754	0.0176006
779.832	0.0175616
779.910	0.0175335
779.988	0.0175265
780.067	0.0174197
780.145	0.0175733
780.223	0.0175051
780.301	0.0177119
780.379	0.0175412
780.457	0.0173842
780.535	0.0175864
780.613	0.0176357
780.692	0.0176125
780.770	0.0174982
780.848	0.0175787
780.926	0.0176051
781.004	0.0176171
781.082	0.0175376
781.160	0.0175305
781.238	0.0176596
781.317	0.0175777
781.395	0.0176656
781.473	0.0177946
781.551	0.0175658
781.629	0.0176392
781.707	0.0176834
781.785	0.0176629
781.863	0.0175830
781.942	0.0177261
782.020	0.0176194
782.098	0.0175288
782.176	0.0174947
782.254	0.0176447
782.332	0.0177195
782.410	0.0176508
782.488	0.0177240
782.567	0.0176807
782.645	0.0176667
782.723	0.0175415
782.801	0.0175831
782.879	0.0177236
782.957	0.0176463
783.035	0.0175573
783.113	0.0175492
783.192	0.0176064
783.270	0.0176527
783.348	0.0176283
783.426	0.0175862
783.504	0.0177023
783.582	0.0175314
783.660	0.0175548
783.738	0.0176437
783.817	0.0175046
783.895	0.0176820
783.973	0.0176675
784.051	0.0175932
784.129	0.0177518
784.207	0.0176125
784.285	0.0176360
784.363	0.0176344
784.442	0.0175726
784.520	0.0176638
784.598	0.0176021
784.676	0.0176454
784.754	0.0177058
784.832	0.0176788
784.910	0.0176962
784.988	0.0177222
785.067	0.0176193
785.145	0.0176123
785.223	0.0175935
785.301	0.0176661
785.379	0.0175175
785.457	0.0175460
785.535	0.0174429
785.613	0.0176227
785.692	0.0176668
785.770	0.0176579
785.848	0.0175204
785.926	0.0174641
786.004	0.0175597
786.082	0.0175488
786.160	0.0175880
786.238	0.0175546
786.317	0.0177016
786.395	0.0177276
786.473	0.0176243
786.551	0.0175762
786.629	0.0175948
786.707	0.0176211
786.785	0.0176572
786.863	0.0176832
786.942	0.0175959
787.020	0.0176185
787.098	0.0176543
787.176	0.0177263
787.254	0.0177026
787.332	0.0176734
787.410	0.0175876
787.488	0.0175444
787.567	0.0175815
787.645	0.0176243
787.723	0.0175437
787.801	0.0176547
787.879	0.0177187
787.957	0.0175497
788.035	0.0174705
788.113	0.0175492
788.192	0.0175545
788.270	0.0176531
788.348	0.0177657
788.426	0.0176602
788.504	0.0176848
788.582	0.0176557
788.660	0.0177203
788.738	0.0176611
788.817	0.0176268
788.895	0.0175302
788.973	0.0176169
789.051	0.0175306
789.129	0.0178640
789.207	0.0177332
789.285	0.0176680
789.363	0.0175834
789.442	0.0175539
789.520	0.0175726
789.598	0.0175487
789.676	0.0176523
789.754	0.0174770
789.832	0.0174391
789.910	0.0175018
789.988	0.0174951
790.067	0.0176078
790.145	0.0175386
790.223	0.0175494
790.301	0.0176904
790.379	0.0174735
790.457	0.0174297
790.535	0.0174940
790.613	0.0176165
790.692	0.0174973
790.770	0.0174884
790.848	0.0176442
790.926	0.0176952
791.004	0.0177728
791.082	0.0176408
791.160	0.0175811
791.238	0.0176168
791.317	0.0176618
791.395	0.0177213
791.473	0.0176665
791.551	0.0177116
791.629	0.0175824
791.707	0.0175851
791.785	0.0176014
791.863	0.0176900
791.942	0.0176322
792.020	0.0176065
792.098	0.0176228
792.176	0.0175271
792.254	0.0176064
792.332	0.0175374
792.410	0.0176237
792.488	0.0176839
792.567	0.0177122
792.645	0.0176146
792.723	0.0175824
792.801	0.0176412
792.879	0.0175342
792.957	0.0177586
793.035	0.0177687
793.113	0.0176766
793.192	0.0176311
793.270	0.0176244
793.348	0.0176792
793.426	0.0176983
793.504	0.0176018
793.582	0.0176595
793.660	0.0175719
793.738	0.0176801
793.817	0.0177649
793.895	0.0175525
793.973	0.0175179
794.051	0.0176241
794.129	0.0175424
794.207	0.0176505
794.285	0.0175669
794.363	0.0177132
794.442	0.0175457
794.520	0.0175953
794.598	0.0176553
794.676	0.0176395
794.754	0.0175901
794.832	0.0175921
794.910	0.0175639
794.988	0.0175780
795.067	0.0177164
795.145	0.0175980
795.223	0.0175808
795.301	0.0177640
795.379	0.0175878
795.457	0.0176895
795.535	0.0175394
795.613	0.0175986
795.692	0.0177045
795.770	0.0176257
795.848	0.0177349
795.926	0.0176644
796.004	0.0175459
796.082	0.0175939
796.160	0.0175188
796.238	0.0175323
796.317	0.0174059
796.395	0.0177595
796.473	0.0175751
796.551	0.0175737
796.629	0.0176602
796.707	0.0175252
796.785	0.0176060
796.863	0.0176236
796.942	0.0175713
797.020	0.0175703
797.098	0.0173973
797.176	0.0174889
797.254	0.0175340
797.332	0.0174885
797.410	0.0176193
797.488	0.0175729
797.567	0.0175056
797.645	0.0176488
797.723	0.0175024
797.801	0.0175284
797.879	0.0176109
797.957	0.0175814
798.035	0.0175314
798.113	0.0176564
798.192	0.0176747
798.270	0.0174579
798.348	0.0175336
798.426	0.0175803
798.504	0.0178046
798.582	0.0176495
798.660	0.0176723
798.738	0.0175247
798.817	0.0175288
798.895	0.0176259
798.973	0.0175740
799.051	0.0176499
799.129	0.0176391
799.207	0.0174220
799.285	0.0176289
799.363	0.0176255
799.442	0.0174660
799.520	0.0175315
799.598	0.0175549
799.676	0.0176424
799.754	0.0176855
799.832	0.0175883
799.910	0.0174422
799.988	0.0175399
800.067	0.0175710
800.145	0.0176324
800.223	0.0175459
800.301	0.0175407
800.379	0.0175739
800.457	0.0176015
800.535	0.0176787
800.613	0.0176219
800.692	0.0176255
800.770	0.0175061
800.848	0.0174757
800.926	0.0176901
801.004	0.0176141
801.082	0.0176284
801.160	0.0176237
801.238	0.0176384
801.317	0.0177022
801.395	0.0176476
801.473	0.0176661
801.551	0.0176845
801.629	0.0175955
801.707	0.0176316
801.785	0.0176797
801.863	0.0176566
801.942	0.0175549
802.020	0.0176482
802.098	0.0174950
802.176	0.0174732
802.254	0.0175384
802.332	0.0175901
802.410	0.0175566
802.488	0.0175809
802.567	0.0175816
802.645	0.0176174
802.723	0.0175148
802.801	0.0176774
802.879	0.0176552
802.957	0.0175187
803.035	0.0175691
803.113	0.0175887
803.192	0.0175998
803.270	0.0175181
803.348	0.0174570
803.426	0.0174320
803.504	0.0175456
803.582	0.0175961
803.660	0.0174100
803.738	0.0174992
803.817	0.0176197
803.895	0.0175810
803.973	0.0176897
804.051	0.0176043
804.129	0.0174561
804.207	0.0176318
804.285	0.0176680
804.363	0.0174250
804.442	0.0176402
804.520	0.0176449
804.598	0.0176188
804.676	0.0174875
804.754	0.0176825
804.832	0.0176961
804.910	0.0176379
804.988	0.0176433
805.067	0.0177588
805.145	0.0176751
805.223	0.0174864
805.301	0.0178027
805.379	0.0176327
805.457	0.0177696
805.535	0.0176123
805.613	0.0175689
805.692	0.0176540
805.770	0.0174816
805.848	0.0176675
805.926	0.0174529
806.004	0.0176383
806.082	0.0177172
806.160	0.0176748
806.238	0.0176118
806.317	0.0176371
806.395	0.0175976
806.473	0.0175639
806.551	0.0174972
806.629	0.0176069
806.707	0.0175426
806.785	0.0174081
806.863	0.0175648
806.942	0.0176029
807.020	0.0175744
807.098	0.0175172
807.176	0.0175493
807.254	0.0175881
807.332	0.0176248
807.410	0.0175478
807.488	0.0174915
807.567	0.0175850
807.645	0.0176235
807.723	0.0176095
807.801	0.0175464
807.879	0.0175890
807.957	0.0176268
808.035	0.0176078
808.113	0.0175832
808.192	0.0176906
808.270	0.0176453
808.348	0.0175515
808.426	0.0176250
808.504	0.0176949
808.582	0.0175877
808.660	0.0176830
808.738	0.0175536
808.817	0.0175452
808.895	0.0175577
808.973	0.0177345
809.051	0.0175847
809.129	0.0176303
809.207	0.0177095
809.285	0.0176618
809.363	0.0176559
809.442	0.0177041
809.520	0.0176718
809.598	0.0177454
809.676	0.0177101
809.754	0.0177304
809.832	0.0176315
809.910	0.0176792
809.988	0.0176571
810.067	0.0176539
810.145	0.0176941
810.223	0.0177726
810.301	0.0177023
810.379	0.0176022
810.457	0.0175800
810.535	0.0175739
810.613	0.0177264
810.692	0.0175121
810.770	0.0176775
810.848	0.0175751
810.926	0.0175724
811.004	0.0175137
811.082	0.0175320
811.160	0.0175670
811.238	0.0175546
811.317	0.0176079
811.395	0.0175291
811.473	0.0174714
811.551	0.0175452
811.629	0.0176334
811.707	0.0175452
811.785	0.0174563
811.863	0.0175497
811.942	0.0175506
812.020	0.0176078
812.098	0.0173712
812.176	0.0175400
812.254	0.0174604
812.332	0.0176039
812.410	0.0175041
812.488	0.0175993
812.567	0.0175214
812.645	0.0175905
812.723	0.0176037
812.801	0.0175380
812.879	0.0176155
812.957	0.0177195
813.035	0.0175674
813.113	0.0174589
813.192	0.0174246
813.270	0.0176525
813.348	0.0176655
813.426	0.0176033
813.504	0.0175748
813.582	0.0175278
813.660	0.0175558
813.738	0.0176631
813.817	0.0177196
813.895	0.0175219
813.973	0.0175250
814.051	0.0176403
814.129	0.0176154
814.207	0.0175598
814.285	0.0176138
814.363	0.0175700
814.442	0.0175224
814.520	0.0178162
814.598	0.0176100
814.676	0.0175777
814.754	0.0176186
814.832	0.0176611
814.910	0.0177011
814.988	0.0176822
815.067	0.0177296
815.145	0.0176899
815.223	0.0175706
815.301	0.0175848
815.379	0.0176833
815.457	0.0176490
815.535	0.0175094
815.613	0.0176490
815.692	0.0175962
815.770	0.0175768
815.848	0.0175938
815.926	0.0175043
816.004	0.0175102
816.082	0.0175529
816.160	0.0176080
816.238	0.0176267
816.317	0.0176826
816.395	0.0176052
816.473	0.0176084
816.551	0.0176709
816.629	0.0174252
816.707	0.0174471
816.785	0.0176876
816.863	0.0175273
816.942	0.0175671
817.020	0.0177324
817.098	0.0175288
817.176	0.0174899
817.254	0.0176021
817.332	0.0176087
817.410	0.0176529
817.488	0.0174496
817.567	0.0175526
817.645	0.0176662
817.723	0.0175024
817.801	0.0174992
817.879	0.0175882
817.957	0.0177068
818.035	0.0175620
818.113	0.0177546
818.192	0.0175130
818.270	0.0176997
818.348	0.0176543
818.426	0.0176360
818.504	0.0176289
818.582	0.0175286
818.660	0.0176034
818.738	0.0176785
818.817	0.0176221
818.895	0.0176044
818.973	0.0175343
819.051	0.0175855
819.129	0.0175812
819.207	0.0175238
819.285	0.0176616
819.363	0.0175203
819.442	0.0176231
819.520	0.0176412
819.598	0.0175317
819.676	0.0176171
819.754	0.0176990
819.832	0.0174405
819.910	0.0175601
819.988	0.0176456
820.067	0.0177673
820.145	0.0175460
820.223	0.0174532
820.301	0.0175372
820.379	0.0176428
820.457	0.0176043
820.535	0.0176605
820.613	0.0175386
820.692	0.0175788
820.770	0.0175260
820.848	0.0175065
820.926	0.0175596
821.004	0.0175565
821.082	0.0176752
821.160	0.0175118
821.238	0.0174499
821.317	0.0175579
821.395	0.0175677
821.473	0.0175051
821.551	0.0175245
821.629	0.0176240
821.707	0.0175822
821.785	0.0176861
821.863	0.0175507
821.942	0.0174912
822.020	0.0176325
822.098	0.0175408
822.176	0.0176082
822.254	0.0177284
822.332	0.0176694
822.410	0.0176749
822.488	0.0176230
822.567	0.0175529
822.645	0.0177309
822.723	0.0176264
822.801	0.0175684
822.879	0.0175014
822.957	0.0175578
823.035	0.0177361
823.113	0.0175728
823.192	0.0176548
823.270	0.0177386
823.348	0.0175084
823.426	0.0176599
823.504	0.0175661
823.582	0.0176340
823.660	0.0175896
823.738	0.0176650
823.817	0.0176516
823.895	0.0175816
823.973	0.0176675
824.051	0.0175960
824.129	0.0175555
824.207	0.0175877
824.285	0.0178374
824.363	0.0175370
824.442	0.0174652
824.520	0.0177023
824.598	0.0176264
824.676	0.0175224
824.754	0.0176590
824.832	0.0176994
824.910	0.0175427
824.988	0.0177322
825.067	0.0176870
825.145	0.0177463
825.223	0.0176370
825.301	0.0177383
825.379	0.0176669
825.457	0.0176574
825.535	0.0177012
825.613	0.0176602
825.692	0.0175308
825.770	0.0176395
825.848	0.0175561
825.926	0.0175872
826.004	0.0175776
826.082	0.0176106
826.160	0.0175066
826.238	0.0174537
826.317	0.0175322
826.395	0.0175604
826.473	0.0177003
826.551	0.0177007
826.629	0.0176138
826.707	0.0176450
826.785	0.0175428
826.863	0.0174140
826.942	0.0176184
827.020	0.0176294
827.098	0.0174216
827.176	0.0175364
827.254	0.0176138
827.332	0.0177122
827.410	0.0175569
827.488	0.0175828
827.567	0.0175988
827.645	0.0175945
827.723	0.0175719
827.801	0.0175799
827.879	0.0174878
827.957	0.0175626
828.035	0.0176007
828.113	0.0174713
828.192	0.0176724
828.270	0.0176810
828.348	0.0176146
828.426	0.0178400
828.504	0.0175979
828.582	0.0176602
828.660	0.0177766
828.738	0.0176848
828.817	0.0177143
828.895	0.0176526
828.973	0.0176868
829.051	0.0176874
829.129	0.0176845
829.207	0.0175778
829.285	0.0176810
829.363	0.0176959
829.442	0.0177131
829.520	0.0175892
829.598	0.0175777
829.676	0.0176463
829.754	0.0176130
829.832	0.0175552
829.910	0.0175523
829.988	0.0175307
830.067	0.0175764
830.145	0.0175871
830.223	0.0175661
830.301	0.0176995
830.379	0.0176620
830.457	0.0175123
830.535	0.0176945
830.613	0.0176907
830.692	0.0177286
830.770	0.0175299
830.848	0.0176175
830.926	0.0177024
831.004	0.0178461
831.082	0.0176363
831.160	0.0177203
831.238	0.0176162
831.317	0.0176576
831.395	0.0176539
831.473	0.0176000
831.551	0.0176730
831.629	0.0175212
831.707	0.0176439
831.785	0.0176852
831.863	0.0175304
831.942	0.0176308
832.020	0.0176123
832.098	0.0175573
832.176	0.0177317
832.254	0.0175517
832.332	0.0175483
832.410	0.0176716
832.488	0.0175956
832.567	0.0176350
832.645	0.0176417
832.723	0.0177466
832.801	0.0175858
832.879	0.0175440
832.957	0.0177171
833.035	0.0176450
833.113	0.0177100
833.192	0.0177032
833.270	0.0177020
833.348	0.0178136
833.426	0.0176004
833.504	0.0176655
833.582	0.0175850
833.660	0.0176637
833.738	0.0176075
833.817	0.0176006
833.895	0.0176430
833.973	0.0175218
834.051	0.0176167
834.129	0.0175317
834.207	0.0175756
834.285	0.0175478
834.363	0.0175661
834.442	0.0175359
834.520	0.0175013
834.598	0.0176275
834.676	0.0175878
834.754	0.0176900
834.832	0.0176118
834.910	0.0176633
834.988	0.0176111
835.067	0.0176959
835.145	0.0177345
835.223	0.0176476
835.301	0.0176305
835.379	0.0177294
835.457	0.0175719
835.535	0.0176440
835.613	0.0176149
835.692	0.0176743
835.770	0.0175131
835.848	0.0174872
835.926	0.0175781
836.004	0.0175435
836.082	0.0174358
836.160	0.0175668
836.238	0.0176398
836.317	0.0175213
836.395	0.0176318
836.473	0.0175710
836.551	0.0175472
836.629	0.0174937
836.707	0.0175513
836.785	0.0177249
836.863	0.0175656
836.942	0.0175522
837.020	0.0176314
837.098	0.0176228
837.176	0.0176588
837.254	0.0175434
837.332	0.0176687
837.410	0.0176531
837.488	0.0176926
837.567	0.0177496
837.645	0.0177488
837.723	0.0176514
837.801	0.0175755
837.879	0.0175172
837.957	0.0174836
838.035	0.0175771
838.113	0.0176020
838.192	0.0176240
838.270	0.0175893
838.348	0.0176124
838.426	0.0175569
838.504	0.0176287
838.582	0.0176459
838.660	0.0175829
838.738	0.0176194
838.817	0.0176352
838.895	0.0176254
838.973	0.0176237
839.051	0.0176292
839.129	0.0177065
839.207	0.0175916
839.285	0.0177065
839.363	0.0177400
839.442	0.0176584
839.520	0.0176341
839.598	0.0177197
839.676	0.0176510
839.754	0.0177957
839.832	0.0176242
839.910	0.0176868
839.988	0.0177488
840.067	0.0175378
840.145	0.0175786
840.223	0.0176579
840.301	0.0176469
840.379	0.0176474
840.457	0.0178133
840.535	0.0176513
840.613	0.0176044
840.692	0.0176575
840.770	0.0176795
840.848	0.0176877
840.926	0.0175224
841.004	0.0174751
841.082	0.0176267
841.160	0.0174787
841.238	0.0176620
841.317	0.0176396
841.395	0.0175955
841.473	0.0177451
841.551	0.0175972
841.629	0.0174443
841.707	0.0175280
841.785	0.0176463
841.863	0.0175915
841.942	0.0176940
842.020	0.0175771
842.098	0.0176230
842.176	0.0175776
842.254	0.0175240
842.332	0.0175887
842.410	0.0175346
842.488	0.0175780
842.567	0.0176452
842.645	0.0174836
842.723	0.0175774
842.801	0.0175191
842.879	0.0176347
842.957	0.0176294
843.035	0.0176212
843.113	0.0176591
843.192	0.0175659
843.270	0.0175252
843.348	0.0175257
843.426	0.0174707
843.504	0.0175616
843.582	0.0176269
843.660	0.0176191
843.738	0.0175826
843.817	0.0176268
843.895	0.0176414
843.973	0.0175959
844.051	0.0177546
844.129	0.0176880
844.207	0.0175804
844.285	0.0177596
844.363	0.0176752
844.442	0.0175053
844.520	0.0177213
844.598	0.0175716
844.676	0.0176711
844.754	0.0175654
844.832	0.0175624
844.910	0.0175344
844.988	0.0175292
845.067	0.0175622
845.145	0.0176036
845.223	0.0175459
845.301	0.0175410
845.379	0.0176776
845.457	0.0173247
845.535	0.0175315
845.613	0.0176284
845.692	0.0175701
845.770	0.0175957
845.848	0.0177969
845.926	0.0176277
846.004	0.0175583
846.082	0.0175738
846.160	0.0177996
846.238	0.0177371
846.317	0.0177082
846.395	0.0177100
846.473	0.0176892
846.551	0.0176321
846.629	0.0176668
846.707	0.0177953
846.785	0.0176606
846.863	0.0178733
846.942	0.0177083
847.020	0.0176759
847.098	0.0177552
847.176	0.0176061
847.254	0.0176397
847.332	0.0176525
847.410	0.0175158
847.488	0.0176555
847.567	0.0175201
847.645	0.0176305
847.723	0.0174994
847.801	0.0176223
847.879	0.0176566
847.957	0.0175220
848.035	0.0176727
848.113	0.0176372
848.192	0.0175255
848.270	0.0175530
848.348	0.0175546
848.426	0.0176624
848.504	0.0177195
848.582	0.0177142
848.660	0.0176752
848.738	0.0177583
848.817	0.0176038
848.895	0.0176261
848.973	0.0175590
849.051	0.0174807
849.129	0.0175631
849.207	0.0175673
849.285	0.0175916
849.363	0.0175889
849.442	0.0174991
849.520	0.0175383
849.598	0.0174681
849.676	0.0176834
849.754	0.0175621
849.832	0.0176365
849.910	0.0176176
849.988	0.0176068
850.067	0.0175713
850.145	0.0175309
850.223	0.0175700
850.301	0.0175257
850.379	0.0175235
850.457	0.0175256
850.535	0.0173867
850.613	0.0174541
850.692	0.0175261
850.770	0.0175769
850.848	0.0174925
850.926	0.0174923
851.004	0.0174476
851.082	0.0175433
851.160	0.0174543
851.238	0.0174854
851.317	0.0176156
851.395	0.0175972
851.473	0.0174639
851.551	0.0174857
851.629	0.0174920
851.707	0.0175324
851.785	0.0175295
851.863	0.0175649
851.942	0.0175721
852.020	0.0175558
852.098	0.0175328
852.176	0.0174831
852.254	0.0175385
852.332	0.0175751
852.410	0.0177003
852.488	0.0177341
852.567	0.0176165
852.645	0.0176249
852.723	0.0176456
852.801	0.0177063
852.879	0.0178884
852.957	0.0177103
853.035	0.0176434
853.113	0.0177126
853.192	0.0176299
853.270	0.0177170
853.348	0.0177129
853.426	0.0176569
853.504	0.0176146
853.582	0.0178022
853.660	0.0175511
853.738	0.0177338
853.817	0.0177763
853.895	0.0177263
853.973	0.0176169
854.051	0.0176075
854.129	0.0177193
854.207	0.0177744
854.285	0.0177219
854.363	0.0176330
854.442	0.0175067
854.520	0.0175584
854.598	0.0176343
854.676	0.0175979
854.754	0.0174509
854.832	0.0175641
854.910	0.0174706
854.988	0.0174030
855.067	0.0173976
855.145	0.0174944
855.223	0.0174783
855.301	0.0174992
855.379	0.0174220
855.457	0.0175750
855.535	0.0175219
855.613	0.0174329
855.692	0.0176138
855.770	0.0174594
855.848	0.0173224
855.926	0.0175644
856.004	0.0176079
856.082	0.0176952
856.160	0.0176523
856.238	0.0176628
856.317	0.0176029
856.395	0.0175774
856.473	0.0176814
856.551	0.0177893
856.629	0.0177357
856.707	0.0175062
856.785	0.0176917
856.863	0.0178635
856.942	0.0178212
857.020	0.0177811
857.098	0.0178831
857.176	0.0177557
857.254	0.0176830
857.332	0.0177071
857.410	0.0178198
857.488	0.0177979
857.567	0.0176672
857.645	0.0177453
857.723	0.0176994
857.801	0.0176901
857.879	0.0176830
857.957	0.0178445
858.035	0.0177386
858.113	0.0176924
858.192	0.0175497
858.270	0.0177127
858.348	0.0177555
858.426	0.0176550
858.504	0.0176168
858.582	0.0177505
858.660	0.0177231
858.738	0.0175298
858.817	0.0175295
858.895	0.0174572
858.973	0.0176105
859.051	0.0176492
859.129	0.0174691
859.207	0.0174175
859.285	0.0175123
859.363	0.0174243
859.442	0.0175180
859.520	0.0175401
859.598	0.0175491
859.676	0.0175694
859.754	0.0174368
859.832	0.0175518
859.910	0.0176115
859.988	0.0175852
860.067	0.0173911
860.145	0.0175904
860.223	0.0177021
860.301	0.0176981
860.379	0.0175340
860.457	0.0175320
860.535	0.0175591
860.613	0.0177138
860.692	0.0175137
860.770	0.0175536
860.848	0.0175620
860.926	0.0175214
861.004	0.0176210
861.082	0.0176105
861.160	0.0176994
861.238	0.0176457
861.317	0.0175770
861.395	0.0176648
861.473	0.0175983
861.551	0.0175506
861.629	0.0177248
861.707	0.0178511
861.785	0.0175079
861.863	0.0176588
861.942	0.0177696
862.020	0.0175795
862.098	0.0178208
862.176	0.0176485
862.254	0.0176609
862.332	0.0177451
862.410	0.0176778
862.488	0.0177480
862.567	0.0177156
862.645	0.0177309
862.723	0.0177621
862.801	0.0176694
862.879	0.0177756
862.957	0.0177628
863.035	0.0177554
863.113	0.0177567
863.192	0.0175803
863.270	0.0175206
863.348	0.0177145
863.426	0.0177270
863.504	0.0177070
863.582	0.0177463
863.660	0.0176616
863.738	0.0175154
863.817	0.0176536
863.895	0.0176510
863.973	0.0174084
864.051	0.0177569
864.129	0.0175581
864.207	0.0175587
864.285	0.0177065
864.363	0.0174368
864.442	0.0175782
864.520	0.0175434
864.598	0.0175687
864.676	0.0176332
864.754	0.0176429
864.832	0.0175555
864.910	0.0175137
864.988	0.0175861
865.067	0.0175682
865.145	0.0175826
865.223	0.0174496
865.301	0.0175702
865.379	0.0175058
865.457	0.0175194
865.535	0.0175616
865.613	0.0174331
865.692	0.0175264
865.770	0.0177184
865.848	0.0175894
865.926	0.0174548
866.004	0.0175968
866.082	0.0175658
866.160	0.0175417
866.238	0.0175608
866.317	0.0174895
866.395	0.0176411
866.473	0.0175961
866.551	0.0175154
866.629	0.0176932
866.707	0.0176178
866.785	0.0176571
866.863	0.0176689
866.942	0.0177122
867.020	0.0176670
867.098	0.0177145
867.176	0.0177052
867.254	0.0176700
867.332	0.0176259
867.410	0.0178024
867.488	0.0178142
867.567	0.0176864
867.645	0.0177791
867.723	0.0177901
867.801	0.0178861
867.879	0.0177940
867.957	0.0176977
868.035	0.0178165
868.113	0.0177218
868.192	0.0177521
868.270	0.0177342
868.348	0.0176955
868.426	0.0176984
868.504	0.0176009
868.582	0.0177478
868.660	0.0176518
868.738	0.0175406
868.817	0.0177798
868.895	0.0177333
868.973	0.0176105
869.051	0.0176871
869.129	0.0175219
869.207	0.0177283
869.285	0.0176555
869.363	0.0175910
869.442	0.0176442
869.520	0.0176613
869.598	0.0175781
869.676	0.0175713
869.754	0.0176132
869.832	0.0176497
869.910	0.0175879
869.988	0.0175421
870.067	0.0175214
870.145	0.0175268
870.223	0.0175985
870.301	0.0176048
870.379	0.0175593
870.457	0.0177245
870.535	0.0176746
870.613	0.0175697
870.692	0.0175994
870.770	0.0175246
870.848	0.0176661
870.926	0.0175491
871.004	0.0177618
871.082	0.0177476
871.160	0.0176666
871.238	0.0176163
871.317	0.0174706
871.395	0.0176145
871.473	0.0176789
871.551	0.0176630
871.629	0.0176558
871.707	0.0175593
871.785	0.0176379
871.863	0.0175315
871.942	0.0175710
872.020	0.0176438
872.098	0.0175278
872.176	0.0175689
872.254	0.0176579
872.332	0.0176266
872.410	0.0175770
872.488	0.0175944
872.567	0.0175843
872.645	0.0175047
872.723	0.0175863
872.801	0.0176652
872.879	0.0176289
872.957	0.0175529
873.035	0.0175867
873.113	0.0175513
873.192	0.0176571
873.270	0.0177002
873.348	0.0177522
873.426	0.0176915
873.504	0.0177763
873.582	0.0177168
873.660	0.0176112
873.738	0.0177805
873.817	0.0178259
873.895	0.0177222
873.973	0.0177564
874.051	0.0177414
874.129	0.0177657
874.207	0.0178289
874.285	0.0177423
874.363	0.0176903
874.442	0.0176273
874.520	0.0176360
874.598	0.0176569
874.676	0.0175787
874.754	0.0175939
874.832	0.0176868
874.910	0.0176440
874.988	0.0177505
875.067	0.0175659
875.145	0.0174709
875.223	0.0175249
875.301	0.0175266
875.379	0.0175449
875.457	0.0174683
875.535	0.0175464
875.613	0.0175502
875.692	0.0174498
875.770	0.0175046
875.848	0.0174483
875.926	0.0174274
876.004	0.0175182
876.082	0.0174910
876.160	0.0175992
876.238	0.0175978
876.317	0.0175397
876.395	0.0175761
876.473	0.0175870
876.551	0.0176109
876.629	0.0174761
876.707	0.0175861
876.785	0.0176283
876.863	0.0176694
876.942	0.0175188
877.020	0.0177186
877.098	0.0175697
877.176	0.0176809
877.254	0.0177185
877.332	0.0176511
877.410	0.0176285
877.488	0.0176814
877.567	0.0176915
877.645	0.0177077
877.723	0.0176151
877.801	0.0175690
877.879	0.0176633
877.957	0.0176536
878.035	0.0175844
878.113	0.0174780
878.192	0.0176118
878.270	0.0176031
878.348	0.0175793
878.426	0.0176171
878.504	0.0176467
878.582	0.0176520
878.660	0.0177632
878.738	0.0175796
878.817	0.0175947
878.895	0.0175558
878.973	0.0176371
879.051	0.0175054
879.129	0.0176585
879.207	0.0175964
879.285	0.0176226
879.363	0.0176324
879.442	0.0176095
879.520	0.0177726
879.598	0.0175600
879.676	0.0176415
879.754	0.0175491
879.832	0.0177657
879.910	0.0175925
879.988	0.0176531
880.067	0.0175881
880.145	0.0176498
880.223	0.0175916
880.301	0.0177725
880.379	0.0177103
880.457	0.0178069
880.535	0.0177783
880.613	0.0176981
880.692	0.0176622
880.770	0.0176151
880.848	0.0177993
880.926	0.0178463
881.004	0.0176612
881.082	0.0178024
881.160	0.0179252
881.238	0.0177294
881.317	0.0177825
881.395	0.0176098
881.473	0.0177731
881.551	0.0176633
881.629	0.0176440
881.707	0.0177013
881.785	0.0175710
881.863	0.0175348
881.942	0.0176561
882.020	0.0177488
882.098	0.0177331
882.176	0.0176590
882.254	0.0176367
882.332	0.0175710
882.410	0.0176180
882.488	0.0176717
882.567	0.0175600
882.645	0.0175336
882.723	0.0175350
882.801	0.0175788
882.879	0.0175533
882.957	0.0176432
883.035	0.0176398
883.113	0.0175487
883.192	0.0176064
883.270	0.0176435
883.348	0.0175477
883.426	0.0176110
883.504	0.0176720
883.582	0.0175706
883.660	0.0175413
883.738	0.0175820
883.817	0.0176376
883.895	0.0175381
883.973	0.0174896
884.051	0.0175517
884.129	0.0175326
884.207	0.0174767
884.285	0.0175108
884.363	0.0176412
884.442	0.0176516
884.520	0.0176730
884.598	0.0176587
884.676	0.0176283
884.754	0.0176790
884.832	0.0176322
884.910	0.0176210
884.988	0.0176816
885.067	0.0176622
885.145	0.0176339
885.223	0.0175315
885.301	0.0175815
885.379	0.0176914
885.457	0.0176958
885.535	0.0175832
885.613	0.0177435
885.692	0.0177853
885.770	0.0176228
885.848	0.0176385
885.926	0.0177238
886.004	0.0175635
886.082	0.0176460
886.160	0.0176671
886.238	0.0177608
886.317	0.0178164
886.395	0.0176669
886.473	0.0176221
886.551	0.0176950
886.629	0.0177452
886.707	0.0176273
886.785	0.0177204
886.863	0.0176570
886.942	0.0176323
887.020	0.0176289
887.098	0.0176202
887.176	0.0177029
887.254	0.0177143
887.332	0.0176833
887.410	0.0175430
887.488	0.0175163
887.567	0.0176659
887.645	0.0176785
887.723	0.0175735
887.801	0.0175819
887.879	0.0176452
887.957	0.0177254
888.035	0.0175981
888.113	0.0176108
888.192	0.0175202
888.270	0.0176804
888.348	0.0175973
888.426	0.0176822
888.504	0.0176012
888.582	0.0177005
888.660	0.0176804
888.738	0.0175400
888.817	0.0174911
888.895	0.0175769
888.973	0.0175852
889.051	0.0175502
889.129	0.0173373
889.207	0.0174977
889.285	0.0175632
889.363	0.0174078
889.442	0.0175092
889.520	0.0175847
889.598	0.0176073
889.676	0.0176284
889.754	0.0175924
889.832	0.0176231
889.910	0.0177462
889.988	0.0176004
890.067	0.0174335
890.145	0.0176228
890.223	0.0176277
890.301	0.0176392
890.379	0.0176437
890.457	0.0177193
890.535	0.0176770
890.613	0.0175831
890.692	0.0175990
890.770	0.0175636
890.848	0.0177483
890.926	0.0176655
891.004	0.0175848
891.082	0.0175916
891.160	0.0176038
891.238	0.0174982
891.317	0.0176074
891.395	0.0175155
891.473	0.0175012
891.551	0.0176936
891.629	0.0174560
891.707	0.0176360
891.785	0.0176171
891.863	0.0176344
891.942	0.0175978
892.020	0.0176539
892.098	0.0175630
892.176	0.0176510
892.254	0.0176237
892.332	0.0177205
892.410	0.0176665
892.488	0.0176858
892.567	0.0175614
892.645	0.0176134
892.723	0.0175389
892.801	0.0176276
892.879	0.0175668
892.957	0.0178014
893.035	0.0177383
893.113	0.0176849
893.192	0.0176986
893.270	0.0176557
893.348	0.0176569
893.426	0.0175923
893.504	0.0174998
893.582	0.0176121
893.660	0.0176446
893.738	0.0176943
893.817	0.0175134
893.895	0.0175471
893.973	0.0176208
894.051	0.0177172
894.129	0.0176748
894.207	0.0176877
894.285	0.0176318
894.363	0.0175401
894.442	0.0176041
894.520	0.0177921
894.598	0.0176773
894.676	0.0176929
894.754	0.0178254
894.832	0.0178012
894.910	0.0176273
894.988	0.0176320
895.067	0.0178518
895.145	0.0177715
895.223	0.0177827
895.301	0.0177345
895.379	0.0176467
895.457	0.0176159
895.535	0.0176819
895.613	0.0176349
895.692	0.0177699
895.770	0.0176685
895.848	0.0175737
895.926	0.0176712
896.004	0.0176439
896.082	0.0177290
896.160	0.0176767
896.238	0.0175475
896.317	0.0174945
896.395	0.0176398
896.473	0.0175085
896.551	0.0175131
896.629	0.0173509
896.707	0.0174398
896.785	0.0175520
896.863	0.0174369
896.942	0.0174316
897.020	0.0173806
897.098	0.0175171
897.176	0.0175855
897.254	0.0173884
897.332	0.0174171
897.410	0.0174774
897.488	0.0175149
897.567	0.0174180
897.645	0.0174374
897.723	0.0174890
897.801	0.0175697
897.879	0.0174738
897.957	0.0174868
898.035	0.0174331
898.113	0.0174341
898.192	0.0175642
898.270	0.0175051
898.348	0.0175340
898.426	0.0174726
898.504	0.0176599
898.582	0.0176971
898.660	0.0176053
898.738	0.0176231
898.817	0.0177529
898.895	0.0177770
898.973	0.0177589
899.051	0.0176333
899.129	0.0177306
899.207	0.0179171
899.285	0.0177718
899.363	0.0178677
899.442	0.0178506
899.520	0.0177841
899.598	0.0178414
899.676	0.0178681
899.754	0.0177406
899.832	0.0179369
899.910	0.0178440
899.988	0.0176501
900.067	0.0177484
900.145	0.0177502
900.223	0.0177640
900.301	0.0176720
900.379	0.0177042
900.457	0.0176573
900.535	0.0176452
900.613	0.0176174
900.692	0.0176995
900.770	0.0175874
900.848	0.0177150
900.926	0.0175253
901.004	0.0177148
901.082	0.0176635
901.160	0.0175817
901.238	0.0175455
901.317	0.0175645
901.395	0.0175587
901.473	0.0175013
901.551	0.0175703
901.629	0.0175697
901.707	0.0175733
901.785	0.0175740
901.863	0.0176978
901.942	0.0176228
902.020	0.0173753
902.098	0.0175220
902.176	0.0176996
902.254	0.0173731
902.332	0.0174258
902.410	0.0175340
902.488	0.0174386
902.567	0.0174995
902.645	0.0174979
902.723	0.0174841
902.801	0.0175636
902.879	0.0174963
902.957	0.0174011
903.035	0.0173724
903.113	0.0174285
903.192	0.0175152
903.270	0.0175256
903.348	0.0175178
903.426	0.0175266
903.504	0.0175082
903.582	0.0176257
903.660	0.0176599
903.738	0.0175246
903.817	0.0175913
903.895	0.0175442
903.973	0.0175400
904.051	0.0174884
904.129	0.0176842
904.207	0.0176682
904.285	0.0175674
904.363	0.0176117
904.442	0.0176357
904.520	0.0176600
904.598	0.0175418
904.676	0.0176016
904.754	0.0177650
904.832	0.0177540
904.910	0.0176688
904.988	0.0175543
905.067	0.0176213
905.145	0.0177626
905.223	0.0176824
905.301	0.0175884
905.379	0.0175103
905.457	0.0176521
905.535	0.0176091
905.613	0.0175546
905.692	0.0176480
905.770	0.0177383
905.848	0.0176596
905.926	0.0177306
906.004	0.0177578
906.082	0.0178342
906.160	0.0176801
906.238	0.0177390
906.317	0.0177343
906.395	0.0176897
906.473	0.0177084
906.551	0.0178058
906.629	0.0177456
906.707	0.0177090
906.785	0.0176701
906.863	0.0176742
906.942	0.0176370
907.020	0.0177366
907.098	0.0176965
907.176	0.0176955
907.254	0.0176039
907.332	0.0176241
907.410	0.0176190
907.488	0.0176469
907.567	0.0176793
907.645	0.0176332
907.723	0.0174833
907.801	0.0176556
907.879	0.0174234
907.957	0.0176303
908.035	0.0174883
908.113	0.0175260
908.192	0.0174416
908.270	0.0175163
908.348	0.0175494
908.426	0.0175265
908.504	0.0175614
908.582	0.0175021
908.660	0.0175671
908.738	0.0175858
908.817	0.0176395
908.895	0.0173277
908.973	0.0176595
909.051	0.0176317
909.129	0.0176088
909.207	0.0176196
909.285	0.0175854
909.363	0.0175896
909.442	0.0175800
909.520	0.0176849
909.598	0.0175556
909.676	0.0174568
909.754	0.0175250
909.832	0.0175026
909.910	0.0174325
909.988	0.0175553
910.067	0.0176158
910.145	0.0175402
910.223	0.0177057
910.301	0.0175545
910.379	0.0176323
910.457	0.0175495
910.535	0.0175433
910.613	0.0175864
910.692	0.0176345
910.770	0.0176911
910.848	0.0177210
910.926	0.0177070
911.004	0.0177466
911.082	0.0178142
911.160	0.0177400
911.238	0.0177003
911.317	0.0179178
911.395	0.0176168
911.473	0.0177420
911.551	0.0176849
911.629	0.0177290
911.707	0.0176725
911.785	0.0176966
911.863	0.0177341
911.942	0.0177386
912.020	0.0176266
912.098	0.0177540
912.176	0.0176167
912.254	0.0175191
912.332	0.0176324
912.410	0.0176342
912.488	0.0175403
912.567	0.0175529
912.645	0.0175324
912.723	0.0175998
912.801	0.0175331
912.879	0.0175120
912.957	0.0175315
913.035	0.0176150
913.113	0.0175160
913.192	0.0177139
913.270	0.0176154
913.348	0.0174667
913.426	0.0175959
913.504	0.0175607
913.582	0.0174429
913.660	0.0175581
913.738	0.0175728
913.817	0.0176513
913.895	0.0176778
913.973	0.0176305
914.051	0.0176883
914.129	0.0177252
914.207	0.0175585
914.285	0.0175710
914.363	0.0175744
914.442	0.0176353
914.520	0.0175809
914.598	0.0176498
914.676	0.0175001
914.754	0.0177025
914.832	0.0176037
914.910	0.0177582
914.988	0.0177597
915.067	0.0177101
915.145	0.0177839
915.223	0.0177001
915.301	0.0176786
915.379	0.0176939
915.457	0.0177186
915.535	0.0177518
915.613	0.0176959
915.692	0.0177499
915.770	0.0176886
915.848	0.0177616
915.926	0.0176109
916.004	0.0175470
916.082	0.0176212
916.160	0.0176804
916.238	0.0176095
916.317	0.0175945
916.395	0.0175140
916.473	0.0175695
916.551	0.0176483
916.629	0.0174288
916.707	0.0176025
916.785	0.0175414
916.863	0.0176212
916.942	0.0175491
917.020	0.0176183
917.098	0.0176227
917.176	0.0176854
917.254	0.0175972
917.332	0.0176292
917.410	0.0175360
917.488	0.0177782
917.567	0.0176657
917.645	0.0176358
917.723	0.0176344
917.801	0.0177341
917.879	0.0178037
917.957	0.0176074
918.035	0.0177468
918.113	0.0178202
918.192	0.0176855
918.270	0.0176023
918.348	0.0176199
918.426	0.0175826
918.504	0.0176335
918.582	0.0176619
918.660	0.0177590
918.738	0.0176969
918.817	0.0176135
918.895	0.0175767
918.973	0.0175738
919.051	0.0176195
919.129	0.0176351
919.207	0.0175568
919.285	0.0175054
919.363	0.0175839
919.442	0.0175704
919.520	0.0174625
919.598	0.0175159
919.676	0.0175723
919.754	0.0175935
919.832	0.0173954
919.910	0.0176141
