06/01/2022	21:35:02	Ver.	4.1	UNKNOWN
Optical Delay	599.988409	Delta X		0.078125	Sweeps	1	Scan Rate	0/0
Coordinates	Axis 1	NaN	Axis 2	NaN	Axis 3	NaN	Axis 4	NaN	Axis 5	NaN	Axis 6	0.000000
TX Power	0.000000	RX Power	0.000000

599.988	0.0180402
600.067	0.0180485
600.145	0.0182145
600.223	0.0180060
600.301	0.0178966
600.379	0.0180444
600.457	0.0182233
600.535	0.0180378
600.613	0.0178375
600.692	0.0180339
600.770	0.0179498
600.848	0.0180131
600.926	0.0180093
601.004	0.0179302
601.082	0.0180448
601.160	0.0181564
601.238	0.0180426
601.317	0.0180605
601.395	0.0181659
601.473	0.0179723
601.551	0.0179737
601.629	0.0180434
601.707	0.0180537
601.785	0.0180626
601.863	0.0181741
601.942	0.0180116
602.020	0.0180673
602.098	0.0180639
602.176	0.0179182
602.254	0.0180408
602.332	0.0180546
602.410	0.0179655
602.488	0.0181428
602.567	0.0181132
602.645	0.0180190
602.723	0.0180109
602.801	0.0181473
602.879	0.0180977
602.957	0.0179990
603.035	0.0180666
603.113	0.0180321
603.192	0.0180267
603.270	0.0180018
603.348	0.0179828
603.426	0.0179483
603.504	0.0180727
603.582	0.0180774
603.660	0.0181924
603.738	0.0180970
603.817	0.0179416
603.895	0.0180399
603.973	0.0178882
604.051	0.0179750
604.129	0.0180327
604.207	0.0179926
604.285	0.0180102
604.363	0.0181028
604.442	0.0180348
604.520	0.0181200
604.598	0.0181140
604.676	0.0179142
604.754	0.0179422
604.832	0.0180367
604.910	0.0182414
604.988	0.0179926
605.067	0.0180991
605.145	0.0181011
605.223	0.0180477
605.301	0.0179633
605.379	0.0180326
605.457	0.0180811
605.535	0.0182178
605.613	0.0181326
605.692	0.0178718
605.770	0.0180389
605.848	0.0181525
605.926	0.0180501
606.004	0.0179937
606.082	0.0180803
606.160	0.0179038
606.238	0.0179858
606.317	0.0181093
606.395	0.0179662
606.473	0.0179761
606.551	0.0180534
606.629	0.0180975
606.707	0.0179230
606.785	0.0179942
606.863	0.0181077
606.942	0.0180135
607.020	0.0179839
607.098	0.0180665
607.176	0.0181599
607.254	0.0178671
607.332	0.0180976
607.410	0.0180501
607.488	0.0180347
607.567	0.0179166
607.645	0.0180811
607.723	0.0180184
607.801	0.0180947
607.879	0.0181142
607.957	0.0179379
608.035	0.0180953
608.113	0.0181098
608.192	0.0181308
608.270	0.0181059
608.348	0.0180559
608.426	0.0179919
608.504	0.0180534
608.582	0.0181560
608.660	0.0180857
608.738	0.0179765
608.817	0.0180650
608.895	0.0180466
608.973	0.0180418
609.051	0.0179656
609.129	0.0180142
609.207	0.0180383
609.285	0.0180090
609.363	0.0180149
609.442	0.0180387
609.520	0.0180303
609.598	0.0179679
609.676	0.0180627
609.754	0.0181522
609.832	0.0179020
609.910	0.0179964
609.988	0.0181694
610.067	0.0180522
610.145	0.0179453
610.223	0.0180271
610.301	0.0180596
610.379	0.0180486
610.457	0.0179619
610.535	0.0180149
610.613	0.0182349
610.692	0.0181235
610.770	0.0181240
610.848	0.0180135
610.926	0.0179444
611.004	0.0179942
611.082	0.0182190
611.160	0.0181379
611.238	0.0180999
611.317	0.0180014
611.395	0.0180683
611.473	0.0179510
611.551	0.0180700
611.629	0.0179561
611.707	0.0180855
611.785	0.0180305
611.863	0.0180807
611.942	0.0180526
612.020	0.0179097
612.098	0.0181216
612.176	0.0180576
612.254	0.0178682
612.332	0.0179305
612.410	0.0179900
612.488	0.0180755
612.567	0.0180856
612.645	0.0181300
612.723	0.0181371
612.801	0.0180865
612.879	0.0181477
612.957	0.0180737
613.035	0.0181565
613.113	0.0182700
613.192	0.0180943
613.270	0.0180711
613.348	0.0180912
613.426	0.0179868
613.504	0.0181421
613.582	0.0180849
613.660	0.0179952
613.738	0.0179958
613.817	0.0180033
613.895	0.0180346
613.973	0.0181768
614.051	0.0180034
614.129	0.0180625
614.207	0.0179348
614.285	0.0179050
614.363	0.0179752
614.442	0.0179033
614.520	0.0179222
614.598	0.0180167
614.676	0.0179136
614.754	0.0179436
614.832	0.0179136
614.910	0.0179376
614.988	0.0179192
615.067	0.0179934
615.145	0.0181777
615.223	0.0179508
615.301	0.0180329
615.379	0.0180354
615.457	0.0182888
615.535	0.0181235
615.613	0.0180369
615.692	0.0181358
615.770	0.0182481
615.848	0.0181761
615.926	0.0181900
616.004	0.0181680
616.082	0.0181985
616.160	0.0180975
616.238	0.0180792
616.317	0.0180211
616.395	0.0180135
616.473	0.0179512
616.551	0.0179967
616.629	0.0179504
616.707	0.0178542
616.785	0.0179745
616.863	0.0178859
616.942	0.0178916
617.020	0.0179296
617.098	0.0178581
617.176	0.0178228
617.254	0.0178463
617.332	0.0178602
617.410	0.0179653
617.488	0.0179582
617.567	0.0181164
617.645	0.0180789
617.723	0.0180193
617.801	0.0180052
617.879	0.0180444
617.957	0.0181261
618.035	0.0181606
618.113	0.0181205
618.192	0.0181328
618.270	0.0181374
618.348	0.0182081
618.426	0.0181927
618.504	0.0182206
618.582	0.0181731
618.660	0.0181099
618.738	0.0183212
618.817	0.0182729
618.895	0.0180679
618.973	0.0180209
619.051	0.0179204
619.129	0.0180359
619.207	0.0179611
619.285	0.0180618
619.363	0.0180447
619.442	0.0180145
619.520	0.0179271
619.598	0.0179546
619.676	0.0178673
619.754	0.0177740
619.832	0.0178565
619.910	0.0180662
619.988	0.0179020
620.067	0.0180001
620.145	0.0180394
620.223	0.0179816
620.301	0.0179876
620.379	0.0180966
620.457	0.0181226
620.535	0.0180343
620.613	0.0180188
620.692	0.0180848
620.770	0.0180470
620.848	0.0181036
620.926	0.0179855
621.004	0.0180962
621.082	0.0179330
621.160	0.0180786
621.238	0.0180885
621.317	0.0180518
621.395	0.0181570
621.473	0.0181782
621.551	0.0179590
621.629	0.0179953
621.707	0.0179871
621.785	0.0179789
621.863	0.0180280
621.942	0.0180665
622.020	0.0179929
622.098	0.0179737
622.176	0.0181266
622.254	0.0180975
622.332	0.0180994
622.410	0.0180927
622.488	0.0179679
622.567	0.0181215
622.645	0.0180586
622.723	0.0179774
622.801	0.0179652
622.879	0.0180022
622.957	0.0180926
623.035	0.0180630
623.113	0.0180775
623.192	0.0181511
623.270	0.0181347
623.348	0.0180325
623.426	0.0180583
623.504	0.0178917
623.582	0.0180553
623.660	0.0179946
623.738	0.0181275
623.817	0.0179644
623.895	0.0179940
623.973	0.0179996
624.051	0.0179546
624.129	0.0181086
624.207	0.0181876
624.285	0.0181879
624.363	0.0178706
624.442	0.0180449
624.520	0.0178889
624.598	0.0180164
624.676	0.0181420
624.754	0.0179387
624.832	0.0180384
624.910	0.0179998
624.988	0.0179103
625.067	0.0178661
625.145	0.0180581
625.223	0.0179869
625.301	0.0180914
625.379	0.0179734
625.457	0.0179656
625.535	0.0180150
625.613	0.0180517
625.692	0.0179587
625.770	0.0181443
625.848	0.0180427
625.926	0.0180325
626.004	0.0179839
626.082	0.0179870
626.160	0.0179757
626.238	0.0180062
626.317	0.0180287
626.395	0.0180939
626.473	0.0180151
626.551	0.0181364
626.629	0.0180688
626.707	0.0180423
626.785	0.0180045
626.863	0.0179278
626.942	0.0179903
627.020	0.0179086
627.098	0.0180254
627.176	0.0179791
627.254	0.0180242
627.332	0.0180251
627.410	0.0179771
627.488	0.0179102
627.567	0.0179800
627.645	0.0178777
627.723	0.0179118
627.801	0.0179408
627.879	0.0179425
627.957	0.0180548
628.035	0.0179729
628.113	0.0179404
628.192	0.0179108
628.270	0.0181036
628.348	0.0181284
628.426	0.0180396
628.504	0.0180994
628.582	0.0181170
628.660	0.0180972
628.738	0.0180544
628.817	0.0180993
628.895	0.0178821
628.973	0.0181032
629.051	0.0178979
629.129	0.0181255
629.207	0.0180453
629.285	0.0180618
629.363	0.0180556
629.442	0.0179060
629.520	0.0179099
629.598	0.0180287
629.676	0.0180397
629.754	0.0179507
629.832	0.0180177
629.910	0.0179873
629.988	0.0179793
630.067	0.0179647
630.145	0.0180323
630.223	0.0180115
630.301	0.0180014
630.379	0.0179683
630.457	0.0180886
630.535	0.0179608
630.613	0.0178566
630.692	0.0179586
630.770	0.0179167
630.848	0.0180983
630.926	0.0182117
631.004	0.0179637
631.082	0.0179630
631.160	0.0180338
631.238	0.0180440
631.317	0.0181078
631.395	0.0180846
631.473	0.0180106
631.551	0.0180433
631.629	0.0181965
631.707	0.0180263
631.785	0.0180714
631.863	0.0180094
631.942	0.0179938
632.020	0.0179985
632.098	0.0180072
632.176	0.0179971
632.254	0.0180477
632.332	0.0181193
632.410	0.0181157
632.488	0.0178595
632.567	0.0178229
632.645	0.0180823
632.723	0.0181817
632.801	0.0180345
632.879	0.0179787
632.957	0.0180581
633.035	0.0181105
633.113	0.0180632
633.192	0.0179892
633.270	0.0181644
633.348	0.0180393
633.426	0.0179986
633.504	0.0180014
633.582	0.0180738
633.660	0.0180656
633.738	0.0179572
633.817	0.0180510
633.895	0.0180029
633.973	0.0178121
634.051	0.0179586
634.129	0.0180399
634.207	0.0179666
634.285	0.0179655
634.363	0.0180992
634.442	0.0180672
634.520	0.0179653
634.598	0.0180431
634.676	0.0179929
634.754	0.0180492
634.832	0.0181042
634.910	0.0179289
634.988	0.0179179
635.067	0.0177720
635.145	0.0181260
635.223	0.0180814
635.301	0.0179591
635.379	0.0178700
635.457	0.0179462
635.535	0.0180726
635.613	0.0179740
635.692	0.0179982
635.770	0.0180733
635.848	0.0180272
635.926	0.0179142
636.004	0.0179080
636.082	0.0179018
636.160	0.0181297
636.238	0.0179843
636.317	0.0180618
636.395	0.0179638
636.473	0.0179768
636.551	0.0180292
636.629	0.0179537
636.707	0.0179173
636.785	0.0180630
636.863	0.0179797
636.942	0.0178082
637.020	0.0179837
637.098	0.0180608
637.176	0.0180272
637.254	0.0178301
637.332	0.0178621
637.410	0.0180119
637.488	0.0178780
637.567	0.0179218
637.645	0.0180492
637.723	0.0179871
637.801	0.0180492
637.879	0.0180473
637.957	0.0179581
638.035	0.0179691
638.113	0.0180318
638.192	0.0179492
638.270	0.0180341
638.348	0.0180562
638.426	0.0179924
638.504	0.0179917
638.582	0.0181287
638.660	0.0180260
638.738	0.0179231
638.817	0.0179770
638.895	0.0180241
638.973	0.0179499
639.051	0.0181257
639.129	0.0180109
639.207	0.0178484
639.285	0.0179816
639.363	0.0180868
639.442	0.0180470
639.520	0.0180079
639.598	0.0180789
639.676	0.0180045
639.754	0.0179656
639.832	0.0179456
639.910	0.0179523
639.988	0.0179787
640.067	0.0180656
640.145	0.0179778
640.223	0.0180307
640.301	0.0180918
640.379	0.0180943
640.457	0.0180260
640.535	0.0179651
640.613	0.0179919
640.692	0.0180447
640.770	0.0179021
640.848	0.0180186
640.926	0.0181303
641.004	0.0179790
641.082	0.0180228
641.160	0.0179842
641.238	0.0180647
641.317	0.0180419
641.395	0.0180203
641.473	0.0179338
641.551	0.0180847
641.629	0.0180271
641.707	0.0179041
641.785	0.0180539
641.863	0.0178902
641.942	0.0179003
642.020	0.0179169
642.098	0.0179612
642.176	0.0180179
642.254	0.0179369
642.332	0.0180642
642.410	0.0179986
642.488	0.0180165
642.567	0.0181608
642.645	0.0180215
642.723	0.0181712
642.801	0.0179845
642.879	0.0181089
642.957	0.0180392
643.035	0.0180411
643.113	0.0179931
643.192	0.0181792
643.270	0.0180919
643.348	0.0180617
643.426	0.0180336
643.504	0.0180018
643.582	0.0180643
643.660	0.0181628
643.738	0.0181190
643.817	0.0179892
643.895	0.0179531
643.973	0.0180022
644.051	0.0179385
644.129	0.0179471
644.207	0.0180621
644.285	0.0180285
644.363	0.0179668
644.442	0.0180688
644.520	0.0180184
644.598	0.0179256
644.676	0.0179686
644.754	0.0180249
644.832	0.0181841
644.910	0.0179819
644.988	0.0180575
645.067	0.0179664
645.145	0.0180674
645.223	0.0179665
645.301	0.0180500
645.379	0.0180293
645.457	0.0180596
645.535	0.0179037
645.613	0.0180881
645.692	0.0179928
645.770	0.0180034
645.848	0.0180930
645.926	0.0180296
646.004	0.0179993
646.082	0.0178033
646.160	0.0180093
646.238	0.0180956
646.317	0.0181322
646.395	0.0179983
646.473	0.0180183
646.551	0.0180087
646.629	0.0180571
646.707	0.0181229
646.785	0.0179474
646.863	0.0180312
646.942	0.0179901
647.020	0.0179482
647.098	0.0180843
647.176	0.0180833
647.254	0.0179276
647.332	0.0180175
647.410	0.0179426
647.488	0.0181216
647.567	0.0181001
647.645	0.0179359
647.723	0.0179551
647.801	0.0179803
647.879	0.0180103
647.957	0.0180075
648.035	0.0180952
648.113	0.0180009
648.192	0.0180675
648.270	0.0180428
648.348	0.0181159
648.426	0.0180777
648.504	0.0181185
648.582	0.0179954
648.660	0.0180742
648.738	0.0177673
648.817	0.0179520
648.895	0.0180917
648.973	0.0179539
649.051	0.0179172
649.129	0.0179716
649.207	0.0180217
649.285	0.0179225
649.363	0.0179571
649.442	0.0179461
649.520	0.0180586
649.598	0.0179399
649.676	0.0180694
649.754	0.0181360
649.832	0.0179549
649.910	0.0180178
649.988	0.0180453
650.067	0.0179556
650.145	0.0179169
650.223	0.0179862
650.301	0.0180109
650.379	0.0180336
650.457	0.0179828
650.535	0.0181133
650.613	0.0180486
650.692	0.0180041
650.770	0.0179198
650.848	0.0179671
650.926	0.0180171
651.004	0.0179776
651.082	0.0179777
651.160	0.0179790
651.238	0.0180772
651.317	0.0181256
651.395	0.0180088
651.473	0.0179784
651.551	0.0180183
651.629	0.0179793
651.707	0.0181171
651.785	0.0179918
651.863	0.0180708
651.942	0.0181030
652.020	0.0179420
652.098	0.0179543
652.176	0.0179852
652.254	0.0181095
652.332	0.0179969
652.410	0.0179391
652.488	0.0179958
652.567	0.0179935
652.645	0.0180677
652.723	0.0180216
652.801	0.0180861
652.879	0.0180292
652.957	0.0179370
653.035	0.0179792
653.113	0.0180955
653.192	0.0180688
653.270	0.0178496
653.348	0.0180438
653.426	0.0180076
653.504	0.0181017
653.582	0.0180634
653.660	0.0180119
653.738	0.0178844
653.817	0.0180178
653.895	0.0179710
653.973	0.0179374
654.051	0.0180095
654.129	0.0180928
654.207	0.0180443
654.285	0.0179884
654.363	0.0180357
654.442	0.0179182
654.520	0.0179795
654.598	0.0178728
654.676	0.0180766
654.754	0.0179987
654.832	0.0181006
654.910	0.0181532
654.988	0.0180958
655.067	0.0180166
655.145	0.0180480
655.223	0.0180731
655.301	0.0180582
655.379	0.0180892
655.457	0.0179761
655.535	0.0180108
655.613	0.0180015
655.692	0.0180263
655.770	0.0180558
655.848	0.0180456
655.926	0.0180389
656.004	0.0180191
656.082	0.0180633
656.160	0.0179613
656.238	0.0179916
656.317	0.0180650
656.395	0.0180077
656.473	0.0181262
656.551	0.0181410
656.629	0.0180004
656.707	0.0179358
656.785	0.0179708
656.863	0.0180384
656.942	0.0180698
657.020	0.0180811
657.098	0.0180979
657.176	0.0180505
657.254	0.0179665
657.332	0.0179275
657.410	0.0180686
657.488	0.0180129
657.567	0.0180588
657.645	0.0180602
657.723	0.0180398
657.801	0.0179980
657.879	0.0181507
657.957	0.0180305
658.035	0.0181979
658.113	0.0179295
658.192	0.0180113
658.270	0.0180453
658.348	0.0180881
658.426	0.0180814
658.504	0.0179514
658.582	0.0180868
658.660	0.0180505
658.738	0.0180486
658.817	0.0181313
658.895	0.0180433
658.973	0.0180184
659.051	0.0179837
659.129	0.0180930
659.207	0.0181513
659.285	0.0180269
659.363	0.0179370
659.442	0.0178787
659.520	0.0181823
659.598	0.0181384
659.676	0.0181126
659.754	0.0179858
659.832	0.0179879
659.910	0.0180311
659.988	0.0180099
660.067	0.0181475
660.145	0.0180809
660.223	0.0181113
660.301	0.0180807
660.379	0.0179243
660.457	0.0179780
660.535	0.0179650
660.613	0.0179509
660.692	0.0179095
660.770	0.0181929
660.848	0.0180101
660.926	0.0179282
661.004	0.0179892
661.082	0.0179871
661.160	0.0180480
661.238	0.0179952
661.317	0.0181052
661.395	0.0179583
661.473	0.0178915
661.551	0.0178979
661.629	0.0179124
661.707	0.0179922
661.785	0.0180223
661.863	0.0179256
661.942	0.0179658
662.020	0.0181058
662.098	0.0181556
662.176	0.0180842
662.254	0.0180383
662.332	0.0181356
662.410	0.0178806
662.488	0.0180825
662.567	0.0179355
662.645	0.0180978
662.723	0.0180708
662.801	0.0179968
662.879	0.0180746
662.957	0.0181562
663.035	0.0181036
663.113	0.0181010
663.192	0.0179495
663.270	0.0180260
663.348	0.0180054
663.426	0.0181101
663.504	0.0180799
663.582	0.0179726
663.660	0.0179971
663.738	0.0179612
663.817	0.0180187
663.895	0.0179800
663.973	0.0180066
664.051	0.0180056
664.129	0.0180994
664.207	0.0180621
664.285	0.0179485
664.363	0.0179951
664.442	0.0180037
664.520	0.0180514
664.598	0.0180516
664.676	0.0179975
664.754	0.0180053
664.832	0.0179822
664.910	0.0180473
664.988	0.0179699
665.067	0.0180414
665.145	0.0180137
665.223	0.0180244
665.301	0.0179595
665.379	0.0179508
665.457	0.0179236
665.535	0.0179454
665.613	0.0180202
665.692	0.0180273
665.770	0.0177657
665.848	0.0179041
665.926	0.0180754
666.004	0.0179697
666.082	0.0179697
666.160	0.0179129
666.238	0.0178724
666.317	0.0180444
666.395	0.0181104
666.473	0.0179295
666.551	0.0178455
666.629	0.0180194
666.707	0.0180473
666.785	0.0180430
666.863	0.0180863
666.942	0.0180926
667.020	0.0180533
667.098	0.0180016
667.176	0.0180927
667.254	0.0180450
667.332	0.0179256
667.410	0.0180022
667.488	0.0180181
667.567	0.0179299
667.645	0.0180155
667.723	0.0180209
667.801	0.0180087
667.879	0.0178803
667.957	0.0180337
668.035	0.0180820
668.113	0.0179934
668.192	0.0179504
668.270	0.0179353
668.348	0.0180060
668.426	0.0179494
668.504	0.0179775
668.582	0.0180167
668.660	0.0180191
668.738	0.0180937
668.817	0.0179494
668.895	0.0180555
668.973	0.0180191
669.051	0.0180090
669.129	0.0180975
669.207	0.0180488
669.285	0.0181911
669.363	0.0180157
669.442	0.0179800
669.520	0.0179961
669.598	0.0179225
669.676	0.0179955
669.754	0.0180922
669.832	0.0180277
669.910	0.0181289
669.988	0.0180741
670.067	0.0180859
670.145	0.0180418
670.223	0.0180232
670.301	0.0180376
670.379	0.0180872
670.457	0.0180954
670.535	0.0180259
670.613	0.0180421
670.692	0.0181316
670.770	0.0179794
670.848	0.0180338
670.926	0.0181586
671.004	0.0180418
671.082	0.0180098
671.160	0.0180753
671.238	0.0181414
671.317	0.0180219
671.395	0.0179658
671.473	0.0180446
671.551	0.0180763
671.629	0.0180190
671.707	0.0180666
671.785	0.0180209
671.863	0.0182243
671.942	0.0181928
672.020	0.0181589
672.098	0.0180311
672.176	0.0182220
672.254	0.0181075
672.332	0.0182200
672.410	0.0181155
672.488	0.0180201
672.567	0.0180260
672.645	0.0181942
672.723	0.0180961
672.801	0.0181326
672.879	0.0181082
672.957	0.0180946
673.035	0.0181638
673.113	0.0181917
673.192	0.0180058
673.270	0.0181739
673.348	0.0180567
673.426	0.0180961
673.504	0.0181246
673.582	0.0182497
673.660	0.0181850
673.738	0.0181160
673.817	0.0181657
673.895	0.0180016
673.973	0.0182114
674.051	0.0179597
674.129	0.0181411
674.207	0.0181386
674.285	0.0180675
674.363	0.0180788
674.442	0.0181358
674.520	0.0182690
674.598	0.0179998
674.676	0.0180228
674.754	0.0181770
674.832	0.0181660
674.910	0.0179092
674.988	0.0179945
675.067	0.0180710
675.145	0.0180752
675.223	0.0181789
675.301	0.0180434
675.379	0.0182401
675.457	0.0181461
675.535	0.0180252
675.613	0.0181423
675.692	0.0180713
675.770	0.0180264
675.848	0.0180610
675.926	0.0181479
676.004	0.0181467
676.082	0.0179221
676.160	0.0181286
676.238	0.0179392
676.317	0.0180448
676.395	0.0181545
676.473	0.0181394
676.551	0.0179317
676.629	0.0179741
676.707	0.0181236
676.785	0.0180357
676.863	0.0181746
676.942	0.0179807
677.020	0.0180047
677.098	0.0181057
677.176	0.0180545
677.254	0.0179878
677.332	0.0179629
677.410	0.0181127
677.488	0.0179814
677.567	0.0181602
677.645	0.0178505
677.723	0.0179789
677.801	0.0179559
677.879	0.0179527
677.957	0.0180180
678.035	0.0180103
678.113	0.0180502
678.192	0.0180860
678.270	0.0180914
678.348	0.0182007
678.426	0.0179790
678.504	0.0180358
678.582	0.0180234
678.660	0.0180376
678.738	0.0180885
678.817	0.0181316
678.895	0.0179447
678.973	0.0179444
679.051	0.0181075
679.129	0.0181541
679.207	0.0181180
679.285	0.0179528
679.363	0.0179671
679.442	0.0180729
679.520	0.0181838
679.598	0.0180546
679.676	0.0178945
679.754	0.0180801
679.832	0.0181245
679.910	0.0179037
679.988	0.0178917
680.067	0.0180408
680.145	0.0179787
680.223	0.0180077
680.301	0.0181404
680.379	0.0179837
680.457	0.0181258
680.535	0.0179161
680.613	0.0181138
680.692	0.0181403
680.770	0.0180061
680.848	0.0180524
680.926	0.0181693
681.004	0.0179750
681.082	0.0179849
681.160	0.0180456
681.238	0.0180677
681.317	0.0179355
681.395	0.0180121
681.473	0.0180833
681.551	0.0180444
681.629	0.0179647
681.707	0.0181293
681.785	0.0180360
681.863	0.0180568
681.942	0.0179967
682.020	0.0180679
682.098	0.0178143
682.176	0.0179833
682.254	0.0179861
682.332	0.0178931
682.410	0.0180426
682.488	0.0181010
682.567	0.0179657
682.645	0.0179865
682.723	0.0179711
682.801	0.0181427
682.879	0.0180727
682.957	0.0180656
683.035	0.0179398
683.113	0.0180339
683.192	0.0180768
683.270	0.0181262
683.348	0.0182331
683.426	0.0180442
683.504	0.0180853
683.582	0.0181948
683.660	0.0180868
683.738	0.0180037
683.817	0.0181356
683.895	0.0179700
683.973	0.0179575
684.051	0.0180229
684.129	0.0178718
684.207	0.0180268
684.285	0.0179714
684.363	0.0179369
684.442	0.0179511
684.520	0.0179581
684.598	0.0179510
684.676	0.0179459
684.754	0.0180240
684.832	0.0180014
684.910	0.0178641
684.988	0.0179324
685.067	0.0178955
685.145	0.0178104
685.223	0.0180769
685.301	0.0178342
685.379	0.0179925
685.457	0.0181166
685.535	0.0181659
685.613	0.0181016
685.692	0.0180403
685.770	0.0179158
685.848	0.0180848
685.926	0.0181142
686.004	0.0180183
686.082	0.0179689
686.160	0.0180707
686.238	0.0180545
686.317	0.0179913
686.395	0.0180328
686.473	0.0180708
686.551	0.0181444
686.629	0.0181816
686.707	0.0181613
686.785	0.0180727
686.863	0.0181446
686.942	0.0181750
687.020	0.0181180
687.098	0.0181223
687.176	0.0181689
687.254	0.0180556
687.332	0.0178844
687.410	0.0179094
687.488	0.0180761
687.567	0.0180139
687.645	0.0180223
687.723	0.0178504
687.801	0.0179350
687.879	0.0179351
687.957	0.0180851
688.035	0.0178694
688.113	0.0180289
688.192	0.0181866
688.270	0.0181094
688.348	0.0180951
688.426	0.0181600
688.504	0.0181313
688.582	0.0181734
688.660	0.0179880
688.738	0.0180119
688.817	0.0180126
688.895	0.0178410
688.973	0.0176476
689.051	0.0176003
689.129	0.0175488
689.207	0.0174488
689.285	0.0176023
689.363	0.0176559
689.442	0.0177636
689.520	0.0179014
689.598	0.0179832
689.676	0.0182582
689.754	0.0184960
689.832	0.0188069
689.910	0.0191492
689.988	0.0194009
690.067	0.0196107
690.145	0.0197893
690.223	0.0199822
690.301	0.0199547
690.379	0.0197303
690.457	0.0195370
690.535	0.0192246
690.613	0.0187185
690.692	0.0180330
690.770	0.0174807
690.848	0.0167770
690.926	0.0160438
691.004	0.0154745
691.082	0.0146986
691.160	0.0140966
691.238	0.0136660
691.317	0.0134460
691.395	0.0133529
691.473	0.0133119
691.551	0.0137889
691.629	0.0143176
691.707	0.0151385
691.785	0.0163765
691.863	0.0172929
691.942	0.0187172
692.020	0.0202621
692.098	0.0217273
692.176	0.0233794
692.254	0.0249603
692.332	0.0262518
692.410	0.0274104
692.488	0.0281012
692.567	0.0286259
692.645	0.0283839
692.723	0.0279692
692.801	0.0268301
692.879	0.0252558
692.957	0.0232281
693.035	0.0207903
693.113	0.0179346
693.192	0.0150005
693.270	0.0118790
693.348	0.00895676
693.426	0.00639267
693.504	0.00411812
693.582	0.00235542
693.660	0.00141006
693.738	0.000985718
693.817	0.00103958
693.895	0.00185982
693.973	0.00332550
694.051	0.00539658
694.129	0.00773270
694.207	0.0106322
694.285	0.0139772
694.363	0.0174020
694.442	0.0210163
694.520	0.0244900
694.598	0.0280805
694.676	0.0313280
694.754	0.0344718
694.832	0.0373251
694.910	0.0396277
694.988	0.0412484
695.067	0.0421108
695.145	0.0420892
695.223	0.0414569
695.301	0.0396135
695.379	0.0369849
695.457	0.0335443
695.535	0.0293470
695.613	0.0243925
695.692	0.0189780
695.770	0.0135369
695.848	0.00785103
695.926	0.00279716
696.004	-0.00188728
696.082	-0.00580856
696.160	-0.00888329
696.238	-0.0110690
696.317	-0.0121711
696.395	-0.0121083
696.473	-0.0111143
696.551	-0.00903572
696.629	-0.00602516
696.707	-0.00223900
696.785	0.00221756
696.863	0.00721703
696.942	0.0125589
697.020	0.0178385
697.098	0.0232785
697.176	0.0283753
697.254	0.0330117
697.332	0.0373000
697.410	0.0407594
697.488	0.0433221
697.567	0.0449300
697.645	0.0459569
697.723	0.0457627
697.801	0.0448823
697.879	0.0429403
697.957	0.0403847
698.035	0.0371202
698.113	0.0333357
698.192	0.0292435
698.270	0.0249948
698.348	0.0205759
698.426	0.0161945
698.504	0.0120999
698.582	0.00834404
698.660	0.00506584
698.738	0.00251534
698.817	0.000409775
698.895	-0.000692978
698.973	-0.00139519
699.051	-0.00130165
699.129	-0.000569916
699.207	0.000859451
699.285	0.00263672
699.363	0.00477600
699.442	0.00726364
699.520	0.00986649
699.598	0.0123310
699.676	0.0147857
699.754	0.0170879
699.832	0.0191512
699.910	0.0209689
699.988	0.0223862
700.067	0.0235284
700.145	0.0242896
700.223	0.0248045
700.301	0.0249737
700.379	0.0250687
700.457	0.0247409
700.535	0.0242925
700.613	0.0236641
700.692	0.0229624
700.770	0.0220891
700.848	0.0214111
700.926	0.0207443
701.004	0.0199784
701.082	0.0192428
701.160	0.0186399
701.238	0.0182434
701.317	0.0177611
701.395	0.0175211
701.473	0.0175486
701.551	0.0175600
701.629	0.0177239
701.707	0.0181285
701.785	0.0186998
701.863	0.0189600
701.942	0.0196404
702.020	0.0201942
702.098	0.0204896
702.176	0.0209290
702.254	0.0212877
702.332	0.0212054
702.410	0.0212152
702.488	0.0210843
702.567	0.0207618
702.645	0.0203094
702.723	0.0197910
702.801	0.0194099
702.879	0.0187238
702.957	0.0182102
703.035	0.0174684
703.113	0.0169205
703.192	0.0165166
703.270	0.0160017
703.348	0.0154358
703.426	0.0150185
703.504	0.0144427
703.582	0.0139981
703.660	0.0135434
703.738	0.0130952
703.817	0.0127686
703.895	0.0124604
703.973	0.0124398
704.051	0.0124301
704.129	0.0123295
704.207	0.0127557
704.285	0.0131333
704.363	0.0136565
704.442	0.0143188
704.520	0.0149651
704.598	0.0158885
704.676	0.0167066
704.754	0.0174113
704.832	0.0182011
704.910	0.0191602
704.988	0.0199362
705.067	0.0207351
705.145	0.0215215
705.223	0.0220181
705.301	0.0224328
705.379	0.0229533
705.457	0.0232534
705.535	0.0235094
705.613	0.0234671
705.692	0.0236449
705.770	0.0236533
705.848	0.0233811
705.926	0.0230433
706.004	0.0223559
706.082	0.0218632
706.160	0.0210283
706.238	0.0200182
706.317	0.0190668
706.395	0.0183154
706.473	0.0173294
706.551	0.0165650
706.629	0.0160178
706.707	0.0155291
706.785	0.0151598
706.863	0.0149271
706.942	0.0149984
707.020	0.0151807
707.098	0.0151906
707.176	0.0156622
707.254	0.0160688
707.332	0.0164216
707.410	0.0167930
707.488	0.0172058
707.567	0.0177037
707.645	0.0180052
707.723	0.0182300
707.801	0.0183650
707.879	0.0184986
707.957	0.0184710
708.035	0.0184059
708.113	0.0184644
708.192	0.0181634
708.270	0.0179398
708.348	0.0176245
708.426	0.0173409
708.504	0.0170941
708.582	0.0167162
708.660	0.0164114
708.738	0.0163212
708.817	0.0160764
708.895	0.0160107
708.973	0.0158989
709.051	0.0157128
709.129	0.0156820
709.207	0.0159955
709.285	0.0159485
709.363	0.0160869
709.442	0.0163333
709.520	0.0166454
709.598	0.0169824
709.676	0.0173109
709.754	0.0176004
709.832	0.0180817
709.910	0.0185741
709.988	0.0190258
710.067	0.0194580
710.145	0.0198765
710.223	0.0201720
710.301	0.0204353
710.379	0.0206778
710.457	0.0207063
710.535	0.0207404
710.613	0.0206068
710.692	0.0204338
710.770	0.0203388
710.848	0.0198884
710.926	0.0195351
711.004	0.0191639
711.082	0.0189931
711.160	0.0185778
711.238	0.0183552
711.317	0.0181926
711.395	0.0181595
711.473	0.0181098
711.551	0.0180325
711.629	0.0180849
711.707	0.0181532
711.785	0.0185148
711.863	0.0185764
711.942	0.0187049
712.020	0.0188525
712.098	0.0191608
712.176	0.0192763
712.254	0.0193271
712.332	0.0193593
712.410	0.0193408
712.488	0.0190320
712.567	0.0188508
712.645	0.0186487
712.723	0.0183180
712.801	0.0178617
712.879	0.0174982
712.957	0.0171387
713.035	0.0166228
713.113	0.0162244
713.192	0.0157431
713.270	0.0153497
713.348	0.0150748
713.426	0.0146878
713.504	0.0146217
713.582	0.0144625
713.660	0.0144518
713.738	0.0145797
713.817	0.0147924
713.895	0.0149609
713.973	0.0153691
714.051	0.0157139
714.129	0.0160729
714.207	0.0165749
714.285	0.0171694
714.363	0.0177222
714.442	0.0182687
714.520	0.0187746
714.598	0.0191065
714.676	0.0196362
714.754	0.0198383
714.832	0.0201184
714.910	0.0202969
714.988	0.0203197
715.067	0.0203383
715.145	0.0203664
715.223	0.0201582
715.301	0.0201082
715.379	0.0199114
715.457	0.0195724
715.535	0.0194569
715.613	0.0192011
715.692	0.0190498
715.770	0.0188216
715.848	0.0186182
715.926	0.0183382
716.004	0.0181606
716.082	0.0180309
716.160	0.0178308
716.238	0.0176513
716.317	0.0175617
716.395	0.0175983
716.473	0.0175758
716.551	0.0176555
716.629	0.0178034
716.707	0.0178733
716.785	0.0180352
716.863	0.0181630
716.942	0.0184770
717.020	0.0186930
717.098	0.0187772
717.176	0.0187377
717.254	0.0188161
717.332	0.0190182
717.410	0.0188523
717.488	0.0188295
717.567	0.0187855
717.645	0.0185495
717.723	0.0184998
717.801	0.0184906
717.879	0.0181956
717.957	0.0179179
718.035	0.0178107
718.113	0.0174976
718.192	0.0172306
718.270	0.0169804
718.348	0.0167397
718.426	0.0166454
718.504	0.0163766
718.582	0.0162589
718.660	0.0162822
718.738	0.0161610
718.817	0.0161351
718.895	0.0164176
718.973	0.0164494
719.051	0.0163726
719.129	0.0164284
719.207	0.0164574
719.285	0.0166689
719.363	0.0168571
719.442	0.0169584
719.520	0.0171466
719.598	0.0173520
719.676	0.0177106
719.754	0.0176256
719.832	0.0180205
719.910	0.0182147
719.988	0.0185030
720.067	0.0186415
720.145	0.0186919
720.223	0.0188285
720.301	0.0189303
720.379	0.0190089
720.457	0.0189883
720.535	0.0191623
720.613	0.0192587
720.692	0.0192884
720.770	0.0191025
720.848	0.0192449
720.926	0.0193306
721.004	0.0192149
721.082	0.0190927
721.160	0.0190826
721.238	0.0190607
721.317	0.0187734
721.395	0.0185366
721.473	0.0184531
721.551	0.0182552
721.629	0.0180962
721.707	0.0178720
721.785	0.0176889
721.863	0.0175762
721.942	0.0175647
722.020	0.0174804
722.098	0.0176748
722.176	0.0176443
722.254	0.0177367
722.332	0.0178049
722.410	0.0177752
722.488	0.0179532
722.567	0.0179990
722.645	0.0181624
722.723	0.0182271
722.801	0.0182961
722.879	0.0184882
722.957	0.0185217
723.035	0.0185804
723.113	0.0186364
723.192	0.0187362
723.270	0.0186388
723.348	0.0185783
723.426	0.0185803
723.504	0.0184584
723.582	0.0182221
723.660	0.0181963
723.738	0.0179580
723.817	0.0178255
723.895	0.0173503
723.973	0.0171964
724.051	0.0172122
724.129	0.0169607
724.207	0.0167232
724.285	0.0166199
724.363	0.0164405
724.442	0.0163891
724.520	0.0164801
724.598	0.0165845
724.676	0.0165772
724.754	0.0168093
724.832	0.0169871
724.910	0.0173446
724.988	0.0176418
725.067	0.0176864
725.145	0.0180803
725.223	0.0184567
725.301	0.0184881
725.379	0.0187499
725.457	0.0189539
725.535	0.0192195
725.613	0.0193203
725.692	0.0193141
725.770	0.0192743
725.848	0.0192173
725.926	0.0191895
726.004	0.0190703
726.082	0.0188331
726.160	0.0185046
726.238	0.0181810
726.317	0.0179895
726.395	0.0178885
726.473	0.0177952
726.551	0.0175536
726.629	0.0174280
726.707	0.0173140
726.785	0.0175337
726.863	0.0175330
726.942	0.0175141
727.020	0.0175972
727.098	0.0176944
727.176	0.0178535
727.254	0.0179781
727.332	0.0180608
727.410	0.0182619
727.488	0.0183076
727.567	0.0184453
727.645	0.0184675
727.723	0.0188687
727.801	0.0187360
727.879	0.0188521
727.957	0.0188204
728.035	0.0186917
728.113	0.0188708
728.192	0.0188956
728.270	0.0189821
728.348	0.0187809
728.426	0.0186115
728.504	0.0184888
728.582	0.0184515
728.660	0.0182503
728.738	0.0180237
728.817	0.0180148
728.895	0.0178574
728.973	0.0175031
729.051	0.0172239
729.129	0.0173127
729.207	0.0171543
729.285	0.0170477
729.363	0.0167001
729.442	0.0166228
729.520	0.0165220
729.598	0.0164756
729.676	0.0166259
729.754	0.0167078
729.832	0.0167419
729.910	0.0169173
729.988	0.0170832
730.067	0.0173209
730.145	0.0175523
730.223	0.0178846
730.301	0.0182841
730.379	0.0184374
730.457	0.0186359
730.535	0.0188313
730.613	0.0190346
730.692	0.0189749
730.770	0.0190215
730.848	0.0191724
730.926	0.0190766
731.004	0.0190080
731.082	0.0187701
731.160	0.0186952
731.238	0.0185641
731.317	0.0185665
731.395	0.0183154
731.473	0.0179668
731.551	0.0179745
731.629	0.0179021
731.707	0.0177414
731.785	0.0176690
731.863	0.0175849
731.942	0.0176315
732.020	0.0173692
732.098	0.0173754
732.176	0.0172902
732.254	0.0173987
732.332	0.0173338
732.410	0.0171404
732.488	0.0173712
732.567	0.0175272
732.645	0.0174283
732.723	0.0175282
732.801	0.0175721
732.879	0.0178945
732.957	0.0181095
733.035	0.0179685
733.113	0.0182191
733.192	0.0182301
733.270	0.0181503
733.348	0.0183581
733.426	0.0184400
733.504	0.0184517
733.582	0.0185432
733.660	0.0184474
733.738	0.0184887
733.817	0.0183994
733.895	0.0183612
733.973	0.0183759
734.051	0.0183792
734.129	0.0182862
734.207	0.0179000
734.285	0.0179742
734.363	0.0179704
734.442	0.0178742
734.520	0.0178209
734.598	0.0177300
734.676	0.0174936
734.754	0.0174218
734.832	0.0173979
734.910	0.0172630
734.988	0.0171778
735.067	0.0172954
735.145	0.0173232
735.223	0.0172777
735.301	0.0174535
735.379	0.0173955
735.457	0.0176098
735.535	0.0177434
735.613	0.0179434
735.692	0.0180737
735.770	0.0181086
735.848	0.0184118
735.926	0.0185144
736.004	0.0186975
736.082	0.0187787
736.160	0.0189295
736.238	0.0188154
736.317	0.0188976
736.395	0.0189127
736.473	0.0189498
736.551	0.0188115
736.629	0.0187167
736.707	0.0185237
736.785	0.0184919
736.863	0.0184421
736.942	0.0183306
737.020	0.0181509
737.098	0.0179103
737.176	0.0181576
737.254	0.0180650
737.332	0.0178928
737.410	0.0176912
737.488	0.0176257
737.567	0.0174636
737.645	0.0174656
737.723	0.0173733
737.801	0.0173875
737.879	0.0175238
737.957	0.0174580
738.035	0.0173032
738.113	0.0173286
738.192	0.0172955
738.270	0.0174561
738.348	0.0175359
738.426	0.0178207
738.504	0.0177557
738.582	0.0179073
738.660	0.0181395
738.738	0.0182392
738.817	0.0183356
738.895	0.0185834
738.973	0.0185744
739.051	0.0188858
739.129	0.0188271
739.207	0.0188361
739.285	0.0188011
739.363	0.0188110
739.442	0.0187131
739.520	0.0186428
739.598	0.0185915
739.676	0.0184156
739.754	0.0184121
739.832	0.0182391
739.910	0.0181002
739.988	0.0178433
740.067	0.0177733
740.145	0.0175491
740.223	0.0174593
740.301	0.0172461
740.379	0.0170972
740.457	0.0170000
740.535	0.0170197
740.613	0.0168871
740.692	0.0168810
740.770	0.0169520
740.848	0.0170052
740.926	0.0170886
741.004	0.0170487
741.082	0.0170628
741.160	0.0173937
741.238	0.0174304
741.317	0.0178263
741.395	0.0180668
741.473	0.0181438
741.551	0.0181599
741.629	0.0185252
741.707	0.0186684
741.785	0.0187694
741.863	0.0189352
741.942	0.0190603
742.020	0.0190229
742.098	0.0190752
742.176	0.0189957
742.254	0.0190324
742.332	0.0189400
742.410	0.0188406
742.488	0.0187653
742.567	0.0186092
742.645	0.0183121
742.723	0.0180282
742.801	0.0179840
742.879	0.0177916
742.957	0.0175061
743.035	0.0175163
743.113	0.0172749
743.192	0.0170939
743.270	0.0170915
743.348	0.0172098
743.426	0.0172273
743.504	0.0172352
743.582	0.0173954
743.660	0.0177129
743.738	0.0178815
743.817	0.0178102
743.895	0.0180829
743.973	0.0183045
744.051	0.0185123
744.129	0.0185122
744.207	0.0185973
744.285	0.0189213
744.363	0.0188734
744.442	0.0188426
744.520	0.0189594
744.598	0.0188069
744.676	0.0188168
744.754	0.0188201
744.832	0.0186338
744.910	0.0185350
744.988	0.0183698
745.067	0.0184387
745.145	0.0181376
745.223	0.0179634
745.301	0.0180273
745.379	0.0176995
745.457	0.0176254
745.535	0.0175560
745.613	0.0173400
745.692	0.0171667
745.770	0.0170922
745.848	0.0169707
745.926	0.0168977
746.004	0.0168944
746.082	0.0168827
746.160	0.0169560
746.238	0.0168997
746.317	0.0171507
746.395	0.0173561
746.473	0.0175012
746.551	0.0174149
746.629	0.0176381
746.707	0.0177792
746.785	0.0180118
746.863	0.0181956
746.942	0.0182913
747.020	0.0182596
747.098	0.0184428
747.176	0.0185261
747.254	0.0184875
747.332	0.0186615
747.410	0.0187357
747.488	0.0186778
747.567	0.0187104
747.645	0.0187599
747.723	0.0186536
747.801	0.0186682
747.879	0.0188467
747.957	0.0185815
748.035	0.0185481
748.113	0.0184771
748.192	0.0183965
748.270	0.0182344
748.348	0.0182507
748.426	0.0180800
748.504	0.0178591
748.582	0.0178661
748.660	0.0178155
748.738	0.0176991
748.817	0.0175777
748.895	0.0174719
748.973	0.0175669
749.051	0.0175788
749.129	0.0174693
749.207	0.0175544
749.285	0.0175586
749.363	0.0177332
749.442	0.0178209
749.520	0.0178565
749.598	0.0179132
749.676	0.0180899
749.754	0.0183050
749.832	0.0183099
749.910	0.0184665
749.988	0.0186203
750.067	0.0187692
750.145	0.0189306
750.223	0.0188536
750.301	0.0190195
750.379	0.0189802
750.457	0.0189812
750.535	0.0189223
750.613	0.0189149
750.692	0.0188042
750.770	0.0186674
750.848	0.0184212
750.926	0.0183369
751.004	0.0180500
751.082	0.0180322
751.160	0.0177991
751.238	0.0177684
751.317	0.0175490
751.395	0.0174081
751.473	0.0173949
751.551	0.0174626
751.629	0.0174506
751.707	0.0174048
751.785	0.0175179
751.863	0.0174340
751.942	0.0174093
752.020	0.0175723
752.098	0.0176502
752.176	0.0175530
752.254	0.0177757
752.332	0.0178585
752.410	0.0179508
752.488	0.0179997
752.567	0.0180907
752.645	0.0182779
752.723	0.0182368
752.801	0.0184628
752.879	0.0183846
752.957	0.0183925
753.035	0.0185384
753.113	0.0184344
753.192	0.0183222
753.270	0.0183319
753.348	0.0181702
753.426	0.0181685
753.504	0.0180605
753.582	0.0178011
753.660	0.0177145
753.738	0.0176943
753.817	0.0176826
753.895	0.0174238
753.973	0.0173556
754.051	0.0172591
754.129	0.0172155
754.207	0.0173819
754.285	0.0174770
754.363	0.0178120
754.442	0.0177779
754.520	0.0178516
754.598	0.0179517
754.676	0.0181502
754.754	0.0182227
754.832	0.0183449
754.910	0.0185275
754.988	0.0184475
755.067	0.0185541
755.145	0.0185284
755.223	0.0185921
755.301	0.0185548
755.379	0.0185123
755.457	0.0184485
755.535	0.0184203
755.613	0.0182854
755.692	0.0181847
755.770	0.0180779
755.848	0.0180708
755.926	0.0180566
756.004	0.0178682
756.082	0.0179067
756.160	0.0177731
756.238	0.0177349
756.317	0.0178533
756.395	0.0177306
756.473	0.0177750
756.551	0.0176948
756.629	0.0178544
756.707	0.0177058
756.785	0.0177904
756.863	0.0177992
756.942	0.0177616
757.020	0.0179171
757.098	0.0177452
757.176	0.0178630
757.254	0.0179675
757.332	0.0180889
757.410	0.0180997
757.488	0.0181467
757.567	0.0183085
757.645	0.0184023
757.723	0.0183536
757.801	0.0185216
757.879	0.0185382
757.957	0.0184974
758.035	0.0185923
758.113	0.0185181
758.192	0.0186429
758.270	0.0185297
758.348	0.0183797
758.426	0.0185285
758.504	0.0184357
758.582	0.0182185
758.660	0.0182548
758.738	0.0182993
758.817	0.0181384
758.895	0.0180499
758.973	0.0178485
759.051	0.0178246
759.129	0.0178434
759.207	0.0177277
759.285	0.0175861
759.363	0.0175584
759.442	0.0176896
759.520	0.0175915
759.598	0.0175885
759.676	0.0176457
759.754	0.0176515
759.832	0.0177560
759.910	0.0177705
759.988	0.0178593
760.067	0.0177979
760.145	0.0178916
760.223	0.0179189
760.301	0.0178779
760.379	0.0179165
760.457	0.0179671
760.535	0.0181031
760.613	0.0180214
760.692	0.0181605
760.770	0.0180378
760.848	0.0180800
760.926	0.0181739
761.004	0.0181379
761.082	0.0182691
761.160	0.0183125
761.238	0.0183542
761.317	0.0182933
761.395	0.0181892
761.473	0.0182732
761.551	0.0181941
761.629	0.0181034
761.707	0.0180095
761.785	0.0180331
761.863	0.0179413
761.942	0.0177399
762.020	0.0177666
762.098	0.0176898
762.176	0.0177621
762.254	0.0176642
762.332	0.0175529
762.410	0.0177097
762.488	0.0175654
762.567	0.0177923
762.645	0.0176997
762.723	0.0176785
762.801	0.0179259
762.879	0.0179505
762.957	0.0179559
763.035	0.0181621
763.113	0.0181111
763.192	0.0181792
763.270	0.0183574
763.348	0.0185419
763.426	0.0186723
763.504	0.0185887
763.582	0.0185345
763.660	0.0185358
763.738	0.0185804
763.817	0.0186475
763.895	0.0185985
763.973	0.0185777
764.051	0.0184968
764.129	0.0183524
764.207	0.0183202
764.285	0.0183029
764.363	0.0181698
764.442	0.0178513
764.520	0.0177738
764.598	0.0177975
764.676	0.0176957
764.754	0.0177670
764.832	0.0175873
764.910	0.0176145
764.988	0.0176928
765.067	0.0176256
765.145	0.0176804
765.223	0.0176699
765.301	0.0176830
765.379	0.0177684
765.457	0.0178562
765.535	0.0178793
765.613	0.0177967
765.692	0.0178098
765.770	0.0179028
765.848	0.0179833
765.926	0.0179837
766.004	0.0179918
766.082	0.0179378
766.160	0.0181712
766.238	0.0181693
766.317	0.0181757
766.395	0.0183359
766.473	0.0182995
766.551	0.0183115
766.629	0.0184590
766.707	0.0184286
766.785	0.0183712
766.863	0.0183363
766.942	0.0183454
767.020	0.0182570
767.098	0.0180920
767.176	0.0179655
767.254	0.0180577
767.332	0.0179325
767.410	0.0178186
767.488	0.0178532
767.567	0.0177670
767.645	0.0177803
767.723	0.0176144
767.801	0.0177065
767.879	0.0177309
767.957	0.0175250
768.035	0.0176832
768.113	0.0176808
768.192	0.0176813
768.270	0.0175956
768.348	0.0178352
768.426	0.0177802
768.504	0.0178776
768.582	0.0180302
768.660	0.0180045
768.738	0.0179911
768.817	0.0180373
768.895	0.0182236
768.973	0.0181642
769.051	0.0182356
769.129	0.0184281
769.207	0.0183458
769.285	0.0182320
769.363	0.0182214
769.442	0.0184420
769.520	0.0184673
769.598	0.0183091
769.676	0.0180957
769.754	0.0180938
769.832	0.0180798
769.910	0.0180275
769.988	0.0179942
770.067	0.0179451
770.145	0.0179069
770.223	0.0177594
770.301	0.0178819
770.379	0.0180655
770.457	0.0178593
770.535	0.0178961
770.613	0.0180055
770.692	0.0180708
770.770	0.0179781
770.848	0.0179914
770.926	0.0179860
771.004	0.0181150
771.082	0.0180360
771.160	0.0182936
771.238	0.0182725
771.317	0.0182426
771.395	0.0182728
771.473	0.0184972
771.551	0.0183165
771.629	0.0183294
771.707	0.0184030
771.785	0.0185220
771.863	0.0184180
771.942	0.0183939
772.020	0.0183880
772.098	0.0183275
772.176	0.0182175
772.254	0.0182782
772.332	0.0181243
772.410	0.0181455
772.488	0.0179954
772.567	0.0180537
772.645	0.0178912
772.723	0.0179186
772.801	0.0177030
772.879	0.0176960
772.957	0.0178052
773.035	0.0177811
773.113	0.0178046
773.192	0.0178342
773.270	0.0177235
773.348	0.0177737
773.426	0.0178081
773.504	0.0178570
773.582	0.0179900
773.660	0.0179405
773.738	0.0180006
773.817	0.0182062
773.895	0.0180698
773.973	0.0181583
774.051	0.0181874
774.129	0.0183111
774.207	0.0182349
774.285	0.0182181
774.363	0.0181555
774.442	0.0181233
774.520	0.0181896
774.598	0.0181012
774.676	0.0180072
774.754	0.0179322
774.832	0.0179322
774.910	0.0179092
774.988	0.0177889
775.067	0.0178798
775.145	0.0176208
775.223	0.0176809
775.301	0.0176731
775.379	0.0178210
775.457	0.0177342
775.535	0.0176568
775.613	0.0178141
775.692	0.0178510
775.770	0.0177880
775.848	0.0180441
775.926	0.0181180
776.004	0.0181259
776.082	0.0181652
776.160	0.0183028
776.238	0.0184579
776.317	0.0184811
776.395	0.0182850
776.473	0.0183697
776.551	0.0183747
776.629	0.0184564
776.707	0.0183849
776.785	0.0183442
776.863	0.0184204
776.942	0.0184916
777.020	0.0183320
777.098	0.0183568
777.176	0.0181460
777.254	0.0180851
777.332	0.0181035
777.410	0.0180574
777.488	0.0179619
777.567	0.0179903
777.645	0.0177934
777.723	0.0177837
777.801	0.0177943
777.879	0.0179072
777.957	0.0178973
778.035	0.0178342
778.113	0.0178639
778.192	0.0179668
778.270	0.0178299
778.348	0.0178515
778.426	0.0179248
778.504	0.0179443
778.582	0.0179648
778.660	0.0180726
778.738	0.0180813
778.817	0.0179833
778.895	0.0181104
778.973	0.0182802
779.051	0.0181418
779.129	0.0180363
779.207	0.0181899
779.285	0.0182820
779.363	0.0182365
779.442	0.0182191
779.520	0.0182679
779.598	0.0183473
779.676	0.0182042
779.754	0.0181768
779.832	0.0181363
779.910	0.0182331
779.988	0.0182450
780.067	0.0182763
780.145	0.0182737
780.223	0.0181649
780.301	0.0181602
780.379	0.0180213
780.457	0.0180849
780.535	0.0179809
780.613	0.0180592
780.692	0.0179124
780.770	0.0178095
780.848	0.0178983
780.926	0.0179214
781.004	0.0179000
781.082	0.0179133
781.160	0.0178837
781.238	0.0177782
781.317	0.0178497
781.395	0.0179030
781.473	0.0179218
781.551	0.0180141
781.629	0.0179659
781.707	0.0180394
781.785	0.0180025
781.863	0.0179203
781.942	0.0180756
782.020	0.0178426
782.098	0.0180128
782.176	0.0180546
782.254	0.0180983
782.332	0.0179958
782.410	0.0179860
782.488	0.0180795
782.567	0.0179992
782.645	0.0180753
782.723	0.0180283
782.801	0.0180327
782.879	0.0179649
782.957	0.0178092
783.035	0.0178603
783.113	0.0178604
783.192	0.0178053
783.270	0.0176015
783.348	0.0177319
783.426	0.0176718
783.504	0.0177476
783.582	0.0177254
783.660	0.0178269
783.738	0.0176389
783.817	0.0177920
783.895	0.0178957
783.973	0.0176778
784.051	0.0178648
784.129	0.0179472
784.207	0.0179894
784.285	0.0178799
784.363	0.0180608
784.442	0.0181747
784.520	0.0181118
784.598	0.0180930
784.676	0.0180235
784.754	0.0181378
784.832	0.0181326
784.910	0.0182076
784.988	0.0182175
785.067	0.0181751
785.145	0.0182467
785.223	0.0182904
785.301	0.0182726
785.379	0.0182424
785.457	0.0181983
785.535	0.0182738
785.613	0.0180981
785.692	0.0182769
785.770	0.0180618
785.848	0.0181584
785.926	0.0181606
786.004	0.0181333
786.082	0.0181077
786.160	0.0180483
786.238	0.0181215
786.317	0.0178823
786.395	0.0180077
786.473	0.0179212
786.551	0.0180004
786.629	0.0179347
786.707	0.0177590
786.785	0.0178078
786.863	0.0177448
786.942	0.0176405
787.020	0.0175992
787.098	0.0175079
787.176	0.0175600
787.254	0.0176202
787.332	0.0174841
787.410	0.0174844
787.488	0.0175640
787.567	0.0176767
787.645	0.0175504
787.723	0.0176433
787.801	0.0177198
787.879	0.0176673
787.957	0.0176357
788.035	0.0176613
788.113	0.0177386
788.192	0.0179654
788.270	0.0180466
788.348	0.0180751
788.426	0.0181979
788.504	0.0184205
788.582	0.0183804
788.660	0.0185537
788.738	0.0185521
788.817	0.0187296
788.895	0.0187363
788.973	0.0188174
789.051	0.0188487
789.129	0.0187962
789.207	0.0186418
789.285	0.0188023
789.363	0.0186347
789.442	0.0184119
789.520	0.0183396
789.598	0.0181514
789.676	0.0180352
789.754	0.0177787
789.832	0.0174542
789.910	0.0172746
789.988	0.0172293
790.067	0.0169246
790.145	0.0168549
790.223	0.0167989
790.301	0.0165974
790.379	0.0164837
790.457	0.0165674
790.535	0.0167250
790.613	0.0166876
790.692	0.0168996
790.770	0.0170971
790.848	0.0172051
790.926	0.0177103
791.004	0.0181194
791.082	0.0181732
791.160	0.0185793
791.238	0.0189870
791.317	0.0193378
791.395	0.0195332
791.473	0.0197124
791.551	0.0198480
791.629	0.0198869
791.707	0.0198698
791.785	0.0197455
791.863	0.0195332
791.942	0.0192931
792.020	0.0191528
792.098	0.0186100
792.176	0.0182687
792.254	0.0178919
792.332	0.0175455
792.410	0.0172447
792.488	0.0169492
792.567	0.0166941
792.645	0.0163282
792.723	0.0160839
792.801	0.0159230
792.879	0.0157934
792.957	0.0158052
793.035	0.0159465
793.113	0.0160910
793.192	0.0160974
793.270	0.0162489
793.348	0.0166152
793.426	0.0169698
793.504	0.0173105
793.582	0.0176290
793.660	0.0178371
793.738	0.0184951
793.817	0.0188760
793.895	0.0191856
793.973	0.0193951
794.051	0.0196360
794.129	0.0197674
794.207	0.0199559
794.285	0.0203270
794.363	0.0201780
794.442	0.0200996
794.520	0.0198275
794.598	0.0199368
794.676	0.0197797
794.754	0.0195090
794.832	0.0192661
794.910	0.0189822
794.988	0.0187222
795.067	0.0184943
795.145	0.0182162
795.223	0.0179731
795.301	0.0176687
795.379	0.0175250
795.457	0.0175052
795.535	0.0173878
795.613	0.0170387
795.692	0.0169160
795.770	0.0167611
795.848	0.0167630
795.926	0.0166672
796.004	0.0166232
796.082	0.0166647
796.160	0.0167659
796.238	0.0168083
796.317	0.0167950
796.395	0.0168595
796.473	0.0169283
796.551	0.0168647
796.629	0.0171591
796.707	0.0174858
796.785	0.0176521
796.863	0.0177542
796.942	0.0179232
797.020	0.0180781
797.098	0.0183641
797.176	0.0184266
797.254	0.0185744
797.332	0.0187300
797.410	0.0187326
797.488	0.0188068
797.567	0.0189851
797.645	0.0189921
797.723	0.0188167
797.801	0.0188127
797.879	0.0188030
797.957	0.0188009
798.035	0.0188432
798.113	0.0187202
798.192	0.0185913
798.270	0.0185090
798.348	0.0182156
798.426	0.0181866
798.504	0.0182351
798.582	0.0180853
798.660	0.0179436
798.738	0.0177708
798.817	0.0177900
798.895	0.0176798
798.973	0.0175432
799.051	0.0176518
799.129	0.0175352
799.207	0.0175444
799.285	0.0176598
799.363	0.0176511
799.442	0.0176574
799.520	0.0176591
799.598	0.0176804
799.676	0.0177332
799.754	0.0178815
799.832	0.0180219
799.910	0.0180718
799.988	0.0180366
800.067	0.0182516
800.145	0.0181493
800.223	0.0180573
800.301	0.0179586
800.379	0.0179876
800.457	0.0180183
800.535	0.0179404
800.613	0.0181023
800.692	0.0179343
800.770	0.0177553
800.848	0.0178238
800.926	0.0178305
801.004	0.0179546
801.082	0.0179673
801.160	0.0179188
801.238	0.0179923
801.317	0.0179627
801.395	0.0180064
801.473	0.0180103
801.551	0.0178745
801.629	0.0181084
801.707	0.0181287
801.785	0.0181512
801.863	0.0180996
801.942	0.0183197
802.020	0.0182924
802.098	0.0184050
802.176	0.0185297
802.254	0.0186012
802.332	0.0186182
802.410	0.0186754
802.488	0.0186895
802.567	0.0185720
802.645	0.0185490
802.723	0.0187644
802.801	0.0184531
802.879	0.0184206
802.957	0.0182893
803.035	0.0181382
803.113	0.0182020
803.192	0.0180518
803.270	0.0179724
803.348	0.0181316
803.426	0.0178628
803.504	0.0180163
803.582	0.0179440
803.660	0.0178971
803.738	0.0180145
803.817	0.0178725
803.895	0.0178234
803.973	0.0179391
804.051	0.0180620
804.129	0.0178832
804.207	0.0178257
804.285	0.0178807
804.363	0.0179485
804.442	0.0178971
804.520	0.0179627
804.598	0.0178442
804.676	0.0179413
804.754	0.0178519
804.832	0.0177418
804.910	0.0177227
804.988	0.0177294
805.067	0.0175076
805.145	0.0175233
805.223	0.0176257
805.301	0.0174644
805.379	0.0173999
805.457	0.0173078
805.535	0.0172932
805.613	0.0172218
805.692	0.0173136
805.770	0.0174661
805.848	0.0173127
805.926	0.0173595
806.004	0.0173747
806.082	0.0175110
806.160	0.0175501
806.238	0.0178257
806.317	0.0178474
806.395	0.0178587
806.473	0.0181024
806.551	0.0181625
806.629	0.0182285
806.707	0.0182645
806.785	0.0183070
806.863	0.0183334
806.942	0.0185846
807.020	0.0186613
807.098	0.0186304
807.176	0.0186830
807.254	0.0186720
807.332	0.0187341
807.410	0.0187899
807.488	0.0185223
807.567	0.0185713
807.645	0.0185159
807.723	0.0185865
807.801	0.0183532
807.879	0.0182137
807.957	0.0181274
808.035	0.0181332
808.113	0.0181982
808.192	0.0181116
808.270	0.0181011
808.348	0.0181060
808.426	0.0179595
808.504	0.0178824
808.582	0.0179366
808.660	0.0179993
808.738	0.0179518
808.817	0.0179717
808.895	0.0180864
808.973	0.0180409
809.051	0.0180617
809.129	0.0179930
809.207	0.0179067
809.285	0.0180202
809.363	0.0180962
809.442	0.0180162
809.520	0.0178619
809.598	0.0178466
809.676	0.0178563
809.754	0.0178283
809.832	0.0178295
809.910	0.0177821
809.988	0.0178349
810.067	0.0176780
810.145	0.0177693
810.223	0.0178183
810.301	0.0178592
810.379	0.0178102
810.457	0.0179565
810.535	0.0179288
810.613	0.0178200
810.692	0.0178947
810.770	0.0179961
810.848	0.0180776
810.926	0.0181491
811.004	0.0179909
811.082	0.0181464
811.160	0.0180946
811.238	0.0181318
811.317	0.0182519
811.395	0.0182831
811.473	0.0181939
811.551	0.0182127
811.629	0.0182355
811.707	0.0181459
811.785	0.0183299
811.863	0.0183216
811.942	0.0182887
812.020	0.0182228
812.098	0.0181250
812.176	0.0181288
812.254	0.0183057
812.332	0.0181396
812.410	0.0181569
812.488	0.0181657
812.567	0.0180777
812.645	0.0180363
812.723	0.0179781
812.801	0.0178065
812.879	0.0179096
812.957	0.0178580
813.035	0.0179313
813.113	0.0180168
813.192	0.0180888
813.270	0.0179002
813.348	0.0178720
813.426	0.0179746
813.504	0.0180414
813.582	0.0180501
813.660	0.0180332
813.738	0.0180112
813.817	0.0181277
813.895	0.0181555
813.973	0.0180526
814.051	0.0179416
814.129	0.0179118
814.207	0.0180507
814.285	0.0180241
814.363	0.0179941
814.442	0.0180370
814.520	0.0177660
814.598	0.0178246
814.676	0.0177766
814.754	0.0178728
814.832	0.0177892
814.910	0.0178870
814.988	0.0177504
815.067	0.0175742
815.145	0.0177763
815.223	0.0177454
815.301	0.0177528
815.379	0.0177728
815.457	0.0177043
815.535	0.0176659
815.613	0.0177938
815.692	0.0178712
815.770	0.0178123
815.848	0.0178368
815.926	0.0177976
816.004	0.0178894
816.082	0.0179461
816.160	0.0178427
816.238	0.0177719
816.317	0.0180138
816.395	0.0178210
816.473	0.0178275
816.551	0.0178417
816.629	0.0180679
816.707	0.0181276
816.785	0.0181432
816.863	0.0181348
816.942	0.0180905
817.020	0.0181473
817.098	0.0182510
817.176	0.0183548
817.254	0.0183765
817.332	0.0182793
817.410	0.0184566
817.488	0.0183994
817.567	0.0184236
817.645	0.0184225
817.723	0.0181767
817.801	0.0181318
817.879	0.0182549
817.957	0.0180858
818.035	0.0180299
818.113	0.0181013
818.192	0.0179867
818.270	0.0177479
818.348	0.0178947
818.426	0.0179482
818.504	0.0179506
818.582	0.0180135
818.660	0.0181021
818.738	0.0181696
818.817	0.0182446
818.895	0.0181724
818.973	0.0182356
819.051	0.0184604
819.129	0.0183340
819.207	0.0184182
819.285	0.0184448
819.363	0.0185764
819.442	0.0185892
819.520	0.0184903
819.598	0.0183470
819.676	0.0183412
819.754	0.0181731
819.832	0.0182133
819.910	0.0180540
819.988	0.0179219
820.067	0.0177060
820.145	0.0174908
820.223	0.0174957
820.301	0.0172356
820.379	0.0172304
820.457	0.0169767
820.535	0.0169817
820.613	0.0170425
820.692	0.0168924
820.770	0.0169392
820.848	0.0168843
820.926	0.0170157
821.004	0.0170858
821.082	0.0171375
821.160	0.0172562
821.238	0.0175462
821.317	0.0177152
821.395	0.0177363
821.473	0.0178436
821.551	0.0180331
821.629	0.0182117
821.707	0.0182265
821.785	0.0184409
821.863	0.0184219
821.942	0.0185786
822.020	0.0185146
822.098	0.0185041
822.176	0.0185644
822.254	0.0185709
822.332	0.0184657
822.410	0.0184909
822.488	0.0183524
822.567	0.0183814
822.645	0.0182368
822.723	0.0182748
822.801	0.0182352
822.879	0.0179746
822.957	0.0179205
823.035	0.0179778
823.113	0.0180302
823.192	0.0179557
823.270	0.0178514
823.348	0.0179400
823.426	0.0179839
823.504	0.0181040
823.582	0.0179768
823.660	0.0179927
823.738	0.0181166
823.817	0.0181639
823.895	0.0183349
823.973	0.0183385
824.051	0.0182973
824.129	0.0184085
824.207	0.0184657
824.285	0.0184744
824.363	0.0184415
824.442	0.0183488
824.520	0.0184275
824.598	0.0184169
824.676	0.0184190
824.754	0.0182987
824.832	0.0181059
824.910	0.0181503
824.988	0.0183318
825.067	0.0181147
825.145	0.0180701
825.223	0.0180553
825.301	0.0179493
825.379	0.0178206
825.457	0.0179070
825.535	0.0176528
825.613	0.0177997
825.692	0.0177043
825.770	0.0175706
825.848	0.0174320
825.926	0.0175395
826.004	0.0174992
826.082	0.0173785
826.160	0.0174586
826.238	0.0174979
826.317	0.0174102
826.395	0.0175208
826.473	0.0175655
826.551	0.0175963
826.629	0.0176649
826.707	0.0176776
826.785	0.0177639
826.863	0.0179090
826.942	0.0179546
827.020	0.0180345
827.098	0.0183064
827.176	0.0182725
827.254	0.0185344
827.332	0.0183932
827.410	0.0184874
827.488	0.0185206
827.567	0.0184686
827.645	0.0185085
827.723	0.0185147
827.801	0.0185419
827.879	0.0185406
827.957	0.0184098
828.035	0.0185574
828.113	0.0185451
828.192	0.0182581
828.270	0.0182704
828.348	0.0180778
828.426	0.0179678
828.504	0.0179989
828.582	0.0179070
828.660	0.0177019
828.738	0.0176945
828.817	0.0175972
828.895	0.0175159
828.973	0.0175558
829.051	0.0174898
829.129	0.0173550
829.207	0.0175080
829.285	0.0175336
829.363	0.0175584
829.442	0.0175240
829.520	0.0176416
829.598	0.0177782
829.676	0.0177882
829.754	0.0179038
829.832	0.0180043
829.910	0.0180536
829.988	0.0181979
830.067	0.0182412
830.145	0.0183272
830.223	0.0183125
830.301	0.0185389
830.379	0.0185239
830.457	0.0185012
830.535	0.0184495
830.613	0.0184711
830.692	0.0184456
830.770	0.0183321
830.848	0.0183454
830.926	0.0182841
831.004	0.0182487
831.082	0.0181014
831.160	0.0179242
831.238	0.0178564
831.317	0.0178538
831.395	0.0178031
831.473	0.0176971
831.551	0.0176624
831.629	0.0176170
831.707	0.0175910
831.785	0.0175417
831.863	0.0177181
831.942	0.0176382
832.020	0.0174415
832.098	0.0175966
832.176	0.0177652
832.254	0.0177037
832.332	0.0179520
832.410	0.0180351
832.488	0.0179886
832.567	0.0182130
832.645	0.0182253
832.723	0.0182204
832.801	0.0183961
832.879	0.0184782
832.957	0.0184579
833.035	0.0185265
833.113	0.0185686
833.192	0.0185429
833.270	0.0186922
833.348	0.0186887
833.426	0.0186465
833.504	0.0185152
833.582	0.0184171
833.660	0.0183880
833.738	0.0184820
833.817	0.0183430
833.895	0.0183510
833.973	0.0182642
834.051	0.0180772
834.129	0.0181116
834.207	0.0182011
834.285	0.0179597
834.363	0.0179229
834.442	0.0177887
834.520	0.0178599
834.598	0.0178960
834.676	0.0179550
834.754	0.0179292
834.832	0.0179084
834.910	0.0177964
834.988	0.0178981
835.067	0.0179120
835.145	0.0179951
835.223	0.0179851
835.301	0.0178397
835.379	0.0179138
835.457	0.0179836
835.535	0.0179442
835.613	0.0180267
835.692	0.0179678
835.770	0.0180282
835.848	0.0180968
835.926	0.0180966
836.004	0.0181796
836.082	0.0181550
836.160	0.0180170
836.238	0.0181324
836.317	0.0182207
836.395	0.0181512
836.473	0.0182050
836.551	0.0179906
836.629	0.0181000
836.707	0.0181971
836.785	0.0181303
836.863	0.0182805
836.942	0.0181657
837.020	0.0179152
837.098	0.0178056
837.176	0.0178262
837.254	0.0178613
837.332	0.0178262
837.410	0.0178111
837.488	0.0178252
837.567	0.0175924
837.645	0.0177067
837.723	0.0177672
837.801	0.0177159
837.879	0.0176142
837.957	0.0176792
838.035	0.0176151
838.113	0.0177935
838.192	0.0178869
838.270	0.0177515
838.348	0.0178550
838.426	0.0178777
838.504	0.0180048
838.582	0.0181380
838.660	0.0181092
838.738	0.0181876
838.817	0.0181923
838.895	0.0182338
838.973	0.0183231
839.051	0.0183819
839.129	0.0184721
839.207	0.0183766
839.285	0.0184685
839.363	0.0184448
839.442	0.0185847
839.520	0.0184099
839.598	0.0183872
839.676	0.0183543
839.754	0.0183543
839.832	0.0183943
839.910	0.0183714
839.988	0.0183486
840.067	0.0183175
840.145	0.0182997
840.223	0.0183400
840.301	0.0183732
840.379	0.0182269
840.457	0.0182340
840.535	0.0182903
840.613	0.0181774
840.692	0.0179794
840.770	0.0180540
840.848	0.0181228
840.926	0.0179755
841.004	0.0180270
841.082	0.0177702
841.160	0.0177673
841.238	0.0177390
841.317	0.0178151
841.395	0.0176659
841.473	0.0176221
841.551	0.0177358
841.629	0.0176540
841.707	0.0176620
841.785	0.0175542
841.863	0.0176696
841.942	0.0176434
842.020	0.0176025
842.098	0.0175211
842.176	0.0176696
842.254	0.0176697
842.332	0.0177977
842.410	0.0177388
842.488	0.0176891
842.567	0.0177444
842.645	0.0178466
842.723	0.0178687
842.801	0.0178896
842.879	0.0180042
842.957	0.0180974
843.035	0.0179565
843.113	0.0180520
843.192	0.0181714
843.270	0.0181470
843.348	0.0182738
843.426	0.0183009
843.504	0.0181836
843.582	0.0183572
843.660	0.0183540
843.738	0.0185529
843.817	0.0182971
843.895	0.0183166
843.973	0.0182644
844.051	0.0182426
844.129	0.0181559
844.207	0.0183340
844.285	0.0180748
844.363	0.0179988
844.442	0.0179245
844.520	0.0178387
844.598	0.0178734
844.676	0.0177702
844.754	0.0176846
844.832	0.0177396
844.910	0.0176508
844.988	0.0176183
845.067	0.0176984
845.145	0.0176749
845.223	0.0176071
845.301	0.0177470
845.379	0.0177274
845.457	0.0176698
845.535	0.0178485
845.613	0.0178271
845.692	0.0178534
845.770	0.0179005
845.848	0.0180886
845.926	0.0181048
846.004	0.0180195
846.082	0.0180521
846.160	0.0181628
846.238	0.0181844
846.317	0.0182104
846.395	0.0182419
846.473	0.0182694
846.551	0.0182733
846.629	0.0181489
846.707	0.0181999
846.785	0.0181010
846.863	0.0181186
846.942	0.0180553
847.020	0.0181326
847.098	0.0180099
847.176	0.0180541
847.254	0.0179726
847.332	0.0181079
847.410	0.0180688
847.488	0.0179245
847.567	0.0179375
847.645	0.0179615
847.723	0.0179885
847.801	0.0180878
847.879	0.0180140
847.957	0.0179552
848.035	0.0179759
848.113	0.0181812
848.192	0.0181000
848.270	0.0181123
848.348	0.0181735
848.426	0.0180145
848.504	0.0181535
848.582	0.0183359
848.660	0.0182552
848.738	0.0182610
848.817	0.0181947
848.895	0.0182793
848.973	0.0184035
849.051	0.0182988
849.129	0.0183233
849.207	0.0181080
849.285	0.0183086
849.363	0.0183504
849.442	0.0181940
849.520	0.0181905
849.598	0.0182420
849.676	0.0180325
849.754	0.0180277
849.832	0.0180260
849.910	0.0180405
849.988	0.0178982
850.067	0.0178281
850.145	0.0179282
850.223	0.0177538
850.301	0.0177457
850.379	0.0177705
850.457	0.0176285
850.535	0.0176520
850.613	0.0179295
850.692	0.0177266
850.770	0.0176788
850.848	0.0178430
850.926	0.0179063
851.004	0.0178413
851.082	0.0178883
851.160	0.0180198
851.238	0.0181016
851.317	0.0181641
851.395	0.0182175
851.473	0.0182915
851.551	0.0182906
851.629	0.0183812
851.707	0.0183363
851.785	0.0183624
851.863	0.0183730
851.942	0.0182068
852.020	0.0183547
852.098	0.0181978
852.176	0.0180503
852.254	0.0181024
852.332	0.0179117
852.410	0.0179337
852.488	0.0178883
852.567	0.0178313
852.645	0.0177620
852.723	0.0177859
852.801	0.0177306
852.879	0.0176004
852.957	0.0176174
853.035	0.0176144
853.113	0.0177467
853.192	0.0176974
853.270	0.0177665
853.348	0.0178340
853.426	0.0179043
853.504	0.0178418
853.582	0.0180090
853.660	0.0181587
853.738	0.0182317
853.817	0.0182384
853.895	0.0182418
853.973	0.0182634
854.051	0.0182809
854.129	0.0183598
854.207	0.0183654
854.285	0.0183157
854.363	0.0184581
854.442	0.0183024
854.520	0.0184904
854.598	0.0184665
854.676	0.0185046
854.754	0.0185503
854.832	0.0184827
854.910	0.0185381
854.988	0.0184696
855.067	0.0183977
855.145	0.0183688
855.223	0.0184212
855.301	0.0184500
855.379	0.0182942
855.457	0.0181973
855.535	0.0181694
855.613	0.0181070
855.692	0.0180910
855.770	0.0179878
855.848	0.0180169
855.926	0.0179331
856.004	0.0179379
856.082	0.0179365
856.160	0.0178996
856.238	0.0177799
856.317	0.0176701
856.395	0.0176809
856.473	0.0177075
856.551	0.0176170
856.629	0.0175800
856.707	0.0176556
856.785	0.0177244
856.863	0.0177034
856.942	0.0177298
857.020	0.0177946
857.098	0.0178561
857.176	0.0178120
857.254	0.0179685
857.332	0.0179430
857.410	0.0179588
857.488	0.0180737
857.567	0.0181580
857.645	0.0181341
857.723	0.0181769
857.801	0.0183239
857.879	0.0183717
857.957	0.0183753
858.035	0.0184453
858.113	0.0183692
858.192	0.0182803
858.270	0.0182935
858.348	0.0183386
858.426	0.0183093
858.504	0.0181435
858.582	0.0181449
858.660	0.0180241
858.738	0.0179672
858.817	0.0177850
858.895	0.0178960
858.973	0.0178064
859.051	0.0176163
859.129	0.0178705
859.207	0.0177912
859.285	0.0177303
859.363	0.0177276
859.442	0.0178507
859.520	0.0178206
859.598	0.0177784
859.676	0.0179404
859.754	0.0177801
859.832	0.0180040
859.910	0.0179987
859.988	0.0179630
860.067	0.0181310
860.145	0.0181574
860.223	0.0183073
860.301	0.0182556
860.379	0.0183445
860.457	0.0184155
860.535	0.0182716
860.613	0.0184138
860.692	0.0184111
860.770	0.0184586
860.848	0.0182013
860.926	0.0184605
861.004	0.0183190
861.082	0.0182528
861.160	0.0180580
861.238	0.0181969
861.317	0.0180058
861.395	0.0178841
861.473	0.0178080
861.551	0.0178059
861.629	0.0177187
861.707	0.0177124
861.785	0.0176271
861.863	0.0177044
861.942	0.0177265
862.020	0.0176603
862.098	0.0175700
862.176	0.0176823
862.254	0.0178069
862.332	0.0178886
862.410	0.0179103
862.488	0.0178586
862.567	0.0180419
862.645	0.0181274
862.723	0.0181049
862.801	0.0182022
862.879	0.0182566
862.957	0.0183551
863.035	0.0181979
863.113	0.0183269
863.192	0.0183369
863.270	0.0182265
863.348	0.0182455
863.426	0.0183810
863.504	0.0182987
863.582	0.0181818
863.660	0.0181495
863.738	0.0180974
863.817	0.0180515
863.895	0.0178816
863.973	0.0179094
864.051	0.0178731
864.129	0.0178304
864.207	0.0176994
864.285	0.0177710
864.363	0.0177055
864.442	0.0176263
864.520	0.0177203
864.598	0.0179338
864.676	0.0179643
864.754	0.0179401
864.832	0.0180402
864.910	0.0180284
864.988	0.0181101
865.067	0.0182322
865.145	0.0183353
865.223	0.0182739
865.301	0.0185036
865.379	0.0184647
865.457	0.0183888
865.535	0.0184196
865.613	0.0183752
865.692	0.0183573
865.770	0.0183978
865.848	0.0182426
865.926	0.0182637
866.004	0.0181030
866.082	0.0180215
866.160	0.0179679
866.238	0.0178801
866.317	0.0179210
866.395	0.0178678
866.473	0.0177669
866.551	0.0178720
866.629	0.0178641
866.707	0.0176279
866.785	0.0176553
866.863	0.0177135
866.942	0.0176537
867.020	0.0176414
867.098	0.0177564
867.176	0.0176776
867.254	0.0175602
867.332	0.0174286
867.410	0.0176687
867.488	0.0177426
867.567	0.0177778
867.645	0.0177936
867.723	0.0179672
867.801	0.0181025
867.879	0.0179992
867.957	0.0180019
868.035	0.0180935
868.113	0.0180784
868.192	0.0182355
868.270	0.0182578
868.348	0.0182408
868.426	0.0182056
868.504	0.0181289
868.582	0.0183146
868.660	0.0182561
868.738	0.0180832
868.817	0.0182668
868.895	0.0181821
868.973	0.0180831
869.051	0.0180064
869.129	0.0181585
869.207	0.0181645
869.285	0.0178613
869.363	0.0179417
869.442	0.0179655
869.520	0.0180082
869.598	0.0180396
869.676	0.0180630
869.754	0.0179961
869.832	0.0180602
869.910	0.0180559
869.988	0.0179453
870.067	0.0182202
870.145	0.0181182
870.223	0.0180485
870.301	0.0180881
870.379	0.0180409
870.457	0.0181954
870.535	0.0181393
870.613	0.0181155
870.692	0.0181918
870.770	0.0180312
870.848	0.0179903
870.926	0.0181264
871.004	0.0180734
871.082	0.0180355
871.160	0.0179976
871.238	0.0179484
871.317	0.0179440
871.395	0.0179694
871.473	0.0179339
871.551	0.0179031
871.629	0.0179996
871.707	0.0179041
871.785	0.0179594
871.863	0.0180739
871.942	0.0179944
872.020	0.0181064
872.098	0.0181607
872.176	0.0182408
872.254	0.0182533
872.332	0.0182203
872.410	0.0182545
872.488	0.0183694
872.567	0.0183487
872.645	0.0182208
872.723	0.0182324
872.801	0.0182333
872.879	0.0181606
872.957	0.0180183
873.035	0.0178838
873.113	0.0182537
873.192	0.0181301
873.270	0.0181058
873.348	0.0179367
873.426	0.0180236
873.504	0.0179567
873.582	0.0179194
873.660	0.0180034
873.738	0.0180019
873.817	0.0179494
873.895	0.0179379
873.973	0.0178319
874.051	0.0178065
874.129	0.0178290
874.207	0.0177489
874.285	0.0176847
874.363	0.0178255
874.442	0.0177888
874.520	0.0178211
874.598	0.0178908
874.676	0.0177230
874.754	0.0177501
874.832	0.0177687
874.910	0.0178049
874.988	0.0179026
875.067	0.0179160
875.145	0.0179361
875.223	0.0178611
875.301	0.0179043
875.379	0.0180016
875.457	0.0179427
875.535	0.0180147
875.613	0.0179283
875.692	0.0179336
875.770	0.0181149
875.848	0.0180943
875.926	0.0179773
876.004	0.0179788
876.082	0.0180499
876.160	0.0181781
876.238	0.0180521
876.317	0.0180382
876.395	0.0180296
876.473	0.0180626
876.551	0.0181351
876.629	0.0182582
876.707	0.0183167
876.785	0.0182104
876.863	0.0181828
876.942	0.0182833
877.020	0.0183195
877.098	0.0183750
877.176	0.0181838
877.254	0.0181913
877.332	0.0182065
877.410	0.0181565
877.488	0.0183228
877.567	0.0182745
877.645	0.0181976
877.723	0.0180499
877.801	0.0181586
877.879	0.0181128
877.957	0.0180879
878.035	0.0181192
878.113	0.0181409
878.192	0.0179573
878.270	0.0178855
878.348	0.0180241
878.426	0.0179826
878.504	0.0180364
878.582	0.0179756
878.660	0.0178049
878.738	0.0178847
878.817	0.0178528
878.895	0.0178386
878.973	0.0178958
879.051	0.0178326
879.129	0.0176817
879.207	0.0177503
879.285	0.0178130
879.363	0.0177974
879.442	0.0178326
879.520	0.0177971
879.598	0.0178463
879.676	0.0177431
879.754	0.0177546
879.832	0.0178362
879.910	0.0179165
879.988	0.0178142
880.067	0.0178793
880.145	0.0178408
880.223	0.0179385
880.301	0.0179981
880.379	0.0179222
880.457	0.0180157
880.535	0.0179842
880.613	0.0180039
880.692	0.0179190
880.770	0.0179996
880.848	0.0180788
880.926	0.0180777
881.004	0.0180296
881.082	0.0181329
881.160	0.0180290
881.238	0.0180598
881.317	0.0181996
881.395	0.0183188
881.473	0.0181276
881.551	0.0182107
881.629	0.0182315
881.707	0.0182251
881.785	0.0182074
881.863	0.0184165
881.942	0.0183165
882.020	0.0182074
882.098	0.0180909
882.176	0.0182190
882.254	0.0181305
882.332	0.0180445
882.410	0.0179543
882.488	0.0180254
882.567	0.0177982
882.645	0.0178197
882.723	0.0176527
882.801	0.0177469
882.879	0.0176346
882.957	0.0175011
883.035	0.0174070
883.113	0.0174052
883.192	0.0174823
883.270	0.0176651
883.348	0.0176185
883.426	0.0177177
883.504	0.0178148
883.582	0.0179321
883.660	0.0180213
883.738	0.0181487
883.817	0.0182428
883.895	0.0182539
883.973	0.0184731
884.051	0.0185735
884.129	0.0186554
884.207	0.0186811
884.285	0.0186784
884.363	0.0186889
884.442	0.0187754
884.520	0.0184430
884.598	0.0185009
884.676	0.0181246
884.754	0.0178861
884.832	0.0177492
884.910	0.0174694
884.988	0.0173226
885.067	0.0171424
885.145	0.0170676
885.223	0.0167981
885.301	0.0169057
885.379	0.0168912
885.457	0.0169863
885.535	0.0171236
885.613	0.0170947
885.692	0.0173232
885.770	0.0177048
885.848	0.0178984
885.926	0.0181908
886.004	0.0185746
886.082	0.0189152
886.160	0.0191505
886.238	0.0193124
886.317	0.0197594
886.395	0.0199146
886.473	0.0200522
886.551	0.0200684
886.629	0.0200435
886.707	0.0200575
886.785	0.0199107
886.863	0.0195255
886.942	0.0192646
887.020	0.0187966
887.098	0.0183232
887.176	0.0178297
887.254	0.0174691
887.332	0.0168616
887.410	0.0164874
887.488	0.0159805
887.567	0.0154705
887.645	0.0153035
887.723	0.0152196
887.801	0.0152496
887.879	0.0152397
887.957	0.0152798
888.035	0.0155077
888.113	0.0159306
888.192	0.0163327
888.270	0.0168089
888.348	0.0173248
888.426	0.0178179
888.504	0.0183183
888.582	0.0187759
888.660	0.0194138
888.738	0.0198604
888.817	0.0200644
888.895	0.0204760
888.973	0.0204959
889.051	0.0206345
889.129	0.0207442
889.207	0.0205219
889.285	0.0204150
889.363	0.0202533
889.442	0.0199567
889.520	0.0194273
889.598	0.0189281
889.676	0.0185909
889.754	0.0180269
889.832	0.0175095
889.910	0.0172074
889.988	0.0167950
890.067	0.0165707
890.145	0.0163267
890.223	0.0160854
890.301	0.0158644
890.379	0.0159116
890.457	0.0159035
890.535	0.0160470
890.613	0.0161567
890.692	0.0164258
890.770	0.0166717
890.848	0.0169416
890.926	0.0173003
891.004	0.0175732
891.082	0.0179371
891.160	0.0183311
891.238	0.0185862
891.317	0.0188526
891.395	0.0190292
891.473	0.0191516
891.551	0.0191816
891.629	0.0193900
891.707	0.0192005
891.785	0.0191830
891.863	0.0190173
891.942	0.0189381
892.020	0.0187057
892.098	0.0185243
892.176	0.0182796
892.254	0.0181912
892.332	0.0179385
892.410	0.0178123
892.488	0.0177162
892.567	0.0175900
892.645	0.0175900
892.723	0.0176554
892.801	0.0175478
892.879	0.0175062
892.957	0.0174442
893.035	0.0176308
893.113	0.0175127
893.192	0.0175106
893.270	0.0176977
893.348	0.0177431
893.426	0.0179211
893.504	0.0180515
893.582	0.0179990
893.660	0.0181408
893.738	0.0183545
893.817	0.0184068
893.895	0.0183399
893.973	0.0184122
894.051	0.0185268
894.129	0.0183731
894.207	0.0184736
894.285	0.0184316
894.363	0.0181793
894.442	0.0182335
894.520	0.0181551
894.598	0.0180262
894.676	0.0179502
894.754	0.0177774
894.832	0.0175653
894.910	0.0175677
894.988	0.0173073
895.067	0.0173037
895.145	0.0172855
895.223	0.0170818
895.301	0.0169994
895.379	0.0169949
895.457	0.0170702
895.535	0.0171224
895.613	0.0173122
895.692	0.0174204
895.770	0.0175340
895.848	0.0176160
895.926	0.0178512
896.004	0.0181123
896.082	0.0183144
896.160	0.0185405
896.238	0.0185519
896.317	0.0186796
896.395	0.0188491
896.473	0.0189900
896.551	0.0191196
896.629	0.0191735
896.707	0.0190514
896.785	0.0189219
896.863	0.0191322
896.942	0.0189767
897.020	0.0187840
897.098	0.0186628
897.176	0.0185500
897.254	0.0182886
897.332	0.0183157
897.410	0.0180283
897.488	0.0177882
897.567	0.0178311
897.645	0.0174728
897.723	0.0174796
897.801	0.0173077
897.879	0.0172049
897.957	0.0172528
898.035	0.0170559
898.113	0.0169461
898.192	0.0169621
898.270	0.0169659
898.348	0.0170695
898.426	0.0169881
898.504	0.0171945
898.582	0.0173456
898.660	0.0176215
898.738	0.0177302
898.817	0.0179482
898.895	0.0182490
898.973	0.0183744
899.051	0.0185382
899.129	0.0186884
899.207	0.0185422
899.285	0.0188044
899.363	0.0187499
899.442	0.0186934
899.520	0.0187022
899.598	0.0186308
899.676	0.0185062
899.754	0.0183684
899.832	0.0183109
899.910	0.0180811
899.988	0.0180563
900.067	0.0179364
900.145	0.0177908
900.223	0.0175299
900.301	0.0174620
900.379	0.0174322
900.457	0.0173635
900.535	0.0173442
900.613	0.0173397
900.692	0.0171593
900.770	0.0173909
900.848	0.0175021
900.926	0.0173338
901.004	0.0174384
901.082	0.0176508
901.160	0.0176527
901.238	0.0176903
901.317	0.0177000
901.395	0.0179755
901.473	0.0180883
901.551	0.0181094
901.629	0.0182513
901.707	0.0183150
901.785	0.0183162
901.863	0.0182981
901.942	0.0185143
902.020	0.0185829
902.098	0.0185820
902.176	0.0186892
902.254	0.0186864
902.332	0.0186358
902.410	0.0187087
902.488	0.0185802
902.567	0.0185022
902.645	0.0183091
902.723	0.0184373
902.801	0.0182370
902.879	0.0180755
902.957	0.0179822
903.035	0.0180278
903.113	0.0179722
903.192	0.0178560
903.270	0.0178770
903.348	0.0179159
903.426	0.0177921
903.504	0.0178481
903.582	0.0178619
903.660	0.0178671
903.738	0.0179972
903.817	0.0179655
903.895	0.0179030
903.973	0.0178212
904.051	0.0180104
904.129	0.0178788
904.207	0.0180121
904.285	0.0179766
904.363	0.0179807
904.442	0.0179127
904.520	0.0180006
904.598	0.0179492
904.676	0.0178075
904.754	0.0179217
904.832	0.0179552
904.910	0.0178512
904.988	0.0178456
905.067	0.0180641
905.145	0.0180084
905.223	0.0180274
905.301	0.0178558
905.379	0.0180585
905.457	0.0180651
905.535	0.0180972
905.613	0.0180104
905.692	0.0179965
905.770	0.0181381
905.848	0.0181027
905.926	0.0181030
906.004	0.0180979
906.082	0.0181429
906.160	0.0182854
906.238	0.0181606
906.317	0.0180887
906.395	0.0181396
906.473	0.0180672
906.551	0.0179326
906.629	0.0179922
906.707	0.0178941
906.785	0.0179580
906.863	0.0177774
906.942	0.0178094
907.020	0.0177460
907.098	0.0177803
907.176	0.0177547
907.254	0.0176656
907.332	0.0178686
907.410	0.0177541
907.488	0.0177973
907.567	0.0179366
907.645	0.0179099
907.723	0.0177069
907.801	0.0177929
907.879	0.0178777
907.957	0.0180051
908.035	0.0180889
908.113	0.0179402
908.192	0.0180246
908.270	0.0180934
908.348	0.0181625
908.426	0.0181319
908.504	0.0183367
908.582	0.0183891
908.660	0.0182375
908.738	0.0185294
908.817	0.0182285
908.895	0.0184212
908.973	0.0185183
909.051	0.0183447
909.129	0.0183998
909.207	0.0184282
909.285	0.0183047
909.363	0.0184614
909.442	0.0182764
909.520	0.0182961
909.598	0.0181853
909.676	0.0181894
909.754	0.0180736
909.832	0.0179821
909.910	0.0179907
909.988	0.0180145
910.067	0.0178781
910.145	0.0178838
910.223	0.0178904
910.301	0.0178846
910.379	0.0178277
910.457	0.0178746
910.535	0.0178049
910.613	0.0178583
910.692	0.0177309
910.770	0.0177189
910.848	0.0177369
910.926	0.0177021
911.004	0.0177373
911.082	0.0177328
911.160	0.0178139
911.238	0.0177976
911.317	0.0178584
911.395	0.0178478
911.473	0.0178745
911.551	0.0179377
911.629	0.0178770
911.707	0.0179304
911.785	0.0179729
911.863	0.0180692
911.942	0.0179434
912.020	0.0181232
912.098	0.0180074
912.176	0.0181736
912.254	0.0181678
912.332	0.0182518
912.410	0.0183102
912.488	0.0183009
912.567	0.0183534
912.645	0.0183604
912.723	0.0183674
912.801	0.0184171
912.879	0.0183589
912.957	0.0183998
913.035	0.0182923
913.113	0.0184322
913.192	0.0183331
913.270	0.0181824
913.348	0.0181812
913.426	0.0181191
913.504	0.0180791
913.582	0.0180209
913.660	0.0179620
913.738	0.0178046
913.817	0.0178099
913.895	0.0177733
913.973	0.0178226
914.051	0.0176768
914.129	0.0176717
914.207	0.0174859
914.285	0.0176321
914.363	0.0175691
914.442	0.0175898
914.520	0.0175357
914.598	0.0173974
914.676	0.0175658
914.754	0.0175996
914.832	0.0176465
914.910	0.0176916
914.988	0.0177574
915.067	0.0177544
915.145	0.0178688
915.223	0.0178528
915.301	0.0179624
915.379	0.0179966
915.457	0.0181077
915.535	0.0180530
915.613	0.0181680
915.692	0.0183345
915.770	0.0183325
915.848	0.0182371
915.926	0.0183497
916.004	0.0182470
916.082	0.0181912
916.160	0.0183018
916.238	0.0181247
916.317	0.0183356
916.395	0.0181957
916.473	0.0181560
916.551	0.0181721
916.629	0.0180589
916.707	0.0180336
916.785	0.0179286
916.863	0.0180877
916.942	0.0181653
917.020	0.0179290
917.098	0.0177599
917.176	0.0181007
917.254	0.0180936
917.332	0.0181758
917.410	0.0182256
917.488	0.0179618
917.567	0.0180421
917.645	0.0180328
917.723	0.0180561
917.801	0.0180885
917.879	0.0179567
917.957	0.0180242
918.035	0.0180403
918.113	0.0179571
918.192	0.0180082
918.270	0.0181811
918.348	0.0180022
918.426	0.0179292
918.504	0.0179009
918.582	0.0179479
918.660	0.0180222
918.738	0.0180610
918.817	0.0179316
918.895	0.0180339
918.973	0.0180907
919.051	0.0180541
919.129	0.0179624
919.207	0.0181169
919.285	0.0180193
919.363	0.0179015
919.442	0.0179943
919.520	0.0180064
919.598	0.0177853
919.676	0.0179449
919.754	0.0178059
919.832	0.0177882
919.910	0.0178381
