06/01/2022	21:35:47	Ver.	4.1	UNKNOWN
Optical Delay	599.988409	Delta X		0.078125	Sweeps	1	Scan Rate	0/0
Coordinates	Axis 1	NaN	Axis 2	NaN	Axis 3	NaN	Axis 4	NaN	Axis 5	NaN	Axis 6	0.000000
TX Power	0.000000	RX Power	0.000000

599.988	0.0177767
600.067	0.0177462
600.145	0.0177064
600.223	0.0178818
600.301	0.0176608
600.379	0.0176744
600.457	0.0177271
600.535	0.0178374
600.613	0.0178127
600.692	0.0178262
600.770	0.0177600
600.848	0.0177895
600.926	0.0177330
601.004	0.0176463
601.082	0.0178182
601.160	0.0177001
601.238	0.0177113
601.317	0.0179366
601.395	0.0177652
601.473	0.0177751
601.551	0.0177120
601.629	0.0177145
601.707	0.0177637
601.785	0.0176719
601.863	0.0178327
601.942	0.0176907
602.020	0.0177338
602.098	0.0178503
602.176	0.0178652
602.254	0.0178616
602.332	0.0177714
602.410	0.0178123
602.488	0.0178204
602.567	0.0178811
602.645	0.0178250
602.723	0.0177216
602.801	0.0177743
602.879	0.0176330
602.957	0.0177178
603.035	0.0177568
603.113	0.0176587
603.192	0.0177973
603.270	0.0177637
603.348	0.0178148
603.426	0.0176514
603.504	0.0176732
603.582	0.0177536
603.660	0.0177155
603.738	0.0177518
603.817	0.0176262
603.895	0.0176421
603.973	0.0178637
604.051	0.0177291
604.129	0.0177783
604.207	0.0176209
604.285	0.0178339
604.363	0.0177036
604.442	0.0176768
604.520	0.0178439
604.598	0.0177970
604.676	0.0178386
604.754	0.0177042
604.832	0.0176598
604.910	0.0178315
604.988	0.0176649
605.067	0.0177606
605.145	0.0177802
605.223	0.0178587
605.301	0.0177206
605.379	0.0177254
605.457	0.0177768
605.535	0.0179375
605.613	0.0178012
605.692	0.0177544
605.770	0.0177474
605.848	0.0176643
605.926	0.0177446
606.004	0.0177419
606.082	0.0176976
606.160	0.0177062
606.238	0.0178120
606.317	0.0176003
606.395	0.0177368
606.473	0.0177245
606.551	0.0177000
606.629	0.0177242
606.707	0.0177280
606.785	0.0177588
606.863	0.0177803
606.942	0.0177795
607.020	0.0177831
607.098	0.0177266
607.176	0.0177166
607.254	0.0177892
607.332	0.0176286
607.410	0.0178532
607.488	0.0178641
607.567	0.0177784
607.645	0.0176403
607.723	0.0177474
607.801	0.0176848
607.879	0.0177917
607.957	0.0177229
608.035	0.0178384
608.113	0.0177523
608.192	0.0177174
608.270	0.0179001
608.348	0.0178958
608.426	0.0178842
608.504	0.0178061
608.582	0.0177971
608.660	0.0177245
608.738	0.0178065
608.817	0.0177140
608.895	0.0176918
608.973	0.0177096
609.051	0.0177446
609.129	0.0176580
609.207	0.0179342
609.285	0.0178722
609.363	0.0176060
609.442	0.0176762
609.520	0.0178330
609.598	0.0177347
609.676	0.0177618
609.754	0.0176925
609.832	0.0177058
609.910	0.0177323
609.988	0.0176434
610.067	0.0178227
610.145	0.0177866
610.223	0.0177910
610.301	0.0177620
610.379	0.0178165
610.457	0.0176949
610.535	0.0177364
610.613	0.0176254
610.692	0.0176685
610.770	0.0176853
610.848	0.0177679
610.926	0.0177837
611.004	0.0177162
611.082	0.0177071
611.160	0.0177284
611.238	0.0177660
611.317	0.0175989
611.395	0.0175676
611.473	0.0176250
611.551	0.0178003
611.629	0.0177433
611.707	0.0177880
611.785	0.0177200
611.863	0.0176235
611.942	0.0175971
612.020	0.0177712
612.098	0.0177016
612.176	0.0177327
612.254	0.0177934
612.332	0.0177531
612.410	0.0177463
612.488	0.0177199
612.567	0.0176971
612.645	0.0177358
612.723	0.0176460
612.801	0.0177847
612.879	0.0177998
612.957	0.0178023
613.035	0.0178208
613.113	0.0177177
613.192	0.0176571
613.270	0.0178069
613.348	0.0177451
613.426	0.0178291
613.504	0.0177690
613.582	0.0177406
613.660	0.0178694
613.738	0.0178013
613.817	0.0177722
613.895	0.0176833
613.973	0.0177177
614.051	0.0175895
614.129	0.0178322
614.207	0.0177510
614.285	0.0176549
614.363	0.0176988
614.442	0.0177536
614.520	0.0177638
614.598	0.0176739
614.676	0.0177589
614.754	0.0177233
614.832	0.0176752
614.910	0.0176487
614.988	0.0178115
615.067	0.0178139
615.145	0.0178002
615.223	0.0177401
615.301	0.0177972
615.379	0.0177444
615.457	0.0176402
615.535	0.0178767
615.613	0.0178129
615.692	0.0178677
615.770	0.0178815
615.848	0.0177977
615.926	0.0179411
616.004	0.0178346
616.082	0.0178123
616.160	0.0179084
616.238	0.0177241
616.317	0.0178954
616.395	0.0176845
616.473	0.0178313
616.551	0.0177374
616.629	0.0176336
616.707	0.0177085
616.785	0.0175800
616.863	0.0176028
616.942	0.0176023
617.020	0.0175024
617.098	0.0175552
617.176	0.0175914
617.254	0.0175793
617.332	0.0175945
617.410	0.0175894
617.488	0.0175458
617.567	0.0175298
617.645	0.0176096
617.723	0.0177888
617.801	0.0177937
617.879	0.0177698
617.957	0.0178085
618.035	0.0177275
618.113	0.0178685
618.192	0.0178595
618.270	0.0178368
618.348	0.0179344
618.426	0.0179363
618.504	0.0178333
618.582	0.0179279
618.660	0.0179637
618.738	0.0180155
618.817	0.0178564
618.895	0.0178725
618.973	0.0177884
619.051	0.0178503
619.129	0.0178087
619.207	0.0179258
619.285	0.0177431
619.363	0.0176605
619.442	0.0176983
619.520	0.0177385
619.598	0.0175935
619.676	0.0176025
619.754	0.0176060
619.832	0.0177328
619.910	0.0176100
619.988	0.0176311
620.067	0.0176510
620.145	0.0175874
620.223	0.0176089
620.301	0.0175481
620.379	0.0176357
620.457	0.0177702
620.535	0.0176942
620.613	0.0176178
620.692	0.0177189
620.770	0.0177879
620.848	0.0178302
620.926	0.0178761
621.004	0.0177693
621.082	0.0177602
621.160	0.0178490
621.238	0.0177914
621.317	0.0178081
621.395	0.0177810
621.473	0.0177715
621.551	0.0177343
621.629	0.0178044
621.707	0.0176126
621.785	0.0176653
621.863	0.0177795
621.942	0.0178702
622.020	0.0177895
622.098	0.0178474
622.176	0.0177961
622.254	0.0176810
622.332	0.0177056
622.410	0.0178558
622.488	0.0176123
622.567	0.0175942
622.645	0.0176717
622.723	0.0177171
622.801	0.0177618
622.879	0.0177163
622.957	0.0177642
623.035	0.0176451
623.113	0.0178194
623.192	0.0175875
623.270	0.0177320
623.348	0.0176197
623.426	0.0177331
623.504	0.0177048
623.582	0.0176793
623.660	0.0177048
623.738	0.0176126
623.817	0.0176437
623.895	0.0177853
623.973	0.0178445
624.051	0.0178447
624.129	0.0176532
624.207	0.0176546
624.285	0.0176473
624.363	0.0177826
624.442	0.0176994
624.520	0.0177185
624.598	0.0176922
624.676	0.0177323
624.754	0.0177195
624.832	0.0176573
624.910	0.0176272
624.988	0.0178886
625.067	0.0179011
625.145	0.0176730
625.223	0.0177654
625.301	0.0177773
625.379	0.0177101
625.457	0.0177484
625.535	0.0177575
625.613	0.0177763
625.692	0.0177435
625.770	0.0177795
625.848	0.0177544
625.926	0.0178149
626.004	0.0178310
626.082	0.0177882
626.160	0.0177285
626.238	0.0177576
626.317	0.0177124
626.395	0.0175435
626.473	0.0178231
626.551	0.0177362
626.629	0.0177367
626.707	0.0178233
626.785	0.0176979
626.863	0.0176051
626.942	0.0177937
627.020	0.0177664
627.098	0.0177445
627.176	0.0177571
627.254	0.0177062
627.332	0.0178338
627.410	0.0176056
627.488	0.0176865
627.567	0.0177377
627.645	0.0176274
627.723	0.0177463
627.801	0.0176505
627.879	0.0176128
627.957	0.0176939
628.035	0.0177023
628.113	0.0178541
628.192	0.0176366
628.270	0.0176192
628.348	0.0175842
628.426	0.0177863
628.504	0.0178469
628.582	0.0177531
628.660	0.0178826
628.738	0.0179124
628.817	0.0177133
628.895	0.0177017
628.973	0.0177879
629.051	0.0178033
629.129	0.0177410
629.207	0.0177674
629.285	0.0179305
629.363	0.0177749
629.442	0.0177297
629.520	0.0176386
629.598	0.0178212
629.676	0.0176510
629.754	0.0176430
629.832	0.0178091
629.910	0.0176143
629.988	0.0176724
630.067	0.0176004
630.145	0.0177303
630.223	0.0177550
630.301	0.0177670
630.379	0.0177160
630.457	0.0177653
630.535	0.0177669
630.613	0.0177120
630.692	0.0176657
630.770	0.0176903
630.848	0.0177623
630.926	0.0178514
631.004	0.0176859
631.082	0.0176975
631.160	0.0177773
631.238	0.0178158
631.317	0.0177850
631.395	0.0178442
631.473	0.0178280
631.551	0.0177803
631.629	0.0177495
631.707	0.0178316
631.785	0.0177935
631.863	0.0177374
631.942	0.0177017
632.020	0.0177605
632.098	0.0177258
632.176	0.0176462
632.254	0.0177751
632.332	0.0177856
632.410	0.0178207
632.488	0.0177592
632.567	0.0176841
632.645	0.0176698
632.723	0.0178798
632.801	0.0178574
632.879	0.0178474
632.957	0.0177942
633.035	0.0177725
633.113	0.0176545
633.192	0.0176791
633.270	0.0176737
633.348	0.0176981
633.426	0.0177679
633.504	0.0178201
633.582	0.0176768
633.660	0.0177306
633.738	0.0177091
633.817	0.0177643
633.895	0.0177698
633.973	0.0177765
634.051	0.0177234
634.129	0.0178384
634.207	0.0176199
634.285	0.0178100
634.363	0.0176931
634.442	0.0176145
634.520	0.0177560
634.598	0.0179048
634.676	0.0177212
634.754	0.0177346
634.832	0.0177354
634.910	0.0178315
634.988	0.0176711
635.067	0.0176849
635.145	0.0176604
635.223	0.0175285
635.301	0.0177107
635.379	0.0178793
635.457	0.0176573
635.535	0.0177321
635.613	0.0177836
635.692	0.0177990
635.770	0.0176597
635.848	0.0177785
635.926	0.0176902
636.004	0.0178079
636.082	0.0177879
636.160	0.0176766
636.238	0.0177231
636.317	0.0176974
636.395	0.0177755
636.473	0.0176713
636.551	0.0177604
636.629	0.0176958
636.707	0.0176936
636.785	0.0175966
636.863	0.0177153
636.942	0.0176632
637.020	0.0178284
637.098	0.0176565
637.176	0.0176834
637.254	0.0177769
637.332	0.0177712
637.410	0.0175900
637.488	0.0177749
637.567	0.0176653
637.645	0.0176403
637.723	0.0176127
637.801	0.0178190
637.879	0.0177663
637.957	0.0177625
638.035	0.0176799
638.113	0.0177072
638.192	0.0177040
638.270	0.0177671
638.348	0.0175903
638.426	0.0176373
638.504	0.0176472
638.582	0.0176754
638.660	0.0175735
638.738	0.0176046
638.817	0.0175833
638.895	0.0177313
638.973	0.0176879
639.051	0.0178253
639.129	0.0177415
639.207	0.0177060
639.285	0.0177310
639.363	0.0177554
639.442	0.0177316
639.520	0.0176582
639.598	0.0177728
639.676	0.0177465
639.754	0.0177564
639.832	0.0177302
639.910	0.0177244
639.988	0.0177543
640.067	0.0177074
640.145	0.0176702
640.223	0.0178027
640.301	0.0177650
640.379	0.0177533
640.457	0.0178229
640.535	0.0177290
640.613	0.0176018
640.692	0.0176893
640.770	0.0177630
640.848	0.0177451
640.926	0.0177565
641.004	0.0177586
641.082	0.0177242
641.160	0.0175711
641.238	0.0176820
641.317	0.0177326
641.395	0.0176830
641.473	0.0179169
641.551	0.0177230
641.629	0.0177191
641.707	0.0176701
641.785	0.0178547
641.863	0.0176451
641.942	0.0178006
642.020	0.0178152
642.098	0.0177766
642.176	0.0176772
642.254	0.0176675
642.332	0.0177393
642.410	0.0177373
642.488	0.0176932
642.567	0.0177824
642.645	0.0177910
642.723	0.0177225
642.801	0.0176997
642.879	0.0176488
642.957	0.0176950
643.035	0.0178805
643.113	0.0176431
643.192	0.0178268
643.270	0.0177374
643.348	0.0177027
643.426	0.0178391
643.504	0.0176629
643.582	0.0176793
643.660	0.0176848
643.738	0.0176392
643.817	0.0177586
643.895	0.0177954
643.973	0.0178091
644.051	0.0177737
644.129	0.0176697
644.207	0.0177845
644.285	0.0177871
644.363	0.0176582
644.442	0.0177560
644.520	0.0176982
644.598	0.0176473
644.676	0.0177510
644.754	0.0177208
644.832	0.0177777
644.910	0.0177546
644.988	0.0177132
645.067	0.0176546
645.145	0.0178286
645.223	0.0177034
645.301	0.0177384
645.379	0.0177209
645.457	0.0176329
645.535	0.0176778
645.613	0.0177979
645.692	0.0178680
645.770	0.0177209
645.848	0.0177897
645.926	0.0176952
646.004	0.0176888
646.082	0.0177506
646.160	0.0177160
646.238	0.0178041
646.317	0.0178230
646.395	0.0177863
646.473	0.0177372
646.551	0.0177671
646.629	0.0177338
646.707	0.0176662
646.785	0.0177970
646.863	0.0176047
646.942	0.0177822
647.020	0.0177708
647.098	0.0176928
647.176	0.0176776
647.254	0.0176704
647.332	0.0177412
647.410	0.0177512
647.488	0.0177432
647.567	0.0178330
647.645	0.0177670
647.723	0.0177971
647.801	0.0177090
647.879	0.0176319
647.957	0.0176269
648.035	0.0178048
648.113	0.0176727
648.192	0.0178307
648.270	0.0177179
648.348	0.0177441
648.426	0.0176636
648.504	0.0177413
648.582	0.0176048
648.660	0.0177605
648.738	0.0176076
648.817	0.0178000
648.895	0.0176707
648.973	0.0177291
649.051	0.0175979
649.129	0.0176487
649.207	0.0176762
649.285	0.0177791
649.363	0.0178553
649.442	0.0178466
649.520	0.0177077
649.598	0.0177357
649.676	0.0176889
649.754	0.0178358
649.832	0.0177674
649.910	0.0177389
649.988	0.0177998
650.067	0.0176657
650.145	0.0177203
650.223	0.0178189
650.301	0.0176492
650.379	0.0177441
650.457	0.0177037
650.535	0.0177036
650.613	0.0177981
650.692	0.0177299
650.770	0.0177217
650.848	0.0177438
650.926	0.0177701
651.004	0.0176050
651.082	0.0177575
651.160	0.0177835
651.238	0.0177023
651.317	0.0177213
651.395	0.0177404
651.473	0.0179001
651.551	0.0177087
651.629	0.0176862
651.707	0.0178409
651.785	0.0177246
651.863	0.0177677
651.942	0.0176501
652.020	0.0176910
652.098	0.0177428
652.176	0.0175631
652.254	0.0177476
652.332	0.0177369
652.410	0.0177558
652.488	0.0178194
652.567	0.0176352
652.645	0.0177396
652.723	0.0178160
652.801	0.0177644
652.879	0.0178373
652.957	0.0176855
653.035	0.0176974
653.113	0.0176063
653.192	0.0177126
653.270	0.0177715
653.348	0.0177061
653.426	0.0177750
653.504	0.0178354
653.582	0.0176371
653.660	0.0178293
653.738	0.0177704
653.817	0.0177341
653.895	0.0176541
653.973	0.0177139
654.051	0.0177732
654.129	0.0178809
654.207	0.0177937
654.285	0.0176313
654.363	0.0177309
654.442	0.0177794
654.520	0.0177798
654.598	0.0177492
654.676	0.0176366
654.754	0.0177464
654.832	0.0175205
654.910	0.0176922
654.988	0.0178199
655.067	0.0177789
655.145	0.0176748
655.223	0.0176302
655.301	0.0176952
655.379	0.0176732
655.457	0.0175903
655.535	0.0177867
655.613	0.0176296
655.692	0.0178204
655.770	0.0178106
655.848	0.0177969
655.926	0.0178120
656.004	0.0175706
656.082	0.0177182
656.160	0.0177166
656.238	0.0176534
656.317	0.0177190
656.395	0.0176968
656.473	0.0177262
656.551	0.0176672
656.629	0.0176601
656.707	0.0177815
656.785	0.0176732
656.863	0.0177245
656.942	0.0176309
657.020	0.0176664
657.098	0.0178078
657.176	0.0177996
657.254	0.0176991
657.332	0.0176996
657.410	0.0175638
657.488	0.0177593
657.567	0.0177969
657.645	0.0177587
657.723	0.0177410
657.801	0.0177030
657.879	0.0175855
657.957	0.0177168
658.035	0.0176774
658.113	0.0176215
658.192	0.0175083
658.270	0.0176405
658.348	0.0178316
658.426	0.0176264
658.504	0.0176276
658.582	0.0175166
658.660	0.0176508
658.738	0.0177160
658.817	0.0176006
658.895	0.0176200
658.973	0.0176868
659.051	0.0177374
659.129	0.0178092
659.207	0.0176187
659.285	0.0177547
659.363	0.0178350
659.442	0.0177132
659.520	0.0176395
659.598	0.0176653
659.676	0.0176921
659.754	0.0176359
659.832	0.0177327
659.910	0.0177664
659.988	0.0175484
660.067	0.0175957
660.145	0.0175508
660.223	0.0177017
660.301	0.0178297
660.379	0.0176971
660.457	0.0175478
660.535	0.0176339
660.613	0.0176389
660.692	0.0176062
660.770	0.0178259
660.848	0.0178036
660.926	0.0177106
661.004	0.0176359
661.082	0.0176322
661.160	0.0176640
661.238	0.0176926
661.317	0.0177209
661.395	0.0179017
661.473	0.0177318
661.551	0.0176029
661.629	0.0177104
661.707	0.0177268
661.785	0.0174033
661.863	0.0177818
661.942	0.0177172
662.020	0.0176402
662.098	0.0177219
662.176	0.0177591
662.254	0.0176774
662.332	0.0176945
662.410	0.0175564
662.488	0.0175903
662.567	0.0175420
662.645	0.0176826
662.723	0.0177523
662.801	0.0175616
662.879	0.0175342
662.957	0.0176946
663.035	0.0176373
663.113	0.0177372
663.192	0.0176550
663.270	0.0175986
663.348	0.0177427
663.426	0.0177307
663.504	0.0176014
663.582	0.0177794
663.660	0.0177325
663.738	0.0176392
663.817	0.0175777
663.895	0.0175255
663.973	0.0176359
664.051	0.0175985
664.129	0.0175740
664.207	0.0177367
664.285	0.0174810
664.363	0.0175676
664.442	0.0176579
664.520	0.0176732
664.598	0.0177303
664.676	0.0176084
664.754	0.0176795
664.832	0.0177068
664.910	0.0175840
664.988	0.0176224
665.067	0.0175903
665.145	0.0175762
665.223	0.0175690
665.301	0.0178944
665.379	0.0176263
665.457	0.0176777
665.535	0.0177399
665.613	0.0177174
665.692	0.0175632
665.770	0.0177085
665.848	0.0176678
665.926	0.0176635
666.004	0.0176741
666.082	0.0177921
666.160	0.0176659
666.238	0.0177098
666.317	0.0177468
666.395	0.0176674
666.473	0.0176052
666.551	0.0177131
666.629	0.0177145
666.707	0.0176867
666.785	0.0176640
666.863	0.0176316
666.942	0.0176956
667.020	0.0176922
667.098	0.0176757
667.176	0.0177203
667.254	0.0177048
667.332	0.0177397
667.410	0.0177363
667.488	0.0177612
667.567	0.0177153
667.645	0.0177071
667.723	0.0177828
667.801	0.0175697
667.879	0.0178200
667.957	0.0176145
668.035	0.0175497
668.113	0.0176473
668.192	0.0176925
668.270	0.0176076
668.348	0.0174458
668.426	0.0178269
668.504	0.0178621
668.582	0.0176286
668.660	0.0175897
668.738	0.0176701
668.817	0.0176260
668.895	0.0176572
668.973	0.0177030
669.051	0.0177139
669.129	0.0177496
669.207	0.0178565
669.285	0.0176814
669.363	0.0175493
669.442	0.0177802
669.520	0.0176505
669.598	0.0177871
669.676	0.0177336
669.754	0.0177208
669.832	0.0176503
669.910	0.0177194
669.988	0.0176438
670.067	0.0176009
670.145	0.0177940
670.223	0.0176085
670.301	0.0176589
670.379	0.0176834
670.457	0.0177168
670.535	0.0177536
670.613	0.0177011
670.692	0.0176880
670.770	0.0177275
670.848	0.0176966
670.926	0.0176965
671.004	0.0175895
671.082	0.0176843
671.160	0.0178635
671.238	0.0177236
671.317	0.0177140
671.395	0.0177673
671.473	0.0178304
671.551	0.0178127
671.629	0.0177412
671.707	0.0176912
671.785	0.0177737
671.863	0.0178120
671.942	0.0177287
672.020	0.0177486
672.098	0.0177063
672.176	0.0177838
672.254	0.0178288
672.332	0.0177041
672.410	0.0177341
672.488	0.0178220
672.567	0.0178390
672.645	0.0176624
672.723	0.0177629
672.801	0.0176866
672.879	0.0177241
672.957	0.0176669
673.035	0.0178827
673.113	0.0177894
673.192	0.0177941
673.270	0.0177557
673.348	0.0177744
673.426	0.0177541
673.504	0.0177434
673.582	0.0176759
673.660	0.0176559
673.738	0.0177840
673.817	0.0177644
673.895	0.0177393
673.973	0.0178073
674.051	0.0176409
674.129	0.0177859
674.207	0.0178200
674.285	0.0176956
674.363	0.0177234
674.442	0.0177420
674.520	0.0176695
674.598	0.0176357
674.676	0.0178036
674.754	0.0177479
674.832	0.0176807
674.910	0.0176903
674.988	0.0177661
675.067	0.0176723
675.145	0.0177122
675.223	0.0177179
675.301	0.0177110
675.379	0.0177092
675.457	0.0176976
675.535	0.0177634
675.613	0.0177119
675.692	0.0175996
675.770	0.0176840
675.848	0.0175501
675.926	0.0176255
676.004	0.0176900
676.082	0.0177438
676.160	0.0175429
676.238	0.0178249
676.317	0.0176552
676.395	0.0176291
676.473	0.0177200
676.551	0.0177608
676.629	0.0176019
676.707	0.0176853
676.785	0.0177960
676.863	0.0176925
676.942	0.0176401
677.020	0.0176878
677.098	0.0176485
677.176	0.0176192
677.254	0.0176479
677.332	0.0175842
677.410	0.0175840
677.488	0.0176932
677.567	0.0176196
677.645	0.0176111
677.723	0.0176969
677.801	0.0177063
677.879	0.0176318
677.957	0.0176997
678.035	0.0173853
678.113	0.0177899
678.192	0.0176754
678.270	0.0175521
678.348	0.0176643
678.426	0.0177010
678.504	0.0176289
678.582	0.0177769
678.660	0.0176308
678.738	0.0176955
678.817	0.0177090
678.895	0.0178446
678.973	0.0177465
679.051	0.0175834
679.129	0.0176736
679.207	0.0177911
679.285	0.0177424
679.363	0.0175803
679.442	0.0177070
679.520	0.0177427
679.598	0.0177050
679.676	0.0177621
679.754	0.0176621
679.832	0.0176170
679.910	0.0176690
679.988	0.0177096
680.067	0.0177105
680.145	0.0175900
680.223	0.0175966
680.301	0.0178262
680.379	0.0176570
680.457	0.0177801
680.535	0.0177681
680.613	0.0176652
680.692	0.0175530
680.770	0.0177997
680.848	0.0177811
680.926	0.0178179
681.004	0.0177529
681.082	0.0176780
681.160	0.0176481
681.238	0.0178073
681.317	0.0177017
681.395	0.0176459
681.473	0.0178168
681.551	0.0177384
681.629	0.0176050
681.707	0.0176104
681.785	0.0176866
681.863	0.0175975
681.942	0.0175159
682.020	0.0176202
682.098	0.0175902
682.176	0.0176654
682.254	0.0175980
682.332	0.0175635
682.410	0.0178064
682.488	0.0176801
682.567	0.0175656
682.645	0.0175770
682.723	0.0176408
682.801	0.0177501
682.879	0.0177981
682.957	0.0175995
683.035	0.0177015
683.113	0.0177357
683.192	0.0176660
683.270	0.0177832
683.348	0.0177274
683.426	0.0178247
683.504	0.0177511
683.582	0.0178288
683.660	0.0177460
683.738	0.0177574
683.817	0.0178321
683.895	0.0175863
683.973	0.0176949
684.051	0.0175431
684.129	0.0176466
684.207	0.0177348
684.285	0.0176952
684.363	0.0176226
684.442	0.0175323
684.520	0.0176295
684.598	0.0175606
684.676	0.0175670
684.754	0.0175715
684.832	0.0174976
684.910	0.0174436
684.988	0.0175542
685.067	0.0176389
685.145	0.0175402
685.223	0.0175625
685.301	0.0175566
685.379	0.0175949
685.457	0.0177465
685.535	0.0174931
685.613	0.0176567
685.692	0.0176768
685.770	0.0177229
685.848	0.0177741
685.926	0.0176925
686.004	0.0176793
686.082	0.0177639
686.160	0.0175458
686.238	0.0176916
686.317	0.0178308
686.395	0.0177163
686.473	0.0177348
686.551	0.0178989
686.629	0.0178338
686.707	0.0177637
686.785	0.0176537
686.863	0.0176891
686.942	0.0176966
687.020	0.0176318
687.098	0.0175958
687.176	0.0176853
687.254	0.0176281
687.332	0.0174802
687.410	0.0175893
687.488	0.0175651
687.567	0.0175999
687.645	0.0177840
687.723	0.0178004
687.801	0.0176694
687.879	0.0175401
687.957	0.0177636
688.035	0.0177507
688.113	0.0176853
688.192	0.0175890
688.270	0.0178336
688.348	0.0178374
688.426	0.0176565
688.504	0.0175491
688.582	0.0175343
688.660	0.0175436
688.738	0.0174397
688.817	0.0174678
688.895	0.0175246
688.973	0.0174426
689.051	0.0175636
689.129	0.0175092
689.207	0.0175931
689.285	0.0176489
689.363	0.0176882
689.442	0.0178516
689.520	0.0180738
689.598	0.0181802
689.676	0.0183057
689.754	0.0182714
689.832	0.0183818
689.910	0.0185658
689.988	0.0185246
690.067	0.0185946
690.145	0.0184999
690.223	0.0183084
690.301	0.0182336
690.379	0.0179211
690.457	0.0178276
690.535	0.0173542
690.613	0.0172334
690.692	0.0170294
690.770	0.0165714
690.848	0.0163248
690.926	0.0161060
691.004	0.0156750
691.082	0.0155621
691.160	0.0152026
691.238	0.0149205
691.317	0.0147751
691.395	0.0148380
691.473	0.0150193
691.551	0.0153161
691.629	0.0157788
691.707	0.0164017
691.785	0.0172815
691.863	0.0182182
691.942	0.0193069
692.020	0.0203120
692.098	0.0214999
692.176	0.0224820
692.254	0.0235766
692.332	0.0242284
692.410	0.0247678
692.488	0.0249729
692.567	0.0250800
692.645	0.0248424
692.723	0.0241273
692.801	0.0232281
692.879	0.0218416
692.957	0.0203391
693.035	0.0185782
693.113	0.0163815
693.192	0.0145404
693.270	0.0125316
693.348	0.0103168
693.426	0.00872849
693.504	0.00717865
693.582	0.00613892
693.660	0.00528015
693.738	0.00509026
693.817	0.00531166
693.895	0.00590866
693.973	0.00676773
694.051	0.00786285
694.129	0.00939629
694.207	0.0111707
694.285	0.0130659
694.363	0.0153447
694.442	0.0179476
694.520	0.0204733
694.598	0.0231136
694.676	0.0260538
694.754	0.0286939
694.832	0.0314503
694.910	0.0339596
694.988	0.0360957
695.067	0.0377795
695.145	0.0390675
695.223	0.0395711
695.301	0.0394003
695.379	0.0384912
695.457	0.0364968
695.535	0.0336954
695.613	0.0302409
695.692	0.0259962
695.770	0.0214352
695.848	0.0162656
695.926	0.0110587
696.004	0.00574989
696.082	0.000808105
696.160	-0.00375702
696.238	-0.00747932
696.317	-0.0101811
696.395	-0.0121837
696.473	-0.0131668
696.551	-0.0131239
696.629	-0.0119220
696.707	-0.00988503
696.785	-0.00702606
696.863	-0.00314178
696.942	0.00104797
697.020	0.00589706
697.098	0.0113460
697.176	0.0166874
697.254	0.0220538
697.332	0.0273642
697.410	0.0327543
697.488	0.0372434
697.567	0.0412767
697.645	0.0446856
697.723	0.0473978
697.801	0.0492956
697.879	0.0501894
697.957	0.0503769
698.035	0.0494457
698.113	0.0477978
698.192	0.0451694
698.270	0.0414715
698.348	0.0372639
698.426	0.0324304
698.504	0.0271347
698.582	0.0214688
698.660	0.0159361
698.738	0.0102924
698.817	0.00493027
698.895	0.000228348
698.973	-0.00380669
699.051	-0.00713997
699.129	-0.00959587
699.207	-0.0110614
699.285	-0.0117540
699.363	-0.0113284
699.442	-0.0102290
699.520	-0.00823906
699.598	-0.00566147
699.676	-0.00259529
699.754	0.000974274
699.832	0.00491013
699.910	0.00871239
699.988	0.0127821
700.067	0.0166270
700.145	0.0200848
700.223	0.0235726
700.301	0.0266147
700.379	0.0293764
700.457	0.0314531
700.535	0.0331468
700.613	0.0344420
700.692	0.0350626
700.770	0.0355034
700.848	0.0352651
700.926	0.0346469
701.004	0.0336871
701.082	0.0322823
701.160	0.0305251
701.238	0.0287523
701.317	0.0265558
701.395	0.0243969
701.473	0.0220419
701.551	0.0197932
701.629	0.0176576
701.707	0.0156515
701.785	0.0141178
701.863	0.0129913
701.942	0.0120718
702.020	0.0115659
702.098	0.0113347
702.176	0.0114307
702.254	0.0117581
702.332	0.0122628
702.410	0.0129312
702.488	0.0134310
702.567	0.0140584
702.645	0.0146221
702.723	0.0150285
702.801	0.0155792
702.879	0.0158251
702.957	0.0160613
703.035	0.0161882
703.113	0.0166316
703.192	0.0166284
703.270	0.0167805
703.348	0.0170342
703.426	0.0172591
703.504	0.0174198
703.582	0.0173626
703.660	0.0171410
703.738	0.0171612
703.817	0.0169933
703.895	0.0165705
703.973	0.0162239
704.051	0.0158151
704.129	0.0153288
704.207	0.0148740
704.285	0.0145985
704.363	0.0143370
704.442	0.0142461
704.520	0.0142879
704.598	0.0144029
704.676	0.0147134
704.754	0.0152037
704.832	0.0156799
704.910	0.0166442
704.988	0.0174823
705.067	0.0181187
705.145	0.0190709
705.223	0.0200412
705.301	0.0207838
705.379	0.0213258
705.457	0.0222623
705.535	0.0226261
705.613	0.0229015
705.692	0.0232854
705.770	0.0234416
705.848	0.0236992
705.926	0.0236775
706.004	0.0233860
706.082	0.0232196
706.160	0.0227324
706.238	0.0222117
706.317	0.0212982
706.395	0.0206644
706.473	0.0198615
706.551	0.0191518
706.629	0.0182928
706.707	0.0173546
706.785	0.0164762
706.863	0.0159500
706.942	0.0154395
707.020	0.0149629
707.098	0.0146603
707.176	0.0142287
707.254	0.0142911
707.332	0.0141344
707.410	0.0140215
707.488	0.0140468
707.567	0.0143837
707.645	0.0145951
707.723	0.0148499
707.801	0.0151636
707.879	0.0154869
707.957	0.0159561
708.035	0.0161281
708.113	0.0165004
708.192	0.0167094
708.270	0.0169193
708.348	0.0171908
708.426	0.0173016
708.504	0.0173760
708.582	0.0173179
708.660	0.0174580
708.738	0.0175042
708.817	0.0173519
708.895	0.0173802
708.973	0.0173596
709.051	0.0171761
709.129	0.0172868
709.207	0.0170995
709.285	0.0170776
709.363	0.0170331
709.442	0.0168937
709.520	0.0169573
709.598	0.0169537
709.676	0.0170390
709.754	0.0171407
709.832	0.0174525
709.910	0.0177099
709.988	0.0182495
710.067	0.0185881
710.145	0.0189073
710.223	0.0194575
710.301	0.0197502
710.379	0.0201830
710.457	0.0205688
710.535	0.0207222
710.613	0.0207613
710.692	0.0208677
710.770	0.0206306
710.848	0.0205288
710.926	0.0201765
711.004	0.0199669
711.082	0.0194235
711.160	0.0188999
711.238	0.0185904
711.317	0.0181938
711.395	0.0178983
711.473	0.0176163
711.551	0.0174241
711.629	0.0172787
711.707	0.0173141
711.785	0.0172581
711.863	0.0172708
711.942	0.0173763
712.020	0.0175587
712.098	0.0175912
712.176	0.0177664
712.254	0.0180124
712.332	0.0181290
712.410	0.0184183
712.488	0.0183556
712.567	0.0182220
712.645	0.0181504
712.723	0.0180141
712.801	0.0179162
712.879	0.0175751
712.957	0.0172831
713.035	0.0168403
713.113	0.0166466
713.192	0.0163220
713.270	0.0159988
713.348	0.0156792
713.426	0.0154531
713.504	0.0150589
713.582	0.0149741
713.660	0.0146546
713.738	0.0143940
713.817	0.0145284
713.895	0.0145252
713.973	0.0144371
714.051	0.0147031
714.129	0.0150140
714.207	0.0154653
714.285	0.0158448
714.363	0.0162683
714.442	0.0168047
714.520	0.0172577
714.598	0.0177053
714.676	0.0184024
714.754	0.0189264
714.832	0.0192356
714.910	0.0195380
714.988	0.0198000
715.067	0.0199837
715.145	0.0201541
715.223	0.0202500
715.301	0.0203878
715.379	0.0202269
715.457	0.0200823
715.535	0.0200407
715.613	0.0200025
715.692	0.0196410
715.770	0.0194268
715.848	0.0193253
715.926	0.0191243
716.004	0.0188494
716.082	0.0185957
716.160	0.0184251
716.238	0.0181441
716.317	0.0180329
716.395	0.0177359
716.473	0.0177837
716.551	0.0175263
716.629	0.0176038
716.707	0.0175978
716.785	0.0176088
716.863	0.0176392
716.942	0.0173415
717.020	0.0174871
717.098	0.0176615
717.176	0.0178462
717.254	0.0179124
717.332	0.0178901
717.410	0.0181346
717.488	0.0181419
717.567	0.0180596
717.645	0.0182289
717.723	0.0181126
717.801	0.0179686
717.879	0.0178326
717.957	0.0174667
718.035	0.0174319
718.113	0.0172378
718.192	0.0169177
718.270	0.0165833
718.348	0.0164811
718.426	0.0161716
718.504	0.0159785
718.582	0.0159866
718.660	0.0159149
718.738	0.0158212
718.817	0.0159014
718.895	0.0157307
718.973	0.0158510
719.051	0.0157598
719.129	0.0158910
719.207	0.0159206
719.285	0.0157954
719.363	0.0160998
719.442	0.0163762
719.520	0.0164642
719.598	0.0167648
719.676	0.0170961
719.754	0.0174843
719.832	0.0179238
719.910	0.0181503
719.988	0.0185652
720.067	0.0189603
720.145	0.0192457
720.223	0.0195086
720.301	0.0195790
720.379	0.0196972
720.457	0.0195689
720.535	0.0197073
720.613	0.0196316
720.692	0.0195850
720.770	0.0191794
720.848	0.0189578
720.926	0.0188467
721.004	0.0186182
721.082	0.0184779
721.160	0.0182898
721.238	0.0181107
721.317	0.0179309
721.395	0.0177666
721.473	0.0175999
721.551	0.0173520
721.629	0.0173434
721.707	0.0172978
721.785	0.0174133
721.863	0.0172183
721.942	0.0173981
722.020	0.0173538
722.098	0.0175512
722.176	0.0176045
722.254	0.0177039
722.332	0.0178397
722.410	0.0179986
722.488	0.0180008
722.567	0.0180281
722.645	0.0181295
722.723	0.0180341
722.801	0.0180602
722.879	0.0180653
722.957	0.0181161
723.035	0.0180128
723.113	0.0179882
723.192	0.0180717
723.270	0.0179442
723.348	0.0180566
723.426	0.0179166
723.504	0.0179169
723.582	0.0178877
723.660	0.0177734
723.738	0.0176969
723.817	0.0176154
723.895	0.0173864
723.973	0.0173538
724.051	0.0172239
724.129	0.0169292
724.207	0.0167905
724.285	0.0166891
724.363	0.0165464
724.442	0.0164933
724.520	0.0163064
724.598	0.0162553
724.676	0.0162300
724.754	0.0162563
724.832	0.0162881
724.910	0.0165485
724.988	0.0165488
725.067	0.0168483
725.145	0.0171622
725.223	0.0175632
725.301	0.0176799
725.379	0.0178149
725.457	0.0182284
725.535	0.0184802
725.613	0.0186328
725.692	0.0186964
725.770	0.0188931
725.848	0.0188236
725.926	0.0189329
726.004	0.0188670
726.082	0.0188066
726.160	0.0186102
726.238	0.0185103
726.317	0.0184088
726.395	0.0183495
726.473	0.0181000
726.551	0.0178590
726.629	0.0177859
726.707	0.0177289
726.785	0.0177369
726.863	0.0175566
726.942	0.0174596
727.020	0.0173538
727.098	0.0174447
727.176	0.0173618
727.254	0.0173076
727.332	0.0172875
727.410	0.0173209
727.488	0.0176081
727.567	0.0176096
727.645	0.0176917
727.723	0.0178525
727.801	0.0181473
727.879	0.0182284
727.957	0.0182663
728.035	0.0184188
728.113	0.0185753
728.192	0.0184567
728.270	0.0184992
728.348	0.0187478
728.426	0.0187579
728.504	0.0187414
728.582	0.0187488
728.660	0.0185094
728.738	0.0184028
728.817	0.0181268
728.895	0.0180316
728.973	0.0177329
729.051	0.0174948
729.129	0.0172720
729.207	0.0169675
729.285	0.0167700
729.363	0.0163422
729.442	0.0163861
729.520	0.0162028
729.598	0.0160559
729.676	0.0161018
729.754	0.0160912
729.832	0.0161784
729.910	0.0164118
729.988	0.0165736
730.067	0.0166438
730.145	0.0171140
730.223	0.0171983
730.301	0.0174882
730.379	0.0178712
730.457	0.0181306
730.535	0.0183088
730.613	0.0184872
730.692	0.0186475
730.770	0.0188121
730.848	0.0189665
730.926	0.0190211
731.004	0.0189303
731.082	0.0186318
731.160	0.0188084
731.238	0.0188126
731.317	0.0185278
731.395	0.0184177
731.473	0.0183516
731.551	0.0181600
731.629	0.0181316
731.707	0.0178653
731.785	0.0178040
731.863	0.0177214
731.942	0.0174985
732.020	0.0173209
732.098	0.0171425
732.176	0.0171227
732.254	0.0170148
732.332	0.0169968
732.410	0.0167841
732.488	0.0169398
732.567	0.0168978
732.645	0.0167448
732.723	0.0168426
732.801	0.0168220
732.879	0.0168395
732.957	0.0168792
733.035	0.0170337
733.113	0.0172361
733.192	0.0174054
733.270	0.0176155
733.348	0.0177996
733.426	0.0179157
733.504	0.0181976
733.582	0.0183405
733.660	0.0184722
733.738	0.0185438
733.817	0.0186442
733.895	0.0187752
733.973	0.0188551
734.051	0.0188454
734.129	0.0186569
734.207	0.0186246
734.285	0.0185658
734.363	0.0183779
734.442	0.0182406
734.520	0.0181567
734.598	0.0180325
734.676	0.0176546
734.754	0.0174817
734.832	0.0175284
734.910	0.0172915
734.988	0.0170571
735.067	0.0168681
735.145	0.0168655
735.223	0.0167938
735.301	0.0166161
735.379	0.0166702
735.457	0.0167728
735.535	0.0167951
735.613	0.0168224
735.692	0.0169146
735.770	0.0171284
735.848	0.0173356
735.926	0.0175842
736.004	0.0177415
736.082	0.0179874
736.160	0.0182569
736.238	0.0183299
736.317	0.0184087
736.395	0.0185010
736.473	0.0186225
736.551	0.0186813
736.629	0.0187019
736.707	0.0189141
736.785	0.0186766
736.863	0.0185388
736.942	0.0185680
737.020	0.0184953
737.098	0.0183054
737.176	0.0182090
737.254	0.0181635
737.332	0.0178528
737.410	0.0176677
737.488	0.0174146
737.567	0.0172274
737.645	0.0171237
737.723	0.0169134
737.801	0.0167118
737.879	0.0163809
737.957	0.0163710
738.035	0.0163627
738.113	0.0163578
738.192	0.0164546
738.270	0.0164161
738.348	0.0165620
738.426	0.0169270
738.504	0.0169871
738.582	0.0172706
738.660	0.0175719
738.738	0.0178410
738.817	0.0180627
738.895	0.0184133
738.973	0.0185699
739.051	0.0187609
739.129	0.0189671
739.207	0.0191361
739.285	0.0190739
739.363	0.0191228
739.442	0.0189844
739.520	0.0190273
739.598	0.0188519
739.676	0.0186475
739.754	0.0183955
739.832	0.0182716
739.910	0.0178736
739.988	0.0178374
740.067	0.0176376
740.145	0.0174224
740.223	0.0172507
740.301	0.0170044
740.379	0.0168605
740.457	0.0167651
740.535	0.0165997
740.613	0.0164597
740.692	0.0163703
740.770	0.0163047
740.848	0.0163695
740.926	0.0163831
741.004	0.0164082
741.082	0.0164542
741.160	0.0165553
741.238	0.0169147
741.317	0.0171091
741.395	0.0171561
741.473	0.0172784
741.551	0.0176066
741.629	0.0179608
741.707	0.0181704
741.785	0.0182946
741.863	0.0185078
741.942	0.0187715
742.020	0.0186194
742.098	0.0188755
742.176	0.0188841
742.254	0.0187717
742.332	0.0188597
742.410	0.0188931
742.488	0.0187193
742.567	0.0185483
742.645	0.0185400
742.723	0.0183309
742.801	0.0182199
742.879	0.0179224
742.957	0.0177280
743.035	0.0175329
743.113	0.0173784
743.192	0.0173395
743.270	0.0171505
743.348	0.0171598
743.426	0.0170433
743.504	0.0170499
743.582	0.0169695
743.660	0.0169963
743.738	0.0169951
743.817	0.0171488
743.895	0.0172211
743.973	0.0173408
744.051	0.0174545
744.129	0.0175990
744.207	0.0177028
744.285	0.0181281
744.363	0.0182172
744.442	0.0181270
744.520	0.0182257
744.598	0.0184431
744.676	0.0184067
744.754	0.0184355
744.832	0.0183599
744.910	0.0186059
744.988	0.0185316
745.067	0.0183890
745.145	0.0181799
745.223	0.0181937
745.301	0.0181935
745.379	0.0180549
745.457	0.0179516
745.535	0.0176882
745.613	0.0176275
745.692	0.0174973
745.770	0.0173457
745.848	0.0171603
745.926	0.0168758
746.004	0.0167342
746.082	0.0167142
746.160	0.0167296
746.238	0.0166532
746.317	0.0165042
746.395	0.0164296
746.473	0.0165613
746.551	0.0166164
746.629	0.0166548
746.707	0.0168265
746.785	0.0169793
746.863	0.0173220
746.942	0.0173911
747.020	0.0175927
747.098	0.0178095
747.176	0.0181625
747.254	0.0181484
747.332	0.0182630
747.410	0.0183880
747.488	0.0185212
747.567	0.0187457
747.645	0.0188564
747.723	0.0187840
747.801	0.0187635
747.879	0.0188357
747.957	0.0189615
748.035	0.0185848
748.113	0.0186441
748.192	0.0185778
748.270	0.0182947
748.348	0.0180891
748.426	0.0180450
748.504	0.0178055
748.582	0.0178001
748.660	0.0175513
748.738	0.0172639
748.817	0.0171239
748.895	0.0170695
748.973	0.0169950
749.051	0.0168219
749.129	0.0167806
749.207	0.0167966
749.285	0.0169634
749.363	0.0168533
749.442	0.0169715
749.520	0.0172932
749.598	0.0173936
749.676	0.0175386
749.754	0.0177823
749.832	0.0179276
749.910	0.0182832
749.988	0.0183215
750.067	0.0185435
750.145	0.0186883
750.223	0.0188398
750.301	0.0189215
750.379	0.0190412
750.457	0.0189940
750.535	0.0188888
750.613	0.0188899
750.692	0.0187324
750.770	0.0185168
750.848	0.0183736
750.926	0.0180648
751.004	0.0179828
751.082	0.0178777
751.160	0.0177003
751.238	0.0174510
751.317	0.0173199
751.395	0.0172627
751.473	0.0171358
751.551	0.0169525
751.629	0.0168255
751.707	0.0167831
751.785	0.0168776
751.863	0.0167111
751.942	0.0168340
752.020	0.0168958
752.098	0.0169063
752.176	0.0170967
752.254	0.0171248
752.332	0.0171533
752.410	0.0174072
752.488	0.0175212
752.567	0.0175961
752.645	0.0176942
752.723	0.0179444
752.801	0.0179106
752.879	0.0179624
752.957	0.0180953
753.035	0.0182495
753.113	0.0180859
753.192	0.0182488
753.270	0.0182098
753.348	0.0181750
753.426	0.0180887
753.504	0.0179146
753.582	0.0178621
753.660	0.0177744
753.738	0.0176759
753.817	0.0174599
753.895	0.0174636
753.973	0.0173775
754.051	0.0173782
754.129	0.0173772
754.207	0.0172279
754.285	0.0173617
754.363	0.0174805
754.442	0.0175224
754.520	0.0176043
754.598	0.0177253
754.676	0.0178190
754.754	0.0179155
754.832	0.0180263
754.910	0.0180624
754.988	0.0179744
755.067	0.0182224
755.145	0.0183077
755.223	0.0180599
755.301	0.0181173
755.379	0.0181911
755.457	0.0181106
755.535	0.0179688
755.613	0.0179611
755.692	0.0180032
755.770	0.0178325
755.848	0.0176815
755.926	0.0176424
756.004	0.0176267
756.082	0.0175262
756.160	0.0174779
756.238	0.0175245
756.317	0.0174918
756.395	0.0174902
756.473	0.0174992
756.551	0.0174854
756.629	0.0175839
756.707	0.0175086
756.785	0.0175206
756.863	0.0176479
756.942	0.0176607
757.020	0.0176563
757.098	0.0176718
757.176	0.0176167
757.254	0.0177791
757.332	0.0178047
757.410	0.0177524
757.488	0.0179086
757.567	0.0179716
757.645	0.0178954
757.723	0.0180847
757.801	0.0180774
757.879	0.0181235
757.957	0.0182447
758.035	0.0181676
758.113	0.0180106
758.192	0.0180290
758.270	0.0181709
758.348	0.0180135
758.426	0.0181100
758.504	0.0180216
758.582	0.0180141
758.660	0.0179928
758.738	0.0178371
758.817	0.0177584
758.895	0.0177980
758.973	0.0177802
759.051	0.0175951
759.129	0.0175616
759.207	0.0173553
759.285	0.0174070
759.363	0.0173429
759.442	0.0172440
759.520	0.0172055
759.598	0.0171616
759.676	0.0171860
759.754	0.0170261
759.832	0.0171210
759.910	0.0170534
759.988	0.0171593
760.067	0.0172294
760.145	0.0173073
760.223	0.0173414
760.301	0.0173578
760.379	0.0175487
760.457	0.0176231
760.535	0.0177802
760.613	0.0177749
760.692	0.0177911
760.770	0.0178730
760.848	0.0179803
760.926	0.0180763
761.004	0.0180178
761.082	0.0179443
761.160	0.0180604
761.238	0.0180355
761.317	0.0178355
761.395	0.0180540
761.473	0.0179724
761.551	0.0179339
761.629	0.0178632
761.707	0.0177401
761.785	0.0177563
761.863	0.0175172
761.942	0.0174997
762.020	0.0174731
762.098	0.0174461
762.176	0.0173889
762.254	0.0173161
762.332	0.0174781
762.410	0.0173496
762.488	0.0173129
762.567	0.0173038
762.645	0.0174655
762.723	0.0175370
762.801	0.0174276
762.879	0.0176239
762.957	0.0177417
763.035	0.0176408
763.113	0.0176997
763.192	0.0178710
763.270	0.0179123
763.348	0.0180442
763.426	0.0179441
763.504	0.0180538
763.582	0.0181325
763.660	0.0182731
763.738	0.0182200
763.817	0.0182442
763.895	0.0183770
763.973	0.0182960
764.051	0.0183570
764.129	0.0185536
764.207	0.0183369
764.285	0.0181595
764.363	0.0181152
764.442	0.0182169
764.520	0.0179197
764.598	0.0179690
764.676	0.0177836
764.754	0.0176711
764.832	0.0175198
764.910	0.0175436
764.988	0.0172902
765.067	0.0172076
765.145	0.0172123
765.223	0.0172917
765.301	0.0172623
765.379	0.0171101
765.457	0.0171505
765.535	0.0172380
765.613	0.0172851
765.692	0.0171595
765.770	0.0172229
765.848	0.0172820
765.926	0.0174135
766.004	0.0173992
766.082	0.0175363
766.160	0.0177000
766.238	0.0176732
766.317	0.0179423
766.395	0.0179568
766.473	0.0181775
766.551	0.0182176
766.629	0.0182613
766.707	0.0184586
766.785	0.0183749
766.863	0.0184810
766.942	0.0182534
767.020	0.0181898
767.098	0.0182779
767.176	0.0182019
767.254	0.0179569
767.332	0.0179221
767.410	0.0177302
767.488	0.0175064
767.567	0.0173613
767.645	0.0173266
767.723	0.0171722
767.801	0.0172448
767.879	0.0171790
767.957	0.0171526
768.035	0.0172366
768.113	0.0171329
768.192	0.0171757
768.270	0.0172142
768.348	0.0172470
768.426	0.0172054
768.504	0.0173625
768.582	0.0175330
768.660	0.0175378
768.738	0.0175198
768.817	0.0175159
768.895	0.0177527
768.973	0.0178711
769.051	0.0179859
769.129	0.0179176
769.207	0.0180145
769.285	0.0179855
769.363	0.0181110
769.442	0.0180357
769.520	0.0181769
769.598	0.0181470
769.676	0.0180753
769.754	0.0180743
769.832	0.0179702
769.910	0.0179087
769.988	0.0177801
770.067	0.0180148
770.145	0.0177761
770.223	0.0177176
770.301	0.0178159
770.379	0.0177766
770.457	0.0176415
770.535	0.0177332
770.613	0.0176939
770.692	0.0176787
770.770	0.0178362
770.848	0.0176797
770.926	0.0177602
771.004	0.0178489
771.082	0.0176755
771.160	0.0178771
771.238	0.0178143
771.317	0.0178025
771.395	0.0179179
771.473	0.0179358
771.551	0.0179819
771.629	0.0180935
771.707	0.0181044
771.785	0.0179906
771.863	0.0179913
771.942	0.0179771
772.020	0.0179937
772.098	0.0178968
772.176	0.0178670
772.254	0.0178968
772.332	0.0178783
772.410	0.0178097
772.488	0.0175790
772.567	0.0176571
772.645	0.0176633
772.723	0.0176261
772.801	0.0176339
772.879	0.0173934
772.957	0.0175207
773.035	0.0174826
773.113	0.0174508
773.192	0.0174130
773.270	0.0174769
773.348	0.0175308
773.426	0.0175644
773.504	0.0175288
773.582	0.0176948
773.660	0.0177524
773.738	0.0177665
773.817	0.0177895
773.895	0.0177789
773.973	0.0178181
774.051	0.0180134
774.129	0.0178400
774.207	0.0180717
774.285	0.0180624
774.363	0.0179015
774.442	0.0180260
774.520	0.0182014
774.598	0.0178093
774.676	0.0176468
774.754	0.0175694
774.832	0.0175925
774.910	0.0176042
774.988	0.0176675
775.067	0.0175596
775.145	0.0173837
775.223	0.0172669
775.301	0.0174586
775.379	0.0173178
775.457	0.0172924
775.535	0.0173646
775.613	0.0174058
775.692	0.0174568
775.770	0.0173797
775.848	0.0174857
775.926	0.0174199
776.004	0.0175339
776.082	0.0176448
776.160	0.0177141
776.238	0.0179346
776.317	0.0179989
776.395	0.0180591
776.473	0.0180556
776.551	0.0181438
776.629	0.0182287
776.707	0.0182389
776.785	0.0181158
776.863	0.0182252
776.942	0.0183746
777.020	0.0184399
777.098	0.0183809
777.176	0.0182473
777.254	0.0180626
777.332	0.0181107
777.410	0.0179396
777.488	0.0179204
777.567	0.0177151
777.645	0.0176489
777.723	0.0176964
777.801	0.0175277
777.879	0.0175249
777.957	0.0174776
778.035	0.0174316
778.113	0.0174344
778.192	0.0173106
778.270	0.0173444
778.348	0.0174372
778.426	0.0175192
778.504	0.0175344
778.582	0.0175175
778.660	0.0175649
778.738	0.0176273
778.817	0.0177917
778.895	0.0179135
778.973	0.0178886
779.051	0.0179912
779.129	0.0178220
779.207	0.0178494
779.285	0.0179924
779.363	0.0180079
779.442	0.0179743
779.520	0.0178667
779.598	0.0180653
779.676	0.0179853
779.754	0.0179721
779.832	0.0179392
779.910	0.0178603
779.988	0.0179360
780.067	0.0178595
780.145	0.0177813
780.223	0.0177657
780.301	0.0177939
780.379	0.0176736
780.457	0.0177615
780.535	0.0176926
780.613	0.0175504
780.692	0.0175035
780.770	0.0176262
780.848	0.0176572
780.926	0.0174711
781.004	0.0174987
781.082	0.0176208
781.160	0.0175095
781.238	0.0175865
781.317	0.0175794
781.395	0.0177370
781.473	0.0177106
781.551	0.0177166
781.629	0.0176427
781.707	0.0176934
781.785	0.0178228
781.863	0.0177280
781.942	0.0176580
782.020	0.0177355
782.098	0.0177821
782.176	0.0177443
782.254	0.0177026
782.332	0.0177095
782.410	0.0176130
782.488	0.0177365
782.567	0.0177827
782.645	0.0177417
782.723	0.0176985
782.801	0.0175563
782.879	0.0176877
782.957	0.0178632
783.035	0.0177998
783.113	0.0177509
783.192	0.0176516
783.270	0.0175201
783.348	0.0176394
783.426	0.0176276
783.504	0.0176136
783.582	0.0174826
783.660	0.0175891
783.738	0.0177242
783.817	0.0175751
783.895	0.0174296
783.973	0.0174965
784.051	0.0175632
784.129	0.0176437
784.207	0.0176463
784.285	0.0176483
784.363	0.0177676
784.442	0.0176821
784.520	0.0174865
784.598	0.0176752
784.676	0.0180119
784.754	0.0179211
784.832	0.0179092
784.910	0.0178911
784.988	0.0180957
785.067	0.0180150
785.145	0.0179819
785.223	0.0181469
785.301	0.0181464
785.379	0.0182132
785.457	0.0181870
785.535	0.0180060
785.613	0.0182070
785.692	0.0180696
785.770	0.0179838
785.848	0.0181426
785.926	0.0179641
786.004	0.0177676
786.082	0.0178203
786.160	0.0176698
786.238	0.0175424
786.317	0.0176360
786.395	0.0174445
786.473	0.0174278
786.551	0.0174955
786.629	0.0173354
786.707	0.0172269
786.785	0.0172849
786.863	0.0172227
786.942	0.0172238
787.020	0.0173003
787.098	0.0172704
787.176	0.0172491
787.254	0.0173948
787.332	0.0173342
787.410	0.0174449
787.488	0.0172388
787.567	0.0175066
787.645	0.0173962
787.723	0.0175458
787.801	0.0175377
787.879	0.0175274
787.957	0.0176725
788.035	0.0175890
788.113	0.0178429
788.192	0.0179980
788.270	0.0180863
788.348	0.0182604
788.426	0.0182790
788.504	0.0183080
788.582	0.0184296
788.660	0.0184504
788.738	0.0185067
788.817	0.0186186
788.895	0.0184856
788.973	0.0184799
789.051	0.0184676
789.129	0.0184750
789.207	0.0182526
789.285	0.0182529
789.363	0.0180344
789.442	0.0179047
789.520	0.0177825
789.598	0.0176903
789.676	0.0174900
789.754	0.0174201
789.832	0.0171450
789.910	0.0170355
789.988	0.0169181
790.067	0.0167194
790.145	0.0164886
790.223	0.0164915
790.301	0.0165282
790.379	0.0165460
790.457	0.0165162
790.535	0.0166082
790.613	0.0166061
790.692	0.0167191
790.770	0.0170592
790.848	0.0171703
790.926	0.0173928
791.004	0.0179191
791.082	0.0180894
791.160	0.0183647
791.238	0.0185818
791.317	0.0188158
791.395	0.0191164
791.473	0.0194049
791.551	0.0194724
791.629	0.0194917
791.707	0.0195904
791.785	0.0195076
791.863	0.0194789
791.942	0.0192654
792.020	0.0189642
792.098	0.0186184
792.176	0.0183335
792.254	0.0179671
792.332	0.0176239
792.410	0.0172848
792.488	0.0169678
792.567	0.0167005
792.645	0.0163318
792.723	0.0161926
792.801	0.0159354
792.879	0.0156634
792.957	0.0154550
793.035	0.0154729
793.113	0.0155047
793.192	0.0156382
793.270	0.0155860
793.348	0.0157644
793.426	0.0159557
793.504	0.0162098
793.582	0.0166814
793.660	0.0171711
793.738	0.0174908
793.817	0.0178625
793.895	0.0183575
793.973	0.0186274
794.051	0.0190408
794.129	0.0192728
794.207	0.0198034
794.285	0.0199904
794.363	0.0201241
794.442	0.0204103
794.520	0.0203946
794.598	0.0203252
794.676	0.0203204
794.754	0.0201550
794.832	0.0200263
794.910	0.0196559
794.988	0.0194244
795.067	0.0190954
795.145	0.0185996
795.223	0.0181963
795.301	0.0178806
795.379	0.0175888
795.457	0.0173127
795.535	0.0168773
795.613	0.0165630
795.692	0.0162583
795.770	0.0160946
795.848	0.0158003
795.926	0.0156414
796.004	0.0155247
796.082	0.0154926
796.160	0.0154163
796.238	0.0153427
796.317	0.0155135
796.395	0.0155325
796.473	0.0157278
796.551	0.0159541
796.629	0.0162173
796.707	0.0163925
796.785	0.0167798
796.863	0.0171719
796.942	0.0176270
797.020	0.0178823
797.098	0.0183508
797.176	0.0185728
797.254	0.0188407
797.332	0.0190572
797.410	0.0193156
797.488	0.0193739
797.567	0.0195741
797.645	0.0197467
797.723	0.0195248
797.801	0.0195916
797.879	0.0194340
797.957	0.0193920
798.035	0.0190125
798.113	0.0190300
798.192	0.0188220
798.270	0.0186951
798.348	0.0184725
798.426	0.0182479
798.504	0.0180435
798.582	0.0177731
798.660	0.0175777
798.738	0.0173399
798.817	0.0173127
798.895	0.0171359
798.973	0.0168800
799.051	0.0167400
799.129	0.0167187
799.207	0.0166057
799.285	0.0167254
799.363	0.0166129
799.442	0.0166396
799.520	0.0167520
799.598	0.0168592
799.676	0.0168478
799.754	0.0170582
799.832	0.0171843
799.910	0.0173649
799.988	0.0175548
800.067	0.0175325
800.145	0.0176550
800.223	0.0178374
800.301	0.0178961
800.379	0.0177948
800.457	0.0179034
800.535	0.0180501
800.613	0.0178388
800.692	0.0179469
800.770	0.0179307
800.848	0.0178839
800.926	0.0178268
801.004	0.0180219
801.082	0.0178773
801.160	0.0178011
801.238	0.0177669
801.317	0.0179808
801.395	0.0179830
801.473	0.0180099
801.551	0.0179439
801.629	0.0181203
801.707	0.0178452
801.785	0.0180234
801.863	0.0179970
801.942	0.0180936
802.020	0.0180391
802.098	0.0181107
802.176	0.0179116
802.254	0.0178908
802.332	0.0180508
802.410	0.0179771
802.488	0.0181661
802.567	0.0180811
802.645	0.0180269
802.723	0.0181756
802.801	0.0181442
802.879	0.0178419
802.957	0.0178310
803.035	0.0177674
803.113	0.0177428
803.192	0.0177945
803.270	0.0177219
803.348	0.0175793
803.426	0.0176225
803.504	0.0175112
803.582	0.0175403
803.660	0.0176686
803.738	0.0177325
803.817	0.0177031
803.895	0.0175979
803.973	0.0176501
804.051	0.0177357
804.129	0.0178695
804.207	0.0177834
804.285	0.0178289
804.363	0.0177602
804.442	0.0177026
804.520	0.0175957
804.598	0.0176450
804.676	0.0176096
804.754	0.0175455
804.832	0.0172752
804.910	0.0173150
804.988	0.0174168
805.067	0.0172392
805.145	0.0170669
805.223	0.0172287
805.301	0.0171210
805.379	0.0170113
805.457	0.0169807
805.535	0.0170166
805.613	0.0170682
805.692	0.0170155
805.770	0.0172102
805.848	0.0172849
805.926	0.0171755
806.004	0.0171599
806.082	0.0172794
806.160	0.0174879
806.238	0.0175829
806.317	0.0175790
806.395	0.0176193
806.473	0.0177415
806.551	0.0178969
806.629	0.0181023
806.707	0.0181190
806.785	0.0181516
806.863	0.0182879
806.942	0.0184167
807.020	0.0183714
807.098	0.0183254
807.176	0.0184339
807.254	0.0184315
807.332	0.0184643
807.410	0.0185767
807.488	0.0184191
807.567	0.0184078
807.645	0.0183617
807.723	0.0183806
807.801	0.0181104
807.879	0.0182254
807.957	0.0181696
808.035	0.0181185
808.113	0.0180640
808.192	0.0178763
808.270	0.0177676
808.348	0.0178130
808.426	0.0177444
808.504	0.0176642
808.582	0.0176965
808.660	0.0176405
808.738	0.0176623
808.817	0.0175822
808.895	0.0175036
808.973	0.0175148
809.051	0.0176521
809.129	0.0175404
809.207	0.0174723
809.285	0.0173557
809.363	0.0175598
809.442	0.0174926
809.520	0.0174775
809.598	0.0174880
809.676	0.0173999
809.754	0.0175194
809.832	0.0173792
809.910	0.0174187
809.988	0.0174079
810.067	0.0174471
810.145	0.0175498
810.223	0.0175390
810.301	0.0175508
810.379	0.0175999
810.457	0.0175709
810.535	0.0175836
810.613	0.0176486
810.692	0.0177798
810.770	0.0177501
810.848	0.0178911
810.926	0.0178001
811.004	0.0178741
811.082	0.0178834
811.160	0.0179430
811.238	0.0177779
811.317	0.0179459
811.395	0.0179607
811.473	0.0178957
811.551	0.0179238
811.629	0.0178819
811.707	0.0179605
811.785	0.0180547
811.863	0.0180361
811.942	0.0180512
812.020	0.0178424
812.098	0.0179372
812.176	0.0179731
812.254	0.0179322
812.332	0.0178113
812.410	0.0178312
812.488	0.0177045
812.567	0.0177840
812.645	0.0177538
812.723	0.0177223
812.801	0.0175724
812.879	0.0176257
812.957	0.0175520
813.035	0.0175227
813.113	0.0175881
813.192	0.0176759
813.270	0.0175710
813.348	0.0176437
813.426	0.0176953
813.504	0.0176530
813.582	0.0177276
813.660	0.0177052
813.738	0.0177505
813.817	0.0178095
813.895	0.0176678
813.973	0.0178194
814.051	0.0178171
814.129	0.0177596
814.207	0.0178207
814.285	0.0178209
814.363	0.0178223
814.442	0.0175787
814.520	0.0177202
814.598	0.0175360
814.676	0.0175538
814.754	0.0176343
814.832	0.0175310
814.910	0.0175938
814.988	0.0175844
815.067	0.0174900
815.145	0.0174538
815.223	0.0174458
815.301	0.0173583
815.379	0.0174000
815.457	0.0173409
815.535	0.0174184
815.613	0.0174770
815.692	0.0173895
815.770	0.0173853
815.848	0.0174963
815.926	0.0173286
816.004	0.0174329
816.082	0.0175292
816.160	0.0175839
816.238	0.0175385
816.317	0.0177174
816.395	0.0176731
816.473	0.0177586
816.551	0.0176345
816.629	0.0178233
816.707	0.0177473
816.785	0.0177975
816.863	0.0178364
816.942	0.0178281
817.020	0.0179842
817.098	0.0180411
817.176	0.0179857
817.254	0.0178148
817.332	0.0179926
817.410	0.0180021
817.488	0.0180305
817.567	0.0181104
817.645	0.0180036
817.723	0.0176717
817.801	0.0178682
817.879	0.0179605
817.957	0.0179603
818.035	0.0178533
818.113	0.0177449
818.192	0.0178146
818.270	0.0177722
818.348	0.0178220
818.426	0.0177429
818.504	0.0178439
818.582	0.0177938
818.660	0.0177946
818.738	0.0178658
818.817	0.0179543
818.895	0.0180542
818.973	0.0180890
819.051	0.0180419
819.129	0.0179760
819.207	0.0181117
819.285	0.0181061
819.363	0.0182677
819.442	0.0182671
819.520	0.0181090
819.598	0.0183285
819.676	0.0181033
819.754	0.0180781
819.832	0.0179556
819.910	0.0177760
819.988	0.0176678
820.067	0.0174360
820.145	0.0172705
820.223	0.0172411
820.301	0.0170914
820.379	0.0169315
820.457	0.0167098
820.535	0.0166508
820.613	0.0165561
820.692	0.0165337
820.770	0.0164941
820.848	0.0164907
820.926	0.0164882
821.004	0.0166740
821.082	0.0167690
821.160	0.0168681
821.238	0.0169196
821.317	0.0171133
821.395	0.0171682
821.473	0.0175142
821.551	0.0176216
821.629	0.0178767
821.707	0.0179955
821.785	0.0180296
821.863	0.0180754
821.942	0.0182183
822.020	0.0184424
822.098	0.0184276
822.176	0.0186015
822.254	0.0184468
822.332	0.0184609
822.410	0.0184626
822.488	0.0182220
822.567	0.0185428
822.645	0.0181657
822.723	0.0181014
822.801	0.0180305
822.879	0.0180637
822.957	0.0178928
823.035	0.0177471
823.113	0.0180188
823.192	0.0176332
823.270	0.0175547
823.348	0.0175214
823.426	0.0176842
823.504	0.0175157
823.582	0.0175175
823.660	0.0174341
823.738	0.0175661
823.817	0.0177448
823.895	0.0176418
823.973	0.0176527
824.051	0.0177877
824.129	0.0177829
824.207	0.0176460
824.285	0.0180511
824.363	0.0179545
824.442	0.0179928
824.520	0.0180994
824.598	0.0180247
824.676	0.0181992
824.754	0.0181457
824.832	0.0181879
824.910	0.0183039
824.988	0.0182148
825.067	0.0181770
825.145	0.0182534
825.223	0.0180836
825.301	0.0180593
825.379	0.0180154
825.457	0.0179790
825.535	0.0178376
825.613	0.0177789
825.692	0.0177721
825.770	0.0175623
825.848	0.0175124
825.926	0.0172766
826.004	0.0172755
826.082	0.0171943
826.160	0.0170342
826.238	0.0169661
826.317	0.0171127
826.395	0.0170696
826.473	0.0171059
826.551	0.0170877
826.629	0.0170782
826.707	0.0170805
826.785	0.0171548
826.863	0.0173356
826.942	0.0176373
827.020	0.0176664
827.098	0.0177439
827.176	0.0179691
827.254	0.0180612
827.332	0.0180020
827.410	0.0182345
827.488	0.0183073
827.567	0.0183171
827.645	0.0183694
827.723	0.0185728
827.801	0.0186045
827.879	0.0184128
827.957	0.0183189
828.035	0.0183467
828.113	0.0183013
828.192	0.0182280
828.270	0.0181658
828.348	0.0180830
828.426	0.0180163
828.504	0.0177683
828.582	0.0177811
828.660	0.0177735
828.738	0.0175015
828.817	0.0173064
828.895	0.0173083
828.973	0.0171999
829.051	0.0171218
829.129	0.0171454
829.207	0.0170422
829.285	0.0172379
829.363	0.0171436
829.442	0.0170263
829.520	0.0170982
829.598	0.0173002
829.676	0.0172425
829.754	0.0173151
829.832	0.0173812
829.910	0.0176423
829.988	0.0176765
830.067	0.0176644
830.145	0.0178362
830.223	0.0179578
830.301	0.0181181
830.379	0.0182251
830.457	0.0183660
830.535	0.0182964
830.613	0.0184051
830.692	0.0185897
830.770	0.0184254
830.848	0.0184370
830.926	0.0183648
831.004	0.0183849
831.082	0.0181877
831.160	0.0182071
831.238	0.0180367
831.317	0.0179452
831.395	0.0178527
831.473	0.0176257
831.551	0.0175253
831.629	0.0174607
831.707	0.0174274
831.785	0.0172704
831.863	0.0171398
831.942	0.0171597
832.020	0.0172607
832.098	0.0173061
832.176	0.0171627
832.254	0.0171832
832.332	0.0172668
832.410	0.0172283
832.488	0.0173444
832.567	0.0174030
832.645	0.0176064
832.723	0.0176511
832.801	0.0178398
832.879	0.0181033
832.957	0.0180904
833.035	0.0181236
833.113	0.0182500
833.192	0.0183926
833.270	0.0184091
833.348	0.0184714
833.426	0.0184435
833.504	0.0185181
833.582	0.0184204
833.660	0.0183753
833.738	0.0183737
833.817	0.0182659
833.895	0.0182184
833.973	0.0181981
834.051	0.0181275
834.129	0.0179571
834.207	0.0178934
834.285	0.0178054
834.363	0.0179051
834.442	0.0177257
834.520	0.0174943
834.598	0.0175144
834.676	0.0175625
834.754	0.0175013
834.832	0.0174501
834.910	0.0174347
834.988	0.0173160
835.067	0.0173333
835.145	0.0175011
835.223	0.0174362
835.301	0.0175451
835.379	0.0175095
835.457	0.0174222
835.535	0.0175777
835.613	0.0176705
835.692	0.0176793
835.770	0.0175997
835.848	0.0176816
835.926	0.0178544
836.004	0.0178696
836.082	0.0178423
836.160	0.0179353
836.238	0.0180476
836.317	0.0179697
836.395	0.0179427
836.473	0.0180336
836.551	0.0180759
836.629	0.0180299
836.707	0.0180743
836.785	0.0180583
836.863	0.0179042
836.942	0.0178944
837.020	0.0179945
837.098	0.0177953
837.176	0.0178388
837.254	0.0178598
837.332	0.0177409
837.410	0.0176543
837.488	0.0174800
837.567	0.0173158
837.645	0.0173299
837.723	0.0172862
837.801	0.0171103
837.879	0.0171627
837.957	0.0170800
838.035	0.0172304
838.113	0.0171774
838.192	0.0171094
838.270	0.0172587
838.348	0.0174372
838.426	0.0173481
838.504	0.0174937
838.582	0.0176015
838.660	0.0178365
838.738	0.0179083
838.817	0.0180186
838.895	0.0180609
838.973	0.0181126
839.051	0.0183314
839.129	0.0182983
839.207	0.0183229
839.285	0.0184496
839.363	0.0184080
839.442	0.0183765
839.520	0.0186103
839.598	0.0184476
839.676	0.0183323
839.754	0.0184455
839.832	0.0183431
839.910	0.0182763
839.988	0.0181528
840.067	0.0181796
840.145	0.0181300
840.223	0.0181835
840.301	0.0181953
840.379	0.0180865
840.457	0.0179643
840.535	0.0179279
840.613	0.0177789
840.692	0.0178018
840.770	0.0177277
840.848	0.0177087
840.926	0.0175941
841.004	0.0173850
841.082	0.0174330
841.160	0.0173367
841.238	0.0173389
841.317	0.0173605
841.395	0.0172955
841.473	0.0172652
841.551	0.0173804
841.629	0.0172661
841.707	0.0172548
841.785	0.0173485
841.863	0.0174085
841.942	0.0173083
842.020	0.0174338
842.098	0.0174984
842.176	0.0175242
842.254	0.0175760
842.332	0.0176307
842.410	0.0175110
842.488	0.0175830
842.567	0.0176704
842.645	0.0177071
842.723	0.0176999
842.801	0.0177492
842.879	0.0177231
842.957	0.0178319
843.035	0.0178687
843.113	0.0178853
843.192	0.0178886
843.270	0.0178757
843.348	0.0179467
843.426	0.0178909
843.504	0.0180135
843.582	0.0180226
843.660	0.0180904
843.738	0.0179674
843.817	0.0180936
843.895	0.0179810
843.973	0.0180004
844.051	0.0181416
844.129	0.0180095
844.207	0.0179540
844.285	0.0178898
844.363	0.0179696
844.442	0.0178706
844.520	0.0177863
844.598	0.0177670
844.676	0.0176527
844.754	0.0175206
844.832	0.0175268
844.910	0.0174033
844.988	0.0173968
845.067	0.0175462
845.145	0.0174203
845.223	0.0173087
845.301	0.0173121
845.379	0.0175076
845.457	0.0174227
845.535	0.0174017
845.613	0.0174252
845.692	0.0174770
845.770	0.0175957
845.848	0.0174725
845.926	0.0176215
846.004	0.0176316
846.082	0.0179073
846.160	0.0178483
846.238	0.0177850
846.317	0.0179134
846.395	0.0180282
846.473	0.0179865
846.551	0.0179740
846.629	0.0178595
846.707	0.0180465
846.785	0.0179397
846.863	0.0180531
846.942	0.0180047
847.020	0.0178363
847.098	0.0180060
847.176	0.0179069
847.254	0.0178861
847.332	0.0178482
847.410	0.0178631
847.488	0.0177519
847.567	0.0178087
847.645	0.0177383
847.723	0.0177747
847.801	0.0176471
847.879	0.0176782
847.957	0.0176955
848.035	0.0177930
848.113	0.0175996
848.192	0.0176769
848.270	0.0177358
848.348	0.0176160
848.426	0.0176456
848.504	0.0177403
848.582	0.0178616
848.660	0.0177784
848.738	0.0178117
848.817	0.0179189
848.895	0.0181113
848.973	0.0180789
849.051	0.0180688
849.129	0.0179920
849.207	0.0181110
849.285	0.0180194
849.363	0.0181529
849.442	0.0179915
849.520	0.0180247
849.598	0.0179736
849.676	0.0179075
849.754	0.0178906
849.832	0.0177715
849.910	0.0177733
849.988	0.0176937
850.067	0.0176254
850.145	0.0175557
850.223	0.0175010
850.301	0.0175182
850.379	0.0174789
850.457	0.0172781
850.535	0.0173322
850.613	0.0173155
850.692	0.0173056
850.770	0.0174776
850.848	0.0174433
850.926	0.0174767
851.004	0.0174918
851.082	0.0175388
851.160	0.0177145
851.238	0.0177327
851.317	0.0177467
851.395	0.0179655
851.473	0.0179288
851.551	0.0180238
851.629	0.0179557
851.707	0.0180302
851.785	0.0180672
851.863	0.0180733
851.942	0.0179594
852.020	0.0181061
852.098	0.0180013
852.176	0.0179378
852.254	0.0179693
852.332	0.0177697
852.410	0.0177855
852.488	0.0178365
852.567	0.0176965
852.645	0.0175581
852.723	0.0176231
852.801	0.0175156
852.879	0.0173122
852.957	0.0174075
853.035	0.0175922
853.113	0.0174341
853.192	0.0174274
853.270	0.0175199
853.348	0.0173090
853.426	0.0175493
853.504	0.0175566
853.582	0.0175701
853.660	0.0174582
853.738	0.0175369
853.817	0.0177496
853.895	0.0177202
853.973	0.0176888
854.051	0.0177611
854.129	0.0177965
854.207	0.0178490
854.285	0.0179311
854.363	0.0178447
854.442	0.0178949
854.520	0.0179423
854.598	0.0179931
854.676	0.0180731
854.754	0.0181535
854.832	0.0181967
854.910	0.0180868
854.988	0.0182137
855.067	0.0181977
855.145	0.0182957
855.223	0.0182336
855.301	0.0181862
855.379	0.0182972
855.457	0.0182301
855.535	0.0183065
855.613	0.0181764
855.692	0.0180913
855.770	0.0180550
855.848	0.0177721
855.926	0.0178324
856.004	0.0177507
856.082	0.0176408
856.160	0.0175523
856.238	0.0176437
856.317	0.0175190
856.395	0.0174213
856.473	0.0173702
856.551	0.0173624
856.629	0.0174064
856.707	0.0175634
856.785	0.0172907
856.863	0.0173541
856.942	0.0174481
857.020	0.0173888
857.098	0.0174532
857.176	0.0175755
857.254	0.0177047
857.332	0.0176346
857.410	0.0177368
857.488	0.0176709
857.567	0.0177158
857.645	0.0179575
857.723	0.0179661
857.801	0.0179462
857.879	0.0179601
857.957	0.0180550
858.035	0.0179654
858.113	0.0180880
858.192	0.0180360
858.270	0.0180218
858.348	0.0178540
858.426	0.0179252
858.504	0.0178964
858.582	0.0179140
858.660	0.0176977
858.738	0.0177561
858.817	0.0176767
858.895	0.0176048
858.973	0.0174807
859.051	0.0175969
859.129	0.0174239
859.207	0.0173695
859.285	0.0174426
859.363	0.0173379
859.442	0.0173476
859.520	0.0174185
859.598	0.0173126
859.676	0.0173916
859.754	0.0176026
859.832	0.0175864
859.910	0.0176079
859.988	0.0175700
860.067	0.0177427
860.145	0.0178280
860.223	0.0179253
860.301	0.0179446
860.379	0.0179012
860.457	0.0179742
860.535	0.0181915
860.613	0.0183546
860.692	0.0182996
860.770	0.0183433
860.848	0.0184476
860.926	0.0185043
861.004	0.0182688
861.082	0.0183105
861.160	0.0183465
861.238	0.0181312
861.317	0.0180978
861.395	0.0180193
861.473	0.0178230
861.551	0.0177463
861.629	0.0178001
861.707	0.0175098
861.785	0.0174859
861.863	0.0173779
861.942	0.0174607
862.020	0.0174699
862.098	0.0173890
862.176	0.0174026
862.254	0.0173353
862.332	0.0174604
862.410	0.0174619
862.488	0.0174535
862.567	0.0174150
862.645	0.0175794
862.723	0.0176186
862.801	0.0176939
862.879	0.0176347
862.957	0.0178321
863.035	0.0178271
863.113	0.0177790
863.192	0.0178033
863.270	0.0179247
863.348	0.0178881
863.426	0.0179228
863.504	0.0178281
863.582	0.0178044
863.660	0.0178696
863.738	0.0178725
863.817	0.0176531
863.895	0.0176767
863.973	0.0176984
864.051	0.0177899
864.129	0.0178169
864.207	0.0175924
864.285	0.0176721
864.363	0.0176376
864.442	0.0175400
864.520	0.0176551
864.598	0.0176369
864.676	0.0176812
864.754	0.0178126
864.832	0.0177252
864.910	0.0179483
864.988	0.0179142
865.067	0.0179167
865.145	0.0179291
865.223	0.0179511
865.301	0.0179960
865.379	0.0179549
865.457	0.0179822
865.535	0.0180121
865.613	0.0181545
865.692	0.0179337
865.770	0.0179562
865.848	0.0180447
865.926	0.0180532
866.004	0.0178438
866.082	0.0177647
866.160	0.0178040
866.238	0.0178095
866.317	0.0178448
866.395	0.0177654
866.473	0.0177480
866.551	0.0176696
866.629	0.0176279
866.707	0.0177035
866.785	0.0176282
866.863	0.0176003
866.942	0.0174210
867.020	0.0174905
867.098	0.0173740
867.176	0.0174535
867.254	0.0173126
867.332	0.0174233
867.410	0.0173621
867.488	0.0174963
867.567	0.0174794
867.645	0.0174113
867.723	0.0175967
867.801	0.0175470
867.879	0.0175710
867.957	0.0176002
868.035	0.0175148
868.113	0.0175517
868.192	0.0176273
868.270	0.0176400
868.348	0.0175968
868.426	0.0177327
868.504	0.0177540
868.582	0.0179074
868.660	0.0178194
868.738	0.0178032
868.817	0.0179017
868.895	0.0177771
868.973	0.0177451
869.051	0.0177567
869.129	0.0178747
869.207	0.0177724
869.285	0.0176830
869.363	0.0177135
869.442	0.0176243
869.520	0.0176300
869.598	0.0175874
869.676	0.0176344
869.754	0.0176430
869.832	0.0176682
869.910	0.0175565
869.988	0.0177164
870.067	0.0175522
870.145	0.0177120
870.223	0.0175666
870.301	0.0175467
870.379	0.0177817
870.457	0.0177139
870.535	0.0177845
870.613	0.0179274
870.692	0.0177889
870.770	0.0177456
870.848	0.0178345
870.926	0.0179524
871.004	0.0178236
871.082	0.0177811
871.160	0.0177834
871.238	0.0178841
871.317	0.0178770
871.395	0.0178575
871.473	0.0178591
871.551	0.0177345
871.629	0.0177475
871.707	0.0178297
871.785	0.0179161
871.863	0.0178526
871.942	0.0178371
872.020	0.0178307
872.098	0.0179280
872.176	0.0178614
872.254	0.0178961
872.332	0.0178799
872.410	0.0178123
872.488	0.0179333
872.567	0.0180430
872.645	0.0178337
872.723	0.0178106
872.801	0.0178584
872.879	0.0179892
872.957	0.0180280
873.035	0.0178963
873.113	0.0178281
873.192	0.0176347
873.270	0.0179211
873.348	0.0176778
873.426	0.0177044
873.504	0.0178076
873.582	0.0177068
873.660	0.0176565
873.738	0.0176432
873.817	0.0176720
873.895	0.0175581
873.973	0.0174750
874.051	0.0175354
874.129	0.0172920
874.207	0.0173630
874.285	0.0174001
874.363	0.0172457
874.442	0.0173581
874.520	0.0172372
874.598	0.0172620
874.676	0.0171568
874.754	0.0172186
874.832	0.0172736
874.910	0.0172137
874.988	0.0172855
875.067	0.0174110
875.145	0.0173738
875.223	0.0175167
875.301	0.0174794
875.379	0.0175659
875.457	0.0176545
875.535	0.0177196
875.613	0.0176076
875.692	0.0178410
875.770	0.0178429
875.848	0.0176975
875.926	0.0178632
876.004	0.0178374
876.082	0.0177800
876.160	0.0179359
876.238	0.0179028
876.317	0.0179760
876.395	0.0178329
876.473	0.0179591
876.551	0.0178092
876.629	0.0180123
876.707	0.0179220
876.785	0.0179823
876.863	0.0179257
876.942	0.0180477
877.020	0.0179672
877.098	0.0178822
877.176	0.0178734
877.254	0.0177084
877.332	0.0179199
877.410	0.0179082
877.488	0.0178076
877.567	0.0178997
877.645	0.0178851
877.723	0.0178506
877.801	0.0179081
877.879	0.0178434
877.957	0.0178473
878.035	0.0178713
878.113	0.0177613
878.192	0.0178836
878.270	0.0178090
878.348	0.0178443
878.426	0.0178041
878.504	0.0177012
878.582	0.0177341
878.660	0.0176871
878.738	0.0177042
878.817	0.0174635
878.895	0.0177079
878.973	0.0176289
879.051	0.0175395
879.129	0.0174437
879.207	0.0175328
879.285	0.0174777
879.363	0.0174961
879.442	0.0173685
879.520	0.0173978
879.598	0.0175521
879.676	0.0175248
879.754	0.0173572
879.832	0.0174566
879.910	0.0175012
879.988	0.0174921
880.067	0.0174443
880.145	0.0175177
880.223	0.0175706
880.301	0.0175643
880.379	0.0175343
880.457	0.0176523
880.535	0.0176833
880.613	0.0175977
880.692	0.0176068
880.770	0.0176398
880.848	0.0177738
880.926	0.0177827
881.004	0.0179060
881.082	0.0178312
881.160	0.0178718
881.238	0.0179427
881.317	0.0179683
881.395	0.0180183
881.473	0.0178033
881.551	0.0179168
881.629	0.0180434
881.707	0.0180763
881.785	0.0180569
881.863	0.0179660
881.942	0.0179256
882.020	0.0179292
882.098	0.0178693
882.176	0.0178963
882.254	0.0179507
882.332	0.0178511
882.410	0.0179288
882.488	0.0178441
882.567	0.0177674
882.645	0.0177570
882.723	0.0176059
882.801	0.0175649
882.879	0.0175063
882.957	0.0174718
883.035	0.0174368
883.113	0.0174088
883.192	0.0173980
883.270	0.0173562
883.348	0.0173025
883.426	0.0173609
883.504	0.0175565
883.582	0.0174735
883.660	0.0176691
883.738	0.0177183
883.817	0.0178359
883.895	0.0179807
883.973	0.0180340
884.051	0.0180916
884.129	0.0181181
884.207	0.0182702
884.285	0.0182484
884.363	0.0181385
884.442	0.0179487
884.520	0.0180976
884.598	0.0180302
884.676	0.0177280
884.754	0.0176063
884.832	0.0175117
884.910	0.0174249
884.988	0.0173046
885.067	0.0171513
885.145	0.0171029
885.223	0.0170161
885.301	0.0170549
885.379	0.0169692
885.457	0.0172134
885.535	0.0171634
885.613	0.0172652
885.692	0.0174920
885.770	0.0172809
885.848	0.0175121
885.926	0.0177747
886.004	0.0181384
886.082	0.0181320
886.160	0.0183630
886.238	0.0186031
886.317	0.0188053
886.395	0.0188565
886.473	0.0191053
886.551	0.0191469
886.629	0.0191216
886.707	0.0191326
886.785	0.0192680
886.863	0.0191047
886.942	0.0189344
887.020	0.0187317
887.098	0.0183956
887.176	0.0180795
887.254	0.0176354
887.332	0.0172340
887.410	0.0168782
887.488	0.0165642
887.567	0.0160891
887.645	0.0157807
887.723	0.0154813
887.801	0.0154739
887.879	0.0152506
887.957	0.0150955
888.035	0.0151925
888.113	0.0154143
888.192	0.0154720
888.270	0.0158174
888.348	0.0161716
888.426	0.0165105
888.504	0.0171433
888.582	0.0174609
888.660	0.0179735
888.738	0.0184541
888.817	0.0189451
888.895	0.0192700
888.973	0.0195834
889.051	0.0200192
889.129	0.0203336
889.207	0.0205170
889.285	0.0204176
889.363	0.0206080
889.442	0.0206936
889.520	0.0204385
889.598	0.0201010
889.676	0.0199360
889.754	0.0193480
889.832	0.0189503
889.910	0.0185212
889.988	0.0178921
890.067	0.0172698
890.145	0.0169235
890.223	0.0163976
890.301	0.0159330
890.379	0.0155685
890.457	0.0153294
890.535	0.0150364
890.613	0.0150642
890.692	0.0150256
890.770	0.0150386
890.848	0.0151659
890.926	0.0154623
891.004	0.0157408
891.082	0.0161229
891.160	0.0164770
891.238	0.0169786
891.317	0.0175042
891.395	0.0177695
891.473	0.0181630
891.551	0.0186342
891.629	0.0189210
891.707	0.0190141
891.785	0.0193694
891.863	0.0193876
891.942	0.0194884
892.020	0.0196031
892.098	0.0195410
892.176	0.0192698
892.254	0.0194396
892.332	0.0192570
892.410	0.0189477
892.488	0.0188466
892.567	0.0185543
892.645	0.0182626
892.723	0.0180589
892.801	0.0178374
892.879	0.0176611
892.957	0.0174458
893.035	0.0172973
893.113	0.0172374
893.192	0.0169613
893.270	0.0168862
893.348	0.0166838
893.426	0.0166911
893.504	0.0166664
893.582	0.0168441
893.660	0.0168603
893.738	0.0171658
893.817	0.0170465
893.895	0.0172578
893.973	0.0176025
894.051	0.0175042
894.129	0.0176839
894.207	0.0177586
894.285	0.0177846
894.363	0.0180022
894.442	0.0180686
894.520	0.0179986
894.598	0.0179839
894.676	0.0178099
894.754	0.0179037
894.832	0.0179556
894.910	0.0176917
894.988	0.0176076
895.067	0.0175563
895.145	0.0174819
895.223	0.0175273
895.301	0.0174850
895.379	0.0173211
895.457	0.0173205
895.535	0.0172414
895.613	0.0172707
895.692	0.0171867
895.770	0.0173141
895.848	0.0172655
895.926	0.0173443
896.004	0.0173823
896.082	0.0173969
896.160	0.0175052
896.238	0.0176604
896.317	0.0178078
896.395	0.0178320
896.473	0.0179794
896.551	0.0181047
896.629	0.0183639
896.707	0.0183539
896.785	0.0184934
896.863	0.0184906
896.942	0.0185933
897.020	0.0187301
897.098	0.0185688
897.176	0.0183956
897.254	0.0184635
897.332	0.0183516
897.410	0.0182340
897.488	0.0182227
897.567	0.0180273
897.645	0.0179436
897.723	0.0178378
897.801	0.0176617
897.879	0.0175848
897.957	0.0174673
898.035	0.0174303
898.113	0.0173055
898.192	0.0170302
898.270	0.0170928
898.348	0.0170248
898.426	0.0169076
898.504	0.0168179
898.582	0.0169336
898.660	0.0167842
898.738	0.0169572
898.817	0.0170223
898.895	0.0172046
898.973	0.0172617
899.051	0.0174223
899.129	0.0175885
899.207	0.0176804
899.285	0.0180019
899.363	0.0181286
899.442	0.0179943
899.520	0.0182086
899.598	0.0182819
899.676	0.0182963
899.754	0.0182845
899.832	0.0181947
899.910	0.0181342
899.988	0.0180484
900.067	0.0181184
900.145	0.0179241
900.223	0.0177145
900.301	0.0175450
900.379	0.0175794
900.457	0.0175236
900.535	0.0174407
900.613	0.0171660
900.692	0.0172257
900.770	0.0171062
900.848	0.0170785
900.926	0.0172353
901.004	0.0172068
901.082	0.0171174
901.160	0.0171862
901.238	0.0172984
901.317	0.0172806
901.395	0.0173672
901.473	0.0174928
901.551	0.0175214
901.629	0.0176688
901.707	0.0176466
901.785	0.0178239
901.863	0.0180330
901.942	0.0181682
902.020	0.0183009
902.098	0.0183029
902.176	0.0184553
902.254	0.0183669
902.332	0.0186115
902.410	0.0186160
902.488	0.0186419
902.567	0.0186877
902.645	0.0184200
902.723	0.0182837
902.801	0.0182564
902.879	0.0181862
902.957	0.0180288
903.035	0.0178071
903.113	0.0177296
903.192	0.0177358
903.270	0.0175639
903.348	0.0174707
903.426	0.0174896
903.504	0.0175381
903.582	0.0174506
903.660	0.0175440
903.738	0.0173912
903.817	0.0176434
903.895	0.0175449
903.973	0.0176071
904.051	0.0175729
904.129	0.0176770
904.207	0.0177512
904.285	0.0176813
904.363	0.0177811
904.442	0.0178230
904.520	0.0178570
904.598	0.0177975
904.676	0.0177924
904.754	0.0178349
904.832	0.0176707
904.910	0.0176870
904.988	0.0177361
905.067	0.0177925
905.145	0.0178132
905.223	0.0177489
905.301	0.0177641
905.379	0.0176858
905.457	0.0176431
905.535	0.0176816
905.613	0.0176645
905.692	0.0175756
905.770	0.0175618
905.848	0.0175059
905.926	0.0176407
906.004	0.0175191
906.082	0.0174448
906.160	0.0176278
906.238	0.0176273
906.317	0.0175378
906.395	0.0175614
906.473	0.0175797
906.551	0.0175700
906.629	0.0174997
906.707	0.0175038
906.785	0.0175977
906.863	0.0176754
906.942	0.0175700
907.020	0.0175370
907.098	0.0175568
907.176	0.0176052
907.254	0.0175914
907.332	0.0175381
907.410	0.0174546
907.488	0.0175745
907.567	0.0176321
907.645	0.0176231
907.723	0.0176269
907.801	0.0175949
907.879	0.0177441
907.957	0.0177493
908.035	0.0176791
908.113	0.0177742
908.192	0.0178042
908.270	0.0178720
908.348	0.0179218
908.426	0.0179268
908.504	0.0179665
908.582	0.0182031
908.660	0.0182510
908.738	0.0181400
908.817	0.0182166
908.895	0.0183320
908.973	0.0183340
909.051	0.0182954
909.129	0.0183250
909.207	0.0181052
909.285	0.0181361
909.363	0.0180973
909.442	0.0180849
909.520	0.0179627
909.598	0.0179021
909.676	0.0177855
909.754	0.0177811
909.832	0.0176340
909.910	0.0177075
909.988	0.0176097
910.067	0.0175800
910.145	0.0175893
910.223	0.0174303
910.301	0.0172849
910.379	0.0173802
910.457	0.0173750
910.535	0.0173382
910.613	0.0174555
910.692	0.0176304
910.770	0.0174544
910.848	0.0175134
910.926	0.0175854
911.004	0.0175522
911.082	0.0173942
911.160	0.0176205
911.238	0.0176335
911.317	0.0176015
911.395	0.0176730
911.473	0.0178481
911.551	0.0176905
911.629	0.0177341
911.707	0.0177776
911.785	0.0178028
911.863	0.0177732
911.942	0.0177550
912.020	0.0177847
912.098	0.0176514
912.176	0.0177768
912.254	0.0177103
912.332	0.0178805
912.410	0.0176853
912.488	0.0176669
912.567	0.0177463
912.645	0.0177942
912.723	0.0177484
912.801	0.0178525
912.879	0.0179762
912.957	0.0179711
913.035	0.0178898
913.113	0.0179624
913.192	0.0181081
913.270	0.0180827
913.348	0.0179991
913.426	0.0179401
913.504	0.0178320
913.582	0.0179135
913.660	0.0177691
913.738	0.0179765
913.817	0.0178246
913.895	0.0178367
913.973	0.0175168
914.051	0.0175469
914.129	0.0174400
914.207	0.0175018
914.285	0.0174548
914.363	0.0173926
914.442	0.0173251
914.520	0.0173456
914.598	0.0173949
914.676	0.0172749
914.754	0.0172509
914.832	0.0174091
914.910	0.0173205
914.988	0.0174359
915.067	0.0174072
915.145	0.0174605
915.223	0.0175475
915.301	0.0176714
915.379	0.0176048
915.457	0.0176285
915.535	0.0178210
915.613	0.0178561
915.692	0.0179841
915.770	0.0180240
915.848	0.0180122
915.926	0.0180379
916.004	0.0180829
916.082	0.0181522
916.160	0.0179751
916.238	0.0179691
916.317	0.0179239
916.395	0.0179380
916.473	0.0178653
916.551	0.0178465
916.629	0.0177689
916.707	0.0178764
916.785	0.0178689
916.863	0.0177399
916.942	0.0177216
917.020	0.0177773
917.098	0.0178523
917.176	0.0178340
917.254	0.0178425
917.332	0.0177119
917.410	0.0178394
917.488	0.0179030
917.567	0.0177662
917.645	0.0178205
917.723	0.0178133
917.801	0.0177643
917.879	0.0177802
917.957	0.0178152
918.035	0.0178072
918.113	0.0177363
918.192	0.0177575
918.270	0.0177077
918.348	0.0175521
918.426	0.0175420
918.504	0.0176760
918.582	0.0175771
918.660	0.0175294
918.738	0.0175929
918.817	0.0176799
918.895	0.0175480
918.973	0.0176431
919.051	0.0174490
919.129	0.0174187
919.207	0.0174724
919.285	0.0175917
919.363	0.0177159
919.442	0.0173802
919.520	0.0174060
919.598	0.0176877
919.676	0.0175291
919.754	0.0175761
919.832	0.0173920
919.910	0.0173905
