06/01/2022	21:36:32	Ver.	4.1	UNKNOWN
Optical Delay	599.988409	Delta X		0.078125	Sweeps	1	Scan Rate	0/0
Coordinates	Axis 1	NaN	Axis 2	NaN	Axis 3	NaN	Axis 4	NaN	Axis 5	NaN	Axis 6	0.000000
TX Power	0.000000	RX Power	0.000000

599.988	0.0179644
600.067	0.0180424
600.145	0.0178843
600.223	0.0180003
600.301	0.0179823
600.379	0.0179329
600.457	0.0179977
600.535	0.0179767
600.613	0.0180438
600.692	0.0178742
600.770	0.0179986
600.848	0.0179383
600.926	0.0178342
601.004	0.0179722
601.082	0.0180634
601.160	0.0179924
601.238	0.0179498
601.317	0.0179890
601.395	0.0179486
601.473	0.0177750
601.551	0.0178926
601.629	0.0180202
601.707	0.0179590
601.785	0.0181059
601.863	0.0180415
601.942	0.0179393
602.020	0.0180019
602.098	0.0180085
602.176	0.0179691
602.254	0.0180067
602.332	0.0180208
602.410	0.0180925
602.488	0.0178767
602.567	0.0180061
602.645	0.0180566
602.723	0.0180968
602.801	0.0179506
602.879	0.0179871
602.957	0.0179964
603.035	0.0179813
603.113	0.0180626
603.192	0.0179156
603.270	0.0180412
603.348	0.0179948
603.426	0.0180214
603.504	0.0179838
603.582	0.0178053
603.660	0.0180371
603.738	0.0179691
603.817	0.0179443
603.895	0.0179677
603.973	0.0180673
604.051	0.0179157
604.129	0.0179564
604.207	0.0179743
604.285	0.0178968
604.363	0.0179624
604.442	0.0177834
604.520	0.0178387
604.598	0.0180485
604.676	0.0180119
604.754	0.0179651
604.832	0.0178989
604.910	0.0178331
604.988	0.0179533
605.067	0.0180222
605.145	0.0179263
605.223	0.0179425
605.301	0.0179665
605.379	0.0179998
605.457	0.0180016
605.535	0.0179811
605.613	0.0178700
605.692	0.0179626
605.770	0.0179982
605.848	0.0179327
605.926	0.0179070
606.004	0.0178685
606.082	0.0177808
606.160	0.0179076
606.238	0.0179965
606.317	0.0180749
606.395	0.0178548
606.473	0.0179535
606.551	0.0179765
606.629	0.0179739
606.707	0.0179788
606.785	0.0178843
606.863	0.0178906
606.942	0.0179951
607.020	0.0179530
607.098	0.0179514
607.176	0.0179877
607.254	0.0181008
607.332	0.0181473
607.410	0.0179770
607.488	0.0179713
607.567	0.0180910
607.645	0.0179143
607.723	0.0181419
607.801	0.0181558
607.879	0.0180354
607.957	0.0179198
608.035	0.0180065
608.113	0.0180322
608.192	0.0180276
608.270	0.0179687
608.348	0.0179362
608.426	0.0179970
608.504	0.0179580
608.582	0.0179669
608.660	0.0180086
608.738	0.0179305
608.817	0.0180358
608.895	0.0180177
608.973	0.0180505
609.051	0.0179494
609.129	0.0178725
609.207	0.0180632
609.285	0.0180688
609.363	0.0178420
609.442	0.0179935
609.520	0.0179405
609.598	0.0179711
609.676	0.0179416
609.754	0.0179159
609.832	0.0179563
609.910	0.0178902
609.988	0.0179058
610.067	0.0178635
610.145	0.0179375
610.223	0.0179694
610.301	0.0180064
610.379	0.0178725
610.457	0.0179139
610.535	0.0180431
610.613	0.0181728
610.692	0.0179168
610.770	0.0180338
610.848	0.0180170
610.926	0.0180051
611.004	0.0180151
611.082	0.0180976
611.160	0.0179942
611.238	0.0179561
611.317	0.0179973
611.395	0.0180134
611.473	0.0180505
611.551	0.0179973
611.629	0.0179932
611.707	0.0179935
611.785	0.0179903
611.863	0.0179269
611.942	0.0178764
612.020	0.0179578
612.098	0.0180016
612.176	0.0178804
612.254	0.0178198
612.332	0.0178278
612.410	0.0178526
612.488	0.0179292
612.567	0.0178954
612.645	0.0178762
612.723	0.0178747
612.801	0.0179578
612.879	0.0178644
612.957	0.0179121
613.035	0.0178664
613.113	0.0180275
613.192	0.0179360
613.270	0.0179525
613.348	0.0180132
613.426	0.0179811
613.504	0.0179552
613.582	0.0180141
613.660	0.0178819
613.738	0.0180809
613.817	0.0179381
613.895	0.0181913
613.973	0.0181599
614.051	0.0180953
614.129	0.0180061
614.207	0.0179645
614.285	0.0180534
614.363	0.0180350
614.442	0.0181813
614.520	0.0179911
614.598	0.0179500
614.676	0.0179673
614.754	0.0180243
614.832	0.0179056
614.910	0.0179755
614.988	0.0178684
615.067	0.0178993
615.145	0.0179556
615.223	0.0178741
615.301	0.0178600
615.379	0.0178027
615.457	0.0178391
615.535	0.0178638
615.613	0.0179418
615.692	0.0178085
615.770	0.0178999
615.848	0.0177579
615.926	0.0177238
616.004	0.0177843
616.082	0.0179498
616.160	0.0179660
616.238	0.0179333
616.317	0.0181220
616.395	0.0179771
616.473	0.0179841
616.551	0.0180160
616.629	0.0180328
616.707	0.0179770
616.785	0.0180865
616.863	0.0181456
616.942	0.0180692
617.020	0.0181484
617.098	0.0180795
617.176	0.0181223
617.254	0.0180767
617.332	0.0179700
617.410	0.0181264
617.488	0.0180370
617.567	0.0179449
617.645	0.0181041
617.723	0.0179633
617.801	0.0178778
617.879	0.0178704
617.957	0.0178671
618.035	0.0178194
618.113	0.0179208
618.192	0.0178825
618.270	0.0178714
618.348	0.0178003
618.426	0.0178436
618.504	0.0177921
618.582	0.0180190
618.660	0.0178439
618.738	0.0177884
618.817	0.0179754
618.895	0.0180245
618.973	0.0178889
619.051	0.0178777
619.129	0.0180611
619.207	0.0180718
619.285	0.0180302
619.363	0.0180394
619.442	0.0179528
619.520	0.0180369
619.598	0.0179713
619.676	0.0181593
619.754	0.0180937
619.832	0.0181225
619.910	0.0179565
619.988	0.0180234
620.067	0.0181611
620.145	0.0181504
620.223	0.0179803
620.301	0.0180119
620.379	0.0179942
620.457	0.0179764
620.535	0.0179127
620.613	0.0180037
620.692	0.0180150
620.770	0.0179610
620.848	0.0180433
620.926	0.0179563
621.004	0.0179265
621.082	0.0179761
621.160	0.0178027
621.238	0.0178618
621.317	0.0179290
621.395	0.0177834
621.473	0.0178186
621.551	0.0177991
621.629	0.0178936
621.707	0.0179243
621.785	0.0178634
621.863	0.0178899
621.942	0.0179333
622.020	0.0178499
622.098	0.0177387
622.176	0.0178860
622.254	0.0180144
622.332	0.0178989
622.410	0.0178715
622.488	0.0178999
622.567	0.0180995
622.645	0.0180818
622.723	0.0180437
622.801	0.0179510
622.879	0.0179018
622.957	0.0180758
623.035	0.0181159
623.113	0.0179787
623.192	0.0178793
623.270	0.0179496
623.348	0.0180591
623.426	0.0179681
623.504	0.0179288
623.582	0.0178991
623.660	0.0179002
623.738	0.0179559
623.817	0.0180381
623.895	0.0180123
623.973	0.0178704
624.051	0.0179858
624.129	0.0179654
624.207	0.0178970
624.285	0.0181059
624.363	0.0178809
624.442	0.0179202
624.520	0.0179957
624.598	0.0180056
624.676	0.0179764
624.754	0.0179972
624.832	0.0180127
624.910	0.0180225
624.988	0.0178383
625.067	0.0178201
625.145	0.0177962
625.223	0.0179579
625.301	0.0180661
625.379	0.0179757
625.457	0.0179138
625.535	0.0181030
625.613	0.0180028
625.692	0.0179011
625.770	0.0179696
625.848	0.0179984
625.926	0.0179022
626.004	0.0179211
626.082	0.0179343
626.160	0.0179906
626.238	0.0179311
626.317	0.0180746
626.395	0.0181722
626.473	0.0180096
626.551	0.0179437
626.629	0.0179263
626.707	0.0178751
626.785	0.0178678
626.863	0.0179745
626.942	0.0179671
627.020	0.0178615
627.098	0.0178744
627.176	0.0179524
627.254	0.0178578
627.332	0.0180154
627.410	0.0179723
627.488	0.0179855
627.567	0.0179189
627.645	0.0180818
627.723	0.0180458
627.801	0.0179813
627.879	0.0179289
627.957	0.0179767
628.035	0.0179116
628.113	0.0179491
628.192	0.0180013
628.270	0.0180188
628.348	0.0180761
628.426	0.0179420
628.504	0.0179863
628.582	0.0180343
628.660	0.0179305
628.738	0.0180109
628.817	0.0179410
628.895	0.0180002
628.973	0.0178210
629.051	0.0179689
629.129	0.0179818
629.207	0.0180621
629.285	0.0180993
629.363	0.0179492
629.442	0.0178993
629.520	0.0181145
629.598	0.0181176
629.676	0.0180000
629.754	0.0179868
629.832	0.0179760
629.910	0.0180631
629.988	0.0180037
630.067	0.0180303
630.145	0.0179582
630.223	0.0178939
630.301	0.0179335
630.379	0.0180144
630.457	0.0179604
630.535	0.0179240
630.613	0.0180096
630.692	0.0179997
630.770	0.0179868
630.848	0.0179333
630.926	0.0180863
631.004	0.0180743
631.082	0.0178540
631.160	0.0179086
631.238	0.0179739
631.317	0.0178928
631.395	0.0179595
631.473	0.0179362
631.551	0.0179674
631.629	0.0179340
631.707	0.0180547
631.785	0.0181216
631.863	0.0178650
631.942	0.0179991
632.020	0.0179939
632.098	0.0178844
632.176	0.0179211
632.254	0.0179835
632.332	0.0179597
632.410	0.0180132
632.488	0.0179245
632.567	0.0179064
632.645	0.0179716
632.723	0.0179536
632.801	0.0178408
632.879	0.0181073
632.957	0.0179629
633.035	0.0178793
633.113	0.0180959
633.192	0.0179684
633.270	0.0179478
633.348	0.0178920
633.426	0.0179030
633.504	0.0178768
633.582	0.0180453
633.660	0.0179622
633.738	0.0179964
633.817	0.0179182
633.895	0.0178583
633.973	0.0179816
634.051	0.0178980
634.129	0.0180682
634.207	0.0179523
634.285	0.0180697
634.363	0.0179637
634.442	0.0179581
634.520	0.0180503
634.598	0.0179921
634.676	0.0180560
634.754	0.0179121
634.832	0.0178976
634.910	0.0179235
634.988	0.0179932
635.067	0.0179272
635.145	0.0178001
635.223	0.0178817
635.301	0.0181504
635.379	0.0179719
635.457	0.0178035
635.535	0.0179684
635.613	0.0180960
635.692	0.0180143
635.770	0.0178760
635.848	0.0178030
635.926	0.0180156
636.004	0.0180013
636.082	0.0179594
636.160	0.0178181
636.238	0.0179262
636.317	0.0179403
636.395	0.0179630
636.473	0.0179299
636.551	0.0180702
636.629	0.0179963
636.707	0.0179213
636.785	0.0179640
636.863	0.0179551
636.942	0.0179357
637.020	0.0180373
637.098	0.0179274
637.176	0.0178700
637.254	0.0179288
637.332	0.0179626
637.410	0.0179742
637.488	0.0180246
637.567	0.0179735
637.645	0.0179591
637.723	0.0180334
637.801	0.0179563
637.879	0.0179553
637.957	0.0179387
638.035	0.0180093
638.113	0.0178456
638.192	0.0180761
638.270	0.0179783
638.348	0.0180019
638.426	0.0178815
638.504	0.0179839
638.582	0.0179068
638.660	0.0179411
638.738	0.0180079
638.817	0.0180981
638.895	0.0180488
638.973	0.0180206
639.051	0.0179482
639.129	0.0180386
639.207	0.0178688
639.285	0.0181425
639.363	0.0179506
639.442	0.0180529
639.520	0.0180277
639.598	0.0178429
639.676	0.0179101
639.754	0.0179492
639.832	0.0180267
639.910	0.0179295
639.988	0.0179196
640.067	0.0181210
640.145	0.0180511
640.223	0.0179691
640.301	0.0179346
640.379	0.0179358
640.457	0.0179103
640.535	0.0179626
640.613	0.0180584
640.692	0.0180145
640.770	0.0179977
640.848	0.0179404
640.926	0.0179559
641.004	0.0180776
641.082	0.0180840
641.160	0.0179054
641.238	0.0179694
641.317	0.0180044
641.395	0.0179875
641.473	0.0178929
641.551	0.0178747
641.629	0.0180748
641.707	0.0181093
641.785	0.0179118
641.863	0.0180114
641.942	0.0181074
642.020	0.0179945
642.098	0.0179339
642.176	0.0179948
642.254	0.0179964
642.332	0.0180240
642.410	0.0179802
642.488	0.0179709
642.567	0.0179192
642.645	0.0180418
642.723	0.0179583
642.801	0.0180554
642.879	0.0179009
642.957	0.0179353
643.035	0.0179663
643.113	0.0179492
643.192	0.0178500
643.270	0.0179973
643.348	0.0178686
643.426	0.0178486
643.504	0.0179017
643.582	0.0180029
643.660	0.0179807
643.738	0.0179805
643.817	0.0180040
643.895	0.0179885
643.973	0.0180234
644.051	0.0180212
644.129	0.0180238
644.207	0.0179458
644.285	0.0178753
644.363	0.0179781
644.442	0.0179876
644.520	0.0179872
644.598	0.0179021
644.676	0.0178902
644.754	0.0180394
644.832	0.0178764
644.910	0.0178684
644.988	0.0180724
645.067	0.0178815
645.145	0.0180506
645.223	0.0181474
645.301	0.0179298
645.379	0.0179145
645.457	0.0178903
645.535	0.0180154
645.613	0.0180549
645.692	0.0179939
645.770	0.0179594
645.848	0.0180724
645.926	0.0181350
646.004	0.0180669
646.082	0.0179791
646.160	0.0179179
646.238	0.0180069
646.317	0.0179208
646.395	0.0179919
646.473	0.0179612
646.551	0.0179650
646.629	0.0180066
646.707	0.0179025
646.785	0.0180995
646.863	0.0180128
646.942	0.0178474
647.020	0.0180167
647.098	0.0179338
647.176	0.0180840
647.254	0.0179815
647.332	0.0179913
647.410	0.0179512
647.488	0.0179807
647.567	0.0179742
647.645	0.0179770
647.723	0.0177856
647.801	0.0180823
647.879	0.0180972
647.957	0.0179546
648.035	0.0179529
648.113	0.0179974
648.192	0.0180291
648.270	0.0180132
648.348	0.0178444
648.426	0.0181475
648.504	0.0179436
648.582	0.0179679
648.660	0.0179171
648.738	0.0179861
648.817	0.0180811
648.895	0.0179578
648.973	0.0179644
649.051	0.0179293
649.129	0.0179212
649.207	0.0180021
649.285	0.0180582
649.363	0.0180662
649.442	0.0179774
649.520	0.0178800
649.598	0.0179191
649.676	0.0180288
649.754	0.0179871
649.832	0.0179482
649.910	0.0180772
649.988	0.0180602
650.067	0.0179111
650.145	0.0180200
650.223	0.0180691
650.301	0.0179559
650.379	0.0178526
650.457	0.0179271
650.535	0.0178533
650.613	0.0180153
650.692	0.0181718
650.770	0.0178239
650.848	0.0178618
650.926	0.0177499
651.004	0.0179562
651.082	0.0179446
651.160	0.0180522
651.238	0.0179248
651.317	0.0180452
651.395	0.0180690
651.473	0.0179810
651.551	0.0179520
651.629	0.0179302
651.707	0.0178958
651.785	0.0179609
651.863	0.0180676
651.942	0.0179274
652.020	0.0179317
652.098	0.0180971
652.176	0.0179347
652.254	0.0178090
652.332	0.0179318
652.410	0.0178854
652.488	0.0178968
652.567	0.0180668
652.645	0.0178766
652.723	0.0179379
652.801	0.0179333
652.879	0.0181097
652.957	0.0180355
653.035	0.0179393
653.113	0.0179514
653.192	0.0180176
653.270	0.0179400
653.348	0.0179524
653.426	0.0179297
653.504	0.0178754
653.582	0.0178760
653.660	0.0180180
653.738	0.0178474
653.817	0.0180171
653.895	0.0180072
653.973	0.0180389
654.051	0.0179161
654.129	0.0179013
654.207	0.0179829
654.285	0.0181048
654.363	0.0179329
654.442	0.0179014
654.520	0.0180354
654.598	0.0179101
654.676	0.0179041
654.754	0.0178329
654.832	0.0179439
654.910	0.0180672
654.988	0.0179937
655.067	0.0179247
655.145	0.0179414
655.223	0.0180007
655.301	0.0179969
655.379	0.0179782
655.457	0.0178067
655.535	0.0179893
655.613	0.0179201
655.692	0.0180520
655.770	0.0180376
655.848	0.0181068
655.926	0.0179709
656.004	0.0178631
656.082	0.0179047
656.160	0.0179134
656.238	0.0180149
656.317	0.0180068
656.395	0.0180373
656.473	0.0180173
656.551	0.0179652
656.629	0.0178355
656.707	0.0178505
656.785	0.0179577
656.863	0.0180460
656.942	0.0179084
657.020	0.0179636
657.098	0.0179914
657.176	0.0178693
657.254	0.0178558
657.332	0.0179189
657.410	0.0179782
657.488	0.0180318
657.567	0.0178973
657.645	0.0179642
657.723	0.0179724
657.801	0.0179221
657.879	0.0180157
657.957	0.0179893
658.035	0.0178947
658.113	0.0178646
658.192	0.0180642
658.270	0.0179261
658.348	0.0179907
658.426	0.0179076
658.504	0.0179146
658.582	0.0180965
658.660	0.0180065
658.738	0.0179057
658.817	0.0179156
658.895	0.0180084
658.973	0.0179269
659.051	0.0178348
659.129	0.0179594
659.207	0.0178783
659.285	0.0179675
659.363	0.0179006
659.442	0.0180862
659.520	0.0179403
659.598	0.0178749
659.676	0.0178978
659.754	0.0179561
659.832	0.0179408
659.910	0.0179082
659.988	0.0178316
660.067	0.0178680
660.145	0.0179142
660.223	0.0180393
660.301	0.0179979
660.379	0.0179193
660.457	0.0180112
660.535	0.0178685
660.613	0.0179639
660.692	0.0179080
660.770	0.0179443
660.848	0.0177677
660.926	0.0179474
661.004	0.0179408
661.082	0.0179607
661.160	0.0179012
661.238	0.0178326
661.317	0.0178964
661.395	0.0179762
661.473	0.0178444
661.551	0.0179375
661.629	0.0179469
661.707	0.0180172
661.785	0.0179893
661.863	0.0179173
661.942	0.0178947
662.020	0.0179346
662.098	0.0179781
662.176	0.0179559
662.254	0.0179404
662.332	0.0179247
662.410	0.0179358
662.488	0.0179681
662.567	0.0180451
662.645	0.0179697
662.723	0.0179607
662.801	0.0179320
662.879	0.0178733
662.957	0.0179262
663.035	0.0180284
663.113	0.0180051
663.192	0.0178456
663.270	0.0180049
663.348	0.0179198
663.426	0.0179500
663.504	0.0180857
663.582	0.0178471
663.660	0.0179642
663.738	0.0179623
663.817	0.0179719
663.895	0.0180970
663.973	0.0180016
664.051	0.0178895
664.129	0.0180463
664.207	0.0177494
664.285	0.0179935
664.363	0.0180809
664.442	0.0179602
664.520	0.0179555
664.598	0.0179279
664.676	0.0178269
664.754	0.0178348
664.832	0.0179436
664.910	0.0179680
664.988	0.0180479
665.067	0.0179557
665.145	0.0178860
665.223	0.0179133
665.301	0.0179670
665.379	0.0180373
665.457	0.0180789
665.535	0.0178126
665.613	0.0179485
665.692	0.0179842
665.770	0.0179295
665.848	0.0180038
665.926	0.0179691
666.004	0.0179843
666.082	0.0179559
666.160	0.0179360
666.238	0.0179903
666.317	0.0179844
666.395	0.0178555
666.473	0.0178713
666.551	0.0180382
666.629	0.0179846
666.707	0.0180358
666.785	0.0179485
666.863	0.0180214
666.942	0.0180239
667.020	0.0179450
667.098	0.0180706
667.176	0.0179391
667.254	0.0180305
667.332	0.0179429
667.410	0.0179897
667.488	0.0179068
667.567	0.0180994
667.645	0.0181364
667.723	0.0178850
667.801	0.0179858
667.879	0.0181313
667.957	0.0179749
668.035	0.0179360
668.113	0.0180013
668.192	0.0180798
668.270	0.0179321
668.348	0.0179544
668.426	0.0181170
668.504	0.0181341
668.582	0.0179441
668.660	0.0180376
668.738	0.0180277
668.817	0.0180393
668.895	0.0180760
668.973	0.0181213
669.051	0.0180155
669.129	0.0179451
669.207	0.0179601
669.285	0.0180453
669.363	0.0181516
669.442	0.0181115
669.520	0.0180911
669.598	0.0180386
669.676	0.0179482
669.754	0.0180006
669.832	0.0179509
669.910	0.0179273
669.988	0.0180035
670.067	0.0180083
670.145	0.0179884
670.223	0.0180433
670.301	0.0181311
670.379	0.0179934
670.457	0.0179472
670.535	0.0180456
670.613	0.0179317
670.692	0.0179844
670.770	0.0181438
670.848	0.0181230
670.926	0.0180637
671.004	0.0179755
671.082	0.0180300
671.160	0.0181107
671.238	0.0181419
671.317	0.0180058
671.395	0.0180270
671.473	0.0181300
671.551	0.0179459
671.629	0.0179495
671.707	0.0180862
671.785	0.0180420
671.863	0.0178799
671.942	0.0178453
672.020	0.0180620
672.098	0.0181294
672.176	0.0179411
672.254	0.0180402
672.332	0.0180093
672.410	0.0178644
672.488	0.0177926
672.567	0.0180621
672.645	0.0180234
672.723	0.0179026
672.801	0.0178069
672.879	0.0179890
672.957	0.0178617
673.035	0.0179533
673.113	0.0179097
673.192	0.0178905
673.270	0.0178744
673.348	0.0178775
673.426	0.0179281
673.504	0.0179297
673.582	0.0179273
673.660	0.0180087
673.738	0.0179158
673.817	0.0179398
673.895	0.0179355
673.973	0.0179160
674.051	0.0179624
674.129	0.0178673
674.207	0.0180376
674.285	0.0178567
674.363	0.0178883
674.442	0.0179132
674.520	0.0178589
674.598	0.0180505
674.676	0.0180067
674.754	0.0179042
674.832	0.0179673
674.910	0.0178960
674.988	0.0177536
675.067	0.0178815
675.145	0.0180083
675.223	0.0179800
675.301	0.0178294
675.379	0.0179116
675.457	0.0179810
675.535	0.0180662
675.613	0.0179215
675.692	0.0178716
675.770	0.0180150
675.848	0.0179892
675.926	0.0179122
676.004	0.0179991
676.082	0.0179631
676.160	0.0178982
676.238	0.0180267
676.317	0.0179272
676.395	0.0178729
676.473	0.0179110
676.551	0.0179684
676.629	0.0179821
676.707	0.0177350
676.785	0.0180151
676.863	0.0179945
676.942	0.0179735
677.020	0.0180517
677.098	0.0179659
677.176	0.0177679
677.254	0.0178907
677.332	0.0178856
677.410	0.0180491
677.488	0.0180013
677.567	0.0178821
677.645	0.0179346
677.723	0.0178971
677.801	0.0179804
677.879	0.0179600
677.957	0.0177909
678.035	0.0178083
678.113	0.0177324
678.192	0.0180346
678.270	0.0178874
678.348	0.0178741
678.426	0.0177907
678.504	0.0178480
678.582	0.0180739
678.660	0.0180371
678.738	0.0178970
678.817	0.0180102
678.895	0.0180358
678.973	0.0178709
679.051	0.0178295
679.129	0.0180795
679.207	0.0179314
679.285	0.0178752
679.363	0.0178001
679.442	0.0180218
679.520	0.0179278
679.598	0.0180891
679.676	0.0179890
679.754	0.0179485
679.832	0.0179797
679.910	0.0178992
679.988	0.0179968
680.067	0.0179289
680.145	0.0179229
680.223	0.0179243
680.301	0.0178888
680.379	0.0180469
680.457	0.0178801
680.535	0.0178976
680.613	0.0178441
680.692	0.0178223
680.770	0.0179389
680.848	0.0180228
680.926	0.0180190
681.004	0.0179725
681.082	0.0178407
681.160	0.0179241
681.238	0.0180364
681.317	0.0178693
681.395	0.0179116
681.473	0.0180898
681.551	0.0179465
681.629	0.0181248
681.707	0.0179501
681.785	0.0179359
681.863	0.0179160
681.942	0.0180316
682.020	0.0180307
682.098	0.0179980
682.176	0.0179567
682.254	0.0178601
682.332	0.0179596
682.410	0.0179974
682.488	0.0179993
682.567	0.0178426
682.645	0.0179227
682.723	0.0178294
682.801	0.0178274
682.879	0.0179313
682.957	0.0179079
683.035	0.0178048
683.113	0.0178333
683.192	0.0180223
683.270	0.0178102
683.348	0.0178017
683.426	0.0178040
683.504	0.0179257
683.582	0.0179085
683.660	0.0178453
683.738	0.0179690
683.817	0.0180053
683.895	0.0179716
683.973	0.0179494
684.051	0.0180157
684.129	0.0179010
684.207	0.0180121
684.285	0.0180254
684.363	0.0179727
684.442	0.0180841
684.520	0.0180767
684.598	0.0179424
684.676	0.0180359
684.754	0.0179886
684.832	0.0178790
684.910	0.0179415
684.988	0.0177415
685.067	0.0177611
685.145	0.0177595
685.223	0.0178140
685.301	0.0178830
685.379	0.0179813
685.457	0.0179360
685.535	0.0178636
685.613	0.0179175
685.692	0.0180283
685.770	0.0181947
685.848	0.0182021
685.926	0.0180499
686.004	0.0180774
686.082	0.0180209
686.160	0.0181796
686.238	0.0180704
686.317	0.0181357
686.395	0.0179855
686.473	0.0180512
686.551	0.0180312
686.629	0.0179599
686.707	0.0178512
686.785	0.0176306
686.863	0.0177954
686.942	0.0175913
687.020	0.0174200
687.098	0.0175447
687.176	0.0175465
687.254	0.0177274
687.332	0.0177798
687.410	0.0178960
687.488	0.0180082
687.567	0.0180978
687.645	0.0182587
687.723	0.0183422
687.801	0.0184763
687.879	0.0187242
687.957	0.0187391
688.035	0.0186928
688.113	0.0188374
688.192	0.0186523
688.270	0.0186014
688.348	0.0184337
688.426	0.0182027
688.504	0.0180209
688.582	0.0177121
688.660	0.0175096
688.738	0.0172355
688.817	0.0170427
688.895	0.0167901
688.973	0.0164809
689.051	0.0164539
689.129	0.0161341
689.207	0.0160058
689.285	0.0160723
689.363	0.0159852
689.442	0.0160137
689.520	0.0161874
689.598	0.0163290
689.676	0.0168438
689.754	0.0170985
689.832	0.0176560
689.910	0.0183496
689.988	0.0191352
690.067	0.0199439
690.145	0.0207165
690.223	0.0214844
690.301	0.0222914
690.379	0.0229073
690.457	0.0233600
690.535	0.0234834
690.613	0.0236063
690.692	0.0234619
690.770	0.0229795
690.848	0.0222139
690.926	0.0214140
691.004	0.0201373
691.082	0.0188715
691.160	0.0173889
691.238	0.0155978
691.317	0.0140998
691.395	0.0124232
691.473	0.0108431
691.551	0.00958038
691.629	0.00846397
691.707	0.00796577
691.785	0.00776207
691.863	0.00776543
691.942	0.00829178
692.020	0.00903648
692.098	0.00998344
692.176	0.0111709
692.254	0.0124334
692.332	0.0139398
692.410	0.0153734
692.488	0.0171198
692.567	0.0187559
692.645	0.0206413
692.723	0.0224727
692.801	0.0245348
692.879	0.0264895
692.957	0.0285303
693.035	0.0302977
693.113	0.0322518
693.192	0.0337751
693.270	0.0350344
693.348	0.0358702
693.426	0.0362360
693.504	0.0359792
693.582	0.0347580
693.660	0.0330583
693.738	0.0306300
693.817	0.0277121
693.895	0.0240582
693.973	0.0200528
694.051	0.0158533
694.129	0.0116357
694.207	0.00741341
694.285	0.00330513
694.363	-0.000439224
694.442	-0.00395424
694.520	-0.00677437
694.598	-0.00881584
694.676	-0.0101777
694.754	-0.0104939
694.832	-0.00986305
694.910	-0.00853638
694.988	-0.00621254
695.067	-0.00285019
695.145	0.00105507
695.223	0.00546936
695.301	0.0103222
695.379	0.0152775
695.457	0.0202576
695.535	0.0249753
695.613	0.0296476
695.692	0.0341530
695.770	0.0378461
695.848	0.0411861
695.926	0.0439319
696.004	0.0460466
696.082	0.0474213
696.160	0.0482352
696.238	0.0483124
696.317	0.0477814
696.395	0.0465303
696.473	0.0446764
696.551	0.0421467
696.629	0.0388387
696.707	0.0349919
696.785	0.0305589
696.863	0.0257215
696.942	0.0205221
697.020	0.0151360
697.098	0.00982643
697.176	0.00478821
697.254	-0.0000497437
697.332	-0.00449242
697.410	-0.00839561
697.488	-0.0112971
697.567	-0.0135569
697.645	-0.0150513
697.723	-0.0154491
697.801	-0.0150075
697.879	-0.0136910
697.957	-0.0114115
698.035	-0.00849083
698.113	-0.00476555
698.192	-0.000728302
698.270	0.00377129
698.348	0.00851700
698.426	0.0134623
698.504	0.0181920
698.582	0.0227325
698.660	0.0271828
698.738	0.0313468
698.817	0.0348118
698.895	0.0379565
698.973	0.0404648
699.051	0.0424619
699.129	0.0439219
699.207	0.0444830
699.285	0.0445182
699.363	0.0440555
699.442	0.0428821
699.520	0.0412440
699.598	0.0389845
699.676	0.0361833
699.754	0.0329914
699.832	0.0296317
699.910	0.0262686
699.988	0.0224828
700.067	0.0191053
700.145	0.0157637
700.223	0.0127567
700.301	0.0100194
700.379	0.00784027
700.457	0.00608482
700.535	0.00459763
700.613	0.00357742
700.692	0.00315437
700.770	0.00303673
700.848	0.00325089
700.926	0.00358986
701.004	0.00445648
701.082	0.00522652
701.160	0.00608070
701.238	0.00752213
701.317	0.00864532
701.395	0.0101470
701.473	0.0116547
701.551	0.0128831
701.629	0.0143610
701.707	0.0155746
701.785	0.0168514
701.863	0.0178390
701.942	0.0190934
702.020	0.0199650
702.098	0.0206802
702.176	0.0213223
702.254	0.0219409
702.332	0.0222605
702.410	0.0224934
702.488	0.0226564
702.567	0.0224793
702.645	0.0224173
702.723	0.0222263
702.801	0.0219947
702.879	0.0215772
702.957	0.0212164
703.035	0.0208641
703.113	0.0205057
703.192	0.0201875
703.270	0.0199987
703.348	0.0197409
703.426	0.0198161
703.504	0.0196690
703.582	0.0199644
703.660	0.0199464
703.738	0.0202445
703.817	0.0203542
703.895	0.0202631
703.973	0.0203981
704.051	0.0202357
704.129	0.0202449
704.207	0.0200124
704.285	0.0197311
704.363	0.0194157
704.442	0.0189733
704.520	0.0184330
704.598	0.0181141
704.676	0.0177009
704.754	0.0173055
704.832	0.0172094
704.910	0.0170731
704.988	0.0170006
705.067	0.0171245
705.145	0.0171349
705.223	0.0171750
705.301	0.0173500
705.379	0.0174795
705.457	0.0175459
705.535	0.0173838
705.613	0.0173981
705.692	0.0172913
705.770	0.0169479
705.848	0.0166280
705.926	0.0163566
706.004	0.0161341
706.082	0.0158406
706.160	0.0156918
706.238	0.0154237
706.317	0.0154351
706.395	0.0153300
706.473	0.0153599
706.551	0.0154209
706.629	0.0155341
706.707	0.0157175
706.785	0.0160683
706.863	0.0162743
706.942	0.0163908
707.020	0.0167773
707.098	0.0169617
707.176	0.0171137
707.254	0.0173000
707.332	0.0174934
707.410	0.0173100
707.488	0.0172898
707.567	0.0174253
707.645	0.0174917
707.723	0.0175860
707.801	0.0175462
707.879	0.0178813
707.957	0.0180126
708.035	0.0183398
708.113	0.0188099
708.192	0.0193161
708.270	0.0198039
708.348	0.0200257
708.426	0.0206468
708.504	0.0210371
708.582	0.0212939
708.660	0.0215164
708.738	0.0217407
708.817	0.0216588
708.895	0.0215787
708.973	0.0213338
709.051	0.0210806
709.129	0.0207732
709.207	0.0204558
709.285	0.0201826
709.363	0.0198673
709.442	0.0193331
709.520	0.0190872
709.598	0.0187674
709.676	0.0185749
709.754	0.0183601
709.832	0.0181181
709.910	0.0179255
709.988	0.0177704
710.067	0.0177828
710.145	0.0175211
710.223	0.0175586
710.301	0.0174538
710.379	0.0172730
710.457	0.0173526
710.535	0.0171766
710.613	0.0168616
710.692	0.0167250
710.770	0.0163806
710.848	0.0161671
710.926	0.0160671
711.004	0.0158723
711.082	0.0155243
711.160	0.0153959
711.238	0.0152249
711.317	0.0152719
711.395	0.0154487
711.473	0.0154852
711.551	0.0158307
711.629	0.0157896
711.707	0.0160160
711.785	0.0161983
711.863	0.0162569
711.942	0.0165067
712.020	0.0165787
712.098	0.0167663
712.176	0.0168616
712.254	0.0168447
712.332	0.0170470
712.410	0.0171761
712.488	0.0173438
712.567	0.0173623
712.645	0.0176159
712.723	0.0178821
712.801	0.0181649
712.879	0.0184196
712.957	0.0184669
713.035	0.0186837
713.113	0.0190330
713.192	0.0192905
713.270	0.0195055
713.348	0.0195428
713.426	0.0197257
713.504	0.0197203
713.582	0.0198869
713.660	0.0199448
713.738	0.0199599
713.817	0.0198174
713.895	0.0197378
713.973	0.0196574
714.051	0.0195496
714.129	0.0195146
714.207	0.0193933
714.285	0.0192431
714.363	0.0190496
714.442	0.0189896
714.520	0.0189983
714.598	0.0189082
714.676	0.0188088
714.754	0.0188090
714.832	0.0185757
714.910	0.0185148
714.988	0.0184955
715.067	0.0183103
715.145	0.0182482
715.223	0.0182222
715.301	0.0179385
715.379	0.0179411
715.457	0.0179485
715.535	0.0178480
715.613	0.0178033
715.692	0.0177719
715.770	0.0176285
715.848	0.0175251
715.926	0.0173608
716.004	0.0173190
716.082	0.0170994
716.160	0.0171100
716.238	0.0167168
716.317	0.0166985
716.395	0.0166476
716.473	0.0165158
716.551	0.0161755
716.629	0.0161850
716.707	0.0162234
716.785	0.0163435
716.863	0.0161958
716.942	0.0162421
717.020	0.0164557
717.098	0.0164895
717.176	0.0165365
717.254	0.0168257
717.332	0.0167399
717.410	0.0166975
717.488	0.0169823
717.567	0.0167982
717.645	0.0169711
717.723	0.0169022
717.801	0.0169631
717.879	0.0170732
717.957	0.0172587
718.035	0.0174741
718.113	0.0177214
718.192	0.0180404
718.270	0.0181779
718.348	0.0186607
718.426	0.0188887
718.504	0.0191804
718.582	0.0195592
718.660	0.0195947
718.738	0.0199641
718.817	0.0201044
718.895	0.0203507
718.973	0.0203316
719.051	0.0205412
719.129	0.0204205
719.207	0.0200967
719.285	0.0201112
719.363	0.0198949
719.442	0.0195782
719.520	0.0193459
719.598	0.0188649
719.676	0.0186723
719.754	0.0183389
719.832	0.0178762
719.910	0.0175793
719.988	0.0172885
720.067	0.0171792
720.145	0.0171537
720.223	0.0171639
720.301	0.0170742
720.379	0.0170879
720.457	0.0170837
720.535	0.0173587
720.613	0.0174019
720.692	0.0175167
720.770	0.0176993
720.848	0.0177568
720.926	0.0178707
721.004	0.0179124
721.082	0.0181849
721.160	0.0181042
721.238	0.0182051
721.317	0.0184322
721.395	0.0184272
721.473	0.0183094
721.551	0.0183954
721.629	0.0184962
721.707	0.0184618
721.785	0.0184150
721.863	0.0182535
721.942	0.0179358
722.020	0.0176465
722.098	0.0175273
722.176	0.0173069
722.254	0.0170764
722.332	0.0169428
722.410	0.0166045
722.488	0.0164411
722.567	0.0164605
722.645	0.0161355
722.723	0.0162898
722.801	0.0163740
722.879	0.0163451
722.957	0.0163853
723.035	0.0167013
723.113	0.0170379
723.192	0.0172445
723.270	0.0174700
723.348	0.0178468
723.426	0.0181072
723.504	0.0183058
723.582	0.0184956
723.660	0.0187354
723.738	0.0188228
723.817	0.0187579
723.895	0.0191438
723.973	0.0190331
724.051	0.0189613
724.129	0.0188189
724.207	0.0187759
724.285	0.0188551
724.363	0.0185677
724.442	0.0185237
724.520	0.0183469
724.598	0.0182652
724.676	0.0182621
724.754	0.0181163
724.832	0.0181321
724.910	0.0182123
724.988	0.0180668
725.067	0.0181289
725.145	0.0180547
725.223	0.0180219
725.301	0.0179514
725.379	0.0179335
725.457	0.0179854
725.535	0.0177471
725.613	0.0177676
725.692	0.0178563
725.770	0.0177323
725.848	0.0178422
725.926	0.0178999
726.004	0.0179367
726.082	0.0179483
726.160	0.0180310
726.238	0.0183856
726.317	0.0182529
726.395	0.0185866
726.473	0.0186234
726.551	0.0188749
726.629	0.0187383
726.707	0.0188435
726.785	0.0190461
726.863	0.0189747
726.942	0.0189255
727.020	0.0188261
727.098	0.0185944
727.176	0.0185180
727.254	0.0183202
727.332	0.0180342
727.410	0.0178162
727.488	0.0175380
727.567	0.0171859
727.645	0.0167152
727.723	0.0165206
727.801	0.0163354
727.879	0.0161901
727.957	0.0161807
728.035	0.0162793
728.113	0.0163126
728.192	0.0163720
728.270	0.0165266
728.348	0.0167548
728.426	0.0170569
728.504	0.0173314
728.582	0.0176626
728.660	0.0178755
728.738	0.0182697
728.817	0.0185084
728.895	0.0187233
728.973	0.0188737
729.051	0.0191315
729.129	0.0192197
729.207	0.0192809
729.285	0.0192880
729.363	0.0192702
729.442	0.0192525
729.520	0.0190582
729.598	0.0188333
729.676	0.0188718
729.754	0.0187899
729.832	0.0186283
729.910	0.0185765
729.988	0.0182567
730.067	0.0182066
730.145	0.0182871
730.223	0.0180109
730.301	0.0178324
730.379	0.0176768
730.457	0.0175758
730.535	0.0173999
730.613	0.0172498
730.692	0.0171651
730.770	0.0170332
730.848	0.0170831
730.926	0.0169498
731.004	0.0168112
731.082	0.0168332
731.160	0.0168927
731.238	0.0171001
731.317	0.0170181
731.395	0.0170906
731.473	0.0173421
731.551	0.0176018
731.629	0.0177346
731.707	0.0181483
731.785	0.0182687
731.863	0.0185611
731.942	0.0187026
732.020	0.0191262
732.098	0.0191496
732.176	0.0191487
732.254	0.0192850
732.332	0.0193558
732.410	0.0192806
732.488	0.0191284
732.567	0.0191426
732.645	0.0187880
732.723	0.0187701
732.801	0.0184575
732.879	0.0181911
732.957	0.0180687
733.035	0.0177894
733.113	0.0176991
733.192	0.0176534
733.270	0.0173679
733.348	0.0173100
733.426	0.0172687
733.504	0.0172466
733.582	0.0170805
733.660	0.0171207
733.738	0.0172548
733.817	0.0171410
733.895	0.0172649
733.973	0.0173650
734.051	0.0174881
734.129	0.0176231
734.207	0.0177059
734.285	0.0178293
734.363	0.0179454
734.442	0.0180324
734.520	0.0181689
734.598	0.0182760
734.676	0.0183205
734.754	0.0183894
734.832	0.0182604
734.910	0.0184193
734.988	0.0184856
735.067	0.0185640
735.145	0.0185558
735.223	0.0185790
735.301	0.0186386
735.379	0.0185474
735.457	0.0184702
735.535	0.0181980
735.613	0.0182597
735.692	0.0180003
735.770	0.0178928
735.848	0.0176284
735.926	0.0173273
736.004	0.0171904
736.082	0.0169958
736.160	0.0167266
736.238	0.0167894
736.317	0.0166689
736.395	0.0166314
736.473	0.0165038
736.551	0.0165562
736.629	0.0166916
736.707	0.0168786
736.785	0.0169232
736.863	0.0171658
736.942	0.0175251
737.020	0.0178642
737.098	0.0180099
737.176	0.0182993
737.254	0.0185261
737.332	0.0189637
737.410	0.0190921
737.488	0.0194048
737.567	0.0192004
737.645	0.0193677
737.723	0.0194155
737.801	0.0194333
737.879	0.0192326
737.957	0.0192102
738.035	0.0189923
738.113	0.0187854
738.192	0.0186866
738.270	0.0184540
738.348	0.0181754
738.426	0.0179375
738.504	0.0176952
738.582	0.0175347
738.660	0.0174315
738.738	0.0170618
738.817	0.0169513
738.895	0.0167484
738.973	0.0165888
739.051	0.0164681
739.129	0.0167016
739.207	0.0166000
739.285	0.0166277
739.363	0.0166923
739.442	0.0168462
739.520	0.0170289
739.598	0.0172280
739.676	0.0174789
739.754	0.0177325
739.832	0.0178245
739.910	0.0180256
739.988	0.0182858
740.067	0.0183968
740.145	0.0185910
740.223	0.0185809
740.301	0.0187862
740.379	0.0188260
740.457	0.0188255
740.535	0.0187391
740.613	0.0187084
740.692	0.0188042
740.770	0.0187090
740.848	0.0185804
740.926	0.0184610
741.004	0.0183662
741.082	0.0182620
741.160	0.0182124
741.238	0.0181757
741.317	0.0180843
741.395	0.0180438
741.473	0.0180345
741.551	0.0178716
741.629	0.0179188
741.707	0.0177122
741.785	0.0176797
741.863	0.0177286
741.942	0.0177851
742.020	0.0177769
742.098	0.0177979
742.176	0.0178191
742.254	0.0179106
742.332	0.0178354
742.410	0.0179028
742.488	0.0178661
742.567	0.0179925
742.645	0.0180787
742.723	0.0181761
742.801	0.0179940
742.879	0.0181866
742.957	0.0179841
743.035	0.0181069
743.113	0.0180999
743.192	0.0181932
743.270	0.0181901
743.348	0.0181701
743.426	0.0182430
743.504	0.0182541
743.582	0.0182689
743.660	0.0181980
743.738	0.0182166
743.817	0.0182317
743.895	0.0179778
743.973	0.0179108
744.051	0.0179675
744.129	0.0177930
744.207	0.0175187
744.285	0.0175488
744.363	0.0173232
744.442	0.0172238
744.520	0.0171700
744.598	0.0170287
744.676	0.0169284
744.754	0.0170622
744.832	0.0170599
744.910	0.0170608
744.988	0.0171000
745.067	0.0172879
745.145	0.0173459
745.223	0.0174161
745.301	0.0175169
745.379	0.0178342
745.457	0.0181335
745.535	0.0181425
745.613	0.0184588
745.692	0.0186311
745.770	0.0187849
745.848	0.0189722
745.926	0.0191789
746.004	0.0192170
746.082	0.0192398
746.160	0.0192792
746.238	0.0192292
746.317	0.0192275
746.395	0.0192150
746.473	0.0189507
746.551	0.0188572
746.629	0.0187011
746.707	0.0184975
746.785	0.0183498
746.863	0.0182304
746.942	0.0176765
747.020	0.0175970
747.098	0.0174284
747.176	0.0172404
747.254	0.0171525
747.332	0.0168305
747.410	0.0167400
747.488	0.0167696
747.567	0.0168048
747.645	0.0170245
747.723	0.0170673
747.801	0.0174751
747.879	0.0175771
747.957	0.0176936
748.035	0.0180081
748.113	0.0181902
748.192	0.0185744
748.270	0.0186753
748.348	0.0189076
748.426	0.0190419
748.504	0.0191604
748.582	0.0191368
748.660	0.0193470
748.738	0.0192034
748.817	0.0190663
748.895	0.0191375
748.973	0.0188559
749.051	0.0187320
749.129	0.0185737
749.207	0.0184814
749.285	0.0182151
749.363	0.0179369
749.442	0.0178212
749.520	0.0177353
749.598	0.0175085
749.676	0.0174100
749.754	0.0172536
749.832	0.0171619
749.910	0.0169979
749.988	0.0170674
750.067	0.0171162
750.145	0.0170720
750.223	0.0169492
750.301	0.0170976
750.379	0.0171720
750.457	0.0172200
750.535	0.0172258
750.613	0.0172742
750.692	0.0175303
750.770	0.0175608
750.848	0.0176627
750.926	0.0176745
751.004	0.0177006
751.082	0.0178580
751.160	0.0180711
751.238	0.0180186
751.317	0.0181665
751.395	0.0182074
751.473	0.0181528
751.551	0.0181279
751.629	0.0180768
751.707	0.0181364
751.785	0.0181636
751.863	0.0182132
751.942	0.0180905
752.020	0.0181654
752.098	0.0181905
752.176	0.0180247
752.254	0.0181165
752.332	0.0179200
752.410	0.0179027
752.488	0.0179558
752.567	0.0181586
752.645	0.0180827
752.723	0.0180469
752.801	0.0181190
752.879	0.0181870
752.957	0.0182054
753.035	0.0183014
753.113	0.0183507
753.192	0.0183533
753.270	0.0182542
753.348	0.0182065
753.426	0.0181794
753.504	0.0182816
753.582	0.0180344
753.660	0.0181031
753.738	0.0180139
753.817	0.0179211
753.895	0.0178835
753.973	0.0178458
754.051	0.0177644
754.129	0.0179408
754.207	0.0177866
754.285	0.0178026
754.363	0.0178278
754.442	0.0176933
754.520	0.0178156
754.598	0.0178957
754.676	0.0178828
754.754	0.0178325
754.832	0.0179218
754.910	0.0178735
754.988	0.0179792
755.067	0.0181057
755.145	0.0179556
755.223	0.0179295
755.301	0.0180220
755.379	0.0181096
755.457	0.0183025
755.535	0.0183297
755.613	0.0181600
755.692	0.0181567
755.770	0.0183128
755.848	0.0182190
755.926	0.0181894
756.004	0.0182782
756.082	0.0182607
756.160	0.0181841
756.238	0.0182734
756.317	0.0181467
756.395	0.0182941
756.473	0.0182446
756.551	0.0181184
756.629	0.0181454
756.707	0.0180869
756.785	0.0181061
756.863	0.0179491
756.942	0.0179213
757.020	0.0179487
757.098	0.0178272
757.176	0.0177462
757.254	0.0177637
757.332	0.0176996
757.410	0.0176937
757.488	0.0176775
757.567	0.0176408
757.645	0.0176266
757.723	0.0175396
757.801	0.0174322
757.879	0.0176336
757.957	0.0175125
758.035	0.0175716
758.113	0.0174847
758.192	0.0175425
758.270	0.0175379
758.348	0.0175148
758.426	0.0174467
758.504	0.0175523
758.582	0.0175458
758.660	0.0176810
758.738	0.0176473
758.817	0.0178875
758.895	0.0179955
758.973	0.0181110
759.051	0.0181269
759.129	0.0182449
759.207	0.0182930
759.285	0.0183117
759.363	0.0183594
759.442	0.0184814
759.520	0.0183765
759.598	0.0184687
759.676	0.0184016
759.754	0.0184264
759.832	0.0182947
759.910	0.0183714
759.988	0.0183052
760.067	0.0181538
760.145	0.0180009
760.223	0.0178790
760.301	0.0177851
760.379	0.0178470
760.457	0.0179179
760.535	0.0177675
760.613	0.0177936
760.692	0.0177163
760.770	0.0176144
760.848	0.0175874
760.926	0.0178458
761.004	0.0178654
761.082	0.0177511
761.160	0.0177820
761.238	0.0177333
761.317	0.0177962
761.395	0.0178807
761.473	0.0180086
761.551	0.0179669
761.629	0.0180048
761.707	0.0182645
761.785	0.0181570
761.863	0.0183409
761.942	0.0183161
762.020	0.0185874
762.098	0.0184793
762.176	0.0185822
762.254	0.0185307
762.332	0.0187492
762.410	0.0186606
762.488	0.0185587
762.567	0.0184965
762.645	0.0185114
762.723	0.0184120
762.801	0.0183847
762.879	0.0182745
762.957	0.0181644
763.035	0.0178715
763.113	0.0179408
763.192	0.0178434
763.270	0.0174754
763.348	0.0175423
763.426	0.0175274
763.504	0.0174581
763.582	0.0172784
763.660	0.0173646
763.738	0.0170782
763.817	0.0172790
763.895	0.0172756
763.973	0.0173140
764.051	0.0174128
764.129	0.0173736
764.207	0.0173061
764.285	0.0176364
764.363	0.0178255
764.442	0.0179131
764.520	0.0179551
764.598	0.0181180
764.676	0.0182919
764.754	0.0182294
764.832	0.0183228
764.910	0.0184696
764.988	0.0186012
765.067	0.0186650
765.145	0.0185760
765.223	0.0185207
765.301	0.0185786
765.379	0.0184547
765.457	0.0184683
765.535	0.0183184
765.613	0.0181192
765.692	0.0179400
765.770	0.0179585
765.848	0.0177796
765.926	0.0177024
766.004	0.0176371
766.082	0.0175008
766.160	0.0173686
766.238	0.0175619
766.317	0.0174158
766.395	0.0173980
766.473	0.0174780
766.551	0.0175175
766.629	0.0175771
766.707	0.0175848
766.785	0.0177316
766.863	0.0178316
766.942	0.0178262
767.020	0.0180110
767.098	0.0179297
767.176	0.0180358
767.254	0.0182127
767.332	0.0180986
767.410	0.0182207
767.488	0.0182432
767.567	0.0181904
767.645	0.0182761
767.723	0.0181100
767.801	0.0181716
767.879	0.0182278
767.957	0.0182729
768.035	0.0182214
768.113	0.0181383
768.192	0.0183421
768.270	0.0181934
768.348	0.0182087
768.426	0.0181780
768.504	0.0181056
768.582	0.0181786
768.660	0.0183170
768.738	0.0181849
768.817	0.0180799
768.895	0.0179463
768.973	0.0180527
769.051	0.0179616
769.129	0.0181036
769.207	0.0180196
769.285	0.0179523
769.363	0.0179849
769.442	0.0179721
769.520	0.0179897
769.598	0.0181267
769.676	0.0181735
769.754	0.0182307
769.832	0.0182830
769.910	0.0181451
769.988	0.0181222
770.067	0.0181919
770.145	0.0182304
770.223	0.0181459
770.301	0.0180829
770.379	0.0181339
770.457	0.0179198
770.535	0.0179539
770.613	0.0177722
770.692	0.0179211
770.770	0.0177763
770.848	0.0175859
770.926	0.0177880
771.004	0.0177356
771.082	0.0177492
771.160	0.0177180
771.238	0.0177448
771.317	0.0177338
771.395	0.0178163
771.473	0.0178158
771.551	0.0178454
771.629	0.0180030
771.707	0.0180392
771.785	0.0180942
771.863	0.0181552
771.942	0.0180014
772.020	0.0180920
772.098	0.0180672
772.176	0.0182159
772.254	0.0181796
772.332	0.0180499
772.410	0.0181524
772.488	0.0181403
772.567	0.0181187
772.645	0.0179962
772.723	0.0179389
772.801	0.0179284
772.879	0.0178461
772.957	0.0177354
773.035	0.0176463
773.113	0.0176009
773.192	0.0175634
773.270	0.0175503
773.348	0.0175719
773.426	0.0174839
773.504	0.0174633
773.582	0.0174729
773.660	0.0175746
773.738	0.0176997
773.817	0.0175756
773.895	0.0176497
773.973	0.0176790
774.051	0.0177636
774.129	0.0176820
774.207	0.0179333
774.285	0.0179247
774.363	0.0181091
774.442	0.0180786
774.520	0.0180760
774.598	0.0181042
774.676	0.0182944
774.754	0.0183385
774.832	0.0183714
774.910	0.0184329
774.988	0.0183921
775.067	0.0183893
775.145	0.0184968
775.223	0.0186206
775.301	0.0184956
775.379	0.0185153
775.457	0.0184770
775.535	0.0185674
775.613	0.0185449
775.692	0.0182404
775.770	0.0183058
775.848	0.0181431
775.926	0.0180972
776.004	0.0180363
776.082	0.0178339
776.160	0.0179870
776.238	0.0178055
776.317	0.0177906
776.395	0.0178569
776.473	0.0176377
776.551	0.0176250
776.629	0.0176498
776.707	0.0176227
776.785	0.0176526
776.863	0.0177454
776.942	0.0177713
777.020	0.0177760
777.098	0.0178902
777.176	0.0178470
777.254	0.0180110
777.332	0.0179362
777.410	0.0179508
777.488	0.0179626
777.567	0.0180345
777.645	0.0180695
777.723	0.0180607
777.801	0.0179549
777.879	0.0182340
777.957	0.0182018
778.035	0.0181931
778.113	0.0181065
778.192	0.0180953
778.270	0.0180878
778.348	0.0180308
778.426	0.0179659
778.504	0.0180159
778.582	0.0179380
778.660	0.0179296
778.738	0.0178123
778.817	0.0178128
778.895	0.0178870
778.973	0.0177547
779.051	0.0177956
779.129	0.0178165
779.207	0.0178930
779.285	0.0177805
779.363	0.0177276
779.442	0.0178862
779.520	0.0178947
779.598	0.0178972
779.676	0.0178461
779.754	0.0178289
779.832	0.0178966
779.910	0.0180048
779.988	0.0179206
780.067	0.0179675
780.145	0.0180959
780.223	0.0180141
780.301	0.0181121
780.379	0.0180740
780.457	0.0180907
780.535	0.0179322
780.613	0.0180108
780.692	0.0180143
780.770	0.0178458
780.848	0.0178265
780.926	0.0179767
781.004	0.0177618
781.082	0.0177093
781.160	0.0177330
781.238	0.0177963
781.317	0.0178884
781.395	0.0177811
781.473	0.0179961
781.551	0.0177750
781.629	0.0179338
781.707	0.0179675
781.785	0.0178950
781.863	0.0178374
781.942	0.0178803
782.020	0.0178935
782.098	0.0180779
782.176	0.0180785
782.254	0.0181190
782.332	0.0180622
782.410	0.0180822
782.488	0.0181072
782.567	0.0181460
782.645	0.0181622
782.723	0.0180814
782.801	0.0180286
782.879	0.0180907
782.957	0.0180378
783.035	0.0181997
783.113	0.0180437
783.192	0.0181638
783.270	0.0183199
783.348	0.0183182
783.426	0.0181952
783.504	0.0182497
783.582	0.0184038
783.660	0.0183115
783.738	0.0183778
783.817	0.0183729
783.895	0.0183688
783.973	0.0184103
784.051	0.0183945
784.129	0.0182132
784.207	0.0181590
784.285	0.0181585
784.363	0.0181547
784.442	0.0179224
784.520	0.0176360
784.598	0.0176772
784.676	0.0175478
784.754	0.0174876
784.832	0.0173672
784.910	0.0174036
784.988	0.0173401
785.067	0.0171529
785.145	0.0174325
785.223	0.0174070
785.301	0.0172764
785.379	0.0174544
785.457	0.0175252
785.535	0.0174766
785.613	0.0174737
785.692	0.0174772
785.770	0.0175944
785.848	0.0176041
785.926	0.0177416
786.004	0.0177589
786.082	0.0177545
786.160	0.0178749
786.238	0.0180586
786.317	0.0180582
786.395	0.0181232
786.473	0.0182990
786.551	0.0182962
786.629	0.0183889
786.707	0.0186139
786.785	0.0186028
786.863	0.0186124
786.942	0.0187112
787.020	0.0188020
787.098	0.0188557
787.176	0.0186613
787.254	0.0186009
787.332	0.0185517
787.410	0.0183681
787.488	0.0184041
787.567	0.0184315
787.645	0.0182188
787.723	0.0179491
787.801	0.0178304
787.879	0.0176929
787.957	0.0175196
788.035	0.0172883
788.113	0.0171265
788.192	0.0169225
788.270	0.0167783
788.348	0.0168267
788.426	0.0167290
788.504	0.0167943
788.582	0.0166662
788.660	0.0166821
788.738	0.0168443
788.817	0.0169637
788.895	0.0171061
788.973	0.0173889
789.051	0.0175993
789.129	0.0180035
789.207	0.0181326
789.285	0.0184302
789.363	0.0188377
789.442	0.0190295
789.520	0.0192117
789.598	0.0194039
789.676	0.0196586
789.754	0.0197632
789.832	0.0195974
789.910	0.0197594
789.988	0.0196668
790.067	0.0194646
790.145	0.0192361
790.223	0.0190270
790.301	0.0187704
790.379	0.0184258
790.457	0.0181162
790.535	0.0178716
790.613	0.0173802
790.692	0.0171929
790.770	0.0168686
790.848	0.0165574
790.926	0.0162868
791.004	0.0160921
791.082	0.0159312
791.160	0.0157736
791.238	0.0155345
791.317	0.0157246
791.395	0.0156264
791.473	0.0157104
791.551	0.0158574
791.629	0.0160271
791.707	0.0163893
791.785	0.0167084
791.863	0.0170675
791.942	0.0174862
792.020	0.0180275
792.098	0.0181824
792.176	0.0185541
792.254	0.0192465
792.332	0.0195298
792.410	0.0200475
792.488	0.0202273
792.567	0.0204761
792.645	0.0206834
792.723	0.0209019
792.801	0.0210136
792.879	0.0211160
792.957	0.0208861
793.035	0.0205961
793.113	0.0206080
793.192	0.0202283
793.270	0.0197891
793.348	0.0195004
793.426	0.0190345
793.504	0.0185602
793.582	0.0181625
793.660	0.0177986
793.738	0.0172308
793.817	0.0169455
793.895	0.0165367
793.973	0.0160626
794.051	0.0157281
794.129	0.0155492
794.207	0.0154823
794.285	0.0152733
794.363	0.0151473
794.442	0.0150445
794.520	0.0152097
794.598	0.0151905
794.676	0.0153305
794.754	0.0154592
794.832	0.0157751
794.910	0.0160000
794.988	0.0165324
795.067	0.0170457
795.145	0.0173161
795.223	0.0178824
795.301	0.0183652
795.379	0.0186228
795.457	0.0191837
795.535	0.0195347
795.613	0.0199966
795.692	0.0201589
795.770	0.0203969
795.848	0.0203964
795.926	0.0204961
796.004	0.0204668
796.082	0.0203802
796.160	0.0202970
796.238	0.0200799
796.317	0.0199770
796.395	0.0196358
796.473	0.0194176
796.551	0.0190874
796.629	0.0187334
796.707	0.0185967
796.785	0.0182560
796.863	0.0181100
796.942	0.0179541
797.020	0.0176855
797.098	0.0173833
797.176	0.0172045
797.254	0.0171794
797.332	0.0169773
797.410	0.0167367
797.488	0.0166988
797.567	0.0165771
797.645	0.0165615
797.723	0.0164629
797.801	0.0164962
797.879	0.0164974
797.957	0.0165491
798.035	0.0166325
798.113	0.0166964
798.192	0.0167677
798.270	0.0169610
798.348	0.0170529
798.426	0.0170804
798.504	0.0173276
798.582	0.0175659
798.660	0.0178230
798.738	0.0179520
798.817	0.0183433
798.895	0.0183183
798.973	0.0184489
799.051	0.0185799
799.129	0.0186685
799.207	0.0187286
799.285	0.0189359
799.363	0.0187630
799.442	0.0187859
799.520	0.0188469
799.598	0.0188335
799.676	0.0187543
799.754	0.0187820
799.832	0.0187678
799.910	0.0185689
799.988	0.0186015
800.067	0.0186682
800.145	0.0185641
800.223	0.0184146
800.301	0.0183954
800.379	0.0182378
800.457	0.0182754
800.535	0.0181332
800.613	0.0180904
800.692	0.0180730
800.770	0.0180753
800.848	0.0179166
800.926	0.0177697
801.004	0.0178356
801.082	0.0178239
801.160	0.0177861
801.238	0.0177345
801.317	0.0177814
801.395	0.0176921
801.473	0.0176826
801.551	0.0174708
801.629	0.0175629
801.707	0.0177374
801.785	0.0176638
801.863	0.0176579
801.942	0.0177379
802.020	0.0177147
802.098	0.0178013
802.176	0.0178648
802.254	0.0180009
802.332	0.0179443
802.410	0.0180393
802.488	0.0178725
802.567	0.0180657
802.645	0.0182403
802.723	0.0181233
802.801	0.0179684
802.879	0.0179729
802.957	0.0180241
803.035	0.0179979
803.113	0.0178107
803.192	0.0179028
803.270	0.0178471
803.348	0.0176056
803.426	0.0176023
803.504	0.0175263
803.582	0.0174239
803.660	0.0174224
803.738	0.0173402
803.817	0.0173232
803.895	0.0173858
803.973	0.0172816
804.051	0.0173989
804.129	0.0173651
804.207	0.0174135
804.285	0.0175851
804.363	0.0176640
804.442	0.0176807
804.520	0.0177494
804.598	0.0179861
804.676	0.0179803
804.754	0.0178752
804.832	0.0182131
804.910	0.0181800
804.988	0.0182631
805.067	0.0183273
805.145	0.0184995
805.223	0.0184849
805.301	0.0184275
805.379	0.0186041
805.457	0.0186893
805.535	0.0187298
805.613	0.0187442
805.692	0.0186908
805.770	0.0186493
805.848	0.0187569
805.926	0.0186121
806.004	0.0186536
806.082	0.0185835
806.160	0.0185359
806.238	0.0184061
806.317	0.0184595
806.395	0.0182902
806.473	0.0182975
806.551	0.0183333
806.629	0.0180445
806.707	0.0179163
806.785	0.0180306
806.863	0.0179167
806.942	0.0178357
807.020	0.0179485
807.098	0.0178118
807.176	0.0177147
807.254	0.0177240
807.332	0.0176621
807.410	0.0173912
807.488	0.0174226
807.567	0.0176006
807.645	0.0173660
807.723	0.0173822
807.801	0.0173454
807.879	0.0173462
807.957	0.0173985
808.035	0.0173883
808.113	0.0172691
808.192	0.0174037
808.270	0.0174739
808.348	0.0175275
808.426	0.0175629
808.504	0.0175248
808.582	0.0176659
808.660	0.0178111
808.738	0.0177065
808.817	0.0178549
808.895	0.0180047
808.973	0.0180449
809.051	0.0179591
809.129	0.0180558
809.207	0.0180790
809.285	0.0183482
809.363	0.0183231
809.442	0.0183428
809.520	0.0182358
809.598	0.0184051
809.676	0.0184279
809.754	0.0182964
809.832	0.0184512
809.910	0.0183649
809.988	0.0183212
810.067	0.0183028
810.145	0.0182607
810.223	0.0182401
810.301	0.0181686
810.379	0.0181026
810.457	0.0180708
810.535	0.0180722
810.613	0.0179926
810.692	0.0180652
810.770	0.0179001
810.848	0.0178954
810.926	0.0179048
811.004	0.0178693
811.082	0.0180086
811.160	0.0179719
811.238	0.0178865
811.317	0.0179843
811.395	0.0180984
811.473	0.0179924
811.551	0.0181083
811.629	0.0181139
811.707	0.0180553
811.785	0.0180495
811.863	0.0180483
811.942	0.0180635
812.020	0.0180690
812.098	0.0180738
812.176	0.0179057
812.254	0.0178995
812.332	0.0179551
812.410	0.0180839
812.488	0.0179355
812.567	0.0178857
812.645	0.0178835
812.723	0.0178139
812.801	0.0177477
812.879	0.0177438
812.957	0.0177354
813.035	0.0177271
813.113	0.0177214
813.192	0.0176079
813.270	0.0175798
813.348	0.0176447
813.426	0.0176403
813.504	0.0176655
813.582	0.0174762
813.660	0.0175446
813.738	0.0176643
813.817	0.0175726
813.895	0.0175859
813.973	0.0174828
814.051	0.0174681
814.129	0.0175732
814.207	0.0176453
814.285	0.0175809
814.363	0.0176429
814.442	0.0177322
814.520	0.0179462
814.598	0.0180192
814.676	0.0181111
814.754	0.0180732
814.832	0.0181419
814.910	0.0181895
814.988	0.0183181
815.067	0.0186087
815.145	0.0185246
815.223	0.0186005
815.301	0.0187254
815.379	0.0185921
815.457	0.0184263
815.535	0.0184543
815.613	0.0182457
815.692	0.0183669
815.770	0.0182476
815.848	0.0182837
815.926	0.0181022
816.004	0.0180178
816.082	0.0178799
816.160	0.0177153
816.238	0.0177550
816.317	0.0176945
816.395	0.0177361
816.473	0.0176984
816.551	0.0176823
816.629	0.0179437
816.707	0.0180258
816.785	0.0179913
816.863	0.0180957
816.942	0.0182291
817.020	0.0184884
817.098	0.0183942
817.176	0.0184896
817.254	0.0186575
817.332	0.0187370
817.410	0.0187159
817.488	0.0186552
817.567	0.0186272
817.645	0.0189117
817.723	0.0186408
817.801	0.0187169
817.879	0.0185493
817.957	0.0183112
818.035	0.0181995
818.113	0.0180958
818.192	0.0179322
818.270	0.0178378
818.348	0.0176340
818.426	0.0173480
818.504	0.0171960
818.582	0.0172633
818.660	0.0169758
818.738	0.0168979
818.817	0.0169775
818.895	0.0168499
818.973	0.0166518
819.051	0.0168099
819.129	0.0168079
819.207	0.0169078
819.285	0.0169572
819.363	0.0170116
819.442	0.0171497
819.520	0.0173447
819.598	0.0174965
819.676	0.0177139
819.754	0.0176876
819.832	0.0179201
819.910	0.0181466
819.988	0.0181264
820.067	0.0185075
820.145	0.0185180
820.223	0.0184725
820.301	0.0186492
820.379	0.0186562
820.457	0.0186813
820.535	0.0187416
820.613	0.0186374
820.692	0.0187125
820.770	0.0186677
820.848	0.0183905
820.926	0.0184759
821.004	0.0184440
821.082	0.0184568
821.160	0.0183389
821.238	0.0182624
821.317	0.0182806
821.395	0.0182150
821.473	0.0181464
821.551	0.0181214
821.629	0.0181023
821.707	0.0180123
821.785	0.0179977
821.863	0.0179766
821.942	0.0179590
822.020	0.0180557
822.098	0.0181059
822.176	0.0179820
822.254	0.0178852
822.332	0.0180307
822.410	0.0181746
822.488	0.0179939
822.567	0.0179440
822.645	0.0181030
822.723	0.0179684
822.801	0.0181536
822.879	0.0180386
822.957	0.0182676
823.035	0.0183611
823.113	0.0182671
823.192	0.0182432
823.270	0.0183407
823.348	0.0183330
823.426	0.0182549
823.504	0.0183266
823.582	0.0182471
823.660	0.0181801
823.738	0.0182272
823.817	0.0182136
823.895	0.0180930
823.973	0.0179256
824.051	0.0177802
824.129	0.0177157
824.207	0.0176202
824.285	0.0176449
824.363	0.0174395
824.442	0.0172778
824.520	0.0172713
824.598	0.0172706
824.676	0.0171953
824.754	0.0172913
824.832	0.0172188
824.910	0.0172025
824.988	0.0173142
825.067	0.0175098
825.145	0.0175969
825.223	0.0176717
825.301	0.0178776
825.379	0.0180112
825.457	0.0182948
825.535	0.0181627
825.613	0.0184163
825.692	0.0186001
825.770	0.0186021
825.848	0.0188896
825.926	0.0187048
826.004	0.0188406
826.082	0.0188102
826.160	0.0189400
826.238	0.0188399
826.317	0.0187173
826.395	0.0186832
826.473	0.0187305
826.551	0.0185070
826.629	0.0182521
826.707	0.0183173
826.785	0.0181436
826.863	0.0180347
826.942	0.0179073
827.020	0.0174647
827.098	0.0176064
827.176	0.0175688
827.254	0.0172714
827.332	0.0171634
827.410	0.0171355
827.488	0.0171113
827.567	0.0170464
827.645	0.0169804
827.723	0.0170451
827.801	0.0169946
827.879	0.0171570
827.957	0.0172324
828.035	0.0173209
828.113	0.0174860
828.192	0.0176470
828.270	0.0178729
828.348	0.0179145
828.426	0.0180601
828.504	0.0182487
828.582	0.0184354
828.660	0.0186140
828.738	0.0186314
828.817	0.0187748
828.895	0.0189157
828.973	0.0189184
829.051	0.0189581
829.129	0.0188808
829.207	0.0188229
829.285	0.0187440
829.363	0.0186772
829.442	0.0183186
829.520	0.0183646
829.598	0.0182313
829.676	0.0180729
829.754	0.0178535
829.832	0.0177035
829.910	0.0176487
829.988	0.0175082
830.067	0.0172915
830.145	0.0173183
830.223	0.0174047
830.301	0.0172514
830.379	0.0170805
830.457	0.0171256
830.535	0.0172488
830.613	0.0172743
830.692	0.0173320
830.770	0.0173759
830.848	0.0175681
830.926	0.0175927
831.004	0.0177520
831.082	0.0179047
831.160	0.0179849
831.238	0.0180763
831.317	0.0182893
831.395	0.0183912
831.473	0.0184582
831.551	0.0185431
831.629	0.0185992
831.707	0.0186687
831.785	0.0185151
831.863	0.0186436
831.942	0.0186395
832.020	0.0187629
832.098	0.0186178
832.176	0.0185162
832.254	0.0185824
832.332	0.0185126
832.410	0.0182430
832.488	0.0183997
832.567	0.0183978
832.645	0.0182012
832.723	0.0181406
832.801	0.0179970
832.879	0.0179307
832.957	0.0178153
833.035	0.0177029
833.113	0.0177214
833.192	0.0176637
833.270	0.0174674
833.348	0.0175070
833.426	0.0173593
833.504	0.0173763
833.582	0.0174413
833.660	0.0174286
833.738	0.0173584
833.817	0.0174331
833.895	0.0174391
833.973	0.0173836
834.051	0.0175978
834.129	0.0175326
834.207	0.0178166
834.285	0.0178535
834.363	0.0180574
834.442	0.0180241
834.520	0.0182320
834.598	0.0181332
834.676	0.0181406
834.754	0.0182604
834.832	0.0183611
834.910	0.0183372
834.988	0.0182869
835.067	0.0184037
835.145	0.0184013
835.223	0.0183214
835.301	0.0183032
835.379	0.0182434
835.457	0.0183069
835.535	0.0180976
835.613	0.0180053
835.692	0.0179269
835.770	0.0177274
835.848	0.0176929
835.926	0.0175743
836.004	0.0175211
836.082	0.0174708
836.160	0.0174171
836.238	0.0173717
836.317	0.0172720
836.395	0.0174240
836.473	0.0173936
836.551	0.0174047
836.629	0.0173370
836.707	0.0175922
836.785	0.0176550
836.863	0.0176958
836.942	0.0179243
837.020	0.0180470
837.098	0.0182736
837.176	0.0182067
837.254	0.0184244
837.332	0.0185407
837.410	0.0185556
837.488	0.0186528
837.567	0.0187218
837.645	0.0187735
837.723	0.0188688
837.801	0.0187731
837.879	0.0189847
837.957	0.0187407
838.035	0.0185962
838.113	0.0187727
838.192	0.0187956
838.270	0.0185326
838.348	0.0185732
838.426	0.0185135
838.504	0.0184091
838.582	0.0183047
838.660	0.0184321
838.738	0.0181388
838.817	0.0181212
838.895	0.0179782
838.973	0.0178077
839.051	0.0178871
839.129	0.0177918
839.207	0.0177359
839.285	0.0175662
839.363	0.0175134
839.442	0.0175936
839.520	0.0172729
839.598	0.0173025
839.676	0.0172088
839.754	0.0172712
839.832	0.0173227
839.910	0.0172021
839.988	0.0171958
840.067	0.0171596
840.145	0.0174828
840.223	0.0174519
840.301	0.0172383
840.379	0.0174191
840.457	0.0175184
840.535	0.0175539
840.613	0.0176367
840.692	0.0178117
840.770	0.0178160
840.848	0.0180375
840.926	0.0181844
841.004	0.0180092
841.082	0.0180892
841.160	0.0182283
841.238	0.0182181
841.317	0.0182320
841.395	0.0183183
841.473	0.0182819
841.551	0.0182661
841.629	0.0184143
841.707	0.0184248
841.785	0.0183382
841.863	0.0182697
841.942	0.0183852
842.020	0.0184574
842.098	0.0182070
842.176	0.0182827
842.254	0.0184502
842.332	0.0184418
842.410	0.0183646
842.488	0.0182322
842.567	0.0181470
842.645	0.0181473
842.723	0.0180921
842.801	0.0178938
842.879	0.0179813
842.957	0.0178613
843.035	0.0177247
843.113	0.0177291
843.192	0.0177000
843.270	0.0177812
843.348	0.0176711
843.426	0.0175816
843.504	0.0175696
843.582	0.0175150
843.660	0.0175076
843.738	0.0175518
843.817	0.0174417
843.895	0.0175954
843.973	0.0176795
844.051	0.0177042
844.129	0.0177177
844.207	0.0177597
844.285	0.0178236
844.363	0.0179910
844.442	0.0178638
844.520	0.0180587
844.598	0.0180743
844.676	0.0180135
844.754	0.0180087
844.832	0.0180978
844.910	0.0181866
844.988	0.0180879
845.067	0.0181017
845.145	0.0182117
845.223	0.0180876
845.301	0.0181575
845.379	0.0181477
845.457	0.0181370
845.535	0.0181982
845.613	0.0180412
845.692	0.0180962
845.770	0.0180830
845.848	0.0180701
845.926	0.0182168
846.004	0.0179794
846.082	0.0180014
846.160	0.0179408
846.238	0.0181855
846.317	0.0181236
846.395	0.0181343
846.473	0.0180318
846.551	0.0180863
846.629	0.0182227
846.707	0.0181240
846.785	0.0181471
846.863	0.0181968
846.942	0.0182717
847.020	0.0183817
847.098	0.0183208
847.176	0.0181406
847.254	0.0182414
847.332	0.0183121
847.410	0.0181951
847.488	0.0181869
847.567	0.0182413
847.645	0.0180985
847.723	0.0180929
847.801	0.0181997
847.879	0.0181119
847.957	0.0179269
848.035	0.0179066
848.113	0.0179342
848.192	0.0177332
848.270	0.0178354
848.348	0.0176170
848.426	0.0176252
848.504	0.0177080
848.582	0.0175960
848.660	0.0176340
848.738	0.0176678
848.817	0.0176952
848.895	0.0177345
848.973	0.0176972
849.051	0.0176762
849.129	0.0177308
849.207	0.0178100
849.285	0.0178950
849.363	0.0178274
849.442	0.0179102
849.520	0.0180392
849.598	0.0180441
849.676	0.0182227
849.754	0.0180312
849.832	0.0179851
849.910	0.0180819
849.988	0.0180972
850.067	0.0180112
850.145	0.0181546
850.223	0.0180671
850.301	0.0179922
850.379	0.0180624
850.457	0.0179670
850.535	0.0179369
850.613	0.0179214
850.692	0.0179065
850.770	0.0178149
850.848	0.0179130
850.926	0.0178457
851.004	0.0178922
851.082	0.0178780
851.160	0.0177788
851.238	0.0178220
851.317	0.0177402
851.395	0.0177416
851.473	0.0179755
851.551	0.0177735
851.629	0.0178307
851.707	0.0179117
851.785	0.0178934
851.863	0.0180511
851.942	0.0179945
852.020	0.0179793
852.098	0.0180311
852.176	0.0180442
852.254	0.0180469
852.332	0.0180019
852.410	0.0182183
852.488	0.0182943
852.567	0.0182153
852.645	0.0182510
852.723	0.0182277
852.801	0.0182253
852.879	0.0184881
852.957	0.0184115
853.035	0.0184566
853.113	0.0182645
853.192	0.0184864
853.270	0.0184371
853.348	0.0184417
853.426	0.0184858
853.504	0.0183818
853.582	0.0183868
853.660	0.0183714
853.738	0.0183170
853.817	0.0182076
853.895	0.0182724
853.973	0.0182298
854.051	0.0181294
854.129	0.0179495
854.207	0.0179425
854.285	0.0179340
854.363	0.0177810
854.442	0.0175309
854.520	0.0176321
854.598	0.0177407
854.676	0.0176907
854.754	0.0175475
854.832	0.0175699
854.910	0.0174052
854.988	0.0172730
855.067	0.0174905
855.145	0.0175591
855.223	0.0175769
855.301	0.0175874
855.379	0.0176215
855.457	0.0178151
855.535	0.0177090
855.613	0.0179351
855.692	0.0180658
855.770	0.0181490
855.848	0.0180083
855.926	0.0181303
856.004	0.0182278
856.082	0.0182999
856.160	0.0182379
856.238	0.0182473
856.317	0.0183163
856.395	0.0181705
856.473	0.0183184
856.551	0.0182191
856.629	0.0181490
856.707	0.0180808
856.785	0.0181242
856.863	0.0182680
856.942	0.0179780
857.020	0.0178924
857.098	0.0178306
857.176	0.0178121
857.254	0.0179102
857.332	0.0177046
857.410	0.0176900
857.488	0.0175052
857.567	0.0177739
857.645	0.0176894
857.723	0.0176418
857.801	0.0177267
857.879	0.0176207
857.957	0.0177767
858.035	0.0178622
858.113	0.0178017
858.192	0.0178253
858.270	0.0180181
858.348	0.0179820
858.426	0.0180469
858.504	0.0180728
858.582	0.0181502
858.660	0.0181463
858.738	0.0182861
858.817	0.0184197
858.895	0.0183257
858.973	0.0184765
859.051	0.0185416
859.129	0.0183635
859.207	0.0185260
859.285	0.0184097
859.363	0.0183594
859.442	0.0183183
859.520	0.0181345
859.598	0.0182893
859.676	0.0181556
859.754	0.0182230
859.832	0.0181229
859.910	0.0178862
859.988	0.0179498
860.067	0.0179449
860.145	0.0178171
860.223	0.0176419
860.301	0.0178388
860.379	0.0177094
860.457	0.0177149
860.535	0.0175998
860.613	0.0176260
860.692	0.0176831
860.770	0.0176205
860.848	0.0175731
860.926	0.0176941
861.004	0.0176917
861.082	0.0177701
861.160	0.0177313
861.238	0.0178004
861.317	0.0178818
861.395	0.0178970
861.473	0.0179625
861.551	0.0179993
861.629	0.0178320
861.707	0.0179771
861.785	0.0181706
861.863	0.0179852
861.942	0.0181157
862.020	0.0181485
862.098	0.0180427
862.176	0.0181905
862.254	0.0179657
862.332	0.0179708
862.410	0.0179955
862.488	0.0181389
862.567	0.0179408
862.645	0.0178735
862.723	0.0181593
862.801	0.0179745
862.879	0.0179016
862.957	0.0180778
863.035	0.0180222
863.113	0.0179076
863.192	0.0180073
863.270	0.0181173
863.348	0.0180418
863.426	0.0181114
863.504	0.0181102
863.582	0.0180229
863.660	0.0180613
863.738	0.0181123
863.817	0.0180358
863.895	0.0181480
863.973	0.0181709
864.051	0.0181221
864.129	0.0180222
864.207	0.0180289
864.285	0.0179388
864.363	0.0179999
864.442	0.0180519
864.520	0.0182615
864.598	0.0179515
864.676	0.0180392
864.754	0.0179800
864.832	0.0179179
864.910	0.0179710
864.988	0.0179205
865.067	0.0177982
865.145	0.0179272
865.223	0.0177882
865.301	0.0178387
865.379	0.0177816
865.457	0.0176118
865.535	0.0176223
865.613	0.0176050
865.692	0.0176294
865.770	0.0176836
865.848	0.0179204
865.926	0.0177811
866.004	0.0177474
866.082	0.0177462
866.160	0.0177881
866.238	0.0178350
866.317	0.0178501
866.395	0.0178290
866.473	0.0179638
866.551	0.0179489
866.629	0.0179410
866.707	0.0179565
866.785	0.0180788
866.863	0.0179821
866.942	0.0179569
867.020	0.0179083
867.098	0.0180416
867.176	0.0179897
867.254	0.0179436
867.332	0.0179040
867.410	0.0177942
867.488	0.0180455
867.567	0.0180176
867.645	0.0178893
867.723	0.0179684
867.801	0.0179145
867.879	0.0180092
867.957	0.0179230
868.035	0.0178346
868.113	0.0179578
868.192	0.0179302
868.270	0.0180223
868.348	0.0179895
868.426	0.0180807
868.504	0.0180229
868.582	0.0180147
868.660	0.0181187
868.738	0.0179760
868.817	0.0180199
868.895	0.0180339
868.973	0.0181856
869.051	0.0181062
869.129	0.0182296
869.207	0.0181258
869.285	0.0180148
869.363	0.0181097
869.442	0.0181754
869.520	0.0181347
869.598	0.0179527
869.676	0.0179997
869.754	0.0180148
869.832	0.0181107
869.910	0.0180267
869.988	0.0179584
870.067	0.0180639
870.145	0.0181372
870.223	0.0181584
870.301	0.0182242
870.379	0.0180445
870.457	0.0180751
870.535	0.0181982
870.613	0.0181727
870.692	0.0180956
870.770	0.0180676
870.848	0.0181264
870.926	0.0181252
871.004	0.0181728
871.082	0.0181628
871.160	0.0180257
871.238	0.0180416
871.317	0.0180239
871.395	0.0179132
871.473	0.0180904
871.551	0.0179950
871.629	0.0180366
871.707	0.0179332
871.785	0.0179223
871.863	0.0177910
871.942	0.0176380
872.020	0.0179498
872.098	0.0178236
872.176	0.0178033
872.254	0.0177729
872.332	0.0177151
872.410	0.0175423
872.488	0.0177132
872.567	0.0175897
872.645	0.0176543
872.723	0.0176208
872.801	0.0176157
872.879	0.0175555
872.957	0.0174944
873.035	0.0175778
873.113	0.0176358
873.192	0.0175452
873.270	0.0175726
873.348	0.0177007
873.426	0.0176389
873.504	0.0177634
873.582	0.0178936
873.660	0.0178450
873.738	0.0177949
873.817	0.0179220
873.895	0.0180714
873.973	0.0180170
874.051	0.0180667
874.129	0.0180029
874.207	0.0181168
874.285	0.0182667
874.363	0.0182187
874.442	0.0180288
874.520	0.0182903
874.598	0.0182724
874.676	0.0182065
874.754	0.0182386
874.832	0.0182033
874.910	0.0182863
874.988	0.0183509
875.067	0.0182697
875.145	0.0183228
875.223	0.0182359
875.301	0.0182736
875.379	0.0182844
875.457	0.0181547
875.535	0.0182972
875.613	0.0182810
875.692	0.0180648
875.770	0.0180682
875.848	0.0180507
875.926	0.0181374
876.004	0.0179706
876.082	0.0178178
876.160	0.0179563
876.238	0.0178996
876.317	0.0178106
876.395	0.0178631
876.473	0.0178634
876.551	0.0177282
876.629	0.0176806
876.707	0.0177161
876.785	0.0177697
876.863	0.0177296
876.942	0.0176936
877.020	0.0176781
877.098	0.0178728
877.176	0.0178130
877.254	0.0176893
877.332	0.0177610
877.410	0.0178212
877.488	0.0178352
877.567	0.0177719
877.645	0.0176485
877.723	0.0176627
877.801	0.0178450
877.879	0.0176849
877.957	0.0178843
878.035	0.0178029
878.113	0.0176862
878.192	0.0176520
878.270	0.0179108
878.348	0.0179923
878.426	0.0178844
878.504	0.0178065
878.582	0.0180240
878.660	0.0179649
878.738	0.0180666
878.817	0.0181566
878.895	0.0182201
878.973	0.0181887
879.051	0.0181325
879.129	0.0182697
879.207	0.0182831
879.285	0.0183622
879.363	0.0184370
879.442	0.0182983
879.520	0.0183270
879.598	0.0183564
879.676	0.0182770
879.754	0.0182498
879.832	0.0181316
879.910	0.0181763
879.988	0.0179815
880.067	0.0180988
880.145	0.0180477
880.223	0.0180050
880.301	0.0178694
880.379	0.0178626
880.457	0.0179222
880.535	0.0179037
880.613	0.0176633
880.692	0.0177939
880.770	0.0176929
880.848	0.0176292
880.926	0.0176799
881.004	0.0175941
881.082	0.0177058
881.160	0.0177399
881.238	0.0176311
881.317	0.0174707
881.395	0.0175977
881.473	0.0177157
881.551	0.0176344
881.629	0.0177081
881.707	0.0179623
881.785	0.0179213
881.863	0.0179961
881.942	0.0181127
882.020	0.0181010
882.098	0.0182438
882.176	0.0181474
882.254	0.0181813
882.332	0.0179950
882.410	0.0181740
882.488	0.0182283
882.567	0.0180150
882.645	0.0181119
882.723	0.0180843
882.801	0.0177821
882.879	0.0178507
882.957	0.0177845
883.035	0.0176637
883.113	0.0175148
883.192	0.0174001
883.270	0.0174758
883.348	0.0175847
883.426	0.0174411
883.504	0.0175274
883.582	0.0177000
883.660	0.0176727
883.738	0.0178200
883.817	0.0179317
883.895	0.0179873
883.973	0.0181080
884.051	0.0182977
884.129	0.0184340
884.207	0.0188303
884.285	0.0187466
884.363	0.0188371
884.442	0.0188638
884.520	0.0191148
884.598	0.0190634
884.676	0.0189897
884.754	0.0190710
884.832	0.0190158
884.910	0.0189518
884.988	0.0189256
885.067	0.0189535
885.145	0.0187750
885.223	0.0186040
885.301	0.0183762
885.379	0.0180903
885.457	0.0178311
885.535	0.0174417
885.613	0.0171430
885.692	0.0170130
885.770	0.0167310
885.848	0.0163589
885.926	0.0162189
886.004	0.0159775
886.082	0.0157961
886.160	0.0158396
886.238	0.0158918
886.317	0.0157739
886.395	0.0159491
886.473	0.0162480
886.551	0.0163488
886.629	0.0165437
886.707	0.0169983
886.785	0.0174823
886.863	0.0178078
886.942	0.0182748
887.020	0.0186083
887.098	0.0190314
887.176	0.0193425
887.254	0.0198228
887.332	0.0200954
887.410	0.0201619
887.488	0.0204950
887.567	0.0204583
887.645	0.0205021
887.723	0.0206108
887.801	0.0203820
887.879	0.0203226
887.957	0.0198695
888.035	0.0196172
888.113	0.0192003
888.192	0.0188874
888.270	0.0184861
888.348	0.0179852
888.426	0.0174576
888.504	0.0172873
888.582	0.0167597
888.660	0.0163416
888.738	0.0160235
888.817	0.0156841
888.895	0.0154829
888.973	0.0152979
889.051	0.0152184
889.129	0.0151936
889.207	0.0153400
889.285	0.0155932
889.363	0.0157331
889.442	0.0158917
889.520	0.0162756
889.598	0.0165859
889.676	0.0172160
889.754	0.0174557
889.832	0.0178830
889.910	0.0182687
889.988	0.0188081
890.067	0.0189893
890.145	0.0193637
890.223	0.0195300
890.301	0.0198077
890.379	0.0201197
890.457	0.0202209
890.535	0.0201294
890.613	0.0202701
890.692	0.0202288
890.770	0.0201009
890.848	0.0199377
890.926	0.0195634
891.004	0.0193450
891.082	0.0191409
891.160	0.0187382
891.238	0.0183250
891.317	0.0181103
891.395	0.0178424
891.473	0.0174489
891.551	0.0172579
891.629	0.0169704
891.707	0.0168002
891.785	0.0165263
891.863	0.0164378
891.942	0.0165237
892.020	0.0166264
892.098	0.0164469
892.176	0.0166944
892.254	0.0167375
892.332	0.0170405
892.410	0.0171336
892.488	0.0172420
892.567	0.0174224
892.645	0.0174873
892.723	0.0176268
892.801	0.0178059
892.879	0.0178841
892.957	0.0178234
893.035	0.0178491
893.113	0.0177556
893.192	0.0178934
893.270	0.0178925
893.348	0.0178683
893.426	0.0178732
893.504	0.0178984
893.582	0.0180441
893.660	0.0180751
893.738	0.0179608
893.817	0.0180552
893.895	0.0181913
893.973	0.0181704
894.051	0.0182156
894.129	0.0182692
894.207	0.0182417
894.285	0.0182386
894.363	0.0181931
894.442	0.0180688
894.520	0.0181158
894.598	0.0181701
894.676	0.0181369
894.754	0.0181519
894.832	0.0180531
894.910	0.0180797
894.988	0.0180789
895.067	0.0180926
895.145	0.0179820
895.223	0.0180951
895.301	0.0180843
895.379	0.0181092
895.457	0.0180713
895.535	0.0181496
895.613	0.0182725
895.692	0.0179556
895.770	0.0181152
895.848	0.0182052
895.926	0.0180575
896.004	0.0179687
896.082	0.0180024
896.160	0.0179255
896.238	0.0178809
896.317	0.0179068
896.395	0.0179150
896.473	0.0177976
896.551	0.0179653
896.629	0.0178376
896.707	0.0177786
896.785	0.0177054
896.863	0.0178343
896.942	0.0178354
897.020	0.0178373
897.098	0.0179693
897.176	0.0180083
897.254	0.0178460
897.332	0.0179354
897.410	0.0180540
897.488	0.0179320
897.567	0.0178381
897.645	0.0178938
897.723	0.0179028
897.801	0.0178811
897.879	0.0180627
897.957	0.0180646
898.035	0.0179601
898.113	0.0180309
898.192	0.0179818
898.270	0.0181409
898.348	0.0180978
898.426	0.0180769
898.504	0.0179440
898.582	0.0179620
898.660	0.0179313
898.738	0.0179671
898.817	0.0178685
898.895	0.0177518
898.973	0.0177131
899.051	0.0176485
899.129	0.0176968
899.207	0.0175807
899.285	0.0176026
899.363	0.0176530
899.442	0.0176685
899.520	0.0176819
899.598	0.0175648
899.676	0.0176015
899.754	0.0176814
899.832	0.0179088
899.910	0.0181374
899.988	0.0180158
900.067	0.0182121
900.145	0.0182584
900.223	0.0183688
900.301	0.0182964
900.379	0.0183604
900.457	0.0183531
900.535	0.0184470
900.613	0.0184901
900.692	0.0184947
900.770	0.0185552
900.848	0.0183635
900.926	0.0183289
901.004	0.0182574
901.082	0.0183462
901.160	0.0181026
901.238	0.0180640
901.317	0.0179749
901.395	0.0178981
901.473	0.0177351
901.551	0.0178370
901.629	0.0177214
901.707	0.0179412
901.785	0.0178471
901.863	0.0178677
901.942	0.0178693
902.020	0.0178423
902.098	0.0179584
902.176	0.0179007
902.254	0.0178516
902.332	0.0178565
902.410	0.0179671
902.488	0.0181072
902.567	0.0180356
902.645	0.0180970
902.723	0.0180464
902.801	0.0179742
902.879	0.0180156
902.957	0.0180875
903.035	0.0180708
903.113	0.0179496
903.192	0.0181091
903.270	0.0181375
903.348	0.0182131
903.426	0.0182470
903.504	0.0180724
903.582	0.0181223
903.660	0.0180272
903.738	0.0181495
903.817	0.0183062
903.895	0.0181045
903.973	0.0179737
904.051	0.0179944
904.129	0.0179724
904.207	0.0177748
904.285	0.0178365
904.363	0.0176109
904.442	0.0175019
904.520	0.0176520
904.598	0.0174715
904.676	0.0174641
904.754	0.0174721
904.832	0.0174848
904.910	0.0174936
904.988	0.0174063
905.067	0.0176131
905.145	0.0176479
905.223	0.0175690
905.301	0.0176476
905.379	0.0177594
905.457	0.0177861
905.535	0.0180083
905.613	0.0180832
905.692	0.0178822
905.770	0.0180201
905.848	0.0179956
905.926	0.0180237
906.004	0.0181200
906.082	0.0180624
906.160	0.0180621
906.238	0.0181823
906.317	0.0181576
906.395	0.0182252
906.473	0.0181643
906.551	0.0182325
906.629	0.0182608
906.707	0.0182561
906.785	0.0184465
906.863	0.0184489
906.942	0.0183670
907.020	0.0183617
907.098	0.0182721
907.176	0.0182149
907.254	0.0184328
907.332	0.0183375
907.410	0.0181503
907.488	0.0180892
907.567	0.0182117
907.645	0.0181324
907.723	0.0181033
907.801	0.0177492
907.879	0.0179475
907.957	0.0179558
908.035	0.0179032
908.113	0.0179585
908.192	0.0177068
908.270	0.0178003
908.348	0.0178085
908.426	0.0178139
908.504	0.0179303
908.582	0.0177550
908.660	0.0178402
908.738	0.0179240
908.817	0.0178364
908.895	0.0177753
908.973	0.0179195
909.051	0.0179677
909.129	0.0179823
909.207	0.0179500
909.285	0.0177386
909.363	0.0178999
909.442	0.0179685
909.520	0.0177607
909.598	0.0177454
909.676	0.0178030
909.754	0.0177795
909.832	0.0177948
909.910	0.0179320
909.988	0.0180448
910.067	0.0178566
910.145	0.0178139
910.223	0.0179458
910.301	0.0180155
910.379	0.0179835
910.457	0.0180433
910.535	0.0181265
910.613	0.0180965
910.692	0.0182971
910.770	0.0182966
910.848	0.0181851
910.926	0.0182438
911.004	0.0183290
911.082	0.0183820
911.160	0.0182814
911.238	0.0181650
911.317	0.0181937
911.395	0.0183070
911.473	0.0181295
911.551	0.0181646
911.629	0.0181927
911.707	0.0180891
911.785	0.0179308
911.863	0.0180260
911.942	0.0180310
912.020	0.0179626
912.098	0.0180210
912.176	0.0179050
912.254	0.0178732
912.332	0.0178141
912.410	0.0178615
912.488	0.0179768
912.567	0.0178955
912.645	0.0177534
912.723	0.0178464
912.801	0.0178467
912.879	0.0177534
912.957	0.0178273
913.035	0.0178748
913.113	0.0177365
913.192	0.0177285
913.270	0.0177322
913.348	0.0177333
913.426	0.0176487
913.504	0.0177486
913.582	0.0178339
913.660	0.0177460
913.738	0.0178688
913.817	0.0179613
913.895	0.0179927
913.973	0.0179150
914.051	0.0179657
914.129	0.0179227
914.207	0.0179547
914.285	0.0179078
914.363	0.0178893
914.442	0.0181091
914.520	0.0180781
914.598	0.0179361
914.676	0.0180190
914.754	0.0180514
914.832	0.0179594
914.910	0.0179630
914.988	0.0181115
915.067	0.0182367
915.145	0.0182725
915.223	0.0181616
915.301	0.0181241
915.379	0.0181399
915.457	0.0181319
915.535	0.0181828
915.613	0.0182926
915.692	0.0182337
915.770	0.0183402
915.848	0.0182111
915.926	0.0180810
916.004	0.0180804
916.082	0.0181171
916.160	0.0180445
916.238	0.0181258
916.317	0.0180683
916.395	0.0181076
916.473	0.0180271
916.551	0.0180659
916.629	0.0179473
916.707	0.0178614
916.785	0.0178866
916.863	0.0178741
916.942	0.0178061
917.020	0.0178156
917.098	0.0179530
917.176	0.0179961
917.254	0.0177726
917.332	0.0177755
917.410	0.0179056
917.488	0.0176546
917.567	0.0177294
917.645	0.0177327
917.723	0.0176115
917.801	0.0174535
917.879	0.0176147
917.957	0.0176582
918.035	0.0175617
918.113	0.0176233
918.192	0.0176649
918.270	0.0177393
918.348	0.0177650
918.426	0.0178561
918.504	0.0178312
918.582	0.0178069
918.660	0.0179798
918.738	0.0177746
918.817	0.0179819
918.895	0.0180675
918.973	0.0180070
919.051	0.0180371
919.129	0.0180264
919.207	0.0181607
919.285	0.0180508
919.363	0.0180553
919.442	0.0182330
919.520	0.0182265
919.598	0.0182202
919.676	0.0181780
919.754	0.0181287
919.832	0.0183469
919.910	0.0182914
