06/01/2022	21:37:07	Ver.	4.1	UNKNOWN
Optical Delay	599.988409	Delta X		0.078125	Sweeps	1	Scan Rate	0/0
Coordinates	Axis 1	NaN	Axis 2	NaN	Axis 3	NaN	Axis 4	NaN	Axis 5	NaN	Axis 6	0.000000
TX Power	0.000000	RX Power	0.000000

599.988	0.0176138
600.067	0.0177598
600.145	0.0176272
600.223	0.0177558
600.301	0.0176689
600.379	0.0175705
600.457	0.0176173
600.535	0.0176018
600.613	0.0176498
600.692	0.0177488
600.770	0.0176706
600.848	0.0176039
600.926	0.0177468
601.004	0.0176891
601.082	0.0176215
601.160	0.0175542
601.238	0.0176097
601.317	0.0177225
601.395	0.0176684
601.473	0.0177831
601.551	0.0177168
601.629	0.0175622
601.707	0.0177454
601.785	0.0176847
601.863	0.0175759
601.942	0.0177103
602.020	0.0177520
602.098	0.0175944
602.176	0.0177265
602.254	0.0176985
602.332	0.0175607
602.410	0.0176877
602.488	0.0176371
602.567	0.0177177
602.645	0.0175697
602.723	0.0176825
602.801	0.0176713
602.879	0.0177008
602.957	0.0174680
603.035	0.0177372
603.113	0.0177264
603.192	0.0176926
603.270	0.0176741
603.348	0.0175491
603.426	0.0177010
603.504	0.0176785
603.582	0.0176316
603.660	0.0176905
603.738	0.0176839
603.817	0.0176942
603.895	0.0177274
603.973	0.0176650
604.051	0.0175159
604.129	0.0176473
604.207	0.0176923
604.285	0.0176874
604.363	0.0176714
604.442	0.0175867
604.520	0.0176787
604.598	0.0177754
604.676	0.0175842
604.754	0.0177452
604.832	0.0176003
604.910	0.0175641
604.988	0.0176255
605.067	0.0177232
605.145	0.0176076
605.223	0.0175809
605.301	0.0178204
605.379	0.0176833
605.457	0.0175765
605.535	0.0176273
605.613	0.0176962
605.692	0.0176297
605.770	0.0176897
605.848	0.0176609
605.926	0.0176096
606.004	0.0175377
606.082	0.0175711
606.160	0.0176310
606.238	0.0177630
606.317	0.0175716
606.395	0.0176743
606.473	0.0175233
606.551	0.0176845
606.629	0.0176920
606.707	0.0176279
606.785	0.0176617
606.863	0.0175454
606.942	0.0176415
607.020	0.0176616
607.098	0.0175288
607.176	0.0176030
607.254	0.0176031
607.332	0.0176299
607.410	0.0176670
607.488	0.0175097
607.567	0.0175114
607.645	0.0176306
607.723	0.0177260
607.801	0.0175613
607.879	0.0176731
607.957	0.0175927
608.035	0.0175668
608.113	0.0177011
608.192	0.0176626
608.270	0.0175635
608.348	0.0176545
608.426	0.0177341
608.504	0.0177657
608.582	0.0177015
608.660	0.0178140
608.738	0.0176889
608.817	0.0176228
608.895	0.0174680
608.973	0.0176611
609.051	0.0177011
609.129	0.0175592
609.207	0.0175970
609.285	0.0177547
609.363	0.0176567
609.442	0.0177847
609.520	0.0176663
609.598	0.0176697
609.676	0.0175687
609.754	0.0175767
609.832	0.0177687
609.910	0.0177232
609.988	0.0176120
610.067	0.0176830
610.145	0.0175885
610.223	0.0176450
610.301	0.0175476
610.379	0.0176266
610.457	0.0175553
610.535	0.0177509
610.613	0.0177587
610.692	0.0175400
610.770	0.0175406
610.848	0.0176035
610.926	0.0177194
611.004	0.0176960
611.082	0.0176351
611.160	0.0177104
611.238	0.0175757
611.317	0.0176460
611.395	0.0176109
611.473	0.0176793
611.551	0.0175993
611.629	0.0176495
611.707	0.0175058
611.785	0.0175236
611.863	0.0175452
611.942	0.0175358
612.020	0.0176881
612.098	0.0176548
612.176	0.0175712
612.254	0.0175678
612.332	0.0176243
612.410	0.0176286
612.488	0.0176004
612.567	0.0177272
612.645	0.0176359
612.723	0.0176390
612.801	0.0176211
612.879	0.0176463
612.957	0.0177289
613.035	0.0176224
613.113	0.0176617
613.192	0.0176749
613.270	0.0175613
613.348	0.0176699
613.426	0.0176931
613.504	0.0177020
613.582	0.0177583
613.660	0.0176031
613.738	0.0177061
613.817	0.0176508
613.895	0.0176186
613.973	0.0177117
614.051	0.0176864
614.129	0.0176289
614.207	0.0176497
614.285	0.0175715
614.363	0.0175556
614.442	0.0176005
614.520	0.0175664
614.598	0.0174736
614.676	0.0175904
614.754	0.0175762
614.832	0.0174500
614.910	0.0176196
614.988	0.0176559
615.067	0.0174339
615.145	0.0174559
615.223	0.0174779
615.301	0.0176052
615.379	0.0175495
615.457	0.0176539
615.535	0.0176878
615.613	0.0175897
615.692	0.0176065
615.770	0.0177815
615.848	0.0177551
615.926	0.0175667
616.004	0.0176808
616.082	0.0178035
616.160	0.0177843
616.238	0.0176911
616.317	0.0177306
616.395	0.0178186
616.473	0.0178303
616.551	0.0177214
616.629	0.0178189
616.707	0.0177254
616.785	0.0177848
616.863	0.0177977
616.942	0.0176282
617.020	0.0176605
617.098	0.0175967
617.176	0.0175082
617.254	0.0177311
617.332	0.0177371
617.410	0.0176203
617.488	0.0175568
617.567	0.0176305
617.645	0.0175352
617.723	0.0174187
617.801	0.0174165
617.879	0.0175041
617.957	0.0175208
618.035	0.0174892
618.113	0.0175024
618.192	0.0174703
618.270	0.0175922
618.348	0.0174715
618.426	0.0175195
618.504	0.0174190
618.582	0.0175739
618.660	0.0177540
618.738	0.0176412
618.817	0.0175854
618.895	0.0176692
618.973	0.0175111
619.051	0.0177136
619.129	0.0177033
619.207	0.0176421
619.285	0.0176378
619.363	0.0176950
619.442	0.0178063
619.520	0.0179383
619.598	0.0177077
619.676	0.0179065
619.754	0.0177970
619.832	0.0179140
619.910	0.0178004
619.988	0.0177872
620.067	0.0175966
620.145	0.0177704
620.223	0.0176771
620.301	0.0177983
620.379	0.0176214
620.457	0.0176980
620.535	0.0176395
620.613	0.0175485
620.692	0.0174930
620.770	0.0176862
620.848	0.0175177
620.926	0.0175110
621.004	0.0176714
621.082	0.0176684
621.160	0.0174582
621.238	0.0175104
621.317	0.0177083
621.395	0.0175572
621.473	0.0175805
621.551	0.0176412
621.629	0.0175249
621.707	0.0175906
621.785	0.0177061
621.863	0.0177113
621.942	0.0175500
622.020	0.0175987
622.098	0.0175369
622.176	0.0175427
622.254	0.0177366
622.332	0.0176060
622.410	0.0176241
622.488	0.0176075
622.567	0.0176118
622.645	0.0176180
622.723	0.0177201
622.801	0.0177515
622.879	0.0177149
622.957	0.0177691
623.035	0.0176889
623.113	0.0176755
623.192	0.0178299
623.270	0.0177210
623.348	0.0177002
623.426	0.0176779
623.504	0.0176420
623.582	0.0176141
623.660	0.0176622
623.738	0.0178306
623.817	0.0176572
623.895	0.0176364
623.973	0.0176435
624.051	0.0175946
624.129	0.0175154
624.207	0.0177290
624.285	0.0176314
624.363	0.0174946
624.442	0.0175401
624.520	0.0177064
624.598	0.0175753
624.676	0.0176024
624.754	0.0176913
624.832	0.0176410
624.910	0.0175735
624.988	0.0176421
625.067	0.0176437
625.145	0.0176791
625.223	0.0175432
625.301	0.0175819
625.379	0.0177352
625.457	0.0177109
625.535	0.0175462
625.613	0.0175971
625.692	0.0177029
625.770	0.0177145
625.848	0.0176102
625.926	0.0176787
626.004	0.0177427
626.082	0.0177020
626.160	0.0177649
626.238	0.0175970
626.317	0.0176096
626.395	0.0177000
626.473	0.0177438
626.551	0.0177325
626.629	0.0175469
626.707	0.0176846
626.785	0.0177189
626.863	0.0176888
626.942	0.0177341
627.020	0.0176456
627.098	0.0176579
627.176	0.0177054
627.254	0.0176817
627.332	0.0176414
627.410	0.0175976
627.488	0.0175034
627.567	0.0175732
627.645	0.0176795
627.723	0.0175400
627.801	0.0176442
627.879	0.0176646
627.957	0.0176322
628.035	0.0175645
628.113	0.0177477
628.192	0.0176381
628.270	0.0176678
628.348	0.0177383
628.426	0.0176821
628.504	0.0175280
628.582	0.0177234
628.660	0.0176588
628.738	0.0176199
628.817	0.0176891
628.895	0.0177390
628.973	0.0176261
629.051	0.0177187
629.129	0.0176975
629.207	0.0177322
629.285	0.0178452
629.363	0.0176221
629.442	0.0176760
629.520	0.0176286
629.598	0.0175501
629.676	0.0177267
629.754	0.0176431
629.832	0.0177458
629.910	0.0175671
629.988	0.0175592
630.067	0.0176162
630.145	0.0177164
630.223	0.0177477
630.301	0.0176060
630.379	0.0177230
630.457	0.0175864
630.535	0.0176286
630.613	0.0175661
630.692	0.0176722
630.770	0.0176694
630.848	0.0176974
630.926	0.0176716
631.004	0.0176672
631.082	0.0175961
631.160	0.0176149
631.238	0.0177361
631.317	0.0176270
631.395	0.0176986
631.473	0.0177139
631.551	0.0176270
631.629	0.0176650
631.707	0.0176004
631.785	0.0177221
631.863	0.0177180
631.942	0.0174992
632.020	0.0177316
632.098	0.0176640
632.176	0.0175814
632.254	0.0178319
632.332	0.0175719
632.410	0.0176669
632.488	0.0176669
632.567	0.0176391
632.645	0.0177901
632.723	0.0177400
632.801	0.0175124
632.879	0.0176329
632.957	0.0177312
633.035	0.0176357
633.113	0.0175950
633.192	0.0177922
633.270	0.0176720
633.348	0.0177219
633.426	0.0177126
633.504	0.0176218
633.582	0.0176763
633.660	0.0175454
633.738	0.0178255
633.817	0.0175904
633.895	0.0176648
633.973	0.0177442
634.051	0.0176551
634.129	0.0177771
634.207	0.0175440
634.285	0.0177338
634.363	0.0175845
634.442	0.0175938
634.520	0.0175533
634.598	0.0177410
634.676	0.0177573
634.754	0.0176038
634.832	0.0175713
634.910	0.0176347
634.988	0.0177396
635.067	0.0177650
635.145	0.0175581
635.223	0.0176173
635.301	0.0175689
635.379	0.0176302
635.457	0.0176661
635.535	0.0176044
635.613	0.0175816
635.692	0.0176944
635.770	0.0176385
635.848	0.0175315
635.926	0.0176225
636.004	0.0176943
636.082	0.0176144
636.160	0.0175205
636.238	0.0175838
636.317	0.0175710
636.395	0.0177698
636.473	0.0176418
636.551	0.0176004
636.629	0.0177404
636.707	0.0176924
636.785	0.0175701
636.863	0.0174906
636.942	0.0175492
637.020	0.0176206
637.098	0.0177188
637.176	0.0176225
637.254	0.0176079
637.332	0.0176596
637.410	0.0177340
637.488	0.0176203
637.567	0.0176251
637.645	0.0176023
637.723	0.0176336
637.801	0.0176409
637.879	0.0175891
637.957	0.0176160
638.035	0.0175945
638.113	0.0176262
638.192	0.0176563
638.270	0.0177837
638.348	0.0174773
638.426	0.0176560
638.504	0.0175095
638.582	0.0176646
638.660	0.0176044
638.738	0.0176599
638.817	0.0176541
638.895	0.0176919
638.973	0.0176728
639.051	0.0176103
639.129	0.0176022
639.207	0.0177078
639.285	0.0176059
639.363	0.0176012
639.442	0.0177136
639.520	0.0175668
639.598	0.0176266
639.676	0.0177016
639.754	0.0176387
639.832	0.0176933
639.910	0.0176382
639.988	0.0176559
640.067	0.0174781
640.145	0.0176199
640.223	0.0176022
640.301	0.0177251
640.379	0.0176630
640.457	0.0175989
640.535	0.0177281
640.613	0.0176702
640.692	0.0176223
640.770	0.0176973
640.848	0.0175510
640.926	0.0175908
641.004	0.0175227
641.082	0.0176831
641.160	0.0176941
641.238	0.0175874
641.317	0.0175807
641.395	0.0177439
641.473	0.0175458
641.551	0.0176032
641.629	0.0176574
641.707	0.0176330
641.785	0.0175467
641.863	0.0176823
641.942	0.0175843
642.020	0.0177159
642.098	0.0177499
642.176	0.0175917
642.254	0.0175704
642.332	0.0176596
642.410	0.0176868
642.488	0.0175851
642.567	0.0174707
642.645	0.0176191
642.723	0.0177244
642.801	0.0176528
642.879	0.0175881
642.957	0.0176044
643.035	0.0175368
643.113	0.0175494
643.192	0.0176192
643.270	0.0175571
643.348	0.0176813
643.426	0.0176328
643.504	0.0175165
643.582	0.0175990
643.660	0.0177175
643.738	0.0176526
643.817	0.0175572
643.895	0.0176204
643.973	0.0176459
644.051	0.0175282
644.129	0.0175046
644.207	0.0176142
644.285	0.0176819
644.363	0.0176638
644.442	0.0176354
644.520	0.0177619
644.598	0.0175877
644.676	0.0176612
644.754	0.0177436
644.832	0.0175842
644.910	0.0173911
644.988	0.0176609
645.067	0.0176347
645.145	0.0176683
645.223	0.0177570
645.301	0.0177032
645.379	0.0176257
645.457	0.0174706
645.535	0.0176555
645.613	0.0176426
645.692	0.0176025
645.770	0.0175713
645.848	0.0175686
645.926	0.0176921
646.004	0.0176804
646.082	0.0176203
646.160	0.0175767
646.238	0.0177045
646.317	0.0175251
646.395	0.0175423
646.473	0.0175170
646.551	0.0177572
646.629	0.0175372
646.707	0.0175735
646.785	0.0176167
646.863	0.0175423
646.942	0.0174474
647.020	0.0177073
647.098	0.0175371
647.176	0.0176569
647.254	0.0175585
647.332	0.0177951
647.410	0.0176773
647.488	0.0175913
647.567	0.0176761
647.645	0.0175394
647.723	0.0176358
647.801	0.0177369
647.879	0.0176430
647.957	0.0175784
648.035	0.0175756
648.113	0.0175386
648.192	0.0176669
648.270	0.0178223
648.348	0.0175208
648.426	0.0175604
648.504	0.0175956
648.582	0.0176575
648.660	0.0176456
648.738	0.0176648
648.817	0.0175874
648.895	0.0175640
648.973	0.0175638
649.051	0.0176111
649.129	0.0175697
649.207	0.0176778
649.285	0.0176877
649.363	0.0176426
649.442	0.0175125
649.520	0.0175256
649.598	0.0175097
649.676	0.0175087
649.754	0.0174169
649.832	0.0176422
649.910	0.0176832
649.988	0.0175950
650.067	0.0175133
650.145	0.0176741
650.223	0.0175859
650.301	0.0175885
650.379	0.0176300
650.457	0.0175632
650.535	0.0176912
650.613	0.0175991
650.692	0.0175690
650.770	0.0176781
650.848	0.0174604
650.926	0.0175327
651.004	0.0175774
651.082	0.0177007
651.160	0.0176398
651.238	0.0175253
651.317	0.0176211
651.395	0.0175555
651.473	0.0175988
651.551	0.0176781
651.629	0.0175153
651.707	0.0174985
651.785	0.0176419
651.863	0.0175498
651.942	0.0176504
652.020	0.0175886
652.098	0.0175324
652.176	0.0176618
652.254	0.0175517
652.332	0.0174805
652.410	0.0176272
652.488	0.0174864
652.567	0.0175310
652.645	0.0176673
652.723	0.0176573
652.801	0.0176733
652.879	0.0176568
652.957	0.0176067
653.035	0.0176089
653.113	0.0175489
653.192	0.0176608
653.270	0.0176794
653.348	0.0176868
653.426	0.0175806
653.504	0.0176132
653.582	0.0176916
653.660	0.0176382
653.738	0.0175674
653.817	0.0175771
653.895	0.0176853
653.973	0.0175693
654.051	0.0176237
654.129	0.0176478
654.207	0.0175523
654.285	0.0175610
654.363	0.0176791
654.442	0.0176116
654.520	0.0176521
654.598	0.0176201
654.676	0.0176023
654.754	0.0176794
654.832	0.0176517
654.910	0.0175573
654.988	0.0177039
655.067	0.0176204
655.145	0.0175948
655.223	0.0175840
655.301	0.0175757
655.379	0.0177752
655.457	0.0177527
655.535	0.0177040
655.613	0.0177063
655.692	0.0175320
655.770	0.0175674
655.848	0.0175274
655.926	0.0177652
656.004	0.0177703
656.082	0.0175754
656.160	0.0175924
656.238	0.0176323
656.317	0.0175556
656.395	0.0175688
656.473	0.0175851
656.551	0.0175815
656.629	0.0175644
656.707	0.0176730
656.785	0.0177056
656.863	0.0173904
656.942	0.0175972
657.020	0.0176025
657.098	0.0177556
657.176	0.0176295
657.254	0.0176266
657.332	0.0176521
657.410	0.0176218
657.488	0.0175729
657.567	0.0175693
657.645	0.0175855
657.723	0.0176665
657.801	0.0175304
657.879	0.0175483
657.957	0.0176514
658.035	0.0176997
658.113	0.0175731
658.192	0.0176593
658.270	0.0176311
658.348	0.0176666
658.426	0.0174992
658.504	0.0175934
658.582	0.0176878
658.660	0.0176580
658.738	0.0176135
658.817	0.0175748
658.895	0.0175092
658.973	0.0177214
659.051	0.0175322
659.129	0.0177094
659.207	0.0175787
659.285	0.0174905
659.363	0.0177347
659.442	0.0176818
659.520	0.0175002
659.598	0.0175935
659.676	0.0175476
659.754	0.0177438
659.832	0.0176745
659.910	0.0176257
659.988	0.0177182
660.067	0.0176082
660.145	0.0176106
660.223	0.0176367
660.301	0.0175484
660.379	0.0175043
660.457	0.0175925
660.535	0.0175227
660.613	0.0175457
660.692	0.0176476
660.770	0.0178172
660.848	0.0175535
660.926	0.0175972
661.004	0.0176190
661.082	0.0176312
661.160	0.0175852
661.238	0.0177689
661.317	0.0177171
661.395	0.0176944
661.473	0.0176468
661.551	0.0176260
661.629	0.0176912
661.707	0.0174831
661.785	0.0176691
661.863	0.0177245
661.942	0.0175550
662.020	0.0176134
662.098	0.0176855
662.176	0.0175225
662.254	0.0175354
662.332	0.0176338
662.410	0.0175804
662.488	0.0175237
662.567	0.0176744
662.645	0.0177982
662.723	0.0177026
662.801	0.0176888
662.879	0.0177212
662.957	0.0177470
663.035	0.0176533
663.113	0.0176193
663.192	0.0176350
663.270	0.0177083
663.348	0.0176457
663.426	0.0175478
663.504	0.0176715
663.582	0.0176460
663.660	0.0177446
663.738	0.0175937
663.817	0.0175591
663.895	0.0175746
663.973	0.0177288
664.051	0.0176169
664.129	0.0177403
664.207	0.0175993
664.285	0.0176345
664.363	0.0175928
664.442	0.0176679
664.520	0.0177310
664.598	0.0177230
664.676	0.0176630
664.754	0.0176150
664.832	0.0176933
664.910	0.0177331
664.988	0.0177036
665.067	0.0175998
665.145	0.0175824
665.223	0.0176168
665.301	0.0176199
665.379	0.0177003
665.457	0.0177137
665.535	0.0176855
665.613	0.0176606
665.692	0.0176218
665.770	0.0176099
665.848	0.0176463
665.926	0.0177627
666.004	0.0177280
666.082	0.0176532
666.160	0.0178359
666.238	0.0176257
666.317	0.0176509
666.395	0.0177324
666.473	0.0175793
666.551	0.0177505
666.629	0.0176977
666.707	0.0177734
666.785	0.0176582
666.863	0.0176911
666.942	0.0177950
667.020	0.0176406
667.098	0.0176839
667.176	0.0178117
667.254	0.0176686
667.332	0.0175945
667.410	0.0176794
667.488	0.0176623
667.567	0.0176317
667.645	0.0176546
667.723	0.0177283
667.801	0.0175259
667.879	0.0177826
667.957	0.0176449
668.035	0.0176215
668.113	0.0176295
668.192	0.0176569
668.270	0.0178035
668.348	0.0177155
668.426	0.0176242
668.504	0.0176125
668.582	0.0177341
668.660	0.0177686
668.738	0.0176482
668.817	0.0177518
668.895	0.0176855
668.973	0.0176905
669.051	0.0175540
669.129	0.0177399
669.207	0.0177469
669.285	0.0176900
669.363	0.0176451
669.442	0.0175888
669.520	0.0177541
669.598	0.0176625
669.676	0.0176778
669.754	0.0175850
669.832	0.0176939
669.910	0.0177193
669.988	0.0177457
670.067	0.0177352
670.145	0.0175837
670.223	0.0175797
670.301	0.0176163
670.379	0.0176251
670.457	0.0176568
670.535	0.0176298
670.613	0.0176038
670.692	0.0174942
670.770	0.0176171
670.848	0.0176765
670.926	0.0175488
671.004	0.0176958
671.082	0.0176559
671.160	0.0175751
671.238	0.0174604
671.317	0.0175574
671.395	0.0176160
671.473	0.0174870
671.551	0.0174299
671.629	0.0177113
671.707	0.0175380
671.785	0.0177005
671.863	0.0175443
671.942	0.0174823
672.020	0.0174319
672.098	0.0175824
672.176	0.0175644
672.254	0.0175740
672.332	0.0175904
672.410	0.0176050
672.488	0.0175409
672.567	0.0175758
672.645	0.0174754
672.723	0.0175884
672.801	0.0177382
672.879	0.0177007
672.957	0.0176448
673.035	0.0175381
673.113	0.0175549
673.192	0.0176992
673.270	0.0177151
673.348	0.0175725
673.426	0.0176407
673.504	0.0175354
673.582	0.0175800
673.660	0.0176220
673.738	0.0176640
673.817	0.0176212
673.895	0.0176786
673.973	0.0175612
674.051	0.0176910
674.129	0.0177554
674.207	0.0176733
674.285	0.0175336
674.363	0.0175892
674.442	0.0175795
674.520	0.0176660
674.598	0.0176139
674.676	0.0176348
674.754	0.0175221
674.832	0.0176334
674.910	0.0175085
674.988	0.0175566
675.067	0.0177288
675.145	0.0175982
675.223	0.0177233
675.301	0.0174416
675.379	0.0176011
675.457	0.0175594
675.535	0.0176265
675.613	0.0177209
675.692	0.0175314
675.770	0.0175852
675.848	0.0175319
675.926	0.0177068
676.004	0.0175637
676.082	0.0177100
676.160	0.0176201
676.238	0.0176372
676.317	0.0175730
676.395	0.0176468
676.473	0.0177744
676.551	0.0175063
676.629	0.0176023
676.707	0.0175118
676.785	0.0174894
676.863	0.0175807
676.942	0.0175687
677.020	0.0176187
677.098	0.0174953
677.176	0.0176544
677.254	0.0175571
677.332	0.0173112
677.410	0.0176724
677.488	0.0176569
677.567	0.0175772
677.645	0.0176695
677.723	0.0176543
677.801	0.0176451
677.879	0.0175738
677.957	0.0177067
678.035	0.0176779
678.113	0.0177148
678.192	0.0175932
678.270	0.0177355
678.348	0.0175603
678.426	0.0176505
678.504	0.0176503
678.582	0.0175535
678.660	0.0177454
678.738	0.0177338
678.817	0.0177187
678.895	0.0175820
678.973	0.0176197
679.051	0.0176586
679.129	0.0176781
679.207	0.0176039
679.285	0.0175919
679.363	0.0176357
679.442	0.0176042
679.520	0.0175463
679.598	0.0177134
679.676	0.0176151
679.754	0.0175111
679.832	0.0176894
679.910	0.0176864
679.988	0.0175356
680.067	0.0175038
680.145	0.0176102
680.223	0.0176370
680.301	0.0177274
680.379	0.0176694
680.457	0.0175388
680.535	0.0176939
680.613	0.0176398
680.692	0.0177157
680.770	0.0176485
680.848	0.0175433
680.926	0.0176958
681.004	0.0176483
681.082	0.0176228
681.160	0.0176148
681.238	0.0178111
681.317	0.0175716
681.395	0.0175560
681.473	0.0175528
681.551	0.0175819
681.629	0.0175974
681.707	0.0176259
681.785	0.0174373
681.863	0.0175808
681.942	0.0175314
682.020	0.0174893
682.098	0.0176330
682.176	0.0177143
682.254	0.0177921
682.332	0.0175465
682.410	0.0176033
682.488	0.0176238
682.567	0.0177898
682.645	0.0176738
682.723	0.0176933
682.801	0.0175732
682.879	0.0175793
682.957	0.0175968
683.035	0.0176922
683.113	0.0177059
683.192	0.0175645
683.270	0.0174493
683.348	0.0175520
683.426	0.0174343
683.504	0.0175636
683.582	0.0174324
683.660	0.0175117
683.738	0.0174977
683.817	0.0175314
683.895	0.0175672
683.973	0.0176080
684.051	0.0176781
684.129	0.0175906
684.207	0.0176958
684.285	0.0177050
684.363	0.0177244
684.442	0.0178642
684.520	0.0178826
684.598	0.0178552
684.676	0.0178239
684.754	0.0177480
684.832	0.0178706
684.910	0.0179074
684.988	0.0177016
685.067	0.0177682
685.145	0.0176631
685.223	0.0176505
685.301	0.0175016
685.379	0.0177152
685.457	0.0177119
685.535	0.0176276
685.613	0.0175913
685.692	0.0174106
685.770	0.0173535
685.848	0.0174591
685.926	0.0176121
686.004	0.0175134
686.082	0.0174198
686.160	0.0174303
686.238	0.0174156
686.317	0.0173022
686.395	0.0173977
686.473	0.0172895
686.551	0.0171385
686.629	0.0173468
686.707	0.0173076
686.785	0.0174123
686.863	0.0175317
686.942	0.0176579
687.020	0.0176750
687.098	0.0178803
687.176	0.0178890
687.254	0.0178120
687.332	0.0178972
687.410	0.0180699
687.488	0.0181207
687.567	0.0180532
687.645	0.0180723
687.723	0.0179398
687.801	0.0177690
687.879	0.0177030
687.957	0.0176331
688.035	0.0174425
688.113	0.0173592
688.192	0.0173091
688.270	0.0170322
688.348	0.0167745
688.426	0.0168578
688.504	0.0167493
688.582	0.0166550
688.660	0.0164996
688.738	0.0164919
688.817	0.0165519
688.895	0.0164944
688.973	0.0167696
689.051	0.0170570
689.129	0.0173286
689.207	0.0177306
689.285	0.0180261
689.363	0.0184634
689.442	0.0190552
689.520	0.0195120
689.598	0.0198335
689.676	0.0202997
689.754	0.0206498
689.832	0.0209592
689.910	0.0211018
689.988	0.0211652
690.067	0.0211689
690.145	0.0209512
690.223	0.0205009
690.301	0.0199664
690.379	0.0194270
690.457	0.0187006
690.535	0.0177104
690.613	0.0167323
690.692	0.0156620
690.770	0.0144781
690.848	0.0132401
690.926	0.0123038
691.004	0.0113410
691.082	0.0106043
691.160	0.0102019
691.238	0.0100874
691.317	0.0102357
691.395	0.0104993
691.473	0.0111209
691.551	0.0118792
691.629	0.0128416
691.707	0.0140197
691.785	0.0151778
691.863	0.0164169
691.942	0.0177594
692.020	0.0191393
692.098	0.0205475
692.176	0.0220876
692.254	0.0237004
692.332	0.0251008
692.410	0.0264728
692.488	0.0277793
692.567	0.0291813
692.645	0.0302274
692.723	0.0308907
692.801	0.0314712
692.879	0.0313237
692.957	0.0308331
693.035	0.0298997
693.113	0.0283788
693.192	0.0263856
693.270	0.0241449
693.348	0.0213522
693.426	0.0185949
693.504	0.0157753
693.582	0.0128873
693.660	0.00999763
693.738	0.00735588
693.817	0.00486809
693.895	0.00251869
693.973	0.000644836
694.051	-0.00107430
694.129	-0.00246857
694.207	-0.00314621
694.285	-0.00357071
694.363	-0.00342300
694.442	-0.00239120
694.520	-0.000607910
694.598	0.00144577
694.676	0.00436317
694.754	0.00752937
694.832	0.0110683
694.910	0.0148298
694.988	0.0186472
695.067	0.0226549
695.145	0.0262812
695.223	0.0295297
695.301	0.0326180
695.379	0.0354561
695.457	0.0377238
695.535	0.0396197
695.613	0.0411107
695.692	0.0419479
695.770	0.0426048
695.848	0.0427227
695.926	0.0424795
696.004	0.0417679
696.082	0.0404056
696.160	0.0387039
696.238	0.0364114
696.317	0.0334888
696.395	0.0299978
696.473	0.0261285
696.551	0.0219296
696.629	0.0174556
696.707	0.0126331
696.785	0.00803894
696.863	0.00345207
696.942	-0.000812988
697.020	-0.00477448
697.098	-0.00834450
697.176	-0.0111665
697.254	-0.0136111
697.332	-0.0149418
697.410	-0.0154050
697.488	-0.0151941
697.567	-0.0139122
697.645	-0.0119688
697.723	-0.00916481
697.801	-0.00584877
697.879	-0.00181480
697.957	0.00267059
698.035	0.00736336
698.113	0.0122377
698.192	0.0173967
698.270	0.0220729
698.348	0.0268494
698.426	0.0313148
698.504	0.0352052
698.582	0.0388567
698.660	0.0418228
698.738	0.0440722
698.817	0.0458354
698.895	0.0471514
698.973	0.0477314
699.051	0.0474251
699.129	0.0468227
699.207	0.0455952
699.285	0.0437340
699.363	0.0414188
699.442	0.0386440
699.520	0.0355185
699.598	0.0320924
699.676	0.0283368
699.754	0.0245274
699.832	0.0204630
699.910	0.0164901
699.988	0.0126465
700.067	0.00909561
700.145	0.00553291
700.223	0.00223572
700.301	-0.000356445
700.379	-0.00264549
700.457	-0.00432983
700.535	-0.00561966
700.613	-0.00633789
700.692	-0.00638229
700.770	-0.00588959
700.848	-0.00512497
700.926	-0.00364952
701.004	-0.00199333
701.082	0.0000434875
701.160	0.00241707
701.238	0.00489143
701.317	0.00730911
701.395	0.00993668
701.473	0.0125146
701.551	0.0151233
701.629	0.0175047
701.707	0.0198740
701.785	0.0220897
701.863	0.0240884
701.942	0.0258103
702.020	0.0275671
702.098	0.0288903
702.176	0.0298441
702.254	0.0308682
702.332	0.0316984
702.410	0.0318948
702.488	0.0317651
702.567	0.0314622
702.645	0.0312353
702.723	0.0302554
702.801	0.0292897
702.879	0.0282027
702.957	0.0271602
703.035	0.0255557
703.113	0.0243254
703.192	0.0228265
703.270	0.0214125
703.348	0.0201563
703.426	0.0188390
703.504	0.0174479
703.582	0.0163754
703.660	0.0154563
703.738	0.0144551
703.817	0.0136877
703.895	0.0127766
703.973	0.0121368
704.051	0.0118381
704.129	0.0114784
704.207	0.0113093
704.285	0.0112288
704.363	0.0113789
704.442	0.0116838
704.520	0.0120464
704.598	0.0124351
704.676	0.0130840
704.754	0.0136302
704.832	0.0142641
704.910	0.0149799
704.988	0.0154876
705.067	0.0162207
705.145	0.0168473
705.223	0.0175224
705.301	0.0180344
705.379	0.0184282
705.457	0.0187943
705.535	0.0191972
705.613	0.0192416
705.692	0.0193348
705.770	0.0192685
705.848	0.0189364
705.926	0.0188720
706.004	0.0187473
706.082	0.0183072
706.160	0.0180247
706.238	0.0174907
706.317	0.0172185
706.395	0.0169744
706.473	0.0165354
706.551	0.0161909
706.629	0.0158940
706.707	0.0157670
706.785	0.0155505
706.863	0.0153186
706.942	0.0152669
707.020	0.0154420
707.098	0.0154160
707.176	0.0155643
707.254	0.0157625
707.332	0.0163091
707.410	0.0164993
707.488	0.0169084
707.567	0.0174345
707.645	0.0180956
707.723	0.0184602
707.801	0.0190291
707.879	0.0196970
707.957	0.0201409
708.035	0.0206518
708.113	0.0209653
708.192	0.0214609
708.270	0.0215179
708.348	0.0217053
708.426	0.0216122
708.504	0.0214635
708.582	0.0213770
708.660	0.0212686
708.738	0.0210715
708.817	0.0206902
708.895	0.0204177
708.973	0.0202454
709.051	0.0199883
709.129	0.0196849
709.207	0.0194848
709.285	0.0193378
709.363	0.0190569
709.442	0.0188904
709.520	0.0186744
709.598	0.0183739
709.676	0.0178878
709.754	0.0176015
709.832	0.0173103
709.910	0.0169790
709.988	0.0164932
710.067	0.0160316
710.145	0.0154758
710.223	0.0149116
710.301	0.0144305
710.379	0.0138503
710.457	0.0135776
710.535	0.0131656
710.613	0.0128117
710.692	0.0126497
710.770	0.0127627
710.848	0.0127519
710.926	0.0129626
711.004	0.0131866
711.082	0.0134919
711.160	0.0140208
711.238	0.0145129
711.317	0.0151005
711.395	0.0154781
711.473	0.0160535
711.551	0.0167419
711.629	0.0171695
711.707	0.0175509
711.785	0.0178394
711.863	0.0180653
711.942	0.0181839
712.020	0.0186219
712.098	0.0185409
712.176	0.0187389
712.254	0.0189594
712.332	0.0191338
712.410	0.0194243
712.488	0.0194741
712.567	0.0198135
712.645	0.0198697
712.723	0.0201144
712.801	0.0203123
712.879	0.0204344
712.957	0.0204325
713.035	0.0204451
713.113	0.0204855
713.192	0.0204189
713.270	0.0201164
713.348	0.0198816
713.426	0.0196873
713.504	0.0194201
713.582	0.0190823
713.660	0.0187625
713.738	0.0183681
713.817	0.0181466
713.895	0.0178450
713.973	0.0177154
714.051	0.0176030
714.129	0.0175336
714.207	0.0174036
714.285	0.0175005
714.363	0.0175690
714.442	0.0176501
714.520	0.0175573
714.598	0.0177784
714.676	0.0178154
714.754	0.0177973
714.832	0.0180118
714.910	0.0179327
714.988	0.0179499
715.067	0.0177547
715.145	0.0175306
715.223	0.0175490
715.301	0.0170889
715.379	0.0168601
715.457	0.0167946
715.535	0.0164678
715.613	0.0163536
715.692	0.0162137
715.770	0.0158617
715.848	0.0159083
715.926	0.0157776
716.004	0.0158351
716.082	0.0157329
716.160	0.0157749
716.238	0.0159785
716.317	0.0159543
716.395	0.0160327
716.473	0.0161459
716.551	0.0163366
716.629	0.0164268
716.707	0.0165099
716.785	0.0167641
716.863	0.0166841
716.942	0.0167153
717.020	0.0166723
717.098	0.0167928
717.176	0.0168892
717.254	0.0169466
717.332	0.0171033
717.410	0.0172158
717.488	0.0175044
717.567	0.0176961
717.645	0.0177265
717.723	0.0179733
717.801	0.0182835
717.879	0.0184467
717.957	0.0186208
718.035	0.0188015
718.113	0.0190208
718.192	0.0191296
718.270	0.0191434
718.348	0.0192027
718.426	0.0193187
718.504	0.0193616
718.582	0.0193479
718.660	0.0195440
718.738	0.0194786
718.817	0.0194439
718.895	0.0193613
718.973	0.0192657
719.051	0.0191816
719.129	0.0190393
719.207	0.0188673
719.285	0.0187468
719.363	0.0186466
719.442	0.0184832
719.520	0.0182465
719.598	0.0181499
719.676	0.0180669
719.754	0.0179022
719.832	0.0176900
719.910	0.0174842
719.988	0.0176317
720.067	0.0175810
720.145	0.0172882
720.223	0.0174516
720.301	0.0174431
720.379	0.0174229
720.457	0.0173988
720.535	0.0171777
720.613	0.0170947
720.692	0.0171015
720.770	0.0171972
720.848	0.0172278
720.926	0.0173174
721.004	0.0172091
721.082	0.0172414
721.160	0.0172428
721.238	0.0171875
721.317	0.0169463
721.395	0.0169601
721.473	0.0169172
721.551	0.0168511
721.629	0.0168400
721.707	0.0165140
721.785	0.0164575
721.863	0.0163296
721.942	0.0162141
722.020	0.0161944
722.098	0.0161754
722.176	0.0162868
722.254	0.0162648
722.332	0.0163488
722.410	0.0165163
722.488	0.0166357
722.567	0.0167620
722.645	0.0169931
722.723	0.0171773
722.801	0.0173049
722.879	0.0175518
722.957	0.0175905
723.035	0.0176972
723.113	0.0178116
723.192	0.0180335
723.270	0.0180936
723.348	0.0180964
723.426	0.0182722
723.504	0.0183469
723.582	0.0185641
723.660	0.0187485
723.738	0.0186445
723.817	0.0185827
723.895	0.0185562
723.973	0.0187888
724.051	0.0187123
724.129	0.0186858
724.207	0.0185484
724.285	0.0186229
724.363	0.0184348
724.442	0.0185544
724.520	0.0184797
724.598	0.0183154
724.676	0.0180920
724.754	0.0180520
724.832	0.0178405
724.910	0.0176490
724.988	0.0176019
725.067	0.0176971
725.145	0.0174811
725.223	0.0174404
725.301	0.0173750
725.379	0.0173002
725.457	0.0173396
725.535	0.0174253
725.613	0.0175758
725.692	0.0175646
725.770	0.0176487
725.848	0.0176512
725.926	0.0177894
726.004	0.0180255
726.082	0.0181108
726.160	0.0182381
726.238	0.0184945
726.317	0.0184332
726.395	0.0182811
726.473	0.0181913
726.551	0.0181851
726.629	0.0179282
726.707	0.0177638
726.785	0.0176848
726.863	0.0175788
726.942	0.0173719
727.020	0.0170461
727.098	0.0169172
727.176	0.0167222
727.254	0.0165406
727.332	0.0165059
727.410	0.0164544
727.488	0.0164407
727.567	0.0164359
727.645	0.0164680
727.723	0.0165589
727.801	0.0166073
727.879	0.0166705
727.957	0.0168554
728.035	0.0169923
728.113	0.0171493
728.192	0.0174754
728.270	0.0175651
728.348	0.0175359
728.426	0.0177697
728.504	0.0180774
728.582	0.0180669
728.660	0.0181135
728.738	0.0184265
728.817	0.0183995
728.895	0.0184422
728.973	0.0185551
729.051	0.0187145
729.129	0.0186639
729.207	0.0187301
729.285	0.0186765
729.363	0.0185219
729.442	0.0185858
729.520	0.0183651
729.598	0.0182738
729.676	0.0181606
729.754	0.0181348
729.832	0.0178825
729.910	0.0178002
729.988	0.0175578
730.067	0.0174525
730.145	0.0173163
730.223	0.0169711
730.301	0.0168497
730.379	0.0168015
730.457	0.0165205
730.535	0.0163371
730.613	0.0164438
730.692	0.0164058
730.770	0.0162936
730.848	0.0162983
730.926	0.0163403
731.004	0.0164684
731.082	0.0166061
731.160	0.0169117
731.238	0.0169926
731.317	0.0173030
731.395	0.0176767
731.473	0.0179508
731.551	0.0183507
731.629	0.0183602
731.707	0.0187322
731.785	0.0189052
731.863	0.0190587
731.942	0.0191822
732.020	0.0190388
732.098	0.0189818
732.176	0.0188884
732.254	0.0186639
732.332	0.0185911
732.410	0.0184660
732.488	0.0183801
732.567	0.0180460
732.645	0.0179621
732.723	0.0176293
732.801	0.0176134
732.879	0.0174038
732.957	0.0173116
733.035	0.0171968
733.113	0.0171173
733.192	0.0169431
733.270	0.0170124
733.348	0.0170213
733.426	0.0169429
733.504	0.0168648
733.582	0.0169536
733.660	0.0170667
733.738	0.0169225
733.817	0.0169020
733.895	0.0171130
733.973	0.0170507
734.051	0.0170499
734.129	0.0171948
734.207	0.0173264
734.285	0.0173801
734.363	0.0173530
734.442	0.0173824
734.520	0.0176260
734.598	0.0175828
734.676	0.0178812
734.754	0.0180265
734.832	0.0178347
734.910	0.0179330
734.988	0.0179717
735.067	0.0178061
735.145	0.0178343
735.223	0.0176960
735.301	0.0176415
735.379	0.0174858
735.457	0.0173531
735.535	0.0172223
735.613	0.0170696
735.692	0.0169738
735.770	0.0169335
735.848	0.0167140
735.926	0.0168039
736.004	0.0168519
736.082	0.0166995
736.160	0.0168579
736.238	0.0168816
736.317	0.0172368
736.395	0.0171780
736.473	0.0174167
736.551	0.0174231
736.629	0.0177615
736.707	0.0178942
736.785	0.0179145
736.863	0.0181734
736.942	0.0181694
737.020	0.0183447
737.098	0.0182961
737.176	0.0183275
737.254	0.0184297
737.332	0.0184457
737.410	0.0184196
737.488	0.0185216
737.567	0.0183812
737.645	0.0184662
737.723	0.0183270
737.801	0.0181750
737.879	0.0181582
737.957	0.0179050
738.035	0.0180205
738.113	0.0178651
738.192	0.0176677
738.270	0.0175224
738.348	0.0174873
738.426	0.0173476
738.504	0.0171370
738.582	0.0172036
738.660	0.0170124
738.738	0.0169636
738.817	0.0169054
738.895	0.0168945
738.973	0.0169057
739.051	0.0169644
739.129	0.0168200
739.207	0.0168888
739.285	0.0170195
739.363	0.0170795
739.442	0.0171559
739.520	0.0171445
739.598	0.0172027
739.676	0.0174227
739.754	0.0174403
739.832	0.0176527
739.910	0.0175166
739.988	0.0175813
740.067	0.0177990
740.145	0.0179279
740.223	0.0179215
740.301	0.0179781
740.379	0.0180524
740.457	0.0179324
740.535	0.0182085
740.613	0.0181092
740.692	0.0182482
740.770	0.0182225
740.848	0.0181815
740.926	0.0179743
741.004	0.0180861
741.082	0.0181944
741.160	0.0179305
741.238	0.0178880
741.317	0.0178883
741.395	0.0176968
741.473	0.0177396
741.551	0.0177139
741.629	0.0176530
741.707	0.0175958
741.785	0.0176053
741.863	0.0176192
741.942	0.0174522
742.020	0.0174287
742.098	0.0176326
742.176	0.0175672
742.254	0.0175047
742.332	0.0174240
742.410	0.0173921
742.488	0.0174730
742.567	0.0173673
742.645	0.0174271
742.723	0.0174001
742.801	0.0173715
742.879	0.0174419
742.957	0.0175613
743.035	0.0177750
743.113	0.0175568
743.192	0.0177273
743.270	0.0175890
743.348	0.0176698
743.426	0.0177685
743.504	0.0176776
743.582	0.0176456
743.660	0.0178130
743.738	0.0175663
743.817	0.0175138
743.895	0.0174546
743.973	0.0173261
744.051	0.0173267
744.129	0.0172057
744.207	0.0172725
744.285	0.0171447
744.363	0.0169191
744.442	0.0169819
744.520	0.0170775
744.598	0.0170381
744.676	0.0171986
744.754	0.0173399
744.832	0.0171643
744.910	0.0175139
744.988	0.0176360
745.067	0.0176094
745.145	0.0180212
745.223	0.0179990
745.301	0.0181948
745.379	0.0185033
745.457	0.0184574
745.535	0.0184722
745.613	0.0186712
745.692	0.0187491
745.770	0.0186395
745.848	0.0186377
745.926	0.0185622
746.004	0.0185114
746.082	0.0184496
746.160	0.0183466
746.238	0.0181331
746.317	0.0177492
746.395	0.0176723
746.473	0.0174475
746.551	0.0173434
746.629	0.0170789
746.707	0.0168812
746.785	0.0167810
746.863	0.0167142
746.942	0.0167652
747.020	0.0166267
747.098	0.0167445
747.176	0.0168613
747.254	0.0169420
747.332	0.0171357
747.410	0.0172527
747.488	0.0173624
747.567	0.0174273
747.645	0.0177856
747.723	0.0178096
747.801	0.0180422
747.879	0.0181434
747.957	0.0182385
748.035	0.0183225
748.113	0.0184540
748.192	0.0185115
748.270	0.0185114
748.348	0.0185135
748.426	0.0184760
748.504	0.0183944
748.582	0.0181628
748.660	0.0180871
748.738	0.0179525
748.817	0.0178359
748.895	0.0177229
748.973	0.0174490
749.051	0.0174563
749.129	0.0174218
749.207	0.0173206
749.285	0.0172068
749.363	0.0172810
749.442	0.0170979
749.520	0.0170097
749.598	0.0170251
749.676	0.0170557
749.754	0.0169916
749.832	0.0170559
749.910	0.0170247
749.988	0.0169669
750.067	0.0170538
750.145	0.0169597
750.223	0.0170425
750.301	0.0170576
750.379	0.0170780
750.457	0.0170889
750.535	0.0170437
750.613	0.0170547
750.692	0.0171077
750.770	0.0172015
750.848	0.0172482
750.926	0.0170363
751.004	0.0173065
751.082	0.0173981
751.160	0.0174488
751.238	0.0175567
751.317	0.0176889
751.395	0.0177626
751.473	0.0180257
751.551	0.0180315
751.629	0.0180643
751.707	0.0182475
751.785	0.0183159
751.863	0.0183563
751.942	0.0183985
752.020	0.0184919
752.098	0.0184438
752.176	0.0183816
752.254	0.0184961
752.332	0.0184470
752.410	0.0182182
752.488	0.0180215
752.567	0.0179936
752.645	0.0178963
752.723	0.0180177
752.801	0.0176650
752.879	0.0176696
752.957	0.0175932
753.035	0.0174409
753.113	0.0173235
753.192	0.0172543
753.270	0.0172250
753.348	0.0172028
753.426	0.0172929
753.504	0.0172845
753.582	0.0172281
753.660	0.0171902
753.738	0.0173001
753.817	0.0175174
753.895	0.0175618
753.973	0.0174997
754.051	0.0175998
754.129	0.0175633
754.207	0.0176798
754.285	0.0177446
754.363	0.0178017
754.442	0.0177968
754.520	0.0178116
754.598	0.0179568
754.676	0.0179406
754.754	0.0177971
754.832	0.0179676
754.910	0.0178909
754.988	0.0176717
755.067	0.0179327
755.145	0.0178026
755.223	0.0178993
755.301	0.0178145
755.379	0.0177410
755.457	0.0178040
755.535	0.0176799
755.613	0.0176881
755.692	0.0176806
755.770	0.0178594
755.848	0.0177050
755.926	0.0176741
756.004	0.0177312
756.082	0.0177377
756.160	0.0176479
756.238	0.0175636
756.317	0.0175517
756.395	0.0176057
756.473	0.0174805
756.551	0.0174622
756.629	0.0174398
756.707	0.0173711
756.785	0.0173343
756.863	0.0172384
756.942	0.0171489
757.020	0.0171455
757.098	0.0172408
757.176	0.0170695
757.254	0.0171327
757.332	0.0172318
757.410	0.0170496
757.488	0.0171230
757.567	0.0171740
757.645	0.0171302
757.723	0.0172951
757.801	0.0173406
757.879	0.0175443
757.957	0.0175493
758.035	0.0174995
758.113	0.0174107
758.192	0.0176468
758.270	0.0176445
758.348	0.0176234
758.426	0.0177204
758.504	0.0175799
758.582	0.0177065
758.660	0.0178151
758.738	0.0178132
758.817	0.0178804
758.895	0.0178837
758.973	0.0177888
759.051	0.0179116
759.129	0.0179281
759.207	0.0180478
759.285	0.0179900
759.363	0.0180269
759.442	0.0178963
759.520	0.0179852
759.598	0.0179485
759.676	0.0179810
759.754	0.0179925
759.832	0.0177358
759.910	0.0177731
759.988	0.0177965
760.067	0.0177026
760.145	0.0179563
760.223	0.0176051
760.301	0.0176191
760.379	0.0177541
760.457	0.0175800
760.535	0.0176375
760.613	0.0175628
760.692	0.0173410
760.770	0.0173198
760.848	0.0173709
760.926	0.0173116
761.004	0.0172410
761.082	0.0174456
761.160	0.0173943
761.238	0.0174477
761.317	0.0173750
761.395	0.0174481
761.473	0.0177971
761.551	0.0176781
761.629	0.0177474
761.707	0.0179099
761.785	0.0180186
761.863	0.0181129
761.942	0.0181635
762.020	0.0182116
762.098	0.0181115
762.176	0.0181454
762.254	0.0181514
762.332	0.0183047
762.410	0.0180325
762.488	0.0179597
762.567	0.0179806
762.645	0.0177512
762.723	0.0176242
762.801	0.0176023
762.879	0.0175980
762.957	0.0173824
763.035	0.0172176
763.113	0.0171044
763.192	0.0170013
763.270	0.0169539
763.348	0.0169651
763.426	0.0169082
763.504	0.0167830
763.582	0.0169106
763.660	0.0170605
763.738	0.0169755
763.817	0.0169403
763.895	0.0171311
763.973	0.0173469
764.051	0.0175764
764.129	0.0175452
764.207	0.0175997
764.285	0.0176953
764.363	0.0178111
764.442	0.0179744
764.520	0.0180215
764.598	0.0179566
764.676	0.0178581
764.754	0.0180288
764.832	0.0179780
764.910	0.0180228
764.988	0.0178573
765.067	0.0180175
765.145	0.0178035
765.223	0.0177014
765.301	0.0176393
765.379	0.0176015
765.457	0.0175291
765.535	0.0174259
765.613	0.0173519
765.692	0.0174168
765.770	0.0171307
765.848	0.0173451
765.926	0.0174144
766.004	0.0172992
766.082	0.0173589
766.160	0.0173283
766.238	0.0175475
766.317	0.0176588
766.395	0.0176067
766.473	0.0176832
766.551	0.0177657
766.629	0.0177440
766.707	0.0179171
766.785	0.0178096
766.863	0.0179053
766.942	0.0178853
767.020	0.0178946
767.098	0.0178574
767.176	0.0178384
767.254	0.0176690
767.332	0.0178474
767.410	0.0176503
767.488	0.0177964
767.567	0.0178320
767.645	0.0177645
767.723	0.0178571
767.801	0.0178182
767.879	0.0178436
767.957	0.0179157
768.035	0.0178155
768.113	0.0177644
768.192	0.0179118
768.270	0.0178968
768.348	0.0178945
768.426	0.0177815
768.504	0.0177074
768.582	0.0177084
768.660	0.0177522
768.738	0.0177801
768.817	0.0178618
768.895	0.0178427
768.973	0.0179552
769.051	0.0177338
769.129	0.0179143
769.207	0.0178913
769.285	0.0177709
769.363	0.0179331
769.442	0.0180048
769.520	0.0179632
769.598	0.0178417
769.676	0.0178194
769.754	0.0178307
769.832	0.0176894
769.910	0.0176460
769.988	0.0175557
770.067	0.0175064
770.145	0.0174796
770.223	0.0174226
770.301	0.0172876
770.379	0.0172285
770.457	0.0173045
770.535	0.0172935
770.613	0.0173350
770.692	0.0173620
770.770	0.0174107
770.848	0.0174281
770.926	0.0175170
771.004	0.0175574
771.082	0.0177219
771.160	0.0176672
771.238	0.0176625
771.317	0.0179092
771.395	0.0178908
771.473	0.0177817
771.551	0.0178783
771.629	0.0179037
771.707	0.0178746
771.785	0.0179005
771.863	0.0178715
771.942	0.0176759
772.020	0.0174812
772.098	0.0177008
772.176	0.0174636
772.254	0.0174509
772.332	0.0171677
772.410	0.0171922
772.488	0.0171347
772.567	0.0171590
772.645	0.0171842
772.723	0.0170262
772.801	0.0171743
772.879	0.0172245
772.957	0.0171124
773.035	0.0172189
773.113	0.0172870
773.192	0.0171883
773.270	0.0172649
773.348	0.0175475
773.426	0.0173385
773.504	0.0174969
773.582	0.0177035
773.660	0.0176804
773.738	0.0177502
773.817	0.0178768
773.895	0.0179087
773.973	0.0178688
774.051	0.0178526
774.129	0.0179644
774.207	0.0179214
774.285	0.0180550
774.363	0.0181084
774.442	0.0179791
774.520	0.0180569
774.598	0.0179440
774.676	0.0180191
774.754	0.0179796
774.832	0.0181021
774.910	0.0180087
774.988	0.0178870
775.067	0.0178902
775.145	0.0179693
775.223	0.0179150
775.301	0.0179806
775.379	0.0179584
775.457	0.0178275
775.535	0.0178413
775.613	0.0178617
775.692	0.0176376
775.770	0.0176762
775.848	0.0175928
775.926	0.0175761
776.004	0.0175550
776.082	0.0175130
776.160	0.0173463
776.238	0.0174277
776.317	0.0173890
776.395	0.0173920
776.473	0.0173476
776.551	0.0174540
776.629	0.0174400
776.707	0.0174824
776.785	0.0174578
776.863	0.0175533
776.942	0.0174944
777.020	0.0175358
777.098	0.0175419
777.176	0.0175451
777.254	0.0175924
777.332	0.0176064
777.410	0.0176337
777.488	0.0175876
777.567	0.0175397
777.645	0.0176351
777.723	0.0174673
777.801	0.0176133
777.879	0.0175925
777.957	0.0176878
778.035	0.0175477
778.113	0.0176162
778.192	0.0176940
778.270	0.0176053
778.348	0.0178314
778.426	0.0177148
778.504	0.0176653
778.582	0.0175941
778.660	0.0175952
778.738	0.0175897
778.817	0.0176218
778.895	0.0175829
778.973	0.0176516
779.051	0.0175117
779.129	0.0174586
779.207	0.0175079
779.285	0.0175416
779.363	0.0174634
779.442	0.0173956
779.520	0.0173721
779.598	0.0174467
779.676	0.0173553
779.754	0.0172987
779.832	0.0173512
779.910	0.0173440
779.988	0.0174940
780.067	0.0175078
780.145	0.0175368
780.223	0.0175766
780.301	0.0175240
780.379	0.0175029
780.457	0.0175402
780.535	0.0174288
780.613	0.0175173
780.692	0.0176146
780.770	0.0176338
780.848	0.0175780
780.926	0.0175099
781.004	0.0176436
781.082	0.0177439
781.160	0.0177289
781.238	0.0175651
781.317	0.0177327
781.395	0.0177919
781.473	0.0177664
781.551	0.0177640
781.629	0.0178212
781.707	0.0177673
781.785	0.0178447
781.863	0.0179574
781.942	0.0179700
782.020	0.0177699
782.098	0.0177689
782.176	0.0177349
782.254	0.0179121
782.332	0.0177675
782.410	0.0178559
782.488	0.0177329
782.567	0.0177292
782.645	0.0178433
782.723	0.0176845
782.801	0.0178573
782.879	0.0177566
782.957	0.0178094
783.035	0.0179536
783.113	0.0179825
783.192	0.0177592
783.270	0.0180471
783.348	0.0180674
783.426	0.0180405
783.504	0.0179255
783.582	0.0178838
783.660	0.0180323
783.738	0.0178216
783.817	0.0178262
783.895	0.0178181
783.973	0.0176376
784.051	0.0174999
784.129	0.0174270
784.207	0.0173489
784.285	0.0172156
784.363	0.0172245
784.442	0.0169874
784.520	0.0170460
784.598	0.0170634
784.676	0.0168880
784.754	0.0170815
784.832	0.0170561
784.910	0.0170252
784.988	0.0172300
785.067	0.0171488
785.145	0.0170718
785.223	0.0172308
785.301	0.0172756
785.379	0.0171902
785.457	0.0172710
785.535	0.0174824
785.613	0.0175153
785.692	0.0175747
785.770	0.0177297
785.848	0.0177952
785.926	0.0178707
786.004	0.0179779
786.082	0.0180824
786.160	0.0180950
786.238	0.0181895
786.317	0.0181799
786.395	0.0182124
786.473	0.0184173
786.551	0.0183773
786.629	0.0181480
786.707	0.0182292
786.785	0.0183520
786.863	0.0181900
786.942	0.0180797
787.020	0.0180302
787.098	0.0178110
787.176	0.0178011
787.254	0.0177409
787.332	0.0175641
787.410	0.0173968
787.488	0.0172314
787.567	0.0170746
787.645	0.0168143
787.723	0.0168419
787.801	0.0166118
787.879	0.0166380
787.957	0.0165927
788.035	0.0166561
788.113	0.0167126
788.192	0.0168941
788.270	0.0169691
788.348	0.0171529
788.426	0.0172953
788.504	0.0176132
788.582	0.0177024
788.660	0.0180395
788.738	0.0182331
788.817	0.0183308
788.895	0.0185439
788.973	0.0187083
789.051	0.0189268
789.129	0.0189637
789.207	0.0190831
789.285	0.0190034
789.363	0.0188857
789.442	0.0189319
789.520	0.0188582
789.598	0.0185905
789.676	0.0185403
789.754	0.0184114
789.832	0.0180207
789.910	0.0179063
789.988	0.0177561
790.067	0.0175314
790.145	0.0172242
790.223	0.0172234
790.301	0.0169809
790.379	0.0167519
790.457	0.0165323
790.535	0.0162318
790.613	0.0163155
790.692	0.0162730
790.770	0.0159389
790.848	0.0158492
790.926	0.0159743
791.004	0.0159740
791.082	0.0159982
791.160	0.0160922
791.238	0.0161320
791.317	0.0162514
791.395	0.0166702
791.473	0.0169833
791.551	0.0172049
791.629	0.0174388
791.707	0.0178920
791.785	0.0182883
791.863	0.0186468
791.942	0.0190551
792.020	0.0193882
792.098	0.0196234
792.176	0.0198461
792.254	0.0201707
792.332	0.0203210
792.410	0.0206481
792.488	0.0205354
792.567	0.0205016
792.645	0.0203750
792.723	0.0203878
792.801	0.0199771
792.879	0.0195886
792.957	0.0191219
793.035	0.0187695
793.113	0.0184798
793.192	0.0178931
793.270	0.0172490
793.348	0.0167399
793.426	0.0162466
793.504	0.0157793
793.582	0.0154226
793.660	0.0150775
793.738	0.0148952
793.817	0.0144618
793.895	0.0142280
793.973	0.0142636
794.051	0.0142474
794.129	0.0142794
794.207	0.0145084
794.285	0.0146101
794.363	0.0148582
794.442	0.0151994
794.520	0.0155992
794.598	0.0160286
794.676	0.0164690
794.754	0.0171574
794.832	0.0174921
794.910	0.0178583
794.988	0.0185992
795.067	0.0190747
795.145	0.0193560
795.223	0.0199922
795.301	0.0202205
795.379	0.0202766
795.457	0.0205072
795.535	0.0206295
795.613	0.0207340
795.692	0.0205750
795.770	0.0205456
795.848	0.0204601
795.926	0.0201653
796.004	0.0199808
796.082	0.0196211
796.160	0.0194026
796.238	0.0189879
796.317	0.0186769
796.395	0.0181981
796.473	0.0178748
796.551	0.0174702
796.629	0.0171838
796.707	0.0168792
796.785	0.0165871
796.863	0.0164692
796.942	0.0162154
797.020	0.0161395
797.098	0.0158828
797.176	0.0157711
797.254	0.0157261
797.332	0.0157139
797.410	0.0155922
797.488	0.0155450
797.567	0.0157264
797.645	0.0156448
797.723	0.0158276
797.801	0.0158047
797.879	0.0157847
797.957	0.0159856
798.035	0.0163934
798.113	0.0164546
798.192	0.0168304
798.270	0.0170673
798.348	0.0173282
798.426	0.0174299
798.504	0.0178233
798.582	0.0180593
798.660	0.0181425
798.738	0.0184084
798.817	0.0186520
798.895	0.0189189
798.973	0.0190528
799.051	0.0192128
799.129	0.0192107
799.207	0.0191752
799.285	0.0191760
799.363	0.0191437
799.442	0.0191576
799.520	0.0191505
799.598	0.0190835
799.676	0.0190094
799.754	0.0188000
799.832	0.0187691
799.910	0.0185924
799.988	0.0184050
800.067	0.0182327
800.145	0.0178354
800.223	0.0177530
800.301	0.0175582
800.379	0.0174032
800.457	0.0173322
800.535	0.0172759
800.613	0.0169821
800.692	0.0169318
800.770	0.0168016
800.848	0.0168176
800.926	0.0166527
801.004	0.0166351
801.082	0.0166375
801.160	0.0166742
801.238	0.0166966
801.317	0.0168643
801.395	0.0168393
801.473	0.0168559
801.551	0.0170223
801.629	0.0171717
801.707	0.0171838
801.785	0.0172849
801.863	0.0173121
801.942	0.0174128
802.020	0.0176621
802.098	0.0175681
802.176	0.0176445
802.254	0.0176308
802.332	0.0175739
802.410	0.0176029
802.488	0.0175927
802.567	0.0175568
802.645	0.0177456
802.723	0.0176012
802.801	0.0175365
802.879	0.0174770
802.957	0.0174181
803.035	0.0174556
803.113	0.0174528
803.192	0.0175706
803.270	0.0173937
803.348	0.0176411
803.426	0.0174233
803.504	0.0175890
803.582	0.0174683
803.660	0.0174883
803.738	0.0175018
803.817	0.0174771
803.895	0.0174289
803.973	0.0174754
804.051	0.0176689
804.129	0.0175890
804.207	0.0175183
804.285	0.0175552
804.363	0.0176340
804.442	0.0177328
804.520	0.0176492
804.598	0.0179598
804.676	0.0178764
804.754	0.0179316
804.832	0.0179997
804.910	0.0180631
804.988	0.0181883
805.067	0.0181786
805.145	0.0182682
805.223	0.0181966
805.301	0.0181851
805.379	0.0182803
805.457	0.0183568
805.535	0.0182832
805.613	0.0181583
805.692	0.0180546
805.770	0.0181087
805.848	0.0181187
805.926	0.0181433
806.004	0.0179945
806.082	0.0179075
806.160	0.0178759
806.238	0.0176949
806.317	0.0175833
806.395	0.0175364
806.473	0.0174329
806.551	0.0174529
806.629	0.0174068
806.707	0.0172401
806.785	0.0172050
806.863	0.0170894
806.942	0.0170052
807.020	0.0170580
807.098	0.0169968
807.176	0.0169746
807.254	0.0169960
807.332	0.0168961
807.410	0.0170101
807.488	0.0169971
807.567	0.0168726
807.645	0.0172387
807.723	0.0169820
807.801	0.0171083
807.879	0.0171603
807.957	0.0172285
808.035	0.0171574
808.113	0.0172533
808.192	0.0174132
808.270	0.0173507
808.348	0.0174284
808.426	0.0175410
808.504	0.0176302
808.582	0.0175509
808.660	0.0177282
808.738	0.0177959
808.817	0.0178136
808.895	0.0180357
808.973	0.0180415
809.051	0.0181334
809.129	0.0180301
809.207	0.0181061
809.285	0.0181069
809.363	0.0181981
809.442	0.0181817
809.520	0.0182697
809.598	0.0182246
809.676	0.0180721
809.754	0.0181302
809.832	0.0180207
809.910	0.0180488
809.988	0.0181004
810.067	0.0178496
810.145	0.0178711
810.223	0.0177370
810.301	0.0176756
810.379	0.0177345
810.457	0.0176900
810.535	0.0177233
810.613	0.0176971
810.692	0.0177156
810.770	0.0176714
810.848	0.0176857
810.926	0.0176377
811.004	0.0176211
811.082	0.0176571
811.160	0.0176543
811.238	0.0176568
811.317	0.0177472
811.395	0.0177385
811.473	0.0178103
811.551	0.0176981
811.629	0.0176985
811.707	0.0176794
811.785	0.0175089
811.863	0.0176831
811.942	0.0175532
812.020	0.0175154
812.098	0.0174795
812.176	0.0174806
812.254	0.0174287
812.332	0.0172964
812.410	0.0173689
812.488	0.0172160
812.567	0.0172759
812.645	0.0171869
812.723	0.0171872
812.801	0.0171405
812.879	0.0170733
812.957	0.0170808
813.035	0.0171343
813.113	0.0171835
813.192	0.0171785
813.270	0.0171812
813.348	0.0171494
813.426	0.0172442
813.504	0.0172740
813.582	0.0172649
813.660	0.0172928
813.738	0.0173174
813.817	0.0173359
813.895	0.0174117
813.973	0.0175031
814.051	0.0174538
814.129	0.0175606
814.207	0.0177322
814.285	0.0175993
814.363	0.0177959
814.442	0.0179367
814.520	0.0179450
814.598	0.0181061
814.676	0.0181677
814.754	0.0181976
814.832	0.0183126
814.910	0.0181386
814.988	0.0180732
815.067	0.0182359
815.145	0.0182101
815.223	0.0181796
815.301	0.0179331
815.379	0.0179530
815.457	0.0178940
815.535	0.0178410
815.613	0.0176515
815.692	0.0178147
815.770	0.0176369
815.848	0.0174953
815.926	0.0176593
816.004	0.0176722
816.082	0.0174565
816.160	0.0175510
816.238	0.0177132
816.317	0.0176302
816.395	0.0178142
816.473	0.0178850
816.551	0.0178921
816.629	0.0179417
816.707	0.0180197
816.785	0.0180556
816.863	0.0180990
816.942	0.0180638
817.020	0.0180833
817.098	0.0181207
817.176	0.0181866
817.254	0.0182935
817.332	0.0180216
817.410	0.0179868
817.488	0.0180685
817.567	0.0178751
817.645	0.0176585
817.723	0.0174831
817.801	0.0176197
817.879	0.0174050
817.957	0.0172260
818.035	0.0170659
818.113	0.0170408
818.192	0.0168969
818.270	0.0166245
818.348	0.0166257
818.426	0.0167070
818.504	0.0166653
818.582	0.0165455
818.660	0.0163815
818.738	0.0166135
818.817	0.0166045
818.895	0.0166189
818.973	0.0167749
819.051	0.0169127
819.129	0.0169363
819.207	0.0169792
819.285	0.0171851
819.363	0.0173328
819.442	0.0174855
819.520	0.0176033
819.598	0.0177017
819.676	0.0179379
819.754	0.0181178
819.832	0.0181665
819.910	0.0181248
819.988	0.0183716
820.067	0.0184041
820.145	0.0183906
820.223	0.0184209
820.301	0.0185027
820.379	0.0183858
820.457	0.0184330
820.535	0.0183466
820.613	0.0181460
820.692	0.0181406
820.770	0.0181899
820.848	0.0180352
820.926	0.0180640
821.004	0.0178697
821.082	0.0178976
821.160	0.0178949
821.238	0.0177375
821.317	0.0178551
821.395	0.0177370
821.473	0.0176304
821.551	0.0176691
821.629	0.0176962
821.707	0.0174529
821.785	0.0175789
821.863	0.0175064
821.942	0.0175723
822.020	0.0175754
822.098	0.0175536
822.176	0.0177342
822.254	0.0177847
822.332	0.0176532
822.410	0.0178275
822.488	0.0177681
822.567	0.0177943
822.645	0.0178282
822.723	0.0178417
822.801	0.0178164
822.879	0.0179856
822.957	0.0179171
823.035	0.0178281
823.113	0.0178431
823.192	0.0177239
823.270	0.0177468
823.348	0.0177343
823.426	0.0175945
823.504	0.0175517
823.582	0.0174577
823.660	0.0173882
823.738	0.0174858
823.817	0.0172723
823.895	0.0171355
823.973	0.0171518
824.051	0.0171004
824.129	0.0171677
824.207	0.0170056
824.285	0.0169819
824.363	0.0171050
824.442	0.0170771
824.520	0.0172359
824.598	0.0172890
824.676	0.0174603
824.754	0.0174016
824.832	0.0174394
824.910	0.0177557
824.988	0.0176746
825.067	0.0179176
825.145	0.0179681
825.223	0.0180366
825.301	0.0182206
825.379	0.0183069
825.457	0.0183449
825.535	0.0183076
825.613	0.0183903
825.692	0.0183463
825.770	0.0183900
825.848	0.0182988
825.926	0.0184444
826.004	0.0183643
826.082	0.0182098
826.160	0.0180411
826.238	0.0178750
826.317	0.0178761
826.395	0.0179166
826.473	0.0177521
826.551	0.0176527
826.629	0.0175093
826.707	0.0174756
826.785	0.0171104
826.863	0.0172028
826.942	0.0171162
827.020	0.0168999
827.098	0.0167978
827.176	0.0167577
827.254	0.0169489
827.332	0.0168948
827.410	0.0167233
827.488	0.0167638
827.567	0.0168616
827.645	0.0169918
827.723	0.0169476
827.801	0.0170251
827.879	0.0172079
827.957	0.0175074
828.035	0.0175399
828.113	0.0177488
828.192	0.0178285
828.270	0.0179752
828.348	0.0182067
828.426	0.0184201
828.504	0.0182935
828.582	0.0183389
828.660	0.0185500
828.738	0.0185944
828.817	0.0185793
828.895	0.0183320
828.973	0.0185538
829.051	0.0184180
829.129	0.0182587
829.207	0.0181417
829.285	0.0180701
829.363	0.0179639
829.442	0.0179623
829.520	0.0176709
829.598	0.0175006
829.676	0.0173478
829.754	0.0173987
829.832	0.0173729
829.910	0.0171275
829.988	0.0171482
830.067	0.0171239
830.145	0.0171359
830.223	0.0169363
830.301	0.0169389
830.379	0.0169553
830.457	0.0170990
830.535	0.0172158
830.613	0.0172664
830.692	0.0173407
830.770	0.0174724
830.848	0.0174990
830.926	0.0176166
831.004	0.0176644
831.082	0.0178334
831.160	0.0179128
831.238	0.0179025
831.317	0.0180351
831.395	0.0181130
831.473	0.0181213
831.551	0.0181895
831.629	0.0182439
831.707	0.0181576
831.785	0.0181799
831.863	0.0183121
831.942	0.0182531
832.020	0.0181443
832.098	0.0181747
832.176	0.0181719
832.254	0.0180108
832.332	0.0179073
832.410	0.0179388
832.488	0.0177435
832.567	0.0177962
832.645	0.0176159
832.723	0.0174830
832.801	0.0174545
832.879	0.0174565
832.957	0.0172366
833.035	0.0174052
833.113	0.0172813
833.192	0.0172514
833.270	0.0171564
833.348	0.0171922
833.426	0.0171989
833.504	0.0170154
833.582	0.0170666
833.660	0.0172122
833.738	0.0173008
833.817	0.0173344
833.895	0.0174304
833.973	0.0175333
834.051	0.0175721
834.129	0.0176839
834.207	0.0178832
834.285	0.0178667
834.363	0.0179670
834.442	0.0180397
834.520	0.0179950
834.598	0.0179662
834.676	0.0179190
834.754	0.0179975
834.832	0.0180476
834.910	0.0179798
834.988	0.0179623
835.067	0.0178575
835.145	0.0177715
835.223	0.0177460
835.301	0.0176109
835.379	0.0175514
835.457	0.0174313
835.535	0.0173704
835.613	0.0171891
835.692	0.0172733
835.770	0.0173067
835.848	0.0171429
835.926	0.0171323
836.004	0.0170975
836.082	0.0171638
836.160	0.0173531
836.238	0.0173294
836.317	0.0174975
836.395	0.0174175
836.473	0.0174606
836.551	0.0175373
836.629	0.0177125
836.707	0.0177370
836.785	0.0177903
836.863	0.0178299
836.942	0.0179070
837.020	0.0180460
837.098	0.0181275
837.176	0.0181518
837.254	0.0181179
837.332	0.0182024
837.410	0.0182948
837.488	0.0183712
837.567	0.0183374
837.645	0.0183415
837.723	0.0184049
837.801	0.0182712
837.879	0.0182247
837.957	0.0182169
838.035	0.0182455
838.113	0.0180891
838.192	0.0181274
838.270	0.0180262
838.348	0.0179493
838.426	0.0177296
838.504	0.0177594
838.582	0.0177317
838.660	0.0176077
838.738	0.0174358
838.817	0.0173056
838.895	0.0172856
838.973	0.0171627
839.051	0.0170747
839.129	0.0169672
839.207	0.0171104
839.285	0.0170147
839.363	0.0168909
839.442	0.0169965
839.520	0.0170779
839.598	0.0170284
839.676	0.0169991
839.754	0.0169515
839.832	0.0170148
839.910	0.0171525
839.988	0.0173190
840.067	0.0172837
840.145	0.0173540
840.223	0.0173884
840.301	0.0174943
840.379	0.0175423
840.457	0.0176729
840.535	0.0177417
840.613	0.0178824
840.692	0.0178812
840.770	0.0178171
840.848	0.0179498
840.926	0.0181190
841.004	0.0180930
841.082	0.0180645
841.160	0.0180533
841.238	0.0180838
841.317	0.0180668
841.395	0.0181562
841.473	0.0182649
841.551	0.0180356
841.629	0.0179939
841.707	0.0180694
841.785	0.0180267
841.863	0.0179303
841.942	0.0179673
842.020	0.0178987
842.098	0.0177634
842.176	0.0176551
842.254	0.0175348
842.332	0.0175266
842.410	0.0174956
842.488	0.0175216
842.567	0.0173225
842.645	0.0172476
842.723	0.0171555
842.801	0.0171761
842.879	0.0171650
842.957	0.0171458
843.035	0.0172888
843.113	0.0171988
843.192	0.0172636
843.270	0.0172940
843.348	0.0173664
843.426	0.0173965
843.504	0.0173920
843.582	0.0175524
843.660	0.0175993
843.738	0.0176582
843.817	0.0175735
843.895	0.0179803
843.973	0.0178357
844.051	0.0178102
844.129	0.0177439
844.207	0.0178001
844.285	0.0177806
844.363	0.0177574
844.442	0.0178879
844.520	0.0178023
844.598	0.0177573
844.676	0.0178306
844.754	0.0177546
844.832	0.0177975
844.910	0.0177943
844.988	0.0177058
845.067	0.0178085
845.145	0.0176709
845.223	0.0176931
845.301	0.0179075
845.379	0.0178435
845.457	0.0176904
845.535	0.0178078
845.613	0.0177589
845.692	0.0177306
845.770	0.0178928
845.848	0.0177676
845.926	0.0178622
846.004	0.0179472
846.082	0.0179539
846.160	0.0179527
846.238	0.0180112
846.317	0.0179327
846.395	0.0178151
846.473	0.0180025
846.551	0.0180844
846.629	0.0179206
846.707	0.0178857
846.785	0.0178757
846.863	0.0179525
846.942	0.0177621
847.020	0.0177763
847.098	0.0178137
847.176	0.0176858
847.254	0.0176643
847.332	0.0176887
847.410	0.0177053
847.488	0.0176228
847.567	0.0175233
847.645	0.0173380
847.723	0.0174492
847.801	0.0173957
847.879	0.0173685
847.957	0.0173321
848.035	0.0173340
848.113	0.0173437
848.192	0.0174529
848.270	0.0173289
848.348	0.0172891
848.426	0.0175024
848.504	0.0174031
848.582	0.0173842
848.660	0.0174635
848.738	0.0174721
848.817	0.0173885
848.895	0.0175827
848.973	0.0176410
849.051	0.0175611
849.129	0.0176263
849.207	0.0175530
849.285	0.0176176
849.363	0.0176835
849.442	0.0177406
849.520	0.0176786
849.598	0.0175838
849.676	0.0175282
849.754	0.0176729
849.832	0.0176238
849.910	0.0177030
849.988	0.0176656
850.067	0.0174835
850.145	0.0176553
850.223	0.0177345
850.301	0.0175040
850.379	0.0176150
850.457	0.0176637
850.535	0.0177116
850.613	0.0176744
850.692	0.0176695
850.770	0.0176978
850.848	0.0175802
850.926	0.0176230
851.004	0.0177963
851.082	0.0176027
851.160	0.0177051
851.238	0.0177964
851.317	0.0178725
851.395	0.0177182
851.473	0.0177490
851.551	0.0177254
851.629	0.0177169
851.707	0.0177535
851.785	0.0178565
851.863	0.0179075
851.942	0.0179033
852.020	0.0178917
852.098	0.0178928
852.176	0.0179648
852.254	0.0180388
852.332	0.0181325
852.410	0.0178823
852.488	0.0180061
852.567	0.0181229
852.645	0.0179734
852.723	0.0180309
852.801	0.0181021
852.879	0.0180296
852.957	0.0180692
853.035	0.0180659
853.113	0.0180006
853.192	0.0179108
853.270	0.0178329
853.348	0.0177359
853.426	0.0177946
853.504	0.0176434
853.582	0.0176897
853.660	0.0174704
853.738	0.0174992
853.817	0.0174133
853.895	0.0173617
853.973	0.0172224
854.051	0.0172735
854.129	0.0173996
854.207	0.0170868
854.285	0.0172536
854.363	0.0171728
854.442	0.0172643
854.520	0.0171049
854.598	0.0171598
854.676	0.0173161
854.754	0.0173324
854.832	0.0172375
854.910	0.0174244
854.988	0.0174352
855.067	0.0174631
855.145	0.0176972
855.223	0.0176375
855.301	0.0177725
855.379	0.0177501
855.457	0.0178251
855.535	0.0179174
855.613	0.0180215
855.692	0.0179437
855.770	0.0179612
855.848	0.0179709
855.926	0.0180158
856.004	0.0181418
856.082	0.0181211
856.160	0.0181285
856.238	0.0179649
856.317	0.0179531
856.395	0.0178265
856.473	0.0177168
856.551	0.0176971
856.629	0.0175727
856.707	0.0175948
856.785	0.0176522
856.863	0.0175774
856.942	0.0175841
857.020	0.0174060
857.098	0.0173662
857.176	0.0173367
857.254	0.0174287
857.332	0.0174554
857.410	0.0173529
857.488	0.0174787
857.567	0.0172776
857.645	0.0174391
857.723	0.0173225
857.801	0.0175247
857.879	0.0174749
857.957	0.0176967
858.035	0.0176944
858.113	0.0176333
858.192	0.0177531
858.270	0.0177893
858.348	0.0176900
858.426	0.0177259
858.504	0.0180150
858.582	0.0178838
858.660	0.0179041
858.738	0.0179537
858.817	0.0178416
858.895	0.0179626
858.973	0.0179369
859.051	0.0178494
859.129	0.0179098
859.207	0.0178815
859.285	0.0178255
859.363	0.0176663
859.442	0.0176804
859.520	0.0177898
859.598	0.0176062
859.676	0.0177802
859.754	0.0175770
859.832	0.0175742
859.910	0.0175144
859.988	0.0174893
860.067	0.0175462
860.145	0.0175032
860.223	0.0175303
860.301	0.0175620
860.379	0.0175066
860.457	0.0172839
860.535	0.0173152
860.613	0.0174895
860.692	0.0174869
860.770	0.0173590
860.848	0.0175558
860.926	0.0175218
861.004	0.0174061
861.082	0.0176092
861.160	0.0174826
861.238	0.0175260
861.317	0.0175648
861.395	0.0176433
861.473	0.0176221
861.551	0.0177481
861.629	0.0176598
861.707	0.0176994
861.785	0.0177667
861.863	0.0178048
861.942	0.0178310
862.020	0.0178274
862.098	0.0177400
862.176	0.0176434
862.254	0.0176682
862.332	0.0177740
862.410	0.0176600
862.488	0.0174960
862.567	0.0174899
862.645	0.0176898
862.723	0.0174691
862.801	0.0175766
862.879	0.0174990
862.957	0.0174177
863.035	0.0175471
863.113	0.0175518
863.192	0.0175418
863.270	0.0175876
863.348	0.0175900
863.426	0.0175356
863.504	0.0176006
863.582	0.0176244
863.660	0.0177815
863.738	0.0176342
863.817	0.0176818
863.895	0.0177399
863.973	0.0177909
864.051	0.0178127
864.129	0.0179092
864.207	0.0176645
864.285	0.0178145
864.363	0.0177803
864.442	0.0176476
864.520	0.0178606
864.598	0.0175469
864.676	0.0175835
864.754	0.0175870
864.832	0.0176480
864.910	0.0175813
864.988	0.0175549
865.067	0.0174562
865.145	0.0175649
865.223	0.0174727
865.301	0.0173690
865.379	0.0174995
865.457	0.0173960
865.535	0.0173315
865.613	0.0172929
865.692	0.0174171
865.770	0.0173748
865.848	0.0173281
865.926	0.0173739
866.004	0.0174069
866.082	0.0175871
866.160	0.0174670
866.238	0.0174224
866.317	0.0174946
866.395	0.0175286
866.473	0.0174000
866.551	0.0175325
866.629	0.0176601
866.707	0.0176861
866.785	0.0175169
866.863	0.0176574
866.942	0.0175301
867.020	0.0176392
867.098	0.0175247
867.176	0.0173785
867.254	0.0176242
867.332	0.0175021
867.410	0.0175849
867.488	0.0175679
867.567	0.0175489
867.645	0.0175228
867.723	0.0175588
867.801	0.0177097
867.879	0.0175739
867.957	0.0176262
868.035	0.0177203
868.113	0.0177659
868.192	0.0175869
868.270	0.0176463
868.348	0.0176862
868.426	0.0178167
868.504	0.0177783
868.582	0.0177519
868.660	0.0177558
868.738	0.0176962
868.817	0.0178847
868.895	0.0177114
868.973	0.0178564
869.051	0.0178874
869.129	0.0177349
869.207	0.0175866
869.285	0.0177218
869.363	0.0177994
869.442	0.0177129
869.520	0.0177374
869.598	0.0177338
869.676	0.0177055
869.754	0.0176794
869.832	0.0174885
869.910	0.0177177
869.988	0.0176305
870.067	0.0176493
870.145	0.0175670
870.223	0.0175529
870.301	0.0177136
870.379	0.0175977
870.457	0.0175751
870.535	0.0176602
870.613	0.0177456
870.692	0.0177182
870.770	0.0177472
870.848	0.0176835
870.926	0.0175719
871.004	0.0178361
871.082	0.0177207
871.160	0.0177173
871.238	0.0176572
871.317	0.0178529
871.395	0.0176707
871.473	0.0177312
871.551	0.0175573
871.629	0.0175648
871.707	0.0175181
871.785	0.0175135
871.863	0.0173563
871.942	0.0173256
872.020	0.0172993
872.098	0.0174386
872.176	0.0173028
872.254	0.0172383
872.332	0.0170704
872.410	0.0170180
872.488	0.0171552
872.567	0.0171542
872.645	0.0170014
872.723	0.0171828
872.801	0.0172504
872.879	0.0171107
872.957	0.0172874
873.035	0.0172691
873.113	0.0171938
873.192	0.0173473
873.270	0.0174541
873.348	0.0174653
873.426	0.0175729
873.504	0.0175407
873.582	0.0176826
873.660	0.0176266
873.738	0.0178320
873.817	0.0176888
873.895	0.0176298
873.973	0.0178661
874.051	0.0179495
874.129	0.0177890
874.207	0.0178395
874.285	0.0178720
874.363	0.0178459
874.442	0.0178792
874.520	0.0179225
874.598	0.0179447
874.676	0.0177474
874.754	0.0179216
874.832	0.0179950
874.910	0.0179086
874.988	0.0179520
875.067	0.0181718
875.145	0.0179559
875.223	0.0178489
875.301	0.0177991
875.379	0.0177727
875.457	0.0177692
875.535	0.0178052
875.613	0.0176892
875.692	0.0177041
875.770	0.0176668
875.848	0.0175311
875.926	0.0176027
876.004	0.0174406
876.082	0.0174531
876.160	0.0173706
876.238	0.0173621
876.317	0.0173396
876.395	0.0174164
876.473	0.0172543
876.551	0.0174646
876.629	0.0173904
876.707	0.0174176
876.785	0.0174146
876.863	0.0174956
876.942	0.0175371
877.020	0.0175392
877.098	0.0174551
877.176	0.0174328
877.254	0.0175307
877.332	0.0175830
877.410	0.0175590
877.488	0.0177402
877.567	0.0176724
877.645	0.0175983
877.723	0.0177109
877.801	0.0175228
877.879	0.0177430
877.957	0.0176577
878.035	0.0176555
878.113	0.0177068
878.192	0.0177654
878.270	0.0178138
878.348	0.0178447
878.426	0.0177924
878.504	0.0178745
878.582	0.0177814
878.660	0.0180485
878.738	0.0178324
878.817	0.0177930
878.895	0.0179358
878.973	0.0180574
879.051	0.0177995
879.129	0.0178312
879.207	0.0178364
879.285	0.0178027
879.363	0.0176913
879.442	0.0176918
879.520	0.0176562
879.598	0.0176594
879.676	0.0177387
879.754	0.0175634
879.832	0.0175742
879.910	0.0174708
879.988	0.0174311
880.067	0.0173424
880.145	0.0172263
880.223	0.0171916
880.301	0.0173190
880.379	0.0172259
880.457	0.0171306
880.535	0.0171529
880.613	0.0171798
880.692	0.0172112
880.770	0.0172242
880.848	0.0172645
880.926	0.0173193
881.004	0.0173358
881.082	0.0174532
881.160	0.0175103
881.238	0.0176007
881.317	0.0174778
881.395	0.0177140
881.473	0.0178129
881.551	0.0177025
881.629	0.0177925
881.707	0.0178142
881.785	0.0178706
881.863	0.0178589
881.942	0.0180167
882.020	0.0179464
882.098	0.0177572
882.176	0.0180031
882.254	0.0178529
882.332	0.0176991
882.410	0.0177399
882.488	0.0178107
882.567	0.0176783
882.645	0.0174456
882.723	0.0174725
882.801	0.0173598
882.879	0.0175596
882.957	0.0174542
883.035	0.0174655
883.113	0.0174789
883.192	0.0175620
883.270	0.0174793
883.348	0.0176463
883.426	0.0177944
883.504	0.0178745
883.582	0.0180064
883.660	0.0180056
883.738	0.0180423
883.817	0.0181282
883.895	0.0180477
883.973	0.0182724
884.051	0.0183946
884.129	0.0183657
884.207	0.0182716
884.285	0.0182230
884.363	0.0182512
884.442	0.0181904
884.520	0.0180779
884.598	0.0179285
884.676	0.0178434
884.754	0.0176526
884.832	0.0174780
884.910	0.0173546
884.988	0.0172009
885.067	0.0168690
885.145	0.0167021
885.223	0.0167125
885.301	0.0166068
885.379	0.0163982
885.457	0.0163605
885.535	0.0162808
885.613	0.0162954
885.692	0.0162868
885.770	0.0163243
885.848	0.0163615
885.926	0.0163238
886.004	0.0164758
886.082	0.0166331
886.160	0.0167914
886.238	0.0168531
886.317	0.0172776
886.395	0.0175132
886.473	0.0178240
886.551	0.0181598
886.629	0.0182907
886.707	0.0185564
886.785	0.0188945
886.863	0.0192290
886.942	0.0194243
887.020	0.0195969
887.098	0.0195517
887.176	0.0197675
887.254	0.0198063
887.332	0.0196128
887.410	0.0194777
887.488	0.0192398
887.567	0.0191013
887.645	0.0188023
887.723	0.0184733
887.801	0.0182256
887.879	0.0179584
887.957	0.0175439
888.035	0.0171983
888.113	0.0168349
888.192	0.0165128
888.270	0.0161423
888.348	0.0157296
888.426	0.0155816
888.504	0.0152918
888.582	0.0151910
888.660	0.0150557
888.738	0.0149696
888.817	0.0149684
888.895	0.0150246
888.973	0.0152043
889.051	0.0154079
889.129	0.0156111
889.207	0.0158984
889.285	0.0162193
889.363	0.0167016
889.442	0.0171188
889.520	0.0176202
889.598	0.0179550
889.676	0.0180499
889.754	0.0185496
889.832	0.0188361
889.910	0.0192180
889.988	0.0194836
890.067	0.0197380
890.145	0.0200035
890.223	0.0201353
890.301	0.0201368
890.379	0.0201514
890.457	0.0201487
890.535	0.0198618
890.613	0.0198664
890.692	0.0196497
890.770	0.0195195
890.848	0.0190796
890.926	0.0187128
891.004	0.0183213
891.082	0.0181084
891.160	0.0176812
891.238	0.0172864
891.317	0.0169546
891.395	0.0165884
891.473	0.0163376
891.551	0.0160347
891.629	0.0159474
891.707	0.0156582
891.785	0.0156701
891.863	0.0155843
891.942	0.0154797
892.020	0.0156209
892.098	0.0155984
892.176	0.0157957
892.254	0.0159396
892.332	0.0160468
892.410	0.0162628
892.488	0.0164296
892.567	0.0167654
892.645	0.0171171
892.723	0.0171603
892.801	0.0174284
892.879	0.0175089
892.957	0.0176675
893.035	0.0178444
893.113	0.0180715
893.192	0.0182786
893.270	0.0182647
893.348	0.0184641
893.426	0.0184623
893.504	0.0187206
893.582	0.0186266
893.660	0.0187091
893.738	0.0186878
893.817	0.0188976
893.895	0.0187553
893.973	0.0186393
894.051	0.0185989
894.129	0.0184583
894.207	0.0183878
894.285	0.0180145
894.363	0.0179459
894.442	0.0179582
894.520	0.0176381
894.598	0.0175666
894.676	0.0174263
894.754	0.0172818
894.832	0.0173038
894.910	0.0171547
894.988	0.0170776
895.067	0.0171315
895.145	0.0173329
895.223	0.0173667
895.301	0.0173536
895.379	0.0174973
895.457	0.0174298
895.535	0.0174857
895.613	0.0175359
895.692	0.0175172
895.770	0.0172869
895.848	0.0174134
895.926	0.0174980
896.004	0.0172531
896.082	0.0172303
896.160	0.0173669
896.238	0.0173916
896.317	0.0173919
896.395	0.0173650
896.473	0.0174837
896.551	0.0174520
896.629	0.0175283
896.707	0.0174144
896.785	0.0176839
896.863	0.0178185
896.942	0.0178738
897.020	0.0178376
897.098	0.0177960
897.176	0.0181564
897.254	0.0180505
897.332	0.0178119
897.410	0.0180048
897.488	0.0178653
897.567	0.0179761
897.645	0.0179626
897.723	0.0177449
897.801	0.0176395
897.879	0.0176999
897.957	0.0176287
898.035	0.0174946
898.113	0.0174738
898.192	0.0175331
898.270	0.0174454
898.348	0.0174004
898.426	0.0175005
898.504	0.0172353
898.582	0.0172266
898.660	0.0172757
898.738	0.0173597
898.817	0.0173156
898.895	0.0173874
898.973	0.0172783
899.051	0.0172577
899.129	0.0172823
899.207	0.0173965
899.285	0.0175503
899.363	0.0175322
899.442	0.0175903
899.520	0.0175797
899.598	0.0178036
899.676	0.0178726
899.754	0.0179610
899.832	0.0178178
899.910	0.0178885
899.988	0.0178712
900.067	0.0178590
900.145	0.0179935
900.223	0.0179905
900.301	0.0177236
900.379	0.0176925
900.457	0.0178491
900.535	0.0177680
900.613	0.0176637
900.692	0.0176468
900.770	0.0176051
900.848	0.0174672
900.926	0.0176482
901.004	0.0175795
901.082	0.0175137
901.160	0.0176259
901.238	0.0175821
901.317	0.0176685
901.395	0.0175993
901.473	0.0177431
901.551	0.0178165
901.629	0.0176546
901.707	0.0177284
901.785	0.0176829
901.863	0.0177635
901.942	0.0175474
902.020	0.0175641
902.098	0.0176155
902.176	0.0176974
902.254	0.0173919
902.332	0.0175105
902.410	0.0174235
902.488	0.0174804
902.567	0.0174990
902.645	0.0174257
902.723	0.0175333
902.801	0.0175893
902.879	0.0176300
902.957	0.0176826
903.035	0.0178208
903.113	0.0179182
903.192	0.0178771
903.270	0.0179863
903.348	0.0179353
903.426	0.0179566
903.504	0.0178925
903.582	0.0177678
903.660	0.0178456
903.738	0.0177839
903.817	0.0177081
903.895	0.0175401
903.973	0.0174924
904.051	0.0173824
904.129	0.0173249
904.207	0.0173119
904.285	0.0172301
904.363	0.0170090
904.442	0.0170571
904.520	0.0170544
904.598	0.0171654
904.676	0.0172592
904.754	0.0172228
904.832	0.0172187
904.910	0.0172743
904.988	0.0174271
905.067	0.0175285
905.145	0.0173877
905.223	0.0174792
905.301	0.0175307
905.379	0.0175943
905.457	0.0176463
905.535	0.0177279
905.613	0.0175853
905.692	0.0176131
905.770	0.0178895
905.848	0.0177107
905.926	0.0178270
906.004	0.0180947
906.082	0.0178804
906.160	0.0179156
906.238	0.0181411
906.317	0.0180149
906.395	0.0181078
906.473	0.0180757
906.551	0.0178710
906.629	0.0180410
906.707	0.0180589
906.785	0.0179286
906.863	0.0179327
906.942	0.0178602
907.020	0.0178146
907.098	0.0178170
907.176	0.0178421
907.254	0.0176701
907.332	0.0175395
907.410	0.0174832
907.488	0.0174818
907.567	0.0173990
907.645	0.0173661
907.723	0.0173277
907.801	0.0172581
907.879	0.0173197
907.957	0.0174005
908.035	0.0170914
908.113	0.0172930
908.192	0.0174838
908.270	0.0174707
908.348	0.0174576
908.426	0.0174216
908.504	0.0175783
908.582	0.0176213
908.660	0.0175507
908.738	0.0176923
908.817	0.0175400
908.895	0.0177506
908.973	0.0176318
909.051	0.0176474
909.129	0.0177164
909.207	0.0175557
909.285	0.0175875
909.363	0.0177198
909.442	0.0176059
909.520	0.0176110
909.598	0.0176368
909.676	0.0175456
909.754	0.0175897
909.832	0.0176585
909.910	0.0176768
909.988	0.0176492
910.067	0.0176297
910.145	0.0178304
910.223	0.0180463
910.301	0.0178574
910.379	0.0179144
910.457	0.0179389
910.535	0.0177792
910.613	0.0178609
910.692	0.0177524
910.770	0.0179969
910.848	0.0179890
910.926	0.0177508
911.004	0.0177182
911.082	0.0177826
911.160	0.0178069
911.238	0.0175945
911.317	0.0176791
911.395	0.0175831
911.473	0.0174835
911.551	0.0173812
911.629	0.0175703
911.707	0.0175060
911.785	0.0174065
911.863	0.0172526
911.942	0.0174215
912.020	0.0174430
912.098	0.0174143
912.176	0.0173119
912.254	0.0174147
912.332	0.0174039
912.410	0.0173526
912.488	0.0173153
912.567	0.0172253
912.645	0.0172643
912.723	0.0174056
912.801	0.0175503
912.879	0.0174183
912.957	0.0174589
913.035	0.0175035
913.113	0.0176423
913.192	0.0174831
913.270	0.0175208
913.348	0.0175713
913.426	0.0176608
913.504	0.0177290
913.582	0.0176875
913.660	0.0177850
913.738	0.0177637
913.817	0.0176901
913.895	0.0176353
913.973	0.0177091
914.051	0.0177037
914.129	0.0177975
914.207	0.0177667
914.285	0.0175557
914.363	0.0177885
914.442	0.0178403
914.520	0.0177493
914.598	0.0177272
914.676	0.0176736
914.754	0.0176196
914.832	0.0176776
914.910	0.0178725
914.988	0.0178629
915.067	0.0178877
915.145	0.0178704
915.223	0.0177551
915.301	0.0176171
915.379	0.0178208
915.457	0.0177492
915.535	0.0178549
915.613	0.0177629
915.692	0.0178101
915.770	0.0177585
915.848	0.0176807
915.926	0.0175917
916.004	0.0176101
916.082	0.0175179
916.160	0.0175716
916.238	0.0176703
916.317	0.0174627
916.395	0.0175713
916.473	0.0175869
916.551	0.0177249
916.629	0.0175884
916.707	0.0177242
916.785	0.0175751
916.863	0.0174373
916.942	0.0174601
917.020	0.0174103
917.098	0.0173227
917.176	0.0172986
917.254	0.0172450
917.332	0.0173055
917.410	0.0173495
917.488	0.0172774
917.567	0.0171953
917.645	0.0171803
917.723	0.0172570
917.801	0.0172947
917.879	0.0171989
917.957	0.0173122
918.035	0.0173840
918.113	0.0174499
918.192	0.0174889
918.270	0.0174615
918.348	0.0176063
918.426	0.0175737
918.504	0.0176668
918.582	0.0176517
918.660	0.0177117
918.738	0.0177420
918.817	0.0176652
918.895	0.0178136
918.973	0.0180263
919.051	0.0179726
919.129	0.0180371
919.207	0.0179329
919.285	0.0179342
919.363	0.0180688
919.442	0.0181629
919.520	0.0180579
919.598	0.0181539
919.676	0.0180293
919.754	0.0180233
919.832	0.0180656
919.910	0.0180297
