06/01/2022	21:37:27	Ver.	4.1	UNKNOWN
Optical Delay	599.988409	Delta X		0.078125	Sweeps	1	Scan Rate	0/0
Coordinates	Axis 1	NaN	Axis 2	NaN	Axis 3	NaN	Axis 4	NaN	Axis 5	NaN	Axis 6	0.000000
TX Power	0.000000	RX Power	0.000000

599.988	0.0177239
600.067	0.0177805
600.145	0.0177525
600.223	0.0177312
600.301	0.0177252
600.379	0.0177857
600.457	0.0177532
600.535	0.0176696
600.613	0.0177937
600.692	0.0175460
600.770	0.0175915
600.848	0.0176010
600.926	0.0176719
601.004	0.0177526
601.082	0.0177534
601.160	0.0177835
601.238	0.0177993
601.317	0.0177338
601.395	0.0177261
601.473	0.0176927
601.551	0.0176727
601.629	0.0177576
601.707	0.0178379
601.785	0.0177855
601.863	0.0177116
601.942	0.0177203
602.020	0.0176150
602.098	0.0176347
602.176	0.0177483
602.254	0.0177477
602.332	0.0176570
602.410	0.0176694
602.488	0.0178722
602.567	0.0178075
602.645	0.0176404
602.723	0.0176945
602.801	0.0176319
602.879	0.0177515
602.957	0.0177031
603.035	0.0175848
603.113	0.0176477
603.192	0.0176500
603.270	0.0176794
603.348	0.0176305
603.426	0.0176604
603.504	0.0177291
603.582	0.0176762
603.660	0.0177500
603.738	0.0177483
603.817	0.0175327
603.895	0.0177653
603.973	0.0177009
604.051	0.0176782
604.129	0.0175768
604.207	0.0176543
604.285	0.0177493
604.363	0.0177323
604.442	0.0177079
604.520	0.0176646
604.598	0.0177386
604.676	0.0177081
604.754	0.0177232
604.832	0.0177001
604.910	0.0176962
604.988	0.0177132
605.067	0.0177964
605.145	0.0178293
605.223	0.0175182
605.301	0.0176331
605.379	0.0177540
605.457	0.0176541
605.535	0.0176694
605.613	0.0176260
605.692	0.0177651
605.770	0.0178774
605.848	0.0177219
605.926	0.0177221
606.004	0.0177357
606.082	0.0176591
606.160	0.0176704
606.238	0.0177876
606.317	0.0179055
606.395	0.0177515
606.473	0.0176433
606.551	0.0177314
606.629	0.0176321
606.707	0.0175825
606.785	0.0176462
606.863	0.0175535
606.942	0.0176780
607.020	0.0177212
607.098	0.0177832
607.176	0.0176559
607.254	0.0176241
607.332	0.0177895
607.410	0.0178085
607.488	0.0177038
607.567	0.0177615
607.645	0.0179332
607.723	0.0177443
607.801	0.0177122
607.879	0.0177803
607.957	0.0176388
608.035	0.0177602
608.113	0.0177383
608.192	0.0175837
608.270	0.0176971
608.348	0.0176760
608.426	0.0178696
608.504	0.0175290
608.582	0.0178307
608.660	0.0176948
608.738	0.0176576
608.817	0.0177408
608.895	0.0177105
608.973	0.0177938
609.051	0.0178313
609.129	0.0176228
609.207	0.0177605
609.285	0.0177236
609.363	0.0177620
609.442	0.0176850
609.520	0.0176028
609.598	0.0177800
609.676	0.0178236
609.754	0.0177447
609.832	0.0177876
609.910	0.0176565
609.988	0.0175981
610.067	0.0177198
610.145	0.0176890
610.223	0.0177098
610.301	0.0177213
610.379	0.0177650
610.457	0.0176313
610.535	0.0178137
610.613	0.0177015
610.692	0.0177399
610.770	0.0177013
610.848	0.0176772
610.926	0.0177135
611.004	0.0177362
611.082	0.0176717
611.160	0.0176665
611.238	0.0177023
611.317	0.0176016
611.395	0.0176366
611.473	0.0176923
611.551	0.0176968
611.629	0.0177539
611.707	0.0177348
611.785	0.0176228
611.863	0.0176586
611.942	0.0178168
612.020	0.0177763
612.098	0.0177237
612.176	0.0176932
612.254	0.0177329
612.332	0.0177098
612.410	0.0176328
612.488	0.0178163
612.567	0.0176655
612.645	0.0176936
612.723	0.0177898
612.801	0.0178951
612.879	0.0177965
612.957	0.0176688
613.035	0.0176186
613.113	0.0178123
613.192	0.0177660
613.270	0.0177730
613.348	0.0177106
613.426	0.0177254
613.504	0.0176171
613.582	0.0176768
613.660	0.0177488
613.738	0.0177470
613.817	0.0177312
613.895	0.0177911
613.973	0.0176397
614.051	0.0176559
614.129	0.0177059
614.207	0.0175964
614.285	0.0175559
614.363	0.0176691
614.442	0.0175883
614.520	0.0176853
614.598	0.0176923
614.676	0.0175505
614.754	0.0176463
614.832	0.0175861
614.910	0.0176003
614.988	0.0176154
615.067	0.0175393
615.145	0.0176392
615.223	0.0177509
615.301	0.0176920
615.379	0.0176902
615.457	0.0176839
615.535	0.0177188
615.613	0.0175754
615.692	0.0177825
615.770	0.0177733
615.848	0.0177022
615.926	0.0178334
616.004	0.0177671
616.082	0.0178126
616.160	0.0177978
616.238	0.0177918
616.317	0.0178117
616.395	0.0177332
616.473	0.0177451
616.551	0.0178300
616.629	0.0178430
616.707	0.0177788
616.785	0.0177486
616.863	0.0178027
616.942	0.0177309
617.020	0.0177843
617.098	0.0176920
617.176	0.0176347
617.254	0.0176563
617.332	0.0176651
617.410	0.0176149
617.488	0.0175067
617.567	0.0175917
617.645	0.0177139
617.723	0.0175163
617.801	0.0175240
617.879	0.0175883
617.957	0.0175269
618.035	0.0175116
618.113	0.0175665
618.192	0.0176358
618.270	0.0175939
618.348	0.0173880
618.426	0.0175739
618.504	0.0176081
618.582	0.0176330
618.660	0.0176490
618.738	0.0176682
618.817	0.0176889
618.895	0.0177949
618.973	0.0178272
619.051	0.0179021
619.129	0.0177551
619.207	0.0177303
619.285	0.0177999
619.363	0.0177194
619.442	0.0179049
619.520	0.0178572
619.598	0.0178250
619.676	0.0178042
619.754	0.0178640
619.832	0.0177546
619.910	0.0178640
619.988	0.0179111
620.067	0.0178797
620.145	0.0178454
620.223	0.0177428
620.301	0.0175970
620.379	0.0177700
620.457	0.0177676
620.535	0.0177682
620.613	0.0177179
620.692	0.0176138
620.770	0.0178215
620.848	0.0175941
620.926	0.0173981
621.004	0.0176597
621.082	0.0176592
621.160	0.0176686
621.238	0.0176278
621.317	0.0176804
621.395	0.0175582
621.473	0.0177251
621.551	0.0176619
621.629	0.0176385
621.707	0.0177213
621.785	0.0176154
621.863	0.0175732
621.942	0.0176629
622.020	0.0177492
622.098	0.0177181
622.176	0.0177496
622.254	0.0178117
622.332	0.0177805
622.410	0.0177453
622.488	0.0177699
622.567	0.0177879
622.645	0.0177678
622.723	0.0177081
622.801	0.0179099
622.879	0.0178848
622.957	0.0178748
623.035	0.0177728
623.113	0.0178250
623.192	0.0179702
623.270	0.0177949
623.348	0.0179300
623.426	0.0176563
623.504	0.0175815
623.582	0.0178365
623.660	0.0177311
623.738	0.0177294
623.817	0.0177625
623.895	0.0176984
623.973	0.0177123
624.051	0.0177308
624.129	0.0176167
624.207	0.0176776
624.285	0.0177613
624.363	0.0175889
624.442	0.0176754
624.520	0.0177927
624.598	0.0176540
624.676	0.0176954
624.754	0.0175414
624.832	0.0175707
624.910	0.0177213
624.988	0.0177290
625.067	0.0175536
625.145	0.0175665
625.223	0.0177014
625.301	0.0176194
625.379	0.0175397
625.457	0.0177204
625.535	0.0176764
625.613	0.0177229
625.692	0.0177851
625.770	0.0177047
625.848	0.0176958
625.926	0.0177607
626.004	0.0178605
626.082	0.0176767
626.160	0.0176759
626.238	0.0177899
626.317	0.0177686
626.395	0.0177280
626.473	0.0177729
626.551	0.0176579
626.629	0.0176892
626.707	0.0177831
626.785	0.0178018
626.863	0.0178101
626.942	0.0176478
627.020	0.0177447
627.098	0.0177268
627.176	0.0176945
627.254	0.0177728
627.332	0.0176965
627.410	0.0176537
627.488	0.0177354
627.567	0.0177354
627.645	0.0176580
627.723	0.0178235
627.801	0.0176624
627.879	0.0175266
627.957	0.0176251
628.035	0.0177036
628.113	0.0176267
628.192	0.0176491
628.270	0.0177071
628.348	0.0177814
628.426	0.0177264
628.504	0.0177126
628.582	0.0175954
628.660	0.0177641
628.738	0.0177898
628.817	0.0177650
628.895	0.0179725
628.973	0.0175976
629.051	0.0177209
629.129	0.0176801
629.207	0.0178028
629.285	0.0175951
629.363	0.0177897
629.442	0.0178046
629.520	0.0176865
629.598	0.0177734
629.676	0.0177720
629.754	0.0176911
629.832	0.0177601
629.910	0.0178078
629.988	0.0177678
630.067	0.0177022
630.145	0.0177354
630.223	0.0177803
630.301	0.0177396
630.379	0.0176734
630.457	0.0177128
630.535	0.0177041
630.613	0.0176341
630.692	0.0176154
630.770	0.0176392
630.848	0.0176984
630.926	0.0175725
631.004	0.0176599
631.082	0.0176104
631.160	0.0176478
631.238	0.0176859
631.317	0.0177234
631.395	0.0177742
631.473	0.0176952
631.551	0.0176295
631.629	0.0177542
631.707	0.0176555
631.785	0.0176383
631.863	0.0177082
631.942	0.0176777
632.020	0.0177113
632.098	0.0176707
632.176	0.0177238
632.254	0.0178219
632.332	0.0176630
632.410	0.0176605
632.488	0.0178298
632.567	0.0176221
632.645	0.0176776
632.723	0.0178635
632.801	0.0177251
632.879	0.0177013
632.957	0.0177991
633.035	0.0177252
633.113	0.0175690
633.192	0.0177403
633.270	0.0178489
633.348	0.0176517
633.426	0.0178111
633.504	0.0179720
633.582	0.0176140
633.660	0.0176505
633.738	0.0177787
633.817	0.0176349
633.895	0.0177510
633.973	0.0176615
634.051	0.0178004
634.129	0.0176579
634.207	0.0177534
634.285	0.0176775
634.363	0.0177985
634.442	0.0176079
634.520	0.0175755
634.598	0.0177643
634.676	0.0175655
634.754	0.0176937
634.832	0.0176125
634.910	0.0177328
634.988	0.0177172
635.067	0.0176366
635.145	0.0175463
635.223	0.0176257
635.301	0.0176644
635.379	0.0176649
635.457	0.0177220
635.535	0.0176830
635.613	0.0177388
635.692	0.0177182
635.770	0.0177164
635.848	0.0176968
635.926	0.0177197
636.004	0.0176927
636.082	0.0176921
636.160	0.0176544
636.238	0.0176846
636.317	0.0177864
636.395	0.0177727
636.473	0.0176748
636.551	0.0177293
636.629	0.0176805
636.707	0.0176355
636.785	0.0177338
636.863	0.0178552
636.942	0.0177453
637.020	0.0176058
637.098	0.0177534
637.176	0.0177523
637.254	0.0177017
637.332	0.0176939
637.410	0.0177269
637.488	0.0178519
637.567	0.0177559
637.645	0.0176601
637.723	0.0177200
637.801	0.0176425
637.879	0.0177373
637.957	0.0177693
638.035	0.0176574
638.113	0.0176742
638.192	0.0178383
638.270	0.0178327
638.348	0.0176545
638.426	0.0176873
638.504	0.0176529
638.582	0.0176597
638.660	0.0178008
638.738	0.0176842
638.817	0.0176936
638.895	0.0177740
638.973	0.0176802
639.051	0.0176646
639.129	0.0176848
639.207	0.0176708
639.285	0.0178092
639.363	0.0176656
639.442	0.0177888
639.520	0.0178157
639.598	0.0178127
639.676	0.0176470
639.754	0.0176663
639.832	0.0177089
639.910	0.0177007
639.988	0.0177235
640.067	0.0177085
640.145	0.0177926
640.223	0.0178043
640.301	0.0177357
640.379	0.0176339
640.457	0.0175623
640.535	0.0177212
640.613	0.0178629
640.692	0.0176601
640.770	0.0177272
640.848	0.0176200
640.926	0.0178202
641.004	0.0177377
641.082	0.0176656
641.160	0.0177717
641.238	0.0175970
641.317	0.0177045
641.395	0.0178142
641.473	0.0177645
641.551	0.0177493
641.629	0.0177273
641.707	0.0177262
641.785	0.0177038
641.863	0.0177489
641.942	0.0176125
642.020	0.0178648
642.098	0.0177289
642.176	0.0176488
642.254	0.0177016
642.332	0.0177969
642.410	0.0176949
642.488	0.0176967
642.567	0.0176951
642.645	0.0178796
642.723	0.0177235
642.801	0.0176607
642.879	0.0177514
642.957	0.0176620
643.035	0.0176791
643.113	0.0176607
643.192	0.0177101
643.270	0.0177469
643.348	0.0177495
643.426	0.0177533
643.504	0.0177334
643.582	0.0176656
643.660	0.0176399
643.738	0.0177798
643.817	0.0177917
643.895	0.0178152
643.973	0.0177300
644.051	0.0175375
644.129	0.0177585
644.207	0.0177806
644.285	0.0178674
644.363	0.0177051
644.442	0.0176984
644.520	0.0176895
644.598	0.0176549
644.676	0.0177081
644.754	0.0177223
644.832	0.0177998
644.910	0.0176846
644.988	0.0176490
645.067	0.0176903
645.145	0.0177011
645.223	0.0178297
645.301	0.0178088
645.379	0.0176797
645.457	0.0177013
645.535	0.0177065
645.613	0.0176203
645.692	0.0175757
645.770	0.0176060
645.848	0.0175229
645.926	0.0176455
646.004	0.0176853
646.082	0.0176699
646.160	0.0176782
646.238	0.0177157
646.317	0.0176608
646.395	0.0176738
646.473	0.0178266
646.551	0.0176923
646.629	0.0175966
646.707	0.0176690
646.785	0.0177357
646.863	0.0176730
646.942	0.0177281
647.020	0.0177233
647.098	0.0176958
647.176	0.0177201
647.254	0.0176393
647.332	0.0176473
647.410	0.0175784
647.488	0.0177415
647.567	0.0176849
647.645	0.0176013
647.723	0.0176299
647.801	0.0176745
647.879	0.0176588
647.957	0.0177175
648.035	0.0177660
648.113	0.0177127
648.192	0.0176905
648.270	0.0176723
648.348	0.0177701
648.426	0.0177641
648.504	0.0176453
648.582	0.0176878
648.660	0.0177318
648.738	0.0176704
648.817	0.0176347
648.895	0.0176602
648.973	0.0177540
649.051	0.0178548
649.129	0.0177099
649.207	0.0176440
649.285	0.0177283
649.363	0.0178250
649.442	0.0177171
649.520	0.0178236
649.598	0.0177753
649.676	0.0176510
649.754	0.0177304
649.832	0.0176917
649.910	0.0176907
649.988	0.0178130
650.067	0.0177210
650.145	0.0176736
650.223	0.0176732
650.301	0.0177868
650.379	0.0178887
650.457	0.0176466
650.535	0.0176025
650.613	0.0175858
650.692	0.0176558
650.770	0.0177379
650.848	0.0176448
650.926	0.0176231
651.004	0.0177096
651.082	0.0176659
651.160	0.0177701
651.238	0.0177040
651.317	0.0177531
651.395	0.0176866
651.473	0.0176167
651.551	0.0177661
651.629	0.0177385
651.707	0.0178173
651.785	0.0177190
651.863	0.0176554
651.942	0.0177563
652.020	0.0178756
652.098	0.0176493
652.176	0.0176638
652.254	0.0176273
652.332	0.0177600
652.410	0.0177372
652.488	0.0176991
652.567	0.0177392
652.645	0.0176109
652.723	0.0177411
652.801	0.0177984
652.879	0.0176999
652.957	0.0178056
653.035	0.0177571
653.113	0.0177251
653.192	0.0178430
653.270	0.0178401
653.348	0.0177033
653.426	0.0176555
653.504	0.0176519
653.582	0.0178109
653.660	0.0178137
653.738	0.0177235
653.817	0.0176477
653.895	0.0176977
653.973	0.0177290
654.051	0.0176891
654.129	0.0177386
654.207	0.0177338
654.285	0.0176596
654.363	0.0176943
654.442	0.0176340
654.520	0.0177068
654.598	0.0177386
654.676	0.0175980
654.754	0.0176952
654.832	0.0178140
654.910	0.0177100
654.988	0.0178571
655.067	0.0176767
655.145	0.0176390
655.223	0.0176090
655.301	0.0175790
655.379	0.0177578
655.457	0.0177189
655.535	0.0176888
655.613	0.0176406
655.692	0.0178268
655.770	0.0176643
655.848	0.0176333
655.926	0.0176205
656.004	0.0176504
656.082	0.0177006
656.160	0.0177664
656.238	0.0177492
656.317	0.0176164
656.395	0.0176314
656.473	0.0177706
656.551	0.0176534
656.629	0.0178046
656.707	0.0175670
656.785	0.0175703
656.863	0.0176232
656.942	0.0175697
657.020	0.0177376
657.098	0.0178098
657.176	0.0176309
657.254	0.0178335
657.332	0.0176660
657.410	0.0176593
657.488	0.0176913
657.567	0.0177509
657.645	0.0178350
657.723	0.0176595
657.801	0.0176595
657.879	0.0177761
657.957	0.0177623
658.035	0.0176625
658.113	0.0177953
658.192	0.0177363
658.270	0.0177257
658.348	0.0177625
658.426	0.0177006
658.504	0.0175465
658.582	0.0176389
658.660	0.0177708
658.738	0.0176314
658.817	0.0176284
658.895	0.0176985
658.973	0.0176745
659.051	0.0177414
659.129	0.0176955
659.207	0.0176196
659.285	0.0177423
659.363	0.0178361
659.442	0.0177522
659.520	0.0174457
659.598	0.0176321
659.676	0.0176315
659.754	0.0176783
659.832	0.0177451
659.910	0.0176811
659.988	0.0176042
660.067	0.0176218
660.145	0.0175051
660.223	0.0176917
660.301	0.0177780
660.379	0.0177567
660.457	0.0176198
660.535	0.0175977
660.613	0.0178203
660.692	0.0176457
660.770	0.0177475
660.848	0.0176291
660.926	0.0176865
661.004	0.0176976
661.082	0.0177374
661.160	0.0177613
661.238	0.0176855
661.317	0.0175943
661.395	0.0176357
661.473	0.0178616
661.551	0.0177444
661.629	0.0177634
661.707	0.0175731
661.785	0.0177229
661.863	0.0177962
661.942	0.0176371
662.020	0.0176470
662.098	0.0177720
662.176	0.0176570
662.254	0.0175904
662.332	0.0177839
662.410	0.0177715
662.488	0.0177676
662.567	0.0176163
662.645	0.0176866
662.723	0.0178133
662.801	0.0175967
662.879	0.0175676
662.957	0.0177146
663.035	0.0176259
663.113	0.0177970
663.192	0.0176853
663.270	0.0178038
663.348	0.0177295
663.426	0.0177908
663.504	0.0177734
663.582	0.0177654
663.660	0.0176776
663.738	0.0176276
663.817	0.0177381
663.895	0.0177573
663.973	0.0176811
664.051	0.0177607
664.129	0.0176936
664.207	0.0178727
664.285	0.0176514
664.363	0.0177370
664.442	0.0177586
664.520	0.0177699
664.598	0.0177299
664.676	0.0176756
664.754	0.0178703
664.832	0.0175899
664.910	0.0176861
664.988	0.0177561
665.067	0.0178238
665.145	0.0178114
665.223	0.0177459
665.301	0.0176906
665.379	0.0176598
665.457	0.0177155
665.535	0.0176878
665.613	0.0178323
665.692	0.0177408
665.770	0.0177866
665.848	0.0177003
665.926	0.0175972
666.004	0.0176517
666.082	0.0179144
666.160	0.0177158
666.238	0.0177084
666.317	0.0177119
666.395	0.0177329
666.473	0.0177685
666.551	0.0177782
666.629	0.0179092
666.707	0.0175759
666.785	0.0178131
666.863	0.0177287
666.942	0.0177068
667.020	0.0177769
667.098	0.0177162
667.176	0.0178432
667.254	0.0177409
667.332	0.0177893
667.410	0.0177233
667.488	0.0177821
667.567	0.0178648
667.645	0.0176241
667.723	0.0177216
667.801	0.0176809
667.879	0.0175623
667.957	0.0177415
668.035	0.0177050
668.113	0.0177795
668.192	0.0177678
668.270	0.0177316
668.348	0.0176436
668.426	0.0176139
668.504	0.0176826
668.582	0.0177188
668.660	0.0176465
668.738	0.0176829
668.817	0.0176597
668.895	0.0178281
668.973	0.0177187
669.051	0.0177729
669.129	0.0176429
669.207	0.0177892
669.285	0.0177020
669.363	0.0178036
669.442	0.0177489
669.520	0.0178120
669.598	0.0178388
669.676	0.0177238
669.754	0.0177074
669.832	0.0176584
669.910	0.0177153
669.988	0.0177952
670.067	0.0178303
670.145	0.0175961
670.223	0.0177704
670.301	0.0177339
670.379	0.0176513
670.457	0.0178221
670.535	0.0177700
670.613	0.0178285
670.692	0.0176196
670.770	0.0176933
670.848	0.0178059
670.926	0.0176418
671.004	0.0177296
671.082	0.0177047
671.160	0.0177209
671.238	0.0175541
671.317	0.0176175
671.395	0.0177748
671.473	0.0177343
671.551	0.0176809
671.629	0.0175797
671.707	0.0177279
671.785	0.0177820
671.863	0.0177810
671.942	0.0177779
672.020	0.0175373
672.098	0.0176883
672.176	0.0176442
672.254	0.0176133
672.332	0.0175957
672.410	0.0175941
672.488	0.0177642
672.567	0.0175979
672.645	0.0177231
672.723	0.0176336
672.801	0.0176152
672.879	0.0177196
672.957	0.0177953
673.035	0.0176930
673.113	0.0176038
673.192	0.0176450
673.270	0.0177650
673.348	0.0177882
673.426	0.0178269
673.504	0.0179146
673.582	0.0177515
673.660	0.0176559
673.738	0.0176273
673.817	0.0176354
673.895	0.0177362
673.973	0.0177283
674.051	0.0177220
674.129	0.0176991
674.207	0.0176240
674.285	0.0176711
674.363	0.0176294
674.442	0.0177668
674.520	0.0178417
674.598	0.0176012
674.676	0.0176236
674.754	0.0176170
674.832	0.0175999
674.910	0.0176635
674.988	0.0177627
675.067	0.0177518
675.145	0.0176125
675.223	0.0177588
675.301	0.0177223
675.379	0.0177385
675.457	0.0176435
675.535	0.0175848
675.613	0.0177565
675.692	0.0178085
675.770	0.0176849
675.848	0.0177577
675.926	0.0177990
676.004	0.0176617
676.082	0.0177066
676.160	0.0177763
676.238	0.0176833
676.317	0.0176962
676.395	0.0177027
676.473	0.0177569
676.551	0.0177834
676.629	0.0176604
676.707	0.0177869
676.785	0.0176707
676.863	0.0176907
676.942	0.0177931
677.020	0.0177819
677.098	0.0177888
677.176	0.0177248
677.254	0.0175908
677.332	0.0176633
677.410	0.0177170
677.488	0.0177856
677.567	0.0177010
677.645	0.0176755
677.723	0.0176346
677.801	0.0177478
677.879	0.0177938
677.957	0.0176428
678.035	0.0176297
678.113	0.0177486
678.192	0.0175727
678.270	0.0177405
678.348	0.0176806
678.426	0.0176348
678.504	0.0178160
678.582	0.0176334
678.660	0.0177624
678.738	0.0179190
678.817	0.0177151
678.895	0.0174591
678.973	0.0176843
679.051	0.0176376
679.129	0.0176084
679.207	0.0177504
679.285	0.0177850
679.363	0.0176019
679.442	0.0177419
679.520	0.0177659
679.598	0.0176946
679.676	0.0178661
679.754	0.0177564
679.832	0.0177917
679.910	0.0176954
679.988	0.0177890
680.067	0.0177813
680.145	0.0177312
680.223	0.0176434
680.301	0.0177866
680.379	0.0176556
680.457	0.0176633
680.535	0.0177213
680.613	0.0175712
680.692	0.0176974
680.770	0.0177222
680.848	0.0176536
680.926	0.0177247
681.004	0.0176907
681.082	0.0176549
681.160	0.0177894
681.238	0.0177077
681.317	0.0177081
681.395	0.0176845
681.473	0.0177141
681.551	0.0177040
681.629	0.0177059
681.707	0.0177042
681.785	0.0177203
681.863	0.0177205
681.942	0.0177525
682.020	0.0176606
682.098	0.0177238
682.176	0.0176193
682.254	0.0176240
682.332	0.0177000
682.410	0.0175327
682.488	0.0176646
682.567	0.0176725
682.645	0.0175192
682.723	0.0176003
682.801	0.0176372
682.879	0.0176855
682.957	0.0175613
683.035	0.0176067
683.113	0.0176469
683.192	0.0177879
683.270	0.0177259
683.348	0.0178204
683.426	0.0178815
683.504	0.0177035
683.582	0.0177840
683.660	0.0177927
683.738	0.0177883
683.817	0.0178299
683.895	0.0178123
683.973	0.0176496
684.051	0.0176772
684.129	0.0176860
684.207	0.0178688
684.285	0.0177950
684.363	0.0177597
684.442	0.0178861
684.520	0.0179784
684.598	0.0178687
684.676	0.0179274
684.754	0.0181282
684.832	0.0179712
684.910	0.0179059
684.988	0.0180193
685.067	0.0179759
685.145	0.0179266
685.223	0.0176632
685.301	0.0175926
685.379	0.0174477
685.457	0.0175109
685.535	0.0173756
685.613	0.0171988
685.692	0.0172581
685.770	0.0173148
685.848	0.0172575
685.926	0.0172122
686.004	0.0172367
686.082	0.0172833
686.160	0.0173439
686.238	0.0172989
686.317	0.0174929
686.395	0.0176137
686.473	0.0176274
686.551	0.0178925
686.629	0.0179769
686.707	0.0180630
686.785	0.0181290
686.863	0.0181612
686.942	0.0182876
687.020	0.0182291
687.098	0.0181773
687.176	0.0183006
687.254	0.0181674
687.332	0.0179360
687.410	0.0179517
687.488	0.0176105
687.567	0.0176051
687.645	0.0175494
687.723	0.0172529
687.801	0.0171282
687.879	0.0172289
687.957	0.0170747
688.035	0.0170039
688.113	0.0169934
688.192	0.0169447
688.270	0.0169392
688.348	0.0169915
688.426	0.0170149
688.504	0.0170783
688.582	0.0172621
688.660	0.0173966
688.738	0.0175382
688.817	0.0178986
688.895	0.0180562
688.973	0.0183737
689.051	0.0188303
689.129	0.0191003
689.207	0.0194518
689.285	0.0198003
689.363	0.0197993
689.442	0.0200507
689.520	0.0201112
689.598	0.0202818
689.676	0.0201920
689.754	0.0200137
689.832	0.0196593
689.910	0.0194159
689.988	0.0189006
690.067	0.0184695
690.145	0.0177071
690.223	0.0169072
690.301	0.0164081
690.379	0.0157240
690.457	0.0148958
690.535	0.0142455
690.613	0.0135028
690.692	0.0129253
690.770	0.0123962
690.848	0.0121567
690.926	0.0121127
691.004	0.0121326
691.082	0.0122440
691.160	0.0126317
691.238	0.0133467
691.317	0.0139662
691.395	0.0148376
691.473	0.0157114
691.551	0.0166148
691.629	0.0177277
691.707	0.0189271
691.785	0.0201316
691.863	0.0215053
691.942	0.0228590
692.020	0.0243092
692.098	0.0255674
692.176	0.0268144
692.254	0.0279279
692.332	0.0289787
692.410	0.0296835
692.488	0.0298785
692.567	0.0296741
692.645	0.0293215
692.723	0.0284177
692.801	0.0269422
692.879	0.0252114
692.957	0.0229157
693.035	0.0205141
693.113	0.0178851
693.192	0.0153104
693.270	0.0127583
693.348	0.0100561
693.426	0.00779427
693.504	0.00558838
693.582	0.00382088
693.660	0.00221230
693.738	0.00100151
693.817	0.0000828552
693.895	-0.000423965
693.973	-0.000527115
694.051	0.0000226593
694.129	0.000929718
694.207	0.00209450
694.285	0.00414284
694.363	0.00655510
694.442	0.00915657
694.520	0.0121667
694.598	0.0155018
694.676	0.0185259
694.754	0.0216457
694.832	0.0245930
694.910	0.0273810
694.988	0.0297861
695.067	0.0320601
695.145	0.0339996
695.223	0.0355389
695.301	0.0367966
695.379	0.0378443
695.457	0.0385574
695.535	0.0390044
695.613	0.0390486
695.692	0.0389229
695.770	0.0384402
695.848	0.0375681
695.926	0.0362728
696.004	0.0343820
696.082	0.0319023
696.160	0.0289785
696.238	0.0255653
696.317	0.0218681
696.395	0.0178188
696.473	0.0135384
696.551	0.00904549
696.629	0.00467453
696.707	0.000623550
696.785	-0.00311150
696.863	-0.00657196
696.942	-0.00930885
697.020	-0.0116109
697.098	-0.0131843
697.176	-0.0138789
697.254	-0.0137870
697.332	-0.0129190
697.410	-0.0113769
697.488	-0.00905365
697.567	-0.00608978
697.645	-0.00242958
697.723	0.00190208
697.801	0.00644859
697.879	0.0113660
697.957	0.0161777
698.035	0.0210666
698.113	0.0258139
698.192	0.0300919
698.270	0.0341248
698.348	0.0376542
698.426	0.0406983
698.504	0.0431548
698.582	0.0447684
698.660	0.0460897
698.738	0.0467955
698.817	0.0467371
698.895	0.0461895
698.973	0.0453452
699.051	0.0439015
699.129	0.0421086
699.207	0.0400173
699.285	0.0375708
699.363	0.0349221
699.442	0.0317374
699.520	0.0283982
699.598	0.0250660
699.676	0.0212872
699.754	0.0172362
699.832	0.0135401
699.910	0.00977692
699.988	0.00613342
700.067	0.00270950
700.145	-0.000312881
700.223	-0.00281273
700.301	-0.00505516
700.379	-0.00701454
700.457	-0.00815300
700.535	-0.00885811
700.613	-0.00920624
700.692	-0.00877495
700.770	-0.00773911
700.848	-0.00640862
700.926	-0.00456276
701.004	-0.00212616
701.082	0.000479050
701.160	0.00329903
701.238	0.00645271
701.317	0.00982979
701.395	0.0131315
701.473	0.0165835
701.551	0.0197433
701.629	0.0228631
701.707	0.0258282
701.785	0.0284332
701.863	0.0306733
701.942	0.0328198
702.020	0.0345331
702.098	0.0358685
702.176	0.0367838
702.254	0.0373927
702.332	0.0375370
702.410	0.0371283
702.488	0.0366021
702.567	0.0356989
702.645	0.0344707
702.723	0.0327543
702.801	0.0309458
702.879	0.0290829
702.957	0.0270527
703.035	0.0249434
703.113	0.0227174
703.192	0.0205958
703.270	0.0184192
703.348	0.0166874
703.426	0.0148312
703.504	0.0129330
703.582	0.0115004
703.660	0.0101300
703.738	0.00892250
703.817	0.00806206
703.895	0.00755440
703.973	0.00720154
704.051	0.00715202
704.129	0.00751846
704.207	0.00789513
704.285	0.00840340
704.363	0.00936295
704.442	0.00999718
704.520	0.0108617
704.598	0.0118425
704.676	0.0127829
704.754	0.0136861
704.832	0.0145676
704.910	0.0153530
704.988	0.0161423
705.067	0.0170178
705.145	0.0176788
705.223	0.0182208
705.301	0.0188767
705.379	0.0192182
705.457	0.0196954
705.535	0.0200066
705.613	0.0203540
705.692	0.0205604
705.770	0.0208678
705.848	0.0207021
705.926	0.0206462
706.004	0.0205816
706.082	0.0202406
706.160	0.0199936
706.238	0.0196291
706.317	0.0193346
706.395	0.0185727
706.473	0.0182166
706.551	0.0175930
706.629	0.0171512
706.707	0.0166535
706.785	0.0161279
706.863	0.0160066
706.942	0.0157561
707.020	0.0157607
707.098	0.0158418
707.176	0.0160642
707.254	0.0164864
707.332	0.0169065
707.410	0.0173301
707.488	0.0178682
707.567	0.0183224
707.645	0.0189227
707.723	0.0192796
707.801	0.0195894
707.879	0.0197425
707.957	0.0199888
708.035	0.0202158
708.113	0.0201363
708.192	0.0202802
708.270	0.0201218
708.348	0.0200630
708.426	0.0200538
708.504	0.0200145
708.582	0.0199950
708.660	0.0201130
708.738	0.0200710
708.817	0.0200217
708.895	0.0200764
708.973	0.0201981
709.051	0.0201887
709.129	0.0201196
709.207	0.0202780
709.285	0.0199800
709.363	0.0198892
709.442	0.0197041
709.520	0.0192417
709.598	0.0188299
709.676	0.0182294
709.754	0.0174225
709.832	0.0167065
709.910	0.0159272
709.988	0.0152780
710.067	0.0143180
710.145	0.0135702
710.223	0.0128919
710.301	0.0122656
710.379	0.0117523
710.457	0.0113728
710.535	0.0113835
710.613	0.0114394
710.692	0.0113761
710.770	0.0118083
710.848	0.0121870
710.926	0.0126898
711.004	0.0134528
711.082	0.0143464
711.160	0.0151087
711.238	0.0158624
711.317	0.0165536
711.395	0.0173027
711.473	0.0179612
711.551	0.0181955
711.629	0.0187392
711.707	0.0189987
711.785	0.0191174
711.863	0.0193419
711.942	0.0195308
712.020	0.0197104
712.098	0.0196919
712.176	0.0197740
712.254	0.0200362
712.332	0.0202330
712.410	0.0203571
712.488	0.0204952
712.567	0.0207322
712.645	0.0209014
712.723	0.0210675
712.801	0.0211356
712.879	0.0213512
712.957	0.0213003
713.035	0.0211376
713.113	0.0210295
713.192	0.0208764
713.270	0.0206123
713.348	0.0201141
713.426	0.0199074
713.504	0.0194366
713.582	0.0190573
713.660	0.0186555
713.738	0.0182782
713.817	0.0178239
713.895	0.0173833
713.973	0.0171857
714.051	0.0171896
714.129	0.0170177
714.207	0.0167884
714.285	0.0167480
714.363	0.0168313
714.442	0.0170384
714.520	0.0171552
714.598	0.0171997
714.676	0.0172310
714.754	0.0171870
714.832	0.0171472
714.910	0.0170288
714.988	0.0168145
715.067	0.0165243
715.145	0.0164014
715.223	0.0159293
715.301	0.0156930
715.379	0.0155367
715.457	0.0155367
715.535	0.0153535
715.613	0.0155196
715.692	0.0157161
715.770	0.0157541
715.848	0.0158013
715.926	0.0163191
716.004	0.0164822
716.082	0.0167896
716.160	0.0169808
716.238	0.0172063
716.317	0.0174190
716.395	0.0174302
716.473	0.0176308
716.551	0.0174838
716.629	0.0174459
716.707	0.0172442
716.785	0.0172105
716.863	0.0171758
716.942	0.0170540
717.020	0.0170905
717.098	0.0169709
717.176	0.0171763
717.254	0.0172626
717.332	0.0172649
717.410	0.0176688
717.488	0.0178633
717.567	0.0180663
717.645	0.0183459
717.723	0.0185627
717.801	0.0186785
717.879	0.0190166
717.957	0.0190214
718.035	0.0194379
718.113	0.0195827
718.192	0.0196490
718.270	0.0197601
718.348	0.0198587
718.426	0.0198544
718.504	0.0196915
718.582	0.0197169
718.660	0.0194938
718.738	0.0194156
718.817	0.0191768
718.895	0.0189618
718.973	0.0187994
719.051	0.0184424
719.129	0.0184557
719.207	0.0181021
719.285	0.0178761
719.363	0.0177132
719.442	0.0177407
719.520	0.0176876
719.598	0.0176441
719.676	0.0176302
719.754	0.0177388
719.832	0.0177087
719.910	0.0179463
719.988	0.0178397
720.067	0.0180656
720.145	0.0180927
720.223	0.0179706
720.301	0.0180714
720.379	0.0179391
720.457	0.0179569
720.535	0.0177897
720.613	0.0175665
720.692	0.0176530
720.770	0.0174235
720.848	0.0173663
720.926	0.0170272
721.004	0.0169986
721.082	0.0168108
721.160	0.0166673
721.238	0.0164018
721.317	0.0161533
721.395	0.0159657
721.473	0.0158146
721.551	0.0156899
721.629	0.0156388
721.707	0.0157673
721.785	0.0158895
721.863	0.0158636
721.942	0.0161404
722.020	0.0163142
722.098	0.0165978
722.176	0.0167944
722.254	0.0171868
722.332	0.0172495
722.410	0.0174818
722.488	0.0177702
722.567	0.0179469
722.645	0.0180706
722.723	0.0179660
722.801	0.0181471
722.879	0.0181218
722.957	0.0181918
723.035	0.0181487
723.113	0.0182157
723.192	0.0181689
723.270	0.0182895
723.348	0.0183456
723.426	0.0184478
723.504	0.0184368
723.582	0.0184084
723.660	0.0184460
723.738	0.0185088
723.817	0.0187369
723.895	0.0188611
723.973	0.0190213
724.051	0.0191907
724.129	0.0191687
724.207	0.0192584
724.285	0.0191437
724.363	0.0190984
724.442	0.0190772
724.520	0.0187682
724.598	0.0187951
724.676	0.0185786
724.754	0.0182072
724.832	0.0181065
724.910	0.0175954
724.988	0.0173499
725.067	0.0172800
725.145	0.0172292
725.223	0.0170858
725.301	0.0170925
725.379	0.0171786
725.457	0.0172861
725.535	0.0173372
725.613	0.0174860
725.692	0.0176878
725.770	0.0180203
725.848	0.0181795
725.926	0.0182031
726.004	0.0184429
726.082	0.0182622
726.160	0.0183432
726.238	0.0184193
726.317	0.0182325
726.395	0.0181211
726.473	0.0180267
726.551	0.0177808
726.629	0.0176233
726.707	0.0173332
726.785	0.0170976
726.863	0.0168031
726.942	0.0166530
727.020	0.0166019
727.098	0.0164058
727.176	0.0163068
727.254	0.0162003
727.332	0.0162705
727.410	0.0163567
727.488	0.0165526
727.567	0.0164300
727.645	0.0166982
727.723	0.0170728
727.801	0.0170399
727.879	0.0172904
727.957	0.0176394
728.035	0.0179939
728.113	0.0179277
728.192	0.0182231
728.270	0.0182986
728.348	0.0185143
728.426	0.0185277
728.504	0.0186798
728.582	0.0186686
728.660	0.0186166
728.738	0.0187567
728.817	0.0186844
728.895	0.0185543
728.973	0.0187049
729.051	0.0186960
729.129	0.0185760
729.207	0.0185111
729.285	0.0184882
729.363	0.0182233
729.442	0.0183741
729.520	0.0182447
729.598	0.0181416
729.676	0.0178943
729.754	0.0178395
729.832	0.0176045
729.910	0.0172970
729.988	0.0172611
730.067	0.0170722
730.145	0.0168740
730.223	0.0168912
730.301	0.0167777
730.379	0.0165396
730.457	0.0165922
730.535	0.0165047
730.613	0.0164369
730.692	0.0164719
730.770	0.0165577
730.848	0.0166148
730.926	0.0169701
731.004	0.0173399
731.082	0.0176346
731.160	0.0178733
731.238	0.0179615
731.317	0.0182327
731.395	0.0184855
731.473	0.0186224
731.551	0.0187635
731.629	0.0189180
731.707	0.0188203
731.785	0.0189549
731.863	0.0188837
731.942	0.0188097
732.020	0.0187553
732.098	0.0187581
732.176	0.0186274
732.254	0.0184526
732.332	0.0182355
732.410	0.0183475
732.488	0.0182655
732.567	0.0180757
732.645	0.0180335
732.723	0.0178980
732.801	0.0178239
732.879	0.0176303
732.957	0.0175842
733.035	0.0176103
733.113	0.0176028
733.192	0.0173139
733.270	0.0173113
733.348	0.0172742
733.426	0.0171532
733.504	0.0169123
733.582	0.0170225
733.660	0.0170284
733.738	0.0170702
733.817	0.0170058
733.895	0.0169113
733.973	0.0168379
734.051	0.0170838
734.129	0.0172050
734.207	0.0172729
734.285	0.0171913
734.363	0.0174733
734.442	0.0175687
734.520	0.0175752
734.598	0.0177293
734.676	0.0179082
734.754	0.0178222
734.832	0.0176797
734.910	0.0179241
734.988	0.0177102
735.067	0.0177811
735.145	0.0175840
735.223	0.0174577
735.301	0.0173865
735.379	0.0173153
735.457	0.0171935
735.535	0.0171930
735.613	0.0171214
735.692	0.0170808
735.770	0.0172604
735.848	0.0171860
735.926	0.0171116
736.004	0.0173104
736.082	0.0174782
736.160	0.0175245
736.238	0.0176440
736.317	0.0179785
736.395	0.0180636
736.473	0.0181802
736.551	0.0183571
736.629	0.0182964
736.707	0.0184978
736.785	0.0186781
736.863	0.0185981
736.942	0.0184518
737.020	0.0185023
737.098	0.0184792
737.176	0.0183710
737.254	0.0183575
737.332	0.0182867
737.410	0.0181438
737.488	0.0181639
737.567	0.0179405
737.645	0.0179269
737.723	0.0177785
737.801	0.0176938
737.879	0.0177820
737.957	0.0177880
738.035	0.0177668
738.113	0.0176412
738.192	0.0176626
738.270	0.0175642
738.348	0.0174173
738.426	0.0174266
738.504	0.0174319
738.582	0.0175840
738.660	0.0176366
738.738	0.0173540
738.817	0.0174049
738.895	0.0174534
738.973	0.0173957
739.051	0.0174298
739.129	0.0173190
739.207	0.0172826
739.285	0.0172990
739.363	0.0173158
739.442	0.0173470
739.520	0.0174590
739.598	0.0173406
739.676	0.0173207
739.754	0.0173734
739.832	0.0174907
739.910	0.0174957
739.988	0.0175710
740.067	0.0176846
740.145	0.0177812
740.223	0.0179066
740.301	0.0181489
740.379	0.0181641
740.457	0.0181506
740.535	0.0183378
740.613	0.0183138
740.692	0.0185258
740.770	0.0184189
740.848	0.0184825
740.926	0.0183712
741.004	0.0182589
741.082	0.0182988
741.160	0.0182830
741.238	0.0182250
741.317	0.0179948
741.395	0.0179618
741.473	0.0179723
741.551	0.0177832
741.629	0.0177360
741.707	0.0178166
741.785	0.0176334
741.863	0.0175470
741.942	0.0174684
742.020	0.0175419
742.098	0.0173262
742.176	0.0173554
742.254	0.0172577
742.332	0.0172982
742.410	0.0172672
742.488	0.0173038
742.567	0.0172153
742.645	0.0173048
742.723	0.0173548
742.801	0.0173345
742.879	0.0174517
742.957	0.0174691
743.035	0.0177010
743.113	0.0175661
743.192	0.0177015
743.270	0.0176231
743.348	0.0177123
743.426	0.0177087
743.504	0.0177937
743.582	0.0177271
743.660	0.0176419
743.738	0.0176708
743.817	0.0177454
743.895	0.0176511
743.973	0.0175465
744.051	0.0176049
744.129	0.0174693
744.207	0.0174273
744.285	0.0174603
744.363	0.0175441
744.442	0.0174768
744.520	0.0174097
744.598	0.0175607
744.676	0.0175732
744.754	0.0177134
744.832	0.0177921
744.910	0.0179751
744.988	0.0181408
745.067	0.0181145
745.145	0.0183036
745.223	0.0184377
745.301	0.0185175
745.379	0.0185760
745.457	0.0185752
745.535	0.0185758
745.613	0.0186047
745.692	0.0186595
745.770	0.0184413
745.848	0.0183807
745.926	0.0181707
746.004	0.0178474
746.082	0.0178165
746.160	0.0177615
746.238	0.0175888
746.317	0.0173432
746.395	0.0172723
746.473	0.0171060
746.551	0.0169991
746.629	0.0169373
746.707	0.0169106
746.785	0.0168941
746.863	0.0168874
746.942	0.0169661
747.020	0.0172043
747.098	0.0173290
747.176	0.0175362
747.254	0.0174054
747.332	0.0177299
747.410	0.0177988
747.488	0.0180556
747.567	0.0180511
747.645	0.0180459
747.723	0.0182829
747.801	0.0182605
747.879	0.0184776
747.957	0.0183498
748.035	0.0183279
748.113	0.0182645
748.192	0.0183524
748.270	0.0181392
748.348	0.0180994
748.426	0.0182021
748.504	0.0180802
748.582	0.0180054
748.660	0.0178394
748.738	0.0180425
748.817	0.0177060
748.895	0.0176278
748.973	0.0175497
749.051	0.0175945
749.129	0.0174868
749.207	0.0172660
749.285	0.0172272
749.363	0.0172906
749.442	0.0172757
749.520	0.0171942
749.598	0.0172324
749.676	0.0172237
749.754	0.0171989
749.832	0.0171487
749.910	0.0172385
749.988	0.0171082
750.067	0.0171392
750.145	0.0172011
750.223	0.0172095
750.301	0.0172720
750.379	0.0172308
750.457	0.0170486
750.535	0.0171362
750.613	0.0172051
750.692	0.0173447
750.770	0.0173914
750.848	0.0174544
750.926	0.0175378
751.004	0.0175233
751.082	0.0177439
751.160	0.0178929
751.238	0.0180187
751.317	0.0183530
751.395	0.0183464
751.473	0.0184570
751.551	0.0184186
751.629	0.0186145
751.707	0.0187032
751.785	0.0187302
751.863	0.0186713
751.942	0.0186282
752.020	0.0185865
752.098	0.0185303
752.176	0.0184416
752.254	0.0182722
752.332	0.0182146
752.410	0.0182150
752.488	0.0179821
752.567	0.0180202
752.645	0.0178848
752.723	0.0176615
752.801	0.0175940
752.879	0.0175902
752.957	0.0173589
753.035	0.0172969
753.113	0.0173830
753.192	0.0173502
753.270	0.0173316
753.348	0.0174335
753.426	0.0172178
753.504	0.0173754
753.582	0.0173821
753.660	0.0175620
753.738	0.0175652
753.817	0.0176220
753.895	0.0176740
753.973	0.0178343
754.051	0.0178893
754.129	0.0178231
754.207	0.0179393
754.285	0.0179097
754.363	0.0179800
754.442	0.0181383
754.520	0.0182163
754.598	0.0182066
754.676	0.0181600
754.754	0.0181930
754.832	0.0181010
754.910	0.0181960
754.988	0.0179589
755.067	0.0181092
755.145	0.0178227
755.223	0.0178181
755.301	0.0178299
755.379	0.0176874
755.457	0.0178044
755.535	0.0176122
755.613	0.0176409
755.692	0.0175406
755.770	0.0175507
755.848	0.0174231
755.926	0.0176480
756.004	0.0175270
756.082	0.0174892
756.160	0.0175480
756.238	0.0174042
756.317	0.0175913
756.395	0.0174625
756.473	0.0175156
756.551	0.0175647
756.629	0.0173946
756.707	0.0175266
756.785	0.0174126
756.863	0.0174340
756.942	0.0172997
757.020	0.0172427
757.098	0.0171658
757.176	0.0173020
757.254	0.0172047
757.332	0.0172044
757.410	0.0172071
757.488	0.0173046
757.567	0.0172750
757.645	0.0175123
757.723	0.0175017
757.801	0.0175718
757.879	0.0176289
757.957	0.0177097
758.035	0.0178601
758.113	0.0180085
758.192	0.0179070
758.270	0.0178320
758.348	0.0180465
758.426	0.0180644
758.504	0.0180090
758.582	0.0181881
758.660	0.0181048
758.738	0.0181967
758.817	0.0180586
758.895	0.0182079
758.973	0.0181815
759.051	0.0181297
759.129	0.0180964
759.207	0.0180625
759.285	0.0180473
759.363	0.0182193
759.442	0.0181036
759.520	0.0181986
759.598	0.0180324
759.676	0.0179854
759.754	0.0180169
759.832	0.0179189
759.910	0.0179575
759.988	0.0179009
760.067	0.0178197
760.145	0.0178280
760.223	0.0177425
760.301	0.0177136
760.379	0.0175931
760.457	0.0173228
760.535	0.0174590
760.613	0.0174789
760.692	0.0174201
760.770	0.0173432
760.848	0.0173468
760.926	0.0176170
761.004	0.0175563
761.082	0.0175471
761.160	0.0176878
761.238	0.0176804
761.317	0.0178403
761.395	0.0179153
761.473	0.0179505
761.551	0.0179165
761.629	0.0179693
761.707	0.0180405
761.785	0.0180258
761.863	0.0180924
761.942	0.0181500
762.020	0.0179077
762.098	0.0180304
762.176	0.0179711
762.254	0.0178772
762.332	0.0180288
762.410	0.0178317
762.488	0.0177098
762.567	0.0177567
762.645	0.0175457
762.723	0.0174684
762.801	0.0174419
762.879	0.0174321
762.957	0.0173817
763.035	0.0172816
763.113	0.0171663
763.192	0.0171009
763.270	0.0170999
763.348	0.0171041
763.426	0.0172533
763.504	0.0172521
763.582	0.0173737
763.660	0.0173155
763.738	0.0175455
763.817	0.0175101
763.895	0.0174349
763.973	0.0177593
764.051	0.0177884
764.129	0.0179516
764.207	0.0180901
764.285	0.0179585
764.363	0.0180094
764.442	0.0180093
764.520	0.0179085
764.598	0.0178775
764.676	0.0179771
764.754	0.0178369
764.832	0.0177824
764.910	0.0177885
764.988	0.0177032
765.067	0.0176472
765.145	0.0176060
765.223	0.0176129
765.301	0.0175121
765.379	0.0174720
765.457	0.0174115
765.535	0.0171925
765.613	0.0174931
765.692	0.0174063
765.770	0.0175336
765.848	0.0175272
765.926	0.0175466
766.004	0.0175767
766.082	0.0175815
766.160	0.0177589
766.238	0.0179073
766.317	0.0180164
766.395	0.0180170
766.473	0.0179356
766.551	0.0179455
766.629	0.0181053
766.707	0.0181116
766.785	0.0179715
766.863	0.0181481
766.942	0.0180585
767.020	0.0178532
767.098	0.0180010
767.176	0.0179238
767.254	0.0177502
767.332	0.0176653
767.410	0.0176440
767.488	0.0178242
767.567	0.0177357
767.645	0.0178619
767.723	0.0177499
767.801	0.0178750
767.879	0.0178324
767.957	0.0180051
768.035	0.0178274
768.113	0.0178990
768.192	0.0179535
768.270	0.0178326
768.348	0.0180979
768.426	0.0179920
768.504	0.0178983
768.582	0.0179651
768.660	0.0178798
768.738	0.0179051
768.817	0.0179828
768.895	0.0179835
768.973	0.0179602
769.051	0.0180095
769.129	0.0178731
769.207	0.0179692
769.285	0.0177591
769.363	0.0176832
769.442	0.0175287
769.520	0.0176811
769.598	0.0176447
769.676	0.0175735
769.754	0.0175794
769.832	0.0174685
769.910	0.0175296
769.988	0.0173880
770.067	0.0174921
770.145	0.0175062
770.223	0.0174632
770.301	0.0175725
770.379	0.0175967
770.457	0.0176134
770.535	0.0177515
770.613	0.0177150
770.692	0.0177293
770.770	0.0177734
770.848	0.0177944
770.926	0.0178141
771.004	0.0177956
771.082	0.0178386
771.160	0.0178326
771.238	0.0178221
771.317	0.0177400
771.395	0.0177521
771.473	0.0177462
771.551	0.0176501
771.629	0.0175961
771.707	0.0173746
771.785	0.0175947
771.863	0.0174393
771.942	0.0174213
772.020	0.0172612
772.098	0.0172693
772.176	0.0172474
772.254	0.0172867
772.332	0.0173363
772.410	0.0172125
772.488	0.0173769
772.567	0.0172527
772.645	0.0173921
772.723	0.0173830
772.801	0.0174089
772.879	0.0174422
772.957	0.0175833
773.035	0.0175629
773.113	0.0175761
773.192	0.0176556
773.270	0.0176733
773.348	0.0176347
773.426	0.0176915
773.504	0.0177202
773.582	0.0177183
773.660	0.0178417
773.738	0.0178576
773.817	0.0179032
773.895	0.0180907
773.973	0.0179507
774.051	0.0178385
774.129	0.0180179
774.207	0.0182272
774.285	0.0181326
774.363	0.0182809
774.442	0.0182320
774.520	0.0181557
774.598	0.0181295
774.676	0.0181016
774.754	0.0181586
774.832	0.0181544
774.910	0.0182226
774.988	0.0180670
775.067	0.0179993
775.145	0.0180933
775.223	0.0179394
775.301	0.0178455
775.379	0.0178643
775.457	0.0178051
775.535	0.0177645
775.613	0.0175915
775.692	0.0176648
775.770	0.0174586
775.848	0.0174656
775.926	0.0173612
776.004	0.0172794
776.082	0.0173669
776.160	0.0173893
776.238	0.0175459
776.317	0.0174607
776.395	0.0174940
776.473	0.0175994
776.551	0.0176474
776.629	0.0174776
776.707	0.0176752
776.785	0.0177608
776.863	0.0177434
776.942	0.0176940
777.020	0.0177088
777.098	0.0176773
777.176	0.0177993
777.254	0.0176362
777.332	0.0176039
777.410	0.0177899
777.488	0.0177601
777.567	0.0175774
777.645	0.0176647
777.723	0.0177776
777.801	0.0176076
777.879	0.0176451
777.957	0.0177081
778.035	0.0178195
778.113	0.0177579
778.192	0.0176717
778.270	0.0178101
778.348	0.0179095
778.426	0.0177528
778.504	0.0178166
778.582	0.0178886
778.660	0.0177932
778.738	0.0176526
778.817	0.0177870
778.895	0.0177625
778.973	0.0176875
779.051	0.0176546
779.129	0.0175544
779.207	0.0175822
779.285	0.0174879
779.363	0.0175765
779.442	0.0174580
779.520	0.0174827
779.598	0.0174126
779.676	0.0174328
779.754	0.0172848
779.832	0.0173171
779.910	0.0173383
779.988	0.0174939
780.067	0.0174476
780.145	0.0174303
780.223	0.0175785
780.301	0.0176414
780.379	0.0176681
780.457	0.0176698
780.535	0.0177696
780.613	0.0177766
780.692	0.0179076
780.770	0.0178209
780.848	0.0179043
780.926	0.0179153
781.004	0.0180560
781.082	0.0178799
781.160	0.0181480
781.238	0.0181209
781.317	0.0179804
781.395	0.0180163
781.473	0.0179981
781.551	0.0179906
781.629	0.0179935
781.707	0.0179587
781.785	0.0178819
781.863	0.0179836
781.942	0.0179807
782.020	0.0179527
782.098	0.0179140
782.176	0.0179364
782.254	0.0178470
782.332	0.0179214
782.410	0.0179368
782.488	0.0179694
782.567	0.0179802
782.645	0.0179765
782.723	0.0180393
782.801	0.0181239
782.879	0.0180792
782.957	0.0179936
783.035	0.0181319
783.113	0.0179838
783.192	0.0179359
783.270	0.0180837
783.348	0.0179203
783.426	0.0178534
783.504	0.0178349
783.582	0.0178050
783.660	0.0177316
783.738	0.0177872
783.817	0.0178037
783.895	0.0174765
783.973	0.0174876
784.051	0.0174966
784.129	0.0173704
784.207	0.0174734
784.285	0.0173881
784.363	0.0173672
784.442	0.0172276
784.520	0.0171937
784.598	0.0172959
784.676	0.0172553
784.754	0.0173712
784.832	0.0173335
784.910	0.0173550
784.988	0.0173842
785.067	0.0175072
785.145	0.0175766
785.223	0.0174873
785.301	0.0175803
785.379	0.0176039
785.457	0.0177477
785.535	0.0177167
785.613	0.0179535
785.692	0.0179028
785.770	0.0180577
785.848	0.0182034
785.926	0.0181365
786.004	0.0182150
786.082	0.0183025
786.160	0.0183396
786.238	0.0182547
786.317	0.0183117
786.395	0.0183317
786.473	0.0183105
786.551	0.0182508
786.629	0.0181489
786.707	0.0181422
786.785	0.0180996
786.863	0.0178136
786.942	0.0178855
787.020	0.0176588
787.098	0.0174380
787.176	0.0174673
787.254	0.0171764
787.332	0.0171637
787.410	0.0171235
787.488	0.0169991
787.567	0.0167884
787.645	0.0168382
787.723	0.0167741
787.801	0.0170244
787.879	0.0171021
787.957	0.0170866
788.035	0.0172216
788.113	0.0175150
788.192	0.0176175
788.270	0.0177739
788.348	0.0180147
788.426	0.0182318
788.504	0.0182732
788.582	0.0186564
788.660	0.0186380
788.738	0.0188546
788.817	0.0189259
788.895	0.0189595
788.973	0.0190246
789.051	0.0188062
789.129	0.0188427
789.207	0.0187969
789.285	0.0187234
789.363	0.0184720
789.442	0.0183812
789.520	0.0180828
789.598	0.0178507
789.676	0.0177026
789.754	0.0176364
789.832	0.0173011
789.910	0.0171636
789.988	0.0169603
790.067	0.0168767
790.145	0.0166648
790.223	0.0165240
790.301	0.0163982
790.379	0.0163250
790.457	0.0162332
790.535	0.0161455
790.613	0.0161367
790.692	0.0160779
790.770	0.0163792
790.848	0.0163068
790.926	0.0163849
791.004	0.0167836
791.082	0.0167706
791.160	0.0170327
791.238	0.0174266
791.317	0.0175865
791.395	0.0178595
791.473	0.0182781
791.551	0.0183662
791.629	0.0187258
791.707	0.0190194
791.785	0.0192796
791.863	0.0196048
791.942	0.0197478
792.020	0.0200268
792.098	0.0201540
792.176	0.0201908
792.254	0.0202173
792.332	0.0202692
792.410	0.0201731
792.488	0.0201083
792.567	0.0197000
792.645	0.0194789
792.723	0.0192547
792.801	0.0187566
792.879	0.0182384
792.957	0.0177613
793.035	0.0171838
793.113	0.0168461
793.192	0.0164086
793.270	0.0159007
793.348	0.0155782
793.426	0.0151295
793.504	0.0146948
793.582	0.0144837
793.660	0.0145849
793.738	0.0143346
793.817	0.0142126
793.895	0.0142588
793.973	0.0143738
794.051	0.0147428
794.129	0.0148704
794.207	0.0153139
794.285	0.0156593
794.363	0.0162186
794.442	0.0166093
794.520	0.0170033
794.598	0.0176074
794.676	0.0181355
794.754	0.0184873
794.832	0.0190172
794.910	0.0194456
794.988	0.0197009
795.067	0.0201789
795.145	0.0203184
795.223	0.0207085
795.301	0.0209138
795.379	0.0208830
795.457	0.0210870
795.535	0.0208350
795.613	0.0207883
795.692	0.0207890
795.770	0.0205275
795.848	0.0200233
795.926	0.0200101
796.004	0.0195391
796.082	0.0192112
796.160	0.0187157
796.238	0.0184013
796.317	0.0179356
796.395	0.0174014
796.473	0.0170149
796.551	0.0167490
796.629	0.0164565
796.707	0.0162009
796.785	0.0160654
796.863	0.0156974
796.942	0.0156191
797.020	0.0154001
797.098	0.0155191
797.176	0.0154260
797.254	0.0152326
797.332	0.0152892
797.410	0.0152535
797.488	0.0154927
797.567	0.0155376
797.645	0.0157539
797.723	0.0159959
797.801	0.0162240
797.879	0.0164888
797.957	0.0165920
798.035	0.0169710
798.113	0.0174127
798.192	0.0176965
798.270	0.0179623
798.348	0.0181550
798.426	0.0184193
798.504	0.0185750
798.582	0.0188797
798.660	0.0190812
798.738	0.0191840
798.817	0.0193336
798.895	0.0194564
798.973	0.0195141
799.051	0.0195348
799.129	0.0196701
799.207	0.0194960
799.285	0.0195551
799.363	0.0195325
799.442	0.0194283
799.520	0.0193024
799.598	0.0192030
799.676	0.0189977
799.754	0.0187547
799.832	0.0185568
799.910	0.0182617
799.988	0.0181319
800.067	0.0179427
800.145	0.0177313
800.223	0.0174967
800.301	0.0172841
800.379	0.0170223
800.457	0.0168386
800.535	0.0165941
800.613	0.0163985
800.692	0.0164832
800.770	0.0163573
800.848	0.0162359
800.926	0.0161994
801.004	0.0162783
801.082	0.0163612
801.160	0.0164040
801.238	0.0166450
801.317	0.0168858
801.395	0.0168655
801.473	0.0170827
801.551	0.0171410
801.629	0.0173298
801.707	0.0175067
801.785	0.0177399
801.863	0.0178674
801.942	0.0178743
802.020	0.0180173
802.098	0.0179006
802.176	0.0179404
802.254	0.0179684
802.332	0.0178190
802.410	0.0179641
802.488	0.0177876
802.567	0.0178406
802.645	0.0177001
802.723	0.0175902
802.801	0.0176379
802.879	0.0175129
802.957	0.0175053
803.035	0.0176301
803.113	0.0176737
803.192	0.0178178
803.270	0.0177715
803.348	0.0178609
803.426	0.0178395
803.504	0.0180507
803.582	0.0180173
803.660	0.0180103
803.738	0.0180682
803.817	0.0180927
803.895	0.0179667
803.973	0.0180236
804.051	0.0180523
804.129	0.0179657
804.207	0.0179871
804.285	0.0179355
804.363	0.0179121
804.442	0.0179039
804.520	0.0179398
804.598	0.0179479
804.676	0.0178677
804.754	0.0179145
804.832	0.0179585
804.910	0.0180351
804.988	0.0181818
805.067	0.0180586
805.145	0.0181577
805.223	0.0182568
805.301	0.0180611
805.379	0.0181757
805.457	0.0183055
805.535	0.0180772
805.613	0.0180572
805.692	0.0181166
805.770	0.0179173
805.848	0.0180301
805.926	0.0180053
806.004	0.0177619
806.082	0.0175377
806.160	0.0176342
806.238	0.0175771
806.317	0.0176054
806.395	0.0172842
806.473	0.0173645
806.551	0.0173215
806.629	0.0171947
806.707	0.0171512
806.785	0.0171374
806.863	0.0170300
806.942	0.0172189
807.020	0.0170933
807.098	0.0169945
807.176	0.0169942
807.254	0.0170698
807.332	0.0170361
807.410	0.0172085
807.488	0.0173124
807.567	0.0173737
807.645	0.0171738
807.723	0.0173524
807.801	0.0173725
807.879	0.0175480
807.957	0.0175980
808.035	0.0176051
808.113	0.0177573
808.192	0.0177818
808.270	0.0177048
808.348	0.0179638
808.426	0.0178750
808.504	0.0178106
808.582	0.0178967
808.660	0.0179829
808.738	0.0179131
808.817	0.0179176
808.895	0.0181087
808.973	0.0179803
809.051	0.0180463
809.129	0.0180724
809.207	0.0181834
809.285	0.0181612
809.363	0.0181691
809.442	0.0181142
809.520	0.0180744
809.598	0.0180821
809.676	0.0182504
809.754	0.0180830
809.832	0.0181671
809.910	0.0181248
809.988	0.0180589
810.067	0.0180486
810.145	0.0180391
810.223	0.0179725
810.301	0.0181322
810.379	0.0178565
810.457	0.0180881
810.535	0.0180759
810.613	0.0178674
810.692	0.0178406
810.770	0.0179360
810.848	0.0178376
810.926	0.0177713
811.004	0.0178522
811.082	0.0178120
811.160	0.0176893
811.238	0.0177695
811.317	0.0177125
811.395	0.0175826
811.473	0.0175891
811.551	0.0175267
811.629	0.0175729
811.707	0.0176004
811.785	0.0175407
811.863	0.0175526
811.942	0.0175833
812.020	0.0176295
812.098	0.0175433
812.176	0.0174944
812.254	0.0173260
812.332	0.0173277
812.410	0.0173387
812.488	0.0172581
812.567	0.0172134
812.645	0.0170799
812.723	0.0170502
812.801	0.0170997
812.879	0.0169990
812.957	0.0172095
813.035	0.0171648
813.113	0.0171054
813.192	0.0171377
813.270	0.0172079
813.348	0.0173023
813.426	0.0172594
813.504	0.0172540
813.582	0.0173336
813.660	0.0175123
813.738	0.0177131
813.817	0.0177573
813.895	0.0178788
813.973	0.0179379
814.051	0.0178815
814.129	0.0180842
814.207	0.0181995
814.285	0.0182808
814.363	0.0183061
814.442	0.0182900
814.520	0.0182918
814.598	0.0183830
814.676	0.0183961
814.754	0.0182951
814.832	0.0183072
814.910	0.0181456
814.988	0.0182582
815.067	0.0182084
815.145	0.0181301
815.223	0.0181146
815.301	0.0179960
815.379	0.0179637
815.457	0.0178391
815.535	0.0178093
815.613	0.0177872
815.692	0.0178464
815.770	0.0178938
815.848	0.0177197
815.926	0.0177998
816.004	0.0176942
816.082	0.0176801
816.160	0.0177646
816.238	0.0178637
816.317	0.0179514
816.395	0.0179252
816.473	0.0180246
816.551	0.0181033
816.629	0.0182213
816.707	0.0181670
816.785	0.0180992
816.863	0.0182223
816.942	0.0181860
817.020	0.0180157
817.098	0.0181215
817.176	0.0180378
817.254	0.0179836
817.332	0.0178412
817.410	0.0177417
817.488	0.0175932
817.567	0.0173939
817.645	0.0172556
817.723	0.0171902
817.801	0.0171859
817.879	0.0168986
817.957	0.0169314
818.035	0.0167175
818.113	0.0166801
818.192	0.0166850
818.270	0.0166499
818.348	0.0167062
818.426	0.0166219
818.504	0.0167652
818.582	0.0168655
818.660	0.0169203
818.738	0.0169749
818.817	0.0171652
818.895	0.0173266
818.973	0.0174583
819.051	0.0175075
819.129	0.0175797
819.207	0.0176842
819.285	0.0177286
819.363	0.0179387
819.442	0.0179769
819.520	0.0180097
819.598	0.0180492
819.676	0.0181858
819.754	0.0181543
819.832	0.0180929
819.910	0.0183289
819.988	0.0183376
820.067	0.0183753
820.145	0.0183032
820.223	0.0184019
820.301	0.0182970
820.379	0.0182992
820.457	0.0183184
820.535	0.0183799
820.613	0.0182289
820.692	0.0183286
820.770	0.0181786
820.848	0.0182178
820.926	0.0182133
821.004	0.0180872
821.082	0.0179294
821.160	0.0178528
821.238	0.0179002
821.317	0.0178318
821.395	0.0177959
821.473	0.0176992
821.551	0.0175668
821.629	0.0176122
821.707	0.0175992
821.785	0.0175301
821.863	0.0175822
821.942	0.0176774
822.020	0.0176599
822.098	0.0176367
822.176	0.0177120
822.254	0.0178386
822.332	0.0178156
822.410	0.0178329
822.488	0.0180096
822.567	0.0179128
822.645	0.0178272
822.723	0.0177914
822.801	0.0179005
822.879	0.0177751
822.957	0.0178609
823.035	0.0176897
823.113	0.0177551
823.192	0.0178551
823.270	0.0175285
823.348	0.0175068
823.426	0.0175255
823.504	0.0175016
823.582	0.0174377
823.660	0.0173154
823.738	0.0173845
823.817	0.0172727
823.895	0.0171793
823.973	0.0170952
824.051	0.0172198
824.129	0.0173180
824.207	0.0173063
824.285	0.0173165
824.363	0.0173679
824.442	0.0173761
824.520	0.0174602
824.598	0.0176229
824.676	0.0176655
824.754	0.0179277
824.832	0.0178511
824.910	0.0179754
824.988	0.0182447
825.067	0.0181430
825.145	0.0183047
825.223	0.0182282
825.301	0.0181506
825.379	0.0183700
825.457	0.0184260
825.535	0.0183480
825.613	0.0183232
825.692	0.0182631
825.770	0.0183447
825.848	0.0181846
825.926	0.0180831
826.004	0.0182083
826.082	0.0180838
826.160	0.0179939
826.238	0.0179411
826.317	0.0176254
826.395	0.0176189
826.473	0.0175906
826.551	0.0174252
826.629	0.0174226
826.707	0.0173631
826.785	0.0171940
826.863	0.0171291
826.942	0.0170525
827.020	0.0170339
827.098	0.0170573
827.176	0.0171503
827.254	0.0169556
827.332	0.0171569
827.410	0.0171597
827.488	0.0171108
827.567	0.0173709
827.645	0.0173814
827.723	0.0175655
827.801	0.0175584
827.879	0.0177429
827.957	0.0178402
828.035	0.0181497
828.113	0.0181921
828.192	0.0181418
828.270	0.0184163
828.348	0.0184452
828.426	0.0183620
828.504	0.0184925
828.582	0.0183918
828.660	0.0184555
828.738	0.0185459
828.817	0.0183105
828.895	0.0183979
828.973	0.0181778
829.051	0.0181133
829.129	0.0180953
829.207	0.0178341
829.285	0.0178590
829.363	0.0177568
829.442	0.0178433
829.520	0.0176508
829.598	0.0176292
829.676	0.0174610
829.754	0.0173828
829.832	0.0173082
829.910	0.0172364
829.988	0.0172874
830.067	0.0172452
830.145	0.0171539
830.223	0.0172723
830.301	0.0172075
830.379	0.0173820
830.457	0.0174135
830.535	0.0172704
830.613	0.0176126
830.692	0.0175368
830.770	0.0175901
830.848	0.0177924
830.926	0.0179372
831.004	0.0179822
831.082	0.0179525
831.160	0.0181701
831.238	0.0180295
831.317	0.0181518
831.395	0.0182967
831.473	0.0183638
831.551	0.0183871
831.629	0.0182622
831.707	0.0183118
831.785	0.0184090
831.863	0.0182201
831.942	0.0181313
832.020	0.0180833
832.098	0.0180806
832.176	0.0179747
832.254	0.0178424
832.332	0.0177818
832.410	0.0177096
832.488	0.0178803
832.567	0.0176546
832.645	0.0176123
832.723	0.0176186
832.801	0.0175913
832.879	0.0174793
832.957	0.0174510
833.035	0.0174869
833.113	0.0174370
833.192	0.0172994
833.270	0.0173685
833.348	0.0174089
833.426	0.0173737
833.504	0.0174279
833.582	0.0175953
833.660	0.0175409
833.738	0.0175661
833.817	0.0176295
833.895	0.0176112
833.973	0.0176839
834.051	0.0178361
834.129	0.0176931
834.207	0.0177716
834.285	0.0178944
834.363	0.0178934
834.442	0.0178243
834.520	0.0178651
834.598	0.0178062
834.676	0.0178734
834.754	0.0176487
834.832	0.0176311
834.910	0.0176881
834.988	0.0176098
835.067	0.0175208
835.145	0.0173747
835.223	0.0174390
835.301	0.0173582
835.379	0.0173690
835.457	0.0173009
835.535	0.0173436
835.613	0.0173040
835.692	0.0173529
835.770	0.0173707
835.848	0.0174763
835.926	0.0174071
836.004	0.0174421
836.082	0.0174818
836.160	0.0175166
836.238	0.0177639
836.317	0.0177960
836.395	0.0177787
836.473	0.0177744
836.551	0.0179974
836.629	0.0180248
836.707	0.0180951
836.785	0.0181882
836.863	0.0182233
836.942	0.0182388
837.020	0.0183916
837.098	0.0183821
837.176	0.0185058
837.254	0.0184359
837.332	0.0183942
837.410	0.0185472
837.488	0.0185619
837.567	0.0186218
837.645	0.0185438
837.723	0.0184014
837.801	0.0183539
837.879	0.0183644
837.957	0.0183195
838.035	0.0183545
838.113	0.0180640
838.192	0.0178796
838.270	0.0179096
838.348	0.0177198
838.426	0.0174766
838.504	0.0174124
838.582	0.0174252
838.660	0.0171803
838.738	0.0171636
838.817	0.0170692
838.895	0.0170496
838.973	0.0170176
839.051	0.0168362
839.129	0.0169937
839.207	0.0169240
839.285	0.0168687
839.363	0.0170323
839.442	0.0170394
839.520	0.0170289
839.598	0.0172348
839.676	0.0170923
839.754	0.0172069
839.832	0.0174598
839.910	0.0173484
839.988	0.0175263
840.067	0.0176727
840.145	0.0176334
840.223	0.0177744
840.301	0.0177678
840.379	0.0180213
840.457	0.0179108
840.535	0.0179465
840.613	0.0181028
840.692	0.0179924
840.770	0.0181372
840.848	0.0180120
840.926	0.0181483
841.004	0.0182473
841.082	0.0181291
841.160	0.0181640
841.238	0.0182932
841.317	0.0184152
841.395	0.0182422
841.473	0.0182533
841.551	0.0181301
841.629	0.0182043
841.707	0.0179985
841.785	0.0179718
841.863	0.0179337
841.942	0.0178197
842.020	0.0178150
842.098	0.0175937
842.176	0.0176395
842.254	0.0173945
842.332	0.0174712
842.410	0.0174367
842.488	0.0171870
842.567	0.0173018
842.645	0.0173232
842.723	0.0173304
842.801	0.0172264
842.879	0.0172160
842.957	0.0172263
843.035	0.0174169
843.113	0.0175424
843.192	0.0176023
843.270	0.0174928
843.348	0.0177549
843.426	0.0178595
843.504	0.0177162
843.582	0.0177638
843.660	0.0178310
843.738	0.0177998
843.817	0.0177583
843.895	0.0178653
843.973	0.0179376
844.051	0.0179124
844.129	0.0180025
844.207	0.0179024
844.285	0.0177976
844.363	0.0177766
844.442	0.0177830
844.520	0.0178489
844.598	0.0178320
844.676	0.0178648
844.754	0.0178576
844.832	0.0177864
844.910	0.0178018
844.988	0.0179108
845.067	0.0179084
845.145	0.0179577
845.223	0.0179736
845.301	0.0178767
845.379	0.0179230
845.457	0.0178604
845.535	0.0180342
845.613	0.0180794
845.692	0.0180110
845.770	0.0180813
845.848	0.0180316
845.926	0.0180292
846.004	0.0181693
846.082	0.0180974
846.160	0.0180702
846.238	0.0181660
846.317	0.0180386
846.395	0.0180837
846.473	0.0179707
846.551	0.0179869
846.629	0.0180378
846.707	0.0178088
846.785	0.0179467
846.863	0.0177985
846.942	0.0177511
847.020	0.0177882
847.098	0.0174120
847.176	0.0175952
847.254	0.0176100
847.332	0.0175342
847.410	0.0174652
847.488	0.0172897
847.567	0.0174356
847.645	0.0173859
847.723	0.0174460
847.801	0.0172514
847.879	0.0174613
847.957	0.0174434
848.035	0.0174393
848.113	0.0174110
848.192	0.0174112
848.270	0.0175322
848.348	0.0175485
848.426	0.0175780
848.504	0.0175612
848.582	0.0176144
848.660	0.0176876
848.738	0.0176654
848.817	0.0178829
848.895	0.0177393
848.973	0.0176830
849.051	0.0176997
849.129	0.0176924
849.207	0.0177142
849.285	0.0176123
849.363	0.0176714
849.442	0.0177279
849.520	0.0176832
849.598	0.0177276
849.676	0.0175613
849.754	0.0176736
849.832	0.0178543
849.910	0.0177002
849.988	0.0176814
850.067	0.0177285
850.145	0.0178078
850.223	0.0178326
850.301	0.0177341
850.379	0.0177050
850.457	0.0177523
850.535	0.0178219
850.613	0.0179406
850.692	0.0178320
850.770	0.0178529
850.848	0.0177775
850.926	0.0179057
851.004	0.0177845
851.082	0.0178915
851.160	0.0179428
851.238	0.0177780
851.317	0.0178267
851.395	0.0179738
851.473	0.0179494
851.551	0.0178526
851.629	0.0178807
851.707	0.0179616
851.785	0.0179642
851.863	0.0181551
851.942	0.0182221
852.020	0.0181077
852.098	0.0180657
852.176	0.0183112
852.254	0.0182313
852.332	0.0181693
852.410	0.0180412
852.488	0.0180338
852.567	0.0180814
852.645	0.0180569
852.723	0.0180420
852.801	0.0179681
852.879	0.0180379
852.957	0.0179835
853.035	0.0179286
853.113	0.0178019
853.192	0.0177462
853.270	0.0177204
853.348	0.0175489
853.426	0.0175859
853.504	0.0175872
853.582	0.0176633
853.660	0.0175156
853.738	0.0175288
853.817	0.0173837
853.895	0.0174894
853.973	0.0173719
854.051	0.0173328
854.129	0.0172113
854.207	0.0173535
854.285	0.0173817
854.363	0.0173393
854.442	0.0175392
854.520	0.0174667
854.598	0.0174078
854.676	0.0176481
854.754	0.0175790
854.832	0.0176526
854.910	0.0177399
854.988	0.0176730
855.067	0.0177727
855.145	0.0179048
855.223	0.0178262
855.301	0.0178883
855.379	0.0179205
855.457	0.0180736
855.535	0.0180849
855.613	0.0181731
855.692	0.0181319
855.770	0.0181149
855.848	0.0180888
855.926	0.0181701
856.004	0.0180318
856.082	0.0178706
856.160	0.0179626
856.238	0.0178235
856.317	0.0178625
856.395	0.0177809
856.473	0.0177944
856.551	0.0177702
856.629	0.0175150
856.707	0.0176535
856.785	0.0176689
856.863	0.0175764
856.942	0.0176134
857.020	0.0176050
857.098	0.0174458
857.176	0.0175333
857.254	0.0175960
857.332	0.0174752
857.410	0.0175674
857.488	0.0175063
857.567	0.0174194
857.645	0.0175649
857.723	0.0176463
857.801	0.0176656
857.879	0.0178358
857.957	0.0177390
858.035	0.0177358
858.113	0.0176242
858.192	0.0176645
858.270	0.0178870
858.348	0.0179003
858.426	0.0178566
858.504	0.0178347
858.582	0.0178267
858.660	0.0177714
858.738	0.0180418
858.817	0.0178698
858.895	0.0177815
858.973	0.0179828
859.051	0.0179740
859.129	0.0179050
859.207	0.0178323
859.285	0.0178083
859.363	0.0179075
859.442	0.0178004
859.520	0.0177918
859.598	0.0175861
859.676	0.0176615
859.754	0.0175024
859.832	0.0175746
859.910	0.0175352
859.988	0.0174097
860.067	0.0175470
860.145	0.0174477
860.223	0.0174886
860.301	0.0174372
860.379	0.0173712
860.457	0.0174077
860.535	0.0174662
860.613	0.0174970
860.692	0.0175847
860.770	0.0175835
860.848	0.0175211
860.926	0.0177092
861.004	0.0176248
861.082	0.0177566
861.160	0.0176604
861.238	0.0178499
861.317	0.0177473
861.395	0.0177807
861.473	0.0178400
861.551	0.0177847
861.629	0.0179147
861.707	0.0178620
861.785	0.0177621
861.863	0.0177983
861.942	0.0179356
862.020	0.0178313
862.098	0.0177139
862.176	0.0178231
862.254	0.0177433
862.332	0.0177515
862.410	0.0176653
862.488	0.0176498
862.567	0.0175750
862.645	0.0178414
862.723	0.0176740
862.801	0.0176292
862.879	0.0176585
862.957	0.0175452
863.035	0.0176810
863.113	0.0178765
863.192	0.0176650
863.270	0.0178450
863.348	0.0177603
863.426	0.0178394
863.504	0.0178510
863.582	0.0177075
863.660	0.0178259
863.738	0.0176484
863.817	0.0178071
863.895	0.0178291
863.973	0.0178661
864.051	0.0176813
864.129	0.0176752
864.207	0.0177090
864.285	0.0177402
864.363	0.0178244
864.442	0.0176918
864.520	0.0176071
864.598	0.0175618
864.676	0.0177283
864.754	0.0176522
864.832	0.0176765
864.910	0.0177493
864.988	0.0175784
865.067	0.0177024
865.145	0.0174834
865.223	0.0176427
865.301	0.0177737
865.379	0.0176642
865.457	0.0175517
865.535	0.0175761
865.613	0.0176374
865.692	0.0174169
865.770	0.0176968
865.848	0.0174847
865.926	0.0174175
866.004	0.0174388
866.082	0.0175293
866.160	0.0175558
866.238	0.0176118
866.317	0.0174547
866.395	0.0174158
866.473	0.0175202
866.551	0.0175100
866.629	0.0175124
866.707	0.0175449
866.785	0.0175560
866.863	0.0175157
866.942	0.0175243
867.020	0.0175722
867.098	0.0175755
867.176	0.0175906
867.254	0.0176345
867.332	0.0177914
867.410	0.0177467
867.488	0.0177389
867.567	0.0177342
867.645	0.0176681
867.723	0.0176862
867.801	0.0177893
867.879	0.0178245
867.957	0.0178386
868.035	0.0177859
868.113	0.0177440
868.192	0.0178465
868.270	0.0178511
868.348	0.0179774
868.426	0.0179311
868.504	0.0179793
868.582	0.0178676
868.660	0.0179843
868.738	0.0180661
868.817	0.0178903
868.895	0.0177731
868.973	0.0178103
869.051	0.0178767
869.129	0.0178130
869.207	0.0177485
869.285	0.0178622
869.363	0.0179227
869.442	0.0178832
869.520	0.0178590
869.598	0.0178240
869.676	0.0177563
869.754	0.0178682
869.832	0.0178616
869.910	0.0178354
869.988	0.0177724
870.067	0.0176999
870.145	0.0177515
870.223	0.0176691
870.301	0.0177155
870.379	0.0176087
870.457	0.0176688
870.535	0.0176795
870.613	0.0176571
870.692	0.0177434
870.770	0.0176099
870.848	0.0175912
870.926	0.0176204
871.004	0.0178042
871.082	0.0177715
871.160	0.0177893
871.238	0.0176824
871.317	0.0174295
871.395	0.0175763
871.473	0.0177516
871.551	0.0175459
871.629	0.0175282
871.707	0.0174663
871.785	0.0175386
871.863	0.0174105
871.942	0.0174617
872.020	0.0174049
872.098	0.0173833
872.176	0.0172705
872.254	0.0172742
872.332	0.0173080
872.410	0.0173812
872.488	0.0173316
872.567	0.0173432
872.645	0.0173574
872.723	0.0174420
872.801	0.0173651
872.879	0.0174506
872.957	0.0174580
873.035	0.0174357
873.113	0.0175979
873.192	0.0176461
873.270	0.0176421
873.348	0.0178064
873.426	0.0176781
873.504	0.0176897
873.582	0.0177295
873.660	0.0178904
873.738	0.0179459
873.817	0.0178545
873.895	0.0179323
873.973	0.0180828
874.051	0.0182157
874.129	0.0181016
874.207	0.0180988
874.285	0.0181757
874.363	0.0181789
874.442	0.0181416
874.520	0.0180711
874.598	0.0182079
874.676	0.0182428
874.754	0.0180136
874.832	0.0179375
874.910	0.0179681
874.988	0.0180446
875.067	0.0179778
875.145	0.0178042
875.223	0.0178210
875.301	0.0177911
875.379	0.0178238
875.457	0.0177077
875.535	0.0175784
875.613	0.0175656
875.692	0.0175408
875.770	0.0174526
875.848	0.0174983
875.926	0.0176052
876.004	0.0174651
876.082	0.0175768
876.160	0.0175215
876.238	0.0175007
876.317	0.0175216
876.395	0.0175171
876.473	0.0175131
876.551	0.0176611
876.629	0.0174233
876.707	0.0175168
876.785	0.0175885
876.863	0.0174555
876.942	0.0174433
877.020	0.0175336
877.098	0.0175146
877.176	0.0175799
877.254	0.0177425
877.332	0.0175539
877.410	0.0174948
877.488	0.0176520
877.567	0.0176605
877.645	0.0176642
877.723	0.0178198
877.801	0.0179019
877.879	0.0179770
877.957	0.0180653
878.035	0.0178600
878.113	0.0181606
878.192	0.0182056
878.270	0.0181700
878.348	0.0181429
878.426	0.0180219
878.504	0.0181656
878.582	0.0182196
878.660	0.0181972
878.738	0.0180346
878.817	0.0178680
878.895	0.0180737
878.973	0.0179888
879.051	0.0177858
879.129	0.0178517
879.207	0.0177654
879.285	0.0176469
879.363	0.0175499
879.442	0.0175901
879.520	0.0174255
879.598	0.0174110
879.676	0.0174958
879.754	0.0174761
879.832	0.0174638
879.910	0.0174502
879.988	0.0172725
880.067	0.0173380
880.145	0.0173132
880.223	0.0173989
880.301	0.0174583
880.379	0.0172475
880.457	0.0173487
880.535	0.0175240
880.613	0.0174081
880.692	0.0174387
880.770	0.0174937
880.848	0.0175389
880.926	0.0177273
881.004	0.0176189
881.082	0.0176884
881.160	0.0179353
881.238	0.0177963
881.317	0.0178753
881.395	0.0178553
881.473	0.0178955
881.551	0.0179035
881.629	0.0179318
881.707	0.0179951
881.785	0.0180219
881.863	0.0180167
881.942	0.0179127
882.020	0.0179715
882.098	0.0178152
882.176	0.0179667
882.254	0.0177866
882.332	0.0178111
882.410	0.0179036
882.488	0.0176408
882.567	0.0177073
882.645	0.0175828
882.723	0.0175881
882.801	0.0177705
882.879	0.0178217
882.957	0.0178520
883.035	0.0178968
883.113	0.0180360
883.192	0.0181200
883.270	0.0181151
883.348	0.0182381
883.426	0.0182417
883.504	0.0182028
883.582	0.0181958
883.660	0.0183981
883.738	0.0183566
883.817	0.0183006
883.895	0.0182152
883.973	0.0183289
884.051	0.0183355
884.129	0.0181776
884.207	0.0181356
884.285	0.0180733
884.363	0.0178700
884.442	0.0176664
884.520	0.0176410
884.598	0.0175301
884.676	0.0172414
884.754	0.0171577
884.832	0.0170056
884.910	0.0169051
884.988	0.0166959
885.067	0.0166857
885.145	0.0166376
885.223	0.0166151
885.301	0.0165955
885.379	0.0167403
885.457	0.0167216
885.535	0.0166433
885.613	0.0167606
885.692	0.0168755
885.770	0.0169991
885.848	0.0171160
885.926	0.0171342
886.004	0.0173803
886.082	0.0177670
886.160	0.0177466
886.238	0.0180905
886.317	0.0183092
886.395	0.0185087
886.473	0.0188239
886.551	0.0189228
886.629	0.0192947
886.707	0.0193620
886.785	0.0194252
886.863	0.0195316
886.942	0.0194397
887.020	0.0194307
887.098	0.0193485
887.176	0.0191637
887.254	0.0190777
887.332	0.0188030
887.410	0.0188141
887.488	0.0186159
887.567	0.0182286
887.645	0.0181065
887.723	0.0178707
887.801	0.0174364
887.879	0.0170831
887.957	0.0167761
888.035	0.0164429
888.113	0.0161304
888.192	0.0158978
888.270	0.0156422
888.348	0.0153893
888.426	0.0152273
888.504	0.0152736
888.582	0.0152456
888.660	0.0153555
888.738	0.0153974
888.817	0.0156492
888.895	0.0159285
888.973	0.0161293
889.051	0.0164245
889.129	0.0168947
889.207	0.0171487
889.285	0.0174953
889.363	0.0180181
889.442	0.0182742
889.520	0.0186253
889.598	0.0188774
889.676	0.0192442
889.754	0.0195560
889.832	0.0198447
889.910	0.0200824
889.988	0.0201472
890.067	0.0203079
890.145	0.0202666
890.223	0.0203017
890.301	0.0200982
890.379	0.0200621
890.457	0.0198835
890.535	0.0195750
890.613	0.0193247
890.692	0.0188783
890.770	0.0188467
890.848	0.0184598
890.926	0.0180403
891.004	0.0176633
891.082	0.0174915
891.160	0.0170160
891.238	0.0167686
891.317	0.0166040
891.395	0.0162289
891.473	0.0161295
891.551	0.0158583
891.629	0.0156522
891.707	0.0155779
891.785	0.0154520
891.863	0.0154317
891.942	0.0153819
892.020	0.0155738
892.098	0.0157389
892.176	0.0159643
892.254	0.0160854
892.332	0.0163941
892.410	0.0165944
892.488	0.0167907
892.567	0.0170576
892.645	0.0173631
892.723	0.0175695
892.801	0.0179890
892.879	0.0180774
892.957	0.0184590
893.035	0.0186658
893.113	0.0188264
893.192	0.0188513
893.270	0.0190643
893.348	0.0192936
893.426	0.0193847
893.504	0.0193165
893.582	0.0193314
893.660	0.0194930
893.738	0.0192345
893.817	0.0192687
893.895	0.0192222
893.973	0.0189326
894.051	0.0186259
894.129	0.0183835
894.207	0.0182808
894.285	0.0178402
894.363	0.0176996
894.442	0.0174612
894.520	0.0172836
894.598	0.0172455
894.676	0.0170833
894.754	0.0169741
894.832	0.0169892
894.910	0.0167876
894.988	0.0169643
895.067	0.0169086
895.145	0.0170370
895.223	0.0169792
895.301	0.0171468
895.379	0.0171677
895.457	0.0173917
895.535	0.0173472
895.613	0.0173562
895.692	0.0172453
895.770	0.0173854
895.848	0.0175113
895.926	0.0175068
896.004	0.0173791
896.082	0.0174749
896.160	0.0175895
896.238	0.0175735
896.317	0.0177653
896.395	0.0176646
896.473	0.0178004
896.551	0.0179031
896.629	0.0178191
896.707	0.0178926
896.785	0.0179800
896.863	0.0182374
896.942	0.0181697
897.020	0.0181155
897.098	0.0181393
897.176	0.0182352
897.254	0.0182607
897.332	0.0182816
897.410	0.0182047
897.488	0.0181870
897.567	0.0180846
897.645	0.0180419
897.723	0.0181178
897.801	0.0178558
897.879	0.0179655
897.957	0.0177972
898.035	0.0177728
898.113	0.0176617
898.192	0.0176267
898.270	0.0174594
898.348	0.0175327
898.426	0.0175797
898.504	0.0175990
898.582	0.0175866
898.660	0.0176234
898.738	0.0176304
898.817	0.0175756
898.895	0.0176292
898.973	0.0175493
899.051	0.0176884
899.129	0.0177032
899.207	0.0176977
899.285	0.0176649
899.363	0.0177760
899.442	0.0177281
899.520	0.0176246
899.598	0.0176549
899.676	0.0178053
899.754	0.0176286
899.832	0.0178548
899.910	0.0177007
899.988	0.0177193
900.067	0.0177308
900.145	0.0179224
900.223	0.0176634
900.301	0.0177885
900.379	0.0178044
900.457	0.0176809
900.535	0.0177534
900.613	0.0178214
900.692	0.0176836
900.770	0.0177612
900.848	0.0177178
900.926	0.0177893
901.004	0.0178056
901.082	0.0179282
901.160	0.0177677
901.238	0.0177101
901.317	0.0177427
901.395	0.0178983
901.473	0.0178726
901.551	0.0177303
901.629	0.0177534
901.707	0.0179209
901.785	0.0178175
901.863	0.0176541
901.942	0.0177088
902.020	0.0176175
902.098	0.0174765
902.176	0.0175745
902.254	0.0178128
902.332	0.0175665
902.410	0.0175364
902.488	0.0177102
902.567	0.0176080
902.645	0.0175434
902.723	0.0177762
902.801	0.0178020
902.879	0.0178565
902.957	0.0180138
903.035	0.0179490
903.113	0.0180373
903.192	0.0180682
903.270	0.0180408
903.348	0.0179248
903.426	0.0179196
903.504	0.0178288
903.582	0.0176782
903.660	0.0177169
903.738	0.0176753
903.817	0.0175586
903.895	0.0173233
903.973	0.0173663
904.051	0.0172982
904.129	0.0172742
904.207	0.0174269
904.285	0.0173832
904.363	0.0173493
904.442	0.0173509
904.520	0.0173595
904.598	0.0175755
904.676	0.0175334
904.754	0.0174168
904.832	0.0175998
904.910	0.0177017
904.988	0.0176932
905.067	0.0176814
905.145	0.0178595
905.223	0.0178149
905.301	0.0177908
905.379	0.0178977
905.457	0.0178682
905.535	0.0178165
905.613	0.0179538
905.692	0.0179059
905.770	0.0179300
905.848	0.0178152
905.926	0.0179279
906.004	0.0178963
906.082	0.0179576
906.160	0.0180248
906.238	0.0180224
906.317	0.0180170
906.395	0.0180184
906.473	0.0179948
906.551	0.0180130
906.629	0.0179219
906.707	0.0179948
906.785	0.0177904
906.863	0.0175843
906.942	0.0177589
907.020	0.0178004
907.098	0.0176483
907.176	0.0175365
907.254	0.0176080
907.332	0.0173851
907.410	0.0173242
907.488	0.0175270
907.567	0.0175209
907.645	0.0174400
907.723	0.0174356
907.801	0.0174786
907.879	0.0175166
907.957	0.0175815
908.035	0.0177274
908.113	0.0176273
908.192	0.0174706
908.270	0.0177085
908.348	0.0178272
908.426	0.0177657
908.504	0.0177517
908.582	0.0177338
908.660	0.0178423
908.738	0.0178661
908.817	0.0177163
908.895	0.0176269
908.973	0.0176332
909.051	0.0175937
909.129	0.0175298
909.207	0.0176591
909.285	0.0176738
909.363	0.0175534
909.442	0.0175569
909.520	0.0176666
909.598	0.0178384
909.676	0.0176877
909.754	0.0177940
909.832	0.0179286
909.910	0.0180467
909.988	0.0179935
910.067	0.0179440
910.145	0.0181007
910.223	0.0180723
910.301	0.0180096
910.379	0.0181326
910.457	0.0180525
910.535	0.0181184
910.613	0.0180614
910.692	0.0179689
910.770	0.0179261
910.848	0.0177660
910.926	0.0177088
911.004	0.0176729
911.082	0.0176650
911.160	0.0176325
911.238	0.0176525
911.317	0.0176081
911.395	0.0175022
911.473	0.0175678
911.551	0.0175939
911.629	0.0175555
911.707	0.0174532
911.785	0.0175466
911.863	0.0176034
911.942	0.0176759
912.020	0.0175744
912.098	0.0174637
912.176	0.0175509
912.254	0.0175518
912.332	0.0175420
912.410	0.0174314
912.488	0.0173787
912.567	0.0175240
912.645	0.0173587
912.723	0.0173479
912.801	0.0173376
912.879	0.0176233
912.957	0.0175389
913.035	0.0175565
913.113	0.0176225
913.192	0.0176115
913.270	0.0177483
913.348	0.0177235
913.426	0.0176710
913.504	0.0178136
913.582	0.0177585
913.660	0.0179055
913.738	0.0178973
913.817	0.0178647
913.895	0.0180672
913.973	0.0179977
914.051	0.0178747
914.129	0.0180520
914.207	0.0179286
914.285	0.0179041
914.363	0.0179707
914.442	0.0180370
914.520	0.0178787
914.598	0.0179807
914.676	0.0179835
914.754	0.0179517
914.832	0.0180061
914.910	0.0179422
914.988	0.0178313
915.067	0.0179137
915.145	0.0179741
915.223	0.0179784
915.301	0.0178941
915.379	0.0178006
915.457	0.0177087
915.535	0.0178191
915.613	0.0178094
915.692	0.0177251
915.770	0.0176217
915.848	0.0177919
915.926	0.0177772
916.004	0.0177174
916.082	0.0177087
916.160	0.0176914
916.238	0.0177108
916.317	0.0177190
916.395	0.0177417
916.473	0.0176221
916.551	0.0176224
916.629	0.0176844
916.707	0.0175613
916.785	0.0175067
916.863	0.0175179
916.942	0.0173981
917.020	0.0173764
917.098	0.0173175
917.176	0.0174699
917.254	0.0173035
917.332	0.0173846
917.410	0.0173486
917.488	0.0174734
917.567	0.0173500
917.645	0.0173671
917.723	0.0174161
917.801	0.0173551
917.879	0.0174489
917.957	0.0174293
918.035	0.0174366
918.113	0.0174935
918.192	0.0175437
918.270	0.0177488
918.348	0.0177220
918.426	0.0178004
918.504	0.0177974
918.582	0.0177615
918.660	0.0179698
918.738	0.0179816
918.817	0.0180885
918.895	0.0180480
918.973	0.0180541
919.051	0.0181911
919.129	0.0181547
919.207	0.0182320
919.285	0.0181229
919.363	0.0180767
919.442	0.0182050
919.520	0.0181609
919.598	0.0181500
919.676	0.0180019
919.754	0.0180428
919.832	0.0180978
919.910	0.0179664
