06/01/2022	21:37:47	Ver.	4.1	UNKNOWN
Optical Delay	599.988409	Delta X		0.078125	Sweeps	1	Scan Rate	0/0
Coordinates	Axis 1	NaN	Axis 2	NaN	Axis 3	NaN	Axis 4	NaN	Axis 5	NaN	Axis 6	0.000000
TX Power	0.000000	RX Power	0.000000

599.988	0.0179524
600.067	0.0179862
600.145	0.0180431
600.223	0.0179639
600.301	0.0178471
600.379	0.0180266
600.457	0.0179779
600.535	0.0179735
600.613	0.0180674
600.692	0.0179764
600.770	0.0178465
600.848	0.0179471
600.926	0.0181325
601.004	0.0180058
601.082	0.0179797
601.160	0.0179545
601.238	0.0179255
601.317	0.0180659
601.395	0.0178298
601.473	0.0179682
601.551	0.0179781
601.629	0.0179820
601.707	0.0178442
601.785	0.0179584
601.863	0.0180692
601.942	0.0179867
602.020	0.0178847
602.098	0.0179170
602.176	0.0179121
602.254	0.0180305
602.332	0.0178350
602.410	0.0180019
602.488	0.0179980
602.567	0.0178693
602.645	0.0179121
602.723	0.0177932
602.801	0.0178951
602.879	0.0179395
602.957	0.0178926
603.035	0.0179173
603.113	0.0179731
603.192	0.0180087
603.270	0.0180128
603.348	0.0180809
603.426	0.0180321
603.504	0.0179962
603.582	0.0179757
603.660	0.0178896
603.738	0.0180085
603.817	0.0179713
603.895	0.0179673
603.973	0.0179618
604.051	0.0180289
604.129	0.0180183
604.207	0.0179691
604.285	0.0180170
604.363	0.0179832
604.442	0.0179855
604.520	0.0179117
604.598	0.0180270
604.676	0.0179681
604.754	0.0178369
604.832	0.0179965
604.910	0.0180459
604.988	0.0181635
605.067	0.0180254
605.145	0.0180521
605.223	0.0179977
605.301	0.0179310
605.379	0.0178605
605.457	0.0178893
605.535	0.0179301
605.613	0.0180215
605.692	0.0179873
605.770	0.0179477
605.848	0.0178679
605.926	0.0180649
606.004	0.0180135
606.082	0.0179918
606.160	0.0180414
606.238	0.0180255
606.317	0.0179852
606.395	0.0179937
606.473	0.0179033
606.551	0.0180576
606.629	0.0179182
606.707	0.0180291
606.785	0.0179258
606.863	0.0179584
606.942	0.0178162
607.020	0.0180397
607.098	0.0179980
607.176	0.0178862
607.254	0.0179361
607.332	0.0179825
607.410	0.0179917
607.488	0.0179913
607.567	0.0180643
607.645	0.0180013
607.723	0.0178384
607.801	0.0179207
607.879	0.0179214
607.957	0.0179835
608.035	0.0179153
608.113	0.0180611
608.192	0.0179955
608.270	0.0179628
608.348	0.0178799
608.426	0.0178461
608.504	0.0179332
608.582	0.0178117
608.660	0.0179457
608.738	0.0179361
608.817	0.0179325
608.895	0.0179416
608.973	0.0179301
609.051	0.0179435
609.129	0.0178451
609.207	0.0179209
609.285	0.0179732
609.363	0.0179253
609.442	0.0179558
609.520	0.0179373
609.598	0.0179818
609.676	0.0180574
609.754	0.0179037
609.832	0.0179247
609.910	0.0179311
609.988	0.0180717
610.067	0.0179966
610.145	0.0180225
610.223	0.0179913
610.301	0.0179644
610.379	0.0180318
610.457	0.0180785
610.535	0.0181213
610.613	0.0180453
610.692	0.0179049
610.770	0.0181528
610.848	0.0180739
610.926	0.0180915
611.004	0.0178615
611.082	0.0179652
611.160	0.0180068
611.238	0.0179778
611.317	0.0179730
611.395	0.0180628
611.473	0.0180789
611.551	0.0179714
611.629	0.0179358
611.707	0.0178747
611.785	0.0179052
611.863	0.0180487
611.942	0.0179722
612.020	0.0180088
612.098	0.0181274
612.176	0.0179546
612.254	0.0180335
612.332	0.0179936
612.410	0.0178587
612.488	0.0180952
612.567	0.0182034
612.645	0.0181329
612.723	0.0180618
612.801	0.0179459
612.879	0.0181479
612.957	0.0180717
613.035	0.0181141
613.113	0.0179395
613.192	0.0179346
613.270	0.0180087
613.348	0.0181286
613.426	0.0179558
613.504	0.0179771
613.582	0.0179797
613.660	0.0179718
613.738	0.0179393
613.817	0.0179797
613.895	0.0178680
613.973	0.0179601
614.051	0.0179061
614.129	0.0178608
614.207	0.0178496
614.285	0.0178870
614.363	0.0178986
614.442	0.0177461
614.520	0.0178972
614.598	0.0178477
614.676	0.0178056
614.754	0.0178368
614.832	0.0179383
614.910	0.0179866
614.988	0.0178917
615.067	0.0178994
615.145	0.0178707
615.223	0.0179865
615.301	0.0181332
615.379	0.0180725
615.457	0.0179299
615.535	0.0179341
615.613	0.0180698
615.692	0.0180732
615.770	0.0180813
615.848	0.0180179
615.926	0.0180280
616.004	0.0181745
616.082	0.0180547
616.160	0.0179852
616.238	0.0181134
616.317	0.0181473
616.395	0.0180054
616.473	0.0180065
616.551	0.0179838
616.629	0.0180463
616.707	0.0179919
616.785	0.0179633
616.863	0.0179921
616.942	0.0179105
617.020	0.0179799
617.098	0.0178880
617.176	0.0178455
617.254	0.0178347
617.332	0.0178603
617.410	0.0180341
617.488	0.0179515
617.567	0.0177776
617.645	0.0177978
617.723	0.0177835
617.801	0.0178160
617.879	0.0177324
617.957	0.0178307
618.035	0.0179615
618.113	0.0178463
618.192	0.0179333
618.270	0.0180898
618.348	0.0179246
618.426	0.0179830
618.504	0.0179818
618.582	0.0180891
618.660	0.0180029
618.738	0.0180089
618.817	0.0180750
618.895	0.0180914
618.973	0.0181495
619.051	0.0180417
619.129	0.0179736
619.207	0.0181166
619.285	0.0180434
619.363	0.0181713
619.442	0.0180574
619.520	0.0181748
619.598	0.0180483
619.676	0.0181087
619.754	0.0180454
619.832	0.0181152
619.910	0.0180461
619.988	0.0179832
620.067	0.0179598
620.145	0.0180096
620.223	0.0180208
620.301	0.0179581
620.379	0.0178065
620.457	0.0179972
620.535	0.0179619
620.613	0.0179475
620.692	0.0178137
620.770	0.0178048
620.848	0.0178271
620.926	0.0179598
621.004	0.0178162
621.082	0.0178033
621.160	0.0178999
621.238	0.0178817
621.317	0.0179236
621.395	0.0178633
621.473	0.0179312
621.551	0.0178030
621.629	0.0178986
621.707	0.0179069
621.785	0.0178807
621.863	0.0179976
621.942	0.0179211
622.020	0.0180087
622.098	0.0178677
622.176	0.0179707
622.254	0.0179552
622.332	0.0181325
622.410	0.0180927
622.488	0.0179279
622.567	0.0181144
622.645	0.0181232
622.723	0.0181083
622.801	0.0180863
622.879	0.0181329
622.957	0.0181000
623.035	0.0180784
623.113	0.0180665
623.192	0.0181367
623.270	0.0180673
623.348	0.0179597
623.426	0.0179803
623.504	0.0180199
623.582	0.0180150
623.660	0.0180596
623.738	0.0180058
623.817	0.0179539
623.895	0.0180234
623.973	0.0179553
624.051	0.0179996
624.129	0.0179650
624.207	0.0179216
624.285	0.0179162
624.363	0.0179632
624.442	0.0178419
624.520	0.0180714
624.598	0.0179641
624.676	0.0178300
624.754	0.0179584
624.832	0.0179428
624.910	0.0180853
624.988	0.0180907
625.067	0.0179692
625.145	0.0178588
625.223	0.0179428
625.301	0.0180355
625.379	0.0179865
625.457	0.0179302
625.535	0.0179900
625.613	0.0180515
625.692	0.0179774
625.770	0.0180531
625.848	0.0179592
625.926	0.0179824
626.004	0.0179120
626.082	0.0179436
626.160	0.0180193
626.238	0.0178802
626.317	0.0180102
626.395	0.0179604
626.473	0.0179474
626.551	0.0180792
626.629	0.0179708
626.707	0.0180010
626.785	0.0179561
626.863	0.0179931
626.942	0.0179665
627.020	0.0179558
627.098	0.0180444
627.176	0.0180347
627.254	0.0181039
627.332	0.0177864
627.410	0.0179139
627.488	0.0180052
627.567	0.0179799
627.645	0.0180260
627.723	0.0179304
627.801	0.0179797
627.879	0.0179948
627.957	0.0179716
628.035	0.0180076
628.113	0.0180356
628.192	0.0178239
628.270	0.0178848
628.348	0.0179929
628.426	0.0180425
628.504	0.0181015
628.582	0.0179605
628.660	0.0179422
628.738	0.0180461
628.817	0.0181108
628.895	0.0179414
628.973	0.0179843
629.051	0.0180745
629.129	0.0179051
629.207	0.0178934
629.285	0.0179750
629.363	0.0180691
629.442	0.0180222
629.520	0.0179625
629.598	0.0178521
629.676	0.0180763
629.754	0.0180582
629.832	0.0179560
629.910	0.0178812
629.988	0.0178857
630.067	0.0180125
630.145	0.0180476
630.223	0.0179303
630.301	0.0179716
630.379	0.0180267
630.457	0.0179514
630.535	0.0179681
630.613	0.0178481
630.692	0.0179613
630.770	0.0179533
630.848	0.0178828
630.926	0.0178239
631.004	0.0178603
631.082	0.0178749
631.160	0.0179225
631.238	0.0180843
631.317	0.0177882
631.395	0.0178298
631.473	0.0179966
631.551	0.0179587
631.629	0.0179166
631.707	0.0180025
631.785	0.0179703
631.863	0.0179827
631.942	0.0180328
632.020	0.0179591
632.098	0.0179436
632.176	0.0178979
632.254	0.0180357
632.332	0.0179332
632.410	0.0180096
632.488	0.0180260
632.567	0.0178914
632.645	0.0181064
632.723	0.0179961
632.801	0.0179700
632.879	0.0179546
632.957	0.0179561
633.035	0.0179182
633.113	0.0179448
633.192	0.0179753
633.270	0.0180363
633.348	0.0181511
633.426	0.0180312
633.504	0.0179616
633.582	0.0180284
633.660	0.0179518
633.738	0.0179800
633.817	0.0180520
633.895	0.0179726
633.973	0.0180708
634.051	0.0180392
634.129	0.0179379
634.207	0.0181111
634.285	0.0180786
634.363	0.0178639
634.442	0.0179266
634.520	0.0181245
634.598	0.0178556
634.676	0.0179943
634.754	0.0181088
634.832	0.0179978
634.910	0.0180511
634.988	0.0180565
635.067	0.0180795
635.145	0.0180000
635.223	0.0179447
635.301	0.0179826
635.379	0.0181225
635.457	0.0180733
635.535	0.0180663
635.613	0.0180624
635.692	0.0180478
635.770	0.0179462
635.848	0.0180094
635.926	0.0180022
636.004	0.0179605
636.082	0.0179913
636.160	0.0180247
636.238	0.0180492
636.317	0.0179427
636.395	0.0178902
636.473	0.0179726
636.551	0.0179735
636.629	0.0179886
636.707	0.0179900
636.785	0.0179323
636.863	0.0179192
636.942	0.0179986
637.020	0.0179367
637.098	0.0179146
637.176	0.0179900
637.254	0.0180048
637.332	0.0180072
637.410	0.0180093
637.488	0.0179726
637.567	0.0180025
637.645	0.0180055
637.723	0.0179102
637.801	0.0180968
637.879	0.0179630
637.957	0.0179385
638.035	0.0179428
638.113	0.0179726
638.192	0.0179323
638.270	0.0180708
638.348	0.0180161
638.426	0.0179307
638.504	0.0179225
638.582	0.0179908
638.660	0.0182532
638.738	0.0179666
638.817	0.0180136
638.895	0.0178980
638.973	0.0179044
639.051	0.0179263
639.129	0.0180956
639.207	0.0180086
639.285	0.0179807
639.363	0.0178227
639.442	0.0178126
639.520	0.0178484
639.598	0.0179424
639.676	0.0179891
639.754	0.0179202
639.832	0.0180173
639.910	0.0179562
639.988	0.0178448
640.067	0.0180780
640.145	0.0178894
640.223	0.0179283
640.301	0.0179994
640.379	0.0180402
640.457	0.0179330
640.535	0.0179176
640.613	0.0179891
640.692	0.0179633
640.770	0.0178094
640.848	0.0180574
640.926	0.0178737
641.004	0.0178285
641.082	0.0178115
641.160	0.0179935
641.238	0.0180746
641.317	0.0180304
641.395	0.0180788
641.473	0.0179137
641.551	0.0178909
641.629	0.0179584
641.707	0.0180587
641.785	0.0178326
641.863	0.0178757
641.942	0.0181699
642.020	0.0179771
642.098	0.0179989
642.176	0.0179109
642.254	0.0179388
642.332	0.0178859
642.410	0.0179617
642.488	0.0180067
642.567	0.0179482
642.645	0.0181413
642.723	0.0180196
642.801	0.0179144
642.879	0.0179802
642.957	0.0179097
643.035	0.0180126
643.113	0.0179317
643.192	0.0179304
643.270	0.0180724
643.348	0.0179704
643.426	0.0179284
643.504	0.0180005
643.582	0.0179005
643.660	0.0179577
643.738	0.0179436
643.817	0.0178801
643.895	0.0179704
643.973	0.0179729
644.051	0.0179669
644.129	0.0179161
644.207	0.0179053
644.285	0.0179299
644.363	0.0179904
644.442	0.0180824
644.520	0.0179890
644.598	0.0179262
644.676	0.0180525
644.754	0.0180244
644.832	0.0180249
644.910	0.0179195
644.988	0.0179132
645.067	0.0179925
645.145	0.0179483
645.223	0.0180493
645.301	0.0180061
645.379	0.0180259
645.457	0.0179686
645.535	0.0178771
645.613	0.0179635
645.692	0.0179849
645.770	0.0179557
645.848	0.0179106
645.926	0.0179079
646.004	0.0181122
646.082	0.0180479
646.160	0.0178246
646.238	0.0178607
646.317	0.0180675
646.395	0.0180290
646.473	0.0180099
646.551	0.0180446
646.629	0.0179073
646.707	0.0179181
646.785	0.0179710
646.863	0.0178672
646.942	0.0179906
647.020	0.0180379
647.098	0.0179890
647.176	0.0179306
647.254	0.0179214
647.332	0.0179638
647.410	0.0180271
647.488	0.0178931
647.567	0.0178741
647.645	0.0179910
647.723	0.0180437
647.801	0.0180769
647.879	0.0178475
647.957	0.0178754
648.035	0.0178526
648.113	0.0179783
648.192	0.0179729
648.270	0.0179726
648.348	0.0179736
648.426	0.0179771
648.504	0.0179652
648.582	0.0179606
648.660	0.0179243
648.738	0.0179266
648.817	0.0181165
648.895	0.0179031
648.973	0.0179665
649.051	0.0180958
649.129	0.0178831
649.207	0.0178945
649.285	0.0178878
649.363	0.0180119
649.442	0.0180282
649.520	0.0178536
649.598	0.0180191
649.676	0.0179651
649.754	0.0180019
649.832	0.0178744
649.910	0.0179559
649.988	0.0180006
650.067	0.0179105
650.145	0.0179121
650.223	0.0180427
650.301	0.0179222
650.379	0.0178786
650.457	0.0179937
650.535	0.0179579
650.613	0.0179877
650.692	0.0178580
650.770	0.0179408
650.848	0.0181104
650.926	0.0179078
651.004	0.0179498
651.082	0.0179289
651.160	0.0180070
651.238	0.0180650
651.317	0.0178761
651.395	0.0179190
651.473	0.0179656
651.551	0.0179282
651.629	0.0179877
651.707	0.0179785
651.785	0.0179560
651.863	0.0178835
651.942	0.0180883
652.020	0.0179321
652.098	0.0180128
652.176	0.0179788
652.254	0.0180907
652.332	0.0180402
652.410	0.0179520
652.488	0.0179290
652.567	0.0180247
652.645	0.0180262
652.723	0.0179065
652.801	0.0180215
652.879	0.0178526
652.957	0.0181397
653.035	0.0179350
653.113	0.0179572
653.192	0.0179485
653.270	0.0179965
653.348	0.0178913
653.426	0.0179929
653.504	0.0180109
653.582	0.0178262
653.660	0.0178638
653.738	0.0178465
653.817	0.0180641
653.895	0.0179376
653.973	0.0178356
654.051	0.0179504
654.129	0.0178430
654.207	0.0178635
654.285	0.0180277
654.363	0.0178887
654.442	0.0179607
654.520	0.0180524
654.598	0.0178848
654.676	0.0178813
654.754	0.0178622
654.832	0.0179274
654.910	0.0179453
654.988	0.0180046
655.067	0.0180138
655.145	0.0180173
655.223	0.0179123
655.301	0.0179021
655.379	0.0180684
655.457	0.0178486
655.535	0.0179199
655.613	0.0179067
655.692	0.0181027
655.770	0.0180578
655.848	0.0179741
655.926	0.0179352
656.004	0.0179965
656.082	0.0180019
656.160	0.0179667
656.238	0.0179638
656.317	0.0179763
656.395	0.0180434
656.473	0.0180004
656.551	0.0180698
656.629	0.0179354
656.707	0.0178932
656.785	0.0177721
656.863	0.0179839
656.942	0.0179551
657.020	0.0178410
657.098	0.0179837
657.176	0.0179591
657.254	0.0179823
657.332	0.0179622
657.410	0.0180219
657.488	0.0178358
657.567	0.0179312
657.645	0.0179929
657.723	0.0179130
657.801	0.0179230
657.879	0.0179310
657.957	0.0179994
658.035	0.0179807
658.113	0.0180274
658.192	0.0178966
658.270	0.0179406
658.348	0.0179591
658.426	0.0179114
658.504	0.0179328
658.582	0.0180151
658.660	0.0180370
658.738	0.0179668
658.817	0.0179420
658.895	0.0180152
658.973	0.0179038
659.051	0.0178825
659.129	0.0178628
659.207	0.0179931
659.285	0.0179646
659.363	0.0179663
659.442	0.0179804
659.520	0.0180592
659.598	0.0178261
659.676	0.0179501
659.754	0.0179591
659.832	0.0180036
659.910	0.0178348
659.988	0.0179675
660.067	0.0180314
660.145	0.0178337
660.223	0.0179750
660.301	0.0179466
660.379	0.0179249
660.457	0.0179416
660.535	0.0178890
660.613	0.0179536
660.692	0.0180000
660.770	0.0180080
660.848	0.0179894
660.926	0.0180486
661.004	0.0180016
661.082	0.0178066
661.160	0.0180259
661.238	0.0180367
661.317	0.0179993
661.395	0.0179632
661.473	0.0179187
661.551	0.0180228
661.629	0.0179727
661.707	0.0178406
661.785	0.0179358
661.863	0.0179395
661.942	0.0181628
662.020	0.0180607
662.098	0.0179218
662.176	0.0179685
662.254	0.0180549
662.332	0.0178996
662.410	0.0178211
662.488	0.0180110
662.567	0.0180148
662.645	0.0179511
662.723	0.0179901
662.801	0.0180205
662.879	0.0179729
662.957	0.0181258
663.035	0.0179945
663.113	0.0180204
663.192	0.0178754
663.270	0.0179331
663.348	0.0178985
663.426	0.0179538
663.504	0.0179488
663.582	0.0180572
663.660	0.0180441
663.738	0.0179603
663.817	0.0178304
663.895	0.0180906
663.973	0.0180201
664.051	0.0178767
664.129	0.0179475
664.207	0.0180598
664.285	0.0179980
664.363	0.0179938
664.442	0.0180022
664.520	0.0179424
664.598	0.0180390
664.676	0.0179633
664.754	0.0179282
664.832	0.0180249
664.910	0.0180663
664.988	0.0180379
665.067	0.0179492
665.145	0.0179960
665.223	0.0180283
665.301	0.0180849
665.379	0.0180484
665.457	0.0180927
665.535	0.0179452
665.613	0.0179912
665.692	0.0179607
665.770	0.0178677
665.848	0.0179372
665.926	0.0179131
666.004	0.0179401
666.082	0.0180342
666.160	0.0180909
666.238	0.0179742
666.317	0.0179855
666.395	0.0180026
666.473	0.0179764
666.551	0.0179617
666.629	0.0181053
666.707	0.0180790
666.785	0.0179137
666.863	0.0180376
666.942	0.0180554
667.020	0.0179889
667.098	0.0179837
667.176	0.0181200
667.254	0.0179650
667.332	0.0179939
667.410	0.0179785
667.488	0.0178854
667.567	0.0179890
667.645	0.0179429
667.723	0.0179150
667.801	0.0179855
667.879	0.0180718
667.957	0.0178387
668.035	0.0179570
668.113	0.0179771
668.192	0.0180016
668.270	0.0179083
668.348	0.0178963
668.426	0.0178392
668.504	0.0178280
668.582	0.0180368
668.660	0.0179636
668.738	0.0180423
668.817	0.0178350
668.895	0.0178589
668.973	0.0178980
669.051	0.0179543
669.129	0.0179578
669.207	0.0179813
669.285	0.0178640
669.363	0.0180118
669.442	0.0179011
669.520	0.0179308
669.598	0.0179092
669.676	0.0178652
669.754	0.0179987
669.832	0.0180480
669.910	0.0179105
669.988	0.0180141
670.067	0.0179893
670.145	0.0180021
670.223	0.0179990
670.301	0.0180264
670.379	0.0178596
670.457	0.0179533
670.535	0.0179602
670.613	0.0179913
670.692	0.0180982
670.770	0.0180512
670.848	0.0178978
670.926	0.0179336
671.004	0.0178664
671.082	0.0179996
671.160	0.0179848
671.238	0.0180613
671.317	0.0180297
671.395	0.0179438
671.473	0.0180267
671.551	0.0179546
671.629	0.0178490
671.707	0.0178898
671.785	0.0179271
671.863	0.0179377
671.942	0.0178535
672.020	0.0178479
672.098	0.0177827
672.176	0.0179382
672.254	0.0179123
672.332	0.0179968
672.410	0.0179552
672.488	0.0179424
672.567	0.0179396
672.645	0.0179967
672.723	0.0179858
672.801	0.0179899
672.879	0.0179459
672.957	0.0179247
673.035	0.0179002
673.113	0.0180021
673.192	0.0180463
673.270	0.0178852
673.348	0.0180781
673.426	0.0180103
673.504	0.0180666
673.582	0.0180573
673.660	0.0178451
673.738	0.0178476
673.817	0.0179692
673.895	0.0180637
673.973	0.0179852
674.051	0.0179893
674.129	0.0179286
674.207	0.0177932
674.285	0.0177822
674.363	0.0178743
674.442	0.0180418
674.520	0.0179450
674.598	0.0179153
674.676	0.0179558
674.754	0.0179362
674.832	0.0179891
674.910	0.0179429
674.988	0.0179417
675.067	0.0179432
675.145	0.0180076
675.223	0.0179433
675.301	0.0179486
675.379	0.0178523
675.457	0.0179790
675.535	0.0179430
675.613	0.0179662
675.692	0.0178587
675.770	0.0178922
675.848	0.0180460
675.926	0.0178147
676.004	0.0178886
676.082	0.0180997
676.160	0.0180838
676.238	0.0180712
676.317	0.0180195
676.395	0.0178836
676.473	0.0179362
676.551	0.0179453
676.629	0.0180043
676.707	0.0179194
676.785	0.0178869
676.863	0.0178793
676.942	0.0180096
677.020	0.0180009
677.098	0.0179250
677.176	0.0179845
677.254	0.0178850
677.332	0.0179352
677.410	0.0180589
677.488	0.0179408
677.567	0.0180632
677.645	0.0179444
677.723	0.0178412
677.801	0.0180038
677.879	0.0179379
677.957	0.0178728
678.035	0.0179196
678.113	0.0179956
678.192	0.0179980
678.270	0.0178878
678.348	0.0179581
678.426	0.0179520
678.504	0.0178747
678.582	0.0179848
678.660	0.0178941
678.738	0.0179305
678.817	0.0177843
678.895	0.0179347
678.973	0.0178963
679.051	0.0179810
679.129	0.0179324
679.207	0.0178588
679.285	0.0178698
679.363	0.0180118
679.442	0.0180221
679.520	0.0179999
679.598	0.0177785
679.676	0.0178920
679.754	0.0180494
679.832	0.0180173
679.910	0.0178867
679.988	0.0178802
680.067	0.0179931
680.145	0.0180116
680.223	0.0178819
680.301	0.0179446
680.379	0.0180775
680.457	0.0180599
680.535	0.0179956
680.613	0.0180402
680.692	0.0180283
680.770	0.0180042
680.848	0.0180962
680.926	0.0179067
681.004	0.0179131
681.082	0.0180502
681.160	0.0179396
681.238	0.0178216
681.317	0.0178524
681.395	0.0178408
681.473	0.0178129
681.551	0.0177228
681.629	0.0178801
681.707	0.0179115
681.785	0.0179561
681.863	0.0179344
681.942	0.0178914
682.020	0.0179308
682.098	0.0179494
682.176	0.0178648
682.254	0.0180777
682.332	0.0179695
682.410	0.0180424
682.488	0.0179829
682.567	0.0181116
682.645	0.0180254
682.723	0.0178447
682.801	0.0178761
682.879	0.0179217
682.957	0.0180597
683.035	0.0178715
683.113	0.0179153
683.192	0.0177537
683.270	0.0178624
683.348	0.0178345
683.426	0.0178867
683.504	0.0179333
683.582	0.0179759
683.660	0.0181066
683.738	0.0179281
683.817	0.0180157
683.895	0.0181921
683.973	0.0182747
684.051	0.0182363
684.129	0.0182948
684.207	0.0183041
684.285	0.0184230
684.363	0.0183260
684.442	0.0183697
684.520	0.0183507
684.598	0.0181876
684.676	0.0182434
684.754	0.0179410
684.832	0.0179459
684.910	0.0179288
684.988	0.0175031
685.067	0.0174981
685.145	0.0174959
685.223	0.0172775
685.301	0.0172565
685.379	0.0172572
685.457	0.0174554
685.535	0.0173745
685.613	0.0173348
685.692	0.0174962
685.770	0.0178616
685.848	0.0178749
685.926	0.0177420
686.004	0.0179802
686.082	0.0180976
686.160	0.0181924
686.238	0.0181327
686.317	0.0183273
686.395	0.0182992
686.473	0.0184048
686.551	0.0183443
686.629	0.0182404
686.707	0.0183269
686.785	0.0184297
686.863	0.0181793
686.942	0.0182358
687.020	0.0181312
687.098	0.0180411
687.176	0.0180801
687.254	0.0179630
687.332	0.0178555
687.410	0.0175961
687.488	0.0176370
687.567	0.0174648
687.645	0.0174086
687.723	0.0173285
687.801	0.0174899
687.879	0.0173812
687.957	0.0174991
688.035	0.0174387
688.113	0.0176423
688.192	0.0178406
688.270	0.0177457
688.348	0.0177882
688.426	0.0178960
688.504	0.0180250
688.582	0.0182174
688.660	0.0183927
688.738	0.0186264
688.817	0.0186496
688.895	0.0189906
688.973	0.0191200
689.051	0.0193811
689.129	0.0194267
689.207	0.0195693
689.285	0.0197052
689.363	0.0197784
689.442	0.0196523
689.520	0.0196226
689.598	0.0194228
689.676	0.0190932
689.754	0.0189368
689.832	0.0186772
689.910	0.0181392
689.988	0.0176067
690.067	0.0171131
690.145	0.0163230
690.223	0.0157402
690.301	0.0152534
690.379	0.0146873
690.457	0.0142060
690.535	0.0139147
690.613	0.0134132
690.692	0.0133996
690.770	0.0132681
690.848	0.0133513
690.926	0.0136543
691.004	0.0140240
691.082	0.0144261
691.160	0.0151110
691.238	0.0159167
691.317	0.0167561
691.395	0.0177076
691.473	0.0188089
691.551	0.0199231
691.629	0.0213846
691.707	0.0226819
691.785	0.0239145
691.863	0.0255798
691.942	0.0267542
692.020	0.0276921
692.098	0.0284316
692.176	0.0291918
692.254	0.0292191
692.332	0.0290222
692.410	0.0285118
692.488	0.0272078
692.567	0.0258549
692.645	0.0241077
692.723	0.0220294
692.801	0.0197562
692.879	0.0174384
692.957	0.0151272
693.035	0.0127557
693.113	0.0106478
693.192	0.00868568
693.270	0.00683914
693.348	0.00519463
693.426	0.00396484
693.504	0.00280411
693.582	0.00221230
693.660	0.00174225
693.738	0.00172432
693.817	0.00216629
693.895	0.00288055
693.973	0.00416611
694.051	0.00586769
694.129	0.00786003
694.207	0.0102576
694.285	0.0131501
694.363	0.0159456
694.442	0.0187298
694.520	0.0217490
694.598	0.0243818
694.676	0.0268207
694.754	0.0289266
694.832	0.0307692
694.910	0.0323444
694.988	0.0335037
695.067	0.0344682
695.145	0.0351295
695.223	0.0359459
695.301	0.0363889
695.379	0.0365885
695.457	0.0364204
695.535	0.0360803
695.613	0.0356300
695.692	0.0346922
695.770	0.0333600
695.848	0.0316859
695.926	0.0292754
696.004	0.0267976
696.082	0.0238654
696.160	0.0205499
696.238	0.0169036
696.317	0.0129144
696.395	0.00902168
696.473	0.00518608
696.551	0.00147598
696.629	-0.00171974
696.707	-0.00477180
696.785	-0.00719131
696.863	-0.00907425
696.942	-0.0104434
697.020	-0.0111285
697.098	-0.0112658
697.176	-0.0107204
697.254	-0.00918526
697.332	-0.00725357
697.410	-0.00463951
697.488	-0.00125824
697.567	0.00257980
697.645	0.00675209
697.723	0.0115311
697.801	0.0162309
697.879	0.0209268
697.957	0.0255443
698.035	0.0298217
698.113	0.0337647
698.192	0.0373172
698.270	0.0402216
698.348	0.0427874
698.426	0.0444487
698.504	0.0456720
698.582	0.0462793
698.660	0.0465510
698.738	0.0459241
698.817	0.0449892
698.895	0.0437779
698.973	0.0421946
699.051	0.0403020
699.129	0.0382115
699.207	0.0356725
699.285	0.0330093
699.363	0.0300429
699.442	0.0266467
699.520	0.0232204
699.598	0.0194127
699.676	0.0156514
699.754	0.0119513
699.832	0.00812668
699.910	0.00448631
699.988	0.000936050
700.067	-0.00199089
700.145	-0.00454384
700.223	-0.00689522
700.301	-0.00865906
700.379	-0.00987846
700.457	-0.0105493
700.535	-0.0106805
700.613	-0.0101679
700.692	-0.00911591
700.770	-0.00757607
700.848	-0.00548157
700.926	-0.00285316
701.004	0.000157242
701.082	0.00341896
701.160	0.00708664
701.238	0.0109023
701.317	0.0145903
701.395	0.0185388
701.473	0.0223949
701.551	0.0256918
701.629	0.0289698
701.707	0.0318396
701.785	0.0343298
701.863	0.0364362
701.942	0.0382233
702.020	0.0393123
702.098	0.0401836
702.176	0.0404376
702.254	0.0403208
702.332	0.0398101
702.410	0.0388670
702.488	0.0378061
702.567	0.0363573
702.645	0.0346408
702.723	0.0325777
702.801	0.0303809
702.879	0.0281463
702.957	0.0256750
703.035	0.0231688
703.113	0.0207083
703.192	0.0183303
703.270	0.0158414
703.348	0.0135436
703.426	0.0115235
703.504	0.00972534
703.582	0.00826614
703.660	0.00687065
703.738	0.00592010
703.817	0.00505135
703.895	0.00477287
703.973	0.00463097
704.051	0.00483116
704.129	0.00526047
704.207	0.00579819
704.285	0.00677567
704.363	0.00770355
704.442	0.00869804
704.520	0.00985077
704.598	0.0111049
704.676	0.0122493
704.754	0.0134549
704.832	0.0146144
704.910	0.0157537
704.988	0.0168506
705.067	0.0179115
705.145	0.0186665
705.223	0.0195198
705.301	0.0205091
705.379	0.0211785
705.457	0.0216847
705.535	0.0222173
705.613	0.0226823
705.692	0.0227796
705.770	0.0228287
705.848	0.0229256
705.926	0.0226762
706.004	0.0225487
706.082	0.0220625
706.160	0.0218041
706.238	0.0211504
706.317	0.0205379
706.395	0.0198487
706.473	0.0191057
706.551	0.0184743
706.629	0.0181020
706.707	0.0176914
706.785	0.0173897
706.863	0.0170108
706.942	0.0169415
707.020	0.0169655
707.098	0.0170758
707.176	0.0171827
707.254	0.0172955
707.332	0.0175961
707.410	0.0178808
707.488	0.0181888
707.567	0.0184025
707.645	0.0185258
707.723	0.0185904
707.801	0.0186983
707.879	0.0187649
707.957	0.0188316
708.035	0.0188494
708.113	0.0188602
708.192	0.0188636
708.270	0.0190341
708.348	0.0190098
708.426	0.0190788
708.504	0.0192673
708.582	0.0194751
708.660	0.0197259
708.738	0.0200298
708.817	0.0202001
708.895	0.0203936
708.973	0.0205973
709.051	0.0205445
709.129	0.0208124
709.207	0.0206113
709.285	0.0202685
709.363	0.0199956
709.442	0.0196912
709.520	0.0190659
709.598	0.0184305
709.676	0.0175458
709.754	0.0167547
709.832	0.0157437
709.910	0.0150391
709.988	0.0141320
710.067	0.0134751
710.145	0.0128577
710.223	0.0123059
710.301	0.0118668
710.379	0.0114896
710.457	0.0115405
710.535	0.0116306
710.613	0.0117552
710.692	0.0122162
710.770	0.0128219
710.848	0.0136098
710.926	0.0142129
711.004	0.0151403
711.082	0.0159185
711.160	0.0166209
711.238	0.0172329
711.317	0.0179510
711.395	0.0182899
711.473	0.0185690
711.551	0.0189156
711.629	0.0192172
711.707	0.0192471
711.785	0.0194156
711.863	0.0196132
711.942	0.0197031
712.020	0.0198726
712.098	0.0200235
712.176	0.0204062
712.254	0.0205009
712.332	0.0209386
712.410	0.0212988
712.488	0.0216094
712.567	0.0220242
712.645	0.0222716
712.723	0.0225826
712.801	0.0227518
712.879	0.0228350
712.957	0.0227818
713.035	0.0223965
713.113	0.0219875
713.192	0.0216734
713.270	0.0211378
713.348	0.0205630
713.426	0.0199416
713.504	0.0193481
713.582	0.0184787
713.660	0.0178125
713.738	0.0173383
713.817	0.0168763
713.895	0.0165289
713.973	0.0160468
714.051	0.0159782
714.129	0.0157730
714.207	0.0159505
714.285	0.0161106
714.363	0.0161012
714.442	0.0163216
714.520	0.0165367
714.598	0.0166605
714.676	0.0167579
714.754	0.0167294
714.832	0.0166550
714.910	0.0165439
714.988	0.0164765
715.067	0.0164087
715.145	0.0160181
715.223	0.0160806
715.301	0.0158784
715.379	0.0157835
715.457	0.0156834
715.535	0.0157037
715.613	0.0156526
715.692	0.0160003
715.770	0.0161437
715.848	0.0163176
715.926	0.0166137
716.004	0.0171051
716.082	0.0172243
716.160	0.0174737
716.238	0.0177959
716.317	0.0180826
716.395	0.0179592
716.473	0.0181291
716.551	0.0181388
716.629	0.0182255
716.707	0.0182042
716.785	0.0181873
716.863	0.0181645
716.942	0.0181599
717.020	0.0182841
717.098	0.0181840
717.176	0.0182561
717.254	0.0184122
717.332	0.0183558
717.410	0.0187216
717.488	0.0188234
717.567	0.0189366
717.645	0.0191896
717.723	0.0193752
717.801	0.0195892
717.879	0.0197034
717.957	0.0197289
718.035	0.0198047
718.113	0.0198441
718.192	0.0198892
718.270	0.0197678
718.348	0.0195505
718.426	0.0194457
718.504	0.0192659
718.582	0.0191177
718.660	0.0190785
718.738	0.0187286
718.817	0.0183655
718.895	0.0183237
718.973	0.0181773
719.051	0.0178972
719.129	0.0180669
719.207	0.0178722
719.285	0.0178697
719.363	0.0179814
719.442	0.0179259
719.520	0.0180946
719.598	0.0182203
719.676	0.0182060
719.754	0.0184493
719.832	0.0185466
719.910	0.0185469
719.988	0.0184834
720.067	0.0185834
720.145	0.0183298
720.223	0.0182327
720.301	0.0185040
720.379	0.0180618
720.457	0.0178541
720.535	0.0176456
720.613	0.0174652
720.692	0.0173140
720.770	0.0170370
720.848	0.0167561
720.926	0.0165833
721.004	0.0162824
721.082	0.0161780
721.160	0.0161767
721.238	0.0160478
721.317	0.0158411
721.395	0.0157787
721.473	0.0158753
721.551	0.0159699
721.629	0.0160577
721.707	0.0161671
721.785	0.0163255
721.863	0.0166705
721.942	0.0169159
722.020	0.0169971
722.098	0.0172709
722.176	0.0175758
722.254	0.0177738
722.332	0.0179145
722.410	0.0180965
722.488	0.0183370
722.567	0.0182380
722.645	0.0182715
722.723	0.0184015
722.801	0.0183292
722.879	0.0183812
722.957	0.0186079
723.035	0.0186491
723.113	0.0186311
723.192	0.0187510
723.270	0.0187216
723.348	0.0189458
723.426	0.0189304
723.504	0.0188510
723.582	0.0191039
723.660	0.0191886
723.738	0.0190473
723.817	0.0190805
723.895	0.0192092
723.973	0.0193618
724.051	0.0192316
724.129	0.0191363
724.207	0.0192085
724.285	0.0192170
724.363	0.0190375
724.442	0.0189154
724.520	0.0186571
724.598	0.0186510
724.676	0.0184879
724.754	0.0182442
724.832	0.0179137
724.910	0.0178513
724.988	0.0176687
725.067	0.0175872
725.145	0.0174956
725.223	0.0175009
725.301	0.0174889
725.379	0.0175863
725.457	0.0177850
725.535	0.0177959
725.613	0.0178624
725.692	0.0180637
725.770	0.0180956
725.848	0.0183750
725.926	0.0182284
726.004	0.0182896
726.082	0.0183331
726.160	0.0181995
726.238	0.0180602
726.317	0.0177065
726.395	0.0176871
726.473	0.0175204
726.551	0.0173595
726.629	0.0170485
726.707	0.0169832
726.785	0.0166607
726.863	0.0165781
726.942	0.0164783
727.020	0.0164001
727.098	0.0164103
727.176	0.0164531
727.254	0.0164682
727.332	0.0167351
727.410	0.0167658
727.488	0.0169457
727.567	0.0172779
727.645	0.0174482
727.723	0.0177753
727.801	0.0178658
727.879	0.0181937
727.957	0.0182553
728.035	0.0185572
728.113	0.0187476
728.192	0.0188589
728.270	0.0187410
728.348	0.0188384
728.426	0.0189295
728.504	0.0188480
728.582	0.0189070
728.660	0.0187676
728.738	0.0187572
728.817	0.0188967
728.895	0.0186273
728.973	0.0185896
729.051	0.0186628
729.129	0.0185423
729.207	0.0185767
729.285	0.0183305
729.363	0.0183739
729.442	0.0184214
729.520	0.0183460
729.598	0.0182441
729.676	0.0179494
729.754	0.0179618
729.832	0.0178378
729.910	0.0175391
729.988	0.0175245
730.067	0.0171409
730.145	0.0170363
730.223	0.0168482
730.301	0.0167355
730.379	0.0166720
730.457	0.0166000
730.535	0.0166815
730.613	0.0167131
730.692	0.0168702
730.770	0.0170084
730.848	0.0170335
730.926	0.0173868
731.004	0.0176460
731.082	0.0179426
731.160	0.0182187
731.238	0.0183849
731.317	0.0185314
731.395	0.0188974
731.473	0.0191167
731.551	0.0192274
731.629	0.0192200
731.707	0.0191778
731.785	0.0191729
731.863	0.0191750
731.942	0.0189618
732.020	0.0189530
732.098	0.0187451
732.176	0.0186914
732.254	0.0184928
732.332	0.0183598
732.410	0.0181738
732.488	0.0179944
732.567	0.0179245
732.645	0.0177988
732.723	0.0176859
732.801	0.0178072
732.879	0.0176524
732.957	0.0174885
733.035	0.0175964
733.113	0.0175464
733.192	0.0174902
733.270	0.0175132
733.348	0.0174734
733.426	0.0174169
733.504	0.0175567
733.582	0.0173048
733.660	0.0174167
733.738	0.0173417
733.817	0.0173443
733.895	0.0173720
733.973	0.0174133
734.051	0.0175192
734.129	0.0173822
734.207	0.0174726
734.285	0.0175076
734.363	0.0174706
734.442	0.0176029
734.520	0.0176289
734.598	0.0177611
734.676	0.0179070
734.754	0.0178101
734.832	0.0177091
734.910	0.0176368
734.988	0.0176495
735.067	0.0176002
735.145	0.0175665
735.223	0.0176125
735.301	0.0174602
735.379	0.0174730
735.457	0.0174730
735.535	0.0176968
735.613	0.0176715
735.692	0.0176460
735.770	0.0178086
735.848	0.0180193
735.926	0.0181882
736.004	0.0183181
736.082	0.0183006
736.160	0.0186153
736.238	0.0185322
736.317	0.0185934
736.395	0.0186509
736.473	0.0186332
736.551	0.0187227
736.629	0.0185647
736.707	0.0186167
736.785	0.0186382
736.863	0.0186163
736.942	0.0185371
737.020	0.0183344
737.098	0.0181491
737.176	0.0181456
737.254	0.0181393
737.332	0.0180813
737.410	0.0180904
737.488	0.0179835
737.567	0.0178989
737.645	0.0177801
737.723	0.0178120
737.801	0.0179813
737.879	0.0178400
737.957	0.0180404
738.035	0.0179588
738.113	0.0180317
738.192	0.0180207
738.270	0.0179161
738.348	0.0178407
738.426	0.0178972
738.504	0.0179548
738.582	0.0179796
738.660	0.0179443
738.738	0.0177847
738.817	0.0177214
738.895	0.0177417
738.973	0.0175209
739.051	0.0176353
739.129	0.0171950
739.207	0.0174725
739.285	0.0172105
739.363	0.0171407
739.442	0.0174008
739.520	0.0172353
739.598	0.0171538
739.676	0.0173927
739.754	0.0175221
739.832	0.0175409
739.910	0.0177003
739.988	0.0180674
740.067	0.0180457
740.145	0.0185246
740.223	0.0186438
740.301	0.0187019
740.379	0.0188821
740.457	0.0189275
740.535	0.0189061
740.613	0.0189837
740.692	0.0188605
740.770	0.0189107
740.848	0.0186477
740.926	0.0185631
741.004	0.0186286
741.082	0.0184248
741.160	0.0182315
741.238	0.0180944
741.317	0.0179797
741.395	0.0177145
741.473	0.0178651
741.551	0.0177801
741.629	0.0175345
741.707	0.0175613
741.785	0.0175601
741.863	0.0175838
741.942	0.0174829
742.020	0.0175061
742.098	0.0177388
742.176	0.0174452
742.254	0.0174131
742.332	0.0175552
742.410	0.0175551
742.488	0.0176261
742.567	0.0176709
742.645	0.0176553
742.723	0.0178052
742.801	0.0178953
742.879	0.0178675
742.957	0.0177965
743.035	0.0178136
743.113	0.0179902
743.192	0.0178677
743.270	0.0178322
743.348	0.0178342
743.426	0.0177334
743.504	0.0178278
743.582	0.0179102
743.660	0.0177607
743.738	0.0177069
743.817	0.0176209
743.895	0.0177586
743.973	0.0177781
744.051	0.0178113
744.129	0.0177757
744.207	0.0178994
744.285	0.0178998
744.363	0.0180923
744.442	0.0180483
744.520	0.0181081
744.598	0.0181527
744.676	0.0183647
744.754	0.0183658
744.832	0.0184855
744.910	0.0185286
744.988	0.0186813
745.067	0.0187537
745.145	0.0187772
745.223	0.0187479
745.301	0.0187663
745.379	0.0187581
745.457	0.0185476
745.535	0.0184450
745.613	0.0185815
745.692	0.0182978
745.770	0.0182018
745.848	0.0179926
745.926	0.0178326
746.004	0.0175656
746.082	0.0174449
746.160	0.0173734
746.238	0.0173267
746.317	0.0171842
746.395	0.0171317
746.473	0.0170985
746.551	0.0171820
746.629	0.0172911
746.707	0.0174014
746.785	0.0174203
746.863	0.0175071
746.942	0.0177045
747.020	0.0177538
747.098	0.0178796
747.176	0.0181081
747.254	0.0182146
747.332	0.0183850
747.410	0.0182877
747.488	0.0183672
747.567	0.0184502
747.645	0.0185042
747.723	0.0185118
747.801	0.0184560
747.879	0.0183604
747.957	0.0183852
748.035	0.0182952
748.113	0.0181485
748.192	0.0181928
748.270	0.0180334
748.348	0.0179198
748.426	0.0178122
748.504	0.0179754
748.582	0.0179617
748.660	0.0178392
748.738	0.0178178
748.817	0.0177999
748.895	0.0178560
748.973	0.0179170
749.051	0.0176781
749.129	0.0176175
749.207	0.0177619
749.285	0.0176511
749.363	0.0177218
749.442	0.0176133
749.520	0.0176186
749.598	0.0176133
749.676	0.0177605
749.754	0.0176340
749.832	0.0174858
749.910	0.0174205
749.988	0.0173711
750.067	0.0173090
750.145	0.0172070
750.223	0.0171163
750.301	0.0170695
750.379	0.0171155
750.457	0.0170930
750.535	0.0173043
750.613	0.0173031
750.692	0.0175820
750.770	0.0176409
750.848	0.0177778
750.926	0.0179144
751.004	0.0182348
751.082	0.0182632
751.160	0.0186835
751.238	0.0188998
751.317	0.0189953
751.395	0.0190594
751.473	0.0191389
751.551	0.0190897
751.629	0.0190442
751.707	0.0191248
751.785	0.0190137
751.863	0.0190511
751.942	0.0189091
752.020	0.0188545
752.098	0.0184544
752.176	0.0183460
752.254	0.0181913
752.332	0.0179900
752.410	0.0179662
752.488	0.0178258
752.567	0.0176981
752.645	0.0176984
752.723	0.0175699
752.801	0.0175312
752.879	0.0175729
752.957	0.0174934
753.035	0.0174992
753.113	0.0175365
753.192	0.0176324
753.270	0.0174615
753.348	0.0176440
753.426	0.0177415
753.504	0.0177588
753.582	0.0178981
753.660	0.0180986
753.738	0.0180135
753.817	0.0181525
753.895	0.0182590
753.973	0.0182883
754.051	0.0182312
754.129	0.0182250
754.207	0.0182420
754.285	0.0183038
754.363	0.0183281
754.442	0.0183332
754.520	0.0183425
754.598	0.0182861
754.676	0.0184078
754.754	0.0182682
754.832	0.0182144
754.910	0.0182536
754.988	0.0181118
755.067	0.0180927
755.145	0.0180517
755.223	0.0178888
755.301	0.0180789
755.379	0.0178284
755.457	0.0180630
755.535	0.0178770
755.613	0.0177642
755.692	0.0177854
755.770	0.0177361
755.848	0.0178123
755.926	0.0177592
756.004	0.0178610
756.082	0.0179049
756.160	0.0176630
756.238	0.0177326
756.317	0.0176875
756.395	0.0176445
756.473	0.0176530
756.551	0.0176351
756.629	0.0173793
756.707	0.0173723
756.785	0.0174159
756.863	0.0173077
756.942	0.0173089
757.020	0.0174230
757.098	0.0173516
757.176	0.0174020
757.254	0.0175128
757.332	0.0175233
757.410	0.0175558
757.488	0.0176769
757.567	0.0177644
757.645	0.0179970
757.723	0.0181905
757.801	0.0179626
757.879	0.0181279
757.957	0.0182275
758.035	0.0182450
758.113	0.0182600
758.192	0.0182378
758.270	0.0184077
758.348	0.0184670
758.426	0.0183720
758.504	0.0183995
758.582	0.0183789
758.660	0.0182793
758.738	0.0183190
758.817	0.0183267
758.895	0.0183869
758.973	0.0183836
759.051	0.0184128
759.129	0.0182709
759.207	0.0184420
759.285	0.0184010
759.363	0.0184814
759.442	0.0184214
759.520	0.0183757
759.598	0.0182752
759.676	0.0182053
759.754	0.0182879
759.832	0.0181004
759.910	0.0181446
759.988	0.0180938
760.067	0.0178557
760.145	0.0177890
760.223	0.0178685
760.301	0.0179426
760.379	0.0178204
760.457	0.0176658
760.535	0.0176935
760.613	0.0176651
760.692	0.0177034
760.770	0.0178201
760.848	0.0177309
760.926	0.0178095
761.004	0.0178081
761.082	0.0178605
761.160	0.0180478
761.238	0.0181360
761.317	0.0181660
761.395	0.0183054
761.473	0.0182339
761.551	0.0182132
761.629	0.0182114
761.707	0.0182636
761.785	0.0181751
761.863	0.0182287
761.942	0.0180952
762.020	0.0180566
762.098	0.0181020
762.176	0.0179678
762.254	0.0180215
762.332	0.0179134
762.410	0.0178853
762.488	0.0178451
762.567	0.0178924
762.645	0.0176730
762.723	0.0176322
762.801	0.0174943
762.879	0.0176519
762.957	0.0176712
763.035	0.0176658
763.113	0.0175475
763.192	0.0175497
763.270	0.0175497
763.348	0.0177000
763.426	0.0178084
763.504	0.0178201
763.582	0.0177730
763.660	0.0177258
763.738	0.0178119
763.817	0.0180912
763.895	0.0179709
763.973	0.0180574
764.051	0.0179944
764.129	0.0180422
764.207	0.0179770
764.285	0.0181116
764.363	0.0181097
764.442	0.0180600
764.520	0.0180217
764.598	0.0181091
764.676	0.0179662
764.754	0.0177731
764.832	0.0178329
764.910	0.0178117
764.988	0.0177668
765.067	0.0178309
765.145	0.0177827
765.223	0.0176686
765.301	0.0175772
765.379	0.0177223
765.457	0.0176823
765.535	0.0177168
765.613	0.0176969
765.692	0.0177716
765.770	0.0179433
765.848	0.0180646
765.926	0.0180846
766.004	0.0181633
766.082	0.0181541
766.160	0.0182123
766.238	0.0182223
766.317	0.0183245
766.395	0.0182336
766.473	0.0182919
766.551	0.0181204
766.629	0.0181099
766.707	0.0182190
766.785	0.0181341
766.863	0.0180493
766.942	0.0179334
767.020	0.0179767
767.098	0.0180581
767.176	0.0179765
767.254	0.0179999
767.332	0.0180231
767.410	0.0181847
767.488	0.0180868
767.567	0.0180227
767.645	0.0181514
767.723	0.0181534
767.801	0.0181525
767.879	0.0181796
767.957	0.0182172
768.035	0.0181806
768.113	0.0181129
768.192	0.0181442
768.270	0.0181715
768.348	0.0182352
768.426	0.0181415
768.504	0.0180095
768.582	0.0181255
768.660	0.0180614
768.738	0.0180662
768.817	0.0180760
768.895	0.0179601
768.973	0.0178493
769.051	0.0178571
769.129	0.0179035
769.207	0.0178552
769.285	0.0178603
769.363	0.0178081
769.442	0.0176881
769.520	0.0175870
769.598	0.0178178
769.676	0.0176935
769.754	0.0177508
769.832	0.0177154
769.910	0.0177106
769.988	0.0178471
770.067	0.0178927
770.145	0.0177908
770.223	0.0177262
770.301	0.0178855
770.379	0.0178516
770.457	0.0177475
770.535	0.0178654
770.613	0.0178023
770.692	0.0177753
770.770	0.0177954
770.848	0.0177516
770.926	0.0177222
771.004	0.0179865
771.082	0.0179933
771.160	0.0180232
771.238	0.0178874
771.317	0.0177825
771.395	0.0178915
771.473	0.0179433
771.551	0.0178948
771.629	0.0177866
771.707	0.0178712
771.785	0.0176586
771.863	0.0176876
771.942	0.0175610
772.020	0.0175622
772.098	0.0176191
772.176	0.0174430
772.254	0.0177187
772.332	0.0176723
772.410	0.0176572
772.488	0.0175850
772.567	0.0176165
772.645	0.0177972
772.723	0.0178356
772.801	0.0177171
772.879	0.0177132
772.957	0.0176353
773.035	0.0177945
773.113	0.0178846
773.192	0.0179288
773.270	0.0179520
773.348	0.0180472
773.426	0.0179799
773.504	0.0180177
773.582	0.0181096
773.660	0.0181294
773.738	0.0183047
773.817	0.0181570
773.895	0.0183612
773.973	0.0182651
774.051	0.0183642
774.129	0.0183039
774.207	0.0183694
774.285	0.0185173
774.363	0.0183279
774.442	0.0182764
774.520	0.0183558
774.598	0.0183232
774.676	0.0182918
774.754	0.0181781
774.832	0.0183131
774.910	0.0182056
774.988	0.0182606
775.067	0.0182169
775.145	0.0179019
775.223	0.0178712
775.301	0.0178736
775.379	0.0179417
775.457	0.0178910
775.535	0.0175822
775.613	0.0177600
775.692	0.0178316
775.770	0.0177748
775.848	0.0177962
775.926	0.0177663
776.004	0.0177144
776.082	0.0178653
776.160	0.0179531
776.238	0.0178653
776.317	0.0179279
776.395	0.0179809
776.473	0.0179923
776.551	0.0178839
776.629	0.0178508
776.707	0.0179861
776.785	0.0178349
776.863	0.0178933
776.942	0.0177870
777.020	0.0177090
777.098	0.0177791
777.176	0.0177380
777.254	0.0178501
777.332	0.0178318
777.410	0.0178076
777.488	0.0177204
777.567	0.0178272
777.645	0.0178722
777.723	0.0179366
777.801	0.0179688
777.879	0.0180862
777.957	0.0181611
778.035	0.0181346
778.113	0.0181773
778.192	0.0181004
778.270	0.0181914
778.348	0.0181978
778.426	0.0180019
778.504	0.0181888
778.582	0.0181602
778.660	0.0179163
778.738	0.0179745
778.817	0.0178918
778.895	0.0177294
778.973	0.0177630
779.051	0.0176009
779.129	0.0174522
779.207	0.0174830
779.285	0.0175365
779.363	0.0174535
779.442	0.0173668
779.520	0.0173960
779.598	0.0174345
779.676	0.0174709
779.754	0.0175675
779.832	0.0176749
779.910	0.0177486
779.988	0.0178840
780.067	0.0178444
780.145	0.0180112
780.223	0.0178746
780.301	0.0180198
780.379	0.0180532
780.457	0.0181488
780.535	0.0181005
780.613	0.0180881
780.692	0.0180971
780.770	0.0182850
780.848	0.0181068
780.926	0.0181677
781.004	0.0182214
781.082	0.0183084
781.160	0.0180601
781.238	0.0181874
781.317	0.0182743
781.395	0.0182332
781.473	0.0182598
781.551	0.0182645
781.629	0.0184153
781.707	0.0182425
781.785	0.0183166
781.863	0.0184233
781.942	0.0183587
782.020	0.0183459
782.098	0.0182304
782.176	0.0182713
782.254	0.0182335
782.332	0.0182455
782.410	0.0182840
782.488	0.0181506
782.567	0.0181237
782.645	0.0181055
782.723	0.0180930
782.801	0.0181342
782.879	0.0181947
782.957	0.0180849
783.035	0.0179381
783.113	0.0179597
783.192	0.0179939
783.270	0.0179826
783.348	0.0179674
783.426	0.0180048
783.504	0.0179218
783.582	0.0178538
783.660	0.0177997
783.738	0.0177645
783.817	0.0177424
783.895	0.0177171
783.973	0.0175632
784.051	0.0175348
784.129	0.0175849
784.207	0.0175292
784.285	0.0174214
784.363	0.0175298
784.442	0.0175465
784.520	0.0175591
784.598	0.0175436
784.676	0.0173927
784.754	0.0175416
784.832	0.0174795
784.910	0.0176968
784.988	0.0176541
785.067	0.0177879
785.145	0.0176938
785.223	0.0179597
785.301	0.0180334
785.379	0.0182036
785.457	0.0182032
785.535	0.0180808
785.613	0.0183121
785.692	0.0184512
785.770	0.0183684
785.848	0.0185143
785.926	0.0184556
786.004	0.0185213
786.082	0.0186010
786.160	0.0186118
786.238	0.0185101
786.317	0.0183741
786.395	0.0182520
786.473	0.0182628
786.551	0.0181818
786.629	0.0181391
786.707	0.0180628
786.785	0.0178669
786.863	0.0176775
786.942	0.0175601
787.020	0.0174908
787.098	0.0173107
787.176	0.0172142
787.254	0.0173281
787.332	0.0172362
787.410	0.0170573
787.488	0.0172383
787.567	0.0171330
787.645	0.0171712
787.723	0.0173560
787.801	0.0174601
787.879	0.0177306
787.957	0.0179483
788.035	0.0181780
788.113	0.0181708
788.192	0.0184656
788.270	0.0185725
788.348	0.0188656
788.426	0.0190495
788.504	0.0190028
788.582	0.0191791
788.660	0.0192037
788.738	0.0191110
788.817	0.0190444
788.895	0.0189257
788.973	0.0188914
789.051	0.0185639
789.129	0.0184097
789.207	0.0184721
789.285	0.0182603
789.363	0.0180860
789.442	0.0177582
789.520	0.0174592
789.598	0.0173780
789.676	0.0173855
789.754	0.0172394
789.832	0.0171237
789.910	0.0170003
789.988	0.0170655
790.067	0.0168709
790.145	0.0167706
790.223	0.0168645
790.301	0.0168813
790.379	0.0167625
790.457	0.0167526
790.535	0.0167056
790.613	0.0168670
790.692	0.0169399
790.770	0.0171252
790.848	0.0172382
790.926	0.0173427
791.004	0.0173714
791.082	0.0175512
791.160	0.0177804
791.238	0.0180706
791.317	0.0183381
791.395	0.0184805
791.473	0.0189423
791.551	0.0192181
791.629	0.0193652
791.707	0.0196259
791.785	0.0197982
791.863	0.0201155
791.942	0.0202002
792.020	0.0203185
792.098	0.0203986
792.176	0.0203361
792.254	0.0202213
792.332	0.0201027
792.410	0.0199921
792.488	0.0194765
792.567	0.0191319
792.645	0.0186968
792.723	0.0182777
792.801	0.0177691
792.879	0.0173901
792.957	0.0169731
793.035	0.0164149
793.113	0.0158961
793.192	0.0155233
793.270	0.0153037
793.348	0.0149461
793.426	0.0147786
793.504	0.0146322
793.582	0.0144445
793.660	0.0146780
793.738	0.0147852
793.817	0.0147059
793.895	0.0148318
793.973	0.0151990
794.051	0.0156715
794.129	0.0160616
794.207	0.0164142
794.285	0.0168650
794.363	0.0173037
794.442	0.0176555
794.520	0.0182294
794.598	0.0187962
794.676	0.0190873
794.754	0.0196564
794.832	0.0200792
794.910	0.0204163
794.988	0.0207639
795.067	0.0209226
795.145	0.0209990
795.223	0.0212987
795.301	0.0213359
795.379	0.0211572
795.457	0.0211826
795.535	0.0209177
795.613	0.0207819
795.692	0.0205046
795.770	0.0201978
795.848	0.0199986
795.926	0.0195811
796.004	0.0190253
796.082	0.0185670
796.160	0.0181905
796.238	0.0177057
796.317	0.0172818
796.395	0.0169143
796.473	0.0167464
796.551	0.0163920
796.629	0.0161369
796.707	0.0158267
796.785	0.0157736
796.863	0.0155975
796.942	0.0155490
797.020	0.0155881
797.098	0.0155473
797.176	0.0154733
797.254	0.0154381
797.332	0.0155770
797.410	0.0157907
797.488	0.0157513
797.567	0.0161063
797.645	0.0161015
797.723	0.0163606
797.801	0.0167004
797.879	0.0168774
797.957	0.0172592
798.035	0.0175352
798.113	0.0179369
798.192	0.0181664
798.270	0.0186024
798.348	0.0187852
798.426	0.0191253
798.504	0.0194152
798.582	0.0195313
798.660	0.0197560
798.738	0.0200101
798.817	0.0201647
798.895	0.0203447
798.973	0.0203667
799.051	0.0204079
799.129	0.0202975
799.207	0.0202148
799.285	0.0201412
799.363	0.0198998
799.442	0.0196908
799.520	0.0194424
799.598	0.0191254
799.676	0.0188779
799.754	0.0185400
799.832	0.0182343
799.910	0.0179793
799.988	0.0176418
800.067	0.0175112
800.145	0.0171690
800.223	0.0169744
800.301	0.0169296
800.379	0.0167992
800.457	0.0165658
800.535	0.0164498
800.613	0.0164389
800.692	0.0164478
800.770	0.0164999
800.848	0.0165669
800.926	0.0166405
801.004	0.0168100
801.082	0.0167748
801.160	0.0168902
801.238	0.0170098
801.317	0.0171455
801.395	0.0172106
801.473	0.0174440
801.551	0.0174599
801.629	0.0176685
801.707	0.0178255
801.785	0.0179190
801.863	0.0179591
801.942	0.0179150
802.020	0.0179365
802.098	0.0180420
802.176	0.0180449
802.254	0.0181605
802.332	0.0181687
802.410	0.0181894
802.488	0.0179885
802.567	0.0181481
802.645	0.0181142
802.723	0.0180710
802.801	0.0181702
802.879	0.0181733
802.957	0.0183243
803.035	0.0183585
803.113	0.0184657
803.192	0.0183351
803.270	0.0184554
803.348	0.0186308
803.426	0.0185025
803.504	0.0185306
803.582	0.0184760
803.660	0.0184493
803.738	0.0183651
803.817	0.0184135
803.895	0.0182764
803.973	0.0182570
804.051	0.0182833
804.129	0.0181673
804.207	0.0181243
804.285	0.0180789
804.363	0.0181248
804.442	0.0181688
804.520	0.0179995
804.598	0.0180856
804.676	0.0179819
804.754	0.0181107
804.832	0.0182294
804.910	0.0182711
804.988	0.0182146
805.067	0.0183196
805.145	0.0183564
805.223	0.0182885
805.301	0.0181754
805.379	0.0181871
805.457	0.0181670
805.535	0.0182047
805.613	0.0182412
805.692	0.0180980
805.770	0.0179961
805.848	0.0179293
805.926	0.0178265
806.004	0.0178181
806.082	0.0177360
806.160	0.0176558
806.238	0.0174801
806.317	0.0174003
806.395	0.0173805
806.473	0.0173688
806.551	0.0171944
806.629	0.0173870
806.707	0.0173277
806.785	0.0174633
806.863	0.0173421
806.942	0.0174593
807.020	0.0174685
807.098	0.0175198
807.176	0.0176894
807.254	0.0177859
807.332	0.0176775
807.410	0.0178147
807.488	0.0179530
807.567	0.0178324
807.645	0.0178380
807.723	0.0178813
807.801	0.0177888
807.879	0.0180580
807.957	0.0177843
808.035	0.0178804
808.113	0.0181458
808.192	0.0181072
808.270	0.0179758
808.348	0.0180137
808.426	0.0182510
808.504	0.0183130
808.582	0.0181474
808.660	0.0182417
808.738	0.0182993
808.817	0.0183732
808.895	0.0183115
808.973	0.0183549
809.051	0.0185111
809.129	0.0184924
809.207	0.0184893
809.285	0.0185120
809.363	0.0184304
809.442	0.0184722
809.520	0.0184260
809.598	0.0184933
809.676	0.0185239
809.754	0.0184091
809.832	0.0183404
809.910	0.0183187
809.988	0.0183672
810.067	0.0182924
810.145	0.0181697
810.223	0.0181580
810.301	0.0180666
810.379	0.0180498
810.457	0.0180052
810.535	0.0181148
810.613	0.0179826
810.692	0.0179115
810.770	0.0181387
810.848	0.0180939
810.926	0.0179977
811.004	0.0181438
811.082	0.0181355
811.160	0.0179646
811.238	0.0179567
811.317	0.0181120
811.395	0.0179266
811.473	0.0178645
811.551	0.0179115
811.629	0.0177477
811.707	0.0177829
811.785	0.0178040
811.863	0.0177254
811.942	0.0176813
812.020	0.0174255
812.098	0.0174500
812.176	0.0173590
812.254	0.0172803
812.332	0.0173781
812.410	0.0172318
812.488	0.0171396
812.567	0.0171720
812.645	0.0172177
812.723	0.0173303
812.801	0.0171836
812.879	0.0172820
812.957	0.0172842
813.035	0.0173480
813.113	0.0173611
813.192	0.0173118
813.270	0.0175970
813.348	0.0176608
813.426	0.0176727
813.504	0.0177213
813.582	0.0180595
813.660	0.0179546
813.738	0.0179941
813.817	0.0181732
813.895	0.0182559
813.973	0.0184919
814.051	0.0184573
814.129	0.0184165
814.207	0.0184129
814.285	0.0183571
814.363	0.0184945
814.442	0.0185387
814.520	0.0186314
814.598	0.0185423
814.676	0.0183825
814.754	0.0184875
814.832	0.0183620
814.910	0.0185178
814.988	0.0183230
815.067	0.0184342
815.145	0.0183053
815.223	0.0182536
815.301	0.0181583
815.379	0.0182005
815.457	0.0181499
815.535	0.0179935
815.613	0.0180932
815.692	0.0180410
815.770	0.0179625
815.848	0.0179131
815.926	0.0180563
816.004	0.0179254
816.082	0.0180569
816.160	0.0180661
816.238	0.0181678
816.317	0.0181955
816.395	0.0182958
816.473	0.0183221
816.551	0.0182867
816.629	0.0183511
816.707	0.0183067
816.785	0.0183271
816.863	0.0180782
816.942	0.0180485
817.020	0.0180628
817.098	0.0180715
817.176	0.0177490
817.254	0.0177700
817.332	0.0177531
817.410	0.0175951
817.488	0.0174170
817.567	0.0173880
817.645	0.0172895
817.723	0.0171529
817.801	0.0169112
817.879	0.0169254
817.957	0.0170348
818.035	0.0170545
818.113	0.0169362
818.192	0.0169860
818.270	0.0169603
818.348	0.0170166
818.426	0.0172594
818.504	0.0171996
818.582	0.0172218
818.660	0.0174344
818.738	0.0173602
818.817	0.0174968
818.895	0.0177521
818.973	0.0177657
819.051	0.0179801
819.129	0.0180230
819.207	0.0181639
819.285	0.0182767
819.363	0.0183057
819.442	0.0183179
819.520	0.0184922
819.598	0.0186294
819.676	0.0185719
819.754	0.0186050
819.832	0.0186921
819.910	0.0188233
819.988	0.0187376
820.067	0.0187320
820.145	0.0186547
820.223	0.0188084
820.301	0.0187759
820.379	0.0186770
820.457	0.0185866
820.535	0.0187064
820.613	0.0185268
820.692	0.0184555
820.770	0.0184387
820.848	0.0184288
820.926	0.0181877
821.004	0.0181850
821.082	0.0179770
821.160	0.0179147
821.238	0.0180444
821.317	0.0178446
821.395	0.0177248
821.473	0.0175986
821.551	0.0177352
821.629	0.0177362
821.707	0.0178296
821.785	0.0178874
821.863	0.0178153
821.942	0.0179397
822.020	0.0179349
822.098	0.0179793
822.176	0.0179901
822.254	0.0180967
822.332	0.0182404
822.410	0.0181427
822.488	0.0182300
822.567	0.0180486
822.645	0.0181355
822.723	0.0181310
822.801	0.0179479
822.879	0.0181581
822.957	0.0180490
823.035	0.0177206
823.113	0.0177837
823.192	0.0177866
823.270	0.0177129
823.348	0.0176926
823.426	0.0175693
823.504	0.0174312
823.582	0.0173834
823.660	0.0173481
823.738	0.0174015
823.817	0.0173929
823.895	0.0174460
823.973	0.0175890
824.051	0.0176463
824.129	0.0175948
824.207	0.0176159
824.285	0.0177262
824.363	0.0176749
824.442	0.0178190
824.520	0.0179987
824.598	0.0180034
824.676	0.0181556
824.754	0.0181661
824.832	0.0182919
824.910	0.0183366
824.988	0.0184720
825.067	0.0184246
825.145	0.0183781
825.223	0.0184705
825.301	0.0184897
825.379	0.0184727
825.457	0.0185400
825.535	0.0184531
825.613	0.0183392
825.692	0.0184473
825.770	0.0182742
825.848	0.0183204
825.926	0.0182243
826.004	0.0181076
826.082	0.0181152
826.160	0.0179630
826.238	0.0180244
826.317	0.0178792
826.395	0.0178179
826.473	0.0176864
826.551	0.0176981
826.629	0.0175320
826.707	0.0175111
826.785	0.0175099
826.863	0.0175873
826.942	0.0174048
827.020	0.0174192
827.098	0.0174947
827.176	0.0174583
827.254	0.0176079
827.332	0.0175306
827.410	0.0175561
827.488	0.0176572
827.567	0.0177904
827.645	0.0179140
827.723	0.0180000
827.801	0.0181336
827.879	0.0181895
827.957	0.0183146
828.035	0.0182351
828.113	0.0184309
828.192	0.0184996
828.270	0.0185187
828.348	0.0185303
828.426	0.0185084
828.504	0.0185219
828.582	0.0185680
828.660	0.0185263
828.738	0.0184077
828.817	0.0184750
828.895	0.0184528
828.973	0.0184064
829.051	0.0184525
829.129	0.0181199
829.207	0.0181714
829.285	0.0180807
829.363	0.0178438
829.442	0.0178673
829.520	0.0177502
829.598	0.0177782
829.676	0.0175758
829.754	0.0175709
829.832	0.0174728
829.910	0.0174553
829.988	0.0174370
830.067	0.0174144
830.145	0.0174772
830.223	0.0176286
830.301	0.0175108
830.379	0.0176474
830.457	0.0177238
830.535	0.0177464
830.613	0.0178310
830.692	0.0180349
830.770	0.0179906
830.848	0.0181300
830.926	0.0180856
831.004	0.0180600
831.082	0.0182133
831.160	0.0182874
831.238	0.0184474
831.317	0.0184222
831.395	0.0183954
831.473	0.0183833
831.551	0.0183592
831.629	0.0183833
831.707	0.0184274
831.785	0.0184105
831.863	0.0184052
831.942	0.0182807
832.020	0.0183434
832.098	0.0182719
832.176	0.0182253
832.254	0.0180598
832.332	0.0180785
832.410	0.0179687
832.488	0.0179987
832.567	0.0179711
832.645	0.0178861
832.723	0.0178859
832.801	0.0175913
832.879	0.0177689
832.957	0.0176304
833.035	0.0176672
833.113	0.0177791
833.192	0.0178214
833.270	0.0175605
833.348	0.0176752
833.426	0.0177769
833.504	0.0177267
833.582	0.0177381
833.660	0.0177264
833.738	0.0177721
833.817	0.0180252
833.895	0.0179198
833.973	0.0178639
834.051	0.0179588
834.129	0.0180159
834.207	0.0179408
834.285	0.0180617
834.363	0.0180116
834.442	0.0180297
834.520	0.0178439
834.598	0.0179237
834.676	0.0178449
834.754	0.0178901
834.832	0.0177793
834.910	0.0178254
834.988	0.0178427
835.067	0.0178201
835.145	0.0176164
835.223	0.0177829
835.301	0.0177439
835.379	0.0178083
835.457	0.0177592
835.535	0.0177859
835.613	0.0179349
835.692	0.0178230
835.770	0.0178522
835.848	0.0178381
835.926	0.0180929
836.004	0.0181982
836.082	0.0182253
836.160	0.0182381
836.238	0.0183061
836.317	0.0184157
836.395	0.0184315
836.473	0.0184138
836.551	0.0184907
836.629	0.0185007
836.707	0.0186580
836.785	0.0185549
836.863	0.0186996
836.942	0.0186509
837.020	0.0186823
837.098	0.0187617
837.176	0.0186364
837.254	0.0186900
837.332	0.0186836
837.410	0.0186774
837.488	0.0186068
837.567	0.0185219
837.645	0.0184580
837.723	0.0183388
837.801	0.0183659
837.879	0.0182134
837.957	0.0181872
838.035	0.0179808
838.113	0.0179505
838.192	0.0177275
838.270	0.0176551
838.348	0.0174857
838.426	0.0175423
838.504	0.0174837
838.582	0.0174236
838.660	0.0172678
838.738	0.0172348
838.817	0.0172290
838.895	0.0172986
838.973	0.0173284
839.051	0.0173159
839.129	0.0172984
839.207	0.0173615
839.285	0.0173625
839.363	0.0174384
839.442	0.0175024
839.520	0.0175522
839.598	0.0174422
839.676	0.0175746
839.754	0.0176578
839.832	0.0177116
839.910	0.0178758
839.988	0.0179977
840.067	0.0179549
840.145	0.0180814
840.223	0.0182275
840.301	0.0182531
840.379	0.0181921
840.457	0.0182484
840.535	0.0184655
840.613	0.0185262
840.692	0.0185538
840.770	0.0184980
840.848	0.0186439
840.926	0.0185538
841.004	0.0187086
841.082	0.0186382
841.160	0.0185439
841.238	0.0186534
841.317	0.0185339
841.395	0.0184709
841.473	0.0184428
841.551	0.0183691
841.629	0.0182332
841.707	0.0182262
841.785	0.0180408
841.863	0.0179021
841.942	0.0179739
842.020	0.0179526
842.098	0.0176619
842.176	0.0177162
842.254	0.0176118
842.332	0.0175181
842.410	0.0175354
842.488	0.0174596
842.567	0.0174815
842.645	0.0173502
842.723	0.0175118
842.801	0.0176060
842.879	0.0174654
842.957	0.0176703
843.035	0.0178602
843.113	0.0177910
843.192	0.0178580
843.270	0.0179736
843.348	0.0178629
843.426	0.0179517
843.504	0.0180829
843.582	0.0181538
843.660	0.0180870
843.738	0.0181276
843.817	0.0181457
843.895	0.0179369
843.973	0.0181309
844.051	0.0181059
844.129	0.0181275
844.207	0.0180840
844.285	0.0181596
844.363	0.0182654
844.442	0.0181012
844.520	0.0180160
844.598	0.0181013
844.676	0.0182649
844.754	0.0183010
844.832	0.0181588
844.910	0.0181290
844.988	0.0182109
845.067	0.0181301
845.145	0.0183401
845.223	0.0182900
845.301	0.0182928
845.379	0.0182495
845.457	0.0184306
845.535	0.0181292
845.613	0.0183596
845.692	0.0183401
845.770	0.0182027
845.848	0.0182236
845.926	0.0183881
846.004	0.0183315
846.082	0.0182579
846.160	0.0182054
846.238	0.0181342
846.317	0.0181612
846.395	0.0181216
846.473	0.0180556
846.551	0.0180474
846.629	0.0180294
846.707	0.0179770
846.785	0.0179425
846.863	0.0179389
846.942	0.0178858
847.020	0.0178313
847.098	0.0178701
847.176	0.0178080
847.254	0.0178383
847.332	0.0178468
847.410	0.0176517
847.488	0.0176080
847.567	0.0175826
847.645	0.0176700
847.723	0.0176618
847.801	0.0177654
847.879	0.0176337
847.957	0.0177393
848.035	0.0178476
848.113	0.0177277
848.192	0.0177913
848.270	0.0178271
848.348	0.0179211
848.426	0.0179652
848.504	0.0179019
848.582	0.0180153
848.660	0.0180045
848.738	0.0179995
848.817	0.0180732
848.895	0.0180374
848.973	0.0178305
849.051	0.0178400
849.129	0.0178832
849.207	0.0178390
849.285	0.0179836
849.363	0.0179347
849.442	0.0180714
849.520	0.0177788
849.598	0.0178959
849.676	0.0179498
849.754	0.0179897
849.832	0.0181369
849.910	0.0180701
849.988	0.0179238
850.067	0.0180248
850.145	0.0181293
850.223	0.0181709
850.301	0.0182387
850.379	0.0182296
850.457	0.0182341
850.535	0.0182446
850.613	0.0181733
850.692	0.0180788
850.770	0.0181389
850.848	0.0179910
850.926	0.0180463
851.004	0.0181496
851.082	0.0183172
851.160	0.0181670
851.238	0.0181979
851.317	0.0182652
851.395	0.0182269
851.473	0.0183041
851.551	0.0181314
851.629	0.0183107
851.707	0.0182001
851.785	0.0182756
851.863	0.0182773
851.942	0.0183160
852.020	0.0181174
852.098	0.0183659
852.176	0.0183262
852.254	0.0183250
852.332	0.0181527
852.410	0.0181704
852.488	0.0181608
852.567	0.0182427
852.645	0.0181570
852.723	0.0182076
852.801	0.0181176
852.879	0.0181277
852.957	0.0180768
853.035	0.0179977
853.113	0.0180133
853.192	0.0178253
853.270	0.0179052
853.348	0.0177816
853.426	0.0177356
853.504	0.0176711
853.582	0.0176466
853.660	0.0176672
853.738	0.0175323
853.817	0.0177415
853.895	0.0175376
853.973	0.0175455
854.051	0.0175294
854.129	0.0174690
854.207	0.0176741
854.285	0.0177597
854.363	0.0176760
854.442	0.0176498
854.520	0.0176658
854.598	0.0178065
854.676	0.0178782
854.754	0.0178740
854.832	0.0178819
854.910	0.0179359
854.988	0.0180235
855.067	0.0180144
855.145	0.0180604
855.223	0.0182494
855.301	0.0182567
855.379	0.0181651
855.457	0.0183550
855.535	0.0182367
855.613	0.0182635
855.692	0.0183538
855.770	0.0181903
855.848	0.0183115
855.926	0.0181934
856.004	0.0181526
856.082	0.0181855
856.160	0.0182364
856.238	0.0182418
856.317	0.0180425
856.395	0.0181258
856.473	0.0180180
856.551	0.0179278
856.629	0.0178604
856.707	0.0178031
856.785	0.0179080
856.863	0.0179091
856.942	0.0179166
857.020	0.0179443
857.098	0.0179109
857.176	0.0178217
857.254	0.0176873
857.332	0.0178218
857.410	0.0179024
857.488	0.0179065
857.567	0.0178136
857.645	0.0179257
857.723	0.0177721
857.801	0.0179160
857.879	0.0180643
857.957	0.0179714
858.035	0.0180242
858.113	0.0180640
858.192	0.0180091
858.270	0.0179424
858.348	0.0180995
858.426	0.0179902
858.504	0.0179933
858.582	0.0180515
858.660	0.0181275
858.738	0.0181731
858.817	0.0181696
858.895	0.0180360
858.973	0.0181897
859.051	0.0181243
859.129	0.0179598
859.207	0.0179426
859.285	0.0178609
859.363	0.0180960
859.442	0.0178966
859.520	0.0178052
859.598	0.0178218
859.676	0.0177338
859.754	0.0177262
859.832	0.0177476
859.910	0.0176143
859.988	0.0176039
860.067	0.0176454
860.145	0.0177007
860.223	0.0177530
860.301	0.0176807
860.379	0.0176979
860.457	0.0177998
860.535	0.0178648
860.613	0.0178455
860.692	0.0178127
860.770	0.0179494
860.848	0.0179520
860.926	0.0179369
861.004	0.0179937
861.082	0.0180711
861.160	0.0179877
861.238	0.0180887
861.317	0.0182400
861.395	0.0181882
861.473	0.0181275
861.551	0.0180320
861.629	0.0181031
861.707	0.0180477
861.785	0.0180376
861.863	0.0180481
861.942	0.0180563
862.020	0.0179560
862.098	0.0180116
862.176	0.0180247
862.254	0.0179063
862.332	0.0178006
862.410	0.0179337
862.488	0.0180294
862.567	0.0179961
862.645	0.0179263
862.723	0.0180044
862.801	0.0178210
862.879	0.0178554
862.957	0.0178838
863.035	0.0177842
863.113	0.0179241
863.192	0.0178786
863.270	0.0179431
863.348	0.0178396
863.426	0.0179252
863.504	0.0178618
863.582	0.0179798
863.660	0.0178902
863.738	0.0178008
863.817	0.0179858
863.895	0.0181126
863.973	0.0180563
864.051	0.0179699
864.129	0.0179204
864.207	0.0179980
864.285	0.0178590
864.363	0.0177971
864.442	0.0178383
864.520	0.0179678
864.598	0.0179355
864.676	0.0177389
864.754	0.0178841
864.832	0.0178600
864.910	0.0178403
864.988	0.0179072
865.067	0.0178355
865.145	0.0178651
865.223	0.0178111
865.301	0.0178526
865.379	0.0177486
865.457	0.0178058
865.535	0.0178118
865.613	0.0176757
865.692	0.0176263
865.770	0.0178392
865.848	0.0177714
865.926	0.0175536
866.004	0.0177747
866.082	0.0179092
866.160	0.0178042
866.238	0.0176801
866.317	0.0178571
866.395	0.0178019
866.473	0.0178619
866.551	0.0179041
866.629	0.0179441
866.707	0.0178304
866.785	0.0178835
866.863	0.0179271
866.942	0.0181077
867.020	0.0180346
867.098	0.0180213
867.176	0.0180849
867.254	0.0179308
867.332	0.0180119
867.410	0.0180355
867.488	0.0180836
867.567	0.0181034
867.645	0.0181273
867.723	0.0181202
867.801	0.0180410
867.879	0.0180073
867.957	0.0181047
868.035	0.0180262
868.113	0.0181580
868.192	0.0181503
868.270	0.0180753
868.348	0.0181350
868.426	0.0180923
868.504	0.0181374
868.582	0.0181426
868.660	0.0180977
868.738	0.0181396
868.817	0.0181082
868.895	0.0182269
868.973	0.0182714
869.051	0.0179464
869.129	0.0180650
869.207	0.0180471
869.285	0.0179604
869.363	0.0179771
869.442	0.0179736
869.520	0.0179548
869.598	0.0179562
869.676	0.0179305
869.754	0.0178809
869.832	0.0178631
869.910	0.0178659
869.988	0.0177844
870.067	0.0177686
870.145	0.0179255
870.223	0.0178406
870.301	0.0177247
870.379	0.0178629
870.457	0.0178305
870.535	0.0178657
870.613	0.0179163
870.692	0.0178850
870.770	0.0179316
870.848	0.0179449
870.926	0.0178883
871.004	0.0179128
871.082	0.0179481
871.160	0.0179079
871.238	0.0178294
871.317	0.0177928
871.395	0.0177499
871.473	0.0178092
871.551	0.0177908
871.629	0.0176652
871.707	0.0176213
871.785	0.0175705
871.863	0.0176607
871.942	0.0176011
872.020	0.0175607
872.098	0.0175794
872.176	0.0174686
872.254	0.0175617
872.332	0.0176221
872.410	0.0175830
872.488	0.0175043
872.567	0.0175462
872.645	0.0178154
872.723	0.0178835
872.801	0.0178053
872.879	0.0177422
872.957	0.0178546
873.035	0.0179081
873.113	0.0180754
873.192	0.0179436
873.270	0.0178979
873.348	0.0181116
873.426	0.0181494
873.504	0.0182307
873.582	0.0181873
873.660	0.0181609
873.738	0.0182605
873.817	0.0182742
873.895	0.0182816
873.973	0.0182484
874.051	0.0183503
874.129	0.0182931
874.207	0.0182586
874.285	0.0182756
874.363	0.0182748
874.442	0.0182870
874.520	0.0181843
874.598	0.0181881
874.676	0.0180840
874.754	0.0181728
874.832	0.0181365
874.910	0.0181400
874.988	0.0180263
875.067	0.0180006
875.145	0.0179836
875.223	0.0180228
875.301	0.0180653
875.379	0.0178838
875.457	0.0179891
875.535	0.0179768
875.613	0.0178490
875.692	0.0177549
875.770	0.0177480
875.848	0.0177157
875.926	0.0175777
876.004	0.0176521
876.082	0.0177481
876.160	0.0176846
876.238	0.0174670
876.317	0.0174353
876.395	0.0175620
876.473	0.0175975
876.551	0.0174483
876.629	0.0175944
876.707	0.0177213
876.785	0.0176569
876.863	0.0177731
876.942	0.0176306
877.020	0.0178133
877.098	0.0177727
877.176	0.0178254
877.254	0.0179156
877.332	0.0179743
877.410	0.0179974
877.488	0.0182142
877.567	0.0182436
877.645	0.0181787
877.723	0.0183067
877.801	0.0182896
877.879	0.0183138
877.957	0.0183400
878.035	0.0185443
878.113	0.0185049
878.192	0.0184375
878.270	0.0183928
878.348	0.0184347
878.426	0.0184097
878.504	0.0183567
878.582	0.0181686
878.660	0.0182085
878.738	0.0181625
878.817	0.0181588
878.895	0.0179936
878.973	0.0179036
879.051	0.0177847
879.129	0.0177962
879.207	0.0178306
879.285	0.0177377
879.363	0.0177818
879.442	0.0176574
879.520	0.0176760
879.598	0.0176469
879.676	0.0176022
879.754	0.0175529
879.832	0.0177357
879.910	0.0176147
879.988	0.0175076
880.067	0.0175378
880.145	0.0174451
880.223	0.0174511
880.301	0.0175552
880.379	0.0175082
880.457	0.0177099
880.535	0.0176910
880.613	0.0175919
880.692	0.0177505
880.770	0.0178088
880.848	0.0178130
880.926	0.0179575
881.004	0.0178616
881.082	0.0179845
881.160	0.0180029
881.238	0.0180482
881.317	0.0181551
881.395	0.0181563
881.473	0.0181332
881.551	0.0181110
881.629	0.0181956
881.707	0.0181607
881.785	0.0181860
881.863	0.0180431
881.942	0.0181028
882.020	0.0179166
882.098	0.0180579
882.176	0.0180756
882.254	0.0178782
882.332	0.0179587
882.410	0.0179419
882.488	0.0182038
882.567	0.0178865
882.645	0.0179391
882.723	0.0181282
882.801	0.0182335
882.879	0.0182910
882.957	0.0182081
883.035	0.0182018
883.113	0.0184372
883.192	0.0183849
883.270	0.0184072
883.348	0.0185135
883.426	0.0184002
883.504	0.0186404
883.582	0.0185076
883.660	0.0185179
883.738	0.0184034
883.817	0.0182765
883.895	0.0183221
883.973	0.0182449
884.051	0.0180997
884.129	0.0179306
884.207	0.0179155
884.285	0.0176543
884.363	0.0176505
884.442	0.0174432
884.520	0.0172350
884.598	0.0173075
884.676	0.0173152
884.754	0.0170074
884.832	0.0170558
884.910	0.0168777
884.988	0.0169923
885.067	0.0168655
885.145	0.0170027
885.223	0.0170248
885.301	0.0169347
885.379	0.0169219
885.457	0.0171197
885.535	0.0173505
885.613	0.0172961
885.692	0.0173423
885.770	0.0178328
885.848	0.0179914
885.926	0.0181127
886.004	0.0184165
886.082	0.0185484
886.160	0.0186913
886.238	0.0189466
886.317	0.0190062
886.395	0.0192981
886.473	0.0193157
886.551	0.0194226
886.629	0.0194510
886.707	0.0195000
886.785	0.0194433
886.863	0.0194273
886.942	0.0194241
887.020	0.0191468
887.098	0.0188293
887.176	0.0188029
887.254	0.0185984
887.332	0.0185361
887.410	0.0182571
887.488	0.0178989
887.567	0.0177484
887.645	0.0175954
887.723	0.0172390
887.801	0.0170058
887.879	0.0166908
887.957	0.0164553
888.035	0.0162895
888.113	0.0159190
888.192	0.0158317
888.270	0.0156799
888.348	0.0157870
888.426	0.0158846
888.504	0.0156519
888.582	0.0159361
888.660	0.0160155
888.738	0.0162487
888.817	0.0165764
888.895	0.0167559
888.973	0.0170900
889.051	0.0173704
889.129	0.0177271
889.207	0.0182601
889.285	0.0184113
889.363	0.0186177
889.442	0.0191090
889.520	0.0193987
889.598	0.0197216
889.676	0.0200140
889.754	0.0202745
889.832	0.0204202
889.910	0.0205695
889.988	0.0203806
890.067	0.0203105
890.145	0.0202557
890.223	0.0201814
890.301	0.0200875
890.379	0.0198565
890.457	0.0195827
890.535	0.0192912
890.613	0.0189952
890.692	0.0185905
890.770	0.0183556
890.848	0.0182112
890.926	0.0179073
891.004	0.0176630
891.082	0.0172022
891.160	0.0169070
891.238	0.0166341
891.317	0.0163345
891.395	0.0161699
891.473	0.0159958
891.551	0.0158007
891.629	0.0155188
891.707	0.0156417
891.785	0.0155984
891.863	0.0156334
891.942	0.0157617
892.020	0.0159557
892.098	0.0160879
892.176	0.0163116
892.254	0.0164933
892.332	0.0167810
892.410	0.0172108
892.488	0.0173917
892.567	0.0176120
892.645	0.0179510
892.723	0.0182719
892.801	0.0185462
892.879	0.0187743
892.957	0.0190693
893.035	0.0193489
893.113	0.0195718
893.192	0.0199021
893.270	0.0198686
893.348	0.0198464
893.426	0.0200591
893.504	0.0199017
893.582	0.0199078
893.660	0.0196595
893.738	0.0195213
893.817	0.0193391
893.895	0.0190311
893.973	0.0188950
894.051	0.0184990
894.129	0.0182981
894.207	0.0180235
894.285	0.0178197
894.363	0.0176746
894.442	0.0174198
894.520	0.0171511
894.598	0.0171613
894.676	0.0171559
894.754	0.0170480
894.832	0.0170854
894.910	0.0169818
894.988	0.0170737
895.067	0.0170869
895.145	0.0170773
895.223	0.0172471
895.301	0.0171955
895.379	0.0173275
895.457	0.0172998
895.535	0.0174326
895.613	0.0174763
895.692	0.0174851
895.770	0.0175720
895.848	0.0177356
895.926	0.0177021
896.004	0.0178013
896.082	0.0178222
896.160	0.0178478
896.238	0.0180234
896.317	0.0181005
896.395	0.0181460
896.473	0.0181386
896.551	0.0182789
896.629	0.0182500
896.707	0.0183989
896.785	0.0184675
896.863	0.0186028
896.942	0.0186524
897.020	0.0185699
897.098	0.0186195
897.176	0.0185011
897.254	0.0186864
897.332	0.0184796
897.410	0.0182959
897.488	0.0181010
897.567	0.0182199
897.645	0.0181133
897.723	0.0181496
897.801	0.0179814
897.879	0.0180236
897.957	0.0179679
898.035	0.0179055
898.113	0.0177681
898.192	0.0176879
898.270	0.0176632
898.348	0.0178202
898.426	0.0178111
898.504	0.0177690
898.582	0.0179520
898.660	0.0178709
898.738	0.0179049
898.817	0.0179665
898.895	0.0179783
898.973	0.0181308
899.051	0.0181463
899.129	0.0181660
899.207	0.0180073
899.285	0.0180157
899.363	0.0179371
899.442	0.0179410
899.520	0.0180490
899.598	0.0177953
899.676	0.0178316
899.754	0.0176906
899.832	0.0175854
899.910	0.0177202
899.988	0.0177582
900.067	0.0176416
900.145	0.0176414
900.223	0.0176993
900.301	0.0178760
900.379	0.0178391
900.457	0.0177611
900.535	0.0178725
900.613	0.0179568
900.692	0.0179527
900.770	0.0180519
900.848	0.0181026
900.926	0.0182012
901.004	0.0181944
901.082	0.0182469
901.160	0.0183065
901.238	0.0182377
901.317	0.0182640
901.395	0.0183556
901.473	0.0182047
901.551	0.0181281
901.629	0.0180811
901.707	0.0181666
901.785	0.0181135
901.863	0.0179043
901.942	0.0179494
902.020	0.0180289
902.098	0.0179031
902.176	0.0178239
902.254	0.0179350
902.332	0.0177751
902.410	0.0178635
902.488	0.0178788
902.567	0.0177220
902.645	0.0179192
902.723	0.0180104
902.801	0.0180065
902.879	0.0180338
902.957	0.0181769
903.035	0.0180831
903.113	0.0180659
903.192	0.0179734
903.270	0.0179742
903.348	0.0179821
903.426	0.0178760
903.504	0.0178107
903.582	0.0177695
903.660	0.0177656
903.738	0.0176952
903.817	0.0175900
903.895	0.0176688
903.973	0.0177466
904.051	0.0177754
904.129	0.0177420
904.207	0.0178326
904.285	0.0177841
904.363	0.0178049
904.442	0.0178788
904.520	0.0179917
904.598	0.0182967
904.676	0.0181198
904.754	0.0180573
904.832	0.0181351
904.910	0.0183176
904.988	0.0181867
905.067	0.0182644
905.145	0.0183468
905.223	0.0181311
905.301	0.0182330
905.379	0.0181433
905.457	0.0180337
905.535	0.0179626
905.613	0.0179858
905.692	0.0180659
905.770	0.0181547
905.848	0.0179872
905.926	0.0179332
906.004	0.0179453
906.082	0.0180593
906.160	0.0181322
906.238	0.0180923
906.317	0.0180172
906.395	0.0180997
906.473	0.0181056
906.551	0.0181691
906.629	0.0181149
906.707	0.0179889
906.785	0.0180604
906.863	0.0180370
906.942	0.0179156
907.020	0.0178899
907.098	0.0178149
907.176	0.0177517
907.254	0.0177399
907.332	0.0176679
907.410	0.0177098
907.488	0.0175954
907.567	0.0175001
907.645	0.0176372
907.723	0.0178153
907.801	0.0176872
907.879	0.0178782
907.957	0.0177827
908.035	0.0177407
908.113	0.0179369
908.192	0.0180244
908.270	0.0180741
908.348	0.0182055
908.426	0.0180980
908.504	0.0180573
908.582	0.0182518
908.660	0.0182130
908.738	0.0182072
908.817	0.0180170
908.895	0.0180343
908.973	0.0180815
909.051	0.0182247
909.129	0.0181238
909.207	0.0180499
909.285	0.0180810
909.363	0.0181806
909.442	0.0182142
909.520	0.0182247
909.598	0.0180983
909.676	0.0180499
909.754	0.0181099
909.832	0.0182596
909.910	0.0182005
909.988	0.0180771
910.067	0.0182308
910.145	0.0182520
910.223	0.0181668
910.301	0.0181454
910.379	0.0180988
910.457	0.0182040
910.535	0.0180728
910.613	0.0179259
910.692	0.0180109
910.770	0.0177609
910.848	0.0177626
910.926	0.0177501
911.004	0.0177927
911.082	0.0179100
911.160	0.0178725
911.238	0.0179510
911.317	0.0178331
911.395	0.0178013
911.473	0.0179697
911.551	0.0178971
911.629	0.0177236
911.707	0.0180032
911.785	0.0176801
911.863	0.0178517
911.942	0.0177361
912.020	0.0178056
912.098	0.0177254
912.176	0.0177854
912.254	0.0177702
912.332	0.0176479
912.410	0.0175425
912.488	0.0176735
912.567	0.0177168
912.645	0.0177106
912.723	0.0177647
912.801	0.0178179
912.879	0.0176543
912.957	0.0178087
913.035	0.0177228
913.113	0.0178516
913.192	0.0179449
913.270	0.0179192
913.348	0.0181140
913.426	0.0180930
913.504	0.0179623
913.582	0.0181027
913.660	0.0181404
913.738	0.0182203
913.817	0.0180935
913.895	0.0181732
913.973	0.0182089
914.051	0.0181502
914.129	0.0184051
914.207	0.0183585
914.285	0.0181587
914.363	0.0181365
914.442	0.0182347
914.520	0.0181343
914.598	0.0182475
914.676	0.0181973
914.754	0.0182369
914.832	0.0182408
914.910	0.0182175
914.988	0.0182359
915.067	0.0180235
915.145	0.0180852
915.223	0.0180787
915.301	0.0180814
915.379	0.0180389
915.457	0.0178705
915.535	0.0179621
915.613	0.0179269
915.692	0.0178209
915.770	0.0179266
915.848	0.0180095
915.926	0.0179889
916.004	0.0180314
916.082	0.0178207
916.160	0.0179555
916.238	0.0177457
916.317	0.0177726
916.395	0.0179823
916.473	0.0178897
916.551	0.0177625
916.629	0.0177719
916.707	0.0175853
916.785	0.0177870
916.863	0.0178857
916.942	0.0176939
917.020	0.0178085
917.098	0.0177588
917.176	0.0175458
917.254	0.0176752
917.332	0.0176035
917.410	0.0175262
917.488	0.0177473
917.567	0.0177219
917.645	0.0177024
917.723	0.0176768
917.801	0.0176978
917.879	0.0178166
917.957	0.0177644
918.035	0.0177232
918.113	0.0180167
918.192	0.0180799
918.270	0.0179355
918.348	0.0181021
918.426	0.0182512
918.504	0.0181890
918.582	0.0182844
918.660	0.0182621
918.738	0.0182481
918.817	0.0183788
918.895	0.0183495
918.973	0.0184160
919.051	0.0184922
919.129	0.0183304
919.207	0.0183224
919.285	0.0184872
919.363	0.0183611
919.442	0.0183721
919.520	0.0183499
919.598	0.0182640
919.676	0.0182278
919.754	0.0182759
919.832	0.0183060
919.910	0.0182267
