06/01/2022	21:38:07	Ver.	4.1	UNKNOWN
Optical Delay	599.988409	Delta X		0.078125	Sweeps	1	Scan Rate	0/0
Coordinates	Axis 1	NaN	Axis 2	NaN	Axis 3	NaN	Axis 4	NaN	Axis 5	NaN	Axis 6	0.000000
TX Power	0.000000	RX Power	0.000000

599.988	0.0177857
600.067	0.0177510
600.145	0.0178230
600.223	0.0178635
600.301	0.0178359
600.379	0.0179498
600.457	0.0177872
600.535	0.0178298
600.613	0.0178473
600.692	0.0178574
600.770	0.0178582
600.848	0.0175948
600.926	0.0176981
601.004	0.0178127
601.082	0.0177438
601.160	0.0177024
601.238	0.0177853
601.317	0.0177850
601.395	0.0177242
601.473	0.0177584
601.551	0.0178104
601.629	0.0177685
601.707	0.0176446
601.785	0.0177945
601.863	0.0179213
601.942	0.0177881
602.020	0.0177384
602.098	0.0177065
602.176	0.0177904
602.254	0.0177943
602.332	0.0178072
602.410	0.0176787
602.488	0.0178112
602.567	0.0179469
602.645	0.0178003
602.723	0.0178431
602.801	0.0177576
602.879	0.0178801
602.957	0.0177917
603.035	0.0179642
603.113	0.0179202
603.192	0.0176128
603.270	0.0177656
603.348	0.0177624
603.426	0.0177200
603.504	0.0178094
603.582	0.0177602
603.660	0.0177759
603.738	0.0177763
603.817	0.0177152
603.895	0.0176692
603.973	0.0177631
604.051	0.0178288
604.129	0.0179313
604.207	0.0178572
604.285	0.0176582
604.363	0.0177591
604.442	0.0179535
604.520	0.0177890
604.598	0.0177600
604.676	0.0177690
604.754	0.0178292
604.832	0.0178506
604.910	0.0177953
604.988	0.0177901
605.067	0.0177557
605.145	0.0178551
605.223	0.0177969
605.301	0.0178152
605.379	0.0178924
605.457	0.0177466
605.535	0.0178311
605.613	0.0177773
605.692	0.0177262
605.770	0.0177916
605.848	0.0178518
605.926	0.0177933
606.004	0.0177592
606.082	0.0178435
606.160	0.0179092
606.238	0.0178545
606.317	0.0177952
606.395	0.0176878
606.473	0.0176921
606.551	0.0178162
606.629	0.0178958
606.707	0.0177270
606.785	0.0179006
606.863	0.0179023
606.942	0.0179189
607.020	0.0177823
607.098	0.0178268
607.176	0.0178204
607.254	0.0178394
607.332	0.0177713
607.410	0.0178156
607.488	0.0176440
607.567	0.0178555
607.645	0.0177833
607.723	0.0176660
607.801	0.0177813
607.879	0.0177201
607.957	0.0178042
608.035	0.0179095
608.113	0.0176644
608.192	0.0178074
608.270	0.0176962
608.348	0.0178188
608.426	0.0178329
608.504	0.0177147
608.582	0.0177255
608.660	0.0177724
608.738	0.0176785
608.817	0.0177644
608.895	0.0176814
608.973	0.0176727
609.051	0.0176508
609.129	0.0177351
609.207	0.0177695
609.285	0.0177180
609.363	0.0176507
609.442	0.0177080
609.520	0.0177275
609.598	0.0177689
609.676	0.0178755
609.754	0.0176959
609.832	0.0176677
609.910	0.0178000
609.988	0.0178192
610.067	0.0177041
610.145	0.0177819
610.223	0.0176815
610.301	0.0177547
610.379	0.0178311
610.457	0.0177206
610.535	0.0177722
610.613	0.0178529
610.692	0.0177944
610.770	0.0177535
610.848	0.0177670
610.926	0.0177229
611.004	0.0178690
611.082	0.0177455
611.160	0.0178545
611.238	0.0178851
611.317	0.0176926
611.395	0.0176604
611.473	0.0176703
611.551	0.0176718
611.629	0.0178436
611.707	0.0179210
611.785	0.0177969
611.863	0.0177265
611.942	0.0177221
612.020	0.0176843
612.098	0.0177343
612.176	0.0177382
612.254	0.0178054
612.332	0.0178343
612.410	0.0177708
612.488	0.0178695
612.567	0.0178578
612.645	0.0178219
612.723	0.0177110
612.801	0.0177052
612.879	0.0177570
612.957	0.0178683
613.035	0.0178823
613.113	0.0178792
613.192	0.0177176
613.270	0.0177848
613.348	0.0177809
613.426	0.0177187
613.504	0.0178333
613.582	0.0176869
613.660	0.0177551
613.738	0.0176543
613.817	0.0177238
613.895	0.0176749
613.973	0.0176690
614.051	0.0177637
614.129	0.0177727
614.207	0.0176038
614.285	0.0176394
614.363	0.0176736
614.442	0.0177557
614.520	0.0177576
614.598	0.0176691
614.676	0.0177409
614.754	0.0175777
614.832	0.0176690
614.910	0.0176930
614.988	0.0177889
615.067	0.0178237
615.145	0.0178151
615.223	0.0179062
615.301	0.0177230
615.379	0.0177813
615.457	0.0177629
615.535	0.0178394
615.613	0.0179047
615.692	0.0179545
615.770	0.0178678
615.848	0.0176912
615.926	0.0178088
616.004	0.0178979
616.082	0.0177914
616.160	0.0178367
616.238	0.0179134
616.317	0.0178732
616.395	0.0178246
616.473	0.0177814
616.551	0.0177670
616.629	0.0178996
616.707	0.0178727
616.785	0.0178459
616.863	0.0177399
616.942	0.0176983
617.020	0.0177235
617.098	0.0176673
617.176	0.0178308
617.254	0.0177259
617.332	0.0175470
617.410	0.0177770
617.488	0.0176124
617.567	0.0176444
617.645	0.0175857
617.723	0.0176787
617.801	0.0175981
617.879	0.0175369
617.957	0.0178178
618.035	0.0178599
618.113	0.0176591
618.192	0.0176125
618.270	0.0176634
618.348	0.0177542
618.426	0.0176903
618.504	0.0177860
618.582	0.0178213
618.660	0.0178045
618.738	0.0177941
618.817	0.0178227
618.895	0.0178827
618.973	0.0177995
619.051	0.0178947
619.129	0.0178236
619.207	0.0179215
619.285	0.0179800
619.363	0.0178034
619.442	0.0178563
619.520	0.0178664
619.598	0.0179482
619.676	0.0178021
619.754	0.0179276
619.832	0.0177751
619.910	0.0178019
619.988	0.0176971
620.067	0.0178046
620.145	0.0179044
620.223	0.0178028
620.301	0.0177059
620.379	0.0176413
620.457	0.0177469
620.535	0.0177171
620.613	0.0176294
620.692	0.0177410
620.770	0.0176980
620.848	0.0175578
620.926	0.0176936
621.004	0.0176158
621.082	0.0175968
621.160	0.0175981
621.238	0.0176031
621.317	0.0177258
621.395	0.0175836
621.473	0.0175927
621.551	0.0176679
621.629	0.0176908
621.707	0.0175014
621.785	0.0175871
621.863	0.0176473
621.942	0.0177766
622.020	0.0177412
622.098	0.0177645
622.176	0.0178252
622.254	0.0178641
622.332	0.0178282
622.410	0.0178125
622.488	0.0177727
622.567	0.0178606
622.645	0.0179263
622.723	0.0179954
622.801	0.0179147
622.879	0.0179567
622.957	0.0178513
623.035	0.0179409
623.113	0.0180139
623.192	0.0178992
623.270	0.0178046
623.348	0.0178531
623.426	0.0178584
623.504	0.0177991
623.582	0.0177740
623.660	0.0177986
623.738	0.0179062
623.817	0.0178333
623.895	0.0177579
623.973	0.0178751
624.051	0.0178117
624.129	0.0177376
624.207	0.0176146
624.285	0.0176895
624.363	0.0177905
624.442	0.0177108
624.520	0.0176008
624.598	0.0178278
624.676	0.0177197
624.754	0.0175962
624.832	0.0177856
624.910	0.0177928
624.988	0.0176222
625.067	0.0176984
625.145	0.0178155
625.223	0.0177492
625.301	0.0175819
625.379	0.0176353
625.457	0.0177238
625.535	0.0177462
625.613	0.0177544
625.692	0.0177514
625.770	0.0177242
625.848	0.0177934
625.926	0.0177880
626.004	0.0178836
626.082	0.0178487
626.160	0.0177668
626.238	0.0178835
626.317	0.0177808
626.395	0.0176813
626.473	0.0177460
626.551	0.0178333
626.629	0.0177640
626.707	0.0178997
626.785	0.0177373
626.863	0.0177477
626.942	0.0177962
627.020	0.0177377
627.098	0.0178067
627.176	0.0177277
627.254	0.0176978
627.332	0.0178260
627.410	0.0177480
627.488	0.0176241
627.567	0.0178291
627.645	0.0177095
627.723	0.0178265
627.801	0.0177235
627.879	0.0177071
627.957	0.0178411
628.035	0.0179049
628.113	0.0178055
628.192	0.0178120
628.270	0.0178101
628.348	0.0176928
628.426	0.0177598
628.504	0.0177837
628.582	0.0177063
628.660	0.0177528
628.738	0.0178127
628.817	0.0177925
628.895	0.0179237
628.973	0.0178886
629.051	0.0177239
629.129	0.0177679
629.207	0.0178074
629.285	0.0177678
629.363	0.0177208
629.442	0.0178539
629.520	0.0178151
629.598	0.0177821
629.676	0.0179208
629.754	0.0177885
629.832	0.0177999
629.910	0.0177294
629.988	0.0177254
630.067	0.0177714
630.145	0.0177955
630.223	0.0177999
630.301	0.0177287
630.379	0.0177464
630.457	0.0177707
630.535	0.0177356
630.613	0.0178360
630.692	0.0177133
630.770	0.0178778
630.848	0.0178046
630.926	0.0177370
631.004	0.0179018
631.082	0.0177831
631.160	0.0177909
631.238	0.0178137
631.317	0.0178100
631.395	0.0178924
631.473	0.0177286
631.551	0.0178497
631.629	0.0177213
631.707	0.0178197
631.785	0.0176917
631.863	0.0179623
631.942	0.0179276
632.020	0.0177168
632.098	0.0177732
632.176	0.0179516
632.254	0.0177126
632.332	0.0178196
632.410	0.0178437
632.488	0.0178089
632.567	0.0178089
632.645	0.0178403
632.723	0.0178012
632.801	0.0176959
632.879	0.0179080
632.957	0.0177483
633.035	0.0178739
633.113	0.0178443
633.192	0.0177171
633.270	0.0178072
633.348	0.0177987
633.426	0.0177505
633.504	0.0177810
633.582	0.0179105
633.660	0.0178062
633.738	0.0178709
633.817	0.0178115
633.895	0.0177312
633.973	0.0178597
634.051	0.0177579
634.129	0.0178780
634.207	0.0177026
634.285	0.0179257
634.363	0.0179334
634.442	0.0177811
634.520	0.0177695
634.598	0.0176537
634.676	0.0177351
634.754	0.0178048
634.832	0.0178650
634.910	0.0177022
634.988	0.0178287
635.067	0.0177672
635.145	0.0177489
635.223	0.0177876
635.301	0.0177191
635.379	0.0176784
635.457	0.0177583
635.535	0.0177734
635.613	0.0177081
635.692	0.0177579
635.770	0.0178380
635.848	0.0177739
635.926	0.0177403
636.004	0.0176269
636.082	0.0176714
636.160	0.0177100
636.238	0.0178152
636.317	0.0179252
636.395	0.0176516
636.473	0.0176046
636.551	0.0178349
636.629	0.0178716
636.707	0.0177345
636.785	0.0179062
636.863	0.0177660
636.942	0.0178112
637.020	0.0177364
637.098	0.0176218
637.176	0.0178345
637.254	0.0179446
637.332	0.0178141
637.410	0.0177689
637.488	0.0177491
637.567	0.0179010
637.645	0.0178082
637.723	0.0178219
637.801	0.0177629
637.879	0.0177803
637.957	0.0176140
638.035	0.0177469
638.113	0.0177174
638.192	0.0178083
638.270	0.0177431
638.348	0.0179114
638.426	0.0177855
638.504	0.0177187
638.582	0.0178407
638.660	0.0178308
638.738	0.0177568
638.817	0.0176408
638.895	0.0177785
638.973	0.0177613
639.051	0.0176904
639.129	0.0177815
639.207	0.0176534
639.285	0.0176228
639.363	0.0177969
639.442	0.0176527
639.520	0.0177262
639.598	0.0177809
639.676	0.0178482
639.754	0.0176502
639.832	0.0177498
639.910	0.0178756
639.988	0.0177845
640.067	0.0177223
640.145	0.0176944
640.223	0.0177600
640.301	0.0178358
640.379	0.0178498
640.457	0.0177098
640.535	0.0177357
640.613	0.0178030
640.692	0.0176612
640.770	0.0176903
640.848	0.0177837
640.926	0.0177374
641.004	0.0176985
641.082	0.0178213
641.160	0.0177302
641.238	0.0177574
641.317	0.0177758
641.395	0.0177557
641.473	0.0178080
641.551	0.0177937
641.629	0.0178320
641.707	0.0176595
641.785	0.0177216
641.863	0.0178828
641.942	0.0177789
642.020	0.0177043
642.098	0.0177606
642.176	0.0177130
642.254	0.0176591
642.332	0.0178761
642.410	0.0177217
642.488	0.0176958
642.567	0.0177370
642.645	0.0177340
642.723	0.0177440
642.801	0.0177652
642.879	0.0176833
642.957	0.0178262
643.035	0.0176690
643.113	0.0177000
643.192	0.0176646
643.270	0.0177883
643.348	0.0179109
643.426	0.0178030
643.504	0.0177103
643.582	0.0176794
643.660	0.0177997
643.738	0.0178069
643.817	0.0176089
643.895	0.0176934
643.973	0.0178937
644.051	0.0177831
644.129	0.0177641
644.207	0.0178723
644.285	0.0177827
644.363	0.0177061
644.442	0.0177376
644.520	0.0179337
644.598	0.0177822
644.676	0.0177429
644.754	0.0177546
644.832	0.0178425
644.910	0.0178120
644.988	0.0177956
645.067	0.0178218
645.145	0.0179059
645.223	0.0176897
645.301	0.0177439
645.379	0.0177245
645.457	0.0177573
645.535	0.0179787
645.613	0.0176992
645.692	0.0177023
645.770	0.0177287
645.848	0.0177654
645.926	0.0178806
646.004	0.0177448
646.082	0.0176229
646.160	0.0177769
646.238	0.0178450
646.317	0.0176708
646.395	0.0178372
646.473	0.0177467
646.551	0.0177635
646.629	0.0177684
646.707	0.0178848
646.785	0.0177641
646.863	0.0178062
646.942	0.0177238
647.020	0.0177578
647.098	0.0178165
647.176	0.0178931
647.254	0.0177588
647.332	0.0176971
647.410	0.0178145
647.488	0.0176936
647.567	0.0178638
647.645	0.0177879
647.723	0.0177488
647.801	0.0176958
647.879	0.0178019
647.957	0.0178947
648.035	0.0178094
648.113	0.0176855
648.192	0.0177474
648.270	0.0177869
648.348	0.0178400
648.426	0.0176970
648.504	0.0176592
648.582	0.0176597
648.660	0.0177399
648.738	0.0177914
648.817	0.0177902
648.895	0.0178237
648.973	0.0177390
649.051	0.0176925
649.129	0.0177997
649.207	0.0179169
649.285	0.0178529
649.363	0.0178578
649.442	0.0177223
649.520	0.0177471
649.598	0.0177596
649.676	0.0177400
649.754	0.0178054
649.832	0.0178522
649.910	0.0178090
649.988	0.0177255
650.067	0.0177591
650.145	0.0176996
650.223	0.0177573
650.301	0.0177033
650.379	0.0177254
650.457	0.0178999
650.535	0.0176156
650.613	0.0177406
650.692	0.0178002
650.770	0.0177982
650.848	0.0178351
650.926	0.0178757
651.004	0.0177891
651.082	0.0176958
651.160	0.0177183
651.238	0.0178745
651.317	0.0178146
651.395	0.0176984
651.473	0.0178575
651.551	0.0178458
651.629	0.0176443
651.707	0.0176384
651.785	0.0176871
651.863	0.0178281
651.942	0.0178403
652.020	0.0178108
652.098	0.0176917
652.176	0.0178149
652.254	0.0177518
652.332	0.0177078
652.410	0.0178996
652.488	0.0178277
652.567	0.0177654
652.645	0.0176736
652.723	0.0178410
652.801	0.0178973
652.879	0.0177281
652.957	0.0177094
653.035	0.0178326
653.113	0.0177773
653.192	0.0177699
653.270	0.0177916
653.348	0.0176575
653.426	0.0176107
653.504	0.0177836
653.582	0.0177338
653.660	0.0177895
653.738	0.0177976
653.817	0.0178735
653.895	0.0177515
653.973	0.0178155
654.051	0.0177684
654.129	0.0180260
654.207	0.0176662
654.285	0.0176625
654.363	0.0177303
654.442	0.0177687
654.520	0.0176980
654.598	0.0176792
654.676	0.0177847
654.754	0.0177847
654.832	0.0177166
654.910	0.0176611
654.988	0.0177763
655.067	0.0179154
655.145	0.0175980
655.223	0.0177727
655.301	0.0178307
655.379	0.0177806
655.457	0.0176898
655.535	0.0178186
655.613	0.0177751
655.692	0.0176731
655.770	0.0176508
655.848	0.0176768
655.926	0.0176863
656.004	0.0176748
656.082	0.0178090
656.160	0.0176988
656.238	0.0177943
656.317	0.0177108
656.395	0.0177540
656.473	0.0178106
656.551	0.0176931
656.629	0.0177251
656.707	0.0177063
656.785	0.0176951
656.863	0.0177704
656.942	0.0178622
657.020	0.0178166
657.098	0.0175974
657.176	0.0177636
657.254	0.0176488
657.332	0.0178069
657.410	0.0177556
657.488	0.0177219
657.567	0.0177452
657.645	0.0177028
657.723	0.0176465
657.801	0.0176702
657.879	0.0177120
657.957	0.0177387
658.035	0.0178639
658.113	0.0178545
658.192	0.0177458
658.270	0.0176920
658.348	0.0178032
658.426	0.0177163
658.504	0.0177355
658.582	0.0178898
658.660	0.0178001
658.738	0.0176981
658.817	0.0177402
658.895	0.0177525
658.973	0.0177625
659.051	0.0177151
659.129	0.0179222
659.207	0.0177589
659.285	0.0178914
659.363	0.0177890
659.442	0.0178017
659.520	0.0177979
659.598	0.0177428
659.676	0.0177301
659.754	0.0176938
659.832	0.0179262
659.910	0.0178978
659.988	0.0178353
660.067	0.0177802
660.145	0.0178997
660.223	0.0176610
660.301	0.0176441
660.379	0.0178027
660.457	0.0178431
660.535	0.0178157
660.613	0.0177067
660.692	0.0177142
660.770	0.0177783
660.848	0.0177220
660.926	0.0176955
661.004	0.0178318
661.082	0.0176971
661.160	0.0178014
661.238	0.0177922
661.317	0.0177857
661.395	0.0177846
661.473	0.0177606
661.551	0.0177004
661.629	0.0178108
661.707	0.0178008
661.785	0.0177364
661.863	0.0179365
661.942	0.0178711
662.020	0.0178243
662.098	0.0177148
662.176	0.0176493
662.254	0.0178768
662.332	0.0177523
662.410	0.0177627
662.488	0.0179115
662.567	0.0178720
662.645	0.0177921
662.723	0.0177921
662.801	0.0178255
662.879	0.0177869
662.957	0.0177698
663.035	0.0177341
663.113	0.0177977
663.192	0.0177441
663.270	0.0177577
663.348	0.0179086
663.426	0.0177663
663.504	0.0178973
663.582	0.0177944
663.660	0.0177858
663.738	0.0177681
663.817	0.0178462
663.895	0.0178214
663.973	0.0178880
664.051	0.0178596
664.129	0.0178370
664.207	0.0177889
664.285	0.0177348
664.363	0.0177419
664.442	0.0177055
664.520	0.0177294
664.598	0.0178802
664.676	0.0177821
664.754	0.0178108
664.832	0.0177098
664.910	0.0178149
664.988	0.0178841
665.067	0.0178541
665.145	0.0178578
665.223	0.0179521
665.301	0.0177710
665.379	0.0177713
665.457	0.0178390
665.535	0.0178761
665.613	0.0179317
665.692	0.0178937
665.770	0.0177127
665.848	0.0177461
665.926	0.0178210
666.004	0.0177656
666.082	0.0178798
666.160	0.0179145
666.238	0.0178561
666.317	0.0177180
666.395	0.0178848
666.473	0.0178000
666.551	0.0177422
666.629	0.0177634
666.707	0.0177640
666.785	0.0178217
666.863	0.0176846
666.942	0.0177076
667.020	0.0179160
667.098	0.0177321
667.176	0.0178800
667.254	0.0178529
667.332	0.0177084
667.410	0.0177233
667.488	0.0177847
667.567	0.0178474
667.645	0.0178805
667.723	0.0178636
667.801	0.0178207
667.879	0.0177972
667.957	0.0177589
668.035	0.0178337
668.113	0.0177950
668.192	0.0178265
668.270	0.0178092
668.348	0.0177866
668.426	0.0178261
668.504	0.0178562
668.582	0.0178938
668.660	0.0178715
668.738	0.0178191
668.817	0.0177412
668.895	0.0177654
668.973	0.0179578
669.051	0.0177512
669.129	0.0177569
669.207	0.0177486
669.285	0.0176657
669.363	0.0176886
669.442	0.0177629
669.520	0.0177483
669.598	0.0179905
669.676	0.0179221
669.754	0.0177334
669.832	0.0177862
669.910	0.0177087
669.988	0.0178027
670.067	0.0178409
670.145	0.0178521
670.223	0.0178062
670.301	0.0177803
670.379	0.0177282
670.457	0.0177104
670.535	0.0179002
670.613	0.0178168
670.692	0.0179179
670.770	0.0178451
670.848	0.0177345
670.926	0.0177811
671.004	0.0177422
671.082	0.0177306
671.160	0.0178374
671.238	0.0176920
671.317	0.0176935
671.395	0.0178738
671.473	0.0177324
671.551	0.0176860
671.629	0.0177418
671.707	0.0176917
671.785	0.0177557
671.863	0.0178861
671.942	0.0178051
672.020	0.0177322
672.098	0.0178403
672.176	0.0178236
672.254	0.0177721
672.332	0.0177928
672.410	0.0177618
672.488	0.0176946
672.567	0.0178616
672.645	0.0178536
672.723	0.0178117
672.801	0.0178434
672.879	0.0177206
672.957	0.0177422
673.035	0.0177703
673.113	0.0177200
673.192	0.0177091
673.270	0.0177509
673.348	0.0177396
673.426	0.0177690
673.504	0.0180031
673.582	0.0178503
673.660	0.0178075
673.738	0.0177753
673.817	0.0176358
673.895	0.0176321
673.973	0.0178582
674.051	0.0177425
674.129	0.0177963
674.207	0.0178440
674.285	0.0178620
674.363	0.0176520
674.442	0.0176716
674.520	0.0177884
674.598	0.0177180
674.676	0.0178247
674.754	0.0176658
674.832	0.0176977
674.910	0.0178280
674.988	0.0177084
675.067	0.0177448
675.145	0.0176598
675.223	0.0176979
675.301	0.0178139
675.379	0.0177961
675.457	0.0178814
675.535	0.0178574
675.613	0.0177239
675.692	0.0177367
675.770	0.0177387
675.848	0.0177943
675.926	0.0177315
676.004	0.0178783
676.082	0.0176771
676.160	0.0177312
676.238	0.0177440
676.317	0.0177659
676.395	0.0177480
676.473	0.0178178
676.551	0.0177330
676.629	0.0178139
676.707	0.0177509
676.785	0.0177803
676.863	0.0176994
676.942	0.0177366
677.020	0.0178124
677.098	0.0178459
677.176	0.0177377
677.254	0.0177769
677.332	0.0177842
677.410	0.0177840
677.488	0.0178062
677.567	0.0178313
677.645	0.0176888
677.723	0.0177254
677.801	0.0176801
677.879	0.0176868
677.957	0.0178303
678.035	0.0178240
678.113	0.0177621
678.192	0.0177441
678.270	0.0178186
678.348	0.0178017
678.426	0.0178048
678.504	0.0177880
678.582	0.0177543
678.660	0.0178071
678.738	0.0178352
678.817	0.0175702
678.895	0.0177187
678.973	0.0176373
679.051	0.0176611
679.129	0.0177283
679.207	0.0178525
679.285	0.0178143
679.363	0.0177470
679.442	0.0177684
679.520	0.0178734
679.598	0.0178810
679.676	0.0178363
679.754	0.0176002
679.832	0.0178481
679.910	0.0178558
679.988	0.0177833
680.067	0.0177898
680.145	0.0178197
680.223	0.0177206
680.301	0.0177492
680.379	0.0177284
680.457	0.0176882
680.535	0.0178135
680.613	0.0179128
680.692	0.0177285
680.770	0.0176026
680.848	0.0176543
680.926	0.0177242
681.004	0.0177052
681.082	0.0176568
681.160	0.0178592
681.238	0.0178085
681.317	0.0177941
681.395	0.0177625
681.473	0.0177617
681.551	0.0177625
681.629	0.0176740
681.707	0.0178358
681.785	0.0179350
681.863	0.0177807
681.942	0.0177406
682.020	0.0176691
682.098	0.0176784
682.176	0.0176317
682.254	0.0176761
682.332	0.0176430
682.410	0.0175458
682.488	0.0174502
682.567	0.0174955
682.645	0.0175752
682.723	0.0176324
682.801	0.0176875
682.879	0.0176776
682.957	0.0177165
683.035	0.0178188
683.113	0.0178948
683.192	0.0177663
683.270	0.0179877
683.348	0.0180064
683.426	0.0179111
683.504	0.0181052
683.582	0.0180550
683.660	0.0180013
683.738	0.0181372
683.817	0.0182425
683.895	0.0180595
683.973	0.0180461
684.051	0.0179852
684.129	0.0180676
684.207	0.0179205
684.285	0.0177793
684.363	0.0176922
684.442	0.0177834
684.520	0.0176244
684.598	0.0174982
684.676	0.0175159
684.754	0.0174722
684.832	0.0173346
684.910	0.0173372
684.988	0.0172903
685.067	0.0173106
685.145	0.0173627
685.223	0.0174059
685.301	0.0175696
685.379	0.0175330
685.457	0.0174034
685.535	0.0176849
685.613	0.0178159
685.692	0.0177251
685.770	0.0177435
685.848	0.0178946
685.926	0.0179498
686.004	0.0178929
686.082	0.0178145
686.160	0.0177894
686.238	0.0178648
686.317	0.0179601
686.395	0.0179454
686.473	0.0179102
686.551	0.0179567
686.629	0.0180141
686.707	0.0179165
686.785	0.0180650
686.863	0.0179812
686.942	0.0180185
687.020	0.0180091
687.098	0.0178787
687.176	0.0179359
687.254	0.0176125
687.332	0.0177223
687.410	0.0176237
687.488	0.0175365
687.567	0.0174248
687.645	0.0174847
687.723	0.0175822
687.801	0.0174924
687.879	0.0176633
687.957	0.0175926
688.035	0.0177522
688.113	0.0177969
688.192	0.0177538
688.270	0.0177348
688.348	0.0177474
688.426	0.0177663
688.504	0.0178120
688.582	0.0181443
688.660	0.0180023
688.738	0.0180591
688.817	0.0183657
688.895	0.0185775
688.973	0.0188728
689.051	0.0188452
689.129	0.0190180
689.207	0.0193002
689.285	0.0194054
689.363	0.0194940
689.442	0.0192654
689.520	0.0192254
689.598	0.0188750
689.676	0.0187689
689.754	0.0183228
689.832	0.0177659
689.910	0.0173656
689.988	0.0167558
690.067	0.0163989
690.145	0.0158927
690.223	0.0152805
690.301	0.0148550
690.379	0.0145840
690.457	0.0142813
690.535	0.0141048
690.613	0.0139675
690.692	0.0140044
690.770	0.0141308
690.848	0.0143394
690.926	0.0148597
691.004	0.0152316
691.082	0.0156648
691.160	0.0163252
691.238	0.0170975
691.317	0.0178714
691.395	0.0188078
691.473	0.0196310
691.551	0.0207668
691.629	0.0217300
691.707	0.0229427
691.785	0.0239712
691.863	0.0251069
691.942	0.0259320
692.020	0.0267181
692.098	0.0273309
692.176	0.0274718
692.254	0.0273981
692.332	0.0270113
692.410	0.0260157
692.488	0.0249196
692.567	0.0233364
692.645	0.0212814
692.723	0.0193543
692.801	0.0173161
692.879	0.0151714
692.957	0.0129752
693.035	0.0109439
693.113	0.00934547
693.192	0.00759293
693.270	0.00613113
693.348	0.00512100
693.426	0.00431084
693.504	0.00364998
693.582	0.00352943
693.660	0.00360428
693.738	0.00381233
693.817	0.00457748
693.895	0.00570793
693.973	0.00724792
694.051	0.00895370
694.129	0.0110570
694.207	0.0134872
694.285	0.0160404
694.363	0.0186086
694.442	0.0210503
694.520	0.0233878
694.598	0.0257104
694.676	0.0276763
694.754	0.0293208
694.832	0.0306118
694.910	0.0316796
694.988	0.0324422
695.067	0.0330378
695.145	0.0332716
695.223	0.0336219
695.301	0.0335159
695.379	0.0334924
695.457	0.0332063
695.535	0.0327509
695.613	0.0320139
695.692	0.0311852
695.770	0.0300238
695.848	0.0285379
695.926	0.0266614
696.004	0.0244571
696.082	0.0218185
696.160	0.0189239
696.238	0.0158727
696.317	0.0124231
696.395	0.00903419
696.473	0.00571510
696.551	0.00295494
696.629	-0.0000130463
696.707	-0.00270424
696.785	-0.00468956
696.863	-0.00624695
696.942	-0.00743736
697.020	-0.00804115
697.098	-0.00807365
697.176	-0.00775360
697.254	-0.00671867
697.332	-0.00504257
697.410	-0.00285126
697.488	-0.000221405
697.567	0.00294937
697.645	0.00638794
697.723	0.0104942
697.801	0.0147277
697.879	0.0190209
697.957	0.0233865
698.035	0.0276540
698.113	0.0314591
698.192	0.0352194
698.270	0.0381609
698.348	0.0408360
698.426	0.0427231
698.504	0.0440157
698.582	0.0447914
698.660	0.0450536
698.738	0.0448402
698.817	0.0440953
698.895	0.0430685
698.973	0.0417155
699.051	0.0400193
699.129	0.0381190
699.207	0.0360728
699.285	0.0336868
699.363	0.0310427
699.442	0.0281351
699.520	0.0250893
699.598	0.0217690
699.676	0.0183002
699.754	0.0147361
699.832	0.0110439
699.910	0.00716522
699.988	0.00368034
700.067	0.000307388
700.145	-0.00301407
700.223	-0.00556145
700.301	-0.00793533
700.379	-0.00966797
700.457	-0.0107990
700.535	-0.0115639
700.613	-0.0116179
700.692	-0.0113026
700.770	-0.0105797
700.848	-0.00881577
700.926	-0.00668762
701.004	-0.00413208
701.082	-0.00101280
701.160	0.00248764
701.238	0.00609016
701.317	0.0103108
701.395	0.0142927
701.473	0.0182970
701.551	0.0225694
701.629	0.0264375
701.707	0.0300040
701.785	0.0331225
701.863	0.0359967
701.942	0.0384014
702.020	0.0403580
702.098	0.0416568
702.176	0.0424966
702.254	0.0428275
702.332	0.0428500
702.410	0.0422325
702.488	0.0413874
702.567	0.0400529
702.645	0.0385437
702.723	0.0366564
702.801	0.0346334
702.879	0.0322223
702.957	0.0297332
703.035	0.0269999
703.113	0.0241325
703.192	0.0212250
703.270	0.0183645
703.348	0.0157547
703.426	0.0129918
703.504	0.0105523
703.582	0.00837326
703.660	0.00646965
703.738	0.00489494
703.817	0.00370293
703.895	0.00274582
703.973	0.00219452
704.051	0.00170357
704.129	0.00161407
704.207	0.00194946
704.285	0.00221497
704.363	0.00301598
704.442	0.00400795
704.520	0.00506470
704.598	0.00624275
704.676	0.00785004
704.754	0.00937508
704.832	0.0109238
704.910	0.0126078
704.988	0.0140255
705.067	0.0156630
705.145	0.0172588
705.223	0.0184460
705.301	0.0196925
705.379	0.0209124
705.457	0.0218314
705.535	0.0226417
705.613	0.0233031
705.692	0.0239236
705.770	0.0241877
705.848	0.0242850
705.926	0.0245351
706.004	0.0244668
706.082	0.0241499
706.160	0.0239117
706.238	0.0236649
706.317	0.0232259
706.395	0.0226570
706.473	0.0221529
706.551	0.0216211
706.629	0.0212029
706.707	0.0204991
706.785	0.0202000
706.863	0.0198747
706.942	0.0193392
707.020	0.0190627
707.098	0.0187730
707.176	0.0186680
707.254	0.0182473
707.332	0.0180412
707.410	0.0177905
707.488	0.0174318
707.567	0.0172533
707.645	0.0170237
707.723	0.0167754
707.801	0.0164402
707.879	0.0163275
707.957	0.0162162
708.035	0.0161589
708.113	0.0160566
708.192	0.0161083
708.270	0.0163090
708.348	0.0164306
708.426	0.0165488
708.504	0.0167770
708.582	0.0172030
708.660	0.0175684
708.738	0.0179853
708.817	0.0184469
708.895	0.0187611
708.973	0.0194109
709.051	0.0196850
709.129	0.0201063
709.207	0.0203399
709.285	0.0203668
709.363	0.0203060
709.442	0.0202518
709.520	0.0199291
709.598	0.0195725
709.676	0.0188803
709.754	0.0182957
709.832	0.0176102
709.910	0.0166802
709.988	0.0157890
710.067	0.0151800
710.145	0.0143160
710.223	0.0136948
710.301	0.0129391
710.379	0.0125291
710.457	0.0122724
710.535	0.0120793
710.613	0.0121835
710.692	0.0122733
710.770	0.0125181
710.848	0.0129060
710.926	0.0133059
711.004	0.0139465
711.082	0.0146933
711.160	0.0152731
711.238	0.0157150
711.317	0.0163123
711.395	0.0169352
711.473	0.0175445
711.551	0.0177853
711.629	0.0182168
711.707	0.0186699
711.785	0.0190168
711.863	0.0193394
711.942	0.0196368
712.020	0.0198422
712.098	0.0199352
712.176	0.0203301
712.254	0.0207513
712.332	0.0208893
712.410	0.0212707
712.488	0.0218023
712.567	0.0221297
712.645	0.0222806
712.723	0.0227363
712.801	0.0229784
712.879	0.0231120
712.957	0.0231430
713.035	0.0230344
713.113	0.0228925
713.192	0.0224550
713.270	0.0219868
713.348	0.0212364
713.426	0.0206214
713.504	0.0200565
713.582	0.0192683
713.660	0.0184151
713.738	0.0176231
713.817	0.0169998
713.895	0.0165301
713.973	0.0159221
714.051	0.0157349
714.129	0.0155563
714.207	0.0155060
714.285	0.0154196
714.363	0.0154545
714.442	0.0155956
714.520	0.0156368
714.598	0.0155019
714.676	0.0156248
714.754	0.0155894
714.832	0.0156995
714.910	0.0155450
714.988	0.0152506
715.067	0.0151767
715.145	0.0151263
715.223	0.0150551
715.301	0.0147105
715.379	0.0148888
715.457	0.0147250
715.535	0.0149274
715.613	0.0150876
715.692	0.0153300
715.770	0.0155296
715.848	0.0158440
715.926	0.0159832
716.004	0.0165657
716.082	0.0171220
716.160	0.0171689
716.238	0.0177313
716.317	0.0181148
716.395	0.0182351
716.473	0.0185240
716.551	0.0188139
716.629	0.0188865
716.707	0.0188895
716.785	0.0190736
716.863	0.0191519
716.942	0.0190825
717.020	0.0190630
717.098	0.0191624
717.176	0.0190858
717.254	0.0188268
717.332	0.0190585
717.410	0.0190339
717.488	0.0191154
717.567	0.0190025
717.645	0.0189055
717.723	0.0190978
717.801	0.0190094
717.879	0.0191708
717.957	0.0191671
718.035	0.0193643
718.113	0.0192009
718.192	0.0193308
718.270	0.0193113
718.348	0.0191479
718.426	0.0191398
718.504	0.0188677
718.582	0.0189121
718.660	0.0187330
718.738	0.0185008
718.817	0.0182487
718.895	0.0180766
718.973	0.0178003
719.051	0.0177866
719.129	0.0174829
719.207	0.0175549
719.285	0.0175114
719.363	0.0173881
719.442	0.0175244
719.520	0.0175531
719.598	0.0177850
719.676	0.0177783
719.754	0.0180968
719.832	0.0184257
719.910	0.0183557
719.988	0.0183916
720.067	0.0184769
720.145	0.0183877
720.223	0.0184024
720.301	0.0182258
720.379	0.0181365
720.457	0.0179731
720.535	0.0175815
720.613	0.0173827
720.692	0.0170125
720.770	0.0169129
720.848	0.0166261
720.926	0.0161437
721.004	0.0161572
721.082	0.0159332
721.160	0.0156539
721.238	0.0156506
721.317	0.0156223
721.395	0.0155111
721.473	0.0158881
721.551	0.0159817
721.629	0.0160844
721.707	0.0161202
721.785	0.0164466
721.863	0.0167403
721.942	0.0167816
722.020	0.0169653
722.098	0.0171784
722.176	0.0172683
722.254	0.0174009
722.332	0.0175938
722.410	0.0177671
722.488	0.0178083
722.567	0.0178903
722.645	0.0180293
722.723	0.0180471
722.801	0.0181468
722.879	0.0183356
722.957	0.0182686
723.035	0.0183555
723.113	0.0186141
723.192	0.0185889
723.270	0.0186734
723.348	0.0186943
723.426	0.0187572
723.504	0.0187956
723.582	0.0188752
723.660	0.0190553
723.738	0.0190215
723.817	0.0191759
723.895	0.0191029
723.973	0.0191731
724.051	0.0192219
724.129	0.0191673
724.207	0.0192509
724.285	0.0190112
724.363	0.0189820
724.442	0.0191177
724.520	0.0189068
724.598	0.0187115
724.676	0.0186598
724.754	0.0185137
724.832	0.0183196
724.910	0.0180504
724.988	0.0180032
725.067	0.0178802
725.145	0.0178193
725.223	0.0175396
725.301	0.0174210
725.379	0.0174487
725.457	0.0175352
725.535	0.0174471
725.613	0.0175496
725.692	0.0174738
725.770	0.0175900
725.848	0.0176295
725.926	0.0176791
726.004	0.0174649
726.082	0.0175491
726.160	0.0174525
726.238	0.0173527
726.317	0.0174071
726.395	0.0173740
726.473	0.0171772
726.551	0.0172965
726.629	0.0169257
726.707	0.0169471
726.785	0.0167628
726.863	0.0167796
726.942	0.0167730
727.020	0.0166067
727.098	0.0163836
727.176	0.0164891
727.254	0.0165342
727.332	0.0167002
727.410	0.0165152
727.488	0.0168214
727.567	0.0170027
727.645	0.0172366
727.723	0.0172818
727.801	0.0175420
727.879	0.0178741
727.957	0.0180752
728.035	0.0181229
728.113	0.0183587
728.192	0.0184510
728.270	0.0185388
728.348	0.0186348
728.426	0.0187438
728.504	0.0188185
728.582	0.0187623
728.660	0.0187509
728.738	0.0187379
728.817	0.0187077
728.895	0.0186164
728.973	0.0186122
729.051	0.0184566
729.129	0.0184578
729.207	0.0184232
729.285	0.0185405
729.363	0.0184290
729.442	0.0183605
729.520	0.0182826
729.598	0.0182394
729.676	0.0181673
729.754	0.0179881
729.832	0.0176214
729.910	0.0176550
729.988	0.0174027
730.067	0.0172723
730.145	0.0170963
730.223	0.0168623
730.301	0.0167107
730.379	0.0164887
730.457	0.0165981
730.535	0.0165749
730.613	0.0165274
730.692	0.0166605
730.770	0.0168427
730.848	0.0169794
730.926	0.0171368
731.004	0.0174801
731.082	0.0177762
731.160	0.0178972
731.238	0.0182548
731.317	0.0184520
731.395	0.0187457
731.473	0.0186891
731.551	0.0187785
731.629	0.0189361
731.707	0.0189435
731.785	0.0190919
731.863	0.0188429
731.942	0.0188251
732.020	0.0186925
732.098	0.0185286
732.176	0.0184432
732.254	0.0183618
732.332	0.0181290
732.410	0.0179727
732.488	0.0178132
732.567	0.0177928
732.645	0.0175974
732.723	0.0176412
732.801	0.0176392
732.879	0.0174396
732.957	0.0173106
733.035	0.0172877
733.113	0.0174480
733.192	0.0174725
733.270	0.0173873
733.348	0.0172669
733.426	0.0174046
733.504	0.0174712
733.582	0.0174106
733.660	0.0174841
733.738	0.0174121
733.817	0.0174006
733.895	0.0172701
733.973	0.0172643
734.051	0.0173112
734.129	0.0171507
734.207	0.0171087
734.285	0.0170523
734.363	0.0170957
734.442	0.0170538
734.520	0.0170512
734.598	0.0170712
734.676	0.0170933
734.754	0.0170596
734.832	0.0172977
734.910	0.0172366
734.988	0.0173622
735.067	0.0174612
735.145	0.0175657
735.223	0.0175271
735.301	0.0178222
735.379	0.0176617
735.457	0.0176464
735.535	0.0178860
735.613	0.0180125
735.692	0.0179595
735.770	0.0179951
735.848	0.0181587
735.926	0.0181828
736.004	0.0183260
736.082	0.0184196
736.160	0.0184336
736.238	0.0185020
736.317	0.0185230
736.395	0.0185365
736.473	0.0185157
736.551	0.0184035
736.629	0.0183885
736.707	0.0184624
736.785	0.0182851
736.863	0.0182498
736.942	0.0181216
737.020	0.0179574
737.098	0.0180231
737.176	0.0180328
737.254	0.0179860
737.332	0.0178318
737.410	0.0178557
737.488	0.0175508
737.567	0.0178390
737.645	0.0178726
737.723	0.0176695
737.801	0.0177071
737.879	0.0178179
737.957	0.0178487
738.035	0.0178659
738.113	0.0178732
738.192	0.0178979
738.270	0.0179848
738.348	0.0179974
738.426	0.0178551
738.504	0.0177896
738.582	0.0176950
738.660	0.0175500
738.738	0.0176810
738.817	0.0176707
738.895	0.0175636
738.973	0.0175322
739.051	0.0172413
739.129	0.0172855
739.207	0.0172688
739.285	0.0170934
739.363	0.0169214
739.442	0.0169918
739.520	0.0169199
739.598	0.0170264
739.676	0.0169346
739.754	0.0171606
739.832	0.0173606
739.910	0.0175356
739.988	0.0176609
740.067	0.0178789
740.145	0.0180792
740.223	0.0183319
740.301	0.0186688
740.379	0.0184539
740.457	0.0187440
740.535	0.0189042
740.613	0.0188902
740.692	0.0187231
740.770	0.0186948
740.848	0.0187184
740.926	0.0185531
741.004	0.0181095
741.082	0.0181635
741.160	0.0180741
741.238	0.0178193
741.317	0.0176761
741.395	0.0176630
741.473	0.0174095
741.551	0.0175278
741.629	0.0173023
741.707	0.0173203
741.785	0.0174674
741.863	0.0172545
741.942	0.0174449
742.020	0.0173795
742.098	0.0172718
742.176	0.0175797
742.254	0.0175120
742.332	0.0175798
742.410	0.0175967
742.488	0.0175658
742.567	0.0175286
742.645	0.0177501
742.723	0.0177384
742.801	0.0175151
742.879	0.0175633
742.957	0.0175250
743.035	0.0173818
743.113	0.0174732
743.192	0.0174916
743.270	0.0173700
743.348	0.0173708
743.426	0.0174166
743.504	0.0174114
743.582	0.0173495
743.660	0.0173984
743.738	0.0173961
743.817	0.0173985
743.895	0.0175021
743.973	0.0175995
744.051	0.0178543
744.129	0.0178976
744.207	0.0180625
744.285	0.0181066
744.363	0.0181722
744.442	0.0183614
744.520	0.0183698
744.598	0.0182513
744.676	0.0184576
744.754	0.0184926
744.832	0.0184982
744.910	0.0184541
744.988	0.0186172
745.067	0.0185201
745.145	0.0185808
745.223	0.0183549
745.301	0.0183659
745.379	0.0182919
745.457	0.0181729
745.535	0.0181974
745.613	0.0180419
745.692	0.0179415
745.770	0.0177787
745.848	0.0176189
745.926	0.0173635
746.004	0.0173575
746.082	0.0171700
746.160	0.0169620
746.238	0.0169662
746.317	0.0170744
746.395	0.0170555
746.473	0.0171352
746.551	0.0171402
746.629	0.0171824
746.707	0.0173004
746.785	0.0175711
746.863	0.0175439
746.942	0.0176797
747.020	0.0179050
747.098	0.0178600
747.176	0.0180829
747.254	0.0180372
747.332	0.0181133
747.410	0.0181922
747.488	0.0182643
747.567	0.0181482
747.645	0.0181643
747.723	0.0181448
747.801	0.0181132
747.879	0.0181464
747.957	0.0179662
748.035	0.0180004
748.113	0.0178718
748.192	0.0179916
748.270	0.0179395
748.348	0.0177828
748.426	0.0176684
748.504	0.0177434
748.582	0.0176070
748.660	0.0176823
748.738	0.0177293
748.817	0.0177567
748.895	0.0176962
748.973	0.0178059
749.051	0.0177290
749.129	0.0178156
749.207	0.0177202
749.285	0.0178294
749.363	0.0177328
749.442	0.0176007
749.520	0.0177205
749.598	0.0177677
749.676	0.0176736
749.754	0.0175210
749.832	0.0173132
749.910	0.0172000
749.988	0.0170811
750.067	0.0170654
750.145	0.0169788
750.223	0.0169379
750.301	0.0167081
750.379	0.0168166
750.457	0.0168240
750.535	0.0167665
750.613	0.0169802
750.692	0.0173726
750.770	0.0175287
750.848	0.0178349
750.926	0.0179449
751.004	0.0183310
751.082	0.0184562
751.160	0.0186765
751.238	0.0189750
751.317	0.0189897
751.395	0.0191829
751.473	0.0191589
751.551	0.0190200
751.629	0.0189764
751.707	0.0188586
751.785	0.0187846
751.863	0.0185010
751.942	0.0183402
752.020	0.0182341
752.098	0.0181283
752.176	0.0180122
752.254	0.0178497
752.332	0.0176635
752.410	0.0175650
752.488	0.0175883
752.567	0.0174519
752.645	0.0175369
752.723	0.0174619
752.801	0.0175240
752.879	0.0174232
752.957	0.0175401
753.035	0.0175439
753.113	0.0175636
753.192	0.0177824
753.270	0.0177885
753.348	0.0176673
753.426	0.0176704
753.504	0.0177466
753.582	0.0178671
753.660	0.0177451
753.738	0.0175916
753.817	0.0177225
753.895	0.0178714
753.973	0.0178097
754.051	0.0178568
754.129	0.0178407
754.207	0.0179301
754.285	0.0180342
754.363	0.0179524
754.442	0.0180735
754.520	0.0181605
754.598	0.0181398
754.676	0.0181720
754.754	0.0183138
754.832	0.0182893
754.910	0.0182475
754.988	0.0181933
755.067	0.0181966
755.145	0.0180312
755.223	0.0180355
755.301	0.0179246
755.379	0.0178984
755.457	0.0177417
755.535	0.0177048
755.613	0.0176469
755.692	0.0175648
755.770	0.0177048
755.848	0.0175945
755.926	0.0175787
756.004	0.0172944
756.082	0.0173598
756.160	0.0173542
756.238	0.0174947
756.317	0.0174105
756.395	0.0172652
756.473	0.0172582
756.551	0.0172633
756.629	0.0171741
756.707	0.0170673
756.785	0.0173232
756.863	0.0171151
756.942	0.0171571
757.020	0.0171453
757.098	0.0171900
757.176	0.0171963
757.254	0.0173106
757.332	0.0174546
757.410	0.0174939
757.488	0.0176350
757.567	0.0177819
757.645	0.0177551
757.723	0.0177032
757.801	0.0178129
757.879	0.0180742
757.957	0.0180835
758.035	0.0179950
758.113	0.0181658
758.192	0.0182237
758.270	0.0180996
758.348	0.0181003
758.426	0.0183010
758.504	0.0183153
758.582	0.0181935
758.660	0.0181721
758.738	0.0181802
758.817	0.0182303
758.895	0.0181859
758.973	0.0179999
759.051	0.0181374
759.129	0.0181960
759.207	0.0182883
759.285	0.0181841
759.363	0.0184468
759.442	0.0184227
759.520	0.0183771
759.598	0.0183427
759.676	0.0183570
759.754	0.0181816
759.832	0.0181206
759.910	0.0181490
759.988	0.0179717
760.067	0.0179060
760.145	0.0176637
760.223	0.0176126
760.301	0.0175818
760.379	0.0174850
760.457	0.0174667
760.535	0.0174744
760.613	0.0174612
760.692	0.0173212
760.770	0.0173487
760.848	0.0173253
760.926	0.0175880
761.004	0.0175245
761.082	0.0175082
761.160	0.0176614
761.238	0.0177818
761.317	0.0179303
761.395	0.0180419
761.473	0.0179289
761.551	0.0180215
761.629	0.0179679
761.707	0.0179725
761.785	0.0179397
761.863	0.0178617
761.942	0.0179332
762.020	0.0177510
762.098	0.0177991
762.176	0.0177042
762.254	0.0175436
762.332	0.0174909
762.410	0.0175629
762.488	0.0175073
762.567	0.0175695
762.645	0.0174217
762.723	0.0173923
762.801	0.0174392
762.879	0.0172271
762.957	0.0174338
763.035	0.0176357
763.113	0.0175079
763.192	0.0173830
763.270	0.0174768
763.348	0.0177582
763.426	0.0176996
763.504	0.0176495
763.582	0.0178382
763.660	0.0177830
763.738	0.0176608
763.817	0.0177728
763.895	0.0177956
763.973	0.0179248
764.051	0.0177661
764.129	0.0177361
764.207	0.0178340
764.285	0.0177861
764.363	0.0176696
764.442	0.0176634
764.520	0.0177983
764.598	0.0176780
764.676	0.0178056
764.754	0.0176080
764.832	0.0175883
764.910	0.0175719
764.988	0.0175834
765.067	0.0175215
765.145	0.0175142
765.223	0.0174309
765.301	0.0175233
765.379	0.0175292
765.457	0.0174622
765.535	0.0175126
765.613	0.0175461
765.692	0.0176627
765.770	0.0175290
765.848	0.0178155
765.926	0.0178813
766.004	0.0178206
766.082	0.0179448
766.160	0.0181124
766.238	0.0182154
766.317	0.0181992
766.395	0.0181429
766.473	0.0182448
766.551	0.0182145
766.629	0.0180711
766.707	0.0181740
766.785	0.0180501
766.863	0.0179250
766.942	0.0180077
767.020	0.0179623
767.098	0.0177631
767.176	0.0178941
767.254	0.0179829
767.332	0.0178529
767.410	0.0178862
767.488	0.0178304
767.567	0.0178234
767.645	0.0178316
767.723	0.0178584
767.801	0.0178710
767.879	0.0178996
767.957	0.0178632
768.035	0.0179618
768.113	0.0179668
768.192	0.0180174
768.270	0.0180220
768.348	0.0179752
768.426	0.0180276
768.504	0.0180760
768.582	0.0180060
768.660	0.0180690
768.738	0.0179748
768.817	0.0179040
768.895	0.0177599
768.973	0.0176969
769.051	0.0178006
769.129	0.0177416
769.207	0.0177414
769.285	0.0176633
769.363	0.0174347
769.442	0.0174632
769.520	0.0174287
769.598	0.0175132
769.676	0.0174149
769.754	0.0173680
769.832	0.0176804
769.910	0.0174974
769.988	0.0174228
770.067	0.0174275
770.145	0.0176054
770.223	0.0175777
770.301	0.0175739
770.379	0.0176378
770.457	0.0176582
770.535	0.0175774
770.613	0.0176790
770.692	0.0177358
770.770	0.0177901
770.848	0.0178094
770.926	0.0177426
771.004	0.0177366
771.082	0.0178405
771.160	0.0178826
771.238	0.0178616
771.317	0.0179167
771.395	0.0178370
771.473	0.0177760
771.551	0.0177384
771.629	0.0176337
771.707	0.0175355
771.785	0.0174097
771.863	0.0175172
771.942	0.0173447
772.020	0.0174019
772.098	0.0173883
772.176	0.0175189
772.254	0.0173991
772.332	0.0174252
772.410	0.0174873
772.488	0.0174804
772.567	0.0175564
772.645	0.0177408
772.723	0.0176401
772.801	0.0176049
772.879	0.0176537
772.957	0.0177921
773.035	0.0178267
773.113	0.0178164
773.192	0.0179113
773.270	0.0179680
773.348	0.0179957
773.426	0.0180440
773.504	0.0180494
773.582	0.0179684
773.660	0.0179831
773.738	0.0180791
773.817	0.0180235
773.895	0.0180738
773.973	0.0181404
774.051	0.0180796
774.129	0.0182117
774.207	0.0180349
774.285	0.0180483
774.363	0.0180991
774.442	0.0179716
774.520	0.0180582
774.598	0.0181418
774.676	0.0181338
774.754	0.0181476
774.832	0.0180465
774.910	0.0179361
774.988	0.0179668
775.067	0.0178922
775.145	0.0178662
775.223	0.0178362
775.301	0.0178805
775.379	0.0178069
775.457	0.0177634
775.535	0.0178411
775.613	0.0178690
775.692	0.0176559
775.770	0.0177006
775.848	0.0177330
775.926	0.0177719
776.004	0.0177677
776.082	0.0176699
776.160	0.0177446
776.238	0.0177734
776.317	0.0177053
776.395	0.0177922
776.473	0.0176741
776.551	0.0176813
776.629	0.0177283
776.707	0.0176769
776.785	0.0177927
776.863	0.0175759
776.942	0.0175163
777.020	0.0175593
777.098	0.0176307
777.176	0.0177517
777.254	0.0176401
777.332	0.0176849
777.410	0.0178304
777.488	0.0177255
777.567	0.0179530
777.645	0.0177949
777.723	0.0180289
777.801	0.0180568
777.879	0.0181092
777.957	0.0181181
778.035	0.0182494
778.113	0.0181256
778.192	0.0181132
778.270	0.0179909
778.348	0.0179140
778.426	0.0179218
778.504	0.0178464
778.582	0.0178786
778.660	0.0176652
778.738	0.0175639
778.817	0.0175927
778.895	0.0175001
778.973	0.0174397
779.051	0.0174406
779.129	0.0174172
779.207	0.0172950
779.285	0.0172585
779.363	0.0171778
779.442	0.0172855
779.520	0.0172984
779.598	0.0172602
779.676	0.0173689
779.754	0.0173304
779.832	0.0173093
779.910	0.0174399
779.988	0.0174194
780.067	0.0176093
780.145	0.0175710
780.223	0.0177824
780.301	0.0179135
780.379	0.0179527
780.457	0.0177583
780.535	0.0179101
780.613	0.0179669
780.692	0.0181113
780.770	0.0179616
780.848	0.0180067
780.926	0.0180224
781.004	0.0181708
781.082	0.0180972
781.160	0.0181223
781.238	0.0182207
781.317	0.0181480
781.395	0.0181139
781.473	0.0184039
781.551	0.0182527
781.629	0.0181154
781.707	0.0183308
781.785	0.0181573
781.863	0.0182146
781.942	0.0181702
782.020	0.0181898
782.098	0.0181390
782.176	0.0182103
782.254	0.0181991
782.332	0.0182214
782.410	0.0181988
782.488	0.0180260
782.567	0.0181356
782.645	0.0181216
782.723	0.0178761
782.801	0.0179657
782.879	0.0179417
782.957	0.0178807
783.035	0.0178809
783.113	0.0179407
783.192	0.0178161
783.270	0.0176969
783.348	0.0176582
783.426	0.0175896
783.504	0.0176762
783.582	0.0174931
783.660	0.0175455
783.738	0.0175515
783.817	0.0174102
783.895	0.0174508
783.973	0.0173156
784.051	0.0172836
784.129	0.0172498
784.207	0.0172426
784.285	0.0173204
784.363	0.0172218
784.442	0.0173225
784.520	0.0172768
784.598	0.0172449
784.676	0.0173209
784.754	0.0173971
784.832	0.0175153
784.910	0.0175993
784.988	0.0174834
785.067	0.0176723
785.145	0.0178104
785.223	0.0177715
785.301	0.0179201
785.379	0.0180397
785.457	0.0181365
785.535	0.0181091
785.613	0.0181245
785.692	0.0182066
785.770	0.0182382
785.848	0.0181439
785.926	0.0181499
786.004	0.0181458
786.082	0.0182267
786.160	0.0182319
786.238	0.0181226
786.317	0.0180802
786.395	0.0179910
786.473	0.0179697
786.551	0.0178432
786.629	0.0176607
786.707	0.0176986
786.785	0.0175724
786.863	0.0174467
786.942	0.0173181
787.020	0.0173056
787.098	0.0171825
787.176	0.0169344
787.254	0.0170290
787.332	0.0170583
787.410	0.0170102
787.488	0.0170037
787.567	0.0172061
787.645	0.0173300
787.723	0.0174562
787.801	0.0175700
787.879	0.0177702
787.957	0.0179330
788.035	0.0180366
788.113	0.0180883
788.192	0.0183710
788.270	0.0183931
788.348	0.0186162
788.426	0.0187608
788.504	0.0186150
788.582	0.0186360
788.660	0.0187011
788.738	0.0186088
788.817	0.0185383
788.895	0.0182514
788.973	0.0182948
789.051	0.0181987
789.129	0.0180506
789.207	0.0177615
789.285	0.0177271
789.363	0.0176267
789.442	0.0173568
789.520	0.0173481
789.598	0.0173077
789.676	0.0172480
789.754	0.0173067
789.832	0.0170610
789.910	0.0169855
789.988	0.0169228
790.067	0.0169894
790.145	0.0168320
790.223	0.0167920
790.301	0.0167195
790.379	0.0167598
790.457	0.0167938
790.535	0.0168323
790.613	0.0168240
790.692	0.0168137
790.770	0.0171350
790.848	0.0171562
790.926	0.0173064
791.004	0.0175184
791.082	0.0176085
791.160	0.0177139
791.238	0.0179693
791.317	0.0182106
791.395	0.0183614
791.473	0.0186369
791.551	0.0190319
791.629	0.0190275
791.707	0.0193131
791.785	0.0194473
791.863	0.0196011
791.942	0.0198881
792.020	0.0198198
792.098	0.0199181
792.176	0.0200147
792.254	0.0198914
792.332	0.0196387
792.410	0.0193534
792.488	0.0191225
792.567	0.0187421
792.645	0.0183709
792.723	0.0178682
792.801	0.0174780
792.879	0.0169538
792.957	0.0166352
793.035	0.0162073
793.113	0.0157307
793.192	0.0155273
793.270	0.0150913
793.348	0.0149125
793.426	0.0147427
793.504	0.0145708
793.582	0.0145595
793.660	0.0146038
793.738	0.0147559
793.817	0.0148751
793.895	0.0149319
793.973	0.0153335
794.051	0.0158097
794.129	0.0160076
794.207	0.0164070
794.285	0.0170545
794.363	0.0172973
794.442	0.0177502
794.520	0.0181555
794.598	0.0188176
794.676	0.0190964
794.754	0.0193331
794.832	0.0197238
794.910	0.0201405
794.988	0.0204159
795.067	0.0204759
795.145	0.0207458
795.223	0.0209604
795.301	0.0208633
795.379	0.0209869
795.457	0.0209184
795.535	0.0207280
795.613	0.0206572
795.692	0.0204743
795.770	0.0203016
795.848	0.0199671
795.926	0.0195292
796.004	0.0192810
796.082	0.0187141
796.160	0.0183743
796.238	0.0180898
796.317	0.0175948
796.395	0.0170810
796.473	0.0168532
796.551	0.0165347
796.629	0.0162551
796.707	0.0157629
796.785	0.0156509
796.863	0.0154465
796.942	0.0151559
797.020	0.0149970
797.098	0.0150610
797.176	0.0149180
797.254	0.0149152
797.332	0.0150542
797.410	0.0151082
797.488	0.0151801
797.567	0.0155408
797.645	0.0157352
797.723	0.0160183
797.801	0.0162077
797.879	0.0166949
797.957	0.0169583
798.035	0.0172523
798.113	0.0176999
798.192	0.0180705
798.270	0.0183016
798.348	0.0187061
798.426	0.0189429
798.504	0.0194225
798.582	0.0197449
798.660	0.0198706
798.738	0.0199845
798.817	0.0200633
798.895	0.0200852
798.973	0.0203172
799.051	0.0202251
799.129	0.0202573
799.207	0.0202433
799.285	0.0200462
799.363	0.0199449
799.442	0.0195921
799.520	0.0193671
799.598	0.0191074
799.676	0.0188482
799.754	0.0184776
799.832	0.0183003
799.910	0.0181080
799.988	0.0177997
800.067	0.0173285
800.145	0.0171586
800.223	0.0167450
800.301	0.0168209
800.379	0.0166390
800.457	0.0164499
800.535	0.0163196
800.613	0.0162449
800.692	0.0161714
800.770	0.0161985
800.848	0.0161125
800.926	0.0161003
801.004	0.0163375
801.082	0.0163530
801.160	0.0162970
801.238	0.0163935
801.317	0.0165744
801.395	0.0166971
801.473	0.0169099
801.551	0.0170359
801.629	0.0172017
801.707	0.0172156
801.785	0.0173576
801.863	0.0172929
801.942	0.0175533
802.020	0.0177661
802.098	0.0178265
802.176	0.0178830
802.254	0.0178629
802.332	0.0180728
802.410	0.0180558
802.488	0.0181668
802.567	0.0181793
802.645	0.0184145
802.723	0.0183437
802.801	0.0183186
802.879	0.0184270
802.957	0.0185902
803.035	0.0186188
803.113	0.0186230
803.192	0.0186706
803.270	0.0187258
803.348	0.0185224
803.426	0.0186571
803.504	0.0185928
803.582	0.0183951
803.660	0.0184428
803.738	0.0183990
803.817	0.0182507
803.895	0.0182195
803.973	0.0180896
804.051	0.0180605
804.129	0.0182257
804.207	0.0180741
804.285	0.0179492
804.363	0.0179053
804.442	0.0177248
804.520	0.0177332
804.598	0.0178698
804.676	0.0179326
804.754	0.0177367
804.832	0.0177387
804.910	0.0178391
804.988	0.0177619
805.067	0.0177859
805.145	0.0176974
805.223	0.0178464
805.301	0.0178219
805.379	0.0177946
805.457	0.0178612
805.535	0.0176890
805.613	0.0176556
805.692	0.0176067
805.770	0.0175188
805.848	0.0174821
805.926	0.0174409
806.004	0.0173750
806.082	0.0173701
806.160	0.0171670
806.238	0.0171928
806.317	0.0171817
806.395	0.0170721
806.473	0.0172608
806.551	0.0171603
806.629	0.0171021
806.707	0.0173414
806.785	0.0172809
806.863	0.0173304
806.942	0.0173915
807.020	0.0174953
807.098	0.0174227
807.176	0.0175719
807.254	0.0175216
807.332	0.0175649
807.410	0.0176034
807.488	0.0175333
807.567	0.0176643
807.645	0.0176155
807.723	0.0176125
807.801	0.0176894
807.879	0.0177303
807.957	0.0177106
808.035	0.0177470
808.113	0.0177368
808.192	0.0177650
808.270	0.0178171
808.348	0.0179855
808.426	0.0180013
808.504	0.0180758
808.582	0.0180556
808.660	0.0180156
808.738	0.0181977
808.817	0.0182316
808.895	0.0181590
808.973	0.0181641
809.051	0.0181924
809.129	0.0184035
809.207	0.0183001
809.285	0.0183161
809.363	0.0182277
809.442	0.0180896
809.520	0.0180091
809.598	0.0181620
809.676	0.0182182
809.754	0.0181084
809.832	0.0179157
809.910	0.0179710
809.988	0.0179455
810.067	0.0178876
810.145	0.0178981
810.223	0.0177705
810.301	0.0177275
810.379	0.0178887
810.457	0.0178989
810.535	0.0178583
810.613	0.0180043
810.692	0.0180969
810.770	0.0181506
810.848	0.0178574
810.926	0.0179809
811.004	0.0178977
811.082	0.0179520
811.160	0.0178245
811.238	0.0178918
811.317	0.0177988
811.395	0.0177773
811.473	0.0178114
811.551	0.0176585
811.629	0.0176060
811.707	0.0176815
811.785	0.0175483
811.863	0.0173398
811.942	0.0173849
812.020	0.0172274
812.098	0.0172461
812.176	0.0172440
812.254	0.0170341
812.332	0.0169849
812.410	0.0170081
812.488	0.0169055
812.567	0.0169952
812.645	0.0169976
812.723	0.0170486
812.801	0.0170280
812.879	0.0169861
812.957	0.0170026
813.035	0.0170140
813.113	0.0171165
813.192	0.0172585
813.270	0.0172520
813.348	0.0172945
813.426	0.0172775
813.504	0.0176283
813.582	0.0177122
813.660	0.0176338
813.738	0.0178459
813.817	0.0179982
813.895	0.0180767
813.973	0.0180485
814.051	0.0181885
814.129	0.0181892
814.207	0.0182215
814.285	0.0184267
814.363	0.0183933
814.442	0.0183804
814.520	0.0184402
814.598	0.0183896
814.676	0.0184452
814.754	0.0183396
814.832	0.0181826
814.910	0.0183372
814.988	0.0183601
815.067	0.0182796
815.145	0.0181551
815.223	0.0182462
815.301	0.0181761
815.379	0.0182967
815.457	0.0181698
815.535	0.0181886
815.613	0.0179397
815.692	0.0181561
815.770	0.0180956
815.848	0.0180434
815.926	0.0181696
816.004	0.0180897
816.082	0.0181159
816.160	0.0180593
816.238	0.0179046
816.317	0.0179911
816.395	0.0179576
816.473	0.0179416
816.551	0.0178994
816.629	0.0178499
816.707	0.0179070
816.785	0.0176812
816.863	0.0178036
816.942	0.0176881
817.020	0.0176273
817.098	0.0177307
817.176	0.0177422
817.254	0.0173872
817.332	0.0173279
817.410	0.0173759
817.488	0.0172411
817.567	0.0171599
817.645	0.0171756
817.723	0.0171439
817.801	0.0171195
817.879	0.0168611
817.957	0.0168207
818.035	0.0169220
818.113	0.0168198
818.192	0.0168422
818.270	0.0167693
818.348	0.0168209
818.426	0.0168781
818.504	0.0169904
818.582	0.0170377
818.660	0.0171627
818.738	0.0173943
818.817	0.0175575
818.895	0.0176123
818.973	0.0176773
819.051	0.0176803
819.129	0.0180338
819.207	0.0180064
819.285	0.0182378
819.363	0.0182055
819.442	0.0182751
819.520	0.0185468
819.598	0.0185443
819.676	0.0186451
819.754	0.0186700
819.832	0.0186726
819.910	0.0186131
819.988	0.0186195
820.067	0.0186329
820.145	0.0186441
820.223	0.0185556
820.301	0.0186767
820.379	0.0185413
820.457	0.0184818
820.535	0.0183779
820.613	0.0183084
820.692	0.0183531
820.770	0.0184312
820.848	0.0181311
820.926	0.0179425
821.004	0.0179676
821.082	0.0179418
821.160	0.0178151
821.238	0.0177056
821.317	0.0177474
821.395	0.0175740
821.473	0.0175397
821.551	0.0174740
821.629	0.0174116
821.707	0.0175188
821.785	0.0175624
821.863	0.0175230
821.942	0.0174673
822.020	0.0176791
822.098	0.0177325
822.176	0.0177807
822.254	0.0178032
822.332	0.0178202
822.410	0.0178194
822.488	0.0178702
822.567	0.0178839
822.645	0.0178904
822.723	0.0177736
822.801	0.0178014
822.879	0.0177856
822.957	0.0176615
823.035	0.0177305
823.113	0.0176437
823.192	0.0176743
823.270	0.0175925
823.348	0.0175240
823.426	0.0176029
823.504	0.0174259
823.582	0.0173260
823.660	0.0174066
823.738	0.0173367
823.817	0.0174181
823.895	0.0173587
823.973	0.0174722
824.051	0.0174713
824.129	0.0176627
824.207	0.0175574
824.285	0.0176147
824.363	0.0176442
824.442	0.0178447
824.520	0.0179122
824.598	0.0179145
824.676	0.0178770
824.754	0.0180095
824.832	0.0180332
824.910	0.0180731
824.988	0.0181320
825.067	0.0180694
825.145	0.0181359
825.223	0.0182870
825.301	0.0181795
825.379	0.0183247
825.457	0.0182442
825.535	0.0181665
825.613	0.0181953
825.692	0.0182278
825.770	0.0181493
825.848	0.0181390
825.926	0.0180733
826.004	0.0180492
826.082	0.0178870
826.160	0.0177759
826.238	0.0177039
826.317	0.0177860
826.395	0.0177781
826.473	0.0176601
826.551	0.0174078
826.629	0.0172628
826.707	0.0173531
826.785	0.0173003
826.863	0.0172949
826.942	0.0173307
827.020	0.0172527
827.098	0.0172182
827.176	0.0172328
827.254	0.0173665
827.332	0.0173279
827.410	0.0173749
827.488	0.0175498
827.567	0.0177948
827.645	0.0176527
827.723	0.0176980
827.801	0.0179259
827.879	0.0179599
827.957	0.0179673
828.035	0.0180006
828.113	0.0181323
828.192	0.0181976
828.270	0.0183871
828.348	0.0183081
828.426	0.0183852
828.504	0.0183218
828.582	0.0182572
828.660	0.0181880
828.738	0.0181704
828.817	0.0183534
828.895	0.0182992
828.973	0.0181120
829.051	0.0179228
829.129	0.0180580
829.207	0.0179199
829.285	0.0178915
829.363	0.0178122
829.442	0.0176951
829.520	0.0176577
829.598	0.0177341
829.676	0.0175048
829.754	0.0174928
829.832	0.0174881
829.910	0.0175028
829.988	0.0173465
830.067	0.0173526
830.145	0.0174420
830.223	0.0174996
830.301	0.0173973
830.379	0.0174239
830.457	0.0175169
830.535	0.0175208
830.613	0.0175790
830.692	0.0176304
830.770	0.0176221
830.848	0.0177952
830.926	0.0178880
831.004	0.0178981
831.082	0.0179050
831.160	0.0180884
831.238	0.0180321
831.317	0.0180965
831.395	0.0181381
831.473	0.0181767
831.551	0.0182582
831.629	0.0181002
831.707	0.0182208
831.785	0.0180853
831.863	0.0181454
831.942	0.0180759
832.020	0.0180648
832.098	0.0179901
832.176	0.0180025
832.254	0.0178359
832.332	0.0179019
832.410	0.0177618
832.488	0.0177631
832.567	0.0176339
832.645	0.0176566
832.723	0.0176478
832.801	0.0174664
832.879	0.0174609
832.957	0.0174550
833.035	0.0174496
833.113	0.0174408
833.192	0.0174576
833.270	0.0176157
833.348	0.0175553
833.426	0.0174747
833.504	0.0176050
833.582	0.0177068
833.660	0.0176767
833.738	0.0176736
833.817	0.0177081
833.895	0.0176091
833.973	0.0177726
834.051	0.0178197
834.129	0.0177425
834.207	0.0177779
834.285	0.0176611
834.363	0.0176968
834.442	0.0177435
834.520	0.0178381
834.598	0.0177356
834.676	0.0175996
834.754	0.0176809
834.832	0.0175417
834.910	0.0175026
834.988	0.0174668
835.067	0.0176530
835.145	0.0175605
835.223	0.0176587
835.301	0.0175737
835.379	0.0175787
835.457	0.0175187
835.535	0.0176167
835.613	0.0176971
835.692	0.0175974
835.770	0.0177790
835.848	0.0177345
835.926	0.0179166
836.004	0.0179377
836.082	0.0178820
836.160	0.0179546
836.238	0.0181348
836.317	0.0181443
836.395	0.0182458
836.473	0.0182398
836.551	0.0182745
836.629	0.0183260
836.707	0.0182417
836.785	0.0183054
836.863	0.0181495
836.942	0.0183170
837.020	0.0183801
837.098	0.0183923
837.176	0.0183062
837.254	0.0182429
837.332	0.0182774
837.410	0.0181396
837.488	0.0182062
837.567	0.0183968
837.645	0.0180955
837.723	0.0180458
837.801	0.0178722
837.879	0.0178358
837.957	0.0177279
838.035	0.0175104
838.113	0.0175458
838.192	0.0175347
838.270	0.0176025
838.348	0.0173679
838.426	0.0172038
838.504	0.0172277
838.582	0.0171407
838.660	0.0171057
838.738	0.0171350
838.817	0.0171716
838.895	0.0170648
838.973	0.0168888
839.051	0.0169297
839.129	0.0171273
839.207	0.0170907
839.285	0.0170255
839.363	0.0171452
839.442	0.0170914
839.520	0.0172173
839.598	0.0172698
839.676	0.0174306
839.754	0.0175362
839.832	0.0175616
839.910	0.0176150
839.988	0.0177061
840.067	0.0178424
840.145	0.0179939
840.223	0.0178204
840.301	0.0179198
840.379	0.0180954
840.457	0.0180505
840.535	0.0182966
840.613	0.0183659
840.692	0.0183015
840.770	0.0185741
840.848	0.0184429
840.926	0.0182922
841.004	0.0184425
841.082	0.0185659
841.160	0.0185580
841.238	0.0184719
841.317	0.0184209
841.395	0.0183974
841.473	0.0183072
841.551	0.0181245
841.629	0.0180775
841.707	0.0180941
841.785	0.0179784
841.863	0.0178002
841.942	0.0177165
842.020	0.0175511
842.098	0.0175613
842.176	0.0175171
842.254	0.0173672
842.332	0.0173730
842.410	0.0172923
842.488	0.0173272
842.567	0.0171841
842.645	0.0172451
842.723	0.0174240
842.801	0.0172154
842.879	0.0174554
842.957	0.0173299
843.035	0.0174039
843.113	0.0173230
843.192	0.0175562
843.270	0.0175914
843.348	0.0177007
843.426	0.0177764
843.504	0.0177013
843.582	0.0177027
843.660	0.0177706
843.738	0.0177583
843.817	0.0178415
843.895	0.0178773
843.973	0.0178542
844.051	0.0179179
844.129	0.0180125
844.207	0.0178812
844.285	0.0179763
844.363	0.0181197
844.442	0.0180006
844.520	0.0180131
844.598	0.0180290
844.676	0.0180473
844.754	0.0179906
844.832	0.0182553
844.910	0.0180913
844.988	0.0180422
845.067	0.0181605
845.145	0.0181287
845.223	0.0181322
845.301	0.0180848
845.379	0.0180840
845.457	0.0181432
845.535	0.0181071
845.613	0.0181533
845.692	0.0182445
845.770	0.0180763
845.848	0.0180556
845.926	0.0179258
846.004	0.0180172
846.082	0.0180000
846.160	0.0180386
846.238	0.0180659
846.317	0.0178174
846.395	0.0178502
846.473	0.0178629
846.551	0.0179616
846.629	0.0179141
846.707	0.0177209
846.785	0.0176910
846.863	0.0176960
846.942	0.0176015
847.020	0.0176823
847.098	0.0174628
847.176	0.0175586
847.254	0.0175826
847.332	0.0175885
847.410	0.0175027
847.488	0.0175845
847.567	0.0173847
847.645	0.0174483
847.723	0.0175801
847.801	0.0174026
847.879	0.0175112
847.957	0.0175224
848.035	0.0174413
848.113	0.0173484
848.192	0.0176416
848.270	0.0175063
848.348	0.0175832
848.426	0.0176084
848.504	0.0177859
848.582	0.0176524
848.660	0.0176341
848.738	0.0176995
848.817	0.0177145
848.895	0.0177859
848.973	0.0176355
849.051	0.0177319
849.129	0.0176853
849.207	0.0177055
849.285	0.0176696
849.363	0.0176429
849.442	0.0177148
849.520	0.0178490
849.598	0.0176785
849.676	0.0176189
849.754	0.0176962
849.832	0.0177976
849.910	0.0179379
849.988	0.0178016
850.067	0.0178849
850.145	0.0179356
850.223	0.0179455
850.301	0.0180328
850.379	0.0180954
850.457	0.0180354
850.535	0.0180525
850.613	0.0180949
850.692	0.0180711
850.770	0.0181235
850.848	0.0180542
850.926	0.0181488
851.004	0.0180084
851.082	0.0179644
851.160	0.0179908
851.238	0.0179062
851.317	0.0179877
851.395	0.0180526
851.473	0.0181730
851.551	0.0182009
851.629	0.0180396
851.707	0.0181011
851.785	0.0182056
851.863	0.0181195
851.942	0.0181386
852.020	0.0181428
852.098	0.0178957
852.176	0.0180725
852.254	0.0181435
852.332	0.0179005
852.410	0.0179324
852.488	0.0180531
852.567	0.0179771
852.645	0.0178831
852.723	0.0177584
852.801	0.0177378
852.879	0.0176942
852.957	0.0176402
853.035	0.0177094
853.113	0.0175870
853.192	0.0175831
853.270	0.0174819
853.348	0.0173526
853.426	0.0174598
853.504	0.0173292
853.582	0.0174859
853.660	0.0174419
853.738	0.0173547
853.817	0.0173179
853.895	0.0172149
853.973	0.0174179
854.051	0.0173930
854.129	0.0175143
854.207	0.0174088
854.285	0.0174246
854.363	0.0175359
854.442	0.0175683
854.520	0.0175017
854.598	0.0177899
854.676	0.0178147
854.754	0.0177639
854.832	0.0177944
854.910	0.0179118
854.988	0.0180467
855.067	0.0181646
855.145	0.0181682
855.223	0.0180009
855.301	0.0180608
855.379	0.0181309
855.457	0.0180969
855.535	0.0180935
855.613	0.0181589
855.692	0.0181484
855.770	0.0180135
855.848	0.0179505
855.926	0.0180199
856.004	0.0180384
856.082	0.0180150
856.160	0.0178663
856.238	0.0179422
856.317	0.0178268
856.395	0.0178426
856.473	0.0177980
856.551	0.0177886
856.629	0.0177534
856.707	0.0176305
856.785	0.0178822
856.863	0.0176755
856.942	0.0177152
857.020	0.0176849
857.098	0.0177196
857.176	0.0176974
857.254	0.0177679
857.332	0.0176575
857.410	0.0176715
857.488	0.0177158
857.567	0.0175620
857.645	0.0175539
857.723	0.0177913
857.801	0.0176585
857.879	0.0175480
857.957	0.0177460
858.035	0.0178532
858.113	0.0175984
858.192	0.0177186
858.270	0.0178381
858.348	0.0177151
858.426	0.0178667
858.504	0.0178740
858.582	0.0177524
858.660	0.0177130
858.738	0.0178714
858.817	0.0179239
858.895	0.0178558
858.973	0.0178361
859.051	0.0177180
859.129	0.0177825
859.207	0.0177704
859.285	0.0177006
859.363	0.0176049
859.442	0.0176469
859.520	0.0176003
859.598	0.0175066
859.676	0.0175340
859.754	0.0176374
859.832	0.0175536
859.910	0.0174880
859.988	0.0174902
860.067	0.0175386
860.145	0.0174632
860.223	0.0175970
860.301	0.0175365
860.379	0.0175536
860.457	0.0175232
860.535	0.0177726
860.613	0.0176858
860.692	0.0177415
860.770	0.0178433
860.848	0.0178153
860.926	0.0178505
861.004	0.0178601
861.082	0.0180542
861.160	0.0179921
861.238	0.0180006
861.317	0.0181667
861.395	0.0179824
861.473	0.0181031
861.551	0.0180067
861.629	0.0180092
861.707	0.0181066
861.785	0.0181195
861.863	0.0180318
861.942	0.0179364
862.020	0.0178609
862.098	0.0178716
862.176	0.0178951
862.254	0.0178181
862.332	0.0178179
862.410	0.0177371
862.488	0.0177359
862.567	0.0178931
862.645	0.0177428
862.723	0.0175350
862.801	0.0176620
862.879	0.0177344
862.957	0.0175587
863.035	0.0176397
863.113	0.0178501
863.192	0.0177222
863.270	0.0176307
863.348	0.0178605
863.426	0.0176943
863.504	0.0175921
863.582	0.0177000
863.660	0.0178363
863.738	0.0176156
863.817	0.0176330
863.895	0.0177790
863.973	0.0176116
864.051	0.0176584
864.129	0.0176401
864.207	0.0176893
864.285	0.0175814
864.363	0.0175227
864.442	0.0175879
864.520	0.0175908
864.598	0.0175869
864.676	0.0175533
864.754	0.0175310
864.832	0.0176685
864.910	0.0176947
864.988	0.0176855
865.067	0.0175938
865.145	0.0175446
865.223	0.0176076
865.301	0.0177069
865.379	0.0176336
865.457	0.0178690
865.535	0.0176488
865.613	0.0175396
865.692	0.0177314
865.770	0.0176835
865.848	0.0176787
865.926	0.0178064
866.004	0.0176614
866.082	0.0177708
866.160	0.0177125
866.238	0.0177598
866.317	0.0176760
866.395	0.0177778
866.473	0.0178336
866.551	0.0178062
866.629	0.0178594
866.707	0.0177705
866.785	0.0176863
866.863	0.0177263
866.942	0.0179761
867.020	0.0177618
867.098	0.0178159
867.176	0.0179736
867.254	0.0179186
867.332	0.0178043
867.410	0.0179028
867.488	0.0178316
867.567	0.0178794
867.645	0.0179669
867.723	0.0180502
867.801	0.0179111
867.879	0.0179662
867.957	0.0180039
868.035	0.0180052
868.113	0.0180061
868.192	0.0179501
868.270	0.0179048
868.348	0.0178649
868.426	0.0178199
868.504	0.0178631
868.582	0.0178781
868.660	0.0179080
868.738	0.0177776
868.817	0.0176398
868.895	0.0178546
868.973	0.0178724
869.051	0.0176746
869.129	0.0177263
869.207	0.0176653
869.285	0.0176423
869.363	0.0176363
869.442	0.0178280
869.520	0.0177562
869.598	0.0177751
869.676	0.0176262
869.754	0.0176436
869.832	0.0176351
869.910	0.0178463
869.988	0.0177297
870.067	0.0177850
870.145	0.0176488
870.223	0.0177803
870.301	0.0177616
870.379	0.0179504
870.457	0.0177914
870.535	0.0178636
870.613	0.0177542
870.692	0.0178323
870.770	0.0178407
870.848	0.0177542
870.926	0.0177901
871.004	0.0176118
871.082	0.0178104
871.160	0.0177766
871.238	0.0174160
871.317	0.0176165
871.395	0.0175903
871.473	0.0175825
871.551	0.0175043
871.629	0.0174607
871.707	0.0175192
871.785	0.0174767
871.863	0.0173447
871.942	0.0173954
872.020	0.0175134
872.098	0.0174065
872.176	0.0174532
872.254	0.0174381
872.332	0.0175745
872.410	0.0175764
872.488	0.0176624
872.567	0.0175970
872.645	0.0175483
872.723	0.0176431
872.801	0.0177779
872.879	0.0178063
872.957	0.0178007
873.035	0.0178491
873.113	0.0178203
873.192	0.0178934
873.270	0.0178162
873.348	0.0180006
873.426	0.0179247
873.504	0.0179125
873.582	0.0179678
873.660	0.0180980
873.738	0.0181329
873.817	0.0180583
873.895	0.0179381
873.973	0.0179786
874.051	0.0180354
874.129	0.0180972
874.207	0.0181387
874.285	0.0181410
874.363	0.0179530
874.442	0.0179954
874.520	0.0179615
874.598	0.0181429
874.676	0.0180724
874.754	0.0180045
874.832	0.0180150
874.910	0.0179258
874.988	0.0178426
875.067	0.0178112
875.145	0.0178100
875.223	0.0178504
875.301	0.0177518
875.379	0.0176643
875.457	0.0176050
875.535	0.0175851
875.613	0.0175267
875.692	0.0174348
875.770	0.0174668
875.848	0.0172734
875.926	0.0172357
876.004	0.0172780
876.082	0.0172486
876.160	0.0173209
876.238	0.0172660
876.317	0.0173711
876.395	0.0174167
876.473	0.0173575
876.551	0.0175137
876.629	0.0175702
876.707	0.0173947
876.785	0.0175612
876.863	0.0176501
876.942	0.0177231
877.020	0.0176953
877.098	0.0177396
877.176	0.0177629
877.254	0.0179144
877.332	0.0180108
877.410	0.0180570
877.488	0.0182186
877.567	0.0180559
877.645	0.0180869
877.723	0.0181884
877.801	0.0181301
877.879	0.0181008
877.957	0.0183251
878.035	0.0182882
878.113	0.0182513
878.192	0.0183115
878.270	0.0182204
878.348	0.0181989
878.426	0.0182671
878.504	0.0180381
878.582	0.0180914
878.660	0.0181458
878.738	0.0180715
878.817	0.0179368
878.895	0.0177499
878.973	0.0178048
879.051	0.0177103
879.129	0.0176871
879.207	0.0175966
879.285	0.0174538
879.363	0.0173547
879.442	0.0174965
879.520	0.0173943
879.598	0.0173011
879.676	0.0174814
879.754	0.0173708
879.832	0.0172515
879.910	0.0173122
879.988	0.0172678
880.067	0.0172971
880.145	0.0173089
880.223	0.0173673
880.301	0.0173416
880.379	0.0174968
880.457	0.0174702
880.535	0.0174574
880.613	0.0175102
880.692	0.0175335
880.770	0.0177019
880.848	0.0176676
880.926	0.0176297
881.004	0.0178324
881.082	0.0177354
881.160	0.0177840
881.238	0.0178621
881.317	0.0179268
881.395	0.0176785
881.473	0.0178522
881.551	0.0179612
881.629	0.0178725
881.707	0.0179753
881.785	0.0179694
881.863	0.0179348
881.942	0.0179742
882.020	0.0179357
882.098	0.0178953
882.176	0.0178281
882.254	0.0179127
882.332	0.0179287
882.410	0.0179635
882.488	0.0179085
882.567	0.0180448
882.645	0.0180940
882.723	0.0180849
882.801	0.0180258
882.879	0.0182346
882.957	0.0181725
883.035	0.0181158
883.113	0.0181199
883.192	0.0182358
883.270	0.0182838
883.348	0.0180986
883.426	0.0182544
883.504	0.0182275
883.582	0.0182021
883.660	0.0182233
883.738	0.0180454
883.817	0.0180682
883.895	0.0180169
883.973	0.0179032
884.051	0.0177153
884.129	0.0177194
884.207	0.0176882
884.285	0.0174425
884.363	0.0173031
884.442	0.0171174
884.520	0.0171991
884.598	0.0170193
884.676	0.0168646
884.754	0.0167863
884.832	0.0167727
884.910	0.0166254
884.988	0.0168324
885.067	0.0169588
885.145	0.0168723
885.223	0.0169207
885.301	0.0168873
885.379	0.0171345
885.457	0.0169797
885.535	0.0170748
885.613	0.0173151
885.692	0.0174610
885.770	0.0177727
885.848	0.0180653
885.926	0.0180626
886.004	0.0181740
886.082	0.0184115
886.160	0.0186810
886.238	0.0187369
886.317	0.0190358
886.395	0.0191836
886.473	0.0189835
886.551	0.0189571
886.629	0.0191247
886.707	0.0191567
886.785	0.0189996
886.863	0.0188032
886.942	0.0187424
887.020	0.0187268
887.098	0.0184841
887.176	0.0183662
887.254	0.0181741
887.332	0.0178825
887.410	0.0177953
887.488	0.0176326
887.567	0.0174667
887.645	0.0173663
887.723	0.0170480
887.801	0.0166862
887.879	0.0165179
887.957	0.0164844
888.035	0.0162042
888.113	0.0161409
888.192	0.0159368
888.270	0.0158540
888.348	0.0159783
888.426	0.0158863
888.504	0.0158824
888.582	0.0160729
888.660	0.0162263
888.738	0.0161958
888.817	0.0164321
888.895	0.0167616
888.973	0.0168878
889.051	0.0171563
889.129	0.0173315
889.207	0.0175073
889.285	0.0180228
889.363	0.0185332
889.442	0.0187376
889.520	0.0189715
889.598	0.0192216
889.676	0.0195169
889.754	0.0197897
889.832	0.0200433
889.910	0.0201583
889.988	0.0201005
890.067	0.0200779
890.145	0.0202221
890.223	0.0201591
890.301	0.0197193
890.379	0.0194809
890.457	0.0193259
890.535	0.0191100
890.613	0.0189195
890.692	0.0185795
890.770	0.0184166
890.848	0.0180660
890.926	0.0176437
891.004	0.0174281
891.082	0.0172292
891.160	0.0168310
891.238	0.0166116
891.317	0.0163485
891.395	0.0160380
891.473	0.0157337
891.551	0.0155989
891.629	0.0155527
891.707	0.0154833
891.785	0.0153674
891.863	0.0153210
891.942	0.0153644
892.020	0.0156443
892.098	0.0157852
892.176	0.0160577
892.254	0.0161864
892.332	0.0163803
892.410	0.0166469
892.488	0.0170425
892.567	0.0172995
892.645	0.0176619
892.723	0.0179056
892.801	0.0181524
892.879	0.0184901
892.957	0.0187383
893.035	0.0189715
893.113	0.0191090
893.192	0.0194702
893.270	0.0196125
893.348	0.0197083
893.426	0.0198000
893.504	0.0198048
893.582	0.0198412
893.660	0.0196261
893.738	0.0196516
893.817	0.0193554
893.895	0.0192104
893.973	0.0189579
894.051	0.0187499
894.129	0.0183818
894.207	0.0180852
894.285	0.0178382
894.363	0.0177057
894.442	0.0174687
894.520	0.0174435
894.598	0.0173032
894.676	0.0170668
894.754	0.0169859
894.832	0.0168275
894.910	0.0169196
894.988	0.0167137
895.067	0.0165978
895.145	0.0164604
895.223	0.0165765
895.301	0.0163187
895.379	0.0165486
895.457	0.0166816
895.535	0.0167718
895.613	0.0167918
895.692	0.0168977
895.770	0.0168668
895.848	0.0170401
895.926	0.0172270
896.004	0.0175715
896.082	0.0175937
896.160	0.0176863
896.238	0.0177536
896.317	0.0179271
896.395	0.0179688
896.473	0.0182396
896.551	0.0183265
896.629	0.0184150
896.707	0.0183219
896.785	0.0184975
896.863	0.0185497
896.942	0.0185310
897.020	0.0186046
897.098	0.0185752
897.176	0.0184472
897.254	0.0183658
897.332	0.0183414
897.410	0.0182809
897.488	0.0181364
897.567	0.0181487
897.645	0.0180173
897.723	0.0178648
897.801	0.0177704
897.879	0.0177479
897.957	0.0178101
898.035	0.0176852
898.113	0.0176300
898.192	0.0177750
898.270	0.0177461
898.348	0.0177453
898.426	0.0177322
898.504	0.0178961
898.582	0.0177951
898.660	0.0178201
898.738	0.0178809
898.817	0.0181006
898.895	0.0180002
898.973	0.0179531
899.051	0.0179935
899.129	0.0180064
899.207	0.0179990
899.285	0.0179321
899.363	0.0177213
899.442	0.0176662
899.520	0.0177032
899.598	0.0175283
899.676	0.0173020
899.754	0.0172292
899.832	0.0172244
899.910	0.0171822
899.988	0.0169222
900.067	0.0171224
900.145	0.0172844
900.223	0.0172086
900.301	0.0173264
900.379	0.0173972
900.457	0.0174680
900.535	0.0177016
900.613	0.0177053
900.692	0.0178225
900.770	0.0177981
900.848	0.0180161
900.926	0.0181503
901.004	0.0180946
901.082	0.0181576
901.160	0.0183138
901.238	0.0181317
901.317	0.0181818
901.395	0.0181139
901.473	0.0180241
901.551	0.0180608
901.629	0.0180880
901.707	0.0179417
901.785	0.0179057
901.863	0.0178168
901.942	0.0177347
902.020	0.0178221
902.098	0.0176074
902.176	0.0177715
902.254	0.0176919
902.332	0.0178157
902.410	0.0177467
902.488	0.0177098
902.567	0.0176051
902.645	0.0177230
902.723	0.0176831
902.801	0.0177436
902.879	0.0177154
902.957	0.0177010
903.035	0.0177328
903.113	0.0176454
903.192	0.0176192
903.270	0.0177167
903.348	0.0175794
903.426	0.0175874
903.504	0.0175245
903.582	0.0173553
903.660	0.0175209
903.738	0.0174316
903.817	0.0174093
903.895	0.0175042
903.973	0.0175066
904.051	0.0174986
904.129	0.0174769
904.207	0.0177061
904.285	0.0177747
904.363	0.0179184
904.442	0.0179611
904.520	0.0180657
904.598	0.0181142
904.676	0.0181235
904.754	0.0180966
904.832	0.0182871
904.910	0.0181376
904.988	0.0180994
905.067	0.0181413
905.145	0.0181503
905.223	0.0179555
905.301	0.0178931
905.379	0.0179336
905.457	0.0178289
905.535	0.0178172
905.613	0.0177486
905.692	0.0176462
905.770	0.0178256
905.848	0.0177560
905.926	0.0177182
906.004	0.0177220
906.082	0.0177695
906.160	0.0177994
906.238	0.0178539
906.317	0.0178231
906.395	0.0178463
906.473	0.0179246
906.551	0.0178765
906.629	0.0178548
906.707	0.0178741
906.785	0.0178100
906.863	0.0177337
906.942	0.0178054
907.020	0.0176888
907.098	0.0175345
907.176	0.0174158
907.254	0.0174101
907.332	0.0174459
907.410	0.0174236
907.488	0.0174542
907.567	0.0174028
907.645	0.0174676
907.723	0.0175315
907.801	0.0176063
907.879	0.0176781
907.957	0.0178172
908.035	0.0177898
908.113	0.0178419
908.192	0.0178641
908.270	0.0180721
908.348	0.0180785
908.426	0.0179494
908.504	0.0181471
908.582	0.0181783
908.660	0.0180464
908.738	0.0181062
908.817	0.0179616
908.895	0.0180897
908.973	0.0180606
909.051	0.0180607
909.129	0.0179623
909.207	0.0179988
909.285	0.0178809
909.363	0.0178528
909.442	0.0177353
909.520	0.0178802
909.598	0.0179166
909.676	0.0177483
909.754	0.0179745
909.832	0.0178056
909.910	0.0177763
909.988	0.0178832
910.067	0.0179109
910.145	0.0178634
910.223	0.0179137
910.301	0.0179075
910.379	0.0178347
910.457	0.0178462
910.535	0.0177966
910.613	0.0179643
910.692	0.0177507
910.770	0.0177346
910.848	0.0176510
910.926	0.0176366
911.004	0.0175703
911.082	0.0175147
911.160	0.0177540
911.238	0.0177226
911.317	0.0177484
911.395	0.0176747
911.473	0.0177398
911.551	0.0177734
911.629	0.0177341
911.707	0.0177111
911.785	0.0177418
911.863	0.0177678
911.942	0.0177367
912.020	0.0178616
912.098	0.0178432
912.176	0.0175900
912.254	0.0176731
912.332	0.0175971
912.410	0.0175460
912.488	0.0174835
912.567	0.0174166
912.645	0.0177000
912.723	0.0174994
912.801	0.0174292
912.879	0.0174911
912.957	0.0175381
913.035	0.0176294
913.113	0.0176315
913.192	0.0176884
913.270	0.0178070
913.348	0.0177847
913.426	0.0178236
913.504	0.0178751
913.582	0.0179023
913.660	0.0179681
913.738	0.0179259
913.817	0.0181230
913.895	0.0179860
913.973	0.0180325
914.051	0.0180846
914.129	0.0179359
914.207	0.0180717
914.285	0.0180227
914.363	0.0180267
914.442	0.0181116
914.520	0.0179479
914.598	0.0179216
914.676	0.0180002
914.754	0.0180019
914.832	0.0178864
914.910	0.0179873
914.988	0.0179694
915.067	0.0178041
915.145	0.0179190
915.223	0.0179594
915.301	0.0179580
915.379	0.0177718
915.457	0.0178544
915.535	0.0177764
915.613	0.0177863
915.692	0.0177033
915.770	0.0179191
915.848	0.0177896
915.926	0.0177856
916.004	0.0177212
916.082	0.0175743
916.160	0.0175941
916.238	0.0176437
916.317	0.0177011
916.395	0.0177352
916.473	0.0175893
916.551	0.0177060
916.629	0.0176836
916.707	0.0176595
916.785	0.0175359
916.863	0.0175536
916.942	0.0174741
917.020	0.0174715
917.098	0.0174184
917.176	0.0175071
917.254	0.0175120
917.332	0.0173855
917.410	0.0174770
917.488	0.0173673
917.567	0.0175881
917.645	0.0175786
917.723	0.0176570
917.801	0.0176595
917.879	0.0177551
917.957	0.0176367
918.035	0.0177639
918.113	0.0178024
918.192	0.0176877
918.270	0.0178782
918.348	0.0179321
918.426	0.0179510
918.504	0.0179852
918.582	0.0179875
918.660	0.0180875
918.738	0.0180350
918.817	0.0180524
918.895	0.0179160
918.973	0.0181460
919.051	0.0182762
919.129	0.0181278
919.207	0.0180491
919.285	0.0181161
919.363	0.0181467
919.442	0.0181377
919.520	0.0181403
919.598	0.0181852
919.676	0.0179835
919.754	0.0180696
919.832	0.0180752
919.910	0.0180341
