06/01/2022	21:38:47	Ver.	4.1	UNKNOWN
Optical Delay	599.988409	Delta X		0.078125	Sweeps	1	Scan Rate	0/0
Coordinates	Axis 1	NaN	Axis 2	NaN	Axis 3	NaN	Axis 4	NaN	Axis 5	NaN	Axis 6	0.000000
TX Power	0.000000	RX Power	0.000000

599.988	0.0168317
600.067	0.0168730
600.145	0.0169322
600.223	0.0168384
600.301	0.0168110
600.379	0.0168190
600.457	0.0168623
600.535	0.0168912
600.613	0.0168311
600.692	0.0169605
600.770	0.0168375
600.848	0.0169269
600.926	0.0167831
601.004	0.0168607
601.082	0.0168330
601.160	0.0167502
601.238	0.0168225
601.317	0.0167368
601.395	0.0167016
601.473	0.0167957
601.551	0.0169820
601.629	0.0168671
601.707	0.0168537
601.785	0.0168166
601.863	0.0167887
601.942	0.0169664
602.020	0.0166744
602.098	0.0167422
602.176	0.0167393
602.254	0.0168668
602.332	0.0168933
602.410	0.0168668
602.488	0.0169084
602.567	0.0168578
602.645	0.0169811
602.723	0.0169110
602.801	0.0169669
602.879	0.0168729
602.957	0.0168047
603.035	0.0169887
603.113	0.0168623
603.192	0.0167117
603.270	0.0168851
603.348	0.0167962
603.426	0.0169243
603.504	0.0169112
603.582	0.0168035
603.660	0.0166224
603.738	0.0168208
603.817	0.0168140
603.895	0.0168627
603.973	0.0169209
604.051	0.0169450
604.129	0.0167870
604.207	0.0168090
604.285	0.0167541
604.363	0.0167764
604.442	0.0169512
604.520	0.0168868
604.598	0.0168402
604.676	0.0168447
604.754	0.0167413
604.832	0.0168560
604.910	0.0169336
604.988	0.0167977
605.067	0.0168314
605.145	0.0167931
605.223	0.0168372
605.301	0.0167690
605.379	0.0168407
605.457	0.0167622
605.535	0.0168290
605.613	0.0168081
605.692	0.0168536
605.770	0.0168470
605.848	0.0168638
605.926	0.0168047
606.004	0.0168619
606.082	0.0168686
606.160	0.0168064
606.238	0.0168664
606.317	0.0167829
606.395	0.0167492
606.473	0.0168494
606.551	0.0168722
606.629	0.0168886
606.707	0.0168900
606.785	0.0168038
606.863	0.0168558
606.942	0.0170301
607.020	0.0168851
607.098	0.0168780
607.176	0.0168261
607.254	0.0168419
607.332	0.0168816
607.410	0.0169765
607.488	0.0167422
607.567	0.0167796
607.645	0.0168968
607.723	0.0167201
607.801	0.0168832
607.879	0.0168819
607.957	0.0169157
608.035	0.0167099
608.113	0.0167715
608.192	0.0167906
608.270	0.0169802
608.348	0.0168582
608.426	0.0167561
608.504	0.0169051
608.582	0.0169006
608.660	0.0168947
608.738	0.0168636
608.817	0.0167703
608.895	0.0168399
608.973	0.0167346
609.051	0.0168506
609.129	0.0168685
609.207	0.0168097
609.285	0.0167757
609.363	0.0168198
609.442	0.0167741
609.520	0.0167722
609.598	0.0168015
609.676	0.0167822
609.754	0.0167527
609.832	0.0167765
609.910	0.0168761
609.988	0.0167606
610.067	0.0168760
610.145	0.0168654
610.223	0.0168905
610.301	0.0168703
610.379	0.0168475
610.457	0.0168384
610.535	0.0167966
610.613	0.0167168
610.692	0.0168935
610.770	0.0168800
610.848	0.0167509
610.926	0.0167982
611.004	0.0168328
611.082	0.0168592
611.160	0.0169231
611.238	0.0168456
611.317	0.0168317
611.395	0.0168094
611.473	0.0168587
611.551	0.0170375
611.629	0.0167341
611.707	0.0168396
611.785	0.0168710
611.863	0.0169111
611.942	0.0168525
612.020	0.0168917
612.098	0.0170451
612.176	0.0167918
612.254	0.0168870
612.332	0.0169166
612.410	0.0168505
612.488	0.0167418
612.567	0.0168608
612.645	0.0168130
612.723	0.0168075
612.801	0.0168636
612.879	0.0168631
612.957	0.0168033
613.035	0.0167249
613.113	0.0166717
613.192	0.0168346
613.270	0.0166770
613.348	0.0167892
613.426	0.0167001
613.504	0.0168214
613.582	0.0167932
613.660	0.0167237
613.738	0.0168090
613.817	0.0168176
613.895	0.0167814
613.973	0.0169110
614.051	0.0168295
614.129	0.0167509
614.207	0.0167545
614.285	0.0169369
614.363	0.0169073
614.442	0.0168267
614.520	0.0168485
614.598	0.0168139
614.676	0.0169585
614.754	0.0168759
614.832	0.0170417
614.910	0.0169453
614.988	0.0169510
615.067	0.0167342
615.145	0.0168542
615.223	0.0168783
615.301	0.0168371
615.379	0.0167407
615.457	0.0170422
615.535	0.0169264
615.613	0.0167058
615.692	0.0167330
615.770	0.0168356
615.848	0.0168768
615.926	0.0168795
616.004	0.0166682
616.082	0.0168695
616.160	0.0168712
616.238	0.0167483
616.317	0.0168429
616.395	0.0167911
616.473	0.0168715
616.551	0.0167955
616.629	0.0167986
616.707	0.0165807
616.785	0.0168343
616.863	0.0166311
616.942	0.0167039
617.020	0.0167450
617.098	0.0167532
617.176	0.0167262
617.254	0.0167529
617.332	0.0166943
617.410	0.0167692
617.488	0.0168822
617.567	0.0168008
617.645	0.0167140
617.723	0.0168837
617.801	0.0167217
617.879	0.0169283
617.957	0.0168468
618.035	0.0169374
618.113	0.0168587
618.192	0.0167658
618.270	0.0168237
618.348	0.0168347
618.426	0.0168046
618.504	0.0168677
618.582	0.0169312
618.660	0.0169323
618.738	0.0168925
618.817	0.0169565
618.895	0.0169421
618.973	0.0169379
619.051	0.0168214
619.129	0.0168977
619.207	0.0168617
619.285	0.0167999
619.363	0.0169356
619.442	0.0168543
619.520	0.0168214
619.598	0.0167908
619.676	0.0168177
619.754	0.0167884
619.832	0.0168589
619.910	0.0167262
619.988	0.0167424
620.067	0.0168040
620.145	0.0166638
620.223	0.0168118
620.301	0.0166508
620.379	0.0167573
620.457	0.0167612
620.535	0.0167103
620.613	0.0166366
620.692	0.0167900
620.770	0.0166735
620.848	0.0166860
620.926	0.0167410
621.004	0.0166307
621.082	0.0167548
621.160	0.0167426
621.238	0.0166779
621.317	0.0168146
621.395	0.0167853
621.473	0.0167645
621.551	0.0168832
621.629	0.0167867
621.707	0.0168699
621.785	0.0168510
621.863	0.0168116
621.942	0.0169731
622.020	0.0169119
622.098	0.0169669
622.176	0.0169892
622.254	0.0169077
622.332	0.0169569
622.410	0.0168958
622.488	0.0168133
622.567	0.0170151
622.645	0.0168947
622.723	0.0168510
622.801	0.0169478
622.879	0.0168828
622.957	0.0169460
623.035	0.0168954
623.113	0.0167927
623.192	0.0168457
623.270	0.0169029
623.348	0.0168661
623.426	0.0168002
623.504	0.0168036
623.582	0.0167715
623.660	0.0168547
623.738	0.0167209
623.817	0.0167583
623.895	0.0167857
623.973	0.0167126
624.051	0.0166917
624.129	0.0168098
624.207	0.0167905
624.285	0.0168343
624.363	0.0167203
624.442	0.0167490
624.520	0.0167629
624.598	0.0167993
624.676	0.0167391
624.754	0.0167368
624.832	0.0166653
624.910	0.0168478
624.988	0.0167460
625.067	0.0168142
625.145	0.0168501
625.223	0.0168762
625.301	0.0168803
625.379	0.0167004
625.457	0.0167446
625.535	0.0169340
625.613	0.0167828
625.692	0.0168123
625.770	0.0168913
625.848	0.0168051
625.926	0.0169375
626.004	0.0168335
626.082	0.0168645
626.160	0.0169490
626.238	0.0170277
626.317	0.0167933
626.395	0.0168269
626.473	0.0168631
626.551	0.0168506
626.629	0.0169666
626.707	0.0169193
626.785	0.0168983
626.863	0.0170164
626.942	0.0167841
627.020	0.0167195
627.098	0.0168459
627.176	0.0168248
627.254	0.0168539
627.332	0.0168955
627.410	0.0168901
627.488	0.0168753
627.567	0.0167583
627.645	0.0168378
627.723	0.0169152
627.801	0.0168971
627.879	0.0167672
627.957	0.0167014
628.035	0.0167535
628.113	0.0168398
628.192	0.0168123
628.270	0.0168713
628.348	0.0168068
628.426	0.0167968
628.504	0.0166725
628.582	0.0167631
628.660	0.0168462
628.738	0.0167309
628.817	0.0168301
628.895	0.0168163
628.973	0.0166931
629.051	0.0168954
629.129	0.0167614
629.207	0.0168680
629.285	0.0169054
629.363	0.0168998
629.442	0.0167558
629.520	0.0168242
629.598	0.0169534
629.676	0.0169937
629.754	0.0167900
629.832	0.0168780
629.910	0.0167602
629.988	0.0167042
630.067	0.0166864
630.145	0.0169533
630.223	0.0169046
630.301	0.0167398
630.379	0.0168085
630.457	0.0168624
630.535	0.0168479
630.613	0.0168640
630.692	0.0166433
630.770	0.0168487
630.848	0.0168626
630.926	0.0166547
631.004	0.0167896
631.082	0.0168027
631.160	0.0168456
631.238	0.0167751
631.317	0.0167429
631.395	0.0168700
631.473	0.0168060
631.551	0.0168095
631.629	0.0169000
631.707	0.0167548
631.785	0.0167743
631.863	0.0168177
631.942	0.0168676
632.020	0.0168006
632.098	0.0166930
632.176	0.0168719
632.254	0.0169234
632.332	0.0168986
632.410	0.0167302
632.488	0.0167356
632.567	0.0167609
632.645	0.0167931
632.723	0.0166437
632.801	0.0168284
632.879	0.0168021
632.957	0.0168174
633.035	0.0169457
633.113	0.0168295
633.192	0.0167995
633.270	0.0168798
633.348	0.0167363
633.426	0.0168404
633.504	0.0168796
633.582	0.0167323
633.660	0.0167484
633.738	0.0168449
633.817	0.0167217
633.895	0.0168653
633.973	0.0168532
634.051	0.0167911
634.129	0.0168590
634.207	0.0168697
634.285	0.0168591
634.363	0.0167268
634.442	0.0168514
634.520	0.0167599
634.598	0.0166457
634.676	0.0168399
634.754	0.0167528
634.832	0.0169099
634.910	0.0168428
634.988	0.0167633
635.067	0.0166896
635.145	0.0167130
635.223	0.0168159
635.301	0.0167187
635.379	0.0167563
635.457	0.0167439
635.535	0.0167535
635.613	0.0169496
635.692	0.0168882
635.770	0.0168913
635.848	0.0167155
635.926	0.0168356
636.004	0.0168061
636.082	0.0168801
636.160	0.0168743
636.238	0.0167730
636.317	0.0167500
636.395	0.0167200
636.473	0.0169682
636.551	0.0168195
636.629	0.0167574
636.707	0.0168618
636.785	0.0169942
636.863	0.0168671
636.942	0.0168566
637.020	0.0168835
637.098	0.0168174
637.176	0.0168327
637.254	0.0168641
637.332	0.0167464
637.410	0.0167977
637.488	0.0168917
637.567	0.0168243
637.645	0.0169581
637.723	0.0168003
637.801	0.0166909
637.879	0.0168513
637.957	0.0168359
638.035	0.0168758
638.113	0.0167133
638.192	0.0167874
638.270	0.0167709
638.348	0.0168527
638.426	0.0168789
638.504	0.0169044
638.582	0.0167654
638.660	0.0168288
638.738	0.0168159
638.817	0.0168198
638.895	0.0167624
638.973	0.0168458
639.051	0.0168090
639.129	0.0168982
639.207	0.0168337
639.285	0.0167725
639.363	0.0168070
639.442	0.0167587
639.520	0.0169043
639.598	0.0168699
639.676	0.0167425
639.754	0.0167554
639.832	0.0167860
639.910	0.0168410
639.988	0.0168274
640.067	0.0166485
640.145	0.0168974
640.223	0.0170253
640.301	0.0168028
640.379	0.0168248
640.457	0.0168098
640.535	0.0168482
640.613	0.0166851
640.692	0.0169086
640.770	0.0167530
640.848	0.0167999
640.926	0.0167995
641.004	0.0168823
641.082	0.0168622
641.160	0.0168541
641.238	0.0168423
641.317	0.0168298
641.395	0.0168180
641.473	0.0168237
641.551	0.0167879
641.629	0.0167713
641.707	0.0166903
641.785	0.0169257
641.863	0.0169263
641.942	0.0168643
642.020	0.0167558
642.098	0.0167486
642.176	0.0167799
642.254	0.0170791
642.332	0.0167645
642.410	0.0167225
642.488	0.0168484
642.567	0.0168696
642.645	0.0168929
642.723	0.0168466
642.801	0.0168128
642.879	0.0168196
642.957	0.0167853
643.035	0.0168032
643.113	0.0168233
643.192	0.0169527
643.270	0.0168346
643.348	0.0168097
643.426	0.0168019
643.504	0.0167719
643.582	0.0168539
643.660	0.0166773
643.738	0.0168187
643.817	0.0170267
643.895	0.0168253
643.973	0.0169087
644.051	0.0168138
644.129	0.0167612
644.207	0.0169800
644.285	0.0168060
644.363	0.0168392
644.442	0.0169112
644.520	0.0167937
644.598	0.0168807
644.676	0.0168656
644.754	0.0169262
644.832	0.0168967
644.910	0.0167506
644.988	0.0169252
645.067	0.0168204
645.145	0.0168240
645.223	0.0170258
645.301	0.0168230
645.379	0.0168613
645.457	0.0168185
645.535	0.0168639
645.613	0.0169392
645.692	0.0168359
645.770	0.0168861
645.848	0.0168091
645.926	0.0167202
646.004	0.0168793
646.082	0.0168525
646.160	0.0167959
646.238	0.0168488
646.317	0.0168795
646.395	0.0167735
646.473	0.0169180
646.551	0.0168324
646.629	0.0168271
646.707	0.0167050
646.785	0.0169123
646.863	0.0167386
646.942	0.0166969
647.020	0.0168907
647.098	0.0168591
647.176	0.0167394
647.254	0.0168093
647.332	0.0168148
647.410	0.0168371
647.488	0.0166788
647.567	0.0168092
647.645	0.0168056
647.723	0.0169294
647.801	0.0168771
647.879	0.0168830
647.957	0.0168986
648.035	0.0169177
648.113	0.0168008
648.192	0.0167978
648.270	0.0168536
648.348	0.0167872
648.426	0.0168919
648.504	0.0168913
648.582	0.0168777
648.660	0.0168088
648.738	0.0168519
648.817	0.0167816
648.895	0.0168568
648.973	0.0168860
649.051	0.0166824
649.129	0.0167770
649.207	0.0169521
649.285	0.0169389
649.363	0.0169093
649.442	0.0168151
649.520	0.0167867
649.598	0.0169025
649.676	0.0169234
649.754	0.0169251
649.832	0.0167989
649.910	0.0168155
649.988	0.0170140
650.067	0.0168706
650.145	0.0167897
650.223	0.0168237
650.301	0.0167673
650.379	0.0167713
650.457	0.0169164
650.535	0.0168573
650.613	0.0168936
650.692	0.0168977
650.770	0.0166776
650.848	0.0167953
650.926	0.0166929
651.004	0.0166682
651.082	0.0169167
651.160	0.0167642
651.238	0.0167548
651.317	0.0168751
651.395	0.0168254
651.473	0.0168668
651.551	0.0168848
651.629	0.0169715
651.707	0.0167622
651.785	0.0168240
651.863	0.0168056
651.942	0.0168487
652.020	0.0167716
652.098	0.0168169
652.176	0.0168269
652.254	0.0167522
652.332	0.0168386
652.410	0.0166550
652.488	0.0167497
652.567	0.0168239
652.645	0.0168862
652.723	0.0166885
652.801	0.0169162
652.879	0.0167989
652.957	0.0168011
653.035	0.0168147
653.113	0.0168723
653.192	0.0166077
653.270	0.0167760
653.348	0.0168269
653.426	0.0168010
653.504	0.0168198
653.582	0.0168291
653.660	0.0167595
653.738	0.0166838
653.817	0.0168048
653.895	0.0168166
653.973	0.0168600
654.051	0.0168644
654.129	0.0166805
654.207	0.0167753
654.285	0.0167958
654.363	0.0168361
654.442	0.0167764
654.520	0.0167691
654.598	0.0168282
654.676	0.0167165
654.754	0.0168108
654.832	0.0168351
654.910	0.0167832
654.988	0.0168369
655.067	0.0169079
655.145	0.0168153
655.223	0.0167276
655.301	0.0167993
655.379	0.0168226
655.457	0.0167909
655.535	0.0168475
655.613	0.0168125
655.692	0.0169263
655.770	0.0168272
655.848	0.0167746
655.926	0.0167749
656.004	0.0168483
656.082	0.0169093
656.160	0.0167840
656.238	0.0168311
656.317	0.0168223
656.395	0.0166903
656.473	0.0167310
656.551	0.0167221
656.629	0.0167522
656.707	0.0168288
656.785	0.0168532
656.863	0.0167210
656.942	0.0167957
657.020	0.0168035
657.098	0.0168157
657.176	0.0169016
657.254	0.0168263
657.332	0.0167284
657.410	0.0167856
657.488	0.0168444
657.567	0.0169397
657.645	0.0167413
657.723	0.0169070
657.801	0.0167332
657.879	0.0168058
657.957	0.0168347
658.035	0.0168685
658.113	0.0168260
658.192	0.0169367
658.270	0.0168864
658.348	0.0166438
658.426	0.0167537
658.504	0.0168111
658.582	0.0168143
658.660	0.0168465
658.738	0.0168555
658.817	0.0168285
658.895	0.0168451
658.973	0.0167860
659.051	0.0167641
659.129	0.0167686
659.207	0.0168990
659.285	0.0168323
659.363	0.0168557
659.442	0.0168634
659.520	0.0170575
659.598	0.0169136
659.676	0.0168697
659.754	0.0168208
659.832	0.0168323
659.910	0.0169982
659.988	0.0167433
660.067	0.0170189
660.145	0.0169690
660.223	0.0167219
660.301	0.0168369
660.379	0.0168771
660.457	0.0167742
660.535	0.0169379
660.613	0.0169134
660.692	0.0168153
660.770	0.0168200
660.848	0.0169213
660.926	0.0168022
661.004	0.0168613
661.082	0.0167176
661.160	0.0169427
661.238	0.0169599
661.317	0.0168306
661.395	0.0167009
661.473	0.0168811
661.551	0.0169720
661.629	0.0168012
661.707	0.0169305
661.785	0.0168143
661.863	0.0167556
661.942	0.0168421
662.020	0.0168345
662.098	0.0169276
662.176	0.0168537
662.254	0.0169086
662.332	0.0168492
662.410	0.0168388
662.488	0.0168995
662.567	0.0168299
662.645	0.0168072
662.723	0.0168452
662.801	0.0167798
662.879	0.0168298
662.957	0.0168179
663.035	0.0167730
663.113	0.0169544
663.192	0.0169458
663.270	0.0168232
663.348	0.0168932
663.426	0.0169048
663.504	0.0167999
663.582	0.0168233
663.660	0.0167642
663.738	0.0168201
663.817	0.0168333
663.895	0.0168655
663.973	0.0167973
664.051	0.0166234
664.129	0.0167954
664.207	0.0169604
664.285	0.0168436
664.363	0.0167977
664.442	0.0167819
664.520	0.0167915
664.598	0.0167581
664.676	0.0170081
664.754	0.0169173
664.832	0.0167119
664.910	0.0167772
664.988	0.0168242
665.067	0.0168341
665.145	0.0167885
665.223	0.0169323
665.301	0.0167318
665.379	0.0168472
665.457	0.0168279
665.535	0.0168620
665.613	0.0167972
665.692	0.0168701
665.770	0.0168213
665.848	0.0169497
665.926	0.0167433
666.004	0.0168271
666.082	0.0167758
666.160	0.0168336
666.238	0.0168350
666.317	0.0168999
666.395	0.0168290
666.473	0.0167263
666.551	0.0168840
666.629	0.0168163
666.707	0.0168694
666.785	0.0168896
666.863	0.0167451
666.942	0.0168204
667.020	0.0168799
667.098	0.0169882
667.176	0.0167071
667.254	0.0167924
667.332	0.0168179
667.410	0.0168393
667.488	0.0168512
667.567	0.0168359
667.645	0.0167864
667.723	0.0168835
667.801	0.0167693
667.879	0.0166707
667.957	0.0168388
668.035	0.0167902
668.113	0.0167613
668.192	0.0167883
668.270	0.0169126
668.348	0.0168407
668.426	0.0168450
668.504	0.0169005
668.582	0.0167721
668.660	0.0168487
668.738	0.0168426
668.817	0.0169430
668.895	0.0168658
668.973	0.0168912
669.051	0.0168940
669.129	0.0167876
669.207	0.0168762
669.285	0.0167699
669.363	0.0167772
669.442	0.0168594
669.520	0.0170039
669.598	0.0168536
669.676	0.0167611
669.754	0.0166483
669.832	0.0167829
669.910	0.0167589
669.988	0.0166434
670.067	0.0169355
670.145	0.0167786
670.223	0.0168343
670.301	0.0167877
670.379	0.0167890
670.457	0.0168778
670.535	0.0169552
670.613	0.0167620
670.692	0.0167245
670.770	0.0167908
670.848	0.0167847
670.926	0.0168313
671.004	0.0167905
671.082	0.0167440
671.160	0.0167172
671.238	0.0167984
671.317	0.0167972
671.395	0.0168088
671.473	0.0168365
671.551	0.0167757
671.629	0.0167149
671.707	0.0168932
671.785	0.0167908
671.863	0.0167658
671.942	0.0168002
672.020	0.0167261
672.098	0.0167107
672.176	0.0168601
672.254	0.0168548
672.332	0.0167834
672.410	0.0168039
672.488	0.0168803
672.567	0.0168436
672.645	0.0168232
672.723	0.0169526
672.801	0.0168420
672.879	0.0167749
672.957	0.0168539
673.035	0.0168819
673.113	0.0167917
673.192	0.0168799
673.270	0.0168169
673.348	0.0167979
673.426	0.0168456
673.504	0.0168214
673.582	0.0168038
673.660	0.0168089
673.738	0.0168042
673.817	0.0167181
673.895	0.0167096
673.973	0.0167247
674.051	0.0168693
674.129	0.0167584
674.207	0.0167515
674.285	0.0168404
674.363	0.0168333
674.442	0.0167480
674.520	0.0169511
674.598	0.0168605
674.676	0.0168164
674.754	0.0167181
674.832	0.0168089
674.910	0.0167032
674.988	0.0166206
675.067	0.0167156
675.145	0.0167682
675.223	0.0168451
675.301	0.0167972
675.379	0.0168251
675.457	0.0168131
675.535	0.0167703
675.613	0.0167869
675.692	0.0169180
675.770	0.0167400
675.848	0.0167686
675.926	0.0167979
676.004	0.0167117
676.082	0.0167876
676.160	0.0169341
676.238	0.0166663
676.317	0.0167937
676.395	0.0166779
676.473	0.0166379
676.551	0.0167906
676.629	0.0168557
676.707	0.0168082
676.785	0.0167126
676.863	0.0167981
676.942	0.0168314
677.020	0.0168005
677.098	0.0168926
677.176	0.0169305
677.254	0.0168561
677.332	0.0169037
677.410	0.0169341
677.488	0.0169657
677.567	0.0169276
677.645	0.0168932
677.723	0.0168848
677.801	0.0168363
677.879	0.0167681
677.957	0.0168395
678.035	0.0168496
678.113	0.0166894
678.192	0.0166085
678.270	0.0167050
678.348	0.0167702
678.426	0.0167680
678.504	0.0167693
678.582	0.0169362
678.660	0.0169079
678.738	0.0168474
678.817	0.0169063
678.895	0.0169771
678.973	0.0171307
679.051	0.0170032
679.129	0.0170798
679.207	0.0170023
679.285	0.0169722
679.363	0.0169775
679.442	0.0168673
679.520	0.0167065
679.598	0.0168177
679.676	0.0167661
679.754	0.0166529
679.832	0.0166422
679.910	0.0166336
679.988	0.0166039
680.067	0.0166235
680.145	0.0166969
680.223	0.0166107
680.301	0.0166137
680.379	0.0166809
680.457	0.0166860
680.535	0.0167648
680.613	0.0167974
680.692	0.0168169
680.770	0.0168697
680.848	0.0167742
680.926	0.0169012
681.004	0.0168523
681.082	0.0170580
681.160	0.0169440
681.238	0.0168947
681.317	0.0168418
681.395	0.0168985
681.473	0.0167715
681.551	0.0167041
681.629	0.0167506
681.707	0.0167303
681.785	0.0166915
681.863	0.0166467
681.942	0.0166894
682.020	0.0167893
682.098	0.0167978
682.176	0.0167609
682.254	0.0169375
682.332	0.0168973
682.410	0.0169244
682.488	0.0171260
682.567	0.0170194
682.645	0.0171537
682.723	0.0171333
682.801	0.0170797
682.879	0.0171086
682.957	0.0170238
683.035	0.0169302
683.113	0.0169044
683.192	0.0169077
683.270	0.0169540
683.348	0.0167222
683.426	0.0167461
683.504	0.0166401
683.582	0.0164475
683.660	0.0165311
683.738	0.0165226
683.817	0.0162944
683.895	0.0164281
683.973	0.0166694
684.051	0.0163829
684.129	0.0164967
684.207	0.0165753
684.285	0.0166141
684.363	0.0167377
684.442	0.0168585
684.520	0.0170093
684.598	0.0170728
684.676	0.0172123
684.754	0.0173369
684.832	0.0173280
684.910	0.0173460
684.988	0.0173300
685.067	0.0172826
685.145	0.0172642
685.223	0.0172175
685.301	0.0170927
685.379	0.0169306
685.457	0.0167441
685.535	0.0166393
685.613	0.0165717
685.692	0.0165556
685.770	0.0167268
685.848	0.0167663
685.926	0.0167704
686.004	0.0166904
686.082	0.0167852
686.160	0.0169009
686.238	0.0167987
686.317	0.0169944
686.395	0.0167751
686.473	0.0166695
686.551	0.0168437
686.629	0.0167730
686.707	0.0166885
686.785	0.0167336
686.863	0.0167063
686.942	0.0168025
687.020	0.0169457
687.098	0.0168668
687.176	0.0169614
687.254	0.0170604
687.332	0.0172588
687.410	0.0172867
687.488	0.0173447
687.567	0.0173280
687.645	0.0172301
687.723	0.0171394
687.801	0.0170309
687.879	0.0169276
687.957	0.0168565
688.035	0.0169949
688.113	0.0170177
688.192	0.0170667
688.270	0.0171129
688.348	0.0174548
688.426	0.0174869
688.504	0.0175970
688.582	0.0176543
688.660	0.0176534
688.738	0.0177451
688.817	0.0174572
688.895	0.0169643
688.973	0.0164629
689.051	0.0160357
689.129	0.0156673
689.207	0.0153125
689.285	0.0151681
689.363	0.0147456
689.442	0.0146806
689.520	0.0146455
689.598	0.0146661
689.676	0.0147426
689.754	0.0149001
689.832	0.0152273
689.910	0.0154686
689.988	0.0156815
690.067	0.0158628
690.145	0.0163984
690.223	0.0165795
690.301	0.0170708
690.379	0.0176237
690.457	0.0179906
690.535	0.0186820
690.613	0.0192989
690.692	0.0199541
690.770	0.0204167
690.848	0.0213267
690.926	0.0218792
691.004	0.0224821
691.082	0.0226456
691.160	0.0228584
691.238	0.0229874
691.317	0.0228398
691.395	0.0224574
691.473	0.0217332
691.551	0.0207294
691.629	0.0195444
691.707	0.0183260
691.785	0.0167816
691.863	0.0153142
691.942	0.0138068
692.020	0.0122588
692.098	0.0109549
692.176	0.00977470
692.254	0.00865250
692.332	0.00785843
692.410	0.00716156
692.488	0.00682594
692.567	0.00649406
692.645	0.00667084
692.723	0.00689552
692.801	0.00738235
692.879	0.00830765
692.957	0.00912308
693.035	0.0102810
693.113	0.0117016
693.192	0.0130817
693.270	0.0147183
693.348	0.0165199
693.426	0.0181489
693.504	0.0197936
693.582	0.0215848
693.660	0.0229655
693.738	0.0243460
693.817	0.0257342
693.895	0.0269756
693.973	0.0279128
694.051	0.0285461
694.129	0.0289959
694.207	0.0293237
694.285	0.0294126
694.363	0.0291438
694.442	0.0288826
694.520	0.0284705
694.598	0.0276453
694.676	0.0270982
694.754	0.0262222
694.832	0.0250477
694.910	0.0239481
694.988	0.0223931
695.067	0.0207739
695.145	0.0189965
695.223	0.0170647
695.301	0.0152274
695.379	0.0128176
695.457	0.0106223
695.535	0.00821129
695.613	0.00605125
695.692	0.00395271
695.770	0.00211479
695.848	0.000464020
695.926	-0.000776520
696.004	-0.00170914
696.082	-0.00207512
696.160	-0.00214149
696.238	-0.00167465
696.317	-0.000949860
696.395	0.0000434875
696.473	0.00126205
696.551	0.00301224
696.629	0.00482681
696.707	0.00686394
696.785	0.00898552
696.863	0.0114076
696.942	0.0140099
697.020	0.0168383
697.098	0.0196139
697.176	0.0223315
697.254	0.0250536
697.332	0.0277608
697.410	0.0298616
697.488	0.0319246
697.567	0.0335403
697.645	0.0350469
697.723	0.0359748
697.801	0.0366056
697.879	0.0369068
697.957	0.0369602
698.035	0.0367437
698.113	0.0364617
698.192	0.0358175
698.270	0.0351222
698.348	0.0342835
698.426	0.0333997
698.504	0.0321165
698.582	0.0307930
698.660	0.0289808
698.738	0.0270494
698.817	0.0246458
698.895	0.0222583
698.973	0.0193417
699.051	0.0160535
699.129	0.0126386
699.207	0.00911346
699.285	0.00547981
699.363	0.00181702
699.442	-0.00156174
699.520	-0.00484093
699.598	-0.00767342
699.676	-0.00992653
699.754	-0.0117411
699.832	-0.0129131
699.910	-0.0134451
699.988	-0.0135535
700.067	-0.0129536
700.145	-0.0115366
700.223	-0.00970505
700.301	-0.00727814
700.379	-0.00443428
700.457	-0.000968170
700.535	0.00292503
700.613	0.00708076
700.692	0.0113826
700.770	0.0159553
700.848	0.0203304
700.926	0.0248253
701.004	0.0290682
701.082	0.0327782
701.160	0.0359549
701.238	0.0388132
701.317	0.0411105
701.395	0.0425789
701.473	0.0437543
701.551	0.0440141
701.629	0.0439308
701.707	0.0434761
701.785	0.0424644
701.863	0.0411457
701.942	0.0395383
702.020	0.0376745
702.098	0.0354404
702.176	0.0332405
702.254	0.0308693
702.332	0.0283575
702.410	0.0258022
702.488	0.0232955
702.567	0.0207905
702.645	0.0185067
702.723	0.0161781
702.801	0.0138678
702.879	0.0117677
702.957	0.00957031
703.035	0.00765739
703.113	0.00577774
703.192	0.00402000
703.270	0.00238762
703.348	0.000823059
703.426	-0.000410767
703.504	-0.00133148
703.582	-0.00234100
703.660	-0.00295845
703.738	-0.00322678
703.817	-0.00318069
703.895	-0.00282547
703.973	-0.00238739
704.051	-0.00143433
704.129	-0.0000937653
704.207	0.00150459
704.285	0.00342957
704.363	0.00553200
704.442	0.00780098
704.520	0.0102845
704.598	0.0126426
704.676	0.0148891
704.754	0.0174447
704.832	0.0194666
704.910	0.0215253
704.988	0.0233267
705.067	0.0249097
705.145	0.0263441
705.223	0.0274673
705.301	0.0283117
705.379	0.0288857
705.457	0.0292931
705.535	0.0296491
705.613	0.0298184
705.692	0.0297337
705.770	0.0296661
705.848	0.0294942
705.926	0.0292006
706.004	0.0287499
706.082	0.0281853
706.160	0.0275970
706.238	0.0266633
706.317	0.0256268
706.395	0.0247987
706.473	0.0234730
706.551	0.0222396
706.629	0.0209560
706.707	0.0194460
706.785	0.0182159
706.863	0.0168378
706.942	0.0156255
707.020	0.0142578
707.098	0.0129707
707.176	0.0119113
707.254	0.0110109
707.332	0.0101229
707.410	0.00948669
707.488	0.00866005
707.567	0.00838394
707.645	0.00807831
707.723	0.00823395
707.801	0.00850273
707.879	0.00915718
707.957	0.00977020
708.035	0.0106043
708.113	0.0113300
708.192	0.0122572
708.270	0.0133949
708.348	0.0144537
708.426	0.0152644
708.504	0.0160520
708.582	0.0166148
708.660	0.0171161
708.738	0.0173769
708.817	0.0175217
708.895	0.0177676
708.973	0.0177102
709.051	0.0173930
709.129	0.0172676
709.207	0.0170596
709.285	0.0168990
709.363	0.0165535
709.442	0.0163821
709.520	0.0162142
709.598	0.0162701
709.676	0.0162441
709.754	0.0162973
709.832	0.0163395
709.910	0.0164046
709.988	0.0165802
710.067	0.0167110
710.145	0.0167549
710.223	0.0168842
710.301	0.0171519
710.379	0.0171172
710.457	0.0172579
710.535	0.0171593
710.613	0.0173123
710.692	0.0171739
710.770	0.0171900
710.848	0.0171141
710.926	0.0168275
711.004	0.0167152
711.082	0.0167656
711.160	0.0168408
711.238	0.0169492
711.317	0.0170404
711.395	0.0173056
711.473	0.0175614
711.551	0.0179719
711.629	0.0184170
711.707	0.0187943
711.785	0.0193129
711.863	0.0198548
711.942	0.0199595
712.020	0.0204144
712.098	0.0207069
712.176	0.0208501
712.254	0.0210107
712.332	0.0209650
712.410	0.0208849
712.488	0.0206705
712.567	0.0202669
712.645	0.0198975
712.723	0.0194962
712.801	0.0190881
712.879	0.0184973
712.957	0.0179693
713.035	0.0173936
713.113	0.0169136
713.192	0.0164808
713.270	0.0162682
713.348	0.0157693
713.426	0.0154822
713.504	0.0153126
713.582	0.0148864
713.660	0.0147213
713.738	0.0144378
713.817	0.0143410
713.895	0.0141801
713.973	0.0141120
714.051	0.0139214
714.129	0.0138540
714.207	0.0136177
714.285	0.0136690
714.363	0.0135285
714.442	0.0135804
714.520	0.0133775
714.598	0.0133258
714.676	0.0132519
714.754	0.0131721
714.832	0.0132455
714.910	0.0132368
714.988	0.0132721
715.067	0.0133617
715.145	0.0137272
715.223	0.0138162
715.301	0.0142025
715.379	0.0148669
715.457	0.0154603
715.535	0.0158710
715.613	0.0163658
715.692	0.0170345
715.770	0.0175960
715.848	0.0180983
715.926	0.0185510
716.004	0.0190079
716.082	0.0193970
716.160	0.0194450
716.238	0.0197115
716.317	0.0198335
716.395	0.0199723
716.473	0.0199937
716.551	0.0198188
716.629	0.0198138
716.707	0.0199562
716.785	0.0198357
716.863	0.0196574
716.942	0.0194425
717.020	0.0194619
717.098	0.0192656
717.176	0.0192057
717.254	0.0190286
717.332	0.0189204
717.410	0.0187989
717.488	0.0184844
717.567	0.0183442
717.645	0.0182063
717.723	0.0178233
717.801	0.0176110
717.879	0.0173473
717.957	0.0170682
718.035	0.0167403
718.113	0.0165980
718.192	0.0161427
718.270	0.0158226
718.348	0.0157133
718.426	0.0155810
718.504	0.0154627
718.582	0.0153352
718.660	0.0155414
718.738	0.0156091
718.817	0.0158051
718.895	0.0157819
718.973	0.0160043
719.051	0.0161716
719.129	0.0163387
719.207	0.0165755
719.285	0.0167041
719.363	0.0167816
719.442	0.0168604
719.520	0.0169120
719.598	0.0168272
719.676	0.0165752
719.754	0.0164059
719.832	0.0161246
719.910	0.0159872
719.988	0.0157659
720.067	0.0154884
720.145	0.0151418
720.223	0.0150629
720.301	0.0147089
720.379	0.0147729
720.457	0.0147028
720.535	0.0146595
720.613	0.0147484
720.692	0.0151508
720.770	0.0152286
720.848	0.0156353
720.926	0.0158918
721.004	0.0162708
721.082	0.0166310
721.160	0.0169674
721.238	0.0170772
721.317	0.0172314
721.395	0.0173075
721.473	0.0173257
721.551	0.0174278
721.629	0.0174542
721.707	0.0172175
721.785	0.0171214
721.863	0.0171877
721.942	0.0170635
722.020	0.0168475
722.098	0.0168542
722.176	0.0168771
722.254	0.0169555
722.332	0.0168372
722.410	0.0170050
722.488	0.0170840
722.567	0.0172352
722.645	0.0173739
722.723	0.0174272
722.801	0.0176955
722.879	0.0178832
722.957	0.0181338
723.035	0.0183138
723.113	0.0184129
723.192	0.0185081
723.270	0.0186453
723.348	0.0187231
723.426	0.0184971
723.504	0.0184987
723.582	0.0185117
723.660	0.0181826
723.738	0.0180905
723.817	0.0177673
723.895	0.0176097
723.973	0.0173718
724.051	0.0171242
724.129	0.0169010
724.207	0.0167966
724.285	0.0168025
724.363	0.0165891
724.442	0.0168085
724.520	0.0166065
724.598	0.0166038
724.676	0.0167257
724.754	0.0168562
724.832	0.0169681
724.910	0.0169095
724.988	0.0169528
725.067	0.0168269
725.145	0.0166913
725.223	0.0167480
725.301	0.0165867
725.379	0.0163269
725.457	0.0162560
725.535	0.0159525
725.613	0.0158645
725.692	0.0157001
725.770	0.0154849
725.848	0.0151965
725.926	0.0152019
726.004	0.0149738
726.082	0.0150321
726.160	0.0151540
726.238	0.0150290
726.317	0.0151171
726.395	0.0152739
726.473	0.0153996
726.551	0.0156805
726.629	0.0158533
726.707	0.0161126
726.785	0.0164642
726.863	0.0166760
726.942	0.0169459
727.020	0.0171516
727.098	0.0174478
727.176	0.0175225
727.254	0.0176049
727.332	0.0176575
727.410	0.0177920
727.488	0.0177336
727.567	0.0178202
727.645	0.0174454
727.723	0.0173824
727.801	0.0172031
727.879	0.0171838
727.957	0.0168712
728.035	0.0169989
728.113	0.0171629
728.192	0.0169305
728.270	0.0171393
728.348	0.0169791
728.426	0.0172553
728.504	0.0171765
728.582	0.0173315
728.660	0.0173558
728.738	0.0175712
728.817	0.0174699
728.895	0.0174521
728.973	0.0174297
729.051	0.0173912
729.129	0.0172430
729.207	0.0171199
729.285	0.0170387
729.363	0.0167252
729.442	0.0167007
729.520	0.0165955
729.598	0.0164944
729.676	0.0164195
729.754	0.0162159
729.832	0.0162471
729.910	0.0160745
729.988	0.0162250
730.067	0.0162448
730.145	0.0161713
730.223	0.0162592
730.301	0.0164277
730.379	0.0164929
730.457	0.0167423
730.535	0.0169903
730.613	0.0169763
730.692	0.0172770
730.770	0.0174118
730.848	0.0175295
730.926	0.0175927
731.004	0.0177629
731.082	0.0178232
731.160	0.0179907
731.238	0.0179459
731.317	0.0178926
731.395	0.0176618
731.473	0.0176207
731.551	0.0175301
731.629	0.0172203
731.707	0.0169647
731.785	0.0166879
731.863	0.0165810
731.942	0.0163018
732.020	0.0161755
732.098	0.0160581
732.176	0.0158487
732.254	0.0160131
732.332	0.0159367
732.410	0.0158079
732.488	0.0160237
732.567	0.0160899
732.645	0.0161445
732.723	0.0161955
732.801	0.0162913
732.879	0.0163782
732.957	0.0164034
733.035	0.0165017
733.113	0.0163669
733.192	0.0165589
733.270	0.0164541
733.348	0.0163412
733.426	0.0161681
733.504	0.0161503
733.582	0.0160880
733.660	0.0158499
733.738	0.0160020
733.817	0.0160500
733.895	0.0159819
733.973	0.0159600
734.051	0.0162820
734.129	0.0162524
734.207	0.0163213
734.285	0.0165002
734.363	0.0166792
734.442	0.0167678
734.520	0.0169779
734.598	0.0170172
734.676	0.0172630
734.754	0.0173559
734.832	0.0175317
734.910	0.0176882
734.988	0.0176401
735.067	0.0177393
735.145	0.0179252
735.223	0.0178136
735.301	0.0178918
735.379	0.0178830
735.457	0.0176426
735.535	0.0177141
735.613	0.0175510
735.692	0.0175945
735.770	0.0173625
735.848	0.0172141
735.926	0.0170191
736.004	0.0169517
736.082	0.0168040
736.160	0.0167485
736.238	0.0166402
736.317	0.0166323
736.395	0.0166409
736.473	0.0166022
736.551	0.0166390
736.629	0.0166774
736.707	0.0167599
736.785	0.0167685
736.863	0.0167663
736.942	0.0167587
737.020	0.0168837
737.098	0.0168047
737.176	0.0169698
737.254	0.0168159
737.332	0.0169106
737.410	0.0169862
737.488	0.0168414
737.567	0.0168446
737.645	0.0168339
737.723	0.0168808
737.801	0.0167681
737.879	0.0166529
737.957	0.0166394
738.035	0.0164888
738.113	0.0162357
738.192	0.0162257
738.270	0.0159144
738.348	0.0158605
738.426	0.0157880
738.504	0.0155877
738.582	0.0158318
738.660	0.0158302
738.738	0.0157880
738.817	0.0159604
738.895	0.0160390
738.973	0.0162006
739.051	0.0165253
739.129	0.0167657
739.207	0.0169890
739.285	0.0172494
739.363	0.0174551
739.442	0.0176234
739.520	0.0178880
739.598	0.0179539
739.676	0.0180750
739.754	0.0182059
739.832	0.0181104
739.910	0.0178658
739.988	0.0177811
740.067	0.0177296
740.145	0.0173414
740.223	0.0171477
740.301	0.0168784
740.379	0.0167490
740.457	0.0165333
740.535	0.0164037
740.613	0.0162109
740.692	0.0162075
740.770	0.0160558
740.848	0.0159323
740.926	0.0159247
741.004	0.0158777
741.082	0.0160800
741.160	0.0161780
741.238	0.0160672
741.317	0.0163491
741.395	0.0165208
741.473	0.0166209
741.551	0.0168731
741.629	0.0169377
741.707	0.0170681
741.785	0.0169785
741.863	0.0170808
741.942	0.0170136
742.020	0.0169889
742.098	0.0168737
742.176	0.0166763
742.254	0.0166972
742.332	0.0163625
742.410	0.0163349
742.488	0.0160773
742.567	0.0161112
742.645	0.0159449
742.723	0.0159801
742.801	0.0159609
742.879	0.0160388
742.957	0.0163236
743.035	0.0165264
743.113	0.0166597
743.192	0.0167351
743.270	0.0171766
743.348	0.0174642
743.426	0.0176871
743.504	0.0177204
743.582	0.0181173
743.660	0.0182619
743.738	0.0182630
743.817	0.0183489
743.895	0.0181830
743.973	0.0181886
744.051	0.0180820
744.129	0.0178669
744.207	0.0177569
744.285	0.0174586
744.363	0.0171973
744.442	0.0171423
744.520	0.0168835
744.598	0.0166402
744.676	0.0165400
744.754	0.0163338
744.832	0.0165029
744.910	0.0162717
744.988	0.0162041
745.067	0.0162530
745.145	0.0162399
745.223	0.0162088
745.301	0.0162627
745.379	0.0162604
745.457	0.0164806
745.535	0.0164977
745.613	0.0163488
745.692	0.0163802
745.770	0.0166276
745.848	0.0166193
745.926	0.0167085
746.004	0.0166241
746.082	0.0166152
746.160	0.0168781
746.238	0.0167426
746.317	0.0168275
746.395	0.0169126
746.473	0.0167960
746.551	0.0168553
746.629	0.0168912
746.707	0.0169205
746.785	0.0168117
746.863	0.0168327
746.942	0.0170757
747.020	0.0171578
747.098	0.0170309
747.176	0.0170336
747.254	0.0170087
747.332	0.0171831
747.410	0.0172090
747.488	0.0169617
747.567	0.0169259
747.645	0.0169541
747.723	0.0168665
747.801	0.0168900
747.879	0.0168415
747.957	0.0169364
748.035	0.0167995
748.113	0.0167754
748.192	0.0168349
748.270	0.0168804
748.348	0.0169028
748.426	0.0168502
748.504	0.0167754
748.582	0.0168902
748.660	0.0167271
748.738	0.0167607
748.817	0.0166560
748.895	0.0166373
748.973	0.0163612
749.051	0.0163470
749.129	0.0162818
749.207	0.0162833
749.285	0.0162753
749.363	0.0161591
749.442	0.0161216
749.520	0.0160931
749.598	0.0163325
749.676	0.0165444
749.754	0.0165472
749.832	0.0167175
749.910	0.0169637
749.988	0.0173540
750.067	0.0173885
750.145	0.0175455
750.223	0.0176350
750.301	0.0176849
750.379	0.0180154
750.457	0.0179369
750.535	0.0178687
750.613	0.0180051
750.692	0.0178040
750.770	0.0177007
750.848	0.0176701
750.926	0.0174265
751.004	0.0172156
751.082	0.0170699
751.160	0.0169376
751.238	0.0166689
751.317	0.0167195
751.395	0.0165701
751.473	0.0164211
751.551	0.0165234
751.629	0.0162816
751.707	0.0163769
751.785	0.0166662
751.863	0.0164981
751.942	0.0166599
752.020	0.0168163
752.098	0.0168286
752.176	0.0168986
752.254	0.0169960
752.332	0.0170954
752.410	0.0171117
752.488	0.0172198
752.567	0.0170188
752.645	0.0169804
752.723	0.0169169
752.801	0.0168776
752.879	0.0166483
752.957	0.0166817
753.035	0.0165624
753.113	0.0164793
753.192	0.0164062
753.270	0.0163966
753.348	0.0165302
753.426	0.0165304
753.504	0.0167445
753.582	0.0167476
753.660	0.0168387
753.738	0.0169028
753.817	0.0169855
753.895	0.0173293
753.973	0.0173243
754.051	0.0172737
754.129	0.0173751
754.207	0.0174669
754.285	0.0174333
754.363	0.0173980
754.442	0.0173637
754.520	0.0172702
754.598	0.0170612
754.676	0.0170973
754.754	0.0169615
754.832	0.0168678
754.910	0.0168266
754.988	0.0166136
755.067	0.0166687
755.145	0.0164789
755.223	0.0163685
755.301	0.0166293
755.379	0.0164543
755.457	0.0163218
755.535	0.0163161
755.613	0.0162589
755.692	0.0161203
755.770	0.0161809
755.848	0.0162635
755.926	0.0161742
756.004	0.0162308
756.082	0.0162350
756.160	0.0162781
756.238	0.0162800
756.317	0.0161541
756.395	0.0162729
756.473	0.0162866
756.551	0.0163787
756.629	0.0164452
756.707	0.0165990
756.785	0.0166552
756.863	0.0166891
756.942	0.0167739
757.020	0.0169440
757.098	0.0170399
757.176	0.0169570
757.254	0.0170096
757.332	0.0170825
757.410	0.0172300
757.488	0.0172723
757.567	0.0173087
757.645	0.0173508
757.723	0.0172237
757.801	0.0174097
757.879	0.0174738
757.957	0.0173925
758.035	0.0174580
758.113	0.0174362
758.192	0.0174091
758.270	0.0173631
758.348	0.0175468
758.426	0.0173555
758.504	0.0173635
758.582	0.0173960
758.660	0.0173678
758.738	0.0172798
758.817	0.0173774
758.895	0.0173286
758.973	0.0171700
759.051	0.0171931
759.129	0.0170879
759.207	0.0170608
759.285	0.0170850
759.363	0.0168837
759.442	0.0168913
759.520	0.0168659
759.598	0.0168060
759.676	0.0165546
759.754	0.0165576
759.832	0.0165939
759.910	0.0165696
759.988	0.0164259
760.067	0.0164130
760.145	0.0166603
760.223	0.0165263
760.301	0.0166489
760.379	0.0166351
760.457	0.0166211
760.535	0.0164830
760.613	0.0165966
760.692	0.0165914
760.770	0.0166934
760.848	0.0166277
760.926	0.0164943
761.004	0.0165489
761.082	0.0165242
761.160	0.0164862
761.238	0.0165857
761.317	0.0166406
761.395	0.0164982
761.473	0.0167140
761.551	0.0166436
761.629	0.0166740
761.707	0.0164722
761.785	0.0164941
761.863	0.0165530
761.942	0.0166313
762.020	0.0167020
762.098	0.0166892
762.176	0.0166647
762.254	0.0167832
762.332	0.0168871
762.410	0.0167300
762.488	0.0168732
762.567	0.0170324
762.645	0.0170393
762.723	0.0169982
762.801	0.0170180
762.879	0.0170313
762.957	0.0169414
763.035	0.0171226
763.113	0.0169622
763.192	0.0169099
763.270	0.0168510
763.348	0.0167538
763.426	0.0167950
763.504	0.0168027
763.582	0.0166865
763.660	0.0165939
763.738	0.0165938
763.817	0.0167662
763.895	0.0165769
763.973	0.0164570
764.051	0.0164656
764.129	0.0164819
764.207	0.0165205
764.285	0.0165221
764.363	0.0165723
764.442	0.0166071
764.520	0.0164365
764.598	0.0164317
764.676	0.0166586
764.754	0.0166797
764.832	0.0167402
764.910	0.0169040
764.988	0.0169426
765.067	0.0169962
765.145	0.0170815
765.223	0.0171651
765.301	0.0172279
765.379	0.0173540
765.457	0.0173489
765.535	0.0172607
765.613	0.0174250
765.692	0.0174825
765.770	0.0171846
765.848	0.0171175
765.926	0.0172192
766.004	0.0171530
766.082	0.0169911
766.160	0.0169582
766.238	0.0170381
766.317	0.0170284
766.395	0.0171604
766.473	0.0171382
766.551	0.0170485
766.629	0.0170097
766.707	0.0170299
766.785	0.0170807
766.863	0.0171071
766.942	0.0171155
767.020	0.0170876
767.098	0.0171117
767.176	0.0171388
767.254	0.0170389
767.332	0.0172018
767.410	0.0172403
767.488	0.0171363
767.567	0.0170377
767.645	0.0171149
767.723	0.0170266
767.801	0.0170349
767.879	0.0169495
767.957	0.0168104
768.035	0.0167064
768.113	0.0168388
768.192	0.0166523
768.270	0.0166957
768.348	0.0164775
768.426	0.0165581
768.504	0.0163958
768.582	0.0163722
768.660	0.0164021
768.738	0.0163094
768.817	0.0162347
768.895	0.0163321
768.973	0.0162448
769.051	0.0164969
769.129	0.0165695
769.207	0.0164014
769.285	0.0164980
769.363	0.0165939
769.442	0.0165945
769.520	0.0166137
769.598	0.0166496
769.676	0.0166367
769.754	0.0167007
769.832	0.0167146
769.910	0.0166585
769.988	0.0167921
770.067	0.0169025
770.145	0.0169450
770.223	0.0167980
770.301	0.0167523
770.379	0.0168353
770.457	0.0168785
770.535	0.0169403
770.613	0.0168726
770.692	0.0169438
770.770	0.0168491
770.848	0.0168206
770.926	0.0169297
771.004	0.0169948
771.082	0.0169080
771.160	0.0168879
771.238	0.0169808
771.317	0.0169408
771.395	0.0169653
771.473	0.0169384
771.551	0.0171123
771.629	0.0170432
771.707	0.0169267
771.785	0.0169643
771.863	0.0171474
771.942	0.0170826
772.020	0.0170020
772.098	0.0170256
772.176	0.0170643
772.254	0.0170878
772.332	0.0169795
772.410	0.0170717
772.488	0.0169848
772.567	0.0170443
772.645	0.0169963
772.723	0.0169736
772.801	0.0169678
772.879	0.0169715
772.957	0.0169097
773.035	0.0168903
773.113	0.0168789
773.192	0.0169616
773.270	0.0170600
773.348	0.0169799
773.426	0.0168490
773.504	0.0168553
773.582	0.0168192
773.660	0.0169815
773.738	0.0167795
773.817	0.0167645
773.895	0.0168271
773.973	0.0167092
774.051	0.0167721
774.129	0.0168476
774.207	0.0168541
774.285	0.0168671
774.363	0.0168796
774.442	0.0167876
774.520	0.0169515
774.598	0.0169326
774.676	0.0168788
774.754	0.0169931
774.832	0.0169704
774.910	0.0170084
774.988	0.0169093
775.067	0.0169815
775.145	0.0169957
775.223	0.0170699
775.301	0.0171175
775.379	0.0169142
775.457	0.0169355
775.535	0.0168968
775.613	0.0167899
775.692	0.0166741
775.770	0.0166704
775.848	0.0166524
775.926	0.0167275
776.004	0.0166063
776.082	0.0165947
776.160	0.0166159
776.238	0.0164669
776.317	0.0166160
776.395	0.0165583
776.473	0.0166953
776.551	0.0168981
776.629	0.0168356
776.707	0.0168815
776.785	0.0168797
776.863	0.0170699
776.942	0.0170113
777.020	0.0171419
777.098	0.0172456
777.176	0.0170426
777.254	0.0170187
777.332	0.0169948
777.410	0.0169620
777.488	0.0168713
777.567	0.0170074
777.645	0.0169046
777.723	0.0167470
777.801	0.0166834
777.879	0.0167431
777.957	0.0165179
778.035	0.0165601
778.113	0.0165978
778.192	0.0163466
778.270	0.0163122
778.348	0.0163347
778.426	0.0164431
778.504	0.0163712
778.582	0.0162463
778.660	0.0163293
778.738	0.0162913
778.817	0.0162901
778.895	0.0163221
778.973	0.0163692
779.051	0.0163343
779.129	0.0164993
779.207	0.0166547
779.285	0.0166088
779.363	0.0166304
779.442	0.0168408
779.520	0.0169491
779.598	0.0168033
779.676	0.0168745
779.754	0.0170885
779.832	0.0170740
779.910	0.0171203
779.988	0.0172026
780.067	0.0171110
780.145	0.0171534
780.223	0.0172885
780.301	0.0172285
780.379	0.0174197
780.457	0.0174538
780.535	0.0174989
780.613	0.0174933
780.692	0.0174891
780.770	0.0173506
780.848	0.0175244
780.926	0.0174535
781.004	0.0175218
781.082	0.0173042
781.160	0.0172390
781.238	0.0172790
781.317	0.0172243
781.395	0.0171190
781.473	0.0171407
781.551	0.0170679
781.629	0.0170307
781.707	0.0169232
781.785	0.0168197
781.863	0.0167639
781.942	0.0166908
782.020	0.0167927
782.098	0.0167527
782.176	0.0167313
782.254	0.0165955
782.332	0.0165952
782.410	0.0166914
782.488	0.0166361
782.567	0.0166672
782.645	0.0165530
782.723	0.0164336
782.801	0.0165192
782.879	0.0164046
782.957	0.0163037
783.035	0.0163110
783.113	0.0162581
783.192	0.0162285
783.270	0.0162881
783.348	0.0161716
783.426	0.0162802
783.504	0.0162103
783.582	0.0163503
783.660	0.0163586
783.738	0.0163171
783.817	0.0162784
783.895	0.0164384
783.973	0.0163674
784.051	0.0164198
784.129	0.0167137
784.207	0.0166855
784.285	0.0166898
784.363	0.0168665
784.442	0.0168506
784.520	0.0169164
784.598	0.0170845
784.676	0.0170983
784.754	0.0171658
784.832	0.0172567
784.910	0.0173413
784.988	0.0172457
785.067	0.0173123
785.145	0.0173145
785.223	0.0171542
785.301	0.0171981
785.379	0.0171487
785.457	0.0170004
785.535	0.0168030
785.613	0.0167797
785.692	0.0166972
785.770	0.0164249
785.848	0.0165721
785.926	0.0164622
786.004	0.0162236
786.082	0.0164788
786.160	0.0162919
786.238	0.0163939
786.317	0.0164243
786.395	0.0164688
786.473	0.0164356
786.551	0.0164800
786.629	0.0165741
786.707	0.0166754
786.785	0.0167573
786.863	0.0168129
786.942	0.0169578
787.020	0.0170995
787.098	0.0172325
787.176	0.0172617
787.254	0.0173328
787.332	0.0173986
787.410	0.0173042
787.488	0.0174173
787.567	0.0173508
787.645	0.0172167
787.723	0.0172501
787.801	0.0171149
787.879	0.0169609
787.957	0.0169467
788.035	0.0167979
788.113	0.0167693
788.192	0.0165202
788.270	0.0165384
788.348	0.0165600
788.426	0.0165180
788.504	0.0163308
788.582	0.0164433
788.660	0.0163388
788.738	0.0163004
788.817	0.0164170
788.895	0.0164452
788.973	0.0164146
789.051	0.0163141
789.129	0.0164321
789.207	0.0165079
789.285	0.0163696
789.363	0.0164037
789.442	0.0164298
789.520	0.0164999
789.598	0.0164680
789.676	0.0164368
789.754	0.0164765
789.832	0.0166332
789.910	0.0166623
789.988	0.0167371
790.067	0.0167323
790.145	0.0169543
790.223	0.0170018
790.301	0.0172171
790.379	0.0172567
790.457	0.0173279
790.535	0.0174344
790.613	0.0176841
790.692	0.0177277
790.770	0.0177803
790.848	0.0180753
790.926	0.0182208
791.004	0.0182387
791.082	0.0182769
791.160	0.0183134
791.238	0.0181972
791.317	0.0182195
791.395	0.0181249
791.473	0.0179913
791.551	0.0178141
791.629	0.0175290
791.707	0.0172416
791.785	0.0170197
791.863	0.0167659
791.942	0.0164365
792.020	0.0159933
792.098	0.0156685
792.176	0.0153931
792.254	0.0151051
792.332	0.0148029
792.410	0.0148081
792.488	0.0145445
792.567	0.0143417
792.645	0.0143364
792.723	0.0144193
792.801	0.0143754
792.879	0.0143418
792.957	0.0144553
793.035	0.0146895
793.113	0.0148801
793.192	0.0151183
793.270	0.0156058
793.348	0.0158205
793.426	0.0162457
793.504	0.0165411
793.582	0.0168974
793.660	0.0172189
793.738	0.0176960
793.817	0.0179414
793.895	0.0182734
793.973	0.0184988
794.051	0.0187317
794.129	0.0189024
794.207	0.0190357
794.285	0.0192393
794.363	0.0193085
794.442	0.0193475
794.520	0.0193340
794.598	0.0193945
794.676	0.0193760
794.754	0.0192390
794.832	0.0192041
794.910	0.0192456
794.988	0.0188107
795.067	0.0188828
795.145	0.0187091
795.223	0.0183879
795.301	0.0179192
795.379	0.0177078
795.457	0.0174226
795.535	0.0171778
795.613	0.0166740
795.692	0.0162528
795.770	0.0159535
795.848	0.0155802
795.926	0.0151339
796.004	0.0148664
796.082	0.0145692
796.160	0.0142726
796.238	0.0142377
796.317	0.0139597
796.395	0.0139281
796.473	0.0138155
796.551	0.0137981
796.629	0.0138145
796.707	0.0141754
796.785	0.0141210
796.863	0.0144524
796.942	0.0147652
797.020	0.0149793
797.098	0.0153518
797.176	0.0157442
797.254	0.0161083
797.332	0.0164774
797.410	0.0169729
797.488	0.0172128
797.567	0.0176377
797.645	0.0180945
797.723	0.0183542
797.801	0.0184864
797.879	0.0187812
797.957	0.0188970
798.035	0.0191208
798.113	0.0192262
798.192	0.0192886
798.270	0.0191808
798.348	0.0193878
798.426	0.0193542
798.504	0.0191858
798.582	0.0191371
798.660	0.0191322
798.738	0.0189208
798.817	0.0184843
798.895	0.0184039
798.973	0.0182164
799.051	0.0180105
799.129	0.0175473
799.207	0.0173141
799.285	0.0170784
799.363	0.0167493
799.442	0.0165289
799.520	0.0162136
799.598	0.0158791
799.676	0.0157678
799.754	0.0155399
799.832	0.0153924
799.910	0.0151236
799.988	0.0150687
800.067	0.0150170
800.145	0.0149992
800.223	0.0149378
800.301	0.0147894
800.379	0.0149833
800.457	0.0148201
800.535	0.0148699
800.613	0.0149196
800.692	0.0148550
800.770	0.0150499
800.848	0.0153150
800.926	0.0153926
801.004	0.0155040
801.082	0.0156087
801.160	0.0158263
801.238	0.0158957
801.317	0.0160619
801.395	0.0163503
801.473	0.0165519
801.551	0.0167819
801.629	0.0169041
801.707	0.0172217
801.785	0.0175195
801.863	0.0175787
801.942	0.0177884
802.020	0.0178319
802.098	0.0180711
802.176	0.0183056
802.254	0.0184160
802.332	0.0185783
802.410	0.0185812
802.488	0.0185567
802.567	0.0186433
802.645	0.0184892
802.723	0.0184801
802.801	0.0184811
802.879	0.0183894
802.957	0.0180491
803.035	0.0179951
803.113	0.0179775
803.192	0.0176960
803.270	0.0175826
803.348	0.0174081
803.426	0.0172365
803.504	0.0171893
803.582	0.0169172
803.660	0.0168706
803.738	0.0168346
803.817	0.0166033
803.895	0.0166122
803.973	0.0164616
804.051	0.0164450
804.129	0.0164404
804.207	0.0163464
804.285	0.0163021
804.363	0.0161990
804.442	0.0161279
804.520	0.0161821
804.598	0.0161668
804.676	0.0160904
804.754	0.0159847
804.832	0.0160827
804.910	0.0159257
804.988	0.0158972
805.067	0.0159232
805.145	0.0158785
805.223	0.0157125
805.301	0.0157575
805.379	0.0157425
805.457	0.0158334
805.535	0.0158594
805.613	0.0161745
805.692	0.0160532
805.770	0.0161427
805.848	0.0161504
805.926	0.0164308
806.004	0.0167371
806.082	0.0166375
806.160	0.0166639
806.238	0.0169175
806.317	0.0169689
806.395	0.0171917
806.473	0.0172873
806.551	0.0171698
806.629	0.0171957
806.707	0.0170507
806.785	0.0171617
806.863	0.0171459
806.942	0.0172369
807.020	0.0170991
807.098	0.0171249
807.176	0.0169882
807.254	0.0170279
807.332	0.0171385
807.410	0.0171965
807.488	0.0170578
807.567	0.0168307
807.645	0.0171241
807.723	0.0171824
807.801	0.0172476
807.879	0.0171653
807.957	0.0172291
808.035	0.0171476
808.113	0.0172128
808.192	0.0173041
808.270	0.0172789
808.348	0.0172111
808.426	0.0173483
808.504	0.0172636
808.582	0.0171457
808.660	0.0170441
808.738	0.0171690
808.817	0.0170617
808.895	0.0169353
808.973	0.0169086
809.051	0.0168491
809.129	0.0167992
809.207	0.0169171
809.285	0.0168193
809.363	0.0167537
809.442	0.0168291
809.520	0.0168192
809.598	0.0169047
809.676	0.0168645
809.754	0.0168285
809.832	0.0169295
809.910	0.0170387
809.988	0.0170956
810.067	0.0171524
810.145	0.0169203
810.223	0.0170911
810.301	0.0170602
810.379	0.0171258
810.457	0.0170064
810.535	0.0169639
810.613	0.0169831
810.692	0.0169727
810.770	0.0168996
810.848	0.0168512
810.926	0.0167545
811.004	0.0168684
811.082	0.0166102
811.160	0.0165031
811.238	0.0166138
811.317	0.0163837
811.395	0.0163415
811.473	0.0161587
811.551	0.0162100
811.629	0.0161776
811.707	0.0160043
811.785	0.0161012
811.863	0.0161199
811.942	0.0160232
812.020	0.0159227
812.098	0.0161395
812.176	0.0159946
812.254	0.0161520
812.332	0.0160323
812.410	0.0161277
812.488	0.0162987
812.567	0.0163503
812.645	0.0163803
812.723	0.0165468
812.801	0.0166669
812.879	0.0169186
812.957	0.0169518
813.035	0.0170156
813.113	0.0171081
813.192	0.0172741
813.270	0.0172864
813.348	0.0172929
813.426	0.0174278
813.504	0.0175292
813.582	0.0175383
813.660	0.0176069
813.738	0.0176511
813.817	0.0177267
813.895	0.0177741
813.973	0.0176220
814.051	0.0176592
814.129	0.0177953
814.207	0.0175548
814.285	0.0175768
814.363	0.0175768
814.442	0.0175590
814.520	0.0175452
814.598	0.0174885
814.676	0.0176293
814.754	0.0175480
814.832	0.0175575
814.910	0.0175253
814.988	0.0174808
815.067	0.0173917
815.145	0.0175067
815.223	0.0174082
815.301	0.0172737
815.379	0.0171772
815.457	0.0171279
815.535	0.0170471
815.613	0.0169971
815.692	0.0169701
815.770	0.0168597
815.848	0.0167123
815.926	0.0165358
816.004	0.0163745
816.082	0.0164531
816.160	0.0163676
816.238	0.0161941
816.317	0.0160678
816.395	0.0161331
816.473	0.0159664
816.551	0.0159079
816.629	0.0159473
816.707	0.0158775
816.785	0.0159280
816.863	0.0159799
816.942	0.0158631
817.020	0.0158353
817.098	0.0159852
817.176	0.0160905
817.254	0.0160194
817.332	0.0160858
817.410	0.0160820
817.488	0.0161143
817.567	0.0162717
817.645	0.0163110
817.723	0.0165272
817.801	0.0163740
817.879	0.0166579
817.957	0.0167216
818.035	0.0167867
818.113	0.0168811
818.192	0.0169476
818.270	0.0171488
818.348	0.0173765
818.426	0.0173600
818.504	0.0173811
818.582	0.0174754
818.660	0.0174986
818.738	0.0178038
818.817	0.0177635
818.895	0.0177784
818.973	0.0178095
819.051	0.0179720
819.129	0.0178655
819.207	0.0178370
819.285	0.0179130
819.363	0.0176613
819.442	0.0177478
819.520	0.0177478
819.598	0.0177968
819.676	0.0177558
819.754	0.0176488
819.832	0.0174438
819.910	0.0175798
819.988	0.0174146
820.067	0.0171477
820.145	0.0171638
820.223	0.0171324
820.301	0.0169675
820.379	0.0168649
820.457	0.0167790
820.535	0.0167567
820.613	0.0166978
820.692	0.0165211
820.770	0.0165321
820.848	0.0165675
820.926	0.0165980
821.004	0.0165430
821.082	0.0163694
821.160	0.0165712
821.238	0.0164560
821.317	0.0164557
821.395	0.0165549
821.473	0.0165249
821.551	0.0166235
821.629	0.0164760
821.707	0.0166225
821.785	0.0166628
821.863	0.0166011
821.942	0.0166814
822.020	0.0165538
822.098	0.0166869
822.176	0.0166747
822.254	0.0165517
822.332	0.0164902
822.410	0.0166769
822.488	0.0167213
822.567	0.0165070
822.645	0.0166001
822.723	0.0165970
822.801	0.0164813
822.879	0.0166389
822.957	0.0166201
823.035	0.0168001
823.113	0.0167136
823.192	0.0166351
823.270	0.0168619
823.348	0.0169086
823.426	0.0169541
823.504	0.0169485
823.582	0.0170048
823.660	0.0170831
823.738	0.0170802
823.817	0.0171829
823.895	0.0169719
823.973	0.0170223
824.051	0.0171804
824.129	0.0170036
824.207	0.0169475
824.285	0.0171284
824.363	0.0170121
824.442	0.0169730
824.520	0.0171641
824.598	0.0170303
824.676	0.0170445
824.754	0.0170100
824.832	0.0170267
824.910	0.0169466
824.988	0.0170331
825.067	0.0171401
825.145	0.0170184
825.223	0.0170547
825.301	0.0170715
825.379	0.0170250
825.457	0.0169962
825.535	0.0169048
825.613	0.0167608
825.692	0.0168093
825.770	0.0167563
825.848	0.0167554
825.926	0.0166773
826.004	0.0166595
826.082	0.0165320
826.160	0.0164944
826.238	0.0166565
826.317	0.0166514
826.395	0.0166084
826.473	0.0167037
826.551	0.0166962
826.629	0.0167408
826.707	0.0168217
826.785	0.0168408
826.863	0.0168372
826.942	0.0169624
827.020	0.0171178
827.098	0.0171632
827.176	0.0171836
827.254	0.0171457
827.332	0.0171334
827.410	0.0171745
827.488	0.0172286
827.567	0.0172274
827.645	0.0173051
827.723	0.0172450
827.801	0.0171335
827.879	0.0171325
827.957	0.0170906
828.035	0.0170336
828.113	0.0170181
828.192	0.0169398
828.270	0.0169007
828.348	0.0168729
828.426	0.0166807
828.504	0.0168655
828.582	0.0167789
828.660	0.0167857
828.738	0.0165331
828.817	0.0166465
828.895	0.0166066
828.973	0.0166328
829.051	0.0165647
829.129	0.0164655
829.207	0.0165296
829.285	0.0164993
829.363	0.0165709
829.442	0.0165382
829.520	0.0166112
829.598	0.0165031
829.676	0.0165381
829.754	0.0165919
829.832	0.0166463
829.910	0.0166028
829.988	0.0167123
830.067	0.0166587
830.145	0.0166465
830.223	0.0167951
830.301	0.0167728
830.379	0.0168256
830.457	0.0168856
830.535	0.0168890
830.613	0.0168211
830.692	0.0169335
830.770	0.0171500
830.848	0.0172488
830.926	0.0171183
831.004	0.0171014
831.082	0.0169751
831.160	0.0170598
831.238	0.0171272
831.317	0.0169798
831.395	0.0169628
831.473	0.0169875
831.551	0.0170242
831.629	0.0169641
831.707	0.0168399
831.785	0.0168793
831.863	0.0168594
831.942	0.0168049
832.020	0.0167508
832.098	0.0167374
832.176	0.0168396
832.254	0.0168027
832.332	0.0168470
832.410	0.0168424
832.488	0.0167841
832.567	0.0166572
832.645	0.0166850
832.723	0.0167957
832.801	0.0167828
832.879	0.0167224
832.957	0.0167449
833.035	0.0167605
833.113	0.0166988
833.192	0.0167236
833.270	0.0167640
833.348	0.0167590
833.426	0.0166975
833.504	0.0166948
833.582	0.0165292
833.660	0.0165192
833.738	0.0166196
833.817	0.0165560
833.895	0.0167097
833.973	0.0166594
834.051	0.0166095
834.129	0.0167021
834.207	0.0166772
834.285	0.0167265
834.363	0.0166655
834.442	0.0167638
834.520	0.0169119
834.598	0.0168852
834.676	0.0169193
834.754	0.0170043
834.832	0.0169341
834.910	0.0171345
834.988	0.0169671
835.067	0.0170262
835.145	0.0171366
835.223	0.0170354
835.301	0.0170337
835.379	0.0170145
835.457	0.0170081
835.535	0.0172978
835.613	0.0172227
835.692	0.0172115
835.770	0.0171984
835.848	0.0171942
835.926	0.0172008
836.004	0.0172335
836.082	0.0171105
836.160	0.0172876
836.238	0.0172501
836.317	0.0172244
836.395	0.0172986
836.473	0.0172608
836.551	0.0169291
836.629	0.0170894
836.707	0.0170730
836.785	0.0169894
836.863	0.0170109
836.942	0.0169566
837.020	0.0167909
837.098	0.0166735
837.176	0.0167113
837.254	0.0167398
837.332	0.0166626
837.410	0.0166772
837.488	0.0164884
837.567	0.0164474
837.645	0.0163748
837.723	0.0165845
837.801	0.0165225
837.879	0.0163569
837.957	0.0163410
838.035	0.0164282
838.113	0.0163481
838.192	0.0163789
838.270	0.0165050
838.348	0.0165369
838.426	0.0164457
838.504	0.0164799
838.582	0.0164528
838.660	0.0164495
838.738	0.0166523
838.817	0.0166290
838.895	0.0165850
838.973	0.0165957
839.051	0.0166956
839.129	0.0169277
839.207	0.0168089
839.285	0.0169765
839.363	0.0169586
839.442	0.0169769
839.520	0.0172141
839.598	0.0172915
839.676	0.0173474
839.754	0.0173220
839.832	0.0174100
839.910	0.0176145
839.988	0.0176707
840.067	0.0175747
840.145	0.0175395
840.223	0.0175108
840.301	0.0175990
840.379	0.0176456
840.457	0.0174565
840.535	0.0173041
840.613	0.0174155
840.692	0.0173993
840.770	0.0172018
840.848	0.0171185
840.926	0.0171014
841.004	0.0169489
841.082	0.0167896
841.160	0.0167377
841.238	0.0166344
841.317	0.0166125
841.395	0.0164926
841.473	0.0164729
841.551	0.0165183
841.629	0.0163674
841.707	0.0163147
841.785	0.0162678
841.863	0.0163625
841.942	0.0162263
842.020	0.0162383
842.098	0.0161707
842.176	0.0162471
842.254	0.0163817
842.332	0.0163519
842.410	0.0163326
842.488	0.0164208
842.567	0.0164231
842.645	0.0164130
842.723	0.0165072
842.801	0.0166598
842.879	0.0167202
842.957	0.0167622
843.035	0.0168632
843.113	0.0169598
843.192	0.0169788
843.270	0.0168912
843.348	0.0169989
843.426	0.0171492
843.504	0.0170895
843.582	0.0171996
843.660	0.0171695
843.738	0.0172266
843.817	0.0172707
843.895	0.0173815
843.973	0.0173880
844.051	0.0174431
844.129	0.0174104
844.207	0.0173862
844.285	0.0172738
844.363	0.0173806
844.442	0.0174603
844.520	0.0173331
844.598	0.0172912
844.676	0.0173869
844.754	0.0172681
844.832	0.0173349
844.910	0.0172233
844.988	0.0172170
845.067	0.0172552
845.145	0.0170698
845.223	0.0171532
845.301	0.0170650
845.379	0.0170531
845.457	0.0168295
845.535	0.0167310
845.613	0.0168962
845.692	0.0168141
845.770	0.0167578
845.848	0.0165377
845.926	0.0165881
846.004	0.0166330
846.082	0.0165526
846.160	0.0166260
846.238	0.0166525
846.317	0.0163419
846.395	0.0165968
846.473	0.0164610
846.551	0.0164445
846.629	0.0164285
846.707	0.0163071
846.785	0.0165105
846.863	0.0163786
846.942	0.0163187
847.020	0.0164201
847.098	0.0164246
847.176	0.0164830
847.254	0.0166862
847.332	0.0166682
847.410	0.0166069
847.488	0.0166958
847.567	0.0166440
847.645	0.0165600
847.723	0.0167152
847.801	0.0166682
847.879	0.0167139
847.957	0.0167817
848.035	0.0167654
848.113	0.0166909
848.192	0.0167734
848.270	0.0168026
848.348	0.0168628
848.426	0.0167506
848.504	0.0168700
848.582	0.0169872
848.660	0.0168774
848.738	0.0168736
848.817	0.0169414
848.895	0.0168632
848.973	0.0170753
849.051	0.0171462
849.129	0.0169754
849.207	0.0170604
849.285	0.0171450
849.363	0.0170906
849.442	0.0171451
849.520	0.0171042
849.598	0.0170408
849.676	0.0170110
849.754	0.0170955
849.832	0.0170847
849.910	0.0171469
849.988	0.0171707
850.067	0.0170540
850.145	0.0169490
850.223	0.0170435
850.301	0.0169087
850.379	0.0169492
850.457	0.0169967
850.535	0.0170567
850.613	0.0170106
850.692	0.0168725
850.770	0.0169676
850.848	0.0168769
850.926	0.0168714
851.004	0.0169862
851.082	0.0170413
851.160	0.0169906
851.238	0.0170156
851.317	0.0170480
851.395	0.0170669
851.473	0.0169309
851.551	0.0168709
851.629	0.0169574
851.707	0.0169812
851.785	0.0169497
851.863	0.0169229
851.942	0.0168465
852.020	0.0167187
852.098	0.0168034
852.176	0.0167175
852.254	0.0166644
852.332	0.0166424
852.410	0.0165957
852.488	0.0165623
852.567	0.0164440
852.645	0.0162727
852.723	0.0163288
852.801	0.0163899
852.879	0.0165275
852.957	0.0164521
853.035	0.0164370
853.113	0.0164480
853.192	0.0164149
853.270	0.0165424
853.348	0.0165434
853.426	0.0166044
853.504	0.0165968
853.582	0.0166779
853.660	0.0167854
853.738	0.0168543
853.817	0.0168181
853.895	0.0168810
853.973	0.0169212
854.051	0.0168797
854.129	0.0167381
854.207	0.0168327
854.285	0.0168691
854.363	0.0167870
854.442	0.0170261
854.520	0.0168433
854.598	0.0169371
854.676	0.0168214
854.754	0.0169977
854.832	0.0170512
854.910	0.0168252
854.988	0.0168196
855.067	0.0169588
855.145	0.0169169
855.223	0.0169807
855.301	0.0169692
855.379	0.0168168
855.457	0.0169333
855.535	0.0169426
855.613	0.0169035
855.692	0.0170847
855.770	0.0169357
855.848	0.0168164
855.926	0.0168991
856.004	0.0166906
856.082	0.0167613
856.160	0.0167557
856.238	0.0166127
856.317	0.0165351
856.395	0.0166012
856.473	0.0166805
856.551	0.0165705
856.629	0.0165926
856.707	0.0166526
856.785	0.0165963
856.863	0.0166034
856.942	0.0166294
857.020	0.0166676
857.098	0.0166279
857.176	0.0167320
857.254	0.0167872
857.332	0.0167508
857.410	0.0168346
857.488	0.0169230
857.567	0.0167992
857.645	0.0169180
857.723	0.0168796
857.801	0.0168817
857.879	0.0168555
857.957	0.0168541
858.035	0.0168353
858.113	0.0169056
858.192	0.0170570
858.270	0.0168192
858.348	0.0167132
858.426	0.0168237
858.504	0.0167892
858.582	0.0167931
858.660	0.0167297
858.738	0.0166921
858.817	0.0167442
858.895	0.0165038
858.973	0.0167828
859.051	0.0166625
859.129	0.0167218
859.207	0.0166698
859.285	0.0167019
859.363	0.0167018
859.442	0.0166386
859.520	0.0165888
859.598	0.0167902
859.676	0.0169479
859.754	0.0168024
859.832	0.0168611
859.910	0.0167836
859.988	0.0167120
860.067	0.0167796
860.145	0.0168565
860.223	0.0167896
860.301	0.0167522
860.379	0.0168453
860.457	0.0168715
860.535	0.0168215
860.613	0.0168414
860.692	0.0167358
860.770	0.0167529
860.848	0.0167499
860.926	0.0167694
861.004	0.0168652
861.082	0.0167345
861.160	0.0168125
861.238	0.0168529
861.317	0.0167577
861.395	0.0166986
861.473	0.0166619
861.551	0.0167549
861.629	0.0168208
861.707	0.0168086
861.785	0.0169112
861.863	0.0167786
861.942	0.0167188
862.020	0.0168140
862.098	0.0170004
862.176	0.0168886
862.254	0.0168676
862.332	0.0168759
862.410	0.0167309
862.488	0.0168539
862.567	0.0168439
862.645	0.0168166
862.723	0.0167879
862.801	0.0167792
862.879	0.0166016
862.957	0.0166385
863.035	0.0167514
863.113	0.0166138
863.192	0.0166042
863.270	0.0166726
863.348	0.0167278
863.426	0.0166180
863.504	0.0164091
863.582	0.0165980
863.660	0.0165665
863.738	0.0165068
863.817	0.0167208
863.895	0.0166515
863.973	0.0165952
864.051	0.0165948
864.129	0.0167558
864.207	0.0166351
864.285	0.0167473
864.363	0.0168510
864.442	0.0168804
864.520	0.0168146
864.598	0.0168699
864.676	0.0170472
864.754	0.0168587
864.832	0.0169387
864.910	0.0169725
864.988	0.0168841
865.067	0.0168877
865.145	0.0169427
865.223	0.0169051
865.301	0.0169485
865.379	0.0168569
865.457	0.0169309
865.535	0.0169500
865.613	0.0169781
865.692	0.0169069
865.770	0.0167942
865.848	0.0168018
865.926	0.0168030
866.004	0.0168336
866.082	0.0168881
866.160	0.0169852
866.238	0.0169075
866.317	0.0169253
866.395	0.0168006
866.473	0.0169254
866.551	0.0170911
866.629	0.0169351
866.707	0.0168884
866.785	0.0168284
866.863	0.0169678
866.942	0.0170088
867.020	0.0168636
867.098	0.0168536
867.176	0.0170969
867.254	0.0170238
867.332	0.0169067
867.410	0.0168721
867.488	0.0167471
867.567	0.0166625
867.645	0.0166611
867.723	0.0166696
867.801	0.0167522
867.879	0.0167416
867.957	0.0167135
868.035	0.0168282
868.113	0.0166579
868.192	0.0167147
868.270	0.0167327
868.348	0.0167933
868.426	0.0166543
868.504	0.0167790
868.582	0.0168063
868.660	0.0168461
868.738	0.0168076
868.817	0.0168748
868.895	0.0168067
868.973	0.0167984
869.051	0.0168196
869.129	0.0169536
869.207	0.0167790
869.285	0.0167300
869.363	0.0169308
869.442	0.0168497
869.520	0.0168437
869.598	0.0168241
869.676	0.0167149
869.754	0.0167992
869.832	0.0167802
869.910	0.0168723
869.988	0.0168637
870.067	0.0167171
870.145	0.0167205
870.223	0.0168884
870.301	0.0167259
870.379	0.0166328
870.457	0.0166717
870.535	0.0166251
870.613	0.0165409
870.692	0.0165929
870.770	0.0166460
870.848	0.0164558
870.926	0.0167112
871.004	0.0166643
871.082	0.0165812
871.160	0.0165237
871.238	0.0165757
871.317	0.0165028
871.395	0.0166087
871.473	0.0167697
871.551	0.0165453
871.629	0.0166008
871.707	0.0165937
871.785	0.0165504
871.863	0.0166682
871.942	0.0167709
872.020	0.0167641
872.098	0.0168137
872.176	0.0168174
872.254	0.0168754
872.332	0.0169155
872.410	0.0168069
872.488	0.0170328
872.567	0.0170230
872.645	0.0170185
872.723	0.0169572
872.801	0.0170628
872.879	0.0171127
872.957	0.0171374
873.035	0.0170191
873.113	0.0169943
873.192	0.0170750
873.270	0.0172739
873.348	0.0171335
873.426	0.0170776
873.504	0.0171725
873.582	0.0170026
873.660	0.0169736
873.738	0.0169848
873.817	0.0170591
873.895	0.0171271
873.973	0.0170940
874.051	0.0168458
874.129	0.0169482
874.207	0.0169707
874.285	0.0168738
874.363	0.0167355
874.442	0.0167649
874.520	0.0168259
874.598	0.0168355
874.676	0.0166560
874.754	0.0166864
874.832	0.0165421
874.910	0.0165195
874.988	0.0164520
875.067	0.0164230
875.145	0.0163131
875.223	0.0162687
875.301	0.0162714
875.379	0.0162817
875.457	0.0163572
875.535	0.0163175
875.613	0.0162768
875.692	0.0164233
875.770	0.0164021
875.848	0.0163926
875.926	0.0165422
876.004	0.0164998
876.082	0.0167957
876.160	0.0167740
876.238	0.0168681
876.317	0.0169257
876.395	0.0169845
876.473	0.0169922
876.551	0.0169878
876.629	0.0170008
876.707	0.0171873
876.785	0.0171418
876.863	0.0170882
876.942	0.0171099
877.020	0.0171151
877.098	0.0170953
877.176	0.0171550
877.254	0.0171084
877.332	0.0170605
877.410	0.0171383
877.488	0.0170815
877.567	0.0171890
877.645	0.0171074
877.723	0.0171971
877.801	0.0171244
877.879	0.0170677
877.957	0.0170172
878.035	0.0168875
878.113	0.0167937
878.192	0.0169913
878.270	0.0167997
878.348	0.0168912
878.426	0.0167886
878.504	0.0167927
878.582	0.0166553
878.660	0.0165795
878.738	0.0165832
878.817	0.0166002
878.895	0.0165923
878.973	0.0163322
879.051	0.0164714
879.129	0.0164857
879.207	0.0163281
879.285	0.0164029
879.363	0.0164725
879.442	0.0163750
879.520	0.0163277
879.598	0.0164840
879.676	0.0164783
879.754	0.0164470
879.832	0.0164949
879.910	0.0166134
879.988	0.0167123
880.067	0.0166389
880.145	0.0167515
880.223	0.0169601
880.301	0.0168706
880.379	0.0168901
880.457	0.0168419
880.535	0.0168453
880.613	0.0169440
880.692	0.0169201
880.770	0.0169486
880.848	0.0170106
880.926	0.0168993
881.004	0.0171437
881.082	0.0170202
881.160	0.0169938
881.238	0.0171558
881.317	0.0170273
881.395	0.0172118
881.473	0.0173477
881.551	0.0172330
881.629	0.0172529
881.707	0.0172544
881.785	0.0172532
881.863	0.0170944
881.942	0.0172367
882.020	0.0171217
882.098	0.0171736
882.176	0.0171560
882.254	0.0170383
882.332	0.0170815
882.410	0.0170698
882.488	0.0170287
882.567	0.0170208
882.645	0.0170184
882.723	0.0169447
882.801	0.0168697
882.879	0.0167046
882.957	0.0167329
883.035	0.0167907
883.113	0.0165439
883.192	0.0165478
883.270	0.0164858
883.348	0.0163519
883.426	0.0162816
883.504	0.0162376
883.582	0.0160824
883.660	0.0159653
883.738	0.0160371
883.817	0.0161964
883.895	0.0159772
883.973	0.0159753
884.051	0.0159740
884.129	0.0160190
884.207	0.0160850
884.285	0.0162000
884.363	0.0161787
884.442	0.0163551
884.520	0.0163289
884.598	0.0164127
884.676	0.0164886
884.754	0.0166074
884.832	0.0166705
884.910	0.0169229
884.988	0.0171848
885.067	0.0172016
885.145	0.0172562
885.223	0.0174873
885.301	0.0176857
885.379	0.0177227
885.457	0.0179485
885.535	0.0180643
885.613	0.0180470
885.692	0.0179992
885.770	0.0181538
885.848	0.0179469
885.926	0.0179012
886.004	0.0176701
886.082	0.0176244
886.160	0.0174432
886.238	0.0174146
886.317	0.0171382
886.395	0.0169300
886.473	0.0167528
886.551	0.0165361
886.629	0.0163998
886.707	0.0163416
886.785	0.0161660
886.863	0.0160059
886.942	0.0158820
887.020	0.0156828
887.098	0.0156348
887.176	0.0155094
887.254	0.0153625
887.332	0.0155466
887.410	0.0155293
887.488	0.0154333
887.567	0.0155158
887.645	0.0155883
887.723	0.0156152
887.801	0.0156758
887.879	0.0159044
887.957	0.0159457
888.035	0.0161172
888.113	0.0161465
888.192	0.0162633
888.270	0.0165510
888.348	0.0168957
888.426	0.0170924
888.504	0.0171298
888.582	0.0173149
888.660	0.0175238
888.738	0.0177585
888.817	0.0180778
888.895	0.0182647
888.973	0.0184156
889.051	0.0185008
889.129	0.0185446
889.207	0.0184077
889.285	0.0185481
889.363	0.0184064
889.442	0.0183741
889.520	0.0183388
889.598	0.0181406
889.676	0.0180808
889.754	0.0179458
889.832	0.0177771
889.910	0.0175019
889.988	0.0173003
890.067	0.0171932
890.145	0.0169967
890.223	0.0166046
890.301	0.0165102
890.379	0.0162273
890.457	0.0160069
890.535	0.0157403
890.613	0.0155609
890.692	0.0154939
890.770	0.0152406
890.848	0.0150775
890.926	0.0150605
891.004	0.0149592
891.082	0.0149953
891.160	0.0149889
891.238	0.0150280
891.317	0.0151159
891.395	0.0153111
891.473	0.0152987
891.551	0.0156739
891.629	0.0158603
891.707	0.0160313
891.785	0.0162981
891.863	0.0165155
891.942	0.0168696
892.020	0.0170602
892.098	0.0173385
892.176	0.0176707
892.254	0.0178186
892.332	0.0181255
892.410	0.0183357
892.488	0.0183906
892.567	0.0185327
892.645	0.0186067
892.723	0.0186723
892.801	0.0186686
892.879	0.0186770
892.957	0.0185365
893.035	0.0183791
893.113	0.0183166
893.192	0.0181483
893.270	0.0178304
893.348	0.0176852
893.426	0.0175870
893.504	0.0174606
893.582	0.0171360
893.660	0.0170591
893.738	0.0169431
893.817	0.0166924
893.895	0.0164718
893.973	0.0164149
894.051	0.0163719
894.129	0.0163302
894.207	0.0160355
894.285	0.0160266
894.363	0.0159151
894.442	0.0158372
894.520	0.0158310
894.598	0.0156815
894.676	0.0155211
894.754	0.0156732
894.832	0.0155518
894.910	0.0156148
894.988	0.0155754
895.067	0.0157215
895.145	0.0157024
895.223	0.0158633
895.301	0.0159598
895.379	0.0161762
895.457	0.0162416
895.535	0.0163604
895.613	0.0165206
895.692	0.0166705
895.770	0.0166486
895.848	0.0167886
895.926	0.0169635
896.004	0.0170787
896.082	0.0173257
896.160	0.0173494
896.238	0.0174854
896.317	0.0175037
896.395	0.0175578
896.473	0.0176311
896.551	0.0175515
896.629	0.0177147
896.707	0.0176116
896.785	0.0175547
896.863	0.0174494
896.942	0.0175590
897.020	0.0175401
897.098	0.0175032
897.176	0.0173787
897.254	0.0173830
897.332	0.0171300
897.410	0.0172403
897.488	0.0171903
897.567	0.0171763
897.645	0.0172066
897.723	0.0172790
897.801	0.0173498
897.879	0.0172126
897.957	0.0173228
898.035	0.0172572
898.113	0.0171246
898.192	0.0170914
898.270	0.0170692
898.348	0.0169431
898.426	0.0167511
898.504	0.0166839
898.582	0.0165311
898.660	0.0165443
898.738	0.0163578
898.817	0.0162978
898.895	0.0161953
898.973	0.0161545
899.051	0.0159113
899.129	0.0160854
899.207	0.0160197
899.285	0.0159468
899.363	0.0161379
899.442	0.0161897
899.520	0.0162341
899.598	0.0163573
899.676	0.0166479
899.754	0.0167121
899.832	0.0167902
899.910	0.0170007
899.988	0.0170351
900.067	0.0171694
900.145	0.0171963
900.223	0.0171480
900.301	0.0172790
900.379	0.0172269
900.457	0.0173837
900.535	0.0172570
900.613	0.0172891
900.692	0.0172678
900.770	0.0169350
900.848	0.0171872
900.926	0.0169961
901.004	0.0169773
901.082	0.0170050
901.160	0.0169123
901.238	0.0168143
901.317	0.0167165
901.395	0.0167434
901.473	0.0167196
901.551	0.0166352
901.629	0.0168350
901.707	0.0167647
901.785	0.0167387
901.863	0.0166725
901.942	0.0166523
902.020	0.0165926
902.098	0.0167030
902.176	0.0164932
902.254	0.0165057
902.332	0.0164405
902.410	0.0166027
902.488	0.0164609
902.567	0.0163775
902.645	0.0163960
902.723	0.0162833
902.801	0.0162924
902.879	0.0162485
902.957	0.0163352
903.035	0.0163089
903.113	0.0163725
903.192	0.0165137
903.270	0.0164561
903.348	0.0168114
903.426	0.0167795
903.504	0.0169912
903.582	0.0171343
903.660	0.0172209
903.738	0.0174616
903.817	0.0175024
903.895	0.0174178
903.973	0.0176176
904.051	0.0175813
904.129	0.0176733
904.207	0.0176382
904.285	0.0175011
904.363	0.0174219
904.442	0.0171906
904.520	0.0171296
904.598	0.0171375
904.676	0.0168908
904.754	0.0168826
904.832	0.0169862
904.910	0.0168999
904.988	0.0167195
905.067	0.0167996
905.145	0.0167618
905.223	0.0166035
905.301	0.0167871
905.379	0.0167209
905.457	0.0167782
905.535	0.0168078
905.613	0.0169103
905.692	0.0167882
905.770	0.0168374
905.848	0.0168736
905.926	0.0166973
906.004	0.0166281
906.082	0.0167999
906.160	0.0166072
906.238	0.0166759
906.317	0.0165408
906.395	0.0166222
906.473	0.0165395
906.551	0.0164949
906.629	0.0166001
906.707	0.0164866
906.785	0.0166190
906.863	0.0163937
906.942	0.0165972
907.020	0.0166604
907.098	0.0166534
907.176	0.0168635
907.254	0.0167876
907.332	0.0168610
907.410	0.0170097
907.488	0.0170355
907.567	0.0170773
907.645	0.0172261
907.723	0.0172121
907.801	0.0170503
907.879	0.0170760
907.957	0.0170954
908.035	0.0172445
908.113	0.0169939
908.192	0.0168848
908.270	0.0169230
908.348	0.0170275
908.426	0.0170059
908.504	0.0170749
908.582	0.0168977
908.660	0.0169776
908.738	0.0168018
908.817	0.0170020
908.895	0.0169844
908.973	0.0169649
909.051	0.0170163
909.129	0.0169198
909.207	0.0168967
909.285	0.0170982
909.363	0.0169332
909.442	0.0168573
909.520	0.0168275
909.598	0.0168741
909.676	0.0170277
909.754	0.0168486
909.832	0.0169302
909.910	0.0168423
909.988	0.0167545
910.067	0.0167716
910.145	0.0167387
910.223	0.0168001
910.301	0.0168935
910.379	0.0169041
910.457	0.0169014
910.535	0.0166888
910.613	0.0167868
910.692	0.0168242
910.770	0.0169617
910.848	0.0168578
910.926	0.0168259
911.004	0.0170049
911.082	0.0167579
911.160	0.0168975
911.238	0.0169110
911.317	0.0168414
911.395	0.0169968
911.473	0.0168441
911.551	0.0167516
911.629	0.0166155
911.707	0.0167242
911.785	0.0166129
911.863	0.0165575
911.942	0.0167367
912.020	0.0165851
912.098	0.0166561
912.176	0.0167569
912.254	0.0166917
912.332	0.0166228
912.410	0.0167832
912.488	0.0169604
912.567	0.0168794
912.645	0.0170270
912.723	0.0170468
912.801	0.0170367
912.879	0.0170994
912.957	0.0173200
913.035	0.0172974
913.113	0.0169622
913.192	0.0171000
913.270	0.0171513
913.348	0.0171069
913.426	0.0170526
913.504	0.0171199
913.582	0.0171069
913.660	0.0170881
913.738	0.0169588
913.817	0.0168832
913.895	0.0167959
913.973	0.0168704
914.051	0.0168735
914.129	0.0167705
914.207	0.0167631
914.285	0.0169779
914.363	0.0167596
914.442	0.0168125
914.520	0.0168336
914.598	0.0169167
914.676	0.0168585
914.754	0.0168360
914.832	0.0169551
914.910	0.0168842
914.988	0.0168769
915.067	0.0168049
915.145	0.0169958
915.223	0.0169490
915.301	0.0169243
915.379	0.0168428
915.457	0.0169124
915.535	0.0168526
915.613	0.0167808
915.692	0.0166810
915.770	0.0167294
915.848	0.0166785
915.926	0.0167300
916.004	0.0165659
916.082	0.0166099
916.160	0.0166946
916.238	0.0167365
916.317	0.0167374
916.395	0.0166998
916.473	0.0166228
916.551	0.0167149
916.629	0.0167182
916.707	0.0166444
916.785	0.0166196
916.863	0.0166878
916.942	0.0167818
917.020	0.0168499
917.098	0.0167611
917.176	0.0168806
917.254	0.0167985
917.332	0.0168134
917.410	0.0170007
917.488	0.0169476
917.567	0.0168139
917.645	0.0168652
917.723	0.0169059
917.801	0.0168798
917.879	0.0168290
917.957	0.0170304
918.035	0.0170047
918.113	0.0169361
918.192	0.0168978
918.270	0.0169804
918.348	0.0169426
918.426	0.0171879
918.504	0.0171338
918.582	0.0170966
918.660	0.0170526
918.738	0.0170272
918.817	0.0171325
918.895	0.0170667
918.973	0.0169529
919.051	0.0170963
919.129	0.0170592
919.207	0.0169799
919.285	0.0169148
919.363	0.0169151
919.442	0.0169987
919.520	0.0169505
919.598	0.0169019
919.676	0.0168272
919.754	0.0168935
919.832	0.0167931
919.910	0.0167252
