06/01/2022	21:40:32	Ver.	4.1	UNKNOWN
Optical Delay	599.988409	Delta X		0.078125	Sweeps	1	Scan Rate	0/0
Coordinates	Axis 1	NaN	Axis 2	NaN	Axis 3	NaN	Axis 4	NaN	Axis 5	NaN	Axis 6	0.000000
TX Power	0.000000	RX Power	0.000000

599.988	0.0177676
600.067	0.0178066
600.145	0.0178693
600.223	0.0178049
600.301	0.0177181
600.379	0.0176493
600.457	0.0177719
600.535	0.0177396
600.613	0.0176773
600.692	0.0178246
600.770	0.0176508
600.848	0.0176398
600.926	0.0177640
601.004	0.0178323
601.082	0.0177432
601.160	0.0178257
601.238	0.0176714
601.317	0.0175868
601.395	0.0177933
601.473	0.0179169
601.551	0.0176392
601.629	0.0176447
601.707	0.0179096
601.785	0.0177474
601.863	0.0178055
601.942	0.0178935
602.020	0.0177727
602.098	0.0176363
602.176	0.0177966
602.254	0.0178139
602.332	0.0177206
602.410	0.0177560
602.488	0.0178141
602.567	0.0177177
602.645	0.0178542
602.723	0.0179482
602.801	0.0177290
602.879	0.0176983
602.957	0.0176453
603.035	0.0178790
603.113	0.0177274
603.192	0.0176662
603.270	0.0178258
603.348	0.0177337
603.426	0.0178853
603.504	0.0176943
603.582	0.0177001
603.660	0.0177962
603.738	0.0178049
603.817	0.0176868
603.895	0.0177412
603.973	0.0177821
604.051	0.0176998
604.129	0.0177394
604.207	0.0178252
604.285	0.0179133
604.363	0.0177763
604.442	0.0177460
604.520	0.0179067
604.598	0.0179263
604.676	0.0177278
604.754	0.0177265
604.832	0.0175735
604.910	0.0178991
604.988	0.0178740
605.067	0.0177782
605.145	0.0177597
605.223	0.0177171
605.301	0.0178102
605.379	0.0177577
605.457	0.0176785
605.535	0.0175748
605.613	0.0178201
605.692	0.0177676
605.770	0.0177304
605.848	0.0177212
605.926	0.0178874
606.004	0.0177067
606.082	0.0177171
606.160	0.0178394
606.238	0.0177213
606.317	0.0178931
606.395	0.0177381
606.473	0.0179034
606.551	0.0178416
606.629	0.0178201
606.707	0.0178428
606.785	0.0178802
606.863	0.0178439
606.942	0.0178384
607.020	0.0179552
607.098	0.0177969
607.176	0.0178645
607.254	0.0178754
607.332	0.0176481
607.410	0.0178723
607.488	0.0178415
607.567	0.0177036
607.645	0.0177242
607.723	0.0178809
607.801	0.0177924
607.879	0.0178012
607.957	0.0178213
608.035	0.0178699
608.113	0.0178388
608.192	0.0177264
608.270	0.0177688
608.348	0.0177984
608.426	0.0178804
608.504	0.0179028
608.582	0.0177376
608.660	0.0178172
608.738	0.0177962
608.817	0.0177136
608.895	0.0177063
608.973	0.0178490
609.051	0.0179657
609.129	0.0178294
609.207	0.0179697
609.285	0.0178340
609.363	0.0177021
609.442	0.0177677
609.520	0.0179335
609.598	0.0178120
609.676	0.0178414
609.754	0.0178201
609.832	0.0177347
609.910	0.0179214
609.988	0.0178361
610.067	0.0176572
610.145	0.0177467
610.223	0.0177415
610.301	0.0176334
610.379	0.0178748
610.457	0.0177891
610.535	0.0177814
610.613	0.0178703
610.692	0.0177388
610.770	0.0177726
610.848	0.0178355
610.926	0.0177086
611.004	0.0177273
611.082	0.0177275
611.160	0.0177345
611.238	0.0178439
611.317	0.0176902
611.395	0.0178123
611.473	0.0178907
611.551	0.0178679
611.629	0.0178829
611.707	0.0178330
611.785	0.0177539
611.863	0.0178116
611.942	0.0178163
612.020	0.0177035
612.098	0.0176836
612.176	0.0178387
612.254	0.0178077
612.332	0.0177876
612.410	0.0179548
612.488	0.0178870
612.567	0.0178891
612.645	0.0177499
612.723	0.0177110
612.801	0.0177573
612.879	0.0177586
612.957	0.0178294
613.035	0.0177998
613.113	0.0177608
613.192	0.0177074
613.270	0.0177579
613.348	0.0178414
613.426	0.0176330
613.504	0.0178190
613.582	0.0177634
613.660	0.0177561
613.738	0.0178265
613.817	0.0175950
613.895	0.0177653
613.973	0.0178020
614.051	0.0178560
614.129	0.0176222
614.207	0.0177863
614.285	0.0178117
614.363	0.0178333
614.442	0.0178658
614.520	0.0176681
614.598	0.0176653
614.676	0.0178286
614.754	0.0177632
614.832	0.0178044
614.910	0.0177463
614.988	0.0178391
615.067	0.0178347
615.145	0.0177380
615.223	0.0178978
615.301	0.0178585
615.379	0.0178755
615.457	0.0177426
615.535	0.0178452
615.613	0.0177790
615.692	0.0177454
615.770	0.0177908
615.848	0.0177515
615.926	0.0177268
616.004	0.0176591
616.082	0.0175336
616.160	0.0176931
616.238	0.0177288
616.317	0.0177328
616.395	0.0177584
616.473	0.0177462
616.551	0.0174402
616.629	0.0176749
616.707	0.0178016
616.785	0.0177991
616.863	0.0176104
616.942	0.0177105
617.020	0.0177913
617.098	0.0175616
617.176	0.0177057
617.254	0.0175867
617.332	0.0176514
617.410	0.0178513
617.488	0.0177397
617.567	0.0176972
617.645	0.0177987
617.723	0.0178104
617.801	0.0177319
617.879	0.0177522
617.957	0.0178534
618.035	0.0179578
618.113	0.0178263
618.192	0.0177325
618.270	0.0177958
618.348	0.0178592
618.426	0.0177579
618.504	0.0178659
618.582	0.0178370
618.660	0.0176931
618.738	0.0178785
618.817	0.0178780
618.895	0.0178358
618.973	0.0179723
619.051	0.0177481
619.129	0.0178342
619.207	0.0179121
619.285	0.0178023
619.363	0.0178793
619.442	0.0178376
619.520	0.0177377
619.598	0.0178644
619.676	0.0176498
619.754	0.0176585
619.832	0.0177642
619.910	0.0178031
619.988	0.0176492
620.067	0.0177705
620.145	0.0176121
620.223	0.0176073
620.301	0.0176843
620.379	0.0177294
620.457	0.0176485
620.535	0.0177334
620.613	0.0176934
620.692	0.0176794
620.770	0.0176469
620.848	0.0177718
620.926	0.0177933
621.004	0.0176630
621.082	0.0176868
621.160	0.0176899
621.238	0.0177351
621.317	0.0177802
621.395	0.0177620
621.473	0.0177097
621.551	0.0177475
621.629	0.0176786
621.707	0.0178139
621.785	0.0176910
621.863	0.0179084
621.942	0.0177692
622.020	0.0179049
622.098	0.0178986
622.176	0.0178440
622.254	0.0178925
622.332	0.0178675
622.410	0.0178688
622.488	0.0179171
622.567	0.0178416
622.645	0.0178571
622.723	0.0178482
622.801	0.0179785
622.879	0.0177579
622.957	0.0177165
623.035	0.0178223
623.113	0.0178761
623.192	0.0177422
623.270	0.0178747
623.348	0.0177595
623.426	0.0178018
623.504	0.0177602
623.582	0.0176585
623.660	0.0177172
623.738	0.0176720
623.817	0.0177614
623.895	0.0176910
623.973	0.0177676
624.051	0.0177431
624.129	0.0176377
624.207	0.0176912
624.285	0.0177949
624.363	0.0176923
624.442	0.0177158
624.520	0.0178983
624.598	0.0176427
624.676	0.0176454
624.754	0.0176505
624.832	0.0178131
624.910	0.0178034
624.988	0.0177665
625.067	0.0176794
625.145	0.0177283
625.223	0.0178345
625.301	0.0178173
625.379	0.0176999
625.457	0.0177457
625.535	0.0177539
625.613	0.0178426
625.692	0.0178124
625.770	0.0178020
625.848	0.0178190
625.926	0.0178540
626.004	0.0177636
626.082	0.0178191
626.160	0.0177517
626.238	0.0179012
626.317	0.0178773
626.395	0.0178037
626.473	0.0179199
626.551	0.0178468
626.629	0.0179607
626.707	0.0179859
626.785	0.0178890
626.863	0.0178194
626.942	0.0179095
627.020	0.0177811
627.098	0.0178000
627.176	0.0178302
627.254	0.0178011
627.332	0.0178050
627.410	0.0177606
627.488	0.0178835
627.567	0.0178903
627.645	0.0178289
627.723	0.0177297
627.801	0.0177314
627.879	0.0177493
627.957	0.0177823
628.035	0.0177773
628.113	0.0178227
628.192	0.0176985
628.270	0.0176364
628.348	0.0175904
628.426	0.0176482
628.504	0.0176646
628.582	0.0177538
628.660	0.0176204
628.738	0.0176406
628.817	0.0177534
628.895	0.0177817
628.973	0.0177335
629.051	0.0177177
629.129	0.0178581
629.207	0.0177131
629.285	0.0176862
629.363	0.0178574
629.442	0.0177837
629.520	0.0178201
629.598	0.0178552
629.676	0.0177790
629.754	0.0176818
629.832	0.0177209
629.910	0.0177856
629.988	0.0178416
630.067	0.0178139
630.145	0.0178489
630.223	0.0177628
630.301	0.0177184
630.379	0.0177436
630.457	0.0177100
630.535	0.0177473
630.613	0.0177420
630.692	0.0177592
630.770	0.0178870
630.848	0.0177950
630.926	0.0178079
631.004	0.0176989
631.082	0.0178325
631.160	0.0176839
631.238	0.0177754
631.317	0.0178281
631.395	0.0177170
631.473	0.0177231
631.551	0.0177397
631.629	0.0177901
631.707	0.0178180
631.785	0.0178131
631.863	0.0178709
631.942	0.0176974
632.020	0.0178018
632.098	0.0178806
632.176	0.0177414
632.254	0.0178001
632.332	0.0178410
632.410	0.0177787
632.488	0.0177014
632.567	0.0176424
632.645	0.0177213
632.723	0.0179041
632.801	0.0178580
632.879	0.0177866
632.957	0.0176548
633.035	0.0176521
633.113	0.0177617
633.192	0.0178209
633.270	0.0178534
633.348	0.0177720
633.426	0.0176814
633.504	0.0177600
633.582	0.0176823
633.660	0.0177795
633.738	0.0178514
633.817	0.0178761
633.895	0.0178746
633.973	0.0177697
634.051	0.0177631
634.129	0.0178362
634.207	0.0176989
634.285	0.0177172
634.363	0.0178375
634.442	0.0177145
634.520	0.0177184
634.598	0.0177658
634.676	0.0178023
634.754	0.0177085
634.832	0.0176938
634.910	0.0177113
634.988	0.0177415
635.067	0.0178504
635.145	0.0177045
635.223	0.0177821
635.301	0.0178000
635.379	0.0178556
635.457	0.0177290
635.535	0.0177837
635.613	0.0177904
635.692	0.0177919
635.770	0.0177835
635.848	0.0177441
635.926	0.0178267
636.004	0.0177898
636.082	0.0177539
636.160	0.0177373
636.238	0.0177763
636.317	0.0177048
636.395	0.0178935
636.473	0.0178065
636.551	0.0178378
636.629	0.0177441
636.707	0.0177711
636.785	0.0177536
636.863	0.0177088
636.942	0.0176936
637.020	0.0178997
637.098	0.0178672
637.176	0.0178314
637.254	0.0178750
637.332	0.0178223
637.410	0.0177884
637.488	0.0176228
637.567	0.0177310
637.645	0.0178891
637.723	0.0177440
637.801	0.0177076
637.879	0.0177560
637.957	0.0178175
638.035	0.0177350
638.113	0.0177695
638.192	0.0177576
638.270	0.0179156
638.348	0.0178282
638.426	0.0177677
638.504	0.0177979
638.582	0.0178400
638.660	0.0178229
638.738	0.0177895
638.817	0.0177238
638.895	0.0177139
638.973	0.0177197
639.051	0.0179065
639.129	0.0178551
639.207	0.0177391
639.285	0.0178102
639.363	0.0176277
639.442	0.0177305
639.520	0.0176957
639.598	0.0178840
639.676	0.0179124
639.754	0.0177863
639.832	0.0177155
639.910	0.0177515
639.988	0.0177599
640.067	0.0176773
640.145	0.0177779
640.223	0.0178244
640.301	0.0177531
640.379	0.0177703
640.457	0.0177714
640.535	0.0177017
640.613	0.0177124
640.692	0.0178416
640.770	0.0177368
640.848	0.0177797
640.926	0.0177063
641.004	0.0176954
641.082	0.0178141
641.160	0.0177663
641.238	0.0178215
641.317	0.0178049
641.395	0.0177906
641.473	0.0177132
641.551	0.0177528
641.629	0.0176934
641.707	0.0177051
641.785	0.0177190
641.863	0.0177090
641.942	0.0178452
642.020	0.0176221
642.098	0.0177671
642.176	0.0179028
642.254	0.0176653
642.332	0.0178653
642.410	0.0178880
642.488	0.0177595
642.567	0.0176902
642.645	0.0178002
642.723	0.0178262
642.801	0.0177190
642.879	0.0178180
642.957	0.0177782
643.035	0.0178345
643.113	0.0177263
643.192	0.0175798
643.270	0.0178599
643.348	0.0177784
643.426	0.0177151
643.504	0.0177295
643.582	0.0177900
643.660	0.0178052
643.738	0.0178708
643.817	0.0177364
643.895	0.0176942
643.973	0.0177718
644.051	0.0177541
644.129	0.0176537
644.207	0.0177114
644.285	0.0178380
644.363	0.0177879
644.442	0.0177737
644.520	0.0178365
644.598	0.0177819
644.676	0.0176990
644.754	0.0177441
644.832	0.0177497
644.910	0.0177721
644.988	0.0178442
645.067	0.0177834
645.145	0.0178136
645.223	0.0178421
645.301	0.0176868
645.379	0.0178464
645.457	0.0178634
645.535	0.0177205
645.613	0.0177948
645.692	0.0179242
645.770	0.0177680
645.848	0.0178111
645.926	0.0179021
646.004	0.0178423
646.082	0.0176978
646.160	0.0177745
646.238	0.0177348
646.317	0.0177733
646.395	0.0179035
646.473	0.0176753
646.551	0.0177795
646.629	0.0177369
646.707	0.0177381
646.785	0.0177509
646.863	0.0177854
646.942	0.0178592
647.020	0.0177847
647.098	0.0177364
647.176	0.0179150
647.254	0.0178798
647.332	0.0177116
647.410	0.0178555
647.488	0.0178515
647.567	0.0177475
647.645	0.0177551
647.723	0.0177438
647.801	0.0177731
647.879	0.0176727
647.957	0.0178110
648.035	0.0177512
648.113	0.0179444
648.192	0.0178873
648.270	0.0177663
648.348	0.0177206
648.426	0.0177158
648.504	0.0176546
648.582	0.0177431
648.660	0.0176949
648.738	0.0177890
648.817	0.0177438
648.895	0.0178788
648.973	0.0177084
649.051	0.0178506
649.129	0.0177829
649.207	0.0177348
649.285	0.0178063
649.363	0.0177716
649.442	0.0178195
649.520	0.0176866
649.598	0.0178228
649.676	0.0179107
649.754	0.0178145
649.832	0.0177989
649.910	0.0177974
649.988	0.0177963
650.067	0.0177739
650.145	0.0177989
650.223	0.0176742
650.301	0.0175669
650.379	0.0177658
650.457	0.0179317
650.535	0.0178377
650.613	0.0178487
650.692	0.0177520
650.770	0.0176441
650.848	0.0178168
650.926	0.0178572
651.004	0.0177869
651.082	0.0177552
651.160	0.0177325
651.238	0.0177070
651.317	0.0177106
651.395	0.0178390
651.473	0.0178384
651.551	0.0177008
651.629	0.0177827
651.707	0.0178219
651.785	0.0177609
651.863	0.0176904
651.942	0.0176757
652.020	0.0178861
652.098	0.0177713
652.176	0.0177625
652.254	0.0178481
652.332	0.0177242
652.410	0.0178224
652.488	0.0177934
652.567	0.0176282
652.645	0.0178439
652.723	0.0177821
652.801	0.0176875
652.879	0.0176888
652.957	0.0176305
653.035	0.0177865
653.113	0.0177258
653.192	0.0175806
653.270	0.0178033
653.348	0.0177547
653.426	0.0178165
653.504	0.0177980
653.582	0.0178003
653.660	0.0177152
653.738	0.0176924
653.817	0.0178642
653.895	0.0176886
653.973	0.0176280
654.051	0.0177357
654.129	0.0176689
654.207	0.0176978
654.285	0.0177576
654.363	0.0178131
654.442	0.0177851
654.520	0.0177683
654.598	0.0177316
654.676	0.0178321
654.754	0.0176965
654.832	0.0176692
654.910	0.0177692
654.988	0.0177022
655.067	0.0178485
655.145	0.0177444
655.223	0.0177211
655.301	0.0178667
655.379	0.0178877
655.457	0.0177392
655.535	0.0178220
655.613	0.0180168
655.692	0.0177396
655.770	0.0176854
655.848	0.0176900
655.926	0.0177657
656.004	0.0178642
656.082	0.0178175
656.160	0.0176630
656.238	0.0178207
656.317	0.0177502
656.395	0.0177563
656.473	0.0178123
656.551	0.0178428
656.629	0.0178114
656.707	0.0177103
656.785	0.0177599
656.863	0.0178133
656.942	0.0178212
657.020	0.0177441
657.098	0.0178912
657.176	0.0178022
657.254	0.0178162
657.332	0.0178088
657.410	0.0177026
657.488	0.0177927
657.567	0.0178188
657.645	0.0179128
657.723	0.0177800
657.801	0.0177499
657.879	0.0178141
657.957	0.0177374
658.035	0.0178525
658.113	0.0177513
658.192	0.0178345
658.270	0.0179861
658.348	0.0178640
658.426	0.0178006
658.504	0.0177706
658.582	0.0178071
658.660	0.0177538
658.738	0.0177408
658.817	0.0177831
658.895	0.0178889
658.973	0.0177968
659.051	0.0178595
659.129	0.0177805
659.207	0.0177990
659.285	0.0177870
659.363	0.0177397
659.442	0.0177291
659.520	0.0178753
659.598	0.0178963
659.676	0.0178493
659.754	0.0177505
659.832	0.0176440
659.910	0.0177741
659.988	0.0178043
660.067	0.0177578
660.145	0.0178160
660.223	0.0178041
660.301	0.0177889
660.379	0.0177160
660.457	0.0178474
660.535	0.0178175
660.613	0.0178914
660.692	0.0177897
660.770	0.0180169
660.848	0.0178175
660.926	0.0177613
661.004	0.0177906
661.082	0.0178907
661.160	0.0178145
661.238	0.0178520
661.317	0.0177860
661.395	0.0178100
661.473	0.0176977
661.551	0.0178211
661.629	0.0178448
661.707	0.0178370
661.785	0.0177647
661.863	0.0177962
661.942	0.0179309
662.020	0.0178658
662.098	0.0178342
662.176	0.0178432
662.254	0.0178047
662.332	0.0177506
662.410	0.0178589
662.488	0.0177837
662.567	0.0177233
662.645	0.0176916
662.723	0.0178148
662.801	0.0177538
662.879	0.0178031
662.957	0.0177958
663.035	0.0177796
663.113	0.0178524
663.192	0.0177370
663.270	0.0176533
663.348	0.0178887
663.426	0.0177358
663.504	0.0177358
663.582	0.0177031
663.660	0.0178750
663.738	0.0177621
663.817	0.0177382
663.895	0.0177263
663.973	0.0177518
664.051	0.0177982
664.129	0.0177509
664.207	0.0177233
664.285	0.0178271
664.363	0.0176487
664.442	0.0177131
664.520	0.0176930
664.598	0.0178326
664.676	0.0178669
664.754	0.0177073
664.832	0.0177096
664.910	0.0178226
664.988	0.0176675
665.067	0.0178373
665.145	0.0177552
665.223	0.0176717
665.301	0.0177628
665.379	0.0178191
665.457	0.0179335
665.535	0.0177522
665.613	0.0178658
665.692	0.0176987
665.770	0.0177131
665.848	0.0177148
665.926	0.0177673
666.004	0.0179127
666.082	0.0177663
666.160	0.0178150
666.238	0.0176076
666.317	0.0178571
666.395	0.0178506
666.473	0.0176936
666.551	0.0176730
666.629	0.0178442
666.707	0.0177956
666.785	0.0178368
666.863	0.0178207
666.942	0.0177243
667.020	0.0177080
667.098	0.0177914
667.176	0.0177576
667.254	0.0177140
667.332	0.0177393
667.410	0.0177405
667.488	0.0177758
667.567	0.0178241
667.645	0.0177896
667.723	0.0177016
667.801	0.0178396
667.879	0.0176558
667.957	0.0176366
668.035	0.0177164
668.113	0.0177135
668.192	0.0179017
668.270	0.0177792
668.348	0.0177388
668.426	0.0176633
668.504	0.0178867
668.582	0.0178370
668.660	0.0177367
668.738	0.0176913
668.817	0.0178587
668.895	0.0177418
668.973	0.0178019
669.051	0.0178028
669.129	0.0177976
669.207	0.0177274
669.285	0.0177528
669.363	0.0178219
669.442	0.0177707
669.520	0.0176706
669.598	0.0177285
669.676	0.0177332
669.754	0.0177392
669.832	0.0177888
669.910	0.0176344
669.988	0.0177371
670.067	0.0177958
670.145	0.0179102
670.223	0.0178043
670.301	0.0177894
670.379	0.0179698
670.457	0.0178338
670.535	0.0177689
670.613	0.0177308
670.692	0.0178067
670.770	0.0177342
670.848	0.0180016
670.926	0.0178210
671.004	0.0176589
671.082	0.0177239
671.160	0.0177586
671.238	0.0178782
671.317	0.0178233
671.395	0.0178359
671.473	0.0177974
671.551	0.0176685
671.629	0.0177919
671.707	0.0177585
671.785	0.0178639
671.863	0.0176897
671.942	0.0177364
672.020	0.0177743
672.098	0.0179514
672.176	0.0177791
672.254	0.0176244
672.332	0.0178675
672.410	0.0177982
672.488	0.0178632
672.567	0.0179333
672.645	0.0176803
672.723	0.0178190
672.801	0.0178784
672.879	0.0176931
672.957	0.0178959
673.035	0.0177914
673.113	0.0177658
673.192	0.0177008
673.270	0.0177431
673.348	0.0177414
673.426	0.0177386
673.504	0.0178082
673.582	0.0177881
673.660	0.0176891
673.738	0.0177694
673.817	0.0177405
673.895	0.0177832
673.973	0.0178495
674.051	0.0177234
674.129	0.0177967
674.207	0.0176566
674.285	0.0178220
674.363	0.0178828
674.442	0.0178465
674.520	0.0178119
674.598	0.0175136
674.676	0.0177603
674.754	0.0179077
674.832	0.0176382
674.910	0.0176897
674.988	0.0177927
675.067	0.0177077
675.145	0.0177432
675.223	0.0176802
675.301	0.0177850
675.379	0.0177292
675.457	0.0176996
675.535	0.0178406
675.613	0.0179261
675.692	0.0177824
675.770	0.0178349
675.848	0.0177634
675.926	0.0178509
676.004	0.0178229
676.082	0.0177595
676.160	0.0178109
676.238	0.0178478
676.317	0.0178115
676.395	0.0177593
676.473	0.0178398
676.551	0.0179308
676.629	0.0179939
676.707	0.0178915
676.785	0.0178172
676.863	0.0178482
676.942	0.0176888
677.020	0.0177316
677.098	0.0177141
677.176	0.0177474
677.254	0.0177893
677.332	0.0177670
677.410	0.0176511
677.488	0.0177288
677.567	0.0178947
677.645	0.0178285
677.723	0.0177429
677.801	0.0178420
677.879	0.0177827
677.957	0.0179806
678.035	0.0179404
678.113	0.0179671
678.192	0.0179321
678.270	0.0177913
678.348	0.0179113
678.426	0.0179264
678.504	0.0178749
678.582	0.0179108
678.660	0.0179567
678.738	0.0179036
678.817	0.0177403
678.895	0.0177342
678.973	0.0177428
679.051	0.0176541
679.129	0.0175889
679.207	0.0177203
679.285	0.0177011
679.363	0.0176605
679.442	0.0177135
679.520	0.0177006
679.598	0.0177285
679.676	0.0178506
679.754	0.0178387
679.832	0.0176642
679.910	0.0178379
679.988	0.0177837
680.067	0.0179126
680.145	0.0178715
680.223	0.0177606
680.301	0.0176395
680.379	0.0177945
680.457	0.0176553
680.535	0.0177313
680.613	0.0177637
680.692	0.0176033
680.770	0.0175767
680.848	0.0174831
680.926	0.0174210
681.004	0.0175037
681.082	0.0177382
681.160	0.0176100
681.238	0.0175838
681.317	0.0176865
681.395	0.0177389
681.473	0.0178185
681.551	0.0178580
681.629	0.0178791
681.707	0.0179728
681.785	0.0180009
681.863	0.0180364
681.942	0.0179620
682.020	0.0181174
682.098	0.0180775
682.176	0.0180429
682.254	0.0179832
682.332	0.0178704
682.410	0.0180270
682.488	0.0179206
682.567	0.0178705
682.645	0.0178945
682.723	0.0178308
682.801	0.0176611
682.879	0.0178022
682.957	0.0176262
683.035	0.0176975
683.113	0.0177473
683.192	0.0177139
683.270	0.0176973
683.348	0.0177135
683.426	0.0176054
683.504	0.0175401
683.582	0.0176132
683.660	0.0175434
683.738	0.0176814
683.817	0.0176870
683.895	0.0177891
683.973	0.0177939
684.051	0.0179581
684.129	0.0178551
684.207	0.0177081
684.285	0.0179877
684.363	0.0180389
684.442	0.0181609
684.520	0.0182264
684.598	0.0181216
684.676	0.0181074
684.754	0.0182155
684.832	0.0180666
684.910	0.0179980
684.988	0.0178973
685.067	0.0179010
685.145	0.0176276
685.223	0.0175494
685.301	0.0174418
685.379	0.0174321
685.457	0.0174889
685.535	0.0176685
685.613	0.0175127
685.692	0.0175557
685.770	0.0176974
685.848	0.0178637
685.926	0.0179476
686.004	0.0181233
686.082	0.0180680
686.160	0.0181070
686.238	0.0179430
686.317	0.0179536
686.395	0.0178292
686.473	0.0178304
686.551	0.0175339
686.629	0.0174828
686.707	0.0174039
686.785	0.0172997
686.863	0.0173794
686.942	0.0175545
687.020	0.0176035
687.098	0.0178078
687.176	0.0179215
687.254	0.0182291
687.332	0.0183849
687.410	0.0183823
687.488	0.0184577
687.567	0.0185864
687.645	0.0186205
687.723	0.0184081
687.801	0.0183807
687.879	0.0182821
687.957	0.0182370
688.035	0.0179676
688.113	0.0178661
688.192	0.0179107
688.270	0.0178322
688.348	0.0178583
688.426	0.0178341
688.504	0.0179168
688.582	0.0180736
688.660	0.0178011
688.738	0.0177383
688.817	0.0177433
688.895	0.0173810
688.973	0.0170716
689.051	0.0169466
689.129	0.0166608
689.207	0.0163671
689.285	0.0162206
689.363	0.0162284
689.442	0.0160283
689.520	0.0162657
689.598	0.0163592
689.676	0.0163850
689.754	0.0168281
689.832	0.0169492
689.910	0.0172576
689.988	0.0173554
690.067	0.0176829
690.145	0.0181189
690.223	0.0185019
690.301	0.0186813
690.379	0.0191537
690.457	0.0194154
690.535	0.0200650
690.613	0.0204300
690.692	0.0209887
690.770	0.0213763
690.848	0.0218982
690.926	0.0222430
691.004	0.0224771
691.082	0.0225834
691.160	0.0224889
691.238	0.0222724
691.317	0.0218887
691.395	0.0213557
691.473	0.0206113
691.551	0.0195699
691.629	0.0183468
691.707	0.0171570
691.785	0.0158922
691.863	0.0147408
691.942	0.0135203
692.020	0.0124247
692.098	0.0112849
692.176	0.0105209
692.254	0.00990982
692.332	0.00959206
692.410	0.00928009
692.488	0.00920448
692.567	0.00933533
692.645	0.00973328
692.723	0.0102824
692.801	0.0110417
692.879	0.0118805
692.957	0.0131207
693.035	0.0142172
693.113	0.0153619
693.192	0.0165482
693.270	0.0179993
693.348	0.0194276
693.426	0.0207793
693.504	0.0218968
693.582	0.0230708
693.660	0.0243597
693.738	0.0253752
693.817	0.0264814
693.895	0.0272543
693.973	0.0279034
694.051	0.0284409
694.129	0.0287737
694.207	0.0288693
694.285	0.0289106
694.363	0.0286382
694.442	0.0284470
694.520	0.0279445
694.598	0.0271203
694.676	0.0263102
694.754	0.0253821
694.832	0.0240955
694.910	0.0228538
694.988	0.0211216
695.067	0.0194798
695.145	0.0175875
695.223	0.0155409
695.301	0.0135184
695.379	0.0114287
695.457	0.00943619
695.535	0.00738182
695.613	0.00554344
695.692	0.00393555
695.770	0.00254410
695.848	0.00145470
695.926	0.000822220
696.004	0.000501404
696.082	0.000648422
696.160	0.00117722
696.238	0.00201569
696.317	0.00307121
696.395	0.00432182
696.473	0.00575119
696.551	0.00760811
696.629	0.00941284
696.707	0.0114400
696.785	0.0136520
696.863	0.0158073
696.942	0.0181561
697.020	0.0206680
697.098	0.0231288
697.176	0.0252600
697.254	0.0274009
697.332	0.0294994
697.410	0.0310982
697.488	0.0326094
697.567	0.0337763
697.645	0.0344881
697.723	0.0348502
697.801	0.0349771
697.879	0.0349631
697.957	0.0349104
698.035	0.0345097
698.113	0.0340559
698.192	0.0335335
698.270	0.0329061
698.348	0.0322387
698.426	0.0312771
698.504	0.0305986
698.582	0.0292691
698.660	0.0279077
698.738	0.0263123
698.817	0.0246391
698.895	0.0220872
698.973	0.0197494
699.051	0.0169001
699.129	0.0139017
699.207	0.0107136
699.285	0.00752060
699.363	0.00445732
699.442	0.00124107
699.520	-0.00186264
699.598	-0.00429375
699.676	-0.00649315
699.754	-0.00826736
699.832	-0.00966698
699.910	-0.0103439
699.988	-0.0107365
700.067	-0.0103901
700.145	-0.00925705
700.223	-0.00761063
700.301	-0.00556152
700.379	-0.00298279
700.457	0.0000291443
700.535	0.00374283
700.613	0.00761940
700.692	0.0115676
700.770	0.0159517
700.848	0.0202826
700.926	0.0243857
701.004	0.0283958
701.082	0.0321778
701.160	0.0356294
701.238	0.0386784
701.317	0.0408289
701.395	0.0425185
701.473	0.0438039
701.551	0.0444615
701.629	0.0445215
701.707	0.0441541
701.785	0.0431976
701.863	0.0419273
701.942	0.0403632
702.020	0.0385105
702.098	0.0363586
702.176	0.0341265
702.254	0.0319972
702.332	0.0297195
702.410	0.0275711
702.488	0.0254385
702.567	0.0233007
702.645	0.0211923
702.723	0.0192828
702.801	0.0173131
702.879	0.0151606
702.957	0.0132585
703.035	0.0111652
703.113	0.00910965
703.192	0.00708336
703.270	0.00509277
703.348	0.00322289
703.426	0.00132309
703.504	-0.000207062
703.582	-0.00157616
703.660	-0.00279739
703.738	-0.00358192
703.817	-0.00397804
703.895	-0.00405983
703.973	-0.00369186
704.051	-0.00319466
704.129	-0.00198807
704.207	-0.000561523
704.285	0.00113068
704.363	0.00308586
704.442	0.00541946
704.520	0.00776443
704.598	0.0101636
704.676	0.0127303
704.754	0.0155082
704.832	0.0179834
704.910	0.0204379
704.988	0.0226801
705.067	0.0247341
705.145	0.0268107
705.223	0.0283873
705.301	0.0298618
705.379	0.0309215
705.457	0.0317733
705.535	0.0324998
705.613	0.0330664
705.692	0.0333392
705.770	0.0335094
705.848	0.0334785
705.926	0.0331522
706.004	0.0328235
706.082	0.0324221
706.160	0.0317317
706.238	0.0307793
706.317	0.0294711
706.395	0.0282423
706.473	0.0270767
706.551	0.0255797
706.629	0.0241892
706.707	0.0225600
706.785	0.0210424
706.863	0.0194877
706.942	0.0180172
707.020	0.0165092
707.098	0.0150125
707.176	0.0134245
707.254	0.0121673
707.332	0.0108478
707.410	0.00993195
707.488	0.00879288
707.567	0.00786911
707.645	0.00713448
707.723	0.00672668
707.801	0.00664566
707.879	0.00681839
707.957	0.00727203
708.035	0.00802315
708.113	0.00885284
708.192	0.00990997
708.270	0.0109907
708.348	0.0122079
708.426	0.0132007
708.504	0.0142993
708.582	0.0152543
708.660	0.0159900
708.738	0.0166983
708.817	0.0174037
708.895	0.0179365
708.973	0.0181351
709.051	0.0184350
709.129	0.0184280
709.207	0.0184422
709.285	0.0183385
709.363	0.0182505
709.442	0.0180949
709.520	0.0179871
709.598	0.0179832
709.676	0.0180203
709.754	0.0182848
709.832	0.0185442
709.910	0.0186046
709.988	0.0187669
710.067	0.0191412
710.145	0.0195810
710.223	0.0199635
710.301	0.0202055
710.379	0.0205684
710.457	0.0207652
710.535	0.0208021
710.613	0.0208808
710.692	0.0207034
710.770	0.0204701
710.848	0.0202121
710.926	0.0200903
711.004	0.0197224
711.082	0.0194517
711.160	0.0192439
711.238	0.0188393
711.317	0.0187325
711.395	0.0186332
711.473	0.0185372
711.551	0.0185665
711.629	0.0184526
711.707	0.0184950
711.785	0.0185516
711.863	0.0188072
711.942	0.0190298
712.020	0.0192612
712.098	0.0192719
712.176	0.0196322
712.254	0.0197116
712.332	0.0200096
712.410	0.0200252
712.488	0.0200859
712.567	0.0199160
712.645	0.0199150
712.723	0.0196745
712.801	0.0193961
712.879	0.0188889
712.957	0.0186864
713.035	0.0182139
713.113	0.0178420
713.192	0.0174446
713.270	0.0170101
713.348	0.0168071
713.426	0.0166953
713.504	0.0163831
713.582	0.0160525
713.660	0.0158900
713.738	0.0157594
713.817	0.0157317
713.895	0.0155486
713.973	0.0154958
714.051	0.0154120
714.129	0.0154231
714.207	0.0150844
714.285	0.0149984
714.363	0.0149799
714.442	0.0149010
714.520	0.0147902
714.598	0.0147885
714.676	0.0146587
714.754	0.0144974
714.832	0.0144485
714.910	0.0144498
714.988	0.0146198
715.067	0.0146331
715.145	0.0145097
715.223	0.0147370
715.301	0.0150070
715.379	0.0154180
715.457	0.0156924
715.535	0.0163817
715.613	0.0168158
715.692	0.0173122
715.770	0.0179772
715.848	0.0188018
715.926	0.0191611
716.004	0.0198203
716.082	0.0205194
716.160	0.0207101
716.238	0.0210042
716.317	0.0213165
716.395	0.0214683
716.473	0.0213116
716.551	0.0214337
716.629	0.0215108
716.707	0.0211632
716.785	0.0211025
716.863	0.0209402
716.942	0.0207449
717.020	0.0206822
717.098	0.0205684
717.176	0.0202660
717.254	0.0201811
717.332	0.0199006
717.410	0.0196394
717.488	0.0195945
717.567	0.0194090
717.645	0.0191543
717.723	0.0189687
717.801	0.0188758
717.879	0.0185506
717.957	0.0182334
718.035	0.0181481
718.113	0.0179841
718.192	0.0176509
718.270	0.0176075
718.348	0.0173602
718.426	0.0171416
718.504	0.0170141
718.582	0.0168535
718.660	0.0167707
718.738	0.0166548
718.817	0.0164703
718.895	0.0165704
718.973	0.0166439
719.051	0.0165633
719.129	0.0165276
719.207	0.0165468
719.285	0.0165922
719.363	0.0165786
719.442	0.0165633
719.520	0.0165877
719.598	0.0164991
719.676	0.0166076
719.754	0.0166632
719.832	0.0163212
719.910	0.0162925
719.988	0.0163144
720.067	0.0163219
720.145	0.0161852
720.223	0.0160747
720.301	0.0161612
720.379	0.0161312
720.457	0.0161800
720.535	0.0162362
720.613	0.0164001
720.692	0.0165720
720.770	0.0167184
720.848	0.0170242
720.926	0.0172668
721.004	0.0174741
721.082	0.0177445
721.160	0.0179613
721.238	0.0182175
721.317	0.0184174
721.395	0.0186459
721.473	0.0187163
721.551	0.0186484
721.629	0.0187780
721.707	0.0186079
721.785	0.0185945
721.863	0.0185329
721.942	0.0184970
722.020	0.0184737
722.098	0.0184116
722.176	0.0183900
722.254	0.0182531
722.332	0.0182286
722.410	0.0181342
722.488	0.0182450
722.567	0.0181657
722.645	0.0183078
722.723	0.0183159
722.801	0.0184719
722.879	0.0185702
722.957	0.0188314
723.035	0.0188238
723.113	0.0190452
723.192	0.0192271
723.270	0.0191944
723.348	0.0196026
723.426	0.0195808
723.504	0.0194752
723.582	0.0193321
723.660	0.0194756
723.738	0.0192741
723.817	0.0189803
723.895	0.0188457
723.973	0.0185662
724.051	0.0183719
724.129	0.0182629
724.207	0.0179996
724.285	0.0177039
724.363	0.0176747
724.442	0.0174076
724.520	0.0172311
724.598	0.0172763
724.676	0.0172553
724.754	0.0171588
724.832	0.0172479
724.910	0.0173375
724.988	0.0173728
725.067	0.0174852
725.145	0.0175458
725.223	0.0175397
725.301	0.0173784
725.379	0.0174049
725.457	0.0174560
725.535	0.0174770
725.613	0.0173540
725.692	0.0171324
725.770	0.0171101
725.848	0.0168672
725.926	0.0167120
726.004	0.0165240
726.082	0.0163772
726.160	0.0162263
726.238	0.0161644
726.317	0.0160542
726.395	0.0161038
726.473	0.0161061
726.551	0.0161133
726.629	0.0164442
726.707	0.0166044
726.785	0.0168858
726.863	0.0171706
726.942	0.0175422
727.020	0.0178930
727.098	0.0181389
727.176	0.0184894
727.254	0.0187445
727.332	0.0188049
727.410	0.0188586
727.488	0.0189581
727.567	0.0189827
727.645	0.0189703
727.723	0.0187009
727.801	0.0185288
727.879	0.0183788
727.957	0.0182234
728.035	0.0180486
728.113	0.0178986
728.192	0.0178277
728.270	0.0178399
728.348	0.0177814
728.426	0.0177181
728.504	0.0177360
728.582	0.0177226
728.660	0.0179889
728.738	0.0180115
728.817	0.0181861
728.895	0.0182849
728.973	0.0182325
729.051	0.0184209
729.129	0.0184081
729.207	0.0183278
729.285	0.0184293
729.363	0.0183212
729.442	0.0182367
729.520	0.0180984
729.598	0.0180063
729.676	0.0178906
729.754	0.0177149
729.832	0.0175040
729.910	0.0174048
729.988	0.0173472
730.067	0.0172823
730.145	0.0173664
730.223	0.0173247
730.301	0.0174438
730.379	0.0175847
730.457	0.0177249
730.535	0.0177277
730.613	0.0179209
730.692	0.0181354
730.770	0.0183699
730.848	0.0185672
730.926	0.0186115
731.004	0.0187818
731.082	0.0188313
731.160	0.0187856
731.238	0.0189574
731.317	0.0189881
731.395	0.0188055
731.473	0.0186557
731.551	0.0185394
731.629	0.0183668
731.707	0.0180361
731.785	0.0179223
731.863	0.0174560
731.942	0.0173533
732.020	0.0170473
732.098	0.0168839
732.176	0.0166663
732.254	0.0166952
732.332	0.0167619
732.410	0.0167393
732.488	0.0167091
732.567	0.0169740
732.645	0.0167458
732.723	0.0171242
732.801	0.0172518
732.879	0.0171877
732.957	0.0174487
733.035	0.0175037
733.113	0.0174615
733.192	0.0173396
733.270	0.0172617
733.348	0.0171774
733.426	0.0169862
733.504	0.0168055
733.582	0.0168024
733.660	0.0168324
733.738	0.0167579
733.817	0.0167405
733.895	0.0166600
733.973	0.0167876
734.051	0.0168877
734.129	0.0171955
734.207	0.0171592
734.285	0.0174007
734.363	0.0176168
734.442	0.0178509
734.520	0.0180106
734.598	0.0182288
734.676	0.0183112
734.754	0.0186452
734.832	0.0188489
734.910	0.0188369
734.988	0.0190240
735.067	0.0190296
735.145	0.0191094
735.223	0.0191604
735.301	0.0191017
735.379	0.0189696
735.457	0.0188791
735.535	0.0186989
735.613	0.0186848
735.692	0.0186308
735.770	0.0184194
735.848	0.0182242
735.926	0.0180245
736.004	0.0178638
736.082	0.0177556
736.160	0.0177573
736.238	0.0176768
736.317	0.0176979
736.395	0.0175517
736.473	0.0175686
736.551	0.0175115
736.629	0.0178456
736.707	0.0176487
736.785	0.0177200
736.863	0.0178888
736.942	0.0177995
737.020	0.0179261
737.098	0.0177858
737.176	0.0179060
737.254	0.0178885
737.332	0.0178426
737.410	0.0177034
737.488	0.0177721
737.567	0.0177657
737.645	0.0175806
737.723	0.0173856
737.801	0.0173526
737.879	0.0174346
737.957	0.0172021
738.035	0.0170917
738.113	0.0170639
738.192	0.0168690
738.270	0.0168742
738.348	0.0167113
738.426	0.0166651
738.504	0.0165250
738.582	0.0167527
738.660	0.0168678
738.738	0.0169942
738.817	0.0172125
738.895	0.0174268
738.973	0.0176305
739.051	0.0177851
739.129	0.0181405
739.207	0.0185810
739.285	0.0186581
739.363	0.0187598
739.442	0.0189719
739.520	0.0190591
739.598	0.0190884
739.676	0.0192261
739.754	0.0192148
739.832	0.0190179
739.910	0.0188104
739.988	0.0186089
740.067	0.0185709
740.145	0.0182113
740.223	0.0178811
740.301	0.0175795
740.379	0.0174254
740.457	0.0171874
740.535	0.0171381
740.613	0.0169773
740.692	0.0170285
740.770	0.0170375
740.848	0.0170117
740.926	0.0170737
741.004	0.0171921
741.082	0.0174284
741.160	0.0174019
741.238	0.0176424
741.317	0.0176244
741.395	0.0178481
741.473	0.0177789
741.551	0.0179221
741.629	0.0179551
741.707	0.0180328
741.785	0.0179785
741.863	0.0180336
741.942	0.0176608
742.020	0.0177271
742.098	0.0176326
742.176	0.0176386
742.254	0.0174181
742.332	0.0172101
742.410	0.0170431
742.488	0.0170274
742.567	0.0169928
742.645	0.0168503
742.723	0.0168904
742.801	0.0170103
742.879	0.0171139
742.957	0.0171905
743.035	0.0175376
743.113	0.0178864
743.192	0.0180640
743.270	0.0184647
743.348	0.0187993
743.426	0.0189752
743.504	0.0191997
743.582	0.0193694
743.660	0.0195332
743.738	0.0195711
743.817	0.0195354
743.895	0.0195444
743.973	0.0194532
744.051	0.0192738
744.129	0.0189369
744.207	0.0185822
744.285	0.0182983
744.363	0.0180544
744.442	0.0178088
744.520	0.0178185
744.598	0.0174483
744.676	0.0172249
744.754	0.0172663
744.832	0.0170442
744.910	0.0169856
744.988	0.0170087
745.067	0.0170358
745.145	0.0169431
745.223	0.0171399
745.301	0.0172984
745.379	0.0173990
745.457	0.0174704
745.535	0.0174526
745.613	0.0175706
745.692	0.0175696
745.770	0.0175063
745.848	0.0177625
745.926	0.0177562
746.004	0.0178008
746.082	0.0177039
746.160	0.0178886
746.238	0.0177429
746.317	0.0176904
746.395	0.0177222
746.473	0.0177731
746.551	0.0176807
746.629	0.0176477
746.707	0.0176588
746.785	0.0175174
746.863	0.0176287
746.942	0.0177988
747.020	0.0177901
747.098	0.0177647
747.176	0.0179882
747.254	0.0180899
747.332	0.0181542
747.410	0.0180775
747.488	0.0179843
747.567	0.0180831
747.645	0.0182774
747.723	0.0181200
747.801	0.0180863
747.879	0.0181150
747.957	0.0180271
748.035	0.0179817
748.113	0.0178421
748.192	0.0177707
748.270	0.0176306
748.348	0.0176193
748.426	0.0176985
748.504	0.0174778
748.582	0.0173852
748.660	0.0175975
748.738	0.0175018
748.817	0.0172623
748.895	0.0172305
748.973	0.0172964
749.051	0.0173577
749.129	0.0173077
749.207	0.0173490
749.285	0.0173811
749.363	0.0173706
749.442	0.0174151
749.520	0.0176524
749.598	0.0177542
749.676	0.0178522
749.754	0.0180846
749.832	0.0182019
749.910	0.0183047
749.988	0.0184892
750.067	0.0185479
750.145	0.0186176
750.223	0.0186895
750.301	0.0188191
750.379	0.0187521
750.457	0.0187101
750.535	0.0185950
750.613	0.0185226
750.692	0.0184502
750.770	0.0181033
750.848	0.0182367
750.926	0.0179951
751.004	0.0179124
751.082	0.0177712
751.160	0.0176994
751.238	0.0177103
751.317	0.0173824
751.395	0.0175176
751.473	0.0175336
751.551	0.0175367
751.629	0.0175097
751.707	0.0174432
751.785	0.0174942
751.863	0.0177104
751.942	0.0178540
752.020	0.0177678
752.098	0.0179071
752.176	0.0179961
752.254	0.0179494
752.332	0.0179807
752.410	0.0179254
752.488	0.0178564
752.567	0.0178659
752.645	0.0178741
752.723	0.0176335
752.801	0.0176937
752.879	0.0175072
752.957	0.0175134
753.035	0.0173956
753.113	0.0173041
753.192	0.0173710
753.270	0.0172180
753.348	0.0174606
753.426	0.0174036
753.504	0.0176319
753.582	0.0176811
753.660	0.0177023
753.738	0.0178716
753.817	0.0179721
753.895	0.0181636
753.973	0.0181792
754.051	0.0183366
754.129	0.0183667
754.207	0.0182871
754.285	0.0184441
754.363	0.0184245
754.442	0.0183173
754.520	0.0182547
754.598	0.0182118
754.676	0.0181721
754.754	0.0179602
754.832	0.0179364
754.910	0.0177322
754.988	0.0177471
755.067	0.0176364
755.145	0.0175659
755.223	0.0174876
755.301	0.0173420
755.379	0.0172878
755.457	0.0173502
755.535	0.0172121
755.613	0.0170676
755.692	0.0171848
755.770	0.0171273
755.848	0.0171242
755.926	0.0171383
756.004	0.0173568
756.082	0.0173930
756.160	0.0172697
756.238	0.0172729
756.317	0.0173510
756.395	0.0174540
756.473	0.0174049
756.551	0.0176170
756.629	0.0176513
756.707	0.0176180
756.785	0.0178329
756.863	0.0177348
756.942	0.0178021
757.020	0.0178561
757.098	0.0178703
757.176	0.0180703
757.254	0.0179461
757.332	0.0179884
757.410	0.0179502
757.488	0.0180484
757.567	0.0180254
757.645	0.0179177
757.723	0.0181303
757.801	0.0181352
757.879	0.0183031
757.957	0.0182783
758.035	0.0183866
758.113	0.0183657
758.192	0.0183765
758.270	0.0185123
758.348	0.0185810
758.426	0.0184264
758.504	0.0183852
758.582	0.0184595
758.660	0.0186217
758.738	0.0184354
758.817	0.0185126
758.895	0.0183154
758.973	0.0182688
759.051	0.0181718
759.129	0.0181531
759.207	0.0180318
759.285	0.0177843
759.363	0.0176805
759.442	0.0176317
759.520	0.0176345
759.598	0.0176337
759.676	0.0173862
759.754	0.0174285
759.832	0.0173055
759.910	0.0174708
759.988	0.0173274
760.067	0.0172700
760.145	0.0174755
760.223	0.0177171
760.301	0.0176254
760.379	0.0175019
760.457	0.0175420
760.535	0.0176395
760.613	0.0176701
760.692	0.0176345
760.770	0.0174374
760.848	0.0175347
760.926	0.0174052
761.004	0.0173668
761.082	0.0174989
761.160	0.0175273
761.238	0.0173974
761.317	0.0173041
761.395	0.0173420
761.473	0.0173471
761.551	0.0173534
761.629	0.0173782
761.707	0.0173845
761.785	0.0174172
761.863	0.0175061
761.942	0.0174295
762.020	0.0176260
762.098	0.0176968
762.176	0.0177203
762.254	0.0176962
762.332	0.0177335
762.410	0.0178385
762.488	0.0179777
762.567	0.0179957
762.645	0.0180548
762.723	0.0179617
762.801	0.0180400
762.879	0.0182234
762.957	0.0181338
763.035	0.0180707
763.113	0.0182038
763.192	0.0181611
763.270	0.0179971
763.348	0.0178816
763.426	0.0179391
763.504	0.0179382
763.582	0.0178022
763.660	0.0177675
763.738	0.0176278
763.817	0.0175077
763.895	0.0173832
763.973	0.0175052
764.051	0.0172230
764.129	0.0173508
764.207	0.0173190
764.285	0.0173440
764.363	0.0172039
764.442	0.0172720
764.520	0.0172541
764.598	0.0174445
764.676	0.0174737
764.754	0.0176463
764.832	0.0176909
764.910	0.0178165
764.988	0.0179652
765.067	0.0180308
765.145	0.0180566
765.223	0.0183093
765.301	0.0183331
765.379	0.0183810
765.457	0.0184499
765.535	0.0184513
765.613	0.0185281
765.692	0.0184591
765.770	0.0184225
765.848	0.0183504
765.926	0.0182548
766.004	0.0182214
766.082	0.0180660
766.160	0.0179155
766.238	0.0178770
766.317	0.0177267
766.395	0.0177972
766.473	0.0178178
766.551	0.0177479
766.629	0.0178496
766.707	0.0179443
766.785	0.0179438
766.863	0.0179366
766.942	0.0180802
767.020	0.0181399
767.098	0.0181165
767.176	0.0182323
767.254	0.0182725
767.332	0.0182758
767.410	0.0181949
767.488	0.0182242
767.567	0.0182684
767.645	0.0182790
767.723	0.0181125
767.801	0.0180782
767.879	0.0180711
767.957	0.0178781
768.035	0.0177101
768.113	0.0174371
768.192	0.0173408
768.270	0.0174261
768.348	0.0173610
768.426	0.0172218
768.504	0.0172026
768.582	0.0172787
768.660	0.0170836
768.738	0.0171148
768.817	0.0172336
768.895	0.0172173
768.973	0.0172109
769.051	0.0173422
769.129	0.0173572
769.207	0.0174577
769.285	0.0176008
769.363	0.0175457
769.442	0.0175050
769.520	0.0177108
769.598	0.0175877
769.676	0.0176466
769.754	0.0176849
769.832	0.0177657
769.910	0.0176344
769.988	0.0175546
770.067	0.0176772
770.145	0.0175594
770.223	0.0176758
770.301	0.0177045
770.379	0.0177863
770.457	0.0177576
770.535	0.0176694
770.613	0.0177008
770.692	0.0177052
770.770	0.0177834
770.848	0.0178115
770.926	0.0178509
771.004	0.0178380
771.082	0.0178729
771.160	0.0178329
771.238	0.0180753
771.317	0.0181282
771.395	0.0179488
771.473	0.0182058
771.551	0.0181944
771.629	0.0182508
771.707	0.0181777
771.785	0.0181313
771.863	0.0182108
771.942	0.0181735
772.020	0.0181453
772.098	0.0182622
772.176	0.0182001
772.254	0.0181673
772.332	0.0181557
772.410	0.0179531
772.488	0.0178536
772.567	0.0179327
772.645	0.0178669
772.723	0.0178817
772.801	0.0178042
772.879	0.0177424
772.957	0.0179107
773.035	0.0176961
773.113	0.0177850
773.192	0.0176756
773.270	0.0178815
773.348	0.0176675
773.426	0.0177443
773.504	0.0177005
773.582	0.0176810
773.660	0.0178181
773.738	0.0177150
773.817	0.0178461
773.895	0.0177390
773.973	0.0179382
774.051	0.0178149
774.129	0.0177982
774.207	0.0178510
774.285	0.0177527
774.363	0.0179018
774.442	0.0180237
774.520	0.0179105
774.598	0.0179241
774.676	0.0179392
774.754	0.0179134
774.832	0.0179833
774.910	0.0179791
774.988	0.0177640
775.067	0.0179710
775.145	0.0180601
775.223	0.0179204
775.301	0.0178358
775.379	0.0178002
775.457	0.0176878
775.535	0.0179065
775.613	0.0177888
775.692	0.0176862
775.770	0.0178481
775.848	0.0177290
775.926	0.0176683
776.004	0.0176884
776.082	0.0175959
776.160	0.0175212
776.238	0.0176521
776.317	0.0175441
776.395	0.0175420
776.473	0.0177905
776.551	0.0177116
776.629	0.0177637
776.707	0.0177298
776.785	0.0179250
776.863	0.0178219
776.942	0.0179742
777.020	0.0180085
777.098	0.0178712
777.176	0.0181080
777.254	0.0180454
777.332	0.0180239
777.410	0.0180454
777.488	0.0180355
777.567	0.0178829
777.645	0.0178108
777.723	0.0177573
777.801	0.0177760
777.879	0.0175420
777.957	0.0175009
778.035	0.0175980
778.113	0.0175345
778.192	0.0172929
778.270	0.0173074
778.348	0.0172153
778.426	0.0172379
778.504	0.0171832
778.582	0.0171857
778.660	0.0171931
778.738	0.0172738
778.817	0.0172744
778.895	0.0172607
778.973	0.0173025
779.051	0.0175129
779.129	0.0175946
779.207	0.0175496
779.285	0.0176509
779.363	0.0177292
779.442	0.0178442
779.520	0.0179315
779.598	0.0180299
779.676	0.0179554
779.754	0.0181275
779.832	0.0181330
779.910	0.0181575
779.988	0.0181361
780.067	0.0182793
780.145	0.0181681
780.223	0.0182969
780.301	0.0183450
780.379	0.0183923
780.457	0.0182655
780.535	0.0184917
780.613	0.0183047
780.692	0.0184166
780.770	0.0182841
780.848	0.0184084
780.926	0.0183456
781.004	0.0182510
781.082	0.0182532
781.160	0.0182596
781.238	0.0181962
781.317	0.0180943
781.395	0.0180521
781.473	0.0179867
781.551	0.0179430
781.629	0.0178922
781.707	0.0177931
781.785	0.0177944
781.863	0.0176855
781.942	0.0176196
782.020	0.0177579
782.098	0.0177819
782.176	0.0177050
782.254	0.0175557
782.332	0.0174371
782.410	0.0177852
782.488	0.0175767
782.567	0.0174051
782.645	0.0174944
782.723	0.0174690
782.801	0.0173412
782.879	0.0172965
782.957	0.0171542
783.035	0.0173188
783.113	0.0171673
783.192	0.0171340
783.270	0.0171159
783.348	0.0170540
783.426	0.0171292
783.504	0.0170707
783.582	0.0171391
783.660	0.0173226
783.738	0.0172511
783.817	0.0172323
783.895	0.0174841
783.973	0.0176311
784.051	0.0175287
784.129	0.0176437
784.207	0.0176572
784.285	0.0178770
784.363	0.0180157
784.442	0.0180072
784.520	0.0180340
784.598	0.0182130
784.676	0.0183437
784.754	0.0182679
784.832	0.0182417
784.910	0.0181916
784.988	0.0181895
785.067	0.0182285
785.145	0.0180566
785.223	0.0180050
785.301	0.0179138
785.379	0.0179898
785.457	0.0178490
785.535	0.0177943
785.613	0.0175990
785.692	0.0175165
785.770	0.0176442
785.848	0.0175358
785.926	0.0175537
786.004	0.0176167
786.082	0.0175189
786.160	0.0175009
786.238	0.0175278
786.317	0.0175511
786.395	0.0176874
786.473	0.0177241
786.551	0.0177821
786.629	0.0175972
786.707	0.0177019
786.785	0.0176955
786.863	0.0179169
786.942	0.0179943
787.020	0.0179539
787.098	0.0178088
787.176	0.0179071
787.254	0.0181511
787.332	0.0181711
787.410	0.0181880
787.488	0.0181385
787.567	0.0180863
787.645	0.0181094
787.723	0.0179860
787.801	0.0178574
787.879	0.0178783
787.957	0.0178446
788.035	0.0177789
788.113	0.0176335
788.192	0.0177855
788.270	0.0175777
788.348	0.0174930
788.426	0.0174753
788.504	0.0174375
788.582	0.0174339
788.660	0.0174174
788.738	0.0174795
788.817	0.0175096
788.895	0.0174467
788.973	0.0175140
789.051	0.0175165
789.129	0.0174995
789.207	0.0173470
789.285	0.0175249
789.363	0.0176598
789.442	0.0176494
789.520	0.0174553
789.598	0.0175629
789.676	0.0175089
789.754	0.0176887
789.832	0.0176711
789.910	0.0178040
789.988	0.0179335
790.067	0.0180070
790.145	0.0180739
790.223	0.0180684
790.301	0.0182780
790.379	0.0184615
790.457	0.0185065
790.535	0.0186105
790.613	0.0188103
790.692	0.0189132
790.770	0.0189555
790.848	0.0190768
790.926	0.0193098
791.004	0.0190459
791.082	0.0190205
791.160	0.0189259
791.238	0.0189204
791.317	0.0189217
791.395	0.0186586
791.473	0.0184489
791.551	0.0182076
791.629	0.0179816
791.707	0.0178218
791.785	0.0173945
791.863	0.0170567
791.942	0.0168825
792.020	0.0165409
792.098	0.0162528
792.176	0.0161512
792.254	0.0159597
792.332	0.0157110
792.410	0.0156105
792.488	0.0156403
792.567	0.0154279
792.645	0.0155186
792.723	0.0155584
792.801	0.0155889
792.879	0.0158500
792.957	0.0160110
793.035	0.0161414
793.113	0.0164439
793.192	0.0167175
793.270	0.0170198
793.348	0.0171597
793.426	0.0174603
793.504	0.0178616
793.582	0.0181285
793.660	0.0184257
793.738	0.0187141
793.817	0.0187817
793.895	0.0190576
793.973	0.0192638
794.051	0.0195714
794.129	0.0195899
794.207	0.0198074
794.285	0.0199787
794.363	0.0201503
794.442	0.0201647
794.520	0.0201147
794.598	0.0200790
794.676	0.0202218
794.754	0.0201819
794.832	0.0200366
794.910	0.0199590
794.988	0.0198882
795.067	0.0196238
795.145	0.0193299
795.223	0.0191094
795.301	0.0187938
795.379	0.0184995
795.457	0.0183235
795.535	0.0178985
795.613	0.0173158
795.692	0.0171477
795.770	0.0168363
795.848	0.0164122
795.926	0.0159653
796.004	0.0157784
796.082	0.0155827
796.160	0.0153465
796.238	0.0152482
796.317	0.0149943
796.395	0.0149821
796.473	0.0148685
796.551	0.0149187
796.629	0.0149802
796.707	0.0149833
796.785	0.0151743
796.863	0.0155312
796.942	0.0158119
797.020	0.0159961
797.098	0.0164436
797.176	0.0167847
797.254	0.0172036
797.332	0.0175601
797.410	0.0179890
797.488	0.0182771
797.567	0.0185281
797.645	0.0189047
797.723	0.0191339
797.801	0.0195319
797.879	0.0196549
797.957	0.0197616
798.035	0.0199584
798.113	0.0200677
798.192	0.0202520
798.270	0.0203273
798.348	0.0202118
798.426	0.0202755
798.504	0.0202118
798.582	0.0200800
798.660	0.0198802
798.738	0.0197021
798.817	0.0195309
798.895	0.0194353
798.973	0.0192887
799.051	0.0189090
799.129	0.0186709
799.207	0.0184119
799.285	0.0181386
799.363	0.0178245
799.442	0.0176362
799.520	0.0173960
799.598	0.0171484
799.676	0.0168579
799.754	0.0166193
799.832	0.0163420
799.910	0.0162399
799.988	0.0159261
800.067	0.0159639
800.145	0.0156738
800.223	0.0155867
800.301	0.0155423
800.379	0.0154761
800.457	0.0154212
800.535	0.0154248
800.613	0.0155344
800.692	0.0155109
800.770	0.0156045
800.848	0.0157510
800.926	0.0158974
801.004	0.0161770
801.082	0.0163574
801.160	0.0165967
801.238	0.0167838
801.317	0.0169905
801.395	0.0172561
801.473	0.0176966
801.551	0.0177962
801.629	0.0179118
801.707	0.0182285
801.785	0.0187038
801.863	0.0187508
801.942	0.0188873
802.020	0.0191191
802.098	0.0193775
802.176	0.0194200
802.254	0.0196339
802.332	0.0196478
802.410	0.0197243
802.488	0.0197960
802.567	0.0197778
802.645	0.0196368
802.723	0.0196916
802.801	0.0195795
802.879	0.0195005
802.957	0.0194566
803.035	0.0192876
803.113	0.0190942
803.192	0.0190690
803.270	0.0189046
803.348	0.0185678
803.426	0.0185006
803.504	0.0182569
803.582	0.0180752
803.660	0.0179383
803.738	0.0178900
803.817	0.0176700
803.895	0.0175704
803.973	0.0173789
804.051	0.0171617
804.129	0.0171031
804.207	0.0168806
804.285	0.0169857
804.363	0.0167585
804.442	0.0167738
804.520	0.0166254
804.598	0.0164841
804.676	0.0166659
804.754	0.0165657
804.832	0.0166486
804.910	0.0166426
804.988	0.0165340
805.067	0.0165585
805.145	0.0165736
805.223	0.0165910
805.301	0.0166299
805.379	0.0166319
805.457	0.0168150
805.535	0.0168786
805.613	0.0167472
805.692	0.0168946
805.770	0.0170204
805.848	0.0172849
805.926	0.0173006
806.004	0.0174709
806.082	0.0175706
806.160	0.0177644
806.238	0.0178366
806.317	0.0180190
806.395	0.0181341
806.473	0.0181217
806.551	0.0182977
806.629	0.0181996
806.707	0.0184604
806.785	0.0183558
806.863	0.0184539
806.942	0.0183443
807.020	0.0184048
807.098	0.0183445
807.176	0.0183632
807.254	0.0183548
807.332	0.0182507
807.410	0.0183227
807.488	0.0181527
807.567	0.0182353
807.645	0.0182025
807.723	0.0181834
807.801	0.0182329
807.879	0.0181827
807.957	0.0181567
808.035	0.0179906
808.113	0.0180547
808.192	0.0181281
808.270	0.0182457
808.348	0.0181328
808.426	0.0180424
808.504	0.0180010
808.582	0.0179900
808.660	0.0181624
808.738	0.0180740
808.817	0.0179446
808.895	0.0178654
808.973	0.0178998
809.051	0.0179099
809.129	0.0178987
809.207	0.0177701
809.285	0.0176580
809.363	0.0177756
809.442	0.0177966
809.520	0.0177576
809.598	0.0177409
809.676	0.0176568
809.754	0.0176049
809.832	0.0178416
809.910	0.0177380
809.988	0.0178062
810.067	0.0178003
810.145	0.0179261
810.223	0.0179850
810.301	0.0179023
810.379	0.0179620
810.457	0.0178763
810.535	0.0179986
810.613	0.0179749
810.692	0.0179556
810.770	0.0179050
810.848	0.0177373
810.926	0.0177373
811.004	0.0176118
811.082	0.0176621
811.160	0.0175407
811.238	0.0175305
811.317	0.0173502
811.395	0.0173640
811.473	0.0171631
811.551	0.0171591
811.629	0.0170578
811.707	0.0171364
811.785	0.0170918
811.863	0.0171431
811.942	0.0171787
812.020	0.0172153
812.098	0.0170384
812.176	0.0171024
812.254	0.0172364
812.332	0.0172372
812.410	0.0174075
812.488	0.0174037
812.567	0.0175417
812.645	0.0174802
812.723	0.0176041
812.801	0.0175629
812.879	0.0177215
812.957	0.0178905
813.035	0.0177538
813.113	0.0180304
813.192	0.0181121
813.270	0.0181240
813.348	0.0182949
813.426	0.0184260
813.504	0.0183009
813.582	0.0183752
813.660	0.0185213
813.738	0.0185902
813.817	0.0185984
813.895	0.0186750
813.973	0.0187257
814.051	0.0188256
814.129	0.0187427
814.207	0.0185808
814.285	0.0187953
814.363	0.0185914
814.442	0.0187732
814.520	0.0186098
814.598	0.0185592
814.676	0.0185629
814.754	0.0185772
814.832	0.0184381
814.910	0.0183621
814.988	0.0183871
815.067	0.0183527
815.145	0.0184407
815.223	0.0183317
815.301	0.0182752
815.379	0.0181052
815.457	0.0182346
815.535	0.0180095
815.613	0.0178329
815.692	0.0177946
815.770	0.0176581
815.848	0.0177203
815.926	0.0174317
816.004	0.0173391
816.082	0.0173237
816.160	0.0173511
816.238	0.0170741
816.317	0.0171433
816.395	0.0170049
816.473	0.0169308
816.551	0.0168518
816.629	0.0167767
816.707	0.0167129
816.785	0.0166611
816.863	0.0166175
816.942	0.0167119
817.020	0.0166576
817.098	0.0167453
817.176	0.0167766
817.254	0.0167527
817.332	0.0167252
817.410	0.0169646
817.488	0.0171201
817.567	0.0171433
817.645	0.0172997
817.723	0.0174341
817.801	0.0175309
817.879	0.0177435
817.957	0.0176458
818.035	0.0178609
818.113	0.0180148
818.192	0.0180717
818.270	0.0183128
818.348	0.0182879
818.426	0.0183187
818.504	0.0185741
818.582	0.0185584
818.660	0.0186968
818.738	0.0187572
818.817	0.0188751
818.895	0.0188232
818.973	0.0188131
819.051	0.0188358
819.129	0.0188484
819.207	0.0188724
819.285	0.0188142
819.363	0.0188261
819.442	0.0187142
819.520	0.0186977
819.598	0.0186047
819.676	0.0185599
819.754	0.0186360
819.832	0.0185343
819.910	0.0183553
819.988	0.0183387
820.067	0.0182493
820.145	0.0181601
820.223	0.0182303
820.301	0.0180137
820.379	0.0179338
820.457	0.0177595
820.535	0.0178474
820.613	0.0177317
820.692	0.0176855
820.770	0.0175462
820.848	0.0173996
820.926	0.0173542
821.004	0.0176398
821.082	0.0174902
821.160	0.0175551
821.238	0.0174178
821.317	0.0173465
821.395	0.0172549
821.473	0.0172473
821.551	0.0173100
821.629	0.0171868
821.707	0.0173103
821.785	0.0171864
821.863	0.0173067
821.942	0.0173297
822.020	0.0173016
822.098	0.0173723
822.176	0.0175574
822.254	0.0173900
822.332	0.0174236
822.410	0.0173980
822.488	0.0174379
822.567	0.0175272
822.645	0.0176993
822.723	0.0176305
822.801	0.0175593
822.879	0.0176292
822.957	0.0176122
823.035	0.0177813
823.113	0.0178234
823.192	0.0179436
823.270	0.0179371
823.348	0.0179224
823.426	0.0181427
823.504	0.0180520
823.582	0.0178625
823.660	0.0180490
823.738	0.0181057
823.817	0.0180746
823.895	0.0179813
823.973	0.0179381
824.051	0.0179146
824.129	0.0181064
824.207	0.0179830
824.285	0.0178706
824.363	0.0180232
824.442	0.0178690
824.520	0.0178848
824.598	0.0178732
824.676	0.0178448
824.754	0.0177855
824.832	0.0179914
824.910	0.0179493
824.988	0.0180412
825.067	0.0179707
825.145	0.0180251
825.223	0.0179483
825.301	0.0178911
825.379	0.0178674
825.457	0.0177848
825.535	0.0178815
825.613	0.0176213
825.692	0.0178791
825.770	0.0178323
825.848	0.0176103
825.926	0.0174722
826.004	0.0177055
826.082	0.0176454
826.160	0.0176009
826.238	0.0175930
826.317	0.0175780
826.395	0.0175850
826.473	0.0174339
826.551	0.0177559
826.629	0.0177079
826.707	0.0177206
826.785	0.0177029
826.863	0.0178658
826.942	0.0179977
827.020	0.0177579
827.098	0.0179517
827.176	0.0180735
827.254	0.0181958
827.332	0.0180904
827.410	0.0181812
827.488	0.0180872
827.567	0.0181371
827.645	0.0180732
827.723	0.0180373
827.801	0.0181001
827.879	0.0179749
827.957	0.0178520
828.035	0.0179177
828.113	0.0178308
828.192	0.0176430
828.270	0.0177241
828.348	0.0176591
828.426	0.0175348
828.504	0.0176751
828.582	0.0174714
828.660	0.0174113
828.738	0.0174522
828.817	0.0173594
828.895	0.0174404
828.973	0.0173943
829.051	0.0173296
829.129	0.0174933
829.207	0.0173874
829.285	0.0175261
829.363	0.0175610
829.442	0.0176162
829.520	0.0175986
829.598	0.0176702
829.676	0.0175879
829.754	0.0175508
829.832	0.0176707
829.910	0.0176345
829.988	0.0177007
830.067	0.0176087
830.145	0.0176373
830.223	0.0176986
830.301	0.0176762
830.379	0.0177380
830.457	0.0178018
830.535	0.0178226
830.613	0.0177434
830.692	0.0178093
830.770	0.0177885
830.848	0.0178743
830.926	0.0181098
831.004	0.0181081
831.082	0.0179646
831.160	0.0180007
831.238	0.0181277
831.317	0.0181301
831.395	0.0180067
831.473	0.0179667
831.551	0.0179683
831.629	0.0181301
831.707	0.0180672
831.785	0.0178000
831.863	0.0177768
831.942	0.0179338
832.020	0.0178276
832.098	0.0178725
832.176	0.0178727
832.254	0.0176563
832.332	0.0176393
832.410	0.0175837
832.488	0.0176376
832.567	0.0176125
832.645	0.0176271
832.723	0.0176136
832.801	0.0175309
832.879	0.0175667
832.957	0.0176103
833.035	0.0175932
833.113	0.0175257
833.192	0.0175181
833.270	0.0176141
833.348	0.0175867
833.426	0.0175678
833.504	0.0175496
833.582	0.0174247
833.660	0.0175697
833.738	0.0175658
833.817	0.0175494
833.895	0.0175553
833.973	0.0174677
834.051	0.0176203
834.129	0.0176974
834.207	0.0176697
834.285	0.0177384
834.363	0.0177547
834.442	0.0177525
834.520	0.0176508
834.598	0.0178693
834.676	0.0178091
834.754	0.0179789
834.832	0.0179736
834.910	0.0180346
834.988	0.0180861
835.067	0.0181039
835.145	0.0181225
835.223	0.0181120
835.301	0.0179901
835.379	0.0180653
835.457	0.0181925
835.535	0.0181084
835.613	0.0181165
835.692	0.0182807
835.770	0.0181619
835.848	0.0182646
835.926	0.0181798
836.004	0.0180757
836.082	0.0182297
836.160	0.0182148
836.238	0.0181581
836.317	0.0180653
836.395	0.0181627
836.473	0.0181519
836.551	0.0180521
836.629	0.0180928
836.707	0.0179232
836.785	0.0179028
836.863	0.0179092
836.942	0.0177409
837.020	0.0176390
837.098	0.0176537
837.176	0.0177154
837.254	0.0175935
837.332	0.0175155
837.410	0.0174871
837.488	0.0176117
837.567	0.0174699
837.645	0.0172555
837.723	0.0175319
837.801	0.0174317
837.879	0.0174078
837.957	0.0175168
838.035	0.0173860
838.113	0.0174112
838.192	0.0174422
838.270	0.0174884
838.348	0.0174067
838.426	0.0174590
838.504	0.0174648
838.582	0.0175327
838.660	0.0176599
838.738	0.0176304
838.817	0.0176873
838.895	0.0176829
838.973	0.0176318
839.051	0.0178138
839.129	0.0178291
839.207	0.0179758
839.285	0.0178735
839.363	0.0179652
839.442	0.0181420
839.520	0.0180839
839.598	0.0181302
839.676	0.0183554
839.754	0.0183871
839.832	0.0183713
839.910	0.0185381
839.988	0.0185829
840.067	0.0185928
840.145	0.0184265
840.223	0.0185041
840.301	0.0187115
840.379	0.0185904
840.457	0.0184963
840.535	0.0183374
840.613	0.0183955
840.692	0.0181387
840.770	0.0181510
840.848	0.0181894
840.926	0.0180116
841.004	0.0179095
841.082	0.0177768
841.160	0.0176897
841.238	0.0175662
841.317	0.0175602
841.395	0.0174653
841.473	0.0173592
841.551	0.0172598
841.629	0.0172693
841.707	0.0172758
841.785	0.0173694
841.863	0.0171433
841.942	0.0171003
842.020	0.0172165
842.098	0.0171734
842.176	0.0172779
842.254	0.0172318
842.332	0.0171554
842.410	0.0173030
842.488	0.0173592
842.567	0.0172976
842.645	0.0174531
842.723	0.0174979
842.801	0.0175531
842.879	0.0176025
842.957	0.0176382
843.035	0.0178121
843.113	0.0177627
843.192	0.0178754
843.270	0.0180495
843.348	0.0181175
843.426	0.0180817
843.504	0.0181468
843.582	0.0181094
843.660	0.0182500
843.738	0.0182320
843.817	0.0183733
843.895	0.0183485
843.973	0.0181628
844.051	0.0185211
844.129	0.0185065
844.207	0.0183711
844.285	0.0183202
844.363	0.0183942
844.442	0.0184119
844.520	0.0183077
844.598	0.0184158
844.676	0.0182466
844.754	0.0183148
844.832	0.0181509
844.910	0.0182333
844.988	0.0181498
845.067	0.0181119
845.145	0.0180271
845.223	0.0180563
845.301	0.0181755
845.379	0.0179876
845.457	0.0178087
845.535	0.0177062
845.613	0.0176925
845.692	0.0176147
845.770	0.0177470
845.848	0.0176834
845.926	0.0175254
846.004	0.0174268
846.082	0.0173630
846.160	0.0173844
846.238	0.0172775
846.317	0.0173444
846.395	0.0172125
846.473	0.0172338
846.551	0.0174555
846.629	0.0173002
846.707	0.0173571
846.785	0.0172800
846.863	0.0175121
846.942	0.0173486
847.020	0.0174308
847.098	0.0176045
847.176	0.0175226
847.254	0.0173907
847.332	0.0176710
847.410	0.0176082
847.488	0.0175206
847.567	0.0175040
847.645	0.0176122
847.723	0.0176311
847.801	0.0177045
847.879	0.0176713
847.957	0.0176959
848.035	0.0175554
848.113	0.0177473
848.192	0.0177151
848.270	0.0177365
848.348	0.0178135
848.426	0.0177363
848.504	0.0179480
848.582	0.0178802
848.660	0.0178828
848.738	0.0179093
848.817	0.0181345
848.895	0.0180225
848.973	0.0181277
849.051	0.0181112
849.129	0.0181161
849.207	0.0181423
849.285	0.0181293
849.363	0.0181517
849.442	0.0181917
849.520	0.0180378
849.598	0.0181252
849.676	0.0181608
849.754	0.0180765
849.832	0.0180082
849.910	0.0180348
849.988	0.0179440
850.067	0.0179166
850.145	0.0178073
850.223	0.0180881
850.301	0.0179353
850.379	0.0177901
850.457	0.0178185
850.535	0.0179443
850.613	0.0179122
850.692	0.0178241
850.770	0.0178941
850.848	0.0177803
850.926	0.0179167
851.004	0.0178687
851.082	0.0179068
851.160	0.0179175
851.238	0.0179360
851.317	0.0179649
851.395	0.0180386
851.473	0.0179566
851.551	0.0179222
851.629	0.0179868
851.707	0.0179331
851.785	0.0176988
851.863	0.0177827
851.942	0.0178599
852.020	0.0176834
852.098	0.0176904
852.176	0.0177410
852.254	0.0176134
852.332	0.0174579
852.410	0.0173579
852.488	0.0176272
852.567	0.0174424
852.645	0.0174178
852.723	0.0173363
852.801	0.0173554
852.879	0.0172678
852.957	0.0174013
853.035	0.0173559
853.113	0.0175760
853.192	0.0174374
853.270	0.0176106
853.348	0.0176162
853.426	0.0176205
853.504	0.0176199
853.582	0.0177821
853.660	0.0177579
853.738	0.0178991
853.817	0.0177773
853.895	0.0178347
853.973	0.0178642
854.051	0.0178973
854.129	0.0178396
854.207	0.0178804
854.285	0.0177454
854.363	0.0177596
854.442	0.0178673
854.520	0.0177637
854.598	0.0177215
854.676	0.0177950
854.754	0.0177079
854.832	0.0178215
854.910	0.0178694
854.988	0.0178143
855.067	0.0178646
855.145	0.0178315
855.223	0.0180042
855.301	0.0178556
855.379	0.0179208
855.457	0.0180042
855.535	0.0179047
855.613	0.0180576
855.692	0.0179765
855.770	0.0178848
855.848	0.0179190
855.926	0.0178017
856.004	0.0177457
856.082	0.0177381
856.160	0.0176983
856.238	0.0177303
856.317	0.0177015
856.395	0.0176105
856.473	0.0176367
856.551	0.0176020
856.629	0.0175565
856.707	0.0175301
856.785	0.0174883
856.863	0.0175254
856.942	0.0175852
857.020	0.0174582
857.098	0.0175027
857.176	0.0175748
857.254	0.0175861
857.332	0.0175464
857.410	0.0177232
857.488	0.0177629
857.567	0.0177667
857.645	0.0179582
857.723	0.0178618
857.801	0.0179047
857.879	0.0178411
857.957	0.0179076
858.035	0.0179351
858.113	0.0181219
858.192	0.0180019
858.270	0.0179129
858.348	0.0178396
858.426	0.0177798
858.504	0.0177317
858.582	0.0178657
858.660	0.0178833
858.738	0.0177797
858.817	0.0176078
858.895	0.0175904
858.973	0.0176695
859.051	0.0176505
859.129	0.0175748
859.207	0.0176157
859.285	0.0177528
859.363	0.0176057
859.442	0.0174979
859.520	0.0176864
859.598	0.0178265
859.676	0.0176746
859.754	0.0179436
859.832	0.0177308
859.910	0.0178242
859.988	0.0178751
860.067	0.0178804
860.145	0.0179802
860.223	0.0178829
860.301	0.0178864
860.379	0.0178632
860.457	0.0179334
860.535	0.0178654
860.613	0.0177967
860.692	0.0177991
860.770	0.0178829
860.848	0.0179911
860.926	0.0178217
861.004	0.0177167
861.082	0.0176716
861.160	0.0177387
861.238	0.0177340
861.317	0.0177074
861.395	0.0177913
861.473	0.0177451
861.551	0.0176696
861.629	0.0178067
861.707	0.0177994
861.785	0.0177364
861.863	0.0177643
861.942	0.0178267
862.020	0.0179366
862.098	0.0178222
862.176	0.0179178
862.254	0.0179958
862.332	0.0179820
862.410	0.0178061
862.488	0.0178854
862.567	0.0179691
862.645	0.0179063
862.723	0.0178296
862.801	0.0177957
862.879	0.0176989
862.957	0.0177256
863.035	0.0177257
863.113	0.0177480
863.192	0.0175243
863.270	0.0174518
863.348	0.0175068
863.426	0.0175253
863.504	0.0173694
863.582	0.0175468
863.660	0.0174939
863.738	0.0173602
863.817	0.0174001
863.895	0.0173586
863.973	0.0176486
864.051	0.0175713
864.129	0.0176803
864.207	0.0176663
864.285	0.0177298
864.363	0.0178073
864.442	0.0178556
864.520	0.0178589
864.598	0.0179404
864.676	0.0177484
864.754	0.0178667
864.832	0.0179964
864.910	0.0179679
864.988	0.0177999
865.067	0.0179116
865.145	0.0179276
865.223	0.0179193
865.301	0.0178490
865.379	0.0178596
865.457	0.0177670
865.535	0.0178519
865.613	0.0176856
865.692	0.0176968
865.770	0.0176374
865.848	0.0177448
865.926	0.0176551
866.004	0.0178022
866.082	0.0177713
866.160	0.0177000
866.238	0.0178432
866.317	0.0178168
866.395	0.0178553
866.473	0.0179836
866.551	0.0179050
866.629	0.0179930
866.707	0.0179963
866.785	0.0179964
866.863	0.0179645
866.942	0.0180116
867.020	0.0179402
867.098	0.0179501
867.176	0.0179066
867.254	0.0178329
867.332	0.0179040
867.410	0.0177367
867.488	0.0177701
867.567	0.0177984
867.645	0.0176974
867.723	0.0176083
867.801	0.0175894
867.879	0.0177470
867.957	0.0176939
868.035	0.0175869
868.113	0.0174599
868.192	0.0177364
868.270	0.0177706
868.348	0.0176134
868.426	0.0179237
868.504	0.0177166
868.582	0.0177573
868.660	0.0178992
868.738	0.0178813
868.817	0.0180207
868.895	0.0180072
868.973	0.0180566
869.051	0.0179079
869.129	0.0179526
869.207	0.0180015
869.285	0.0179558
869.363	0.0178825
869.442	0.0179893
869.520	0.0180692
869.598	0.0178706
869.676	0.0178058
869.754	0.0176934
869.832	0.0177744
869.910	0.0176655
869.988	0.0177094
870.067	0.0175018
870.145	0.0175716
870.223	0.0173610
870.301	0.0175227
870.379	0.0173767
870.457	0.0172610
870.535	0.0172548
870.613	0.0174257
870.692	0.0173685
870.770	0.0174358
870.848	0.0172966
870.926	0.0173233
871.004	0.0175433
871.082	0.0176685
871.160	0.0175032
871.238	0.0176047
871.317	0.0176650
871.395	0.0176004
871.473	0.0176611
871.551	0.0176638
871.629	0.0176229
871.707	0.0177167
871.785	0.0176737
871.863	0.0175922
871.942	0.0176656
872.020	0.0177599
872.098	0.0177975
872.176	0.0177851
872.254	0.0177176
872.332	0.0177363
872.410	0.0178941
872.488	0.0178808
872.567	0.0177980
872.645	0.0178333
872.723	0.0179432
872.801	0.0180023
872.879	0.0180828
872.957	0.0180185
873.035	0.0180692
873.113	0.0181870
873.192	0.0181054
873.270	0.0182198
873.348	0.0181755
873.426	0.0180659
873.504	0.0183466
873.582	0.0182131
873.660	0.0181190
873.738	0.0183710
873.817	0.0181739
873.895	0.0179520
873.973	0.0179806
874.051	0.0179897
874.129	0.0180070
874.207	0.0178058
874.285	0.0178289
874.363	0.0178751
874.442	0.0178031
874.520	0.0176011
874.598	0.0175891
874.676	0.0177109
874.754	0.0174328
874.832	0.0174504
874.910	0.0174766
874.988	0.0174592
875.067	0.0172979
875.145	0.0174416
875.223	0.0172507
875.301	0.0173225
875.379	0.0174089
875.457	0.0173239
875.535	0.0173251
875.613	0.0174274
875.692	0.0174216
875.770	0.0173907
875.848	0.0174129
875.926	0.0175280
876.004	0.0176955
876.082	0.0177283
876.160	0.0177117
876.238	0.0177777
876.317	0.0177966
876.395	0.0179330
876.473	0.0179472
876.551	0.0179572
876.629	0.0180043
876.707	0.0181087
876.785	0.0179772
876.863	0.0180164
876.942	0.0181229
877.020	0.0179282
877.098	0.0180917
877.176	0.0181134
877.254	0.0180594
877.332	0.0179637
877.410	0.0180667
877.488	0.0180589
877.567	0.0180648
877.645	0.0180898
877.723	0.0180293
877.801	0.0180004
877.879	0.0179825
877.957	0.0179839
878.035	0.0179888
878.113	0.0178394
878.192	0.0178656
878.270	0.0178339
878.348	0.0178031
878.426	0.0177228
878.504	0.0176495
878.582	0.0176698
878.660	0.0175829
878.738	0.0175880
878.817	0.0175313
878.895	0.0174616
878.973	0.0174115
879.051	0.0173846
879.129	0.0173690
879.207	0.0172950
879.285	0.0172855
879.363	0.0172774
879.442	0.0173910
879.520	0.0172337
879.598	0.0171353
879.676	0.0172211
879.754	0.0172987
879.832	0.0174332
879.910	0.0175276
879.988	0.0176098
880.067	0.0176192
880.145	0.0176407
880.223	0.0177512
880.301	0.0178111
880.379	0.0179956
880.457	0.0178621
880.535	0.0178954
880.613	0.0179728
880.692	0.0180011
880.770	0.0179952
880.848	0.0180049
880.926	0.0180032
881.004	0.0180343
881.082	0.0180260
881.160	0.0181274
881.238	0.0180784
881.317	0.0180789
881.395	0.0181270
881.473	0.0181241
881.551	0.0181113
881.629	0.0181597
881.707	0.0181855
881.785	0.0182278
881.863	0.0181024
881.942	0.0179547
882.020	0.0182339
882.098	0.0181570
882.176	0.0180474
882.254	0.0179172
882.332	0.0180472
882.410	0.0179981
882.488	0.0179823
882.567	0.0179711
882.645	0.0178918
882.723	0.0178828
882.801	0.0179166
882.879	0.0177648
882.957	0.0176531
883.035	0.0175491
883.113	0.0174148
883.192	0.0174057
883.270	0.0171971
883.348	0.0173035
883.426	0.0171859
883.504	0.0171230
883.582	0.0169418
883.660	0.0170264
883.738	0.0168273
883.817	0.0170107
883.895	0.0170133
883.973	0.0170659
884.051	0.0170931
884.129	0.0171141
884.207	0.0172170
884.285	0.0172221
884.363	0.0174382
884.442	0.0174764
884.520	0.0174584
884.598	0.0176790
884.676	0.0177551
884.754	0.0178808
884.832	0.0179672
884.910	0.0179634
884.988	0.0183147
885.067	0.0183519
885.145	0.0184718
885.223	0.0185367
885.301	0.0186953
885.379	0.0188868
885.457	0.0188802
885.535	0.0188528
885.613	0.0190856
885.692	0.0190023
885.770	0.0189017
885.848	0.0188812
885.926	0.0188440
886.004	0.0186138
886.082	0.0185333
886.160	0.0182874
886.238	0.0182373
886.317	0.0179693
886.395	0.0178457
886.473	0.0177110
886.551	0.0173807
886.629	0.0171981
886.707	0.0172344
886.785	0.0170592
886.863	0.0167387
886.942	0.0166405
887.020	0.0166579
887.098	0.0164074
887.176	0.0165625
887.254	0.0164796
887.332	0.0165444
887.410	0.0164747
887.488	0.0163897
887.567	0.0165201
887.645	0.0165752
887.723	0.0165932
887.801	0.0167643
887.879	0.0169353
887.957	0.0170295
888.035	0.0171610
888.113	0.0172855
888.192	0.0175974
888.270	0.0177866
888.348	0.0179951
888.426	0.0181933
888.504	0.0183611
888.582	0.0185255
888.660	0.0187175
888.738	0.0188791
888.817	0.0190440
888.895	0.0190056
888.973	0.0192901
889.051	0.0192323
889.129	0.0191306
889.207	0.0193491
889.285	0.0192723
889.363	0.0191463
889.442	0.0190660
889.520	0.0189847
889.598	0.0189122
889.676	0.0187744
889.754	0.0185596
889.832	0.0184839
889.910	0.0182484
889.988	0.0181675
890.067	0.0179337
890.145	0.0178660
890.223	0.0176093
890.301	0.0173003
890.379	0.0172960
890.457	0.0171514
890.535	0.0170126
890.613	0.0168565
890.692	0.0166139
890.770	0.0164304
890.848	0.0163191
890.926	0.0162494
891.004	0.0162240
891.082	0.0160095
891.160	0.0162367
891.238	0.0161082
891.317	0.0162515
891.395	0.0163418
891.473	0.0165402
891.551	0.0167929
891.629	0.0169054
891.707	0.0169216
891.785	0.0171978
891.863	0.0174815
891.942	0.0177132
892.020	0.0180402
892.098	0.0184129
892.176	0.0185602
892.254	0.0188188
892.332	0.0189658
892.410	0.0189486
892.488	0.0193701
892.567	0.0194266
892.645	0.0194448
892.723	0.0194719
892.801	0.0195194
892.879	0.0193755
892.957	0.0194144
893.035	0.0192435
893.113	0.0191083
893.192	0.0190221
893.270	0.0187957
893.348	0.0186873
893.426	0.0185836
893.504	0.0184016
893.582	0.0182217
893.660	0.0181265
893.738	0.0179786
893.817	0.0178616
893.895	0.0175205
893.973	0.0175486
894.051	0.0174017
894.129	0.0170889
894.207	0.0171103
894.285	0.0168023
894.363	0.0166968
894.442	0.0167065
894.520	0.0166401
894.598	0.0166135
894.676	0.0165005
894.754	0.0163988
894.832	0.0163454
894.910	0.0164923
894.988	0.0165379
895.067	0.0164845
895.145	0.0164732
895.223	0.0167110
895.301	0.0167942
895.379	0.0170093
895.457	0.0170368
895.535	0.0173401
895.613	0.0174980
895.692	0.0175047
895.770	0.0176543
895.848	0.0178556
895.926	0.0180195
896.004	0.0181046
896.082	0.0180453
896.160	0.0181464
896.238	0.0183382
896.317	0.0183727
896.395	0.0183852
896.473	0.0183970
896.551	0.0184389
896.629	0.0183907
896.707	0.0183852
896.785	0.0185822
896.863	0.0185931
896.942	0.0184101
897.020	0.0185416
897.098	0.0186509
897.176	0.0185123
897.254	0.0184797
897.332	0.0184702
897.410	0.0184264
897.488	0.0184633
897.567	0.0184551
897.645	0.0184576
897.723	0.0185516
897.801	0.0185641
897.879	0.0184274
897.957	0.0183927
898.035	0.0183198
898.113	0.0181680
898.192	0.0181436
898.270	0.0178885
898.348	0.0176521
898.426	0.0175938
898.504	0.0174297
898.582	0.0173626
898.660	0.0171861
898.738	0.0169427
898.817	0.0169610
898.895	0.0168568
898.973	0.0169293
899.051	0.0168832
899.129	0.0168504
899.207	0.0169192
899.285	0.0169843
899.363	0.0171166
899.442	0.0171549
899.520	0.0173336
899.598	0.0175294
899.676	0.0175680
899.754	0.0178004
899.832	0.0178419
899.910	0.0179027
899.988	0.0181610
900.067	0.0182352
900.145	0.0182065
900.223	0.0182938
900.301	0.0183875
900.379	0.0182961
900.457	0.0182978
900.535	0.0182397
900.613	0.0181103
900.692	0.0182565
900.770	0.0180244
900.848	0.0179605
900.926	0.0178647
901.004	0.0178675
901.082	0.0178373
901.160	0.0176803
901.238	0.0178741
901.317	0.0177280
901.395	0.0177509
901.473	0.0176726
901.551	0.0178107
901.629	0.0178060
901.707	0.0176951
901.785	0.0176745
901.863	0.0177113
901.942	0.0176572
902.020	0.0177363
902.098	0.0176083
902.176	0.0175440
902.254	0.0175999
902.332	0.0174762
902.410	0.0173892
902.488	0.0174124
902.567	0.0174258
902.645	0.0172740
902.723	0.0172549
902.801	0.0173845
902.879	0.0172904
902.957	0.0173651
903.035	0.0173978
903.113	0.0174436
903.192	0.0173569
903.270	0.0176393
903.348	0.0176750
903.426	0.0177716
903.504	0.0178538
903.582	0.0180682
903.660	0.0180476
903.738	0.0182339
903.817	0.0184644
903.895	0.0183564
903.973	0.0184334
904.051	0.0186385
904.129	0.0184538
904.207	0.0184615
904.285	0.0184119
904.363	0.0184631
904.442	0.0183468
904.520	0.0180819
904.598	0.0180345
904.676	0.0179774
904.754	0.0179310
904.832	0.0179250
904.910	0.0178259
904.988	0.0177538
905.067	0.0177463
905.145	0.0177168
905.223	0.0177672
905.301	0.0177820
905.379	0.0177894
905.457	0.0177175
905.535	0.0178320
905.613	0.0178611
905.692	0.0177750
905.770	0.0178012
905.848	0.0177263
905.926	0.0177675
906.004	0.0177211
906.082	0.0176991
906.160	0.0177254
906.238	0.0176874
906.317	0.0175772
906.395	0.0175020
906.473	0.0173962
906.551	0.0174709
906.629	0.0175841
906.707	0.0175158
906.785	0.0176096
906.863	0.0174929
906.942	0.0175395
907.020	0.0175143
907.098	0.0175541
907.176	0.0176288
907.254	0.0177654
907.332	0.0177835
907.410	0.0177764
907.488	0.0178042
907.567	0.0179800
907.645	0.0178612
907.723	0.0179787
907.801	0.0178548
907.879	0.0179517
907.957	0.0180354
908.035	0.0179796
908.113	0.0180426
908.192	0.0179687
908.270	0.0178719
908.348	0.0177369
908.426	0.0177609
908.504	0.0178628
908.582	0.0178127
908.660	0.0178147
908.738	0.0177412
908.817	0.0177174
908.895	0.0179044
908.973	0.0178899
909.051	0.0178802
909.129	0.0177856
909.207	0.0179017
909.285	0.0180247
909.363	0.0179742
909.442	0.0179295
909.520	0.0179343
909.598	0.0178408
909.676	0.0179912
909.754	0.0180508
909.832	0.0180307
909.910	0.0179475
909.988	0.0179720
910.067	0.0177964
910.145	0.0176856
910.223	0.0178499
910.301	0.0177868
910.379	0.0177410
910.457	0.0178560
910.535	0.0177808
910.613	0.0178937
910.692	0.0177930
910.770	0.0175153
910.848	0.0175985
910.926	0.0178659
911.004	0.0177971
911.082	0.0176873
911.160	0.0178233
911.238	0.0176134
911.317	0.0177402
911.395	0.0176388
911.473	0.0175499
911.551	0.0176174
911.629	0.0175520
911.707	0.0177173
911.785	0.0176431
911.863	0.0176070
911.942	0.0177097
912.020	0.0175288
912.098	0.0175227
912.176	0.0176244
912.254	0.0176244
912.332	0.0177258
912.410	0.0177377
912.488	0.0177959
912.567	0.0177371
912.645	0.0177888
912.723	0.0180467
912.801	0.0180240
912.879	0.0180956
912.957	0.0180733
913.035	0.0180885
913.113	0.0182198
913.192	0.0181606
913.270	0.0181140
913.348	0.0181269
913.426	0.0180048
913.504	0.0180412
913.582	0.0179788
913.660	0.0177918
913.738	0.0179388
913.817	0.0179562
913.895	0.0179694
913.973	0.0178735
914.051	0.0178308
914.129	0.0178747
914.207	0.0178094
914.285	0.0178938
914.363	0.0177362
914.442	0.0176410
914.520	0.0177496
914.598	0.0177211
914.676	0.0177490
914.754	0.0177235
914.832	0.0177242
914.910	0.0177816
914.988	0.0178304
915.067	0.0178484
915.145	0.0179920
915.223	0.0179092
915.301	0.0178398
915.379	0.0178982
915.457	0.0179263
915.535	0.0178434
915.613	0.0176842
915.692	0.0176540
915.770	0.0176853
915.848	0.0176142
915.926	0.0176417
916.004	0.0176416
916.082	0.0176134
916.160	0.0175504
916.238	0.0175745
916.317	0.0176054
916.395	0.0177203
916.473	0.0176086
916.551	0.0176399
916.629	0.0177120
916.707	0.0177525
916.785	0.0179642
916.863	0.0179073
916.942	0.0178812
917.020	0.0178267
917.098	0.0178065
917.176	0.0180253
917.254	0.0179915
917.332	0.0178622
917.410	0.0178954
917.488	0.0178735
917.567	0.0179842
917.645	0.0179620
917.723	0.0178323
917.801	0.0177982
917.879	0.0177119
917.957	0.0177176
918.035	0.0180173
918.113	0.0177183
918.192	0.0176511
918.270	0.0177679
918.348	0.0179498
918.426	0.0179056
918.504	0.0179425
918.582	0.0179264
918.660	0.0179372
918.738	0.0179171
918.817	0.0180361
918.895	0.0179991
918.973	0.0179999
919.051	0.0179065
919.129	0.0179472
919.207	0.0180257
919.285	0.0179654
919.363	0.0178603
919.442	0.0179119
919.520	0.0178580
919.598	0.0177403
919.676	0.0178588
919.754	0.0177913
919.832	0.0177405
919.910	0.0177903
