06/01/2022	21:41:07	Ver.	4.1	UNKNOWN
Optical Delay	599.988409	Delta X		0.078125	Sweeps	1	Scan Rate	0/0
Coordinates	Axis 1	NaN	Axis 2	NaN	Axis 3	NaN	Axis 4	NaN	Axis 5	NaN	Axis 6	0.000000
TX Power	0.000000	RX Power	0.000000

599.988	0.0173623
600.067	0.0172970
600.145	0.0174418
600.223	0.0174364
600.301	0.0172816
600.379	0.0173695
600.457	0.0173794
600.535	0.0172496
600.613	0.0174188
600.692	0.0173818
600.770	0.0172197
600.848	0.0173009
600.926	0.0174258
601.004	0.0173700
601.082	0.0174752
601.160	0.0175445
601.238	0.0173389
601.317	0.0173454
601.395	0.0173421
601.473	0.0174027
601.551	0.0175076
601.629	0.0174797
601.707	0.0173977
601.785	0.0173518
601.863	0.0173695
601.942	0.0173524
602.020	0.0172861
602.098	0.0173926
602.176	0.0172337
602.254	0.0174168
602.332	0.0174031
602.410	0.0173846
602.488	0.0172873
602.567	0.0174065
602.645	0.0174412
602.723	0.0174249
602.801	0.0174281
602.879	0.0173161
602.957	0.0175007
603.035	0.0174529
603.113	0.0175301
603.192	0.0173286
603.270	0.0173296
603.348	0.0173257
603.426	0.0174132
603.504	0.0174094
603.582	0.0174201
603.660	0.0174303
603.738	0.0174446
603.817	0.0173193
603.895	0.0173776
603.973	0.0174297
604.051	0.0173917
604.129	0.0174745
604.207	0.0174624
604.285	0.0174931
604.363	0.0174607
604.442	0.0174173
604.520	0.0173765
604.598	0.0173412
604.676	0.0174001
604.754	0.0174017
604.832	0.0174284
604.910	0.0174091
604.988	0.0174252
605.067	0.0173707
605.145	0.0173332
605.223	0.0173698
605.301	0.0174226
605.379	0.0172122
605.457	0.0174643
605.535	0.0175024
605.613	0.0174255
605.692	0.0174978
605.770	0.0173721
605.848	0.0173994
605.926	0.0174517
606.004	0.0174441
606.082	0.0176253
606.160	0.0172707
606.238	0.0173593
606.317	0.0176112
606.395	0.0174641
606.473	0.0174531
606.551	0.0173293
606.629	0.0173621
606.707	0.0173940
606.785	0.0174027
606.863	0.0173640
606.942	0.0174191
607.020	0.0173887
607.098	0.0174051
607.176	0.0173856
607.254	0.0174632
607.332	0.0175205
607.410	0.0174548
607.488	0.0172791
607.567	0.0173812
607.645	0.0174625
607.723	0.0175022
607.801	0.0174053
607.879	0.0173609
607.957	0.0173568
608.035	0.0174476
608.113	0.0173743
608.192	0.0173581
608.270	0.0174431
608.348	0.0172621
608.426	0.0173819
608.504	0.0173633
608.582	0.0174059
608.660	0.0173169
608.738	0.0173457
608.817	0.0174250
608.895	0.0173415
608.973	0.0173719
609.051	0.0174315
609.129	0.0173412
609.207	0.0173805
609.285	0.0173320
609.363	0.0174464
609.442	0.0173959
609.520	0.0173357
609.598	0.0174406
609.676	0.0173687
609.754	0.0173678
609.832	0.0174012
609.910	0.0174676
609.988	0.0173385
610.067	0.0173651
610.145	0.0173096
610.223	0.0173275
610.301	0.0174382
610.379	0.0175914
610.457	0.0174439
610.535	0.0173930
610.613	0.0175035
610.692	0.0174982
610.770	0.0173880
610.848	0.0174473
610.926	0.0175266
611.004	0.0173986
611.082	0.0174442
611.160	0.0175641
611.238	0.0173566
611.317	0.0174777
611.395	0.0175531
611.473	0.0173829
611.551	0.0174596
611.629	0.0174265
611.707	0.0174444
611.785	0.0174330
611.863	0.0173524
611.942	0.0173503
612.020	0.0173478
612.098	0.0173764
612.176	0.0173699
612.254	0.0174937
612.332	0.0174166
612.410	0.0174052
612.488	0.0173331
612.567	0.0176080
612.645	0.0174075
612.723	0.0172779
612.801	0.0171983
612.879	0.0172913
612.957	0.0173918
613.035	0.0175053
613.113	0.0174569
613.192	0.0173847
613.270	0.0173539
613.348	0.0174063
613.426	0.0174548
613.504	0.0173533
613.582	0.0175106
613.660	0.0174654
613.738	0.0174189
613.817	0.0174157
613.895	0.0175046
613.973	0.0175031
614.051	0.0174174
614.129	0.0174180
614.207	0.0173922
614.285	0.0174215
614.363	0.0174126
614.442	0.0174049
614.520	0.0173414
614.598	0.0175732
614.676	0.0174744
614.754	0.0175036
614.832	0.0174735
614.910	0.0174827
614.988	0.0175855
615.067	0.0172563
615.145	0.0172813
615.223	0.0175375
615.301	0.0173708
615.379	0.0174281
615.457	0.0173885
615.535	0.0171333
615.613	0.0173775
615.692	0.0174519
615.770	0.0174779
615.848	0.0174082
615.926	0.0173698
616.004	0.0172829
616.082	0.0172373
616.160	0.0173493
616.238	0.0173836
616.317	0.0173071
616.395	0.0172757
616.473	0.0173566
616.551	0.0172699
616.629	0.0174058
616.707	0.0173827
616.785	0.0174426
616.863	0.0173605
616.942	0.0173425
617.020	0.0174580
617.098	0.0174511
617.176	0.0174815
617.254	0.0174093
617.332	0.0173734
617.410	0.0173926
617.488	0.0175457
617.567	0.0174300
617.645	0.0175996
617.723	0.0174723
617.801	0.0174581
617.879	0.0174972
617.957	0.0176733
618.035	0.0175407
618.113	0.0175246
618.192	0.0174434
618.270	0.0174102
618.348	0.0175349
618.426	0.0175206
618.504	0.0175610
618.582	0.0175793
618.660	0.0175154
618.738	0.0175671
618.817	0.0173900
618.895	0.0174680
618.973	0.0176221
619.051	0.0175552
619.129	0.0172523
619.207	0.0174046
619.285	0.0174702
619.363	0.0174413
619.442	0.0173482
619.520	0.0174728
619.598	0.0173795
619.676	0.0173309
619.754	0.0173408
619.832	0.0172585
619.910	0.0171901
619.988	0.0174008
620.067	0.0173283
620.145	0.0172957
620.223	0.0173246
620.301	0.0173618
620.379	0.0174147
620.457	0.0173199
620.535	0.0172949
620.613	0.0172265
620.692	0.0173721
620.770	0.0173982
620.848	0.0173886
620.926	0.0172935
621.004	0.0173486
621.082	0.0174986
621.160	0.0174489
621.238	0.0173416
621.317	0.0175055
621.395	0.0175734
621.473	0.0174779
621.551	0.0173886
621.629	0.0174088
621.707	0.0175389
621.785	0.0176865
621.863	0.0176273
621.942	0.0174146
622.020	0.0175703
622.098	0.0176279
622.176	0.0175805
622.254	0.0175729
622.332	0.0174632
622.410	0.0174820
622.488	0.0174485
622.567	0.0175742
622.645	0.0175465
622.723	0.0174449
622.801	0.0174265
622.879	0.0174310
622.957	0.0174583
623.035	0.0175018
623.113	0.0175137
623.192	0.0174855
623.270	0.0174065
623.348	0.0174506
623.426	0.0174434
623.504	0.0174062
623.582	0.0174119
623.660	0.0173669
623.738	0.0173367
623.817	0.0174367
623.895	0.0172919
623.973	0.0172869
624.051	0.0173563
624.129	0.0173007
624.207	0.0172959
624.285	0.0173190
624.363	0.0173223
624.442	0.0173895
624.520	0.0172784
624.598	0.0172815
624.676	0.0172484
624.754	0.0170478
624.832	0.0172482
624.910	0.0174735
624.988	0.0172466
625.067	0.0174586
625.145	0.0172713
625.223	0.0173666
625.301	0.0173968
625.379	0.0173928
625.457	0.0173866
625.535	0.0173352
625.613	0.0174524
625.692	0.0175581
625.770	0.0175240
625.848	0.0175364
625.926	0.0173740
626.004	0.0174100
626.082	0.0175388
626.160	0.0174847
626.238	0.0174429
626.317	0.0174789
626.395	0.0173421
626.473	0.0174442
626.551	0.0174972
626.629	0.0175224
626.707	0.0176043
626.785	0.0174792
626.863	0.0174020
626.942	0.0173837
627.020	0.0176066
627.098	0.0174294
627.176	0.0174646
627.254	0.0174022
627.332	0.0174415
627.410	0.0175403
627.488	0.0174374
627.567	0.0173566
627.645	0.0173122
627.723	0.0173580
627.801	0.0174328
627.879	0.0174480
627.957	0.0172987
628.035	0.0173620
628.113	0.0173109
628.192	0.0173244
628.270	0.0173953
628.348	0.0173621
628.426	0.0173177
628.504	0.0172894
628.582	0.0173338
628.660	0.0173989
628.738	0.0172707
628.817	0.0174557
628.895	0.0174044
628.973	0.0172820
629.051	0.0173524
629.129	0.0172846
629.207	0.0173380
629.285	0.0173676
629.363	0.0174353
629.442	0.0174454
629.520	0.0174538
629.598	0.0174217
629.676	0.0172984
629.754	0.0174755
629.832	0.0174766
629.910	0.0174252
629.988	0.0174244
630.067	0.0174166
630.145	0.0174097
630.223	0.0174722
630.301	0.0174338
630.379	0.0175025
630.457	0.0174806
630.535	0.0174884
630.613	0.0175173
630.692	0.0174506
630.770	0.0173928
630.848	0.0173883
630.926	0.0173869
631.004	0.0174984
631.082	0.0173209
631.160	0.0175613
631.238	0.0175320
631.317	0.0175139
631.395	0.0173977
631.473	0.0174153
631.551	0.0176058
631.629	0.0174399
631.707	0.0173893
631.785	0.0175237
631.863	0.0174152
631.942	0.0174622
632.020	0.0174288
632.098	0.0174628
632.176	0.0174836
632.254	0.0173321
632.332	0.0175002
632.410	0.0174750
632.488	0.0173835
632.567	0.0174297
632.645	0.0173914
632.723	0.0175596
632.801	0.0174093
632.879	0.0173006
632.957	0.0174464
633.035	0.0176203
633.113	0.0173693
633.192	0.0173585
633.270	0.0174164
633.348	0.0173052
633.426	0.0173341
633.504	0.0174947
633.582	0.0175114
633.660	0.0174493
633.738	0.0173322
633.817	0.0174541
633.895	0.0174082
633.973	0.0174551
634.051	0.0174548
634.129	0.0174126
634.207	0.0174158
634.285	0.0173689
634.363	0.0173247
634.442	0.0174116
634.520	0.0174118
634.598	0.0174557
634.676	0.0175704
634.754	0.0173458
634.832	0.0173652
634.910	0.0174044
634.988	0.0173579
635.067	0.0173721
635.145	0.0174017
635.223	0.0173179
635.301	0.0174265
635.379	0.0175406
635.457	0.0174639
635.535	0.0174410
635.613	0.0173954
635.692	0.0174090
635.770	0.0174696
635.848	0.0173713
635.926	0.0174731
636.004	0.0172491
636.082	0.0175336
636.160	0.0175102
636.238	0.0175713
636.317	0.0173368
636.395	0.0174949
636.473	0.0173560
636.551	0.0174957
636.629	0.0173798
636.707	0.0173351
636.785	0.0174981
636.863	0.0174929
636.942	0.0174397
637.020	0.0173592
637.098	0.0174472
637.176	0.0173879
637.254	0.0173973
637.332	0.0173559
637.410	0.0174715
637.488	0.0174033
637.567	0.0174900
637.645	0.0174228
637.723	0.0175211
637.801	0.0174905
637.879	0.0173072
637.957	0.0174769
638.035	0.0174937
638.113	0.0174593
638.192	0.0173874
638.270	0.0174072
638.348	0.0174099
638.426	0.0174430
638.504	0.0173255
638.582	0.0173730
638.660	0.0174899
638.738	0.0174570
638.817	0.0175748
638.895	0.0173674
638.973	0.0173957
639.051	0.0175333
639.129	0.0173464
639.207	0.0173040
639.285	0.0173885
639.363	0.0175568
639.442	0.0173309
639.520	0.0174284
639.598	0.0174318
639.676	0.0175053
639.754	0.0173814
639.832	0.0173877
639.910	0.0175468
639.988	0.0174185
640.067	0.0174286
640.145	0.0173308
640.223	0.0174116
640.301	0.0174298
640.379	0.0173087
640.457	0.0174223
640.535	0.0173244
640.613	0.0175198
640.692	0.0175085
640.770	0.0174402
640.848	0.0175253
640.926	0.0173317
641.004	0.0174567
641.082	0.0173796
641.160	0.0176019
641.238	0.0175077
641.317	0.0175174
641.395	0.0174742
641.473	0.0173628
641.551	0.0174655
641.629	0.0174159
641.707	0.0173318
641.785	0.0173886
641.863	0.0173444
641.942	0.0174773
642.020	0.0175294
642.098	0.0174781
642.176	0.0173161
642.254	0.0173970
642.332	0.0173746
642.410	0.0173177
642.488	0.0174386
642.567	0.0174534
642.645	0.0175200
642.723	0.0173853
642.801	0.0173933
642.879	0.0175596
642.957	0.0175298
643.035	0.0174734
643.113	0.0174243
643.192	0.0174366
643.270	0.0175089
643.348	0.0173387
643.426	0.0173866
643.504	0.0175491
643.582	0.0174310
643.660	0.0174857
643.738	0.0175232
643.817	0.0173994
643.895	0.0174129
643.973	0.0173957
644.051	0.0173624
644.129	0.0174479
644.207	0.0175063
644.285	0.0174759
644.363	0.0174049
644.442	0.0174653
644.520	0.0174036
644.598	0.0174361
644.676	0.0174390
644.754	0.0174024
644.832	0.0173322
644.910	0.0174564
644.988	0.0174049
645.067	0.0174081
645.145	0.0173946
645.223	0.0173366
645.301	0.0174073
645.379	0.0174593
645.457	0.0174262
645.535	0.0173699
645.613	0.0173695
645.692	0.0174204
645.770	0.0174083
645.848	0.0173150
645.926	0.0175118
646.004	0.0173475
646.082	0.0171877
646.160	0.0173582
646.238	0.0172581
646.317	0.0176026
646.395	0.0174443
646.473	0.0173824
646.551	0.0173784
646.629	0.0174995
646.707	0.0172727
646.785	0.0173503
646.863	0.0174758
646.942	0.0174608
647.020	0.0174333
647.098	0.0175499
647.176	0.0174226
647.254	0.0173004
647.332	0.0173908
647.410	0.0174483
647.488	0.0175278
647.567	0.0174661
647.645	0.0174916
647.723	0.0173068
647.801	0.0172458
647.879	0.0174158
647.957	0.0174650
648.035	0.0174095
648.113	0.0174184
648.192	0.0173027
648.270	0.0175327
648.348	0.0174293
648.426	0.0173466
648.504	0.0175155
648.582	0.0174128
648.660	0.0174071
648.738	0.0174954
648.817	0.0174477
648.895	0.0174683
648.973	0.0172919
649.051	0.0172115
649.129	0.0174244
649.207	0.0172689
649.285	0.0173293
649.363	0.0173779
649.442	0.0175712
649.520	0.0174014
649.598	0.0174184
649.676	0.0173528
649.754	0.0174496
649.832	0.0174911
649.910	0.0173344
649.988	0.0173110
650.067	0.0173244
650.145	0.0173714
650.223	0.0173954
650.301	0.0174609
650.379	0.0175707
650.457	0.0174153
650.535	0.0175288
650.613	0.0172477
650.692	0.0173699
650.770	0.0174860
650.848	0.0173252
650.926	0.0172970
651.004	0.0173305
651.082	0.0172996
651.160	0.0174401
651.238	0.0173367
651.317	0.0172225
651.395	0.0174415
651.473	0.0173873
651.551	0.0174392
651.629	0.0174297
651.707	0.0173499
651.785	0.0173876
651.863	0.0173547
651.942	0.0174821
652.020	0.0173818
652.098	0.0174296
652.176	0.0173655
652.254	0.0174743
652.332	0.0173586
652.410	0.0175036
652.488	0.0173966
652.567	0.0175399
652.645	0.0174058
652.723	0.0173228
652.801	0.0175199
652.879	0.0174348
652.957	0.0173666
653.035	0.0174014
653.113	0.0174149
653.192	0.0174177
653.270	0.0174257
653.348	0.0172580
653.426	0.0173508
653.504	0.0172907
653.582	0.0173463
653.660	0.0174166
653.738	0.0174364
653.817	0.0174387
653.895	0.0173176
653.973	0.0173941
654.051	0.0174389
654.129	0.0174131
654.207	0.0174671
654.285	0.0174804
654.363	0.0173823
654.442	0.0174880
654.520	0.0174313
654.598	0.0174437
654.676	0.0174364
654.754	0.0173651
654.832	0.0175591
654.910	0.0173726
654.988	0.0174351
655.067	0.0173775
655.145	0.0174514
655.223	0.0175551
655.301	0.0174592
655.379	0.0174129
655.457	0.0173692
655.535	0.0174313
655.613	0.0174483
655.692	0.0176049
655.770	0.0174780
655.848	0.0174246
655.926	0.0174460
656.004	0.0174953
656.082	0.0175149
656.160	0.0174087
656.238	0.0173956
656.317	0.0174266
656.395	0.0175108
656.473	0.0173627
656.551	0.0171412
656.629	0.0174282
656.707	0.0175898
656.785	0.0175698
656.863	0.0174926
656.942	0.0172694
657.020	0.0174156
657.098	0.0174738
657.176	0.0173798
657.254	0.0175885
657.332	0.0174723
657.410	0.0173615
657.488	0.0174116
657.567	0.0174663
657.645	0.0173239
657.723	0.0173491
657.801	0.0174541
657.879	0.0175098
657.957	0.0174812
658.035	0.0173948
658.113	0.0173725
658.192	0.0173087
658.270	0.0174760
658.348	0.0174758
658.426	0.0175182
658.504	0.0173971
658.582	0.0175053
658.660	0.0173930
658.738	0.0173974
658.817	0.0176176
658.895	0.0173321
658.973	0.0172908
659.051	0.0175468
659.129	0.0174003
659.207	0.0173071
659.285	0.0174142
659.363	0.0174158
659.442	0.0174134
659.520	0.0174642
659.598	0.0175514
659.676	0.0174767
659.754	0.0174045
659.832	0.0175112
659.910	0.0174596
659.988	0.0175157
660.067	0.0174753
660.145	0.0174540
660.223	0.0173071
660.301	0.0174081
660.379	0.0174348
660.457	0.0174358
660.535	0.0174838
660.613	0.0175651
660.692	0.0175314
660.770	0.0173965
660.848	0.0174165
660.926	0.0173633
661.004	0.0174245
661.082	0.0174438
661.160	0.0174199
661.238	0.0174496
661.317	0.0173006
661.395	0.0174146
661.473	0.0175154
661.551	0.0174232
661.629	0.0174748
661.707	0.0173807
661.785	0.0173103
661.863	0.0173466
661.942	0.0174076
662.020	0.0174148
662.098	0.0174841
662.176	0.0172903
662.254	0.0174013
662.332	0.0173743
662.410	0.0173800
662.488	0.0174285
662.567	0.0173853
662.645	0.0173232
662.723	0.0173293
662.801	0.0174046
662.879	0.0174490
662.957	0.0174562
663.035	0.0173211
663.113	0.0174604
663.192	0.0175291
663.270	0.0173456
663.348	0.0173889
663.426	0.0174025
663.504	0.0174459
663.582	0.0173672
663.660	0.0174364
663.738	0.0174458
663.817	0.0174130
663.895	0.0173389
663.973	0.0174751
664.051	0.0175143
664.129	0.0173148
664.207	0.0173912
664.285	0.0173305
664.363	0.0175387
664.442	0.0173920
664.520	0.0172916
664.598	0.0174783
664.676	0.0174776
664.754	0.0173845
664.832	0.0173750
664.910	0.0173998
664.988	0.0173986
665.067	0.0174493
665.145	0.0173590
665.223	0.0175362
665.301	0.0172802
665.379	0.0173443
665.457	0.0174324
665.535	0.0174738
665.613	0.0175591
665.692	0.0172973
665.770	0.0172968
665.848	0.0173689
665.926	0.0174496
666.004	0.0174199
666.082	0.0174772
666.160	0.0174779
666.238	0.0175324
666.317	0.0174025
666.395	0.0172484
666.473	0.0172680
666.551	0.0173640
666.629	0.0174363
666.707	0.0174886
666.785	0.0173425
666.863	0.0172282
666.942	0.0173557
667.020	0.0173339
667.098	0.0173900
667.176	0.0175330
667.254	0.0174024
667.332	0.0172980
667.410	0.0173610
667.488	0.0174495
667.567	0.0174167
667.645	0.0174377
667.723	0.0173782
667.801	0.0173139
667.879	0.0174477
667.957	0.0173270
668.035	0.0174111
668.113	0.0174802
668.192	0.0174786
668.270	0.0174347
668.348	0.0173904
668.426	0.0173466
668.504	0.0173660
668.582	0.0174020
668.660	0.0172795
668.738	0.0175478
668.817	0.0174495
668.895	0.0172601
668.973	0.0174406
669.051	0.0174804
669.129	0.0175197
669.207	0.0173657
669.285	0.0174667
669.363	0.0172451
669.442	0.0173981
669.520	0.0173212
669.598	0.0173667
669.676	0.0173490
669.754	0.0173425
669.832	0.0174409
669.910	0.0173068
669.988	0.0174641
670.067	0.0173088
670.145	0.0174113
670.223	0.0173824
670.301	0.0173476
670.379	0.0173356
670.457	0.0174792
670.535	0.0173019
670.613	0.0173779
670.692	0.0175012
670.770	0.0174635
670.848	0.0174537
670.926	0.0173174
671.004	0.0173794
671.082	0.0174854
671.160	0.0174029
671.238	0.0173591
671.317	0.0172910
671.395	0.0174888
671.473	0.0174465
671.551	0.0174672
671.629	0.0172283
671.707	0.0173920
671.785	0.0174648
671.863	0.0174900
671.942	0.0174456
672.020	0.0174411
672.098	0.0173993
672.176	0.0173080
672.254	0.0174242
672.332	0.0173087
672.410	0.0173428
672.488	0.0174043
672.567	0.0173700
672.645	0.0172990
672.723	0.0173815
672.801	0.0173872
672.879	0.0174869
672.957	0.0173333
673.035	0.0174465
673.113	0.0173571
673.192	0.0174988
673.270	0.0174043
673.348	0.0173691
673.426	0.0175449
673.504	0.0173780
673.582	0.0174267
673.660	0.0174416
673.738	0.0174157
673.817	0.0174103
673.895	0.0173290
673.973	0.0174034
674.051	0.0174591
674.129	0.0174168
674.207	0.0174528
674.285	0.0174984
674.363	0.0175495
674.442	0.0174906
674.520	0.0173894
674.598	0.0174551
674.676	0.0175347
674.754	0.0173392
674.832	0.0174517
674.910	0.0173916
674.988	0.0175180
675.067	0.0172471
675.145	0.0172285
675.223	0.0173496
675.301	0.0174009
675.379	0.0172353
675.457	0.0174396
675.535	0.0174659
675.613	0.0175072
675.692	0.0173532
675.770	0.0173483
675.848	0.0174376
675.926	0.0175013
676.004	0.0173665
676.082	0.0175313
676.160	0.0176305
676.238	0.0176225
676.317	0.0174928
676.395	0.0175441
676.473	0.0176516
676.551	0.0173748
676.629	0.0173675
676.707	0.0174158
676.785	0.0172204
676.863	0.0172855
676.942	0.0170798
677.020	0.0172154
677.098	0.0173986
677.176	0.0174092
677.254	0.0172890
677.332	0.0173193
677.410	0.0174242
677.488	0.0174643
677.567	0.0174273
677.645	0.0174897
677.723	0.0176180
677.801	0.0175932
677.879	0.0174992
677.957	0.0175847
678.035	0.0175724
678.113	0.0174968
678.192	0.0175291
678.270	0.0175279
678.348	0.0173683
678.426	0.0173863
678.504	0.0172186
678.582	0.0173997
678.660	0.0172669
678.738	0.0171032
678.817	0.0172169
678.895	0.0172727
678.973	0.0172852
679.051	0.0172027
679.129	0.0172614
679.207	0.0172733
679.285	0.0173907
679.363	0.0173602
679.442	0.0174545
679.520	0.0174939
679.598	0.0175209
679.676	0.0176289
679.754	0.0175195
679.832	0.0175795
679.910	0.0175207
679.988	0.0175105
680.067	0.0176411
680.145	0.0174169
680.223	0.0174586
680.301	0.0174877
680.379	0.0174702
680.457	0.0173732
680.535	0.0173008
680.613	0.0173402
680.692	0.0174139
680.770	0.0175065
680.848	0.0173795
680.926	0.0172610
681.004	0.0174384
681.082	0.0174706
681.160	0.0173937
681.238	0.0173685
681.317	0.0173005
681.395	0.0174049
681.473	0.0174265
681.551	0.0175315
681.629	0.0175287
681.707	0.0176205
681.785	0.0175758
681.863	0.0174663
681.942	0.0176652
682.020	0.0175505
682.098	0.0176746
682.176	0.0175073
682.254	0.0174486
682.332	0.0173871
682.410	0.0173031
682.488	0.0173285
682.567	0.0173660
682.645	0.0172106
682.723	0.0174161
682.801	0.0172415
682.879	0.0173101
682.957	0.0174137
683.035	0.0172391
683.113	0.0172050
683.192	0.0173070
683.270	0.0174538
683.348	0.0176933
683.426	0.0176185
683.504	0.0177219
683.582	0.0176954
683.660	0.0176926
683.738	0.0177699
683.817	0.0179870
683.895	0.0178976
683.973	0.0179649
684.051	0.0179256
684.129	0.0179333
684.207	0.0177940
684.285	0.0177093
684.363	0.0175228
684.442	0.0174775
684.520	0.0172684
684.598	0.0171787
684.676	0.0168169
684.754	0.0167343
684.832	0.0166451
684.910	0.0165845
684.988	0.0165869
685.067	0.0165945
685.145	0.0167545
685.223	0.0168818
685.301	0.0170248
685.379	0.0173450
685.457	0.0175007
685.535	0.0177927
685.613	0.0179037
685.692	0.0181476
685.770	0.0180937
685.848	0.0181075
685.926	0.0180764
686.004	0.0177725
686.082	0.0178040
686.160	0.0177812
686.238	0.0175916
686.317	0.0175275
686.395	0.0174379
686.473	0.0172973
686.551	0.0173912
686.629	0.0174419
686.707	0.0177306
686.785	0.0177113
686.863	0.0177052
686.942	0.0178582
687.020	0.0178213
687.098	0.0177949
687.176	0.0178144
687.254	0.0177818
687.332	0.0175836
687.410	0.0174840
687.488	0.0174635
687.567	0.0170749
687.645	0.0170132
687.723	0.0169109
687.801	0.0169866
687.879	0.0169013
687.957	0.0167673
688.035	0.0169525
688.113	0.0170021
688.192	0.0172250
688.270	0.0172945
688.348	0.0172932
688.426	0.0172206
688.504	0.0173879
688.582	0.0173695
688.660	0.0174580
688.738	0.0170940
688.817	0.0170393
688.895	0.0170315
688.973	0.0169984
689.051	0.0169788
689.129	0.0167313
689.207	0.0167880
689.285	0.0167807
689.363	0.0168192
689.442	0.0170389
689.520	0.0171032
689.598	0.0173732
689.676	0.0176912
689.754	0.0180370
689.832	0.0183366
689.910	0.0187489
689.988	0.0190485
690.067	0.0192422
690.145	0.0195551
690.223	0.0197824
690.301	0.0198035
690.379	0.0200715
690.457	0.0200893
690.535	0.0198955
690.613	0.0196297
690.692	0.0194184
690.770	0.0192194
690.848	0.0186961
690.926	0.0183185
691.004	0.0179413
691.082	0.0174186
691.160	0.0168627
691.238	0.0162349
691.317	0.0155780
691.395	0.0149869
691.473	0.0143220
691.551	0.0137519
691.629	0.0130127
691.707	0.0125919
691.785	0.0121735
691.863	0.0118169
691.942	0.0116709
692.020	0.0115142
692.098	0.0116439
692.176	0.0119313
692.254	0.0124696
692.332	0.0131046
692.410	0.0138247
692.488	0.0147788
692.567	0.0156085
692.645	0.0166370
692.723	0.0177321
692.801	0.0188625
692.879	0.0200164
692.957	0.0211048
693.035	0.0220824
693.113	0.0229466
693.192	0.0237617
693.270	0.0244945
693.348	0.0251414
693.426	0.0255316
693.504	0.0255444
693.582	0.0255938
693.660	0.0257298
693.738	0.0256525
693.817	0.0253969
693.895	0.0251049
693.973	0.0246465
694.051	0.0238020
694.129	0.0230905
694.207	0.0221787
694.285	0.0213300
694.363	0.0202496
694.442	0.0191074
694.520	0.0179088
694.598	0.0165834
694.676	0.0152428
694.754	0.0138409
694.832	0.0123245
694.910	0.0108640
694.988	0.00938286
695.067	0.00793228
695.145	0.00675583
695.223	0.00570786
695.301	0.00486214
695.379	0.00436897
695.457	0.00407898
695.535	0.00407936
695.613	0.00444527
695.692	0.00488472
695.770	0.00573334
695.848	0.00656502
695.926	0.00782845
696.004	0.00928177
696.082	0.0107875
696.160	0.0123308
696.238	0.0139553
696.317	0.0159021
696.395	0.0178138
696.473	0.0196777
696.551	0.0217867
696.629	0.0234917
696.707	0.0251884
696.785	0.0267963
696.863	0.0282163
696.942	0.0294599
697.020	0.0303480
697.098	0.0308626
697.176	0.0311288
697.254	0.0312559
697.332	0.0313965
697.410	0.0313095
697.488	0.0310318
697.567	0.0305212
697.645	0.0302409
697.723	0.0297207
697.801	0.0292757
697.879	0.0287008
697.957	0.0279356
698.035	0.0267452
698.113	0.0258604
698.192	0.0247829
698.270	0.0232275
698.348	0.0215993
698.426	0.0199292
698.504	0.0179404
698.582	0.0157495
698.660	0.0132780
698.738	0.0108548
698.817	0.00839836
698.895	0.00603233
698.973	0.00355247
699.051	0.00149284
699.129	-0.000290375
699.207	-0.00200813
699.285	-0.00338890
699.363	-0.00435852
699.442	-0.00480270
699.520	-0.00482513
699.598	-0.00454201
699.676	-0.00373749
699.754	-0.00255241
699.832	-0.000949860
699.910	0.00106636
699.988	0.00336105
700.067	0.00573112
700.145	0.00851082
700.223	0.0114146
700.301	0.0142423
700.379	0.0173643
700.457	0.0203857
700.535	0.0230727
700.613	0.0258802
700.692	0.0285015
700.770	0.0307695
700.848	0.0329208
700.926	0.0345656
701.004	0.0358626
701.082	0.0370055
701.160	0.0375237
701.238	0.0379282
701.317	0.0377672
701.395	0.0373830
701.473	0.0367954
701.551	0.0358350
701.629	0.0346854
701.707	0.0337468
701.785	0.0322897
701.863	0.0310022
701.942	0.0299232
702.020	0.0287266
702.098	0.0277087
702.176	0.0265241
702.254	0.0254297
702.332	0.0241445
702.410	0.0227325
702.488	0.0213963
702.567	0.0197028
702.645	0.0176131
702.723	0.0154826
702.801	0.0131917
702.879	0.0106148
702.957	0.00784836
703.035	0.00518860
703.113	0.00269386
703.192	0.000157166
703.270	-0.00230675
703.348	-0.00412262
703.426	-0.00576965
703.504	-0.00695267
703.582	-0.00791023
703.660	-0.00826820
703.738	-0.00809868
703.817	-0.00741051
703.895	-0.00648148
703.973	-0.00491302
704.051	-0.00301071
704.129	-0.000657959
704.207	0.00189911
704.285	0.00471436
704.363	0.00812218
704.442	0.0114142
704.520	0.0147284
704.598	0.0182130
704.676	0.0217063
704.754	0.0250598
704.832	0.0280569
704.910	0.0307943
704.988	0.0332840
705.067	0.0353773
705.145	0.0370663
705.223	0.0382240
705.301	0.0390050
705.379	0.0393941
705.457	0.0393880
705.535	0.0390274
705.613	0.0380976
705.692	0.0369555
705.770	0.0355585
705.848	0.0338960
705.926	0.0321260
706.004	0.0302061
706.082	0.0285439
706.160	0.0268711
706.238	0.0252573
706.317	0.0238714
706.395	0.0223132
706.473	0.0208909
706.551	0.0195027
706.629	0.0181871
706.707	0.0170975
706.785	0.0158684
706.863	0.0145824
706.942	0.0133044
707.020	0.0121285
707.098	0.0107691
707.176	0.00951469
707.254	0.00826614
707.332	0.00732918
707.410	0.00642006
707.488	0.00567230
707.567	0.00508331
707.645	0.00464333
707.723	0.00469345
707.801	0.00454956
707.879	0.00479080
707.957	0.00509949
708.035	0.00551498
708.113	0.00615005
708.192	0.00689156
708.270	0.00780090
708.348	0.00864220
708.426	0.00957481
708.504	0.0105172
708.582	0.0114516
708.660	0.0125418
708.738	0.0135027
708.817	0.0143903
708.895	0.0154046
708.973	0.0161810
709.051	0.0172063
709.129	0.0180848
709.207	0.0188945
709.285	0.0197935
709.363	0.0207143
709.442	0.0215979
709.520	0.0225399
709.598	0.0231848
709.676	0.0237537
709.754	0.0244086
709.832	0.0249816
709.910	0.0250808
709.988	0.0252928
710.067	0.0253244
710.145	0.0252802
710.223	0.0250856
710.301	0.0247419
710.379	0.0246854
710.457	0.0242029
710.535	0.0240047
710.613	0.0234568
710.692	0.0231339
710.770	0.0229013
710.848	0.0224715
710.926	0.0219694
711.004	0.0213934
711.082	0.0205825
711.160	0.0199870
711.238	0.0194007
711.317	0.0186286
711.395	0.0178197
711.473	0.0171102
711.551	0.0165742
711.629	0.0158978
711.707	0.0155869
711.785	0.0149426
711.863	0.0147063
711.942	0.0145705
712.020	0.0143703
712.098	0.0143503
712.176	0.0144102
712.254	0.0145312
712.332	0.0147571
712.410	0.0147744
712.488	0.0150258
712.567	0.0151270
712.645	0.0151804
712.723	0.0152203
712.801	0.0152380
712.879	0.0151750
712.957	0.0152750
713.035	0.0152296
713.113	0.0149953
713.192	0.0150422
713.270	0.0149191
713.348	0.0145652
713.426	0.0148043
713.504	0.0149076
713.582	0.0149907
713.660	0.0149816
713.738	0.0151867
713.817	0.0154002
713.895	0.0156215
713.973	0.0156929
714.051	0.0158957
714.129	0.0162531
714.207	0.0162606
714.285	0.0162885
714.363	0.0165556
714.442	0.0167007
714.520	0.0166599
714.598	0.0166181
714.676	0.0165536
714.754	0.0166657
714.832	0.0167451
714.910	0.0167657
714.988	0.0168214
715.067	0.0171187
715.145	0.0174142
715.223	0.0175090
715.301	0.0177481
715.379	0.0181347
715.457	0.0185487
715.535	0.0187378
715.613	0.0190286
715.692	0.0194923
715.770	0.0195824
715.848	0.0199605
715.926	0.0201067
716.004	0.0203715
716.082	0.0203970
716.160	0.0206042
716.238	0.0207227
716.317	0.0206783
716.395	0.0206863
716.473	0.0206203
716.551	0.0204920
716.629	0.0204032
716.707	0.0200573
716.785	0.0197984
716.863	0.0196154
716.942	0.0192422
717.020	0.0188478
717.098	0.0183699
717.176	0.0180822
717.254	0.0177366
717.332	0.0173353
717.410	0.0172511
717.488	0.0172046
717.567	0.0169753
717.645	0.0171537
717.723	0.0172200
717.801	0.0173415
717.879	0.0175741
717.957	0.0176725
718.035	0.0176942
718.113	0.0178834
718.192	0.0179602
718.270	0.0180358
718.348	0.0177657
718.426	0.0176059
718.504	0.0172302
718.582	0.0168055
718.660	0.0164243
718.738	0.0159714
718.817	0.0154198
718.895	0.0151624
718.973	0.0146487
719.051	0.0143365
719.129	0.0140893
719.207	0.0140448
719.285	0.0139445
719.363	0.0138603
719.442	0.0141613
719.520	0.0143652
719.598	0.0144992
719.676	0.0148985
719.754	0.0151349
719.832	0.0156607
719.910	0.0157459
719.988	0.0161348
720.067	0.0163695
720.145	0.0166206
720.223	0.0169279
720.301	0.0171342
720.379	0.0173729
720.457	0.0176138
720.535	0.0178119
720.613	0.0179715
720.692	0.0182606
720.770	0.0184092
720.848	0.0186250
720.926	0.0186015
721.004	0.0185833
721.082	0.0185768
721.160	0.0185589
721.238	0.0183981
721.317	0.0183743
721.395	0.0183970
721.473	0.0184908
721.551	0.0184313
721.629	0.0183997
721.707	0.0183161
721.785	0.0186243
721.863	0.0186971
721.942	0.0186025
722.020	0.0187334
722.098	0.0188532
722.176	0.0188932
722.254	0.0188927
722.332	0.0190139
722.410	0.0190115
722.488	0.0190150
722.567	0.0188741
722.645	0.0189285
722.723	0.0190051
722.801	0.0188936
722.879	0.0187425
722.957	0.0186722
723.035	0.0185750
723.113	0.0185020
723.192	0.0184922
723.270	0.0183646
723.348	0.0180894
723.426	0.0179337
723.504	0.0177116
723.582	0.0175993
723.660	0.0174747
723.738	0.0173341
723.817	0.0171651
723.895	0.0169848
723.973	0.0169447
724.051	0.0167797
724.129	0.0166679
724.207	0.0166454
724.285	0.0164714
724.363	0.0164945
724.442	0.0165246
724.520	0.0164766
724.598	0.0165947
724.676	0.0166283
724.754	0.0165814
724.832	0.0167656
724.910	0.0167239
724.988	0.0166368
725.067	0.0168136
725.145	0.0168096
725.223	0.0166466
725.301	0.0167818
725.379	0.0166911
725.457	0.0166181
725.535	0.0164627
725.613	0.0164119
725.692	0.0161987
725.770	0.0162973
725.848	0.0162773
725.926	0.0161871
726.004	0.0160896
726.082	0.0161827
726.160	0.0163190
726.238	0.0164253
726.317	0.0164777
726.395	0.0166797
726.473	0.0169364
726.551	0.0171763
726.629	0.0172112
726.707	0.0174303
726.785	0.0174590
726.863	0.0176590
726.942	0.0179253
727.020	0.0180436
727.098	0.0180462
727.176	0.0183037
727.254	0.0182134
727.332	0.0182098
727.410	0.0183211
727.488	0.0182141
727.567	0.0181501
727.645	0.0181622
727.723	0.0181586
727.801	0.0180507
727.879	0.0178669
727.957	0.0180212
728.035	0.0180669
728.113	0.0177108
728.192	0.0177156
728.270	0.0177361
728.348	0.0177518
728.426	0.0178793
728.504	0.0177578
728.582	0.0176647
728.660	0.0177271
728.738	0.0176188
728.817	0.0177271
728.895	0.0177559
728.973	0.0177295
729.051	0.0178206
729.129	0.0177316
729.207	0.0176266
729.285	0.0177105
729.363	0.0176287
729.442	0.0176235
729.520	0.0177044
729.598	0.0175916
729.676	0.0174746
729.754	0.0174012
729.832	0.0171530
729.910	0.0172192
729.988	0.0172004
730.067	0.0172808
730.145	0.0173763
730.223	0.0172939
730.301	0.0174899
730.379	0.0175993
730.457	0.0176298
730.535	0.0177544
730.613	0.0179165
730.692	0.0180521
730.770	0.0182098
730.848	0.0182043
730.926	0.0182529
731.004	0.0182048
731.082	0.0181681
731.160	0.0181584
731.238	0.0177067
731.317	0.0178570
731.395	0.0175777
731.473	0.0171973
731.551	0.0171027
731.629	0.0167953
731.707	0.0165854
731.785	0.0164596
731.863	0.0164221
731.942	0.0162875
732.020	0.0163170
732.098	0.0163273
732.176	0.0163426
732.254	0.0162442
732.332	0.0163673
732.410	0.0165182
732.488	0.0165893
732.567	0.0165926
732.645	0.0167919
732.723	0.0167188
732.801	0.0165607
732.879	0.0168375
732.957	0.0165334
733.035	0.0165296
733.113	0.0165430
733.192	0.0165370
733.270	0.0165708
733.348	0.0166150
733.426	0.0166846
733.504	0.0166090
733.582	0.0167378
733.660	0.0167479
733.738	0.0168751
733.817	0.0169571
733.895	0.0168742
733.973	0.0170403
734.051	0.0172634
734.129	0.0173842
734.207	0.0174213
734.285	0.0176677
734.363	0.0178912
734.442	0.0181382
734.520	0.0183418
734.598	0.0185514
734.676	0.0185849
734.754	0.0187589
734.832	0.0188702
734.910	0.0190719
734.988	0.0191866
735.067	0.0191570
735.145	0.0191398
735.223	0.0190491
735.301	0.0188997
735.379	0.0187554
735.457	0.0186691
735.535	0.0184102
735.613	0.0182253
735.692	0.0180489
735.770	0.0177942
735.848	0.0177513
735.926	0.0175903
736.004	0.0174310
736.082	0.0171631
736.160	0.0172382
736.238	0.0172720
736.317	0.0171700
736.395	0.0174379
736.473	0.0172861
736.551	0.0173405
736.629	0.0173152
736.707	0.0175525
736.785	0.0175141
736.863	0.0175275
736.942	0.0174449
737.020	0.0173647
737.098	0.0171227
737.176	0.0170720
737.254	0.0169721
737.332	0.0168806
737.410	0.0166414
737.488	0.0165142
737.567	0.0161917
737.645	0.0160567
737.723	0.0158857
737.801	0.0158370
737.879	0.0157793
737.957	0.0158354
738.035	0.0158883
738.113	0.0159391
738.192	0.0160899
738.270	0.0162603
738.348	0.0165765
738.426	0.0168012
738.504	0.0171730
738.582	0.0176131
738.660	0.0179959
738.738	0.0182516
738.817	0.0184858
738.895	0.0187663
738.973	0.0190256
739.051	0.0191527
739.129	0.0192023
739.207	0.0191119
739.285	0.0189912
739.363	0.0188898
739.442	0.0188075
739.520	0.0184623
739.598	0.0180956
739.676	0.0176741
739.754	0.0173748
739.832	0.0172031
739.910	0.0170746
739.988	0.0166959
740.067	0.0166193
740.145	0.0164508
740.223	0.0164149
740.301	0.0164473
740.379	0.0166044
740.457	0.0167418
740.535	0.0169658
740.613	0.0172977
740.692	0.0174821
740.770	0.0175639
740.848	0.0178625
740.926	0.0180331
741.004	0.0179070
741.082	0.0180517
741.160	0.0180087
741.238	0.0180148
741.317	0.0179146
741.395	0.0177204
741.473	0.0176516
741.551	0.0175040
741.629	0.0170646
741.707	0.0169907
741.785	0.0167856
741.863	0.0165495
741.942	0.0163367
742.020	0.0163593
742.098	0.0161500
742.176	0.0161645
742.254	0.0162617
742.332	0.0163813
742.410	0.0165743
742.488	0.0169559
742.567	0.0169797
742.645	0.0172683
742.723	0.0176488
742.801	0.0180034
742.879	0.0183602
742.957	0.0188312
743.035	0.0188729
743.113	0.0191337
743.192	0.0193214
743.270	0.0193743
743.348	0.0195020
743.426	0.0192400
743.504	0.0191237
743.582	0.0191207
743.660	0.0188854
743.738	0.0186778
743.817	0.0183507
743.895	0.0180791
743.973	0.0176886
744.051	0.0175707
744.129	0.0173019
744.207	0.0170211
744.285	0.0168351
744.363	0.0166985
744.442	0.0166701
744.520	0.0165522
744.598	0.0163796
744.676	0.0165775
744.754	0.0166653
744.832	0.0165675
744.910	0.0167007
744.988	0.0168066
745.067	0.0170266
745.145	0.0170998
745.223	0.0172512
745.301	0.0173293
745.379	0.0173262
745.457	0.0173556
745.535	0.0174064
745.613	0.0174498
745.692	0.0173634
745.770	0.0173082
745.848	0.0173227
745.926	0.0172369
746.004	0.0172324
746.082	0.0173602
746.160	0.0171300
746.238	0.0171374
746.317	0.0170699
746.395	0.0169369
746.473	0.0168801
746.551	0.0170143
746.629	0.0170773
746.707	0.0171029
746.785	0.0170267
746.863	0.0173019
746.942	0.0174694
747.020	0.0173869
747.098	0.0174634
747.176	0.0177380
747.254	0.0178079
747.332	0.0177665
747.410	0.0178852
747.488	0.0178696
747.567	0.0178448
747.645	0.0178233
747.723	0.0178421
747.801	0.0177777
747.879	0.0176836
747.957	0.0175026
748.035	0.0172171
748.113	0.0170885
748.192	0.0168756
748.270	0.0169014
748.348	0.0168592
748.426	0.0168088
748.504	0.0167571
748.582	0.0166106
748.660	0.0166454
748.738	0.0170741
748.817	0.0170180
748.895	0.0171939
748.973	0.0175944
749.051	0.0177557
749.129	0.0178764
749.207	0.0180583
749.285	0.0183326
749.363	0.0185752
749.442	0.0186429
749.520	0.0187605
749.598	0.0188531
749.676	0.0186010
749.754	0.0187289
749.832	0.0186992
749.910	0.0184353
749.988	0.0182912
750.067	0.0180178
750.145	0.0177271
750.223	0.0176589
750.301	0.0173126
750.379	0.0171582
750.457	0.0169230
750.535	0.0167468
750.613	0.0166026
750.692	0.0166436
750.770	0.0167133
750.848	0.0168731
750.926	0.0169035
751.004	0.0169118
751.082	0.0171354
751.160	0.0173405
751.238	0.0176265
751.317	0.0177998
751.395	0.0177560
751.473	0.0179220
751.551	0.0180340
751.629	0.0179905
751.707	0.0181818
751.785	0.0180779
751.863	0.0179710
751.942	0.0177973
752.020	0.0177209
752.098	0.0176167
752.176	0.0175125
752.254	0.0173327
752.332	0.0172565
752.410	0.0171358
752.488	0.0169996
752.567	0.0168059
752.645	0.0167085
752.723	0.0169970
752.801	0.0167630
752.879	0.0167994
752.957	0.0167961
753.035	0.0170421
753.113	0.0171911
753.192	0.0171409
753.270	0.0172515
753.348	0.0173505
753.426	0.0174830
753.504	0.0177164
753.582	0.0176604
753.660	0.0178249
753.738	0.0179377
753.817	0.0180279
753.895	0.0179337
753.973	0.0180007
754.051	0.0178965
754.129	0.0178783
754.207	0.0177350
754.285	0.0177778
754.363	0.0176151
754.442	0.0174757
754.520	0.0174132
754.598	0.0173492
754.676	0.0171963
754.754	0.0170915
754.832	0.0169698
754.910	0.0168847
754.988	0.0167120
755.067	0.0165906
755.145	0.0166093
755.223	0.0165369
755.301	0.0166637
755.379	0.0165708
755.457	0.0165630
755.535	0.0167340
755.613	0.0167262
755.692	0.0168607
755.770	0.0170171
755.848	0.0171917
755.926	0.0172478
756.004	0.0173801
756.082	0.0173791
756.160	0.0177429
756.238	0.0178639
756.317	0.0178616
756.395	0.0178333
756.473	0.0178236
756.551	0.0178814
756.629	0.0179585
756.707	0.0178637
756.785	0.0177534
756.863	0.0178327
756.942	0.0177694
757.020	0.0175671
757.098	0.0175998
757.176	0.0176658
757.254	0.0176433
757.332	0.0176636
757.410	0.0177615
757.488	0.0176402
757.567	0.0177805
757.645	0.0179008
757.723	0.0179481
757.801	0.0179374
757.879	0.0179343
757.957	0.0180103
758.035	0.0178154
758.113	0.0180669
758.192	0.0180220
758.270	0.0178708
758.348	0.0179272
758.426	0.0178128
758.504	0.0177614
758.582	0.0176966
758.660	0.0175898
758.738	0.0175150
758.817	0.0173403
758.895	0.0171861
758.973	0.0170060
759.051	0.0170142
759.129	0.0170135
759.207	0.0171219
759.285	0.0170712
759.363	0.0168733
759.442	0.0170139
759.520	0.0170670
759.598	0.0171323
759.676	0.0172006
759.754	0.0172072
759.832	0.0171529
759.910	0.0173050
759.988	0.0172112
760.067	0.0171064
760.145	0.0173560
760.223	0.0172970
760.301	0.0170995
760.379	0.0171949
760.457	0.0172703
760.535	0.0171584
760.613	0.0170019
760.692	0.0169766
760.770	0.0169772
760.848	0.0169498
760.926	0.0169709
761.004	0.0169310
761.082	0.0169202
761.160	0.0169476
761.238	0.0169653
761.317	0.0169296
761.395	0.0171314
761.473	0.0171523
761.551	0.0172186
761.629	0.0171214
761.707	0.0174777
761.785	0.0175198
761.863	0.0175597
761.942	0.0175945
762.020	0.0176237
762.098	0.0177235
762.176	0.0178088
762.254	0.0176263
762.332	0.0177503
762.410	0.0178047
762.488	0.0177472
762.567	0.0177488
762.645	0.0177069
762.723	0.0178778
762.801	0.0177036
762.879	0.0176000
762.957	0.0175994
763.035	0.0176804
763.113	0.0174146
763.192	0.0175274
763.270	0.0174181
763.348	0.0172147
763.426	0.0171431
763.504	0.0170973
763.582	0.0172160
763.660	0.0170175
763.738	0.0169413
763.817	0.0168759
763.895	0.0168217
763.973	0.0170039
764.051	0.0170786
764.129	0.0170540
764.207	0.0170796
764.285	0.0171975
764.363	0.0173112
764.442	0.0174919
764.520	0.0176794
764.598	0.0177333
764.676	0.0176675
764.754	0.0178254
764.832	0.0179008
764.910	0.0179326
764.988	0.0179939
765.067	0.0179948
765.145	0.0179828
765.223	0.0180049
765.301	0.0178355
765.379	0.0179451
765.457	0.0179215
765.535	0.0177473
765.613	0.0177344
765.692	0.0175089
765.770	0.0175116
765.848	0.0176218
765.926	0.0176115
766.004	0.0174545
766.082	0.0174629
766.160	0.0174018
766.238	0.0174632
766.317	0.0175716
766.395	0.0176078
766.473	0.0176371
766.551	0.0175333
766.629	0.0176497
766.707	0.0177901
766.785	0.0179073
766.863	0.0178202
766.942	0.0178785
767.020	0.0178925
767.098	0.0177345
767.176	0.0177016
767.254	0.0176485
767.332	0.0177004
767.410	0.0174591
767.488	0.0174972
767.567	0.0173336
767.645	0.0172764
767.723	0.0171171
767.801	0.0171265
767.879	0.0169391
767.957	0.0169769
768.035	0.0168941
768.113	0.0167335
768.192	0.0169118
768.270	0.0168079
768.348	0.0167252
768.426	0.0167102
768.504	0.0168658
768.582	0.0168132
768.660	0.0168204
768.738	0.0169705
768.817	0.0169252
768.895	0.0171223
768.973	0.0170227
769.051	0.0172754
769.129	0.0170891
769.207	0.0171379
769.285	0.0171235
769.363	0.0172591
769.442	0.0173049
769.520	0.0173751
769.598	0.0173434
769.676	0.0173370
769.754	0.0172671
769.832	0.0172501
769.910	0.0173522
769.988	0.0172193
770.067	0.0173315
770.145	0.0174603
770.223	0.0174361
770.301	0.0172530
770.379	0.0174180
770.457	0.0175971
770.535	0.0174958
770.613	0.0177438
770.692	0.0176146
770.770	0.0177567
770.848	0.0178189
770.926	0.0179297
771.004	0.0180888
771.082	0.0180174
771.160	0.0179917
771.238	0.0180209
771.317	0.0180812
771.395	0.0178912
771.473	0.0181567
771.551	0.0181156
771.629	0.0179988
771.707	0.0179545
771.785	0.0179285
771.863	0.0178848
771.942	0.0178354
772.020	0.0176696
772.098	0.0177135
772.176	0.0174997
772.254	0.0173256
772.332	0.0173173
772.410	0.0173256
772.488	0.0171703
772.567	0.0171916
772.645	0.0171723
772.723	0.0172009
772.801	0.0173018
772.879	0.0172260
772.957	0.0171265
773.035	0.0171517
773.113	0.0172193
773.192	0.0174814
773.270	0.0174056
773.348	0.0174489
773.426	0.0174715
773.504	0.0175856
773.582	0.0175114
773.660	0.0175924
773.738	0.0175020
773.817	0.0175153
773.895	0.0173743
773.973	0.0174348
774.051	0.0175141
774.129	0.0173983
774.207	0.0174883
774.285	0.0173679
774.363	0.0174033
774.442	0.0173492
774.520	0.0174010
774.598	0.0175179
774.676	0.0174874
774.754	0.0175336
774.832	0.0174405
774.910	0.0172740
774.988	0.0172446
775.067	0.0173241
775.145	0.0173504
775.223	0.0173154
775.301	0.0172387
775.379	0.0173384
775.457	0.0172142
775.535	0.0173569
775.613	0.0172619
775.692	0.0172775
775.770	0.0173610
775.848	0.0171872
775.926	0.0172927
776.004	0.0174900
776.082	0.0174908
776.160	0.0173761
776.238	0.0173709
776.317	0.0174628
776.395	0.0174139
776.473	0.0175135
776.551	0.0173803
776.629	0.0173927
776.707	0.0173070
776.785	0.0173077
776.863	0.0172221
776.942	0.0173228
777.020	0.0172795
777.098	0.0171122
777.176	0.0169353
777.254	0.0170588
777.332	0.0170854
777.410	0.0169441
777.488	0.0169852
777.567	0.0169871
777.645	0.0168789
777.723	0.0168970
777.801	0.0169672
777.879	0.0169003
777.957	0.0170870
778.035	0.0168827
778.113	0.0169403
778.192	0.0172070
778.270	0.0172035
778.348	0.0173203
778.426	0.0172901
778.504	0.0173141
778.582	0.0174792
778.660	0.0175056
778.738	0.0175639
778.817	0.0176951
778.895	0.0176059
778.973	0.0178184
779.051	0.0178793
779.129	0.0177705
779.207	0.0178117
779.285	0.0177708
779.363	0.0179147
779.442	0.0178977
779.520	0.0179639
779.598	0.0180978
779.676	0.0178011
779.754	0.0179439
779.832	0.0181295
779.910	0.0179211
779.988	0.0179448
780.067	0.0181812
780.145	0.0179778
780.223	0.0180952
780.301	0.0180197
780.379	0.0178536
780.457	0.0180231
780.535	0.0180158
780.613	0.0178650
780.692	0.0177824
780.770	0.0178548
780.848	0.0176775
780.926	0.0175401
781.004	0.0176048
781.082	0.0176098
781.160	0.0174415
781.238	0.0174303
781.317	0.0172539
781.395	0.0172531
781.473	0.0173427
781.551	0.0172521
781.629	0.0173345
781.707	0.0173085
781.785	0.0172263
781.863	0.0171076
781.942	0.0171011
782.020	0.0171786
782.098	0.0172169
782.176	0.0170684
782.254	0.0170147
782.332	0.0170260
782.410	0.0169906
782.488	0.0169176
782.567	0.0167612
782.645	0.0167531
782.723	0.0167681
782.801	0.0167583
782.879	0.0166901
782.957	0.0165901
783.035	0.0166523
783.113	0.0165971
783.192	0.0166377
783.270	0.0167168
783.348	0.0167219
783.426	0.0168208
783.504	0.0169961
783.582	0.0170013
783.660	0.0173599
783.738	0.0174386
783.817	0.0174185
783.895	0.0178117
783.973	0.0178149
784.051	0.0178075
784.129	0.0177837
784.207	0.0180549
784.285	0.0180504
784.363	0.0181439
784.442	0.0181770
784.520	0.0180444
784.598	0.0180738
784.676	0.0180019
784.754	0.0179842
784.832	0.0179239
784.910	0.0178411
784.988	0.0176669
785.067	0.0175109
785.145	0.0175956
785.223	0.0173778
785.301	0.0172802
785.379	0.0171594
785.457	0.0171749
785.535	0.0170770
785.613	0.0170821
785.692	0.0170451
785.770	0.0169704
785.848	0.0171850
785.926	0.0171809
786.004	0.0172443
786.082	0.0172358
786.160	0.0174047
786.238	0.0174035
786.317	0.0175844
786.395	0.0175359
786.473	0.0175561
786.551	0.0176556
786.629	0.0177110
786.707	0.0176152
786.785	0.0176064
786.863	0.0175887
786.942	0.0176324
787.020	0.0175237
787.098	0.0174793
787.176	0.0174741
787.254	0.0174141
787.332	0.0172756
787.410	0.0172229
787.488	0.0170890
787.567	0.0172096
787.645	0.0171918
787.723	0.0170210
787.801	0.0171101
787.879	0.0172495
787.957	0.0170538
788.035	0.0171049
788.113	0.0171105
788.192	0.0171357
788.270	0.0173675
788.348	0.0174084
788.426	0.0172917
788.504	0.0172479
788.582	0.0173408
788.660	0.0174601
788.738	0.0175592
788.817	0.0175241
788.895	0.0175340
788.973	0.0176257
789.051	0.0175366
789.129	0.0174985
789.207	0.0176086
789.285	0.0177353
789.363	0.0177146
789.442	0.0176255
789.520	0.0175634
789.598	0.0175594
789.676	0.0177679
789.754	0.0177329
789.832	0.0177747
789.910	0.0179085
789.988	0.0179285
790.067	0.0179913
790.145	0.0180370
790.223	0.0183449
790.301	0.0183860
790.379	0.0183315
790.457	0.0183516
790.535	0.0184299
790.613	0.0183153
790.692	0.0182170
790.770	0.0183637
790.848	0.0180896
790.926	0.0179758
791.004	0.0178947
791.082	0.0175272
791.160	0.0173666
791.238	0.0170049
791.317	0.0166382
791.395	0.0164774
791.473	0.0162069
791.551	0.0160038
791.629	0.0159657
791.707	0.0157140
791.785	0.0154330
791.863	0.0155920
791.942	0.0154633
792.020	0.0154096
792.098	0.0154750
792.176	0.0154464
792.254	0.0154978
792.332	0.0157687
792.410	0.0159599
792.488	0.0161510
792.567	0.0162204
792.645	0.0165653
792.723	0.0170002
792.801	0.0171134
792.879	0.0173371
792.957	0.0176760
793.035	0.0179249
793.113	0.0181207
793.192	0.0183133
793.270	0.0184380
793.348	0.0186742
793.426	0.0188424
793.504	0.0188341
793.582	0.0190887
793.660	0.0192010
793.738	0.0192419
793.817	0.0193336
793.895	0.0193546
793.973	0.0192389
794.051	0.0191964
794.129	0.0194916
794.207	0.0193818
794.285	0.0192520
794.363	0.0191132
794.442	0.0192184
794.520	0.0189175
794.598	0.0188319
794.676	0.0187725
794.754	0.0185593
794.832	0.0182165
794.910	0.0179507
794.988	0.0178072
795.067	0.0174734
795.145	0.0170646
795.223	0.0169388
795.301	0.0166117
795.379	0.0162906
795.457	0.0160591
795.535	0.0156240
795.613	0.0153947
795.692	0.0152892
795.770	0.0151501
795.848	0.0148701
795.926	0.0148532
796.004	0.0148458
796.082	0.0146491
796.160	0.0148576
796.238	0.0148724
796.317	0.0150701
796.395	0.0153238
796.473	0.0153328
796.551	0.0155814
796.629	0.0160096
796.707	0.0162561
796.785	0.0165093
796.863	0.0171045
796.942	0.0172916
797.020	0.0176608
797.098	0.0180486
797.176	0.0183691
797.254	0.0186485
797.332	0.0189367
797.410	0.0190993
797.488	0.0191683
797.567	0.0193617
797.645	0.0194392
797.723	0.0195512
797.801	0.0196032
797.879	0.0196200
797.957	0.0196429
798.035	0.0195204
798.113	0.0193429
798.192	0.0194199
798.270	0.0192378
798.348	0.0192359
798.426	0.0189761
798.504	0.0190704
798.582	0.0187907
798.660	0.0185558
798.738	0.0186346
798.817	0.0183585
798.895	0.0183096
798.973	0.0180688
799.051	0.0177415
799.129	0.0175014
799.207	0.0172603
799.285	0.0168962
799.363	0.0166975
799.442	0.0164597
799.520	0.0161649
799.598	0.0158401
799.676	0.0154683
799.754	0.0153579
799.832	0.0149409
799.910	0.0148296
799.988	0.0147124
800.067	0.0144278
800.145	0.0144162
800.223	0.0144215
800.301	0.0144444
800.379	0.0144357
800.457	0.0144984
800.535	0.0148499
800.613	0.0150152
800.692	0.0154945
800.770	0.0157008
800.848	0.0161115
800.926	0.0164028
801.004	0.0168475
801.082	0.0173125
801.160	0.0176270
801.238	0.0180510
801.317	0.0182954
801.395	0.0187660
801.473	0.0188281
801.551	0.0191463
801.629	0.0191281
801.707	0.0194394
801.785	0.0196204
801.863	0.0195741
801.942	0.0198083
802.020	0.0197906
802.098	0.0196433
802.176	0.0196847
802.254	0.0195232
802.332	0.0197141
802.410	0.0196188
802.488	0.0193136
802.567	0.0192636
802.645	0.0192715
802.723	0.0191495
802.801	0.0191367
802.879	0.0189946
802.957	0.0187325
803.035	0.0186053
803.113	0.0184589
803.192	0.0182348
803.270	0.0180647
803.348	0.0178580
803.426	0.0175414
803.504	0.0173824
803.582	0.0170278
803.660	0.0168868
803.738	0.0166779
803.817	0.0164516
803.895	0.0161766
803.973	0.0160025
804.051	0.0158419
804.129	0.0157176
804.207	0.0155512
804.285	0.0153497
804.363	0.0153134
804.442	0.0154030
804.520	0.0153379
804.598	0.0154049
804.676	0.0156135
804.754	0.0155646
804.832	0.0157020
804.910	0.0157558
804.988	0.0158480
805.067	0.0161206
805.145	0.0162043
805.223	0.0165555
805.301	0.0165763
805.379	0.0166605
805.457	0.0168838
805.535	0.0170141
805.613	0.0172068
805.692	0.0171304
805.770	0.0173936
805.848	0.0176308
805.926	0.0175855
806.004	0.0176953
806.082	0.0179078
806.160	0.0179333
806.238	0.0179348
806.317	0.0180827
806.395	0.0182473
806.473	0.0182576
806.551	0.0182927
806.629	0.0184007
806.707	0.0185069
806.785	0.0183867
806.863	0.0185744
806.942	0.0184335
807.020	0.0185179
807.098	0.0186362
807.176	0.0184768
807.254	0.0184913
807.332	0.0185033
807.410	0.0183189
807.488	0.0182684
807.567	0.0181747
807.645	0.0179742
807.723	0.0179054
807.801	0.0178858
807.879	0.0177062
807.957	0.0176663
808.035	0.0175238
808.113	0.0175991
808.192	0.0175539
808.270	0.0173565
808.348	0.0174384
808.426	0.0173293
808.504	0.0172199
808.582	0.0172464
808.660	0.0172569
808.738	0.0173081
808.817	0.0170724
808.895	0.0172076
808.973	0.0172500
809.051	0.0172784
809.129	0.0171165
809.207	0.0172113
809.285	0.0172514
809.363	0.0171623
809.442	0.0171069
809.520	0.0170045
809.598	0.0171433
809.676	0.0170971
809.754	0.0171873
809.832	0.0172270
809.910	0.0172110
809.988	0.0173656
810.067	0.0173403
810.145	0.0172149
810.223	0.0174229
810.301	0.0173592
810.379	0.0175189
810.457	0.0174463
810.535	0.0173884
810.613	0.0173221
810.692	0.0173986
810.770	0.0172311
810.848	0.0172327
810.926	0.0171049
811.004	0.0171339
811.082	0.0169299
811.160	0.0169135
811.238	0.0169164
811.317	0.0168404
811.395	0.0167888
811.473	0.0168202
811.551	0.0168168
811.629	0.0168893
811.707	0.0169109
811.785	0.0168793
811.863	0.0168456
811.942	0.0170538
812.020	0.0171716
812.098	0.0173611
812.176	0.0173176
812.254	0.0173540
812.332	0.0174898
812.410	0.0175532
812.488	0.0175722
812.567	0.0176364
812.645	0.0177914
812.723	0.0177666
812.801	0.0180531
812.879	0.0179449
812.957	0.0180151
813.035	0.0180653
813.113	0.0180138
813.192	0.0181348
813.270	0.0180791
813.348	0.0180206
813.426	0.0180475
813.504	0.0180684
813.582	0.0181445
813.660	0.0182025
813.738	0.0181580
813.817	0.0181528
813.895	0.0181227
813.973	0.0180541
814.051	0.0180777
814.129	0.0181187
814.207	0.0181595
814.285	0.0180614
814.363	0.0180111
814.442	0.0180453
814.520	0.0179224
814.598	0.0178049
814.676	0.0178300
814.754	0.0177666
814.832	0.0177520
814.910	0.0175756
814.988	0.0175447
815.067	0.0174853
815.145	0.0174065
815.223	0.0172554
815.301	0.0171088
815.379	0.0170048
815.457	0.0168937
815.535	0.0167526
815.613	0.0166712
815.692	0.0167372
815.770	0.0166164
815.848	0.0166204
815.926	0.0165172
816.004	0.0164510
816.082	0.0164269
816.160	0.0163627
816.238	0.0163815
816.317	0.0164010
816.395	0.0165054
816.473	0.0165492
816.551	0.0165366
816.629	0.0165092
816.707	0.0165804
816.785	0.0165102
816.863	0.0167641
816.942	0.0167747
817.020	0.0167380
817.098	0.0168690
817.176	0.0169179
817.254	0.0172516
817.332	0.0173331
817.410	0.0174008
817.488	0.0174108
817.567	0.0176457
817.645	0.0176852
817.723	0.0178751
817.801	0.0179887
817.879	0.0180904
817.957	0.0181826
818.035	0.0182271
818.113	0.0182854
818.192	0.0183457
818.270	0.0184839
818.348	0.0184869
818.426	0.0184396
818.504	0.0185239
818.582	0.0184467
818.660	0.0185315
818.738	0.0184031
818.817	0.0184930
818.895	0.0184444
818.973	0.0182569
819.051	0.0181831
819.129	0.0182215
819.207	0.0180553
819.285	0.0181147
819.363	0.0179010
819.442	0.0180054
819.520	0.0179977
819.598	0.0178483
819.676	0.0176884
819.754	0.0176971
819.832	0.0176952
819.910	0.0176659
819.988	0.0175042
820.067	0.0174089
820.145	0.0174553
820.223	0.0173850
820.301	0.0173253
820.379	0.0173631
820.457	0.0171577
820.535	0.0172546
820.613	0.0171758
820.692	0.0169861
820.770	0.0169228
820.848	0.0168856
820.926	0.0167579
821.004	0.0166866
821.082	0.0166434
821.160	0.0167332
821.238	0.0166047
821.317	0.0165511
821.395	0.0165885
821.473	0.0166785
821.551	0.0166759
821.629	0.0167684
821.707	0.0167648
821.785	0.0169637
821.863	0.0168875
821.942	0.0170232
822.020	0.0169971
822.098	0.0170501
822.176	0.0171651
822.254	0.0171542
822.332	0.0171715
822.410	0.0171709
822.488	0.0173947
822.567	0.0175034
822.645	0.0175283
822.723	0.0175599
822.801	0.0177066
822.879	0.0177209
822.957	0.0176537
823.035	0.0178250
823.113	0.0179411
823.192	0.0179415
823.270	0.0178764
823.348	0.0178941
823.426	0.0179813
823.504	0.0178518
823.582	0.0178320
823.660	0.0177304
823.738	0.0178355
823.817	0.0177254
823.895	0.0178280
823.973	0.0176197
824.051	0.0176557
824.129	0.0176426
824.207	0.0177367
824.285	0.0176677
824.363	0.0176358
824.442	0.0177483
824.520	0.0177180
824.598	0.0177695
824.676	0.0176559
824.754	0.0176756
824.832	0.0176003
824.910	0.0176139
824.988	0.0176917
825.067	0.0176752
825.145	0.0175082
825.223	0.0175720
825.301	0.0175307
825.379	0.0173914
825.457	0.0172807
825.535	0.0172644
825.613	0.0172028
825.692	0.0171931
825.770	0.0171437
825.848	0.0173026
825.926	0.0171966
826.004	0.0170916
826.082	0.0172162
826.160	0.0172052
826.238	0.0171628
826.317	0.0172618
826.395	0.0172853
826.473	0.0172826
826.551	0.0173524
826.629	0.0174773
826.707	0.0174628
826.785	0.0176972
826.863	0.0174911
826.942	0.0175596
827.020	0.0176805
827.098	0.0176197
827.176	0.0175792
827.254	0.0175913
827.332	0.0175851
827.410	0.0174567
827.488	0.0175194
827.567	0.0173734
827.645	0.0174695
827.723	0.0172892
827.801	0.0172050
827.879	0.0172495
827.957	0.0171728
828.035	0.0171557
828.113	0.0171784
828.192	0.0172123
828.270	0.0171749
828.348	0.0170622
828.426	0.0172657
828.504	0.0172696
828.582	0.0172292
828.660	0.0173538
828.738	0.0174303
828.817	0.0173808
828.895	0.0173862
828.973	0.0174123
829.051	0.0175414
829.129	0.0174342
829.207	0.0173930
829.285	0.0174007
829.363	0.0173922
829.442	0.0174817
829.520	0.0173342
829.598	0.0173421
829.676	0.0172959
829.754	0.0171663
829.832	0.0171740
829.910	0.0172041
829.988	0.0173335
830.067	0.0171461
830.145	0.0173346
830.223	0.0173086
830.301	0.0174132
830.379	0.0174487
830.457	0.0174443
830.535	0.0176379
830.613	0.0176036
830.692	0.0176440
830.770	0.0176901
830.848	0.0178349
830.926	0.0179319
831.004	0.0177347
831.082	0.0177388
831.160	0.0177493
831.238	0.0178093
831.317	0.0177820
831.395	0.0175114
831.473	0.0177036
831.551	0.0178139
831.629	0.0175989
831.707	0.0175838
831.785	0.0176802
831.863	0.0175578
831.942	0.0173409
832.020	0.0173417
832.098	0.0174454
832.176	0.0173402
832.254	0.0172762
832.332	0.0172231
832.410	0.0171960
832.488	0.0172220
832.567	0.0172503
832.645	0.0172790
832.723	0.0172009
832.801	0.0171927
832.879	0.0170451
832.957	0.0170764
833.035	0.0171490
833.113	0.0170873
833.192	0.0170893
833.270	0.0170880
833.348	0.0170284
833.426	0.0171166
833.504	0.0170905
833.582	0.0171149
833.660	0.0171347
833.738	0.0171316
833.817	0.0171558
833.895	0.0173752
833.973	0.0173644
834.051	0.0172627
834.129	0.0175188
834.207	0.0175200
834.285	0.0176044
834.363	0.0175938
834.442	0.0176405
834.520	0.0178525
834.598	0.0178350
834.676	0.0179297
834.754	0.0180506
834.832	0.0178448
834.910	0.0178915
834.988	0.0181669
835.067	0.0180498
835.145	0.0181025
835.223	0.0181422
835.301	0.0181478
835.379	0.0180678
835.457	0.0180641
835.535	0.0179303
835.613	0.0179584
835.692	0.0179400
835.770	0.0177903
835.848	0.0178724
835.926	0.0176884
836.004	0.0175407
836.082	0.0176508
836.160	0.0174770
836.238	0.0172905
836.317	0.0172541
836.395	0.0172310
836.473	0.0172527
836.551	0.0171491
836.629	0.0170100
836.707	0.0170904
836.785	0.0170614
836.863	0.0170340
836.942	0.0170197
837.020	0.0170139
837.098	0.0170891
837.176	0.0170414
837.254	0.0169981
837.332	0.0169737
837.410	0.0169569
837.488	0.0169801
837.567	0.0170476
837.645	0.0170013
837.723	0.0171691
837.801	0.0170461
837.879	0.0169347
837.957	0.0171722
838.035	0.0171692
838.113	0.0172141
838.192	0.0172633
838.270	0.0171465
838.348	0.0173439
838.426	0.0173765
838.504	0.0175621
838.582	0.0173954
838.660	0.0174523
838.738	0.0177757
838.817	0.0177096
838.895	0.0176852
838.973	0.0175733
839.051	0.0177718
839.129	0.0178302
839.207	0.0177812
839.285	0.0179877
839.363	0.0178400
839.442	0.0179877
839.520	0.0180453
839.598	0.0180554
839.676	0.0180939
839.754	0.0180519
839.832	0.0179678
839.910	0.0181483
839.988	0.0181259
840.067	0.0178922
840.145	0.0178371
840.223	0.0179827
840.301	0.0180082
840.379	0.0176868
840.457	0.0176892
840.535	0.0177976
840.613	0.0175800
840.692	0.0175236
840.770	0.0175038
840.848	0.0174385
840.926	0.0173164
841.004	0.0171451
841.082	0.0170649
841.160	0.0168713
841.238	0.0168646
841.317	0.0167214
841.395	0.0168859
841.473	0.0168896
841.551	0.0166998
841.629	0.0166283
841.707	0.0166753
841.785	0.0167687
841.863	0.0168002
841.942	0.0166943
842.020	0.0168469
842.098	0.0168689
842.176	0.0169852
842.254	0.0171651
842.332	0.0171166
842.410	0.0170213
842.488	0.0171212
842.567	0.0173064
842.645	0.0174536
842.723	0.0174442
842.801	0.0174787
842.879	0.0176057
842.957	0.0176065
843.035	0.0177306
843.113	0.0177846
843.192	0.0178257
843.270	0.0180790
843.348	0.0179855
843.426	0.0180493
843.504	0.0180266
843.582	0.0179252
843.660	0.0179935
843.738	0.0180239
843.817	0.0180218
843.895	0.0179862
843.973	0.0180041
844.051	0.0179721
844.129	0.0180407
844.207	0.0179558
844.285	0.0178843
844.363	0.0179403
844.442	0.0179222
844.520	0.0177077
844.598	0.0176733
844.676	0.0176224
844.754	0.0176526
844.832	0.0177397
844.910	0.0174461
844.988	0.0172700
845.067	0.0174662
845.145	0.0171958
845.223	0.0172318
845.301	0.0172279
845.379	0.0169825
845.457	0.0170251
845.535	0.0171349
845.613	0.0171218
845.692	0.0169160
845.770	0.0170443
845.848	0.0170943
845.926	0.0169559
846.004	0.0169617
846.082	0.0170588
846.160	0.0169659
846.238	0.0168731
846.317	0.0170175
846.395	0.0170151
846.473	0.0169374
846.551	0.0169532
846.629	0.0169846
846.707	0.0171687
846.785	0.0170625
846.863	0.0171587
846.942	0.0169808
847.020	0.0172129
847.098	0.0173365
847.176	0.0171880
847.254	0.0173201
847.332	0.0172898
847.410	0.0173633
847.488	0.0173975
847.567	0.0173691
847.645	0.0173753
847.723	0.0175568
847.801	0.0176978
847.879	0.0176067
847.957	0.0175739
848.035	0.0175784
848.113	0.0176341
848.192	0.0177794
848.270	0.0178117
848.348	0.0177909
848.426	0.0178066
848.504	0.0177462
848.582	0.0178487
848.660	0.0178628
848.738	0.0177735
848.817	0.0178915
848.895	0.0178565
848.973	0.0176338
849.051	0.0178001
849.129	0.0176387
849.207	0.0177645
849.285	0.0176709
849.363	0.0175262
849.442	0.0174829
849.520	0.0175285
849.598	0.0174145
849.676	0.0175131
849.754	0.0174497
849.832	0.0172762
849.910	0.0172234
849.988	0.0173025
850.067	0.0172952
850.145	0.0173104
850.223	0.0172485
850.301	0.0173083
850.379	0.0172233
850.457	0.0171185
850.535	0.0173330
850.613	0.0172822
850.692	0.0173017
850.770	0.0173132
850.848	0.0173743
850.926	0.0172829
851.004	0.0172933
851.082	0.0174091
851.160	0.0173267
851.238	0.0173357
851.317	0.0173797
851.395	0.0173244
851.473	0.0173428
851.551	0.0173179
851.629	0.0174131
851.707	0.0172908
851.785	0.0172392
851.863	0.0172190
851.942	0.0172082
852.020	0.0171887
852.098	0.0172029
852.176	0.0171409
852.254	0.0171599
852.332	0.0172612
852.410	0.0172393
852.488	0.0173491
852.567	0.0173205
852.645	0.0173212
852.723	0.0173551
852.801	0.0174245
852.879	0.0175442
852.957	0.0175966
853.035	0.0174936
853.113	0.0174719
853.192	0.0176689
853.270	0.0176093
853.348	0.0176909
853.426	0.0176048
853.504	0.0177618
853.582	0.0176436
853.660	0.0176180
853.738	0.0176393
853.817	0.0174872
853.895	0.0175772
853.973	0.0175385
854.051	0.0175732
854.129	0.0175035
854.207	0.0176591
854.285	0.0175103
854.363	0.0175343
854.442	0.0173689
854.520	0.0174481
854.598	0.0174844
854.676	0.0174841
854.754	0.0174348
854.832	0.0175312
854.910	0.0174891
854.988	0.0174351
855.067	0.0174210
855.145	0.0174309
855.223	0.0174240
855.301	0.0173952
855.379	0.0174460
855.457	0.0173033
855.535	0.0173770
855.613	0.0173289
855.692	0.0174480
855.770	0.0172728
855.848	0.0172746
855.926	0.0172110
856.004	0.0172437
856.082	0.0171815
856.160	0.0172792
856.238	0.0171094
856.317	0.0172597
856.395	0.0172979
856.473	0.0172526
856.551	0.0171573
856.629	0.0171583
856.707	0.0171890
856.785	0.0172441
856.863	0.0172942
856.942	0.0172241
857.020	0.0173653
857.098	0.0173446
857.176	0.0174146
857.254	0.0174833
857.332	0.0173997
857.410	0.0174190
857.488	0.0174773
857.567	0.0177404
857.645	0.0176971
857.723	0.0174500
857.801	0.0176493
857.879	0.0175011
857.957	0.0175163
858.035	0.0176472
858.113	0.0173866
858.192	0.0173917
858.270	0.0175291
858.348	0.0174621
858.426	0.0174452
858.504	0.0172579
858.582	0.0174467
858.660	0.0173210
858.738	0.0173129
858.817	0.0174152
858.895	0.0174256
858.973	0.0172135
859.051	0.0174094
859.129	0.0174107
859.207	0.0174596
859.285	0.0174678
859.363	0.0174979
859.442	0.0173705
859.520	0.0176154
859.598	0.0173405
859.676	0.0174632
859.754	0.0175344
859.832	0.0175119
859.910	0.0176071
859.988	0.0175002
860.067	0.0175132
860.145	0.0175102
860.223	0.0173968
860.301	0.0173148
860.379	0.0173934
860.457	0.0173175
860.535	0.0172427
860.613	0.0171999
860.692	0.0172474
860.770	0.0172640
860.848	0.0171729
860.926	0.0172298
861.004	0.0173442
861.082	0.0174960
861.160	0.0174182
861.238	0.0174563
861.317	0.0175108
861.395	0.0175379
861.473	0.0173760
861.551	0.0174555
861.629	0.0175726
861.707	0.0176271
861.785	0.0176282
861.863	0.0175893
861.942	0.0176612
862.020	0.0176646
862.098	0.0175537
862.176	0.0175433
862.254	0.0174429
862.332	0.0174593
862.410	0.0174754
862.488	0.0174043
862.567	0.0174407
862.645	0.0172778
862.723	0.0170452
862.801	0.0171336
862.879	0.0172111
862.957	0.0170737
863.035	0.0170278
863.113	0.0170470
863.192	0.0169959
863.270	0.0169653
863.348	0.0171304
863.426	0.0170422
863.504	0.0169686
863.582	0.0171542
863.660	0.0171861
863.738	0.0171786
863.817	0.0172623
863.895	0.0173439
863.973	0.0175066
864.051	0.0173766
864.129	0.0174762
864.207	0.0174442
864.285	0.0174536
864.363	0.0173555
864.442	0.0174116
864.520	0.0175282
864.598	0.0173579
864.676	0.0173821
864.754	0.0172906
864.832	0.0172383
864.910	0.0173425
864.988	0.0173355
865.067	0.0173605
865.145	0.0173599
865.223	0.0173192
865.301	0.0173223
865.379	0.0172001
865.457	0.0172496
865.535	0.0173279
865.613	0.0174335
865.692	0.0173824
865.770	0.0174959
865.848	0.0174699
865.926	0.0173914
866.004	0.0173945
866.082	0.0175303
866.160	0.0175910
866.238	0.0173967
866.317	0.0176379
866.395	0.0176748
866.473	0.0174387
866.551	0.0175815
866.629	0.0174471
866.707	0.0174342
866.785	0.0176309
866.863	0.0175908
866.942	0.0174055
867.020	0.0175238
867.098	0.0175542
867.176	0.0173380
867.254	0.0175043
867.332	0.0173457
867.410	0.0173528
867.488	0.0174757
867.567	0.0174834
867.645	0.0172908
867.723	0.0173511
867.801	0.0173977
867.879	0.0174892
867.957	0.0175671
868.035	0.0174837
868.113	0.0174812
868.192	0.0176175
868.270	0.0176503
868.348	0.0174792
868.426	0.0175336
868.504	0.0176775
868.582	0.0175386
868.660	0.0175912
868.738	0.0176522
868.817	0.0174546
868.895	0.0175311
868.973	0.0173469
869.051	0.0175439
869.129	0.0175635
869.207	0.0172507
869.285	0.0173138
869.363	0.0171075
869.442	0.0170776
869.520	0.0170664
869.598	0.0170653
869.676	0.0169162
869.754	0.0167870
869.832	0.0168254
869.910	0.0168044
869.988	0.0168858
870.067	0.0168564
870.145	0.0169476
870.223	0.0170010
870.301	0.0171587
870.379	0.0169790
870.457	0.0170559
870.535	0.0170254
870.613	0.0170811
870.692	0.0171374
870.770	0.0173293
870.848	0.0172060
870.926	0.0171703
871.004	0.0173975
871.082	0.0173586
871.160	0.0173542
871.238	0.0174839
871.317	0.0172523
871.395	0.0174273
871.473	0.0175015
871.551	0.0173283
871.629	0.0173637
871.707	0.0174504
871.785	0.0173946
871.863	0.0175075
871.942	0.0175294
872.020	0.0175064
872.098	0.0173975
872.176	0.0175262
872.254	0.0174187
872.332	0.0175666
872.410	0.0176447
872.488	0.0177631
872.567	0.0177092
872.645	0.0177407
872.723	0.0177934
872.801	0.0179277
872.879	0.0178580
872.957	0.0178411
873.035	0.0178794
873.113	0.0180195
873.192	0.0179069
873.270	0.0178117
873.348	0.0178258
873.426	0.0176905
873.504	0.0177689
873.582	0.0177487
873.660	0.0177153
873.738	0.0175373
873.817	0.0173137
873.895	0.0173431
873.973	0.0173229
874.051	0.0171572
874.129	0.0171297
874.207	0.0170577
874.285	0.0171658
874.363	0.0169933
874.442	0.0171378
874.520	0.0170082
874.598	0.0169559
874.676	0.0169821
874.754	0.0169615
874.832	0.0171148
874.910	0.0170476
874.988	0.0170151
875.067	0.0169461
875.145	0.0171210
875.223	0.0170241
875.301	0.0171588
875.379	0.0172288
875.457	0.0172360
875.535	0.0173225
875.613	0.0171971
875.692	0.0173244
875.770	0.0173463
875.848	0.0175406
875.926	0.0174869
876.004	0.0175887
876.082	0.0175169
876.160	0.0175682
876.238	0.0175968
876.317	0.0176523
876.395	0.0174868
876.473	0.0176083
876.551	0.0174453
876.629	0.0175705
876.707	0.0175203
876.785	0.0175374
876.863	0.0176288
876.942	0.0176112
877.020	0.0176208
877.098	0.0176643
877.176	0.0176917
877.254	0.0176144
877.332	0.0174964
877.410	0.0175936
877.488	0.0175491
877.567	0.0174545
877.645	0.0175278
877.723	0.0176303
877.801	0.0174033
877.879	0.0174467
877.957	0.0174377
878.035	0.0174301
878.113	0.0174007
878.192	0.0173872
878.270	0.0172487
878.348	0.0171352
878.426	0.0170979
878.504	0.0170827
878.582	0.0171241
878.660	0.0170894
878.738	0.0170852
878.817	0.0171188
878.895	0.0170421
878.973	0.0168163
879.051	0.0169913
879.129	0.0169118
879.207	0.0170705
879.285	0.0170374
879.363	0.0171329
879.442	0.0172034
879.520	0.0171233
879.598	0.0171666
879.676	0.0173631
879.754	0.0173470
879.832	0.0173211
879.910	0.0173211
879.988	0.0174849
880.067	0.0174439
880.145	0.0175414
880.223	0.0174333
880.301	0.0174040
880.379	0.0175689
880.457	0.0177374
880.535	0.0177517
880.613	0.0176206
880.692	0.0175636
880.770	0.0177043
880.848	0.0175997
880.926	0.0174940
881.004	0.0175191
881.082	0.0175826
881.160	0.0175846
881.238	0.0177248
881.317	0.0176886
881.395	0.0176119
881.473	0.0176189
881.551	0.0176986
881.629	0.0175809
881.707	0.0177457
881.785	0.0175475
881.863	0.0176488
881.942	0.0176822
882.020	0.0175857
882.098	0.0176389
882.176	0.0173897
882.254	0.0174409
882.332	0.0174501
882.410	0.0173190
882.488	0.0171413
882.567	0.0171070
882.645	0.0170795
882.723	0.0169849
882.801	0.0169543
882.879	0.0169047
882.957	0.0169003
883.035	0.0169206
883.113	0.0168517
883.192	0.0168170
883.270	0.0167837
883.348	0.0166734
883.426	0.0166476
883.504	0.0167526
883.582	0.0168351
883.660	0.0166739
883.738	0.0169836
883.817	0.0169615
883.895	0.0171119
883.973	0.0171904
884.051	0.0172813
884.129	0.0173914
884.207	0.0175130
884.285	0.0176554
884.363	0.0177819
884.442	0.0180639
884.520	0.0179613
884.598	0.0180324
884.676	0.0182159
884.754	0.0182555
884.832	0.0184045
884.910	0.0182592
884.988	0.0181006
885.067	0.0183116
885.145	0.0183900
885.223	0.0181339
885.301	0.0182099
885.379	0.0181984
885.457	0.0180755
885.535	0.0177958
885.613	0.0178400
885.692	0.0177766
885.770	0.0175855
885.848	0.0174014
885.926	0.0173269
886.004	0.0171289
886.082	0.0169392
886.160	0.0169451
886.238	0.0167705
886.317	0.0166481
886.395	0.0165049
886.473	0.0166088
886.551	0.0163494
886.629	0.0162367
886.707	0.0163526
886.785	0.0164080
886.863	0.0162425
886.942	0.0162784
887.020	0.0162595
887.098	0.0162539
887.176	0.0163098
887.254	0.0164339
887.332	0.0164797
887.410	0.0164311
887.488	0.0166880
887.567	0.0168410
887.645	0.0171349
887.723	0.0171330
887.801	0.0174480
887.879	0.0174570
887.957	0.0177448
888.035	0.0179156
888.113	0.0180612
888.192	0.0183036
888.270	0.0183914
888.348	0.0184322
888.426	0.0184875
888.504	0.0186293
888.582	0.0186533
888.660	0.0184776
888.738	0.0187199
888.817	0.0185484
888.895	0.0184357
888.973	0.0184522
889.051	0.0184811
889.129	0.0182613
889.207	0.0182750
889.285	0.0180402
889.363	0.0180008
889.442	0.0178763
889.520	0.0178230
889.598	0.0176524
889.676	0.0175362
889.754	0.0173865
889.832	0.0171870
889.910	0.0171983
889.988	0.0170665
890.067	0.0169690
890.145	0.0167893
890.223	0.0166059
890.301	0.0166458
890.379	0.0164259
890.457	0.0164113
890.535	0.0161534
890.613	0.0162386
890.692	0.0163066
890.770	0.0162069
890.848	0.0161942
890.926	0.0162483
891.004	0.0162473
891.082	0.0165013
891.160	0.0165745
891.238	0.0166048
891.317	0.0169611
891.395	0.0170941
891.473	0.0172621
891.551	0.0173952
891.629	0.0175205
891.707	0.0178582
891.785	0.0180492
891.863	0.0180891
891.942	0.0182150
892.020	0.0185567
892.098	0.0184697
892.176	0.0185308
892.254	0.0185461
892.332	0.0186451
892.410	0.0185624
892.488	0.0185253
892.567	0.0184673
892.645	0.0184858
892.723	0.0184103
892.801	0.0182558
892.879	0.0181386
892.957	0.0180916
893.035	0.0180289
893.113	0.0178973
893.192	0.0178043
893.270	0.0177493
893.348	0.0176215
893.426	0.0175352
893.504	0.0173981
893.582	0.0173852
893.660	0.0171239
893.738	0.0169875
893.817	0.0170653
893.895	0.0168562
893.973	0.0168491
894.051	0.0167316
894.129	0.0166904
894.207	0.0166624
894.285	0.0166348
894.363	0.0164761
894.442	0.0163924
894.520	0.0164156
894.598	0.0163269
894.676	0.0164731
894.754	0.0163869
894.832	0.0163304
894.910	0.0164161
894.988	0.0163014
895.067	0.0163829
895.145	0.0166568
895.223	0.0165817
895.301	0.0166663
895.379	0.0168884
895.457	0.0171198
895.535	0.0172269
895.613	0.0173441
895.692	0.0174528
895.770	0.0177361
895.848	0.0178182
895.926	0.0180154
896.004	0.0181274
896.082	0.0180331
896.160	0.0182935
896.238	0.0182690
896.317	0.0184317
896.395	0.0184379
896.473	0.0183721
896.551	0.0183604
896.629	0.0183457
896.707	0.0181540
896.785	0.0182221
896.863	0.0182141
896.942	0.0181792
897.020	0.0182258
897.098	0.0182382
897.176	0.0182034
897.254	0.0182768
897.332	0.0181157
897.410	0.0180920
897.488	0.0180270
897.567	0.0179539
897.645	0.0179702
897.723	0.0177822
897.801	0.0177271
897.879	0.0175787
897.957	0.0174803
898.035	0.0172851
898.113	0.0170409
898.192	0.0170534
898.270	0.0168177
898.348	0.0168559
898.426	0.0167233
898.504	0.0167722
898.582	0.0165383
898.660	0.0163971
898.738	0.0164702
898.817	0.0164667
898.895	0.0163507
898.973	0.0165546
899.051	0.0165696
899.129	0.0168597
899.207	0.0169142
899.285	0.0171682
899.363	0.0170592
899.442	0.0172421
899.520	0.0176019
899.598	0.0175854
899.676	0.0176784
899.754	0.0177447
899.832	0.0177500
899.910	0.0178405
899.988	0.0178004
900.067	0.0179994
900.145	0.0178107
900.223	0.0177298
900.301	0.0177841
900.379	0.0180269
900.457	0.0177792
900.535	0.0177653
900.613	0.0178058
900.692	0.0176569
900.770	0.0176968
900.848	0.0176054
900.926	0.0174332
901.004	0.0174807
901.082	0.0175813
901.160	0.0174534
901.238	0.0175272
901.317	0.0175088
901.395	0.0174917
901.473	0.0174712
901.551	0.0175199
901.629	0.0174595
901.707	0.0174191
901.785	0.0174049
901.863	0.0173486
901.942	0.0173176
902.020	0.0172850
902.098	0.0171355
902.176	0.0170192
902.254	0.0168789
902.332	0.0169899
902.410	0.0168707
902.488	0.0167929
902.567	0.0168230
902.645	0.0170599
902.723	0.0171488
902.801	0.0170831
902.879	0.0172092
902.957	0.0172252
903.035	0.0174239
903.113	0.0174883
903.192	0.0175242
903.270	0.0177013
903.348	0.0177293
903.426	0.0179578
903.504	0.0180238
903.582	0.0180723
903.660	0.0180791
903.738	0.0180457
903.817	0.0182253
903.895	0.0181733
903.973	0.0181966
904.051	0.0180498
904.129	0.0178831
904.207	0.0178217
904.285	0.0177509
904.363	0.0176632
904.442	0.0174895
904.520	0.0174927
904.598	0.0173992
904.676	0.0172717
904.754	0.0171729
904.832	0.0172477
904.910	0.0171421
904.988	0.0171249
905.067	0.0171567
905.145	0.0172560
905.223	0.0172382
905.301	0.0173293
905.379	0.0175381
905.457	0.0175066
905.535	0.0175249
905.613	0.0176804
905.692	0.0176028
905.770	0.0177629
905.848	0.0176726
905.926	0.0176893
906.004	0.0178217
906.082	0.0176251
906.160	0.0177451
906.238	0.0175890
906.317	0.0175524
906.395	0.0174932
906.473	0.0172901
906.551	0.0175441
906.629	0.0172854
906.707	0.0173564
906.785	0.0172878
906.863	0.0173703
906.942	0.0174323
907.020	0.0173545
907.098	0.0174680
907.176	0.0174298
907.254	0.0174650
907.332	0.0175313
907.410	0.0176051
907.488	0.0176106
907.567	0.0175425
907.645	0.0175676
907.723	0.0176046
907.801	0.0174911
907.879	0.0174979
907.957	0.0174434
908.035	0.0174123
908.113	0.0174915
908.192	0.0173043
908.270	0.0172879
908.348	0.0171366
908.426	0.0171938
908.504	0.0173014
908.582	0.0170545
908.660	0.0172055
908.738	0.0172170
908.817	0.0170382
908.895	0.0172730
908.973	0.0171149
909.051	0.0170880
909.129	0.0173692
909.207	0.0174464
909.285	0.0174738
909.363	0.0174981
909.442	0.0174796
909.520	0.0177380
909.598	0.0178259
909.676	0.0177995
909.754	0.0178175
909.832	0.0177513
909.910	0.0178162
909.988	0.0178548
910.067	0.0177174
910.145	0.0177915
910.223	0.0176022
910.301	0.0177224
910.379	0.0174690
910.457	0.0175489
910.535	0.0174892
910.613	0.0173168
910.692	0.0172888
910.770	0.0174120
910.848	0.0174184
910.926	0.0172079
911.004	0.0172391
911.082	0.0173373
911.160	0.0172623
911.238	0.0173490
911.317	0.0173685
911.395	0.0174283
911.473	0.0174443
911.551	0.0174828
911.629	0.0173734
911.707	0.0176568
911.785	0.0175716
911.863	0.0176110
911.942	0.0175352
912.020	0.0174763
912.098	0.0175732
912.176	0.0175819
912.254	0.0175124
912.332	0.0173874
912.410	0.0175221
912.488	0.0175890
912.567	0.0174391
912.645	0.0174785
912.723	0.0175414
912.801	0.0174281
912.879	0.0176365
912.957	0.0175504
913.035	0.0174757
913.113	0.0175578
913.192	0.0175585
913.270	0.0175787
913.348	0.0176810
913.426	0.0177516
913.504	0.0177386
913.582	0.0176688
913.660	0.0176735
913.738	0.0177640
913.817	0.0177298
913.895	0.0178004
913.973	0.0176586
914.051	0.0177186
914.129	0.0175023
914.207	0.0175619
914.285	0.0174834
914.363	0.0174194
914.442	0.0174783
914.520	0.0173088
914.598	0.0174000
914.676	0.0173987
914.754	0.0174793
914.832	0.0173355
914.910	0.0172740
914.988	0.0173364
915.067	0.0173336
915.145	0.0173286
915.223	0.0172474
915.301	0.0172455
915.379	0.0171712
915.457	0.0170894
915.535	0.0173090
915.613	0.0172769
915.692	0.0173366
915.770	0.0172066
915.848	0.0172817
915.926	0.0172445
916.004	0.0173592
916.082	0.0175039
916.160	0.0174892
916.238	0.0174296
916.317	0.0174249
916.395	0.0174110
916.473	0.0174899
916.551	0.0176102
916.629	0.0176753
916.707	0.0176359
916.785	0.0176415
916.863	0.0176158
916.942	0.0176514
917.020	0.0176234
917.098	0.0175964
917.176	0.0175799
917.254	0.0175162
917.332	0.0174577
917.410	0.0175008
917.488	0.0174247
917.567	0.0173285
917.645	0.0174779
917.723	0.0172601
917.801	0.0172285
917.879	0.0173322
917.957	0.0173478
918.035	0.0173945
918.113	0.0174151
918.192	0.0175220
918.270	0.0174858
918.348	0.0176666
918.426	0.0175593
918.504	0.0176155
918.582	0.0176582
918.660	0.0176412
918.738	0.0177034
918.817	0.0177856
918.895	0.0176790
918.973	0.0175952
919.051	0.0176561
919.129	0.0175504
919.207	0.0175033
919.285	0.0175621
919.363	0.0176492
919.442	0.0173456
919.520	0.0172531
919.598	0.0172369
919.676	0.0172842
919.754	0.0172289
919.832	0.0172565
919.910	0.0172565
