06/01/2022	21:42:17	Ver.	4.1	UNKNOWN
Optical Delay	599.988409	Delta X		0.078125	Sweeps	1	Scan Rate	0/0
Coordinates	Axis 1	NaN	Axis 2	NaN	Axis 3	NaN	Axis 4	NaN	Axis 5	NaN	Axis 6	0.000000
TX Power	0.000000	RX Power	0.000000

599.988	0.0176093
600.067	0.0176323
600.145	0.0176410
600.223	0.0175559
600.301	0.0176947
600.379	0.0175115
600.457	0.0176687
600.535	0.0176248
600.613	0.0176114
600.692	0.0175710
600.770	0.0175605
600.848	0.0176842
600.926	0.0177657
601.004	0.0176446
601.082	0.0174292
601.160	0.0175992
601.238	0.0176111
601.317	0.0175481
601.395	0.0176517
601.473	0.0176632
601.551	0.0176129
601.629	0.0176517
601.707	0.0175461
601.785	0.0176545
601.863	0.0175989
601.942	0.0176221
602.020	0.0175904
602.098	0.0178261
602.176	0.0175415
602.254	0.0176852
602.332	0.0175977
602.410	0.0176253
602.488	0.0175800
602.567	0.0174818
602.645	0.0176221
602.723	0.0177479
602.801	0.0175634
602.879	0.0174491
602.957	0.0177039
603.035	0.0176392
603.113	0.0176798
603.192	0.0175449
603.270	0.0175505
603.348	0.0176853
603.426	0.0174314
603.504	0.0175828
603.582	0.0177533
603.660	0.0175953
603.738	0.0176167
603.817	0.0176607
603.895	0.0176785
603.973	0.0175089
604.051	0.0176102
604.129	0.0176463
604.207	0.0177016
604.285	0.0176132
604.363	0.0175211
604.442	0.0175636
604.520	0.0175461
604.598	0.0176004
604.676	0.0176035
604.754	0.0176495
604.832	0.0176376
604.910	0.0176004
604.988	0.0177371
605.067	0.0175301
605.145	0.0177047
605.223	0.0175542
605.301	0.0175861
605.379	0.0176900
605.457	0.0177252
605.535	0.0176921
605.613	0.0176344
605.692	0.0177328
605.770	0.0176505
605.848	0.0175419
605.926	0.0176430
606.004	0.0176138
606.082	0.0176364
606.160	0.0178151
606.238	0.0175559
606.317	0.0176054
606.395	0.0175491
606.473	0.0175990
606.551	0.0176327
606.629	0.0175757
606.707	0.0175414
606.785	0.0177087
606.863	0.0176373
606.942	0.0176008
607.020	0.0176228
607.098	0.0176536
607.176	0.0175862
607.254	0.0175452
607.332	0.0176226
607.410	0.0176491
607.488	0.0177090
607.567	0.0175360
607.645	0.0176091
607.723	0.0176801
607.801	0.0174809
607.879	0.0175674
607.957	0.0176189
608.035	0.0175034
608.113	0.0175951
608.192	0.0176137
608.270	0.0176296
608.348	0.0176430
608.426	0.0176984
608.504	0.0176198
608.582	0.0176250
608.660	0.0176671
608.738	0.0177241
608.817	0.0176607
608.895	0.0176631
608.973	0.0175653
609.051	0.0177264
609.129	0.0177089
609.207	0.0176608
609.285	0.0175433
609.363	0.0175690
609.442	0.0177296
609.520	0.0176332
609.598	0.0176158
609.676	0.0176878
609.754	0.0175507
609.832	0.0176106
609.910	0.0176189
609.988	0.0176923
610.067	0.0175901
610.145	0.0175815
610.223	0.0176225
610.301	0.0175845
610.379	0.0176514
610.457	0.0175591
610.535	0.0175681
610.613	0.0175018
610.692	0.0174650
610.770	0.0176469
610.848	0.0176243
610.926	0.0175774
611.004	0.0176707
611.082	0.0176094
611.160	0.0177164
611.238	0.0176543
611.317	0.0176202
611.395	0.0175179
611.473	0.0175131
611.551	0.0176186
611.629	0.0176292
611.707	0.0176215
611.785	0.0175967
611.863	0.0175938
611.942	0.0177422
612.020	0.0175759
612.098	0.0176369
612.176	0.0177478
612.254	0.0175674
612.332	0.0174800
612.410	0.0175877
612.488	0.0175202
612.567	0.0177217
612.645	0.0175681
612.723	0.0177144
612.801	0.0176310
612.879	0.0173978
612.957	0.0175454
613.035	0.0176123
613.113	0.0176443
613.192	0.0174928
613.270	0.0175421
613.348	0.0176837
613.426	0.0175955
613.504	0.0175467
613.582	0.0175556
613.660	0.0176447
613.738	0.0176176
613.817	0.0175915
613.895	0.0176006
613.973	0.0175325
614.051	0.0176413
614.129	0.0175941
614.207	0.0176144
614.285	0.0175829
614.363	0.0176019
614.442	0.0176108
614.520	0.0175986
614.598	0.0176243
614.676	0.0175221
614.754	0.0175983
614.832	0.0174286
614.910	0.0175552
614.988	0.0176457
615.067	0.0175805
615.145	0.0174669
615.223	0.0175934
615.301	0.0176818
615.379	0.0174349
615.457	0.0174486
615.535	0.0175780
615.613	0.0175492
615.692	0.0174973
615.770	0.0175050
615.848	0.0175626
615.926	0.0175150
616.004	0.0175903
616.082	0.0176064
616.160	0.0175493
616.238	0.0177161
616.317	0.0175134
616.395	0.0176909
616.473	0.0175024
616.551	0.0175686
616.629	0.0175127
616.707	0.0177660
616.785	0.0175562
616.863	0.0176656
616.942	0.0177338
617.020	0.0176188
617.098	0.0176680
617.176	0.0177319
617.254	0.0176525
617.332	0.0175525
617.410	0.0178622
617.488	0.0176662
617.567	0.0175850
617.645	0.0176047
617.723	0.0176598
617.801	0.0177670
617.879	0.0177133
617.957	0.0176038
618.035	0.0174949
618.113	0.0175486
618.192	0.0177106
618.270	0.0176738
618.348	0.0175193
618.426	0.0175866
618.504	0.0176855
618.582	0.0175755
618.660	0.0175524
618.738	0.0175852
618.817	0.0175271
618.895	0.0175087
618.973	0.0175582
619.051	0.0175600
619.129	0.0175624
619.207	0.0176176
619.285	0.0176257
619.363	0.0175134
619.442	0.0174780
619.520	0.0175793
619.598	0.0176512
619.676	0.0177022
619.754	0.0175030
619.832	0.0174854
619.910	0.0176376
619.988	0.0175337
620.067	0.0176058
620.145	0.0175255
620.223	0.0176313
620.301	0.0176371
620.379	0.0176482
620.457	0.0176395
620.535	0.0176589
620.613	0.0175132
620.692	0.0176777
620.770	0.0177536
620.848	0.0177161
620.926	0.0175978
621.004	0.0175877
621.082	0.0176006
621.160	0.0176493
621.238	0.0176216
621.317	0.0177141
621.395	0.0177261
621.473	0.0176869
621.551	0.0177417
621.629	0.0176965
621.707	0.0175246
621.785	0.0176468
621.863	0.0176098
621.942	0.0176030
622.020	0.0176420
622.098	0.0177192
622.176	0.0178489
622.254	0.0175911
622.332	0.0176603
622.410	0.0177013
622.488	0.0177807
622.567	0.0176315
622.645	0.0175403
622.723	0.0177620
622.801	0.0175613
622.879	0.0176369
622.957	0.0176279
623.035	0.0175556
623.113	0.0177754
623.192	0.0176920
623.270	0.0175088
623.348	0.0176584
623.426	0.0176991
623.504	0.0175602
623.582	0.0175576
623.660	0.0175515
623.738	0.0175249
623.817	0.0174309
623.895	0.0173777
623.973	0.0175791
624.051	0.0175788
624.129	0.0175395
624.207	0.0175347
624.285	0.0173312
624.363	0.0175582
624.442	0.0175368
624.520	0.0175025
624.598	0.0175957
624.676	0.0174919
624.754	0.0176198
624.832	0.0174957
624.910	0.0175426
624.988	0.0177512
625.067	0.0176919
625.145	0.0175032
625.223	0.0176817
625.301	0.0176707
625.379	0.0176805
625.457	0.0177314
625.535	0.0175266
625.613	0.0176046
625.692	0.0176948
625.770	0.0176875
625.848	0.0175906
625.926	0.0176153
626.004	0.0175524
626.082	0.0177428
626.160	0.0177889
626.238	0.0177045
626.317	0.0175497
626.395	0.0177554
626.473	0.0176804
626.551	0.0176976
626.629	0.0176280
626.707	0.0176291
626.785	0.0177383
626.863	0.0177052
626.942	0.0177551
627.020	0.0176768
627.098	0.0175264
627.176	0.0176595
627.254	0.0176573
627.332	0.0176983
627.410	0.0175468
627.488	0.0175615
627.567	0.0176595
627.645	0.0177156
627.723	0.0175402
627.801	0.0174989
627.879	0.0175611
627.957	0.0176010
628.035	0.0175803
628.113	0.0176187
628.192	0.0176714
628.270	0.0176218
628.348	0.0175470
628.426	0.0174587
628.504	0.0175758
628.582	0.0174794
628.660	0.0176250
628.738	0.0173648
628.817	0.0173922
628.895	0.0175813
628.973	0.0175765
629.051	0.0176855
629.129	0.0175774
629.207	0.0175641
629.285	0.0175449
629.363	0.0177037
629.442	0.0177329
629.520	0.0177107
629.598	0.0176218
629.676	0.0176380
629.754	0.0176550
629.832	0.0177137
629.910	0.0178540
629.988	0.0177562
630.067	0.0177107
630.145	0.0176335
630.223	0.0177742
630.301	0.0176176
630.379	0.0176553
630.457	0.0177557
630.535	0.0176367
630.613	0.0176815
630.692	0.0177090
630.770	0.0177368
630.848	0.0176968
630.926	0.0176999
631.004	0.0177251
631.082	0.0177087
631.160	0.0176617
631.238	0.0177791
631.317	0.0176153
631.395	0.0175761
631.473	0.0177502
631.551	0.0176129
631.629	0.0175790
631.707	0.0176084
631.785	0.0174626
631.863	0.0175861
631.942	0.0176357
632.020	0.0175272
632.098	0.0176157
632.176	0.0174892
632.254	0.0175807
632.332	0.0175201
632.410	0.0176500
632.488	0.0175703
632.567	0.0177820
632.645	0.0176336
632.723	0.0175698
632.801	0.0176510
632.879	0.0175508
632.957	0.0175797
633.035	0.0175380
633.113	0.0176083
633.192	0.0177338
633.270	0.0176849
633.348	0.0177248
633.426	0.0175409
633.504	0.0173570
633.582	0.0175104
633.660	0.0176819
633.738	0.0176759
633.817	0.0176750
633.895	0.0176267
633.973	0.0175652
634.051	0.0175717
634.129	0.0174493
634.207	0.0176369
634.285	0.0177248
634.363	0.0176370
634.442	0.0175506
634.520	0.0176953
634.598	0.0177753
634.676	0.0175824
634.754	0.0177524
634.832	0.0175518
634.910	0.0175824
634.988	0.0175919
635.067	0.0176898
635.145	0.0177185
635.223	0.0176537
635.301	0.0176647
635.379	0.0176818
635.457	0.0175307
635.535	0.0176131
635.613	0.0177139
635.692	0.0177863
635.770	0.0176868
635.848	0.0175764
635.926	0.0177901
636.004	0.0177480
636.082	0.0176436
636.160	0.0176020
636.238	0.0176102
636.317	0.0177217
636.395	0.0175356
636.473	0.0176646
636.551	0.0177110
636.629	0.0176699
636.707	0.0176179
636.785	0.0176058
636.863	0.0175555
636.942	0.0175386
637.020	0.0176658
637.098	0.0176601
637.176	0.0176720
637.254	0.0175522
637.332	0.0175056
637.410	0.0176268
637.488	0.0175225
637.567	0.0177671
637.645	0.0175594
637.723	0.0175466
637.801	0.0176212
637.879	0.0176538
637.957	0.0178011
638.035	0.0176729
638.113	0.0175843
638.192	0.0176888
638.270	0.0176675
638.348	0.0175247
638.426	0.0175540
638.504	0.0176820
638.582	0.0176529
638.660	0.0175922
638.738	0.0177269
638.817	0.0176517
638.895	0.0174899
638.973	0.0175128
639.051	0.0175043
639.129	0.0176635
639.207	0.0175915
639.285	0.0176057
639.363	0.0174381
639.442	0.0176192
639.520	0.0176937
639.598	0.0174699
639.676	0.0176412
639.754	0.0177183
639.832	0.0175957
639.910	0.0175405
639.988	0.0175045
640.067	0.0177373
640.145	0.0177380
640.223	0.0176192
640.301	0.0176086
640.379	0.0176129
640.457	0.0177587
640.535	0.0175951
640.613	0.0175854
640.692	0.0175939
640.770	0.0175404
640.848	0.0176547
640.926	0.0177969
641.004	0.0176859
641.082	0.0175584
641.160	0.0176955
641.238	0.0176099
641.317	0.0176102
641.395	0.0175273
641.473	0.0175892
641.551	0.0176285
641.629	0.0174342
641.707	0.0176463
641.785	0.0175701
641.863	0.0176832
641.942	0.0176105
642.020	0.0175782
642.098	0.0176677
642.176	0.0176779
642.254	0.0175548
642.332	0.0176460
642.410	0.0176379
642.488	0.0175694
642.567	0.0175880
642.645	0.0177054
642.723	0.0176851
642.801	0.0177002
642.879	0.0176331
642.957	0.0176579
643.035	0.0177231
643.113	0.0177349
643.192	0.0176308
643.270	0.0174834
643.348	0.0176984
643.426	0.0177695
643.504	0.0177129
643.582	0.0175520
643.660	0.0176764
643.738	0.0176162
643.817	0.0176575
643.895	0.0176247
643.973	0.0177219
644.051	0.0176286
644.129	0.0176725
644.207	0.0175208
644.285	0.0175274
644.363	0.0178053
644.442	0.0176434
644.520	0.0175876
644.598	0.0176475
644.676	0.0177057
644.754	0.0176415
644.832	0.0177207
644.910	0.0175704
644.988	0.0176543
645.067	0.0176124
645.145	0.0175877
645.223	0.0175998
645.301	0.0175494
645.379	0.0175706
645.457	0.0177384
645.535	0.0177354
645.613	0.0174808
645.692	0.0175488
645.770	0.0175260
645.848	0.0176596
645.926	0.0175758
646.004	0.0178024
646.082	0.0175783
646.160	0.0175742
646.238	0.0176816
646.317	0.0176632
646.395	0.0176884
646.473	0.0175965
646.551	0.0176750
646.629	0.0175787
646.707	0.0175519
646.785	0.0176784
646.863	0.0174939
646.942	0.0176632
647.020	0.0176479
647.098	0.0175986
647.176	0.0175310
647.254	0.0174846
647.332	0.0175651
647.410	0.0177085
647.488	0.0176295
647.567	0.0175696
647.645	0.0175355
647.723	0.0177752
647.801	0.0175317
647.879	0.0176543
647.957	0.0177428
648.035	0.0176215
648.113	0.0176037
648.192	0.0176113
648.270	0.0177025
648.348	0.0175973
648.426	0.0176114
648.504	0.0176534
648.582	0.0176884
648.660	0.0176793
648.738	0.0177145
648.817	0.0177504
648.895	0.0176366
648.973	0.0176211
649.051	0.0176743
649.129	0.0176403
649.207	0.0176307
649.285	0.0175406
649.363	0.0175595
649.442	0.0176580
649.520	0.0176633
649.598	0.0176366
649.676	0.0176994
649.754	0.0176230
649.832	0.0176706
649.910	0.0175405
649.988	0.0175530
650.067	0.0177447
650.145	0.0177002
650.223	0.0176231
650.301	0.0176583
650.379	0.0177344
650.457	0.0177145
650.535	0.0176103
650.613	0.0176551
650.692	0.0175990
650.770	0.0177579
650.848	0.0175719
650.926	0.0175125
651.004	0.0175953
651.082	0.0175523
651.160	0.0176556
651.238	0.0176035
651.317	0.0177660
651.395	0.0176815
651.473	0.0175775
651.551	0.0176781
651.629	0.0174953
651.707	0.0176984
651.785	0.0176442
651.863	0.0177119
651.942	0.0177270
652.020	0.0177202
652.098	0.0176054
652.176	0.0177164
652.254	0.0176369
652.332	0.0176189
652.410	0.0176365
652.488	0.0176587
652.567	0.0176500
652.645	0.0177219
652.723	0.0176723
652.801	0.0175866
652.879	0.0177006
652.957	0.0176618
653.035	0.0176283
653.113	0.0175543
653.192	0.0176518
653.270	0.0176833
653.348	0.0176515
653.426	0.0176672
653.504	0.0175754
653.582	0.0176632
653.660	0.0176898
653.738	0.0176028
653.817	0.0176193
653.895	0.0174761
653.973	0.0176330
654.051	0.0176407
654.129	0.0175604
654.207	0.0175842
654.285	0.0175657
654.363	0.0176220
654.442	0.0175883
654.520	0.0176696
654.598	0.0176153
654.676	0.0177164
654.754	0.0177326
654.832	0.0177077
654.910	0.0175681
654.988	0.0176535
655.067	0.0176836
655.145	0.0175947
655.223	0.0177042
655.301	0.0175278
655.379	0.0176986
655.457	0.0175499
655.535	0.0175278
655.613	0.0176754
655.692	0.0176414
655.770	0.0176798
655.848	0.0177617
655.926	0.0175646
656.004	0.0175285
656.082	0.0174554
656.160	0.0176611
656.238	0.0177417
656.317	0.0176520
656.395	0.0176830
656.473	0.0176632
656.551	0.0176627
656.629	0.0176158
656.707	0.0176395
656.785	0.0175532
656.863	0.0175216
656.942	0.0176791
657.020	0.0176734
657.098	0.0176001
657.176	0.0176707
657.254	0.0175598
657.332	0.0175501
657.410	0.0178094
657.488	0.0176747
657.567	0.0175933
657.645	0.0176280
657.723	0.0174947
657.801	0.0175320
657.879	0.0176244
657.957	0.0176486
658.035	0.0176685
658.113	0.0177042
658.192	0.0177461
658.270	0.0176405
658.348	0.0176579
658.426	0.0175369
658.504	0.0176656
658.582	0.0175205
658.660	0.0175697
658.738	0.0176607
658.817	0.0175238
658.895	0.0176102
658.973	0.0176608
659.051	0.0174599
659.129	0.0176151
659.207	0.0176658
659.285	0.0175819
659.363	0.0177422
659.442	0.0176110
659.520	0.0175877
659.598	0.0175280
659.676	0.0176363
659.754	0.0177068
659.832	0.0176255
659.910	0.0176079
659.988	0.0176228
660.067	0.0176851
660.145	0.0177456
660.223	0.0176573
660.301	0.0175814
660.379	0.0176514
660.457	0.0176128
660.535	0.0178046
660.613	0.0176475
660.692	0.0175267
660.770	0.0177553
660.848	0.0177380
660.926	0.0176077
661.004	0.0174660
661.082	0.0175905
661.160	0.0176494
661.238	0.0176113
661.317	0.0175534
661.395	0.0175500
661.473	0.0176092
661.551	0.0177698
661.629	0.0174977
661.707	0.0176363
661.785	0.0176875
661.863	0.0176793
661.942	0.0176001
662.020	0.0176407
662.098	0.0175614
662.176	0.0176039
662.254	0.0176369
662.332	0.0175667
662.410	0.0175209
662.488	0.0176495
662.567	0.0175533
662.645	0.0174494
662.723	0.0176244
662.801	0.0175765
662.879	0.0175821
662.957	0.0177261
663.035	0.0176601
663.113	0.0176156
663.192	0.0175360
663.270	0.0175320
663.348	0.0176115
663.426	0.0175899
663.504	0.0175735
663.582	0.0176051
663.660	0.0176368
663.738	0.0177195
663.817	0.0175693
663.895	0.0176305
663.973	0.0177293
664.051	0.0175182
664.129	0.0175336
664.207	0.0176424
664.285	0.0176133
664.363	0.0175710
664.442	0.0174895
664.520	0.0176290
664.598	0.0175826
664.676	0.0177018
664.754	0.0175392
664.832	0.0175784
664.910	0.0176180
664.988	0.0175998
665.067	0.0177301
665.145	0.0176159
665.223	0.0175413
665.301	0.0175368
665.379	0.0176823
665.457	0.0175593
665.535	0.0175453
665.613	0.0176028
665.692	0.0175378
665.770	0.0175652
665.848	0.0177052
665.926	0.0175661
666.004	0.0175664
666.082	0.0176837
666.160	0.0176103
666.238	0.0175381
666.317	0.0175866
666.395	0.0175587
666.473	0.0175443
666.551	0.0175349
666.629	0.0176620
666.707	0.0177022
666.785	0.0176367
666.863	0.0176606
666.942	0.0175922
667.020	0.0175055
667.098	0.0175155
667.176	0.0176251
667.254	0.0175775
667.332	0.0174879
667.410	0.0175285
667.488	0.0176143
667.567	0.0176225
667.645	0.0176183
667.723	0.0176447
667.801	0.0176239
667.879	0.0176542
667.957	0.0175964
668.035	0.0175560
668.113	0.0177139
668.192	0.0176051
668.270	0.0176292
668.348	0.0175378
668.426	0.0176128
668.504	0.0175764
668.582	0.0176028
668.660	0.0175671
668.738	0.0176965
668.817	0.0176192
668.895	0.0175336
668.973	0.0177001
669.051	0.0176218
669.129	0.0176669
669.207	0.0175549
669.285	0.0174439
669.363	0.0175945
669.442	0.0175508
669.520	0.0175677
669.598	0.0176105
669.676	0.0174766
669.754	0.0174928
669.832	0.0175761
669.910	0.0176613
669.988	0.0176109
670.067	0.0175047
670.145	0.0175752
670.223	0.0173946
670.301	0.0176146
670.379	0.0176248
670.457	0.0174404
670.535	0.0176230
670.613	0.0175578
670.692	0.0176546
670.770	0.0176952
670.848	0.0175912
670.926	0.0176791
671.004	0.0176153
671.082	0.0176936
671.160	0.0176591
671.238	0.0175526
671.317	0.0176952
671.395	0.0176138
671.473	0.0176232
671.551	0.0176115
671.629	0.0174556
671.707	0.0175464
671.785	0.0174882
671.863	0.0173996
671.942	0.0176731
672.020	0.0176330
672.098	0.0174679
672.176	0.0176389
672.254	0.0173812
672.332	0.0176487
672.410	0.0175705
672.488	0.0174940
672.567	0.0177572
672.645	0.0178210
672.723	0.0175436
672.801	0.0177380
672.879	0.0178036
672.957	0.0177441
673.035	0.0177395
673.113	0.0176684
673.192	0.0176247
673.270	0.0176824
673.348	0.0175770
673.426	0.0174928
673.504	0.0174229
673.582	0.0174682
673.660	0.0174865
673.738	0.0175271
673.817	0.0174384
673.895	0.0175079
673.973	0.0174221
674.051	0.0176161
674.129	0.0176341
674.207	0.0175906
674.285	0.0177657
674.363	0.0177183
674.442	0.0176715
674.520	0.0177274
674.598	0.0177855
674.676	0.0177832
674.754	0.0177578
674.832	0.0177316
674.910	0.0176940
674.988	0.0175646
675.067	0.0176089
675.145	0.0175986
675.223	0.0176961
675.301	0.0174032
675.379	0.0173216
675.457	0.0175662
675.535	0.0174677
675.613	0.0174919
675.692	0.0175537
675.770	0.0174120
675.848	0.0173702
675.926	0.0175474
676.004	0.0175914
676.082	0.0174729
676.160	0.0176648
676.238	0.0176310
676.317	0.0176739
676.395	0.0177850
676.473	0.0177544
676.551	0.0177551
676.629	0.0176773
676.707	0.0175731
676.785	0.0178803
676.863	0.0177044
676.942	0.0177329
677.020	0.0176221
677.098	0.0175981
677.176	0.0175380
677.254	0.0175537
677.332	0.0174616
677.410	0.0175695
677.488	0.0174621
677.567	0.0173644
677.645	0.0175482
677.723	0.0175421
677.801	0.0176020
677.879	0.0174644
677.957	0.0175782
678.035	0.0176073
678.113	0.0176627
678.192	0.0177196
678.270	0.0177037
678.348	0.0177541
678.426	0.0176202
678.504	0.0177896
678.582	0.0178736
678.660	0.0177687
678.738	0.0178529
678.817	0.0179173
678.895	0.0176698
678.973	0.0176963
679.051	0.0176557
679.129	0.0176717
679.207	0.0176990
679.285	0.0175932
679.363	0.0175336
679.442	0.0173827
679.520	0.0175024
679.598	0.0173414
679.676	0.0173352
679.754	0.0173476
679.832	0.0173595
679.910	0.0172684
679.988	0.0174419
680.067	0.0173988
680.145	0.0175436
680.223	0.0175706
680.301	0.0177096
680.379	0.0178712
680.457	0.0177772
680.535	0.0178937
680.613	0.0177362
680.692	0.0179176
680.770	0.0178654
680.848	0.0178480
680.926	0.0177468
681.004	0.0177641
681.082	0.0175995
681.160	0.0175420
681.238	0.0175225
681.317	0.0174059
681.395	0.0173607
681.473	0.0173587
681.551	0.0173995
681.629	0.0173946
681.707	0.0175809
681.785	0.0175968
681.863	0.0175596
681.942	0.0178373
682.020	0.0179865
682.098	0.0179052
682.176	0.0181192
682.254	0.0180695
682.332	0.0179404
682.410	0.0180795
682.488	0.0179836
682.567	0.0178911
682.645	0.0177394
682.723	0.0177488
682.801	0.0175788
682.879	0.0173692
682.957	0.0174295
683.035	0.0172675
683.113	0.0171654
683.192	0.0173153
683.270	0.0172321
683.348	0.0172373
683.426	0.0172435
683.504	0.0171558
683.582	0.0172562
683.660	0.0175223
683.738	0.0171916
683.817	0.0174554
683.895	0.0172202
683.973	0.0170367
684.051	0.0169688
684.129	0.0169840
684.207	0.0171207
684.285	0.0170262
684.363	0.0170186
684.442	0.0171171
684.520	0.0174485
684.598	0.0176171
684.676	0.0179475
684.754	0.0181888
684.832	0.0183782
684.910	0.0184744
684.988	0.0186986
685.067	0.0188413
685.145	0.0187581
685.223	0.0186240
685.301	0.0185532
685.379	0.0184122
685.457	0.0182154
685.535	0.0180102
685.613	0.0177110
685.692	0.0175459
685.770	0.0174252
685.848	0.0171988
685.926	0.0171417
686.004	0.0171923
686.082	0.0171853
686.160	0.0171909
686.238	0.0172157
686.317	0.0172069
686.395	0.0173895
686.473	0.0174254
686.551	0.0174045
686.629	0.0172431
686.707	0.0172775
686.785	0.0173767
686.863	0.0175723
686.942	0.0177158
687.020	0.0177116
687.098	0.0176458
687.176	0.0176416
687.254	0.0176728
687.332	0.0177926
687.410	0.0176576
687.488	0.0174825
687.567	0.0174244
687.645	0.0172010
687.723	0.0172455
687.801	0.0172871
687.879	0.0170389
687.957	0.0171239
688.035	0.0171655
688.113	0.0170670
688.192	0.0173230
688.270	0.0174744
688.348	0.0176060
688.426	0.0178111
688.504	0.0177502
688.582	0.0180554
688.660	0.0182529
688.738	0.0183073
688.817	0.0182404
688.895	0.0180891
688.973	0.0181358
689.051	0.0179190
689.129	0.0178563
689.207	0.0176265
689.285	0.0176810
689.363	0.0174634
689.442	0.0175500
689.520	0.0177560
689.598	0.0179057
689.676	0.0181905
689.754	0.0183063
689.832	0.0184797
689.910	0.0186956
689.988	0.0187904
690.067	0.0189598
690.145	0.0188723
690.223	0.0186248
690.301	0.0184122
690.379	0.0179405
690.457	0.0173279
690.535	0.0168450
690.613	0.0162256
690.692	0.0156563
690.770	0.0152715
690.848	0.0147954
690.926	0.0145721
691.004	0.0146147
691.082	0.0147117
691.160	0.0147209
691.238	0.0150424
691.317	0.0152957
691.395	0.0157470
691.473	0.0158382
691.551	0.0162135
691.629	0.0166611
691.707	0.0169723
691.785	0.0172367
691.863	0.0174368
691.942	0.0174971
692.020	0.0176991
692.098	0.0179557
692.176	0.0183781
692.254	0.0186433
692.332	0.0191267
692.410	0.0195698
692.488	0.0200826
692.567	0.0206995
692.645	0.0212204
692.723	0.0217445
692.801	0.0222317
692.879	0.0225117
692.957	0.0228139
693.035	0.0228891
693.113	0.0228851
693.192	0.0226931
693.270	0.0223676
693.348	0.0217183
693.426	0.0211426
693.504	0.0202785
693.582	0.0195402
693.660	0.0188921
693.738	0.0180405
693.817	0.0171603
693.895	0.0163454
693.973	0.0155183
694.051	0.0147384
694.129	0.0139891
694.207	0.0131586
694.285	0.0125655
694.363	0.0118289
694.442	0.0112454
694.520	0.0107353
694.598	0.0103519
694.676	0.00997917
694.754	0.00969025
694.832	0.00977013
694.910	0.00979378
694.988	0.0100727
695.067	0.0102429
695.145	0.0107673
695.223	0.0113258
695.301	0.0118655
695.379	0.0126313
695.457	0.0135138
695.535	0.0144923
695.613	0.0154272
695.692	0.0166300
695.770	0.0178838
695.848	0.0190998
695.926	0.0205480
696.004	0.0218465
696.082	0.0230598
696.160	0.0242466
696.238	0.0253430
696.317	0.0261884
696.395	0.0267957
696.473	0.0273525
696.551	0.0277512
696.629	0.0280344
696.707	0.0282410
696.785	0.0282363
696.863	0.0283735
696.942	0.0283454
697.020	0.0281787
697.098	0.0276694
697.176	0.0274207
697.254	0.0267384
697.332	0.0258424
697.410	0.0249677
697.488	0.0237897
697.567	0.0225529
697.645	0.0206870
697.723	0.0191377
697.801	0.0173399
697.879	0.0153655
697.957	0.0133897
698.035	0.0113322
698.113	0.00951485
698.192	0.00778580
698.270	0.00604332
698.348	0.00471764
698.426	0.00370178
698.504	0.00280579
698.582	0.00212715
698.660	0.00184494
698.738	0.00172455
698.817	0.00192795
698.895	0.00248123
698.973	0.00322800
699.051	0.00416138
699.129	0.00537781
699.207	0.00678429
699.285	0.00841599
699.363	0.00997902
699.442	0.0118457
699.520	0.0137089
699.598	0.0155202
699.676	0.0174229
699.754	0.0188885
699.832	0.0204340
699.910	0.0219847
699.988	0.0231243
700.067	0.0241232
700.145	0.0251270
700.223	0.0260189
700.301	0.0265494
700.379	0.0272460
700.457	0.0277177
700.535	0.0281998
700.613	0.0286205
700.692	0.0291048
700.770	0.0293173
700.848	0.0293626
700.926	0.0297287
701.004	0.0295620
701.082	0.0292795
701.160	0.0291843
701.238	0.0290162
701.317	0.0287668
701.395	0.0285147
701.473	0.0281187
701.551	0.0277894
701.629	0.0275032
701.707	0.0268674
701.785	0.0264035
701.863	0.0255559
701.942	0.0246178
702.020	0.0234226
702.098	0.0222291
702.176	0.0204897
702.254	0.0187011
702.332	0.0166127
702.410	0.0143108
702.488	0.0119060
702.567	0.00942520
702.645	0.00660576
702.723	0.00426208
702.801	0.00185600
702.879	-0.0000969696
702.957	-0.00208084
703.035	-0.00373375
703.113	-0.00478325
703.192	-0.00559944
703.270	-0.00595978
703.348	-0.00589836
703.426	-0.00552078
703.504	-0.00460007
703.582	-0.00325790
703.660	-0.00154839
703.738	0.000511856
703.817	0.00297493
703.895	0.00561287
703.973	0.00852310
704.051	0.0113825
704.129	0.0145261
704.207	0.0177317
704.285	0.0206223
704.363	0.0238017
704.442	0.0267052
704.520	0.0293502
704.598	0.0317199
704.676	0.0338838
704.754	0.0354968
704.832	0.0368622
704.910	0.0381253
704.988	0.0384978
705.067	0.0385055
705.145	0.0382722
705.223	0.0375243
705.301	0.0365327
705.379	0.0352950
705.457	0.0338223
705.535	0.0321385
705.613	0.0306828
705.692	0.0288376
705.770	0.0271967
705.848	0.0260510
705.926	0.0248454
706.004	0.0238511
706.082	0.0228539
706.160	0.0222804
706.238	0.0215040
706.317	0.0206244
706.395	0.0201196
706.473	0.0192798
706.551	0.0185664
706.629	0.0175362
706.707	0.0164096
706.785	0.0152748
706.863	0.0140066
706.942	0.0126184
707.020	0.0109912
707.098	0.00956673
707.176	0.00784309
707.254	0.00640518
707.332	0.00502991
707.410	0.00357208
707.488	0.00229355
707.567	0.00122108
707.645	0.000249863
707.723	-0.000477905
707.801	-0.000921478
707.879	-0.00115807
707.957	-0.00116669
708.035	-0.000813293
708.113	-0.000242233
708.192	0.000838470
708.270	0.00198265
708.348	0.00347458
708.426	0.00532112
708.504	0.00725304
708.582	0.00966019
708.660	0.0121887
708.738	0.0148162
708.817	0.0175166
708.895	0.0200835
708.973	0.0226705
709.051	0.0251322
709.129	0.0271667
709.207	0.0291703
709.285	0.0307596
709.363	0.0320335
709.442	0.0327549
709.520	0.0332807
709.598	0.0335168
709.676	0.0335201
709.754	0.0329983
709.832	0.0324401
709.910	0.0316528
709.988	0.0308215
710.067	0.0300199
710.145	0.0291383
710.223	0.0282124
710.301	0.0272285
710.379	0.0264499
710.457	0.0255926
710.535	0.0246748
710.613	0.0239244
710.692	0.0230758
710.770	0.0223882
710.848	0.0214862
710.926	0.0210201
711.004	0.0201513
711.082	0.0192210
711.160	0.0183388
711.238	0.0174578
711.317	0.0165040
711.395	0.0153252
711.473	0.0142478
711.551	0.0134811
711.629	0.0124841
711.707	0.0116680
711.785	0.0110546
711.863	0.0104622
711.942	0.0100425
712.020	0.00978691
712.098	0.00938980
712.176	0.00924362
712.254	0.00921776
712.332	0.00900406
712.410	0.00916740
712.488	0.00919876
712.567	0.00928001
712.645	0.00946342
712.723	0.00960358
712.801	0.00971909
712.879	0.0101311
712.957	0.0105457
713.035	0.0109733
713.113	0.0113210
713.192	0.0121072
713.270	0.0129471
713.348	0.0136596
713.426	0.0145775
713.504	0.0154099
713.582	0.0161776
713.660	0.0169123
713.738	0.0176294
713.817	0.0180880
713.895	0.0186743
713.973	0.0191566
714.051	0.0193536
714.129	0.0194968
714.207	0.0196703
714.285	0.0199406
714.363	0.0200014
714.442	0.0204981
714.520	0.0208843
714.598	0.0212341
714.676	0.0217545
714.754	0.0223194
714.832	0.0229351
714.910	0.0237986
714.988	0.0241953
715.067	0.0245320
715.145	0.0247861
715.223	0.0249458
715.301	0.0250722
715.379	0.0248297
715.457	0.0246073
715.535	0.0241826
715.613	0.0236993
715.692	0.0228979
715.770	0.0222087
715.848	0.0214692
715.926	0.0206313
716.004	0.0196881
716.082	0.0190934
716.160	0.0184792
716.238	0.0176189
716.317	0.0170121
716.395	0.0164085
716.473	0.0160383
716.551	0.0157813
716.629	0.0153503
716.707	0.0150603
716.785	0.0148394
716.863	0.0149244
716.942	0.0151292
717.020	0.0150047
717.098	0.0151385
717.176	0.0153855
717.254	0.0155897
717.332	0.0155708
717.410	0.0158049
717.488	0.0160162
717.567	0.0160355
717.645	0.0160795
717.723	0.0160711
717.801	0.0160938
717.879	0.0162006
717.957	0.0160480
718.035	0.0157818
718.113	0.0157281
718.192	0.0156035
718.270	0.0154314
718.348	0.0153255
718.426	0.0151318
718.504	0.0148046
718.582	0.0146217
718.660	0.0144783
718.738	0.0144560
718.817	0.0142690
718.895	0.0144298
718.973	0.0144986
719.051	0.0147049
719.129	0.0150099
719.207	0.0154121
719.285	0.0158417
719.363	0.0163203
719.442	0.0167999
719.520	0.0173379
719.598	0.0179704
719.676	0.0184199
719.754	0.0188052
719.832	0.0192001
719.910	0.0195913
719.988	0.0198372
720.067	0.0200980
720.145	0.0202320
720.223	0.0200572
720.301	0.0200387
720.379	0.0200651
720.457	0.0198706
720.535	0.0198330
720.613	0.0197407
720.692	0.0194726
720.770	0.0194160
720.848	0.0191959
720.926	0.0189203
721.004	0.0188787
721.082	0.0188853
721.160	0.0186256
721.238	0.0183413
721.317	0.0180811
721.395	0.0179945
721.473	0.0179298
721.551	0.0178804
721.629	0.0178137
721.707	0.0179387
721.785	0.0181441
721.863	0.0181573
721.942	0.0183741
722.020	0.0187045
722.098	0.0191126
722.176	0.0191861
722.254	0.0194147
722.332	0.0195366
722.410	0.0197104
722.488	0.0196101
722.567	0.0194323
722.645	0.0193901
722.723	0.0191238
722.801	0.0187915
722.879	0.0182742
722.957	0.0179265
723.035	0.0176375
723.113	0.0171861
723.192	0.0167368
723.270	0.0164452
723.348	0.0162993
723.426	0.0161269
723.504	0.0160791
723.582	0.0159425
723.660	0.0160378
723.738	0.0159051
723.817	0.0159850
723.895	0.0162360
723.973	0.0162142
724.051	0.0161308
724.129	0.0162535
724.207	0.0163898
724.285	0.0163187
724.363	0.0163126
724.442	0.0163539
724.520	0.0162077
724.598	0.0162755
724.676	0.0161775
724.754	0.0163457
724.832	0.0164576
724.910	0.0165958
724.988	0.0166517
725.067	0.0166918
725.145	0.0169202
725.223	0.0169707
725.301	0.0168751
725.379	0.0171043
725.457	0.0172623
725.535	0.0172945
725.613	0.0173194
725.692	0.0171559
725.770	0.0171765
725.848	0.0171951
725.926	0.0171381
726.004	0.0169930
726.082	0.0169976
726.160	0.0169866
726.238	0.0169639
726.317	0.0171413
726.395	0.0169668
726.473	0.0172045
726.551	0.0173940
726.629	0.0176262
726.707	0.0178179
726.785	0.0181345
726.863	0.0182638
726.942	0.0183694
727.020	0.0186742
727.098	0.0189993
727.176	0.0188683
727.254	0.0187462
727.332	0.0188911
727.410	0.0188205
727.488	0.0187165
727.567	0.0186541
727.645	0.0185849
727.723	0.0185776
727.801	0.0184846
727.879	0.0183987
727.957	0.0182598
728.035	0.0183047
728.113	0.0183959
728.192	0.0182701
728.270	0.0182780
728.348	0.0182504
728.426	0.0181428
728.504	0.0183201
728.582	0.0182990
728.660	0.0182123
728.738	0.0179823
728.817	0.0180674
728.895	0.0180267
728.973	0.0177910
729.051	0.0179453
729.129	0.0178979
729.207	0.0179393
729.285	0.0177923
729.363	0.0177467
729.442	0.0178172
729.520	0.0176727
729.598	0.0174934
729.676	0.0174159
729.754	0.0172986
729.832	0.0173542
729.910	0.0173903
729.988	0.0172412
730.067	0.0172713
730.145	0.0172097
730.223	0.0171918
730.301	0.0174596
730.379	0.0173854
730.457	0.0175420
730.535	0.0175150
730.613	0.0176166
730.692	0.0174707
730.770	0.0175487
730.848	0.0175583
730.926	0.0175161
731.004	0.0173450
731.082	0.0172797
731.160	0.0170450
731.238	0.0168486
731.317	0.0168462
731.395	0.0167438
731.473	0.0166171
731.551	0.0166038
731.629	0.0166523
731.707	0.0165448
731.785	0.0163291
731.863	0.0164812
731.942	0.0163296
732.020	0.0163451
732.098	0.0163936
732.176	0.0164827
732.254	0.0164340
732.332	0.0164198
732.410	0.0165302
732.488	0.0166843
732.567	0.0166844
732.645	0.0166789
732.723	0.0170142
732.801	0.0171211
732.879	0.0173138
732.957	0.0175421
733.035	0.0177020
733.113	0.0176201
733.192	0.0179620
733.270	0.0180859
733.348	0.0181634
733.426	0.0181226
733.504	0.0181988
733.582	0.0183043
733.660	0.0182736
733.738	0.0182793
733.817	0.0181515
733.895	0.0182662
733.973	0.0183272
734.051	0.0183521
734.129	0.0183824
734.207	0.0182640
734.285	0.0181203
734.363	0.0182034
734.442	0.0184241
734.520	0.0185907
734.598	0.0186577
734.676	0.0187746
734.754	0.0188240
734.832	0.0190946
734.910	0.0189455
734.988	0.0191806
735.067	0.0191768
735.145	0.0191773
735.223	0.0190949
735.301	0.0189502
735.379	0.0190628
735.457	0.0187482
735.535	0.0186632
735.613	0.0182986
735.692	0.0183461
735.770	0.0180582
735.848	0.0178753
735.926	0.0176713
736.004	0.0176210
736.082	0.0174128
736.160	0.0173529
736.238	0.0172716
736.317	0.0169752
736.395	0.0169287
736.473	0.0168813
736.551	0.0167094
736.629	0.0166531
736.707	0.0165989
736.785	0.0164405
736.863	0.0165121
736.942	0.0163729
737.020	0.0161478
737.098	0.0162083
737.176	0.0161890
737.254	0.0161660
737.332	0.0161996
737.410	0.0162744
737.488	0.0165073
737.567	0.0165947
737.645	0.0166320
737.723	0.0169573
737.801	0.0170863
737.879	0.0173064
737.957	0.0172671
738.035	0.0176488
738.113	0.0176646
738.192	0.0176933
738.270	0.0179620
738.348	0.0180708
738.426	0.0182115
738.504	0.0180724
738.582	0.0182797
738.660	0.0182370
738.738	0.0182943
738.817	0.0181586
738.895	0.0182094
738.973	0.0180302
739.051	0.0179883
739.129	0.0179145
739.207	0.0176925
739.285	0.0176386
739.363	0.0174834
739.442	0.0174261
739.520	0.0174287
739.598	0.0172807
739.676	0.0173229
739.754	0.0173910
739.832	0.0173271
739.910	0.0173796
739.988	0.0174196
740.067	0.0172958
740.145	0.0174261
740.223	0.0175034
740.301	0.0176407
740.379	0.0177640
740.457	0.0178637
740.535	0.0177995
740.613	0.0179315
740.692	0.0180084
740.770	0.0181065
740.848	0.0179131
740.926	0.0179405
741.004	0.0179230
741.082	0.0179036
741.160	0.0177927
741.238	0.0176347
741.317	0.0176543
741.395	0.0175638
741.473	0.0175674
741.551	0.0174303
741.629	0.0173434
741.707	0.0172925
741.785	0.0172379
741.863	0.0171829
741.942	0.0170628
742.020	0.0172337
742.098	0.0173093
742.176	0.0173229
742.254	0.0174352
742.332	0.0177499
742.410	0.0179129
742.488	0.0180725
742.567	0.0182917
742.645	0.0183510
742.723	0.0184962
742.801	0.0186773
742.879	0.0188475
742.957	0.0188995
743.035	0.0189602
743.113	0.0189529
743.192	0.0188300
743.270	0.0188190
743.348	0.0186563
743.426	0.0185854
743.504	0.0182806
743.582	0.0181481
743.660	0.0179680
743.738	0.0177522
743.817	0.0174519
743.895	0.0172037
743.973	0.0168755
744.051	0.0168242
744.129	0.0166766
744.207	0.0163499
744.285	0.0163400
744.363	0.0163823
744.442	0.0162284
744.520	0.0162292
744.598	0.0163624
744.676	0.0165311
744.754	0.0165681
744.832	0.0169439
744.910	0.0171500
744.988	0.0172135
745.067	0.0174073
745.145	0.0176197
745.223	0.0177677
745.301	0.0178850
745.379	0.0179242
745.457	0.0181484
745.535	0.0180674
745.613	0.0180466
745.692	0.0180788
745.770	0.0178462
745.848	0.0177214
745.926	0.0175396
746.004	0.0172979
746.082	0.0171780
746.160	0.0169724
746.238	0.0168280
746.317	0.0169071
746.395	0.0167554
746.473	0.0167355
746.551	0.0168436
746.629	0.0169613
746.707	0.0169582
746.785	0.0170226
746.863	0.0172402
746.942	0.0173703
747.020	0.0175617
747.098	0.0176133
747.176	0.0177299
747.254	0.0177859
747.332	0.0178278
747.410	0.0179682
747.488	0.0179569
747.567	0.0180154
747.645	0.0179343
747.723	0.0179690
747.801	0.0180134
747.879	0.0180157
747.957	0.0178532
748.035	0.0178258
748.113	0.0178894
748.192	0.0178500
748.270	0.0179988
748.348	0.0180830
748.426	0.0180820
748.504	0.0180731
748.582	0.0181734
748.660	0.0182454
748.738	0.0183456
748.817	0.0184177
748.895	0.0182934
748.973	0.0182997
749.051	0.0183074
749.129	0.0183554
749.207	0.0182037
749.285	0.0182219
749.363	0.0179313
749.442	0.0178349
749.520	0.0177090
749.598	0.0176079
749.676	0.0175709
749.754	0.0173380
749.832	0.0171222
749.910	0.0170238
749.988	0.0169627
750.067	0.0169674
750.145	0.0169901
750.223	0.0169796
750.301	0.0170896
750.379	0.0172029
750.457	0.0172122
750.535	0.0172142
750.613	0.0173786
750.692	0.0174300
750.770	0.0172968
750.848	0.0176448
750.926	0.0175916
751.004	0.0176062
751.082	0.0177219
751.160	0.0177398
751.238	0.0178807
751.317	0.0178648
751.395	0.0178154
751.473	0.0177832
751.551	0.0177717
751.629	0.0176022
751.707	0.0176720
751.785	0.0175665
751.863	0.0174893
751.942	0.0174637
752.020	0.0171578
752.098	0.0171053
752.176	0.0169583
752.254	0.0168834
752.332	0.0167918
752.410	0.0167838
752.488	0.0166972
752.567	0.0168319
752.645	0.0168037
752.723	0.0170437
752.801	0.0171215
752.879	0.0172261
752.957	0.0173921
753.035	0.0175234
753.113	0.0178616
753.192	0.0179810
753.270	0.0181783
753.348	0.0183562
753.426	0.0183276
753.504	0.0186443
753.582	0.0186575
753.660	0.0185081
753.738	0.0183581
753.817	0.0184148
753.895	0.0181982
753.973	0.0178944
754.051	0.0177576
754.129	0.0174282
754.207	0.0170524
754.285	0.0167442
754.363	0.0165356
754.442	0.0162881
754.520	0.0162608
754.598	0.0161311
754.676	0.0160016
754.754	0.0161127
754.832	0.0161429
754.910	0.0163046
754.988	0.0164277
755.067	0.0167577
755.145	0.0170070
755.223	0.0171421
755.301	0.0174931
755.379	0.0176931
755.457	0.0180042
755.535	0.0182330
755.613	0.0184838
755.692	0.0185336
755.770	0.0186849
755.848	0.0187041
755.926	0.0187723
756.004	0.0188001
756.082	0.0187013
756.160	0.0185300
756.238	0.0185573
756.317	0.0181917
756.395	0.0179917
756.473	0.0178912
756.551	0.0178765
756.629	0.0176845
756.707	0.0175487
756.785	0.0174099
756.863	0.0173766
756.942	0.0174438
757.020	0.0173623
757.098	0.0174517
757.176	0.0175780
757.254	0.0178721
757.332	0.0177958
757.410	0.0178109
757.488	0.0178141
757.567	0.0179639
757.645	0.0179704
757.723	0.0180288
757.801	0.0180388
757.879	0.0179270
757.957	0.0180241
758.035	0.0179832
758.113	0.0177647
758.192	0.0178103
758.270	0.0178466
758.348	0.0178356
758.426	0.0176893
758.504	0.0175018
758.582	0.0173381
758.660	0.0172390
758.738	0.0172030
758.817	0.0171770
758.895	0.0169931
758.973	0.0169179
759.051	0.0168093
759.129	0.0168146
759.207	0.0167323
759.285	0.0167118
759.363	0.0167538
759.442	0.0169582
759.520	0.0168268
759.598	0.0168649
759.676	0.0169613
759.754	0.0170908
759.832	0.0170430
759.910	0.0171233
759.988	0.0174023
760.067	0.0173956
760.145	0.0175537
760.223	0.0175045
760.301	0.0175090
760.379	0.0176118
760.457	0.0174314
760.535	0.0174992
760.613	0.0172836
760.692	0.0172148
760.770	0.0172396
760.848	0.0172332
760.926	0.0171401
761.004	0.0173425
761.082	0.0172631
761.160	0.0172243
761.238	0.0173478
761.317	0.0176118
761.395	0.0177240
761.473	0.0177582
761.551	0.0179526
761.629	0.0181413
761.707	0.0180938
761.785	0.0183156
761.863	0.0185731
761.942	0.0185462
762.020	0.0186122
762.098	0.0186754
762.176	0.0184242
762.254	0.0184625
762.332	0.0183954
762.410	0.0182423
762.488	0.0182933
762.567	0.0180433
762.645	0.0177951
762.723	0.0176595
762.801	0.0174993
762.879	0.0173672
762.957	0.0171579
763.035	0.0169532
763.113	0.0168587
763.192	0.0168768
763.270	0.0167223
763.348	0.0168575
763.426	0.0168587
763.504	0.0169878
763.582	0.0170959
763.660	0.0172837
763.738	0.0174658
763.817	0.0174046
763.895	0.0176153
763.973	0.0178682
764.051	0.0178976
764.129	0.0181024
764.207	0.0182590
764.285	0.0182417
764.363	0.0182370
764.442	0.0183409
764.520	0.0181796
764.598	0.0180325
764.676	0.0180762
764.754	0.0179211
764.832	0.0179037
764.910	0.0176749
764.988	0.0175549
765.067	0.0173583
765.145	0.0173458
765.223	0.0173350
765.301	0.0171928
765.379	0.0171837
765.457	0.0171216
765.535	0.0171835
765.613	0.0172314
765.692	0.0173811
765.770	0.0174673
765.848	0.0175497
765.926	0.0176049
766.004	0.0178957
766.082	0.0179633
766.160	0.0181503
766.238	0.0181510
766.317	0.0181600
766.395	0.0181393
766.473	0.0182796
766.551	0.0182539
766.629	0.0181805
766.707	0.0180143
766.785	0.0179472
766.863	0.0178784
766.942	0.0178168
767.020	0.0176305
767.098	0.0175623
767.176	0.0173801
767.254	0.0172339
767.332	0.0170047
767.410	0.0170317
767.488	0.0168435
767.567	0.0166946
767.645	0.0167166
767.723	0.0166235
767.801	0.0164488
767.879	0.0165163
767.957	0.0166374
768.035	0.0165595
768.113	0.0166548
768.192	0.0166557
768.270	0.0167478
768.348	0.0168766
768.426	0.0170971
768.504	0.0172289
768.582	0.0171725
768.660	0.0173933
768.738	0.0174963
768.817	0.0175760
768.895	0.0176186
768.973	0.0175583
769.051	0.0177137
769.129	0.0176043
769.207	0.0175965
769.285	0.0175375
769.363	0.0175885
769.442	0.0176887
769.520	0.0176708
769.598	0.0177169
769.676	0.0177502
769.754	0.0177692
769.832	0.0174905
769.910	0.0177141
769.988	0.0178233
770.067	0.0177933
770.145	0.0177620
770.223	0.0179881
770.301	0.0179688
770.379	0.0179998
770.457	0.0180933
770.535	0.0180801
770.613	0.0182952
770.692	0.0183887
770.770	0.0184064
770.848	0.0183546
770.926	0.0182238
771.004	0.0182541
771.082	0.0182530
771.160	0.0182370
771.238	0.0180438
771.317	0.0180483
771.395	0.0180054
771.473	0.0179816
771.551	0.0177505
771.629	0.0177389
771.707	0.0175890
771.785	0.0174103
771.863	0.0175488
771.942	0.0175462
772.020	0.0172250
772.098	0.0171790
772.176	0.0173546
772.254	0.0173389
772.332	0.0173308
772.410	0.0172650
772.488	0.0173762
772.567	0.0172675
772.645	0.0174776
772.723	0.0174363
772.801	0.0174421
772.879	0.0172778
772.957	0.0173540
773.035	0.0173499
773.113	0.0175128
773.192	0.0174324
773.270	0.0173740
773.348	0.0173672
773.426	0.0173587
773.504	0.0174583
773.582	0.0172908
773.660	0.0174256
773.738	0.0176073
773.817	0.0175107
773.895	0.0175375
773.973	0.0174899
774.051	0.0174394
774.129	0.0176311
774.207	0.0174727
774.285	0.0175671
774.363	0.0173414
774.442	0.0173565
774.520	0.0173074
774.598	0.0174395
774.676	0.0175121
774.754	0.0175397
774.832	0.0173894
774.910	0.0175258
774.988	0.0175581
775.067	0.0175487
775.145	0.0177117
775.223	0.0176905
775.301	0.0178134
775.379	0.0179049
775.457	0.0179653
775.535	0.0177763
775.613	0.0179140
775.692	0.0177306
775.770	0.0178001
775.848	0.0177491
775.926	0.0175446
776.004	0.0174461
776.082	0.0174805
776.160	0.0172784
776.238	0.0171532
776.317	0.0171885
776.395	0.0171017
776.473	0.0170509
776.551	0.0169352
776.629	0.0170209
776.707	0.0170407
776.785	0.0169588
776.863	0.0168082
776.942	0.0169650
777.020	0.0168585
777.098	0.0170092
777.176	0.0170909
777.254	0.0169732
777.332	0.0172314
777.410	0.0171828
777.488	0.0174484
777.567	0.0175188
777.645	0.0174326
777.723	0.0175446
777.801	0.0176336
777.879	0.0176876
777.957	0.0177634
778.035	0.0178556
778.113	0.0178675
778.192	0.0179844
778.270	0.0180653
778.348	0.0180401
778.426	0.0182034
778.504	0.0181930
778.582	0.0181434
778.660	0.0183863
778.738	0.0183662
778.817	0.0184118
778.895	0.0183281
778.973	0.0182734
779.051	0.0182481
779.129	0.0182098
779.207	0.0181606
779.285	0.0181472
779.363	0.0179799
779.442	0.0180595
779.520	0.0178793
779.598	0.0179634
779.676	0.0180142
779.754	0.0180151
779.832	0.0178448
779.910	0.0179929
779.988	0.0178340
780.067	0.0178128
780.145	0.0178612
780.223	0.0179012
780.301	0.0179011
780.379	0.0178028
780.457	0.0178943
780.535	0.0178363
780.613	0.0176523
780.692	0.0176989
780.770	0.0177333
780.848	0.0175829
780.926	0.0175169
781.004	0.0174287
781.082	0.0172000
781.160	0.0172997
781.238	0.0172096
781.317	0.0170039
781.395	0.0170392
781.473	0.0168683
781.551	0.0168397
781.629	0.0167909
781.707	0.0165904
781.785	0.0166072
781.863	0.0166592
781.942	0.0166435
782.020	0.0165486
782.098	0.0167180
782.176	0.0166483
782.254	0.0167014
782.332	0.0168550
782.410	0.0168504
782.488	0.0169037
782.567	0.0170249
782.645	0.0172155
782.723	0.0173386
782.801	0.0172175
782.879	0.0173244
782.957	0.0174005
783.035	0.0174020
783.113	0.0173772
783.192	0.0176215
783.270	0.0174465
783.348	0.0177245
783.426	0.0176564
783.504	0.0177473
783.582	0.0178063
783.660	0.0179063
783.738	0.0180237
783.817	0.0179707
783.895	0.0180002
783.973	0.0182685
784.051	0.0181610
784.129	0.0180775
784.207	0.0182255
784.285	0.0182731
784.363	0.0181981
784.442	0.0181222
784.520	0.0179636
784.598	0.0179384
784.676	0.0180776
784.754	0.0179668
784.832	0.0178381
784.910	0.0177799
784.988	0.0177723
785.067	0.0176077
785.145	0.0176405
785.223	0.0176556
785.301	0.0176422
785.379	0.0176868
785.457	0.0173695
785.535	0.0174433
785.613	0.0176138
785.692	0.0176006
785.770	0.0176778
785.848	0.0176605
785.926	0.0176218
786.004	0.0175749
786.082	0.0175895
786.160	0.0176247
786.238	0.0176917
786.317	0.0175371
786.395	0.0175719
786.473	0.0174516
786.551	0.0174858
786.629	0.0173370
786.707	0.0173432
786.785	0.0172639
786.863	0.0171080
786.942	0.0172638
787.020	0.0172295
787.098	0.0173524
787.176	0.0172790
787.254	0.0174442
787.332	0.0173489
787.410	0.0173306
787.488	0.0173729
787.567	0.0175048
787.645	0.0176072
787.723	0.0175618
787.801	0.0174546
787.879	0.0176760
787.957	0.0175443
788.035	0.0176352
788.113	0.0175817
788.192	0.0175999
788.270	0.0175778
788.348	0.0175616
788.426	0.0175934
788.504	0.0176689
788.582	0.0176458
788.660	0.0177003
788.738	0.0179012
788.817	0.0178065
788.895	0.0179397
788.973	0.0179621
789.051	0.0180069
789.129	0.0179443
789.207	0.0181102
789.285	0.0182643
789.363	0.0181487
789.442	0.0180138
789.520	0.0181194
789.598	0.0181492
789.676	0.0180869
789.754	0.0182012
789.832	0.0179942
789.910	0.0180666
789.988	0.0180354
790.067	0.0178196
790.145	0.0178279
790.223	0.0177233
790.301	0.0176328
790.379	0.0173943
790.457	0.0171956
790.535	0.0171857
790.613	0.0171288
790.692	0.0169398
790.770	0.0166521
790.848	0.0166799
790.926	0.0164828
791.004	0.0163725
791.082	0.0161916
791.160	0.0161431
791.238	0.0161867
791.317	0.0159634
791.395	0.0158836
791.473	0.0159942
791.551	0.0159653
791.629	0.0161572
791.707	0.0161116
791.785	0.0162748
791.863	0.0164428
791.942	0.0166127
792.020	0.0167136
792.098	0.0170066
792.176	0.0173096
792.254	0.0175458
792.332	0.0179505
792.410	0.0180711
792.488	0.0183475
792.567	0.0187011
792.645	0.0187913
792.723	0.0191022
792.801	0.0192422
792.879	0.0191679
792.957	0.0194030
793.035	0.0195070
793.113	0.0195825
793.192	0.0195500
793.270	0.0196343
793.348	0.0195624
793.426	0.0195906
793.504	0.0193519
793.582	0.0191762
793.660	0.0190643
793.738	0.0189503
793.817	0.0186929
793.895	0.0185104
793.973	0.0184882
794.051	0.0182105
794.129	0.0180231
794.207	0.0177969
794.285	0.0177249
794.363	0.0175285
794.442	0.0173345
794.520	0.0171906
794.598	0.0170354
794.676	0.0168101
794.754	0.0166142
794.832	0.0165190
794.910	0.0163161
794.988	0.0160629
795.067	0.0161292
795.145	0.0159005
795.223	0.0158662
795.301	0.0156862
795.379	0.0157335
795.457	0.0156964
795.535	0.0154548
795.613	0.0154749
795.692	0.0155280
795.770	0.0157585
795.848	0.0158575
795.926	0.0160068
796.004	0.0162499
796.082	0.0164195
796.160	0.0165089
796.238	0.0168095
796.317	0.0171503
796.395	0.0173769
796.473	0.0175288
796.551	0.0179266
796.629	0.0179452
796.707	0.0183587
796.785	0.0184960
796.863	0.0185870
796.942	0.0188855
797.020	0.0190126
797.098	0.0191709
797.176	0.0193304
797.254	0.0193151
797.332	0.0193377
797.410	0.0194103
797.488	0.0195741
797.567	0.0194472
797.645	0.0194911
797.723	0.0193842
797.801	0.0193526
797.879	0.0193695
797.957	0.0193076
798.035	0.0190482
798.113	0.0189583
798.192	0.0189689
798.270	0.0187449
798.348	0.0185941
798.426	0.0183424
798.504	0.0181802
798.582	0.0179251
798.660	0.0176345
798.738	0.0174756
798.817	0.0172842
798.895	0.0169820
798.973	0.0165129
799.051	0.0163214
799.129	0.0160702
799.207	0.0158440
799.285	0.0155338
799.363	0.0151469
799.442	0.0149903
799.520	0.0149805
799.598	0.0147812
799.676	0.0147083
799.754	0.0146072
799.832	0.0147193
799.910	0.0147607
799.988	0.0148839
800.067	0.0150016
800.145	0.0151270
800.223	0.0155077
800.301	0.0157800
800.379	0.0162683
800.457	0.0164265
800.535	0.0166708
800.613	0.0171503
800.692	0.0175330
800.770	0.0179224
800.848	0.0182919
800.926	0.0186509
801.004	0.0189711
801.082	0.0191248
801.160	0.0194606
801.238	0.0196945
801.317	0.0197381
801.395	0.0200340
801.473	0.0201213
801.551	0.0201706
801.629	0.0203131
801.707	0.0201118
801.785	0.0200703
801.863	0.0201340
801.942	0.0199614
802.020	0.0200745
802.098	0.0200708
802.176	0.0199002
802.254	0.0197153
802.332	0.0195811
802.410	0.0193962
802.488	0.0191267
802.567	0.0191783
802.645	0.0190685
802.723	0.0188635
802.801	0.0184148
802.879	0.0183069
802.957	0.0180324
803.035	0.0177657
803.113	0.0174580
803.192	0.0173052
803.270	0.0170565
803.348	0.0167588
803.426	0.0166471
803.504	0.0163287
803.582	0.0160427
803.660	0.0158241
803.738	0.0156655
803.817	0.0154088
803.895	0.0154138
803.973	0.0152269
804.051	0.0151474
804.129	0.0150432
804.207	0.0149931
804.285	0.0150463
804.363	0.0150467
804.442	0.0150896
804.520	0.0150303
804.598	0.0151147
804.676	0.0155665
804.754	0.0157216
804.832	0.0158346
804.910	0.0162330
804.988	0.0163404
805.067	0.0166859
805.145	0.0167691
805.223	0.0169356
805.301	0.0173309
805.379	0.0174794
805.457	0.0177648
805.535	0.0178410
805.613	0.0179497
805.692	0.0182829
805.770	0.0184526
805.848	0.0184422
805.926	0.0187733
806.004	0.0188830
806.082	0.0188930
806.160	0.0190269
806.238	0.0191455
806.317	0.0193497
806.395	0.0194047
806.473	0.0193359
806.551	0.0194134
806.629	0.0195428
806.707	0.0193717
806.785	0.0193863
806.863	0.0192646
806.942	0.0192279
807.020	0.0191666
807.098	0.0190492
807.176	0.0189286
807.254	0.0188991
807.332	0.0187373
807.410	0.0184957
807.488	0.0183175
807.567	0.0182909
807.645	0.0179267
807.723	0.0177303
807.801	0.0177186
807.879	0.0176286
807.957	0.0173180
808.035	0.0172117
808.113	0.0171291
808.192	0.0169044
808.270	0.0170377
808.348	0.0169891
808.426	0.0167484
808.504	0.0168420
808.582	0.0169021
808.660	0.0169536
808.738	0.0169135
808.817	0.0169542
808.895	0.0168980
808.973	0.0168857
809.051	0.0170108
809.129	0.0170174
809.207	0.0169542
809.285	0.0169299
809.363	0.0170603
809.442	0.0169027
809.520	0.0169860
809.598	0.0169441
809.676	0.0169568
809.754	0.0169199
809.832	0.0170004
809.910	0.0170096
809.988	0.0171665
810.067	0.0170259
810.145	0.0172032
810.223	0.0172073
810.301	0.0171657
810.379	0.0171734
810.457	0.0172660
810.535	0.0171154
810.613	0.0172003
810.692	0.0173013
810.770	0.0174516
810.848	0.0174469
810.926	0.0175374
811.004	0.0175172
811.082	0.0175474
811.160	0.0175799
811.238	0.0177847
811.317	0.0178535
811.395	0.0179734
811.473	0.0180237
811.551	0.0182483
811.629	0.0181368
811.707	0.0181770
811.785	0.0182713
811.863	0.0184295
811.942	0.0185647
812.020	0.0183505
812.098	0.0185298
812.176	0.0183492
812.254	0.0184217
812.332	0.0185950
812.410	0.0184831
812.488	0.0184211
812.567	0.0183440
812.645	0.0182990
812.723	0.0181387
812.801	0.0180772
812.879	0.0180823
812.957	0.0180305
813.035	0.0180112
813.113	0.0178961
813.192	0.0180190
813.270	0.0179173
813.348	0.0179169
813.426	0.0177780
813.504	0.0177949
813.582	0.0177930
813.660	0.0178058
813.738	0.0176653
813.817	0.0175462
813.895	0.0175873
813.973	0.0175073
814.051	0.0173748
814.129	0.0174009
814.207	0.0174015
814.285	0.0172559
814.363	0.0172571
814.442	0.0173049
814.520	0.0169810
814.598	0.0169551
814.676	0.0169517
814.754	0.0169541
814.832	0.0169949
814.910	0.0168872
814.988	0.0168116
815.067	0.0167430
815.145	0.0167760
815.223	0.0168531
815.301	0.0167509
815.379	0.0168084
815.457	0.0168311
815.535	0.0168474
815.613	0.0169556
815.692	0.0169503
815.770	0.0168810
815.848	0.0171970
815.926	0.0171353
816.004	0.0171706
816.082	0.0173068
816.160	0.0171983
816.238	0.0173336
816.317	0.0174154
816.395	0.0173751
816.473	0.0175446
816.551	0.0177071
816.629	0.0176086
816.707	0.0178100
816.785	0.0178615
816.863	0.0178108
816.942	0.0180753
817.020	0.0180032
817.098	0.0181969
817.176	0.0183281
817.254	0.0182055
817.332	0.0184301
817.410	0.0184753
817.488	0.0185181
817.567	0.0185471
817.645	0.0185285
817.723	0.0185778
817.801	0.0185612
817.879	0.0185091
817.957	0.0184869
818.035	0.0183447
818.113	0.0183135
818.192	0.0183469
818.270	0.0181551
818.348	0.0182578
818.426	0.0181717
818.504	0.0181086
818.582	0.0181401
818.660	0.0181212
818.738	0.0179995
818.817	0.0178768
818.895	0.0178568
818.973	0.0178055
819.051	0.0178064
819.129	0.0178282
819.207	0.0175646
819.285	0.0174929
819.363	0.0176891
819.442	0.0174648
819.520	0.0173029
819.598	0.0172511
819.676	0.0172659
819.754	0.0172099
819.832	0.0171954
819.910	0.0171571
819.988	0.0172234
820.067	0.0171151
820.145	0.0170306
820.223	0.0170199
820.301	0.0169301
820.379	0.0171247
820.457	0.0169753
820.535	0.0169660
820.613	0.0168706
820.692	0.0170102
820.770	0.0168969
820.848	0.0168814
820.926	0.0168145
821.004	0.0171477
821.082	0.0169358
821.160	0.0167970
821.238	0.0171704
821.317	0.0169241
821.395	0.0172004
821.473	0.0171156
821.551	0.0171452
821.629	0.0172395
821.707	0.0174429
821.785	0.0174360
821.863	0.0174166
821.942	0.0175179
822.020	0.0177475
822.098	0.0176870
822.176	0.0178213
822.254	0.0179222
822.332	0.0179917
822.410	0.0180287
822.488	0.0178825
822.567	0.0180108
822.645	0.0179805
822.723	0.0179199
822.801	0.0181557
822.879	0.0179214
822.957	0.0178582
823.035	0.0180331
823.113	0.0179673
823.192	0.0178816
823.270	0.0179066
823.348	0.0179018
823.426	0.0180754
823.504	0.0180470
823.582	0.0180885
823.660	0.0181519
823.738	0.0181296
823.817	0.0181627
823.895	0.0181905
823.973	0.0181924
824.051	0.0182108
824.129	0.0182193
824.207	0.0181799
824.285	0.0179778
824.363	0.0180864
824.442	0.0181085
824.520	0.0180418
824.598	0.0180230
824.676	0.0179101
824.754	0.0177678
824.832	0.0176419
824.910	0.0175838
824.988	0.0176394
825.067	0.0174989
825.145	0.0173148
825.223	0.0172967
825.301	0.0174121
825.379	0.0172482
825.457	0.0172174
825.535	0.0173029
825.613	0.0173231
825.692	0.0171850
825.770	0.0174239
825.848	0.0173390
825.926	0.0173812
826.004	0.0175375
826.082	0.0175518
826.160	0.0175941
826.238	0.0176667
826.317	0.0176811
826.395	0.0177067
826.473	0.0176914
826.551	0.0175639
826.629	0.0176762
826.707	0.0176567
826.785	0.0175480
826.863	0.0175545
826.942	0.0176682
827.020	0.0176143
827.098	0.0176172
827.176	0.0174551
827.254	0.0175121
827.332	0.0174960
827.410	0.0173730
827.488	0.0174973
827.567	0.0173857
827.645	0.0172578
827.723	0.0173365
827.801	0.0173466
827.879	0.0174348
827.957	0.0174203
828.035	0.0175658
828.113	0.0173140
828.192	0.0172934
828.270	0.0174059
828.348	0.0175151
828.426	0.0175095
828.504	0.0175642
828.582	0.0174482
828.660	0.0175399
828.738	0.0175192
828.817	0.0175611
828.895	0.0175484
828.973	0.0175338
829.051	0.0175693
829.129	0.0176160
829.207	0.0176035
829.285	0.0174821
829.363	0.0176003
829.442	0.0176377
829.520	0.0175802
829.598	0.0175761
829.676	0.0176458
829.754	0.0177401
829.832	0.0178625
829.910	0.0178381
829.988	0.0177778
830.067	0.0177611
830.145	0.0179540
830.223	0.0179028
830.301	0.0178203
830.379	0.0179852
830.457	0.0180131
830.535	0.0180437
830.613	0.0179666
830.692	0.0180958
830.770	0.0181371
830.848	0.0181293
830.926	0.0180017
831.004	0.0180167
831.082	0.0181958
831.160	0.0180653
831.238	0.0180386
831.317	0.0180191
831.395	0.0178498
831.473	0.0179939
831.551	0.0177882
831.629	0.0176108
831.707	0.0176187
831.785	0.0177116
831.863	0.0174364
831.942	0.0174163
832.020	0.0173563
832.098	0.0174009
832.176	0.0173210
832.254	0.0172415
832.332	0.0173607
832.410	0.0173458
832.488	0.0171363
832.567	0.0172556
832.645	0.0173608
832.723	0.0173869
832.801	0.0173103
832.879	0.0172587
832.957	0.0173660
833.035	0.0173751
833.113	0.0173412
833.192	0.0174009
833.270	0.0173222
833.348	0.0174122
833.426	0.0174740
833.504	0.0173486
833.582	0.0174945
833.660	0.0175414
833.738	0.0175455
833.817	0.0174824
833.895	0.0174916
833.973	0.0174370
834.051	0.0175793
834.129	0.0177677
834.207	0.0176028
834.285	0.0175890
834.363	0.0176297
834.442	0.0177533
834.520	0.0177575
834.598	0.0179351
834.676	0.0178857
834.754	0.0180322
834.832	0.0180693
834.910	0.0180658
834.988	0.0181554
835.067	0.0182911
835.145	0.0181225
835.223	0.0182046
835.301	0.0182309
835.379	0.0179300
835.457	0.0180529
835.535	0.0180392
835.613	0.0177657
835.692	0.0179329
835.770	0.0177843
835.848	0.0174742
835.926	0.0174191
836.004	0.0174257
836.082	0.0172884
836.160	0.0171858
836.238	0.0171560
836.317	0.0171326
836.395	0.0170967
836.473	0.0173338
836.551	0.0171714
836.629	0.0170696
836.707	0.0171365
836.785	0.0168555
836.863	0.0170136
836.942	0.0173748
837.020	0.0172208
837.098	0.0173448
837.176	0.0173812
837.254	0.0173892
837.332	0.0174136
837.410	0.0173622
837.488	0.0174506
837.567	0.0174034
837.645	0.0176140
837.723	0.0176010
837.801	0.0174479
837.879	0.0175751
837.957	0.0175868
838.035	0.0176058
838.113	0.0176296
838.192	0.0178461
838.270	0.0176249
838.348	0.0176606
838.426	0.0177139
838.504	0.0177803
838.582	0.0177469
838.660	0.0178929
838.738	0.0179404
838.817	0.0179216
838.895	0.0179912
838.973	0.0180630
839.051	0.0182615
839.129	0.0181264
839.207	0.0183109
839.285	0.0181696
839.363	0.0181255
839.442	0.0182690
839.520	0.0182785
839.598	0.0181787
839.676	0.0179910
839.754	0.0182627
839.832	0.0180453
839.910	0.0179106
839.988	0.0179477
840.067	0.0179025
840.145	0.0177720
840.223	0.0175549
840.301	0.0174255
840.379	0.0173991
840.457	0.0171360
840.535	0.0171394
840.613	0.0169999
840.692	0.0168965
840.770	0.0168329
840.848	0.0168362
840.926	0.0167122
841.004	0.0168273
841.082	0.0168710
841.160	0.0167495
841.238	0.0168034
841.317	0.0168817
841.395	0.0168550
841.473	0.0171133
841.551	0.0171297
841.629	0.0171679
841.707	0.0171358
841.785	0.0173243
841.863	0.0173922
841.942	0.0174703
842.020	0.0175243
842.098	0.0177428
842.176	0.0178280
842.254	0.0176829
842.332	0.0176258
842.410	0.0177802
842.488	0.0178216
842.567	0.0179906
842.645	0.0177930
842.723	0.0178893
842.801	0.0180158
842.879	0.0179652
842.957	0.0179800
843.035	0.0179527
843.113	0.0180023
843.192	0.0181048
843.270	0.0180682
843.348	0.0182344
843.426	0.0180785
843.504	0.0182067
843.582	0.0182683
843.660	0.0183278
843.738	0.0182715
843.817	0.0182269
843.895	0.0181228
843.973	0.0181430
844.051	0.0179206
844.129	0.0180812
844.207	0.0179675
844.285	0.0180002
844.363	0.0178790
844.442	0.0178374
844.520	0.0177544
844.598	0.0177048
844.676	0.0176212
844.754	0.0175709
844.832	0.0174503
844.910	0.0173392
844.988	0.0172535
845.067	0.0173672
845.145	0.0172198
845.223	0.0171857
845.301	0.0170943
845.379	0.0171618
845.457	0.0171841
845.535	0.0171294
845.613	0.0170467
845.692	0.0171068
845.770	0.0170675
845.848	0.0170644
845.926	0.0170123
846.004	0.0170469
846.082	0.0170970
846.160	0.0169891
846.238	0.0170314
846.317	0.0171367
846.395	0.0169423
846.473	0.0170747
846.551	0.0172566
846.629	0.0172884
846.707	0.0172843
846.785	0.0173188
846.863	0.0173490
846.942	0.0174422
847.020	0.0174763
847.098	0.0177023
847.176	0.0176414
847.254	0.0178036
847.332	0.0179131
847.410	0.0178588
847.488	0.0180264
847.567	0.0179928
847.645	0.0180039
847.723	0.0182919
847.801	0.0181412
847.879	0.0182295
847.957	0.0181802
848.035	0.0181889
848.113	0.0181776
848.192	0.0182566
848.270	0.0181423
848.348	0.0181063
848.426	0.0180290
848.504	0.0180842
848.582	0.0180517
848.660	0.0180550
848.738	0.0179807
848.817	0.0178295
848.895	0.0177262
848.973	0.0176701
849.051	0.0176122
849.129	0.0175378
849.207	0.0176152
849.285	0.0175849
849.363	0.0174180
849.442	0.0173341
849.520	0.0174018
849.598	0.0172469
849.676	0.0172747
849.754	0.0173635
849.832	0.0172787
849.910	0.0172607
849.988	0.0173658
850.067	0.0172571
850.145	0.0173752
850.223	0.0172437
850.301	0.0171866
850.379	0.0173746
850.457	0.0174330
850.535	0.0173706
850.613	0.0173981
850.692	0.0174353
850.770	0.0172408
850.848	0.0173446
850.926	0.0173833
851.004	0.0172750
851.082	0.0172300
851.160	0.0173231
851.238	0.0173827
851.317	0.0172366
851.395	0.0174018
851.473	0.0174153
851.551	0.0174477
851.629	0.0174808
851.707	0.0175835
851.785	0.0174608
851.863	0.0177125
851.942	0.0176626
852.020	0.0177551
852.098	0.0176578
852.176	0.0176889
852.254	0.0178684
852.332	0.0177330
852.410	0.0177150
852.488	0.0177470
852.567	0.0177743
852.645	0.0179427
852.723	0.0178859
852.801	0.0178362
852.879	0.0179173
852.957	0.0179039
853.035	0.0178022
853.113	0.0177891
853.192	0.0176478
853.270	0.0177032
853.348	0.0177305
853.426	0.0176414
853.504	0.0176753
853.582	0.0177652
853.660	0.0176343
853.738	0.0176345
853.817	0.0175457
853.895	0.0175836
853.973	0.0175208
854.051	0.0173988
854.129	0.0174586
854.207	0.0174686
854.285	0.0175321
854.363	0.0175046
854.442	0.0174062
854.520	0.0173193
854.598	0.0173000
854.676	0.0173909
854.754	0.0175121
854.832	0.0174128
854.910	0.0172992
854.988	0.0174845
855.067	0.0173286
855.145	0.0172552
855.223	0.0174732
855.301	0.0174084
855.379	0.0174442
855.457	0.0174368
855.535	0.0174374
855.613	0.0173354
855.692	0.0172871
855.770	0.0175517
855.848	0.0174694
855.926	0.0175422
856.004	0.0175532
856.082	0.0174999
856.160	0.0175228
856.238	0.0175045
856.317	0.0175388
856.395	0.0176369
856.473	0.0177390
856.551	0.0176391
856.629	0.0175851
856.707	0.0176835
856.785	0.0177283
856.863	0.0177036
856.942	0.0177214
857.020	0.0177054
857.098	0.0176049
857.176	0.0175996
857.254	0.0177551
857.332	0.0176624
857.410	0.0176366
857.488	0.0176062
857.567	0.0176011
857.645	0.0176814
857.723	0.0174741
857.801	0.0175131
857.879	0.0175253
857.957	0.0175009
858.035	0.0176826
858.113	0.0175008
858.192	0.0176111
858.270	0.0175504
858.348	0.0175168
858.426	0.0176459
858.504	0.0177000
858.582	0.0175791
858.660	0.0175602
858.738	0.0177414
858.817	0.0176154
858.895	0.0175894
858.973	0.0177243
859.051	0.0175407
859.129	0.0177956
859.207	0.0176173
859.285	0.0175734
859.363	0.0175337
859.442	0.0174778
859.520	0.0175232
859.598	0.0175566
859.676	0.0174104
859.754	0.0174024
859.832	0.0175040
859.910	0.0174720
859.988	0.0175706
860.067	0.0173501
860.145	0.0173685
860.223	0.0175464
860.301	0.0175589
860.379	0.0174870
860.457	0.0174994
860.535	0.0175413
860.613	0.0176997
860.692	0.0177647
860.770	0.0177068
860.848	0.0177262
860.926	0.0176710
861.004	0.0178311
861.082	0.0178123
861.160	0.0178082
861.238	0.0177652
861.317	0.0176707
861.395	0.0177637
861.473	0.0179215
861.551	0.0178120
861.629	0.0177038
861.707	0.0176500
861.785	0.0177176
861.863	0.0176497
861.942	0.0175391
862.020	0.0176397
862.098	0.0174219
862.176	0.0174007
862.254	0.0174323
862.332	0.0174057
862.410	0.0173941
862.488	0.0174380
862.567	0.0172100
862.645	0.0173302
862.723	0.0173485
862.801	0.0172507
862.879	0.0172194
862.957	0.0172757
863.035	0.0173522
863.113	0.0173450
863.192	0.0175080
863.270	0.0174294
863.348	0.0174356
863.426	0.0176057
863.504	0.0176887
863.582	0.0175742
863.660	0.0176878
863.738	0.0177277
863.817	0.0176672
863.895	0.0176167
863.973	0.0176710
864.051	0.0177493
864.129	0.0176438
864.207	0.0175800
864.285	0.0176614
864.363	0.0175986
864.442	0.0174438
864.520	0.0174527
864.598	0.0175549
864.676	0.0174644
864.754	0.0173399
864.832	0.0174057
864.910	0.0173134
864.988	0.0172001
865.067	0.0173429
865.145	0.0174824
865.223	0.0174628
865.301	0.0176188
865.379	0.0175426
865.457	0.0175167
865.535	0.0175529
865.613	0.0176873
865.692	0.0177593
865.770	0.0177979
865.848	0.0176111
865.926	0.0177879
866.004	0.0178200
866.082	0.0177852
866.160	0.0176343
866.238	0.0178204
866.317	0.0177599
866.395	0.0177477
866.473	0.0177371
866.551	0.0176980
866.629	0.0175444
866.707	0.0175774
866.785	0.0176550
866.863	0.0176576
866.942	0.0174580
867.020	0.0173833
867.098	0.0175981
867.176	0.0176315
867.254	0.0174948
867.332	0.0175077
867.410	0.0177094
867.488	0.0177147
867.567	0.0176802
867.645	0.0177595
867.723	0.0178952
867.801	0.0178332
867.879	0.0178078
867.957	0.0177109
868.035	0.0177295
868.113	0.0179288
868.192	0.0178047
868.270	0.0177943
868.348	0.0178769
868.426	0.0176704
868.504	0.0176112
868.582	0.0176532
868.660	0.0175653
868.738	0.0174244
868.817	0.0174509
868.895	0.0173779
868.973	0.0171980
869.051	0.0172273
869.129	0.0172430
869.207	0.0172392
869.285	0.0171831
869.363	0.0173037
869.442	0.0172757
869.520	0.0173076
869.598	0.0173530
869.676	0.0173392
869.754	0.0173705
869.832	0.0175329
869.910	0.0175465
869.988	0.0174767
870.067	0.0176711
870.145	0.0175441
870.223	0.0175546
870.301	0.0176647
870.379	0.0176459
870.457	0.0176917
870.535	0.0174910
870.613	0.0175378
870.692	0.0175535
870.770	0.0175854
870.848	0.0175454
870.926	0.0174473
871.004	0.0174443
871.082	0.0173790
871.160	0.0174586
871.238	0.0176472
871.317	0.0175459
871.395	0.0175764
871.473	0.0174864
871.551	0.0175672
871.629	0.0176272
871.707	0.0175901
871.785	0.0176260
871.863	0.0177163
871.942	0.0178146
872.020	0.0178316
872.098	0.0179380
872.176	0.0179329
872.254	0.0179695
872.332	0.0180917
872.410	0.0179276
872.488	0.0181108
872.567	0.0179733
872.645	0.0180283
872.723	0.0179601
872.801	0.0178439
872.879	0.0179799
872.957	0.0178505
873.035	0.0177972
873.113	0.0177607
873.192	0.0177563
873.270	0.0175120
873.348	0.0173835
873.426	0.0174465
873.504	0.0173634
873.582	0.0174287
873.660	0.0172351
873.738	0.0171352
873.817	0.0171272
873.895	0.0170616
873.973	0.0169833
874.051	0.0170020
874.129	0.0172063
874.207	0.0170574
874.285	0.0171968
874.363	0.0171539
874.442	0.0173206
874.520	0.0173782
874.598	0.0173859
874.676	0.0174361
874.754	0.0175411
874.832	0.0175356
874.910	0.0176373
874.988	0.0177422
875.067	0.0177216
875.145	0.0177775
875.223	0.0177437
875.301	0.0177164
875.379	0.0178724
875.457	0.0179346
875.535	0.0179818
875.613	0.0178686
875.692	0.0176141
875.770	0.0177496
875.848	0.0178114
875.926	0.0178703
876.004	0.0177192
876.082	0.0176324
876.160	0.0176946
876.238	0.0176776
876.317	0.0177440
876.395	0.0176906
876.473	0.0179576
876.551	0.0177086
876.629	0.0177433
876.707	0.0177972
876.785	0.0177930
876.863	0.0178750
876.942	0.0178867
877.020	0.0178166
877.098	0.0178700
877.176	0.0178028
877.254	0.0176996
877.332	0.0176041
877.410	0.0175918
877.488	0.0175626
877.567	0.0176045
877.645	0.0176093
877.723	0.0174973
877.801	0.0173296
877.879	0.0174978
877.957	0.0174087
878.035	0.0172327
878.113	0.0172416
878.192	0.0171167
878.270	0.0171544
878.348	0.0172266
878.426	0.0171399
878.504	0.0171450
878.582	0.0171208
878.660	0.0171455
878.738	0.0172698
878.817	0.0172690
878.895	0.0171979
878.973	0.0171737
879.051	0.0173423
879.129	0.0173519
879.207	0.0174516
879.285	0.0174538
879.363	0.0174718
879.442	0.0174036
879.520	0.0174471
879.598	0.0175491
879.676	0.0176202
879.754	0.0175246
879.832	0.0176965
879.910	0.0176404
879.988	0.0176989
880.067	0.0179184
880.145	0.0178671
880.223	0.0177664
880.301	0.0178905
880.379	0.0179472
880.457	0.0178849
880.535	0.0179337
880.613	0.0178463
880.692	0.0178942
880.770	0.0179438
880.848	0.0179767
880.926	0.0178202
881.004	0.0178166
881.082	0.0179015
881.160	0.0178671
881.238	0.0178496
881.317	0.0177290
881.395	0.0179059
881.473	0.0177125
881.551	0.0177734
881.629	0.0177316
881.707	0.0175365
881.785	0.0177578
881.863	0.0177013
881.942	0.0176833
882.020	0.0174723
882.098	0.0173497
882.176	0.0174305
882.254	0.0175565
882.332	0.0172147
882.410	0.0172546
882.488	0.0172379
882.567	0.0171861
882.645	0.0171855
882.723	0.0170360
882.801	0.0170928
882.879	0.0173143
882.957	0.0173481
883.035	0.0172018
883.113	0.0172086
883.192	0.0172614
883.270	0.0172443
883.348	0.0174931
883.426	0.0176139
883.504	0.0175223
883.582	0.0177048
883.660	0.0177100
883.738	0.0177467
883.817	0.0177888
883.895	0.0179774
883.973	0.0180219
884.051	0.0180354
884.129	0.0180730
884.207	0.0182068
884.285	0.0180441
884.363	0.0182033
884.442	0.0181489
884.520	0.0182871
884.598	0.0180973
884.676	0.0181831
884.754	0.0180605
884.832	0.0179388
884.910	0.0179829
884.988	0.0177924
885.067	0.0177550
885.145	0.0176476
885.223	0.0175134
885.301	0.0175967
885.379	0.0174391
885.457	0.0171780
885.535	0.0172482
885.613	0.0172249
885.692	0.0171001
885.770	0.0170962
885.848	0.0169909
885.926	0.0169039
886.004	0.0169685
886.082	0.0169405
886.160	0.0168302
886.238	0.0167868
886.317	0.0167973
886.395	0.0169182
886.473	0.0169157
886.551	0.0170329
886.629	0.0169733
886.707	0.0170714
886.785	0.0171838
886.863	0.0171228
886.942	0.0172597
887.020	0.0174507
887.098	0.0175980
887.176	0.0175261
887.254	0.0175695
887.332	0.0177477
887.410	0.0176815
887.488	0.0177899
887.567	0.0180719
887.645	0.0181175
887.723	0.0183039
887.801	0.0182795
887.879	0.0183331
887.957	0.0184610
888.035	0.0184267
888.113	0.0184492
888.192	0.0185048
888.270	0.0184315
888.348	0.0183440
888.426	0.0184060
888.504	0.0183270
888.582	0.0183097
888.660	0.0181750
888.738	0.0181799
888.817	0.0181203
888.895	0.0179422
888.973	0.0179296
889.051	0.0177528
889.129	0.0178004
889.207	0.0177380
889.285	0.0175135
889.363	0.0172386
889.442	0.0172481
889.520	0.0172720
889.598	0.0170709
889.676	0.0170132
889.754	0.0169662
889.832	0.0169922
889.910	0.0168701
889.988	0.0169230
890.067	0.0168537
890.145	0.0166396
890.223	0.0167331
890.301	0.0169112
890.379	0.0170022
890.457	0.0169558
890.535	0.0170518
890.613	0.0172015
890.692	0.0172057
890.770	0.0174487
890.848	0.0175788
890.926	0.0178044
891.004	0.0177206
891.082	0.0177518
891.160	0.0179739
891.238	0.0179494
891.317	0.0179578
891.395	0.0180243
891.473	0.0181716
891.551	0.0181334
891.629	0.0181380
891.707	0.0181769
891.785	0.0182626
891.863	0.0182139
891.942	0.0181087
892.020	0.0181432
892.098	0.0182197
892.176	0.0180858
892.254	0.0180734
892.332	0.0181619
892.410	0.0181629
892.488	0.0179966
892.567	0.0180428
892.645	0.0180840
892.723	0.0178315
892.801	0.0177703
892.879	0.0176519
892.957	0.0176472
893.035	0.0176994
893.113	0.0175850
893.192	0.0175020
893.270	0.0173959
893.348	0.0174429
893.426	0.0173266
893.504	0.0173092
893.582	0.0172191
893.660	0.0172149
893.738	0.0172449
893.817	0.0171980
893.895	0.0171321
893.973	0.0172916
894.051	0.0171340
894.129	0.0169956
894.207	0.0169225
894.285	0.0169298
894.363	0.0167094
894.442	0.0167884
894.520	0.0167858
894.598	0.0165528
894.676	0.0167036
894.754	0.0168090
894.832	0.0169421
894.910	0.0169882
894.988	0.0170713
895.067	0.0170755
895.145	0.0173624
895.223	0.0174869
895.301	0.0175349
895.379	0.0176724
895.457	0.0179854
895.535	0.0178623
895.613	0.0181216
895.692	0.0181693
895.770	0.0182197
895.848	0.0181966
895.926	0.0183959
896.004	0.0184342
896.082	0.0184600
896.160	0.0183799
896.238	0.0185045
896.317	0.0183659
896.395	0.0184112
896.473	0.0184028
896.551	0.0184901
896.629	0.0184751
896.707	0.0184685
896.785	0.0182962
896.863	0.0182764
896.942	0.0182092
897.020	0.0181948
897.098	0.0179479
897.176	0.0178674
897.254	0.0176665
897.332	0.0176694
897.410	0.0175015
897.488	0.0175007
897.567	0.0174429
897.645	0.0172817
897.723	0.0173921
897.801	0.0171470
897.879	0.0172598
897.957	0.0171356
898.035	0.0171542
898.113	0.0171258
898.192	0.0171133
898.270	0.0172292
898.348	0.0172158
898.426	0.0172995
898.504	0.0172936
898.582	0.0172862
898.660	0.0172685
898.738	0.0173201
898.817	0.0171553
898.895	0.0170979
898.973	0.0171199
899.051	0.0173479
899.129	0.0171023
899.207	0.0171952
899.285	0.0171114
899.363	0.0173149
899.442	0.0173800
899.520	0.0173990
899.598	0.0173044
899.676	0.0173835
899.754	0.0174838
899.832	0.0175381
899.910	0.0175407
899.988	0.0175537
900.067	0.0174873
900.145	0.0175574
900.223	0.0177745
900.301	0.0175730
900.379	0.0177885
900.457	0.0177279
900.535	0.0178033
900.613	0.0177477
900.692	0.0176974
900.770	0.0178635
900.848	0.0177808
900.926	0.0177192
901.004	0.0177740
901.082	0.0177539
901.160	0.0178397
901.238	0.0178652
901.317	0.0177773
901.395	0.0177708
901.473	0.0177879
901.551	0.0178281
901.629	0.0179304
901.707	0.0178395
901.785	0.0178076
901.863	0.0177719
901.942	0.0179507
902.020	0.0178381
902.098	0.0178081
902.176	0.0177058
902.254	0.0177390
902.332	0.0178017
902.410	0.0176473
902.488	0.0175302
902.567	0.0176182
902.645	0.0177309
902.723	0.0176466
902.801	0.0175379
902.879	0.0175793
902.957	0.0175999
903.035	0.0176683
903.113	0.0177335
903.192	0.0176608
903.270	0.0177654
903.348	0.0178741
903.426	0.0177038
903.504	0.0177862
903.582	0.0178206
903.660	0.0177406
903.738	0.0177086
903.817	0.0177570
903.895	0.0177345
903.973	0.0178082
904.051	0.0176888
904.129	0.0175828
904.207	0.0173918
904.285	0.0172114
904.363	0.0173163
904.442	0.0172464
904.520	0.0173103
904.598	0.0170093
904.676	0.0171039
904.754	0.0170571
904.832	0.0170255
904.910	0.0169955
904.988	0.0170617
905.067	0.0170999
905.145	0.0172079
905.223	0.0173930
905.301	0.0176154
905.379	0.0176690
905.457	0.0177370
905.535	0.0178948
905.613	0.0179624
905.692	0.0180576
905.770	0.0179025
905.848	0.0182201
905.926	0.0182023
906.004	0.0180632
906.082	0.0181313
906.160	0.0181863
906.238	0.0179339
906.317	0.0178369
906.395	0.0178761
906.473	0.0178001
906.551	0.0178277
906.629	0.0177418
906.707	0.0176723
906.785	0.0176762
906.863	0.0176353
906.942	0.0176178
907.020	0.0174898
907.098	0.0176021
907.176	0.0175457
907.254	0.0175182
907.332	0.0175636
907.410	0.0175145
907.488	0.0174473
907.567	0.0175539
907.645	0.0174087
907.723	0.0174810
907.801	0.0174553
907.879	0.0174553
907.957	0.0175237
908.035	0.0174883
908.113	0.0174852
908.192	0.0174822
908.270	0.0175916
908.348	0.0173778
908.426	0.0173823
908.504	0.0175793
908.582	0.0176672
908.660	0.0175423
908.738	0.0175311
908.817	0.0176376
908.895	0.0176861
908.973	0.0175151
909.051	0.0175139
909.129	0.0175317
909.207	0.0174413
909.285	0.0175175
909.363	0.0174953
909.442	0.0174977
909.520	0.0174129
909.598	0.0174047
909.676	0.0173814
909.754	0.0174296
909.832	0.0176005
909.910	0.0174657
909.988	0.0175330
910.067	0.0176248
910.145	0.0178066
910.223	0.0175807
910.301	0.0176717
910.379	0.0178349
910.457	0.0178423
910.535	0.0177567
910.613	0.0176724
910.692	0.0177251
910.770	0.0177800
910.848	0.0177500
910.926	0.0178306
911.004	0.0177455
911.082	0.0178790
911.160	0.0177863
911.238	0.0178725
911.317	0.0179026
911.395	0.0179340
911.473	0.0178957
911.551	0.0178462
911.629	0.0177818
911.707	0.0178797
911.785	0.0178318
911.863	0.0177135
911.942	0.0177800
912.020	0.0177866
912.098	0.0176231
912.176	0.0175214
912.254	0.0174950
912.332	0.0173855
912.410	0.0173441
912.488	0.0172671
912.567	0.0173419
912.645	0.0173621
912.723	0.0173415
912.801	0.0173270
912.879	0.0174541
912.957	0.0173914
913.035	0.0174175
913.113	0.0175149
913.192	0.0175344
913.270	0.0174863
913.348	0.0176356
913.426	0.0174844
913.504	0.0175983
913.582	0.0177430
913.660	0.0177757
913.738	0.0176878
913.817	0.0177863
913.895	0.0177436
913.973	0.0177658
914.051	0.0177958
914.129	0.0178359
914.207	0.0177761
914.285	0.0176739
914.363	0.0176051
914.442	0.0175571
914.520	0.0175674
914.598	0.0173866
914.676	0.0173305
914.754	0.0172556
914.832	0.0173238
914.910	0.0171928
914.988	0.0172183
915.067	0.0172234
915.145	0.0171591
915.223	0.0174034
915.301	0.0172508
915.379	0.0173146
915.457	0.0175108
915.535	0.0175790
915.613	0.0175818
915.692	0.0175332
915.770	0.0178435
915.848	0.0178645
915.926	0.0179793
916.004	0.0178933
916.082	0.0178366
916.160	0.0180093
916.238	0.0180533
916.317	0.0180088
916.395	0.0179502
916.473	0.0178761
916.551	0.0179664
916.629	0.0178195
916.707	0.0177872
916.785	0.0176683
916.863	0.0177707
916.942	0.0177050
917.020	0.0175568
917.098	0.0175710
917.176	0.0175117
917.254	0.0175361
917.332	0.0175142
917.410	0.0174820
917.488	0.0174909
917.567	0.0174461
917.645	0.0173605
917.723	0.0174551
917.801	0.0173579
917.879	0.0174583
917.957	0.0175512
918.035	0.0175724
918.113	0.0175915
918.192	0.0176688
918.270	0.0176454
918.348	0.0176534
918.426	0.0178091
918.504	0.0177318
918.582	0.0176589
918.660	0.0178065
918.738	0.0177972
918.817	0.0176625
918.895	0.0176207
918.973	0.0177025
919.051	0.0177215
919.129	0.0176852
919.207	0.0175739
919.285	0.0175537
919.363	0.0176076
919.442	0.0174097
919.520	0.0175471
919.598	0.0173431
919.676	0.0172997
919.754	0.0173550
919.832	0.0174441
919.910	0.0175112
