06/01/2022	21:43:43	Ver.	4.1	UNKNOWN
Optical Delay	599.988409	Delta X		0.078125	Sweeps	1	Scan Rate	0/0
Coordinates	Axis 1	NaN	Axis 2	NaN	Axis 3	NaN	Axis 4	NaN	Axis 5	NaN	Axis 6	0.000000
TX Power	0.000000	RX Power	0.000000

599.988	0.0179361
600.067	0.0179346
600.145	0.0180096
600.223	0.0180783
600.301	0.0180111
600.379	0.0179024
600.457	0.0181078
600.535	0.0179897
600.613	0.0180212
600.692	0.0180534
600.770	0.0178780
600.848	0.0178862
600.926	0.0180346
601.004	0.0179395
601.082	0.0179932
601.160	0.0179974
601.238	0.0179198
601.317	0.0179571
601.395	0.0179940
601.473	0.0180151
601.551	0.0178838
601.629	0.0179539
601.707	0.0179013
601.785	0.0179629
601.863	0.0179838
601.942	0.0180692
602.020	0.0179256
602.098	0.0179752
602.176	0.0180221
602.254	0.0179663
602.332	0.0180109
602.410	0.0179230
602.488	0.0178986
602.567	0.0178636
602.645	0.0179934
602.723	0.0179546
602.801	0.0179107
602.879	0.0179481
602.957	0.0178049
603.035	0.0179662
603.113	0.0179784
603.192	0.0181361
603.270	0.0178787
603.348	0.0179406
603.426	0.0180180
603.504	0.0179476
603.582	0.0179528
603.660	0.0180074
603.738	0.0178400
603.817	0.0180943
603.895	0.0179895
603.973	0.0179874
604.051	0.0179124
604.129	0.0179393
604.207	0.0179714
604.285	0.0178461
604.363	0.0178918
604.442	0.0180250
604.520	0.0180195
604.598	0.0179809
604.676	0.0180318
604.754	0.0180067
604.832	0.0179475
604.910	0.0180711
604.988	0.0179737
605.067	0.0179998
605.145	0.0180147
605.223	0.0180698
605.301	0.0180395
605.379	0.0180451
605.457	0.0179351
605.535	0.0179912
605.613	0.0180428
605.692	0.0180626
605.770	0.0180284
605.848	0.0180472
605.926	0.0179547
606.004	0.0180190
606.082	0.0179192
606.160	0.0178793
606.238	0.0180896
606.317	0.0181057
606.395	0.0179048
606.473	0.0179539
606.551	0.0179552
606.629	0.0180000
606.707	0.0181201
606.785	0.0179698
606.863	0.0179639
606.942	0.0179726
607.020	0.0179961
607.098	0.0179456
607.176	0.0181834
607.254	0.0179558
607.332	0.0178919
607.410	0.0178781
607.488	0.0179702
607.567	0.0180521
607.645	0.0180910
607.723	0.0179001
607.801	0.0178467
607.879	0.0180447
607.957	0.0179997
608.035	0.0180061
608.113	0.0181262
608.192	0.0178700
608.270	0.0177970
608.348	0.0180806
608.426	0.0179178
608.504	0.0178825
608.582	0.0179913
608.660	0.0179543
608.738	0.0180051
608.817	0.0180652
608.895	0.0178186
608.973	0.0179525
609.051	0.0180448
609.129	0.0180044
609.207	0.0179801
609.285	0.0180905
609.363	0.0180639
609.442	0.0179256
609.520	0.0178909
609.598	0.0179903
609.676	0.0180704
609.754	0.0179554
609.832	0.0180299
609.910	0.0180201
609.988	0.0181307
610.067	0.0179178
610.145	0.0179343
610.223	0.0179606
610.301	0.0179272
610.379	0.0179045
610.457	0.0179337
610.535	0.0178848
610.613	0.0180309
610.692	0.0179473
610.770	0.0179942
610.848	0.0180764
610.926	0.0179906
611.004	0.0179752
611.082	0.0179389
611.160	0.0180471
611.238	0.0179582
611.317	0.0179456
611.395	0.0178891
611.473	0.0179033
611.551	0.0179099
611.629	0.0179694
611.707	0.0180181
611.785	0.0180414
611.863	0.0179021
611.942	0.0178431
612.020	0.0180816
612.098	0.0179559
612.176	0.0178526
612.254	0.0179526
612.332	0.0179140
612.410	0.0179202
612.488	0.0180701
612.567	0.0180032
612.645	0.0179692
612.723	0.0179568
612.801	0.0179477
612.879	0.0179473
612.957	0.0180343
613.035	0.0180193
613.113	0.0179688
613.192	0.0179121
613.270	0.0180512
613.348	0.0178510
613.426	0.0179858
613.504	0.0181095
613.582	0.0177942
613.660	0.0179311
613.738	0.0180291
613.817	0.0179691
613.895	0.0179553
613.973	0.0179399
614.051	0.0179348
614.129	0.0179656
614.207	0.0180609
614.285	0.0179541
614.363	0.0179999
614.442	0.0179322
614.520	0.0178644
614.598	0.0178783
614.676	0.0179221
614.754	0.0179308
614.832	0.0179224
614.910	0.0179055
614.988	0.0179618
615.067	0.0179760
615.145	0.0178937
615.223	0.0179351
615.301	0.0179243
615.379	0.0179086
615.457	0.0178307
615.535	0.0179884
615.613	0.0180615
615.692	0.0179858
615.770	0.0180460
615.848	0.0179838
615.926	0.0180008
616.004	0.0179664
616.082	0.0180867
616.160	0.0181109
616.238	0.0180064
616.317	0.0179688
616.395	0.0180518
616.473	0.0181314
616.551	0.0180113
616.629	0.0180182
616.707	0.0179842
616.785	0.0180186
616.863	0.0180896
616.942	0.0179442
617.020	0.0179379
617.098	0.0179736
617.176	0.0180244
617.254	0.0180010
617.332	0.0180367
617.410	0.0180212
617.488	0.0179447
617.567	0.0179390
617.645	0.0180732
617.723	0.0179956
617.801	0.0178763
617.879	0.0179291
617.957	0.0180413
618.035	0.0179053
618.113	0.0177737
618.192	0.0178641
618.270	0.0178755
618.348	0.0178833
618.426	0.0179061
618.504	0.0179555
618.582	0.0179028
618.660	0.0180228
618.738	0.0180188
618.817	0.0179081
618.895	0.0179269
618.973	0.0178617
619.051	0.0179715
619.129	0.0180013
619.207	0.0179120
619.285	0.0179182
619.363	0.0179484
619.442	0.0181134
619.520	0.0179502
619.598	0.0179927
619.676	0.0180365
619.754	0.0180287
619.832	0.0178575
619.910	0.0180141
619.988	0.0178702
620.067	0.0179636
620.145	0.0180291
620.223	0.0179580
620.301	0.0179108
620.379	0.0180573
620.457	0.0178925
620.535	0.0179501
620.613	0.0181007
620.692	0.0179350
620.770	0.0179754
620.848	0.0180514
620.926	0.0180189
621.004	0.0181221
621.082	0.0180540
621.160	0.0180334
621.238	0.0179752
621.317	0.0180424
621.395	0.0180532
621.473	0.0180647
621.551	0.0180231
621.629	0.0179457
621.707	0.0181423
621.785	0.0180107
621.863	0.0179623
621.942	0.0180573
622.020	0.0180585
622.098	0.0179597
622.176	0.0179333
622.254	0.0179851
622.332	0.0180720
622.410	0.0178826
622.488	0.0179559
622.567	0.0180721
622.645	0.0179313
622.723	0.0178828
622.801	0.0179818
622.879	0.0178252
622.957	0.0179322
623.035	0.0178047
623.113	0.0178587
623.192	0.0179087
623.270	0.0178426
623.348	0.0180019
623.426	0.0178243
623.504	0.0178923
623.582	0.0179478
623.660	0.0179051
623.738	0.0177695
623.817	0.0178854
623.895	0.0180062
623.973	0.0179676
624.051	0.0180316
624.129	0.0180341
624.207	0.0180352
624.285	0.0179586
624.363	0.0178738
624.442	0.0179506
624.520	0.0179383
624.598	0.0180912
624.676	0.0179591
624.754	0.0180391
624.832	0.0180086
624.910	0.0180254
624.988	0.0180480
625.067	0.0180300
625.145	0.0179125
625.223	0.0179969
625.301	0.0179242
625.379	0.0179778
625.457	0.0179363
625.535	0.0179764
625.613	0.0180205
625.692	0.0181280
625.770	0.0180590
625.848	0.0179103
625.926	0.0179914
626.004	0.0180379
626.082	0.0179601
626.160	0.0179778
626.238	0.0180316
626.317	0.0180240
626.395	0.0179932
626.473	0.0179842
626.551	0.0179613
626.629	0.0179557
626.707	0.0180332
626.785	0.0179871
626.863	0.0179575
626.942	0.0180634
627.020	0.0179812
627.098	0.0180009
627.176	0.0179865
627.254	0.0180547
627.332	0.0180893
627.410	0.0179490
627.488	0.0179716
627.567	0.0180268
627.645	0.0179688
627.723	0.0179749
627.801	0.0179713
627.879	0.0178747
627.957	0.0179530
628.035	0.0179446
628.113	0.0177731
628.192	0.0176891
628.270	0.0178827
628.348	0.0178841
628.426	0.0178177
628.504	0.0177623
628.582	0.0179092
628.660	0.0179830
628.738	0.0177503
628.817	0.0179009
628.895	0.0179193
628.973	0.0178923
629.051	0.0178003
629.129	0.0177766
629.207	0.0179636
629.285	0.0179400
629.363	0.0179919
629.442	0.0180405
629.520	0.0179703
629.598	0.0180064
629.676	0.0180289
629.754	0.0181033
629.832	0.0180612
629.910	0.0180027
629.988	0.0179747
630.067	0.0180585
630.145	0.0180493
630.223	0.0180078
630.301	0.0178870
630.379	0.0180653
630.457	0.0181125
630.535	0.0180040
630.613	0.0178267
630.692	0.0179627
630.770	0.0180365
630.848	0.0179794
630.926	0.0180176
631.004	0.0180067
631.082	0.0180119
631.160	0.0178448
631.238	0.0180150
631.317	0.0179415
631.395	0.0179445
631.473	0.0179297
631.551	0.0177918
631.629	0.0179700
631.707	0.0180405
631.785	0.0179303
631.863	0.0180033
631.942	0.0178813
632.020	0.0179930
632.098	0.0179418
632.176	0.0179160
632.254	0.0178802
632.332	0.0180289
632.410	0.0179688
632.488	0.0179471
632.567	0.0178931
632.645	0.0179423
632.723	0.0180421
632.801	0.0179720
632.879	0.0178442
632.957	0.0178323
633.035	0.0178336
633.113	0.0178957
633.192	0.0179656
633.270	0.0179702
633.348	0.0179320
633.426	0.0179166
633.504	0.0178986
633.582	0.0178666
633.660	0.0179327
633.738	0.0178792
633.817	0.0178887
633.895	0.0177570
633.973	0.0178228
634.051	0.0179205
634.129	0.0179391
634.207	0.0180644
634.285	0.0178878
634.363	0.0179006
634.442	0.0179459
634.520	0.0180921
634.598	0.0179958
634.676	0.0179665
634.754	0.0179501
634.832	0.0179777
634.910	0.0180090
634.988	0.0180342
635.067	0.0180410
635.145	0.0179679
635.223	0.0180283
635.301	0.0180088
635.379	0.0179810
635.457	0.0179503
635.535	0.0179907
635.613	0.0179856
635.692	0.0179329
635.770	0.0179929
635.848	0.0178944
635.926	0.0179122
636.004	0.0179772
636.082	0.0179694
636.160	0.0179976
636.238	0.0180636
636.317	0.0180746
636.395	0.0179906
636.473	0.0179927
636.551	0.0179537
636.629	0.0178681
636.707	0.0178933
636.785	0.0179951
636.863	0.0179926
636.942	0.0179644
637.020	0.0179715
637.098	0.0180395
637.176	0.0180432
637.254	0.0180505
637.332	0.0178828
637.410	0.0180199
637.488	0.0180151
637.567	0.0178702
637.645	0.0178551
637.723	0.0180726
637.801	0.0178670
637.879	0.0179413
637.957	0.0178987
638.035	0.0178358
638.113	0.0178501
638.192	0.0179928
638.270	0.0178926
638.348	0.0179409
638.426	0.0178904
638.504	0.0179173
638.582	0.0179261
638.660	0.0180283
638.738	0.0180565
638.817	0.0178573
638.895	0.0179237
638.973	0.0179498
639.051	0.0179286
639.129	0.0180310
639.207	0.0179327
639.285	0.0178858
639.363	0.0179169
639.442	0.0178620
639.520	0.0179639
639.598	0.0180293
639.676	0.0178745
639.754	0.0180038
639.832	0.0180045
639.910	0.0180772
639.988	0.0179479
640.067	0.0179096
640.145	0.0179651
640.223	0.0180802
640.301	0.0179224
640.379	0.0179234
640.457	0.0179423
640.535	0.0180087
640.613	0.0181104
640.692	0.0180304
640.770	0.0180288
640.848	0.0178876
640.926	0.0180101
641.004	0.0179909
641.082	0.0180164
641.160	0.0180487
641.238	0.0180467
641.317	0.0178846
641.395	0.0179601
641.473	0.0179366
641.551	0.0180212
641.629	0.0179963
641.707	0.0180736
641.785	0.0178767
641.863	0.0179290
641.942	0.0178541
642.020	0.0180189
642.098	0.0179337
642.176	0.0179779
642.254	0.0178601
642.332	0.0179613
642.410	0.0178927
642.488	0.0178130
642.567	0.0179255
642.645	0.0179443
642.723	0.0179812
642.801	0.0179125
642.879	0.0178784
642.957	0.0179387
643.035	0.0179482
643.113	0.0179186
643.192	0.0180106
643.270	0.0180854
643.348	0.0181005
643.426	0.0179367
643.504	0.0177575
643.582	0.0178865
643.660	0.0177604
643.738	0.0180045
643.817	0.0179515
643.895	0.0178849
643.973	0.0178015
644.051	0.0178914
644.129	0.0180437
644.207	0.0179784
644.285	0.0178847
644.363	0.0180140
644.442	0.0180585
644.520	0.0179556
644.598	0.0179302
644.676	0.0179894
644.754	0.0178952
644.832	0.0177258
644.910	0.0179700
644.988	0.0180239
645.067	0.0178826
645.145	0.0180363
645.223	0.0180307
645.301	0.0178615
645.379	0.0179087
645.457	0.0179800
645.535	0.0179394
645.613	0.0178640
645.692	0.0179711
645.770	0.0178917
645.848	0.0179301
645.926	0.0178818
646.004	0.0180429
646.082	0.0179943
646.160	0.0179522
646.238	0.0179522
646.317	0.0179121
646.395	0.0180341
646.473	0.0178848
646.551	0.0179867
646.629	0.0180607
646.707	0.0179886
646.785	0.0179015
646.863	0.0179881
646.942	0.0179165
647.020	0.0179549
647.098	0.0179475
647.176	0.0180119
647.254	0.0179472
647.332	0.0180044
647.410	0.0179623
647.488	0.0179010
647.567	0.0180025
647.645	0.0179916
647.723	0.0179750
647.801	0.0179237
647.879	0.0179876
647.957	0.0179314
648.035	0.0178722
648.113	0.0180273
648.192	0.0180010
648.270	0.0179523
648.348	0.0179701
648.426	0.0177671
648.504	0.0180196
648.582	0.0180458
648.660	0.0179443
648.738	0.0178840
648.817	0.0179651
648.895	0.0178825
648.973	0.0179691
649.051	0.0179772
649.129	0.0178841
649.207	0.0179513
649.285	0.0179622
649.363	0.0179620
649.442	0.0179795
649.520	0.0179319
649.598	0.0179122
649.676	0.0180038
649.754	0.0180270
649.832	0.0179580
649.910	0.0179351
649.988	0.0179116
650.067	0.0178899
650.145	0.0180424
650.223	0.0179429
650.301	0.0178695
650.379	0.0179391
650.457	0.0178747
650.535	0.0179070
650.613	0.0179586
650.692	0.0178810
650.770	0.0179366
650.848	0.0179015
650.926	0.0179717
651.004	0.0179739
651.082	0.0179600
651.160	0.0178182
651.238	0.0179853
651.317	0.0178950
651.395	0.0179427
651.473	0.0179623
651.551	0.0179719
651.629	0.0179558
651.707	0.0179525
651.785	0.0179857
651.863	0.0179468
651.942	0.0180276
652.020	0.0179244
652.098	0.0179461
652.176	0.0180225
652.254	0.0179963
652.332	0.0180695
652.410	0.0180100
652.488	0.0179243
652.567	0.0179659
652.645	0.0178760
652.723	0.0179105
652.801	0.0179749
652.879	0.0178746
652.957	0.0180573
653.035	0.0180461
653.113	0.0179896
653.192	0.0179150
653.270	0.0180206
653.348	0.0179234
653.426	0.0178999
653.504	0.0179645
653.582	0.0179964
653.660	0.0178362
653.738	0.0179654
653.817	0.0178796
653.895	0.0179164
653.973	0.0180120
654.051	0.0179201
654.129	0.0179173
654.207	0.0178912
654.285	0.0180608
654.363	0.0178970
654.442	0.0179321
654.520	0.0178397
654.598	0.0180034
654.676	0.0178384
654.754	0.0178677
654.832	0.0179684
654.910	0.0179633
654.988	0.0178874
655.067	0.0178010
655.145	0.0179733
655.223	0.0180681
655.301	0.0180231
655.379	0.0178744
655.457	0.0181255
655.535	0.0179627
655.613	0.0180740
655.692	0.0179356
655.770	0.0178876
655.848	0.0180249
655.926	0.0180145
656.004	0.0178892
656.082	0.0178849
656.160	0.0179018
656.238	0.0178299
656.317	0.0180083
656.395	0.0180936
656.473	0.0179281
656.551	0.0178990
656.629	0.0178644
656.707	0.0180647
656.785	0.0178905
656.863	0.0178799
656.942	0.0178089
657.020	0.0179794
657.098	0.0179650
657.176	0.0178513
657.254	0.0178485
657.332	0.0180424
657.410	0.0179890
657.488	0.0179089
657.567	0.0180202
657.645	0.0178898
657.723	0.0179676
657.801	0.0178300
657.879	0.0178553
657.957	0.0178163
658.035	0.0179135
658.113	0.0179342
658.192	0.0179000
658.270	0.0178943
658.348	0.0180602
658.426	0.0179531
658.504	0.0179370
658.582	0.0179052
658.660	0.0179715
658.738	0.0179455
658.817	0.0178306
658.895	0.0179771
658.973	0.0179034
659.051	0.0178353
659.129	0.0180438
659.207	0.0178576
659.285	0.0179057
659.363	0.0179179
659.442	0.0178718
659.520	0.0180242
659.598	0.0181342
659.676	0.0178862
659.754	0.0179946
659.832	0.0179682
659.910	0.0179298
659.988	0.0178757
660.067	0.0179733
660.145	0.0179150
660.223	0.0181006
660.301	0.0179242
660.379	0.0179508
660.457	0.0180398
660.535	0.0180077
660.613	0.0178016
660.692	0.0179322
660.770	0.0179863
660.848	0.0178979
660.926	0.0179512
661.004	0.0179469
661.082	0.0179023
661.160	0.0180789
661.238	0.0179913
661.317	0.0179507
661.395	0.0178069
661.473	0.0180035
661.551	0.0179615
661.629	0.0179489
661.707	0.0180003
661.785	0.0179846
661.863	0.0180116
661.942	0.0179810
662.020	0.0180177
662.098	0.0178511
662.176	0.0180274
662.254	0.0178279
662.332	0.0178400
662.410	0.0180913
662.488	0.0178683
662.567	0.0178645
662.645	0.0178168
662.723	0.0179686
662.801	0.0179340
662.879	0.0179100
662.957	0.0178501
663.035	0.0178205
663.113	0.0178952
663.192	0.0178270
663.270	0.0180175
663.348	0.0179323
663.426	0.0179679
663.504	0.0178705
663.582	0.0180182
663.660	0.0179869
663.738	0.0178986
663.817	0.0178446
663.895	0.0179433
663.973	0.0178977
664.051	0.0179812
664.129	0.0179613
664.207	0.0179411
664.285	0.0180561
664.363	0.0179187
664.442	0.0178906
664.520	0.0179350
664.598	0.0180220
664.676	0.0179276
664.754	0.0179098
664.832	0.0179575
664.910	0.0179317
664.988	0.0179331
665.067	0.0179330
665.145	0.0179930
665.223	0.0178580
665.301	0.0178953
665.379	0.0179350
665.457	0.0180350
665.535	0.0179178
665.613	0.0179926
665.692	0.0180339
665.770	0.0181219
665.848	0.0180070
665.926	0.0179485
666.004	0.0181329
666.082	0.0181089
666.160	0.0179836
666.238	0.0179768
666.317	0.0181204
666.395	0.0180212
666.473	0.0179560
666.551	0.0178944
666.629	0.0178452
666.707	0.0178882
666.785	0.0178784
666.863	0.0179218
666.942	0.0179652
667.020	0.0179755
667.098	0.0179055
667.176	0.0178802
667.254	0.0179257
667.332	0.0180102
667.410	0.0178860
667.488	0.0181313
667.567	0.0181647
667.645	0.0180586
667.723	0.0180115
667.801	0.0180435
667.879	0.0180497
667.957	0.0180161
668.035	0.0180978
668.113	0.0180574
668.192	0.0179529
668.270	0.0181182
668.348	0.0179866
668.426	0.0178641
668.504	0.0180048
668.582	0.0178344
668.660	0.0177995
668.738	0.0178016
668.817	0.0179380
668.895	0.0177714
668.973	0.0179415
669.051	0.0178942
669.129	0.0179004
669.207	0.0179498
669.285	0.0178607
669.363	0.0178783
669.442	0.0181392
669.520	0.0181097
669.598	0.0181006
669.676	0.0181251
669.754	0.0181865
669.832	0.0182024
669.910	0.0180478
669.988	0.0179562
670.067	0.0178439
670.145	0.0178880
670.223	0.0178014
670.301	0.0178968
670.379	0.0177748
670.457	0.0177166
670.535	0.0178050
670.613	0.0178493
670.692	0.0176918
670.770	0.0178359
670.848	0.0177855
670.926	0.0178155
671.004	0.0178432
671.082	0.0180181
671.160	0.0179001
671.238	0.0180685
671.317	0.0179679
671.395	0.0179417
671.473	0.0181107
671.551	0.0181400
671.629	0.0180635
671.707	0.0179647
671.785	0.0179743
671.863	0.0179782
671.942	0.0180163
672.020	0.0179214
672.098	0.0179742
672.176	0.0179066
672.254	0.0179803
672.332	0.0179140
672.410	0.0177593
672.488	0.0179483
672.567	0.0179736
672.645	0.0178433
672.723	0.0179266
672.801	0.0178429
672.879	0.0178710
672.957	0.0178587
673.035	0.0180665
673.113	0.0180496
673.192	0.0180009
673.270	0.0179484
673.348	0.0179676
673.426	0.0181558
673.504	0.0179838
673.582	0.0178892
673.660	0.0179971
673.738	0.0181757
673.817	0.0179955
673.895	0.0180930
673.973	0.0181992
674.051	0.0181384
674.129	0.0178625
674.207	0.0179162
674.285	0.0178401
674.363	0.0178790
674.442	0.0179047
674.520	0.0177031
674.598	0.0176986
674.676	0.0177448
674.754	0.0177988
674.832	0.0177405
674.910	0.0179504
674.988	0.0178230
675.067	0.0180220
675.145	0.0179839
675.223	0.0180178
675.301	0.0181303
675.379	0.0181743
675.457	0.0181490
675.535	0.0183447
675.613	0.0182423
675.692	0.0182112
675.770	0.0181949
675.848	0.0180834
675.926	0.0178351
676.004	0.0180386
676.082	0.0179752
676.160	0.0178948
676.238	0.0178578
676.317	0.0177270
676.395	0.0177137
676.473	0.0178278
676.551	0.0179108
676.629	0.0177786
676.707	0.0178010
676.785	0.0178545
676.863	0.0178296
676.942	0.0178731
677.020	0.0179873
677.098	0.0178588
677.176	0.0179903
677.254	0.0180202
677.332	0.0179682
677.410	0.0180243
677.488	0.0180318
677.567	0.0180837
677.645	0.0180632
677.723	0.0179575
677.801	0.0178458
677.879	0.0178736
677.957	0.0179430
678.035	0.0178916
678.113	0.0177164
678.192	0.0177785
678.270	0.0179358
678.348	0.0178248
678.426	0.0180016
678.504	0.0179191
678.582	0.0180811
678.660	0.0179120
678.738	0.0180547
678.817	0.0181835
678.895	0.0180865
678.973	0.0182745
679.051	0.0181512
679.129	0.0181394
679.207	0.0181518
679.285	0.0181248
679.363	0.0181812
679.442	0.0182455
679.520	0.0182191
679.598	0.0181236
679.676	0.0180254
679.754	0.0180029
679.832	0.0179836
679.910	0.0180803
679.988	0.0179462
680.067	0.0180004
680.145	0.0180404
680.223	0.0178497
680.301	0.0178615
680.379	0.0179681
680.457	0.0178740
680.535	0.0177673
680.613	0.0177757
680.692	0.0179681
680.770	0.0180668
680.848	0.0180002
680.926	0.0179391
681.004	0.0181041
681.082	0.0182291
681.160	0.0180370
681.238	0.0179636
681.317	0.0178996
681.395	0.0178613
681.473	0.0177164
681.551	0.0176277
681.629	0.0176813
681.707	0.0176798
681.785	0.0175185
681.863	0.0176300
681.942	0.0174808
682.020	0.0176632
682.098	0.0175645
682.176	0.0178277
682.254	0.0181988
682.332	0.0180406
682.410	0.0181290
682.488	0.0183041
682.567	0.0183475
682.645	0.0184083
682.723	0.0183150
682.801	0.0182199
682.879	0.0184711
682.957	0.0181138
683.035	0.0180768
683.113	0.0179044
683.192	0.0177863
683.270	0.0177580
683.348	0.0175761
683.426	0.0177013
683.504	0.0176546
683.582	0.0176976
683.660	0.0177773
683.738	0.0178418
683.817	0.0180576
683.895	0.0181870
683.973	0.0183685
684.051	0.0183897
684.129	0.0184809
684.207	0.0185961
684.285	0.0186103
684.363	0.0186108
684.442	0.0186200
684.520	0.0186059
684.598	0.0185466
684.676	0.0184066
684.754	0.0183272
684.832	0.0182087
684.910	0.0181155
684.988	0.0178737
685.067	0.0175953
685.145	0.0174699
685.223	0.0172043
685.301	0.0169265
685.379	0.0169137
685.457	0.0168229
685.535	0.0168249
685.613	0.0167259
685.692	0.0166728
685.770	0.0167818
685.848	0.0168409
685.926	0.0169717
686.004	0.0172231
686.082	0.0172653
686.160	0.0174625
686.238	0.0177618
686.317	0.0179369
686.395	0.0181871
686.473	0.0184166
686.551	0.0185828
686.629	0.0187673
686.707	0.0190605
686.785	0.0191823
686.863	0.0193169
686.942	0.0193973
687.020	0.0195070
687.098	0.0194292
687.176	0.0192316
687.254	0.0189566
687.332	0.0190276
687.410	0.0186395
687.488	0.0183401
687.567	0.0180633
687.645	0.0179662
687.723	0.0175714
687.801	0.0173419
687.879	0.0172594
687.957	0.0170958
688.035	0.0169695
688.113	0.0170158
688.192	0.0173206
688.270	0.0173524
688.348	0.0173439
688.426	0.0174747
688.504	0.0176088
688.582	0.0176893
688.660	0.0176946
688.738	0.0175780
688.817	0.0176930
688.895	0.0177800
688.973	0.0177588
689.051	0.0178378
689.129	0.0178322
689.207	0.0179745
689.285	0.0180390
689.363	0.0181268
689.442	0.0183051
689.520	0.0182713
689.598	0.0183102
689.676	0.0182667
689.754	0.0180847
689.832	0.0180659
689.910	0.0179876
689.988	0.0179098
690.067	0.0177374
690.145	0.0176896
690.223	0.0176462
690.301	0.0177474
690.379	0.0177314
690.457	0.0177146
690.535	0.0177592
690.613	0.0178143
690.692	0.0180251
690.770	0.0179604
690.848	0.0179371
690.926	0.0178310
691.004	0.0179578
691.082	0.0178526
691.160	0.0179453
691.238	0.0177756
691.317	0.0178436
691.395	0.0177234
691.473	0.0177469
691.551	0.0176943
691.629	0.0178185
691.707	0.0180124
691.785	0.0180318
691.863	0.0180016
691.942	0.0182279
692.020	0.0184238
692.098	0.0185706
692.176	0.0187579
692.254	0.0190466
692.332	0.0192673
692.410	0.0193983
692.488	0.0196432
692.567	0.0197787
692.645	0.0196710
692.723	0.0196469
692.801	0.0197646
692.879	0.0194873
692.957	0.0193146
693.035	0.0189819
693.113	0.0184376
693.192	0.0181125
693.270	0.0175837
693.348	0.0169987
693.426	0.0164527
693.504	0.0161359
693.582	0.0158808
693.660	0.0154924
693.738	0.0151963
693.817	0.0151411
693.895	0.0151035
693.973	0.0150434
694.051	0.0150703
694.129	0.0149754
694.207	0.0150896
694.285	0.0151529
694.363	0.0152094
694.442	0.0151151
694.520	0.0152105
694.598	0.0152561
694.676	0.0156207
694.754	0.0156608
694.832	0.0159300
694.910	0.0164059
694.988	0.0167591
695.067	0.0173361
695.145	0.0180267
695.223	0.0187806
695.301	0.0195479
695.379	0.0202470
695.457	0.0212599
695.535	0.0221591
695.613	0.0228596
695.692	0.0234189
695.770	0.0240350
695.848	0.0244196
695.926	0.0249854
696.004	0.0252722
696.082	0.0252661
696.160	0.0251033
696.238	0.0251053
696.317	0.0247688
696.395	0.0243684
696.473	0.0237581
696.551	0.0229920
696.629	0.0220316
696.707	0.0211816
696.785	0.0199128
696.863	0.0186750
696.942	0.0173868
697.020	0.0158904
697.098	0.0146906
697.176	0.0134968
697.254	0.0122669
697.332	0.0112350
697.410	0.0104498
697.488	0.00970856
697.567	0.00919220
697.645	0.00880547
697.723	0.00899506
697.801	0.00896156
697.879	0.00936081
697.957	0.00977402
698.035	0.0105657
698.113	0.0109575
698.192	0.0118262
698.270	0.0124509
698.348	0.0134116
698.426	0.0141562
698.504	0.0148891
698.582	0.0156970
698.660	0.0164719
698.738	0.0170767
698.817	0.0177678
698.895	0.0181970
698.973	0.0186591
699.051	0.0191246
699.129	0.0194979
699.207	0.0196249
699.285	0.0199150
699.363	0.0201105
699.442	0.0202819
699.520	0.0205157
699.598	0.0209325
699.676	0.0215630
699.754	0.0223459
699.832	0.0229776
699.910	0.0234905
699.988	0.0241561
700.067	0.0250891
700.145	0.0256097
700.223	0.0261733
700.301	0.0265995
700.379	0.0268691
700.457	0.0270513
700.535	0.0269440
700.613	0.0267861
700.692	0.0265600
700.770	0.0261379
700.848	0.0257294
700.926	0.0252066
701.004	0.0247026
701.082	0.0240125
701.160	0.0231566
701.238	0.0225674
701.317	0.0217252
701.395	0.0206459
701.473	0.0195119
701.551	0.0182805
701.629	0.0169914
701.707	0.0154443
701.785	0.0137938
701.863	0.0120489
701.942	0.0102419
702.020	0.00835861
702.098	0.00656044
702.176	0.00499863
702.254	0.00346764
702.332	0.00228935
702.410	0.00137688
702.488	0.000711594
702.567	0.000440369
702.645	0.000699997
702.723	0.00134201
702.801	0.00224228
702.879	0.00360992
702.957	0.00526474
703.035	0.00721504
703.113	0.00943192
703.192	0.0114989
703.270	0.0137519
703.348	0.0160540
703.426	0.0182780
703.504	0.0202999
703.582	0.0221220
703.660	0.0239597
703.738	0.0255576
703.817	0.0268658
703.895	0.0278430
703.973	0.0288024
704.051	0.0293799
704.129	0.0296823
704.207	0.0296452
704.285	0.0294337
704.363	0.0287840
704.442	0.0281166
704.520	0.0272883
704.598	0.0262312
704.676	0.0253361
704.754	0.0244019
704.832	0.0235014
704.910	0.0227280
704.988	0.0224024
705.067	0.0219625
705.145	0.0219858
705.223	0.0219762
705.301	0.0221344
705.379	0.0225624
705.457	0.0227417
705.535	0.0231221
705.613	0.0235076
705.692	0.0237051
705.770	0.0240847
705.848	0.0243646
705.926	0.0245293
706.004	0.0242554
706.082	0.0241170
706.160	0.0238652
706.238	0.0234303
706.317	0.0226732
706.395	0.0218043
706.473	0.0206905
706.551	0.0192060
706.629	0.0176811
706.707	0.0157127
706.785	0.0136935
706.863	0.0115638
706.942	0.00926727
707.020	0.00699402
707.098	0.00482689
707.176	0.00265198
707.254	0.000833511
707.332	-0.000830841
707.410	-0.00201027
707.488	-0.00329704
707.567	-0.00373024
707.645	-0.00368805
707.723	-0.00349503
707.801	-0.00276642
707.879	-0.00137917
707.957	0.000349503
708.035	0.00251884
708.113	0.00493835
708.192	0.00754211
708.270	0.0103725
708.348	0.0133671
708.426	0.0163433
708.504	0.0194967
708.582	0.0222248
708.660	0.0249495
708.738	0.0274178
708.817	0.0298885
708.895	0.0317027
708.973	0.0331417
709.051	0.0345551
709.129	0.0353331
709.207	0.0357921
709.285	0.0356996
709.363	0.0354050
709.442	0.0346317
709.520	0.0337017
709.598	0.0325489
709.676	0.0312857
709.754	0.0296629
709.832	0.0281019
709.910	0.0265512
709.988	0.0250675
710.067	0.0239233
710.145	0.0227319
710.223	0.0216602
710.301	0.0210709
710.379	0.0205798
710.457	0.0204636
710.535	0.0203631
710.613	0.0203197
710.692	0.0205139
710.770	0.0204315
710.848	0.0206184
710.926	0.0206718
711.004	0.0205862
711.082	0.0206118
711.160	0.0205203
711.238	0.0201998
711.317	0.0196834
711.395	0.0192442
711.473	0.0184197
711.551	0.0176498
711.629	0.0166712
711.707	0.0153203
711.785	0.0138235
711.863	0.0124681
711.942	0.0107381
712.020	0.00914215
712.098	0.00752357
712.176	0.00583130
712.254	0.00434273
712.332	0.00308723
712.410	0.00204803
712.488	0.00125175
712.567	0.000604782
712.645	0.000455627
712.723	0.000700684
712.801	0.00113121
712.879	0.00177925
712.957	0.00280876
713.035	0.00421753
713.113	0.00556488
713.192	0.00739571
713.270	0.00919006
713.348	0.0112186
713.426	0.0131206
713.504	0.0152297
713.582	0.0175060
713.660	0.0198611
713.738	0.0217900
713.817	0.0238178
713.895	0.0257574
713.973	0.0277516
714.051	0.0292142
714.129	0.0304042
714.207	0.0313266
714.285	0.0320427
714.363	0.0325148
714.442	0.0325786
714.520	0.0321301
714.598	0.0315465
714.676	0.0308572
714.754	0.0297421
714.832	0.0286544
714.910	0.0277513
714.988	0.0265190
715.067	0.0255022
715.145	0.0245983
715.223	0.0237955
715.301	0.0231186
715.379	0.0225430
715.457	0.0220926
715.535	0.0219993
715.613	0.0217563
715.692	0.0216582
715.770	0.0215859
715.848	0.0214030
715.926	0.0213183
716.004	0.0212832
716.082	0.0210937
716.160	0.0209308
716.238	0.0203703
716.317	0.0199338
716.395	0.0192209
716.473	0.0184657
716.551	0.0176156
716.629	0.0167554
716.707	0.0158449
716.785	0.0145530
716.863	0.0138143
716.942	0.0126747
717.020	0.0115800
717.098	0.0107295
717.176	0.00969612
717.254	0.00877235
717.332	0.00800537
717.410	0.00774673
717.488	0.00735626
717.567	0.00706902
717.645	0.00712158
717.723	0.00734131
717.801	0.00779305
717.879	0.00826797
717.957	0.00881317
718.035	0.00950005
718.113	0.0102749
718.192	0.0108279
718.270	0.0116094
718.348	0.0122969
718.426	0.0128735
718.504	0.0135215
718.582	0.0143585
718.660	0.0150513
718.738	0.0158044
718.817	0.0165905
718.895	0.0174445
718.973	0.0184314
719.051	0.0194485
719.129	0.0201942
719.207	0.0212284
719.285	0.0220804
719.363	0.0228540
719.442	0.0235233
719.520	0.0241018
719.598	0.0243164
719.676	0.0247151
719.754	0.0249263
719.832	0.0249844
719.910	0.0250005
719.988	0.0248614
720.067	0.0245702
720.145	0.0244785
720.223	0.0242702
720.301	0.0238588
720.379	0.0232951
720.457	0.0229942
720.535	0.0227443
720.613	0.0224017
720.692	0.0222074
720.770	0.0219489
720.848	0.0216707
720.926	0.0215174
721.004	0.0213568
721.082	0.0211887
721.160	0.0210926
721.238	0.0209139
721.317	0.0208450
721.395	0.0206403
721.473	0.0203910
721.551	0.0201096
721.629	0.0198011
721.707	0.0193595
721.785	0.0189040
721.863	0.0183181
721.942	0.0175531
722.020	0.0168418
722.098	0.0162964
722.176	0.0156339
722.254	0.0150036
722.332	0.0144699
722.410	0.0140845
722.488	0.0137862
722.567	0.0135270
722.645	0.0134386
722.723	0.0133553
722.801	0.0133329
722.879	0.0135201
722.957	0.0137060
723.035	0.0136446
723.113	0.0138515
723.192	0.0139808
723.270	0.0139668
723.348	0.0142102
723.426	0.0141203
723.504	0.0143091
723.582	0.0142964
723.660	0.0143372
723.738	0.0141786
723.817	0.0146566
723.895	0.0148817
723.973	0.0151567
724.051	0.0154109
724.129	0.0157490
724.207	0.0161027
724.285	0.0165496
724.363	0.0169279
724.442	0.0174268
724.520	0.0180128
724.598	0.0182796
724.676	0.0187329
724.754	0.0191507
724.832	0.0196828
724.910	0.0199568
724.988	0.0203622
725.067	0.0205187
725.145	0.0203821
725.223	0.0204797
725.301	0.0202681
725.379	0.0199927
725.457	0.0197214
725.535	0.0195738
725.613	0.0193745
725.692	0.0191435
725.770	0.0190131
725.848	0.0189397
725.926	0.0189732
726.004	0.0192075
726.082	0.0192485
726.160	0.0194447
726.238	0.0197565
726.317	0.0198764
726.395	0.0200312
726.473	0.0203168
726.551	0.0204537
726.629	0.0203385
726.707	0.0203221
726.785	0.0201197
726.863	0.0199731
726.942	0.0198405
727.020	0.0194522
727.098	0.0192055
727.176	0.0187751
727.254	0.0186580
727.332	0.0183590
727.410	0.0181534
727.488	0.0181371
727.567	0.0179976
727.645	0.0178139
727.723	0.0177901
727.801	0.0177428
727.879	0.0178751
727.957	0.0176852
728.035	0.0178130
728.113	0.0177226
728.192	0.0175900
728.270	0.0173919
728.348	0.0172571
728.426	0.0170438
728.504	0.0167384
728.582	0.0166853
728.660	0.0165392
728.738	0.0164879
728.817	0.0164480
728.895	0.0164525
728.973	0.0164145
729.051	0.0167615
729.129	0.0169432
729.207	0.0170553
729.285	0.0173151
729.363	0.0175422
729.442	0.0177798
729.520	0.0179463
729.598	0.0180967
729.676	0.0182851
729.754	0.0184238
729.832	0.0181693
729.910	0.0180705
729.988	0.0180096
730.067	0.0179259
730.145	0.0176074
730.223	0.0173631
730.301	0.0172114
730.379	0.0169396
730.457	0.0167532
730.535	0.0165525
730.613	0.0165668
730.692	0.0164678
730.770	0.0163371
730.848	0.0164484
730.926	0.0166631
731.004	0.0166845
731.082	0.0168137
731.160	0.0168665
731.238	0.0169611
731.317	0.0174046
731.395	0.0173814
731.473	0.0176556
731.551	0.0176961
731.629	0.0178976
731.707	0.0180756
731.785	0.0178890
731.863	0.0181961
731.942	0.0183017
732.020	0.0181334
732.098	0.0180537
732.176	0.0179737
732.254	0.0178769
732.332	0.0179102
732.410	0.0177043
732.488	0.0179253
732.567	0.0177615
732.645	0.0177320
732.723	0.0177417
732.801	0.0178713
732.879	0.0180084
732.957	0.0180843
733.035	0.0182285
733.113	0.0185379
733.192	0.0185722
733.270	0.0188665
733.348	0.0190689
733.426	0.0191083
733.504	0.0192197
733.582	0.0191998
733.660	0.0194379
733.738	0.0195643
733.817	0.0194567
733.895	0.0195690
733.973	0.0196014
734.051	0.0196265
734.129	0.0196712
734.207	0.0196732
734.285	0.0197227
734.363	0.0197224
734.442	0.0196094
734.520	0.0195425
734.598	0.0195824
734.676	0.0193678
734.754	0.0192181
734.832	0.0192562
734.910	0.0188046
734.988	0.0186156
735.067	0.0182866
735.145	0.0180372
735.223	0.0179312
735.301	0.0174520
735.379	0.0172485
735.457	0.0170886
735.535	0.0169125
735.613	0.0167942
735.692	0.0166026
735.770	0.0165605
735.848	0.0165082
735.926	0.0163866
736.004	0.0164574
736.082	0.0165527
736.160	0.0165763
736.238	0.0165893
736.317	0.0166917
736.395	0.0168906
736.473	0.0168045
736.551	0.0169621
736.629	0.0170885
736.707	0.0172359
736.785	0.0172137
736.863	0.0174214
736.942	0.0175806
737.020	0.0175751
737.098	0.0176515
737.176	0.0176080
737.254	0.0176726
737.332	0.0177837
737.410	0.0176857
737.488	0.0175733
737.567	0.0176458
737.645	0.0173066
737.723	0.0173742
737.801	0.0171227
737.879	0.0170576
737.957	0.0170949
738.035	0.0169659
738.113	0.0168990
738.192	0.0168988
738.270	0.0169549
738.348	0.0170894
738.426	0.0171659
738.504	0.0173766
738.582	0.0173011
738.660	0.0177126
738.738	0.0179964
738.817	0.0181699
738.895	0.0184311
738.973	0.0184205
739.051	0.0185437
739.129	0.0187824
739.207	0.0189852
739.285	0.0191243
739.363	0.0193201
739.442	0.0192666
739.520	0.0193734
739.598	0.0194314
739.676	0.0194189
739.754	0.0194789
739.832	0.0193372
739.910	0.0190995
739.988	0.0190724
740.067	0.0190662
740.145	0.0187994
740.223	0.0186783
740.301	0.0186114
740.379	0.0184061
740.457	0.0182182
740.535	0.0181196
740.613	0.0180779
740.692	0.0180172
740.770	0.0179472
740.848	0.0179060
740.926	0.0179503
741.004	0.0181615
741.082	0.0181342
741.160	0.0181529
741.238	0.0182452
741.317	0.0183086
741.395	0.0182929
741.473	0.0184238
741.551	0.0184453
741.629	0.0185229
741.707	0.0184888
741.785	0.0185867
741.863	0.0184683
741.942	0.0184416
742.020	0.0184900
742.098	0.0185129
742.176	0.0184491
742.254	0.0183206
742.332	0.0182495
742.410	0.0180832
742.488	0.0182092
742.567	0.0182119
742.645	0.0180157
742.723	0.0178741
742.801	0.0177369
742.879	0.0177034
742.957	0.0173474
743.035	0.0175503
743.113	0.0171803
743.192	0.0171317
743.270	0.0171776
743.348	0.0168757
743.426	0.0168705
743.504	0.0168957
743.582	0.0169942
743.660	0.0169682
743.738	0.0171852
743.817	0.0171175
743.895	0.0172955
743.973	0.0175167
744.051	0.0177737
744.129	0.0176860
744.207	0.0178904
744.285	0.0179874
744.363	0.0180128
744.442	0.0181020
744.520	0.0181553
744.598	0.0181664
744.676	0.0182198
744.754	0.0181172
744.832	0.0180062
744.910	0.0178017
744.988	0.0177847
745.067	0.0177087
745.145	0.0176757
745.223	0.0177136
745.301	0.0175585
745.379	0.0177428
745.457	0.0176958
745.535	0.0176424
745.613	0.0177291
745.692	0.0176549
745.770	0.0177970
745.848	0.0178022
745.926	0.0178591
746.004	0.0177170
746.082	0.0176707
746.160	0.0176950
746.238	0.0176363
746.317	0.0176434
746.395	0.0174869
746.473	0.0174361
746.551	0.0174813
746.629	0.0175114
746.707	0.0174297
746.785	0.0175563
746.863	0.0178421
746.942	0.0179453
747.020	0.0181767
747.098	0.0185940
747.176	0.0187402
747.254	0.0188255
747.332	0.0192010
747.410	0.0192434
747.488	0.0195591
747.567	0.0197344
747.645	0.0196572
747.723	0.0196124
747.801	0.0195746
747.879	0.0196451
747.957	0.0194678
748.035	0.0194797
748.113	0.0191168
748.192	0.0187136
748.270	0.0185182
748.348	0.0183315
748.426	0.0179738
748.504	0.0176428
748.582	0.0176093
748.660	0.0174758
748.738	0.0173014
748.817	0.0171331
748.895	0.0170774
748.973	0.0170557
749.051	0.0171079
749.129	0.0170361
749.207	0.0173429
749.285	0.0174979
749.363	0.0177537
749.442	0.0178281
749.520	0.0179741
749.598	0.0180398
749.676	0.0182126
749.754	0.0183816
749.832	0.0184917
749.910	0.0185378
749.988	0.0185828
750.067	0.0185255
750.145	0.0184689
750.223	0.0184566
750.301	0.0183410
750.379	0.0182990
750.457	0.0180884
750.535	0.0179980
750.613	0.0177146
750.692	0.0175385
750.770	0.0173925
750.848	0.0172121
750.926	0.0170656
751.004	0.0169675
751.082	0.0167875
751.160	0.0165233
751.238	0.0164043
751.317	0.0163765
751.395	0.0164305
751.473	0.0162067
751.551	0.0162273
751.629	0.0162598
751.707	0.0163831
751.785	0.0165781
751.863	0.0167686
751.942	0.0172557
752.020	0.0174195
752.098	0.0176195
752.176	0.0179476
752.254	0.0183711
752.332	0.0187256
752.410	0.0191496
752.488	0.0193822
752.567	0.0194894
752.645	0.0195218
752.723	0.0197277
752.801	0.0198259
752.879	0.0194751
752.957	0.0193837
753.035	0.0190956
753.113	0.0188596
753.192	0.0185048
753.270	0.0180950
753.348	0.0176823
753.426	0.0174085
753.504	0.0168769
753.582	0.0166780
753.660	0.0164967
753.738	0.0163693
753.817	0.0161649
753.895	0.0162154
753.973	0.0163775
754.051	0.0164261
754.129	0.0167094
754.207	0.0170107
754.285	0.0174471
754.363	0.0176250
754.442	0.0179096
754.520	0.0182204
754.598	0.0186159
754.676	0.0189564
754.754	0.0192085
754.832	0.0193847
754.910	0.0195753
754.988	0.0196749
755.067	0.0196738
755.145	0.0196837
755.223	0.0195400
755.301	0.0195045
755.379	0.0192677
755.457	0.0191884
755.535	0.0189606
755.613	0.0187595
755.692	0.0185903
755.770	0.0182675
755.848	0.0181238
755.926	0.0178083
756.004	0.0177964
756.082	0.0176204
756.160	0.0176094
756.238	0.0174223
756.317	0.0172877
756.395	0.0172701
756.473	0.0172686
756.551	0.0171863
756.629	0.0173099
756.707	0.0172717
756.785	0.0172546
756.863	0.0172646
756.942	0.0174675
757.020	0.0176350
757.098	0.0176939
757.176	0.0178851
757.254	0.0180140
757.332	0.0180602
757.410	0.0183396
757.488	0.0185396
757.567	0.0184528
757.645	0.0185381
757.723	0.0185200
757.801	0.0186342
757.879	0.0187745
757.957	0.0184384
758.035	0.0184013
758.113	0.0183501
758.192	0.0182235
758.270	0.0179838
758.348	0.0176010
758.426	0.0174964
758.504	0.0174682
758.582	0.0171564
758.660	0.0171114
758.738	0.0167924
758.817	0.0167201
758.895	0.0166803
758.973	0.0165227
759.051	0.0165470
759.129	0.0165132
759.207	0.0164958
759.285	0.0166753
759.363	0.0167532
759.442	0.0170073
759.520	0.0171719
759.598	0.0174017
759.676	0.0176431
759.754	0.0178452
759.832	0.0177316
759.910	0.0179479
759.988	0.0180275
760.067	0.0181715
760.145	0.0181759
760.223	0.0183273
760.301	0.0183008
760.379	0.0183242
760.457	0.0184245
760.535	0.0183249
760.613	0.0183469
760.692	0.0183753
760.770	0.0183918
760.848	0.0183446
760.926	0.0184148
761.004	0.0184075
761.082	0.0185664
761.160	0.0185864
761.238	0.0184672
761.317	0.0185568
761.395	0.0184964
761.473	0.0182662
761.551	0.0184110
761.629	0.0184193
761.707	0.0183542
761.785	0.0185247
761.863	0.0184978
761.942	0.0184593
762.020	0.0182896
762.098	0.0182573
762.176	0.0181876
762.254	0.0181904
762.332	0.0180936
762.410	0.0180678
762.488	0.0181017
762.567	0.0180926
762.645	0.0181774
762.723	0.0182300
762.801	0.0182290
762.879	0.0183018
762.957	0.0182764
763.035	0.0183575
763.113	0.0184972
763.192	0.0184686
763.270	0.0183513
763.348	0.0183397
763.426	0.0182590
763.504	0.0181787
763.582	0.0179790
763.660	0.0178960
763.738	0.0177535
763.817	0.0177009
763.895	0.0174338
763.973	0.0173266
764.051	0.0172473
764.129	0.0172967
764.207	0.0172070
764.285	0.0170864
764.363	0.0172466
764.442	0.0173447
764.520	0.0175162
764.598	0.0174070
764.676	0.0177308
764.754	0.0177743
764.832	0.0177608
764.910	0.0178737
764.988	0.0181920
765.067	0.0182442
765.145	0.0183430
765.223	0.0183738
765.301	0.0182135
765.379	0.0182469
765.457	0.0183466
765.535	0.0183400
765.613	0.0184047
765.692	0.0181942
765.770	0.0182198
765.848	0.0181548
765.926	0.0180013
766.004	0.0180421
766.082	0.0179762
766.160	0.0178838
766.238	0.0178662
766.317	0.0176841
766.395	0.0177412
766.473	0.0178040
766.551	0.0176590
766.629	0.0178321
766.707	0.0176556
766.785	0.0176476
766.863	0.0177901
766.942	0.0175606
767.020	0.0176146
767.098	0.0175561
767.176	0.0175440
767.254	0.0175076
767.332	0.0175013
767.410	0.0175471
767.488	0.0173448
767.567	0.0173492
767.645	0.0173914
767.723	0.0173772
767.801	0.0173553
767.879	0.0174658
767.957	0.0174990
768.035	0.0176572
768.113	0.0177996
768.192	0.0175469
768.270	0.0179092
768.348	0.0179272
768.426	0.0179523
768.504	0.0182485
768.582	0.0183017
768.660	0.0183473
768.738	0.0185236
768.817	0.0186006
768.895	0.0187443
768.973	0.0186687
769.051	0.0187353
769.129	0.0189310
769.207	0.0188505
769.285	0.0188583
769.363	0.0186351
769.442	0.0187579
769.520	0.0187944
769.598	0.0187674
769.676	0.0185448
769.754	0.0184484
769.832	0.0182200
769.910	0.0182408
769.988	0.0182467
770.067	0.0180836
770.145	0.0180354
770.223	0.0179356
770.301	0.0179211
770.379	0.0179443
770.457	0.0180511
770.535	0.0180070
770.613	0.0180785
770.692	0.0180856
770.770	0.0181283
770.848	0.0182946
770.926	0.0182510
771.004	0.0183971
771.082	0.0185594
771.160	0.0184592
771.238	0.0185242
771.317	0.0185902
771.395	0.0185511
771.473	0.0185069
771.551	0.0184476
771.629	0.0183658
771.707	0.0183302
771.785	0.0182349
771.863	0.0180380
771.942	0.0178680
772.020	0.0177816
772.098	0.0174966
772.176	0.0173555
772.254	0.0172510
772.332	0.0170336
772.410	0.0168623
772.488	0.0169637
772.567	0.0167641
772.645	0.0168204
772.723	0.0166951
772.801	0.0167732
772.879	0.0167899
772.957	0.0168864
773.035	0.0170388
773.113	0.0172244
773.192	0.0172388
773.270	0.0173018
773.348	0.0175445
773.426	0.0176429
773.504	0.0177484
773.582	0.0177982
773.660	0.0177720
773.738	0.0178998
773.817	0.0181464
773.895	0.0182092
773.973	0.0181906
774.051	0.0182233
774.129	0.0183100
774.207	0.0183051
774.285	0.0180541
774.363	0.0183082
774.442	0.0182732
774.520	0.0182529
774.598	0.0181810
774.676	0.0181966
774.754	0.0178867
774.832	0.0179755
774.910	0.0178587
774.988	0.0178120
775.067	0.0178506
775.145	0.0175665
775.223	0.0176547
775.301	0.0177630
775.379	0.0177620
775.457	0.0176479
775.535	0.0176503
775.613	0.0178265
775.692	0.0178155
775.770	0.0179182
775.848	0.0179579
775.926	0.0179240
776.004	0.0180072
776.082	0.0180192
776.160	0.0180094
776.238	0.0181442
776.317	0.0181142
776.395	0.0179552
776.473	0.0181330
776.551	0.0181448
776.629	0.0181200
776.707	0.0180830
776.785	0.0182272
776.863	0.0180592
776.942	0.0179778
777.020	0.0181028
777.098	0.0181996
777.176	0.0180630
777.254	0.0180463
777.332	0.0181961
777.410	0.0182029
777.488	0.0181877
777.567	0.0182428
777.645	0.0182774
777.723	0.0181068
777.801	0.0182476
777.879	0.0182391
777.957	0.0182096
778.035	0.0181281
778.113	0.0182342
778.192	0.0181676
778.270	0.0180392
778.348	0.0181415
778.426	0.0181397
778.504	0.0178865
778.582	0.0179270
778.660	0.0178465
778.738	0.0178387
778.817	0.0179643
778.895	0.0178223
778.973	0.0178827
779.051	0.0179868
779.129	0.0178695
779.207	0.0179322
779.285	0.0180576
779.363	0.0182710
779.442	0.0182831
779.520	0.0182093
779.598	0.0184397
779.676	0.0186001
779.754	0.0184923
779.832	0.0184217
779.910	0.0184260
779.988	0.0183842
780.067	0.0182104
780.145	0.0183641
780.223	0.0180755
780.301	0.0178610
780.379	0.0177371
780.457	0.0178038
780.535	0.0177091
780.613	0.0174543
780.692	0.0174181
780.770	0.0172199
780.848	0.0170547
780.926	0.0169572
781.004	0.0168237
781.082	0.0168370
781.160	0.0168855
781.238	0.0167924
781.317	0.0169582
781.395	0.0170419
781.473	0.0168555
781.551	0.0171002
781.629	0.0169554
781.707	0.0171551
781.785	0.0171550
781.863	0.0171403
781.942	0.0172141
782.020	0.0173791
782.098	0.0174989
782.176	0.0175407
782.254	0.0177427
782.332	0.0177503
782.410	0.0175900
782.488	0.0178072
782.567	0.0179520
782.645	0.0180176
782.723	0.0180447
782.801	0.0180837
782.879	0.0182795
782.957	0.0184516
783.035	0.0185399
783.113	0.0185503
783.192	0.0185616
783.270	0.0188163
783.348	0.0186653
783.426	0.0187205
783.504	0.0188171
783.582	0.0186152
783.660	0.0187729
783.738	0.0186816
783.817	0.0186494
783.895	0.0184900
783.973	0.0183996
784.051	0.0181853
784.129	0.0183039
784.207	0.0182035
784.285	0.0181361
784.363	0.0182815
784.442	0.0182072
784.520	0.0181949
784.598	0.0182799
784.676	0.0181430
784.754	0.0181831
784.832	0.0182619
784.910	0.0183262
784.988	0.0182314
785.067	0.0183952
785.145	0.0183019
785.223	0.0182365
785.301	0.0183363
785.379	0.0182337
785.457	0.0181630
785.535	0.0180870
785.613	0.0180666
785.692	0.0181139
785.770	0.0180261
785.848	0.0179400
785.926	0.0178780
786.004	0.0177315
786.082	0.0177090
786.160	0.0176834
786.238	0.0174599
786.317	0.0175375
786.395	0.0175309
786.473	0.0174579
786.551	0.0174730
786.629	0.0174008
786.707	0.0175441
786.785	0.0174637
786.863	0.0175309
786.942	0.0175543
787.020	0.0176189
787.098	0.0177463
787.176	0.0175382
787.254	0.0176005
787.332	0.0176096
787.410	0.0175697
787.488	0.0175897
787.567	0.0175210
787.645	0.0175864
787.723	0.0176572
787.801	0.0174656
787.879	0.0177132
787.957	0.0176001
788.035	0.0177588
788.113	0.0180059
788.192	0.0181850
788.270	0.0181924
788.348	0.0183166
788.426	0.0185130
788.504	0.0183006
788.582	0.0186638
788.660	0.0185064
788.738	0.0185735
788.817	0.0186185
788.895	0.0185056
788.973	0.0186111
789.051	0.0185648
789.129	0.0182712
789.207	0.0183337
789.285	0.0181973
789.363	0.0180572
789.442	0.0179548
789.520	0.0178715
789.598	0.0178439
789.676	0.0177539
789.754	0.0176615
789.832	0.0175495
789.910	0.0174406
789.988	0.0174219
790.067	0.0173820
790.145	0.0173821
790.223	0.0172639
790.301	0.0172688
790.379	0.0173430
790.457	0.0174030
790.535	0.0171780
790.613	0.0172488
790.692	0.0173133
790.770	0.0172663
790.848	0.0170827
790.926	0.0172011
791.004	0.0173112
791.082	0.0173064
791.160	0.0173197
791.238	0.0174897
791.317	0.0175366
791.395	0.0177390
791.473	0.0176987
791.551	0.0179467
791.629	0.0179665
791.707	0.0181367
791.785	0.0183649
791.863	0.0186239
791.942	0.0187080
792.020	0.0188320
792.098	0.0189624
792.176	0.0191599
792.254	0.0191908
792.332	0.0191536
792.410	0.0192200
792.488	0.0193967
792.567	0.0192093
792.645	0.0191500
792.723	0.0191013
792.801	0.0190276
792.879	0.0190222
792.957	0.0189975
793.035	0.0189398
793.113	0.0186754
793.192	0.0186842
793.270	0.0185851
793.348	0.0184303
793.426	0.0183013
793.504	0.0180331
793.582	0.0179337
793.660	0.0179576
793.738	0.0178665
793.817	0.0175917
793.895	0.0175591
793.973	0.0175930
794.051	0.0175207
794.129	0.0174113
794.207	0.0173450
794.285	0.0171933
794.363	0.0171315
794.442	0.0171251
794.520	0.0169488
794.598	0.0169549
794.676	0.0169191
794.754	0.0170836
794.832	0.0169334
794.910	0.0169150
794.988	0.0169398
795.067	0.0170967
795.145	0.0170583
795.223	0.0170730
795.301	0.0170667
795.379	0.0172692
795.457	0.0172512
795.535	0.0172731
795.613	0.0175414
795.692	0.0175539
795.770	0.0177094
795.848	0.0177553
795.926	0.0179113
796.004	0.0178927
796.082	0.0180468
796.160	0.0183011
796.238	0.0183533
796.317	0.0183645
796.395	0.0185613
796.473	0.0186727
796.551	0.0187315
796.629	0.0189371
796.707	0.0188743
796.785	0.0188100
796.863	0.0190067
796.942	0.0190791
797.020	0.0191912
797.098	0.0192813
797.176	0.0192801
797.254	0.0192788
797.332	0.0192560
797.410	0.0191219
797.488	0.0191708
797.567	0.0190202
797.645	0.0189577
797.723	0.0188456
797.801	0.0185178
797.879	0.0183142
797.957	0.0181084
798.035	0.0179498
798.113	0.0176230
798.192	0.0173074
798.270	0.0170617
798.348	0.0168916
798.426	0.0168060
798.504	0.0164268
798.582	0.0162363
798.660	0.0162296
798.738	0.0160218
798.817	0.0159378
798.895	0.0160329
798.973	0.0160781
799.051	0.0160256
799.129	0.0162069
799.207	0.0163267
799.285	0.0164896
799.363	0.0166875
799.442	0.0168915
799.520	0.0170989
799.598	0.0172008
799.676	0.0175800
799.754	0.0176755
799.832	0.0178804
799.910	0.0179343
799.988	0.0182162
800.067	0.0185519
800.145	0.0186928
800.223	0.0186826
800.301	0.0189634
800.379	0.0190292
800.457	0.0191476
800.535	0.0192207
800.613	0.0191576
800.692	0.0193287
800.770	0.0194238
800.848	0.0194221
800.926	0.0193365
801.004	0.0193597
801.082	0.0194434
801.160	0.0193914
801.238	0.0193626
801.317	0.0193589
801.395	0.0192149
801.473	0.0193291
801.551	0.0192774
801.629	0.0192537
801.707	0.0193423
801.785	0.0193103
801.863	0.0192275
801.942	0.0191069
802.020	0.0190424
802.098	0.0191029
802.176	0.0190490
802.254	0.0189187
802.332	0.0188497
802.410	0.0186800
802.488	0.0186342
802.567	0.0184550
802.645	0.0184116
802.723	0.0181272
802.801	0.0179241
802.879	0.0176795
802.957	0.0174525
803.035	0.0172704
803.113	0.0171671
803.192	0.0168680
803.270	0.0165438
803.348	0.0164375
803.426	0.0160599
803.504	0.0160171
803.582	0.0155861
803.660	0.0153671
803.738	0.0153912
803.817	0.0152580
803.895	0.0151784
803.973	0.0151314
804.051	0.0152382
804.129	0.0153671
804.207	0.0152462
804.285	0.0154966
804.363	0.0155844
804.442	0.0158439
804.520	0.0161896
804.598	0.0163041
804.676	0.0166221
804.754	0.0168938
804.832	0.0170516
804.910	0.0174080
804.988	0.0177373
805.067	0.0180666
805.145	0.0182347
805.223	0.0184281
805.301	0.0188251
805.379	0.0190232
805.457	0.0190539
805.535	0.0193558
805.613	0.0195966
805.692	0.0196664
805.770	0.0196661
805.848	0.0199209
805.926	0.0200076
806.004	0.0200086
806.082	0.0199267
806.160	0.0201012
806.238	0.0200172
806.317	0.0201012
806.395	0.0199287
806.473	0.0199241
806.551	0.0197438
806.629	0.0198111
806.707	0.0197935
806.785	0.0196355
806.863	0.0195197
806.942	0.0194711
807.020	0.0193724
807.098	0.0192886
807.176	0.0192593
807.254	0.0188883
807.332	0.0188718
807.410	0.0188043
807.488	0.0186667
807.567	0.0185067
807.645	0.0182692
807.723	0.0181855
807.801	0.0180046
807.879	0.0178693
807.957	0.0176792
808.035	0.0174405
808.113	0.0173342
808.192	0.0172301
808.270	0.0170455
808.348	0.0170547
808.426	0.0168682
808.504	0.0166767
808.582	0.0167194
808.660	0.0166427
808.738	0.0163671
808.817	0.0162399
808.895	0.0163409
808.973	0.0161369
809.051	0.0161701
809.129	0.0161421
809.207	0.0161788
809.285	0.0161733
809.363	0.0160658
809.442	0.0163280
809.520	0.0162363
809.598	0.0162308
809.676	0.0165079
809.754	0.0164812
809.832	0.0168267
809.910	0.0168235
809.988	0.0168204
810.067	0.0171642
810.145	0.0173762
810.223	0.0174915
810.301	0.0176225
810.379	0.0179596
810.457	0.0181140
810.535	0.0183023
810.613	0.0184310
810.692	0.0185846
810.770	0.0187584
810.848	0.0189783
810.926	0.0190858
811.004	0.0191700
811.082	0.0193385
811.160	0.0195478
811.238	0.0195298
811.317	0.0197242
811.395	0.0195590
811.473	0.0196420
811.551	0.0195117
811.629	0.0196747
811.707	0.0196951
811.785	0.0196362
811.863	0.0195655
811.942	0.0194709
812.020	0.0195106
812.098	0.0193501
812.176	0.0193105
812.254	0.0191393
812.332	0.0189773
812.410	0.0190250
812.488	0.0189397
812.567	0.0189059
812.645	0.0185175
812.723	0.0185885
812.801	0.0183270
812.879	0.0181449
812.957	0.0180901
813.035	0.0178861
813.113	0.0178155
813.192	0.0176309
813.270	0.0175620
813.348	0.0174144
813.426	0.0172367
813.504	0.0173167
813.582	0.0170605
813.660	0.0169593
813.738	0.0167775
813.817	0.0167827
813.895	0.0167671
813.973	0.0166231
814.051	0.0166216
814.129	0.0164102
814.207	0.0165511
814.285	0.0164977
814.363	0.0165398
814.442	0.0165804
814.520	0.0165398
814.598	0.0166007
814.676	0.0165661
814.754	0.0167628
814.832	0.0167719
814.910	0.0167691
814.988	0.0168153
815.067	0.0170433
815.145	0.0170026
815.223	0.0171440
815.301	0.0172807
815.379	0.0174503
815.457	0.0176331
815.535	0.0177183
815.613	0.0179722
815.692	0.0180380
815.770	0.0181541
815.848	0.0184114
815.926	0.0184477
816.004	0.0186001
816.082	0.0190771
816.160	0.0191037
816.238	0.0191553
816.317	0.0191014
816.395	0.0193027
816.473	0.0194357
816.551	0.0195280
816.629	0.0193837
816.707	0.0194137
816.785	0.0194743
816.863	0.0192303
816.942	0.0192715
817.020	0.0192956
817.098	0.0192082
817.176	0.0190757
817.254	0.0190251
817.332	0.0189238
817.410	0.0188663
817.488	0.0188954
817.567	0.0187678
817.645	0.0186732
817.723	0.0185450
817.801	0.0186063
817.879	0.0184277
817.957	0.0183542
818.035	0.0184404
818.113	0.0184367
818.192	0.0182727
818.270	0.0181828
818.348	0.0180296
818.426	0.0178971
818.504	0.0179163
818.582	0.0177245
818.660	0.0176270
818.738	0.0176202
818.817	0.0174557
818.895	0.0174412
818.973	0.0174157
819.051	0.0172649
819.129	0.0170550
819.207	0.0171085
819.285	0.0169668
819.363	0.0170265
819.442	0.0170541
819.520	0.0168481
819.598	0.0168381
819.676	0.0167282
819.754	0.0166709
819.832	0.0167899
819.910	0.0166653
819.988	0.0168348
820.067	0.0167453
820.145	0.0167659
820.223	0.0169926
820.301	0.0170695
820.379	0.0171082
820.457	0.0172894
820.535	0.0172324
820.613	0.0173277
820.692	0.0176005
820.770	0.0176098
820.848	0.0176511
820.926	0.0178537
821.004	0.0179281
821.082	0.0179608
821.160	0.0181078
821.238	0.0179951
821.317	0.0180189
821.395	0.0181877
821.473	0.0183754
821.551	0.0182082
821.629	0.0182381
821.707	0.0182769
821.785	0.0182521
821.863	0.0182819
821.942	0.0182870
822.020	0.0183615
822.098	0.0182990
822.176	0.0182976
822.254	0.0183439
822.332	0.0184169
822.410	0.0184203
822.488	0.0184976
822.567	0.0184939
822.645	0.0186350
822.723	0.0185555
822.801	0.0187170
822.879	0.0187367
822.957	0.0187771
823.035	0.0189005
823.113	0.0191249
823.192	0.0187995
823.270	0.0189452
823.348	0.0189735
823.426	0.0188354
823.504	0.0187872
823.582	0.0188814
823.660	0.0187927
823.738	0.0187174
823.817	0.0185358
823.895	0.0184496
823.973	0.0182619
824.051	0.0180004
824.129	0.0179527
824.207	0.0177525
824.285	0.0177280
824.363	0.0176543
824.442	0.0174493
824.520	0.0174659
824.598	0.0173306
824.676	0.0171732
824.754	0.0171024
824.832	0.0171268
824.910	0.0171671
824.988	0.0171228
825.067	0.0170818
825.145	0.0171194
825.223	0.0172211
825.301	0.0172399
825.379	0.0173779
825.457	0.0173112
825.535	0.0173351
825.613	0.0174989
825.692	0.0174654
825.770	0.0175625
825.848	0.0176450
825.926	0.0177156
826.004	0.0178764
826.082	0.0178319
826.160	0.0179026
826.238	0.0179922
826.317	0.0178801
826.395	0.0179569
826.473	0.0180151
826.551	0.0180039
826.629	0.0179462
826.707	0.0179147
826.785	0.0178745
826.863	0.0179466
826.942	0.0177605
827.020	0.0177219
827.098	0.0176421
827.176	0.0176624
827.254	0.0176051
827.332	0.0175931
827.410	0.0177008
827.488	0.0177582
827.567	0.0176160
827.645	0.0176855
827.723	0.0178006
827.801	0.0179474
827.879	0.0179403
827.957	0.0179193
828.035	0.0180064
828.113	0.0181153
828.192	0.0182603
828.270	0.0181231
828.348	0.0181161
828.426	0.0183770
828.504	0.0183086
828.582	0.0183714
828.660	0.0183924
828.738	0.0183923
828.817	0.0182996
828.895	0.0182012
828.973	0.0181779
829.051	0.0181909
829.129	0.0180837
829.207	0.0181636
829.285	0.0179988
829.363	0.0178957
829.442	0.0179314
829.520	0.0177902
829.598	0.0177107
829.676	0.0179212
829.754	0.0179564
829.832	0.0177956
829.910	0.0180404
829.988	0.0179584
830.067	0.0179166
830.145	0.0180503
830.223	0.0180954
830.301	0.0179234
830.379	0.0179398
830.457	0.0181416
830.535	0.0181301
830.613	0.0182522
830.692	0.0181271
830.770	0.0181361
830.848	0.0182497
830.926	0.0181519
831.004	0.0179690
831.082	0.0180394
831.160	0.0181683
831.238	0.0182402
831.317	0.0180969
831.395	0.0181139
831.473	0.0179346
831.551	0.0181069
831.629	0.0180399
831.707	0.0180456
831.785	0.0180611
831.863	0.0178586
831.942	0.0178914
832.020	0.0180035
832.098	0.0179155
832.176	0.0178496
832.254	0.0179094
832.332	0.0180272
832.410	0.0177960
832.488	0.0177421
832.567	0.0176913
832.645	0.0176703
832.723	0.0175493
832.801	0.0176077
832.879	0.0174306
832.957	0.0174505
833.035	0.0173784
833.113	0.0174416
833.192	0.0175877
833.270	0.0174310
833.348	0.0173968
833.426	0.0176395
833.504	0.0175599
833.582	0.0175709
833.660	0.0176268
833.738	0.0176067
833.817	0.0178489
833.895	0.0177875
833.973	0.0176900
834.051	0.0178629
834.129	0.0178982
834.207	0.0179506
834.285	0.0179086
834.363	0.0180173
834.442	0.0180382
834.520	0.0180837
834.598	0.0180566
834.676	0.0180553
834.754	0.0181955
834.832	0.0181188
834.910	0.0182314
834.988	0.0181724
835.067	0.0180225
835.145	0.0181252
835.223	0.0179671
835.301	0.0180864
835.379	0.0181342
835.457	0.0179696
835.535	0.0180087
835.613	0.0178690
835.692	0.0179321
835.770	0.0180091
835.848	0.0180053
835.926	0.0179860
836.004	0.0178681
836.082	0.0179380
836.160	0.0179277
836.238	0.0179898
836.317	0.0179822
836.395	0.0178660
836.473	0.0179674
836.551	0.0181393
836.629	0.0178617
836.707	0.0180363
836.785	0.0179980
836.863	0.0180517
836.942	0.0180345
837.020	0.0179843
837.098	0.0181799
837.176	0.0181686
837.254	0.0181262
837.332	0.0182494
837.410	0.0181707
837.488	0.0179202
837.567	0.0180780
837.645	0.0181760
837.723	0.0182845
837.801	0.0180495
837.879	0.0180656
837.957	0.0182014
838.035	0.0181180
838.113	0.0181558
838.192	0.0179636
838.270	0.0180956
838.348	0.0180624
838.426	0.0182169
838.504	0.0181196
838.582	0.0180697
838.660	0.0181304
838.738	0.0180094
838.817	0.0180324
838.895	0.0180497
838.973	0.0179207
839.051	0.0180575
839.129	0.0180704
839.207	0.0178516
839.285	0.0178615
839.363	0.0179390
839.442	0.0177678
839.520	0.0177680
839.598	0.0178542
839.676	0.0176079
839.754	0.0175246
839.832	0.0176015
839.910	0.0174384
839.988	0.0173674
840.067	0.0176233
840.145	0.0176336
840.223	0.0173997
840.301	0.0173134
840.379	0.0174076
840.457	0.0174666
840.535	0.0175491
840.613	0.0174828
840.692	0.0176231
840.770	0.0174542
840.848	0.0175895
840.926	0.0176151
841.004	0.0177543
841.082	0.0179512
841.160	0.0179293
841.238	0.0180316
841.317	0.0181142
841.395	0.0182040
841.473	0.0180423
841.551	0.0180308
841.629	0.0181649
841.707	0.0181892
841.785	0.0181899
841.863	0.0182738
841.942	0.0181674
842.020	0.0182994
842.098	0.0182286
842.176	0.0181822
842.254	0.0182735
842.332	0.0180575
842.410	0.0182298
842.488	0.0180495
842.567	0.0181901
842.645	0.0183833
842.723	0.0182738
842.801	0.0183045
842.879	0.0183116
842.957	0.0182572
843.035	0.0183337
843.113	0.0183569
843.192	0.0182678
843.270	0.0183981
843.348	0.0184599
843.426	0.0184413
843.504	0.0184874
843.582	0.0183523
843.660	0.0182092
843.738	0.0182418
843.817	0.0182596
843.895	0.0181981
843.973	0.0182062
844.051	0.0182099
844.129	0.0181376
844.207	0.0180688
844.285	0.0180156
844.363	0.0179499
844.442	0.0178623
844.520	0.0178025
844.598	0.0177198
844.676	0.0175314
844.754	0.0173610
844.832	0.0174094
844.910	0.0173078
844.988	0.0171481
845.067	0.0170978
845.145	0.0171016
845.223	0.0170440
845.301	0.0171620
845.379	0.0170470
845.457	0.0171048
845.535	0.0171587
845.613	0.0171761
845.692	0.0172559
845.770	0.0174865
845.848	0.0174543
845.926	0.0174482
846.004	0.0175948
846.082	0.0177137
846.160	0.0178511
846.238	0.0179935
846.317	0.0180228
846.395	0.0180919
846.473	0.0181948
846.551	0.0184663
846.629	0.0183716
846.707	0.0183348
846.785	0.0183615
846.863	0.0184383
846.942	0.0182025
847.020	0.0185329
847.098	0.0184710
847.176	0.0184045
847.254	0.0184933
847.332	0.0183743
847.410	0.0184676
847.488	0.0182852
847.567	0.0183707
847.645	0.0182759
847.723	0.0183401
847.801	0.0182925
847.879	0.0183572
847.957	0.0182449
848.035	0.0181458
848.113	0.0182103
848.192	0.0181538
848.270	0.0181860
848.348	0.0181106
848.426	0.0180355
848.504	0.0180658
848.582	0.0179398
848.660	0.0179251
848.738	0.0180545
848.817	0.0180386
848.895	0.0178912
848.973	0.0179125
849.051	0.0179005
849.129	0.0177670
849.207	0.0178925
849.285	0.0178907
849.363	0.0178637
849.442	0.0179548
849.520	0.0177053
849.598	0.0177715
849.676	0.0176435
849.754	0.0175477
849.832	0.0176429
849.910	0.0176635
849.988	0.0175123
850.067	0.0174416
850.145	0.0175236
850.223	0.0173618
850.301	0.0173874
850.379	0.0173058
850.457	0.0173477
850.535	0.0174387
850.613	0.0173844
850.692	0.0172673
850.770	0.0172950
850.848	0.0174720
850.926	0.0173529
851.004	0.0174934
851.082	0.0176160
851.160	0.0176102
851.238	0.0176584
851.317	0.0178661
851.395	0.0178442
851.473	0.0179850
851.551	0.0179465
851.629	0.0180598
851.707	0.0181937
851.785	0.0182460
851.863	0.0183222
851.942	0.0184239
852.020	0.0184650
852.098	0.0183142
852.176	0.0184516
852.254	0.0185421
852.332	0.0185082
852.410	0.0183855
852.488	0.0185629
852.567	0.0184301
852.645	0.0183566
852.723	0.0184503
852.801	0.0182741
852.879	0.0183540
852.957	0.0181826
853.035	0.0182291
853.113	0.0182090
853.192	0.0182136
853.270	0.0181992
853.348	0.0181365
853.426	0.0181690
853.504	0.0181345
853.582	0.0180469
853.660	0.0179733
853.738	0.0179277
853.817	0.0179968
853.895	0.0180042
853.973	0.0179617
854.051	0.0178799
854.129	0.0178136
854.207	0.0179671
854.285	0.0179518
854.363	0.0179614
854.442	0.0177348
854.520	0.0178442
854.598	0.0178127
854.676	0.0177784
854.754	0.0177551
854.832	0.0177397
854.910	0.0177718
854.988	0.0175222
855.067	0.0176376
855.145	0.0175754
855.223	0.0175555
855.301	0.0175360
855.379	0.0173225
855.457	0.0174102
855.535	0.0174668
855.613	0.0175809
855.692	0.0174352
855.770	0.0173760
855.848	0.0176175
855.926	0.0176080
856.004	0.0176121
856.082	0.0175319
856.160	0.0175717
856.238	0.0177000
856.317	0.0176526
856.395	0.0176858
856.473	0.0179031
856.551	0.0177682
856.629	0.0179710
856.707	0.0179183
856.785	0.0178683
856.863	0.0179986
856.942	0.0180914
857.020	0.0181260
857.098	0.0181805
857.176	0.0182211
857.254	0.0181901
857.332	0.0180949
857.410	0.0182836
857.488	0.0183352
857.567	0.0183260
857.645	0.0183425
857.723	0.0182906
857.801	0.0184041
857.879	0.0182169
857.957	0.0183949
858.035	0.0183920
858.113	0.0182759
858.192	0.0183217
858.270	0.0182951
858.348	0.0182938
858.426	0.0182497
858.504	0.0183028
858.582	0.0183190
858.660	0.0181466
858.738	0.0180179
858.817	0.0180484
858.895	0.0181602
858.973	0.0180103
859.051	0.0181659
859.129	0.0181330
859.207	0.0180455
859.285	0.0179291
859.363	0.0180281
859.442	0.0178977
859.520	0.0179007
859.598	0.0179173
859.676	0.0179427
859.754	0.0179385
859.832	0.0179709
859.910	0.0178359
859.988	0.0177866
860.067	0.0177834
860.145	0.0178015
860.223	0.0177523
860.301	0.0177749
860.379	0.0176858
860.457	0.0177206
860.535	0.0177103
860.613	0.0176888
860.692	0.0176917
860.770	0.0176497
860.848	0.0178314
860.926	0.0177542
861.004	0.0177035
861.082	0.0176508
861.160	0.0176398
861.238	0.0176723
861.317	0.0177854
861.395	0.0177515
861.473	0.0177166
861.551	0.0179536
861.629	0.0177296
861.707	0.0177190
861.785	0.0176920
861.863	0.0177975
861.942	0.0178430
862.020	0.0178694
862.098	0.0179140
862.176	0.0177817
862.254	0.0179607
862.332	0.0178706
862.410	0.0179405
862.488	0.0178642
862.567	0.0178183
862.645	0.0180796
862.723	0.0180692
862.801	0.0179913
862.879	0.0180305
862.957	0.0179739
863.035	0.0179588
863.113	0.0180856
863.192	0.0181110
863.270	0.0180621
863.348	0.0181519
863.426	0.0181193
863.504	0.0179472
863.582	0.0179232
863.660	0.0181562
863.738	0.0180331
863.817	0.0179721
863.895	0.0179925
863.973	0.0180126
864.051	0.0180658
864.129	0.0181180
864.207	0.0180471
864.285	0.0181102
864.363	0.0180855
864.442	0.0179802
864.520	0.0181886
864.598	0.0181305
864.676	0.0180929
864.754	0.0180721
864.832	0.0180560
864.910	0.0181228
864.988	0.0180582
865.067	0.0180979
865.145	0.0180263
865.223	0.0180890
865.301	0.0180965
865.379	0.0180766
865.457	0.0178702
865.535	0.0179393
865.613	0.0179016
865.692	0.0180119
865.770	0.0179426
865.848	0.0179437
865.926	0.0179363
866.004	0.0179325
866.082	0.0178972
866.160	0.0179560
866.238	0.0179604
866.317	0.0180418
866.395	0.0181516
866.473	0.0180565
866.551	0.0180885
866.629	0.0180573
866.707	0.0181297
866.785	0.0179464
866.863	0.0180534
866.942	0.0181072
867.020	0.0180766
867.098	0.0180365
867.176	0.0179725
867.254	0.0179898
867.332	0.0179298
867.410	0.0177749
867.488	0.0177657
867.567	0.0177558
867.645	0.0177774
867.723	0.0177435
867.801	0.0176250
867.879	0.0177019
867.957	0.0178991
868.035	0.0178210
868.113	0.0177705
868.192	0.0176352
868.270	0.0177351
868.348	0.0179464
868.426	0.0178040
868.504	0.0177423
868.582	0.0179018
868.660	0.0178128
868.738	0.0179469
868.817	0.0179146
868.895	0.0178501
868.973	0.0178049
869.051	0.0180377
869.129	0.0178562
869.207	0.0178747
869.285	0.0178462
869.363	0.0177967
869.442	0.0179225
869.520	0.0178764
869.598	0.0178223
869.676	0.0179146
869.754	0.0178954
869.832	0.0180197
869.910	0.0178423
869.988	0.0180510
870.067	0.0179588
870.145	0.0179706
870.223	0.0180791
870.301	0.0181104
870.379	0.0181786
870.457	0.0180644
870.535	0.0178637
870.613	0.0181833
870.692	0.0182848
870.770	0.0181747
870.848	0.0180361
870.926	0.0181501
871.004	0.0181820
871.082	0.0181836
871.160	0.0181435
871.238	0.0181562
871.317	0.0182262
871.395	0.0181789
871.473	0.0180666
871.551	0.0180841
871.629	0.0182036
871.707	0.0182487
871.785	0.0182931
871.863	0.0182500
871.942	0.0181248
872.020	0.0180769
872.098	0.0182904
872.176	0.0180575
872.254	0.0182064
872.332	0.0181505
872.410	0.0179713
872.488	0.0179544
872.567	0.0179155
872.645	0.0179072
872.723	0.0178501
872.801	0.0176658
872.879	0.0176945
872.957	0.0176430
873.035	0.0176871
873.113	0.0175663
873.192	0.0174854
873.270	0.0175621
873.348	0.0174818
873.426	0.0174403
873.504	0.0175495
873.582	0.0173823
873.660	0.0175455
873.738	0.0175603
873.817	0.0177428
873.895	0.0177785
873.973	0.0177373
874.051	0.0180024
874.129	0.0180924
874.207	0.0179401
874.285	0.0180727
874.363	0.0180944
874.442	0.0183480
874.520	0.0181731
874.598	0.0183643
874.676	0.0184373
874.754	0.0183112
874.832	0.0182236
874.910	0.0183056
874.988	0.0182707
875.067	0.0180805
875.145	0.0183029
875.223	0.0182663
875.301	0.0180858
875.379	0.0180965
875.457	0.0180414
875.535	0.0180913
875.613	0.0180447
875.692	0.0179552
875.770	0.0180556
875.848	0.0180565
875.926	0.0179723
876.004	0.0180407
876.082	0.0180927
876.160	0.0181244
876.238	0.0180463
876.317	0.0181853
876.395	0.0181841
876.473	0.0180721
876.551	0.0181673
876.629	0.0181291
876.707	0.0180562
876.785	0.0180431
876.863	0.0182072
876.942	0.0181500
877.020	0.0180437
877.098	0.0179274
877.176	0.0179140
877.254	0.0179327
877.332	0.0179080
877.410	0.0179793
877.488	0.0177662
877.567	0.0178645
877.645	0.0177143
877.723	0.0177865
877.801	0.0177780
877.879	0.0176949
877.957	0.0175680
878.035	0.0176509
878.113	0.0176007
878.192	0.0177314
878.270	0.0176453
878.348	0.0175771
878.426	0.0177223
878.504	0.0176559
878.582	0.0178205
878.660	0.0177526
878.738	0.0178458
878.817	0.0178280
878.895	0.0179466
878.973	0.0180522
879.051	0.0180376
879.129	0.0180276
879.207	0.0181666
879.285	0.0180984
879.363	0.0180647
879.442	0.0182317
879.520	0.0183390
879.598	0.0181432
879.676	0.0183782
879.754	0.0185019
879.832	0.0185553
879.910	0.0183363
879.988	0.0184407
880.067	0.0183910
880.145	0.0184905
880.223	0.0185057
880.301	0.0183196
880.379	0.0184410
880.457	0.0183085
880.535	0.0182664
880.613	0.0181726
880.692	0.0180906
880.770	0.0181150
880.848	0.0180264
880.926	0.0179813
881.004	0.0178912
881.082	0.0179214
881.160	0.0178403
881.238	0.0178296
881.317	0.0178400
881.395	0.0177592
881.473	0.0178619
881.551	0.0180079
881.629	0.0179517
881.707	0.0179176
881.785	0.0178664
881.863	0.0180682
881.942	0.0181274
882.020	0.0179674
882.098	0.0181036
882.176	0.0181092
882.254	0.0181802
882.332	0.0180764
882.410	0.0181876
882.488	0.0180486
882.567	0.0180032
882.645	0.0181529
882.723	0.0182218
882.801	0.0180034
882.879	0.0179185
882.957	0.0180091
883.035	0.0179314
883.113	0.0177453
883.192	0.0178384
883.270	0.0178687
883.348	0.0178130
883.426	0.0177637
883.504	0.0178207
883.582	0.0178494
883.660	0.0179842
883.738	0.0180305
883.817	0.0179936
883.895	0.0180930
883.973	0.0179974
884.051	0.0180079
884.129	0.0180960
884.207	0.0180366
884.285	0.0180949
884.363	0.0181268
884.442	0.0181127
884.520	0.0180827
884.598	0.0179956
884.676	0.0179893
884.754	0.0180470
884.832	0.0178986
884.910	0.0180344
884.988	0.0178741
885.067	0.0177337
885.145	0.0178625
885.223	0.0178414
885.301	0.0178281
885.379	0.0178770
885.457	0.0179217
885.535	0.0179372
885.613	0.0179511
885.692	0.0178591
885.770	0.0179644
885.848	0.0180215
885.926	0.0179649
886.004	0.0178773
886.082	0.0180008
886.160	0.0178873
886.238	0.0179024
886.317	0.0179315
886.395	0.0178395
886.473	0.0181427
886.551	0.0180003
886.629	0.0179250
886.707	0.0181840
886.785	0.0181765
886.863	0.0180026
886.942	0.0183827
887.020	0.0184689
887.098	0.0184405
887.176	0.0184248
887.254	0.0185379
887.332	0.0185032
887.410	0.0185378
887.488	0.0186179
887.567	0.0185472
887.645	0.0184721
887.723	0.0186047
887.801	0.0184612
887.879	0.0186742
887.957	0.0184203
888.035	0.0183003
888.113	0.0184906
888.192	0.0182315
888.270	0.0181136
888.348	0.0180594
888.426	0.0177977
888.504	0.0178178
888.582	0.0177706
888.660	0.0177537
888.738	0.0176807
888.817	0.0175289
888.895	0.0173800
888.973	0.0174809
889.051	0.0174560
889.129	0.0174998
889.207	0.0174734
889.285	0.0174932
889.363	0.0173853
889.442	0.0174210
889.520	0.0175220
889.598	0.0175518
889.676	0.0176868
889.754	0.0176764
889.832	0.0178674
889.910	0.0179286
889.988	0.0179595
890.067	0.0179656
890.145	0.0180645
890.223	0.0182335
890.301	0.0181299
890.379	0.0182290
890.457	0.0182162
890.535	0.0182511
890.613	0.0183801
890.692	0.0183578
890.770	0.0182957
890.848	0.0184389
890.926	0.0183985
891.004	0.0182981
891.082	0.0181815
891.160	0.0182488
891.238	0.0182782
891.317	0.0182387
891.395	0.0183104
891.473	0.0181515
891.551	0.0181528
891.629	0.0182800
891.707	0.0182832
891.785	0.0183025
891.863	0.0183968
891.942	0.0182548
892.020	0.0182280
892.098	0.0182211
892.176	0.0181176
892.254	0.0180807
892.332	0.0182234
892.410	0.0181199
892.488	0.0179387
892.567	0.0179185
892.645	0.0178301
892.723	0.0179107
892.801	0.0177741
892.879	0.0178585
892.957	0.0177373
893.035	0.0177747
893.113	0.0176385
893.192	0.0174860
893.270	0.0177383
893.348	0.0176423
893.426	0.0174598
893.504	0.0173370
893.582	0.0173465
893.660	0.0174138
893.738	0.0172768
893.817	0.0173027
893.895	0.0172230
893.973	0.0172452
894.051	0.0173465
894.129	0.0173314
894.207	0.0171880
894.285	0.0172100
894.363	0.0176207
894.442	0.0177043
894.520	0.0178896
894.598	0.0179282
894.676	0.0180888
894.754	0.0180760
894.832	0.0184431
894.910	0.0185624
894.988	0.0185799
895.067	0.0185507
895.145	0.0187910
895.223	0.0187523
895.301	0.0185831
895.379	0.0186497
895.457	0.0186728
895.535	0.0186514
895.613	0.0186953
895.692	0.0185079
895.770	0.0185051
895.848	0.0185367
895.926	0.0185946
896.004	0.0184410
896.082	0.0184383
896.160	0.0184552
896.238	0.0182200
896.317	0.0181439
896.395	0.0180907
896.473	0.0179397
896.551	0.0179749
896.629	0.0178575
896.707	0.0177476
896.785	0.0176403
896.863	0.0177038
896.942	0.0178376
897.020	0.0177333
897.098	0.0179728
897.176	0.0180360
897.254	0.0179948
897.332	0.0180280
897.410	0.0182079
897.488	0.0181630
897.567	0.0181706
897.645	0.0181776
897.723	0.0182150
897.801	0.0181939
897.879	0.0182655
897.957	0.0182175
898.035	0.0182064
898.113	0.0181823
898.192	0.0180246
898.270	0.0179707
898.348	0.0181054
898.426	0.0177984
898.504	0.0177823
898.582	0.0176771
898.660	0.0175166
898.738	0.0173495
898.817	0.0173533
898.895	0.0173900
898.973	0.0172809
899.051	0.0170291
899.129	0.0172173
899.207	0.0172322
899.285	0.0171659
899.363	0.0173026
899.442	0.0173160
899.520	0.0173499
899.598	0.0175770
899.676	0.0177500
899.754	0.0177135
899.832	0.0178699
899.910	0.0179336
899.988	0.0181147
900.067	0.0181586
900.145	0.0183079
900.223	0.0183514
900.301	0.0183296
900.379	0.0183080
900.457	0.0185337
900.535	0.0185384
900.613	0.0185683
900.692	0.0185668
900.770	0.0185259
900.848	0.0186442
900.926	0.0185464
901.004	0.0185334
901.082	0.0185201
901.160	0.0183380
901.238	0.0183939
901.317	0.0184373
901.395	0.0183693
901.473	0.0182934
901.551	0.0183105
901.629	0.0182272
901.707	0.0181924
901.785	0.0180537
901.863	0.0180511
901.942	0.0180390
902.020	0.0179205
902.098	0.0181660
902.176	0.0180945
902.254	0.0180930
902.332	0.0180521
902.410	0.0182349
902.488	0.0182373
902.567	0.0183218
902.645	0.0183342
902.723	0.0184336
902.801	0.0183836
902.879	0.0183958
902.957	0.0182458
903.035	0.0183341
903.113	0.0183103
903.192	0.0182886
903.270	0.0180137
903.348	0.0179701
903.426	0.0177648
903.504	0.0177032
903.582	0.0176531
903.660	0.0174328
903.738	0.0174387
903.817	0.0174273
903.895	0.0170819
903.973	0.0172133
904.051	0.0171791
904.129	0.0171290
904.207	0.0172498
904.285	0.0173992
904.363	0.0173116
904.442	0.0173708
904.520	0.0175577
904.598	0.0176456
904.676	0.0176870
904.754	0.0178273
904.832	0.0179919
904.910	0.0179295
904.988	0.0179387
905.067	0.0182188
905.145	0.0181476
905.223	0.0184092
905.301	0.0183472
905.379	0.0183456
905.457	0.0182736
905.535	0.0183742
905.613	0.0183803
905.692	0.0184531
905.770	0.0185316
905.848	0.0184583
905.926	0.0185033
906.004	0.0184444
906.082	0.0186251
906.160	0.0184389
906.238	0.0185099
906.317	0.0184418
906.395	0.0183540
906.473	0.0183286
906.551	0.0182619
906.629	0.0182549
906.707	0.0181387
906.785	0.0180478
906.863	0.0180793
906.942	0.0179848
907.020	0.0180360
907.098	0.0179013
907.176	0.0179551
907.254	0.0179523
907.332	0.0180555
907.410	0.0180190
907.488	0.0180141
907.567	0.0180728
907.645	0.0181303
907.723	0.0180523
907.801	0.0180833
907.879	0.0180993
907.957	0.0181831
908.035	0.0180879
908.113	0.0180938
908.192	0.0179826
908.270	0.0177856
908.348	0.0178345
908.426	0.0178714
908.504	0.0176189
908.582	0.0176892
908.660	0.0176186
908.738	0.0174145
908.817	0.0172890
908.895	0.0173480
908.973	0.0172427
909.051	0.0172325
909.129	0.0172611
909.207	0.0173055
909.285	0.0173324
909.363	0.0175127
909.442	0.0176740
909.520	0.0178587
909.598	0.0179548
909.676	0.0179630
909.754	0.0181592
909.832	0.0180912
909.910	0.0183388
909.988	0.0184079
910.067	0.0184187
910.145	0.0183239
910.223	0.0185735
910.301	0.0184846
910.379	0.0185069
910.457	0.0184724
910.535	0.0185799
910.613	0.0184724
910.692	0.0185706
910.770	0.0185652
910.848	0.0185445
910.926	0.0183405
911.004	0.0184019
911.082	0.0185374
911.160	0.0183766
911.238	0.0181935
911.317	0.0182872
911.395	0.0182919
911.473	0.0182345
911.551	0.0179203
911.629	0.0180561
911.707	0.0180671
911.785	0.0178288
911.863	0.0178168
911.942	0.0177970
912.020	0.0178003
912.098	0.0176745
912.176	0.0177067
912.254	0.0177200
912.332	0.0176705
912.410	0.0177345
912.488	0.0178159
912.567	0.0177095
912.645	0.0178291
912.723	0.0179338
912.801	0.0178564
912.879	0.0179818
912.957	0.0181518
913.035	0.0181645
913.113	0.0182565
913.192	0.0182343
913.270	0.0183634
913.348	0.0183669
913.426	0.0183371
913.504	0.0180599
913.582	0.0181183
913.660	0.0179719
913.738	0.0180186
913.817	0.0178998
913.895	0.0177429
913.973	0.0175674
914.051	0.0175512
914.129	0.0175839
914.207	0.0174403
914.285	0.0174609
914.363	0.0174712
914.442	0.0174802
914.520	0.0174512
914.598	0.0174578
914.676	0.0176657
914.754	0.0176862
914.832	0.0177323
914.910	0.0179868
914.988	0.0181065
915.067	0.0181470
915.145	0.0181309
915.223	0.0182355
915.301	0.0182857
915.379	0.0183516
915.457	0.0185236
915.535	0.0183305
915.613	0.0184179
915.692	0.0183040
915.770	0.0185207
915.848	0.0184001
915.926	0.0183786
916.004	0.0183224
916.082	0.0183512
916.160	0.0184669
916.238	0.0182410
916.317	0.0182069
916.395	0.0181615
916.473	0.0179292
916.551	0.0180468
916.629	0.0179935
916.707	0.0178159
916.785	0.0179086
916.863	0.0177680
916.942	0.0177097
917.020	0.0175093
917.098	0.0175916
917.176	0.0176206
917.254	0.0175267
917.332	0.0175342
917.410	0.0175974
917.488	0.0177000
917.567	0.0175735
917.645	0.0175374
917.723	0.0177747
917.801	0.0178976
917.879	0.0179197
917.957	0.0179067
918.035	0.0180308
918.113	0.0183058
918.192	0.0182692
918.270	0.0182462
918.348	0.0183276
918.426	0.0182790
918.504	0.0182680
918.582	0.0183165
918.660	0.0182387
918.738	0.0181376
918.817	0.0180474
918.895	0.0180659
918.973	0.0179138
919.051	0.0178672
919.129	0.0177845
919.207	0.0176411
919.285	0.0176416
919.363	0.0176831
919.442	0.0176373
919.520	0.0174979
919.598	0.0176544
919.676	0.0175720
919.754	0.0175980
919.832	0.0176700
919.910	0.0177164
