06/01/2022	21:44:23	Ver.	4.1	UNKNOWN
Optical Delay	599.988409	Delta X		0.078125	Sweeps	1	Scan Rate	0/0
Coordinates	Axis 1	NaN	Axis 2	NaN	Axis 3	NaN	Axis 4	NaN	Axis 5	NaN	Axis 6	0.000000
TX Power	0.000000	RX Power	0.000000

599.988	0.0173402
600.067	0.0174194
600.145	0.0172845
600.223	0.0173310
600.301	0.0174262
600.379	0.0173635
600.457	0.0173483
600.535	0.0173604
600.613	0.0173705
600.692	0.0173996
600.770	0.0173580
600.848	0.0173573
600.926	0.0172997
601.004	0.0173242
601.082	0.0172705
601.160	0.0174727
601.238	0.0173190
601.317	0.0172796
601.395	0.0173363
601.473	0.0172726
601.551	0.0174665
601.629	0.0174050
601.707	0.0173207
601.785	0.0173705
601.863	0.0174909
601.942	0.0173427
602.020	0.0173106
602.098	0.0172608
602.176	0.0172742
602.254	0.0174250
602.332	0.0173117
602.410	0.0173814
602.488	0.0173676
602.567	0.0173029
602.645	0.0172514
602.723	0.0174173
602.801	0.0172198
602.879	0.0174151
602.957	0.0172369
603.035	0.0174068
603.113	0.0174149
603.192	0.0174335
603.270	0.0173618
603.348	0.0172889
603.426	0.0173928
603.504	0.0172824
603.582	0.0173488
603.660	0.0172924
603.738	0.0173788
603.817	0.0172871
603.895	0.0172962
603.973	0.0173674
604.051	0.0173882
604.129	0.0173454
604.207	0.0173705
604.285	0.0173344
604.363	0.0173839
604.442	0.0174241
604.520	0.0174301
604.598	0.0173635
604.676	0.0173233
604.754	0.0172916
604.832	0.0172820
604.910	0.0172225
604.988	0.0173445
605.067	0.0173603
605.145	0.0173984
605.223	0.0173728
605.301	0.0172428
605.379	0.0173492
605.457	0.0173563
605.535	0.0173180
605.613	0.0173955
605.692	0.0173724
605.770	0.0172760
605.848	0.0172586
605.926	0.0174850
606.004	0.0174411
606.082	0.0173395
606.160	0.0173722
606.238	0.0174361
606.317	0.0172974
606.395	0.0172762
606.473	0.0174069
606.551	0.0174258
606.629	0.0174208
606.707	0.0173621
606.785	0.0172902
606.863	0.0173357
606.942	0.0172203
607.020	0.0174079
607.098	0.0174512
607.176	0.0173113
607.254	0.0173122
607.332	0.0172881
607.410	0.0173123
607.488	0.0172900
607.567	0.0172580
607.645	0.0174147
607.723	0.0174223
607.801	0.0173471
607.879	0.0173025
607.957	0.0172630
608.035	0.0174194
608.113	0.0174180
608.192	0.0172345
608.270	0.0173708
608.348	0.0174182
608.426	0.0172786
608.504	0.0173010
608.582	0.0173505
608.660	0.0172328
608.738	0.0173096
608.817	0.0173894
608.895	0.0173943
608.973	0.0174003
609.051	0.0173231
609.129	0.0174358
609.207	0.0173958
609.285	0.0172208
609.363	0.0174845
609.442	0.0173605
609.520	0.0172942
609.598	0.0173916
609.676	0.0174072
609.754	0.0174066
609.832	0.0173553
609.910	0.0173255
609.988	0.0173595
610.067	0.0173314
610.145	0.0174099
610.223	0.0172890
610.301	0.0174094
610.379	0.0173270
610.457	0.0173215
610.535	0.0173235
610.613	0.0174783
610.692	0.0174477
610.770	0.0173553
610.848	0.0174158
610.926	0.0173787
611.004	0.0172973
611.082	0.0173766
611.160	0.0174653
611.238	0.0171886
611.317	0.0174016
611.395	0.0172845
611.473	0.0173332
611.551	0.0174665
611.629	0.0174307
611.707	0.0172151
611.785	0.0173388
611.863	0.0173685
611.942	0.0172849
612.020	0.0174736
612.098	0.0174516
612.176	0.0174368
612.254	0.0172372
612.332	0.0174609
612.410	0.0174423
612.488	0.0173686
612.567	0.0173769
612.645	0.0172855
612.723	0.0172985
612.801	0.0175125
612.879	0.0173699
612.957	0.0173041
613.035	0.0174570
613.113	0.0174596
613.192	0.0173720
613.270	0.0173839
613.348	0.0172288
613.426	0.0173752
613.504	0.0174445
613.582	0.0172954
613.660	0.0174113
613.738	0.0173974
613.817	0.0172977
613.895	0.0173566
613.973	0.0173474
614.051	0.0173462
614.129	0.0172845
614.207	0.0174142
614.285	0.0173526
614.363	0.0175169
614.442	0.0173650
614.520	0.0173580
614.598	0.0172459
614.676	0.0173063
614.754	0.0173723
614.832	0.0174193
614.910	0.0174025
614.988	0.0174127
615.067	0.0174191
615.145	0.0174233
615.223	0.0175082
615.301	0.0173864
615.379	0.0172947
615.457	0.0173257
615.535	0.0171583
615.613	0.0173240
615.692	0.0174931
615.770	0.0173640
615.848	0.0174841
615.926	0.0173576
616.004	0.0172101
616.082	0.0174046
616.160	0.0174523
616.238	0.0173700
616.317	0.0174280
616.395	0.0173207
616.473	0.0172150
616.551	0.0173158
616.629	0.0173779
616.707	0.0174069
616.785	0.0173520
616.863	0.0172363
616.942	0.0172698
617.020	0.0173116
617.098	0.0172205
617.176	0.0173399
617.254	0.0173328
617.332	0.0173701
617.410	0.0174157
617.488	0.0173758
617.567	0.0174592
617.645	0.0172538
617.723	0.0173534
617.801	0.0173825
617.879	0.0172749
617.957	0.0172816
618.035	0.0173307
618.113	0.0173156
618.192	0.0173735
618.270	0.0174329
618.348	0.0174149
618.426	0.0173467
618.504	0.0173462
618.582	0.0172491
618.660	0.0174043
618.738	0.0173245
618.817	0.0173514
618.895	0.0173392
618.973	0.0173335
619.051	0.0173975
619.129	0.0174528
619.207	0.0173296
619.285	0.0172722
619.363	0.0175481
619.442	0.0174393
619.520	0.0174036
619.598	0.0174689
619.676	0.0173666
619.754	0.0173703
619.832	0.0173412
619.910	0.0173616
619.988	0.0173553
620.067	0.0173438
620.145	0.0173470
620.223	0.0173459
620.301	0.0174007
620.379	0.0173977
620.457	0.0173526
620.535	0.0173570
620.613	0.0174031
620.692	0.0174056
620.770	0.0174284
620.848	0.0173392
620.926	0.0173236
621.004	0.0174052
621.082	0.0173853
621.160	0.0172488
621.238	0.0172505
621.317	0.0172913
621.395	0.0174770
621.473	0.0173232
621.551	0.0172598
621.629	0.0172599
621.707	0.0173926
621.785	0.0173027
621.863	0.0172422
621.942	0.0174231
622.020	0.0173441
622.098	0.0172372
622.176	0.0171993
622.254	0.0173832
622.332	0.0173029
622.410	0.0171584
622.488	0.0173010
622.567	0.0172011
622.645	0.0174512
622.723	0.0173675
622.801	0.0174064
622.879	0.0173161
622.957	0.0172404
623.035	0.0173460
623.113	0.0173136
623.192	0.0174393
623.270	0.0174255
623.348	0.0173378
623.426	0.0172944
623.504	0.0173775
623.582	0.0174479
623.660	0.0175298
623.738	0.0173905
623.817	0.0173407
623.895	0.0174182
623.973	0.0174377
624.051	0.0173464
624.129	0.0174359
624.207	0.0173685
624.285	0.0173447
624.363	0.0172943
624.442	0.0172253
624.520	0.0174017
624.598	0.0173712
624.676	0.0173289
624.754	0.0173505
624.832	0.0172674
624.910	0.0173827
624.988	0.0173392
625.067	0.0175123
625.145	0.0174807
625.223	0.0173540
625.301	0.0174458
625.379	0.0173218
625.457	0.0173224
625.535	0.0175282
625.613	0.0173343
625.692	0.0173936
625.770	0.0174850
625.848	0.0173363
625.926	0.0174411
626.004	0.0174091
626.082	0.0173522
626.160	0.0174731
626.238	0.0175168
626.317	0.0173346
626.395	0.0173684
626.473	0.0174003
626.551	0.0172500
626.629	0.0173309
626.707	0.0173682
626.785	0.0174408
626.863	0.0171334
626.942	0.0172104
627.020	0.0171481
627.098	0.0171983
627.176	0.0173839
627.254	0.0171466
627.332	0.0171792
627.410	0.0173347
627.488	0.0172260
627.567	0.0172581
627.645	0.0174333
627.723	0.0173708
627.801	0.0173200
627.879	0.0173100
627.957	0.0174447
628.035	0.0173759
628.113	0.0173131
628.192	0.0174376
628.270	0.0174557
628.348	0.0174719
628.426	0.0174353
628.504	0.0174380
628.582	0.0175444
628.660	0.0175177
628.738	0.0174341
628.817	0.0173485
628.895	0.0174281
628.973	0.0173908
629.051	0.0174545
629.129	0.0173526
629.207	0.0173959
629.285	0.0174426
629.363	0.0174018
629.442	0.0173688
629.520	0.0173372
629.598	0.0174368
629.676	0.0173531
629.754	0.0173879
629.832	0.0173653
629.910	0.0172939
629.988	0.0172997
630.067	0.0175254
630.145	0.0174701
630.223	0.0174101
630.301	0.0172533
630.379	0.0174461
630.457	0.0174129
630.535	0.0173116
630.613	0.0173147
630.692	0.0174301
630.770	0.0175161
630.848	0.0173264
630.926	0.0172704
631.004	0.0174817
631.082	0.0174073
631.160	0.0172763
631.238	0.0174331
631.317	0.0174411
631.395	0.0173879
631.473	0.0173393
631.551	0.0173773
631.629	0.0173476
631.707	0.0173132
631.785	0.0173444
631.863	0.0172813
631.942	0.0171680
632.020	0.0172367
632.098	0.0172366
632.176	0.0171715
632.254	0.0172951
632.332	0.0172419
632.410	0.0171832
632.488	0.0172054
632.567	0.0173820
632.645	0.0173407
632.723	0.0173326
632.801	0.0173136
632.879	0.0172440
632.957	0.0172690
633.035	0.0173451
633.113	0.0172107
633.192	0.0173724
633.270	0.0172536
633.348	0.0174338
633.426	0.0173516
633.504	0.0173244
633.582	0.0174460
633.660	0.0174242
633.738	0.0172916
633.817	0.0173759
633.895	0.0174054
633.973	0.0173403
634.051	0.0174035
634.129	0.0173823
634.207	0.0174067
634.285	0.0173797
634.363	0.0173083
634.442	0.0174529
634.520	0.0173710
634.598	0.0173251
634.676	0.0175289
634.754	0.0174710
634.832	0.0173628
634.910	0.0173735
634.988	0.0172379
635.067	0.0174749
635.145	0.0175252
635.223	0.0173106
635.301	0.0173987
635.379	0.0173419
635.457	0.0172401
635.535	0.0173744
635.613	0.0174705
635.692	0.0174664
635.770	0.0173749
635.848	0.0173938
635.926	0.0172731
636.004	0.0173328
636.082	0.0174212
636.160	0.0172350
636.238	0.0173604
636.317	0.0173254
636.395	0.0172954
636.473	0.0174382
636.551	0.0174093
636.629	0.0172900
636.707	0.0174186
636.785	0.0173247
636.863	0.0173259
636.942	0.0172347
637.020	0.0173467
637.098	0.0175113
637.176	0.0173553
637.254	0.0172030
637.332	0.0172763
637.410	0.0171685
637.488	0.0173100
637.567	0.0172282
637.645	0.0173719
637.723	0.0171516
637.801	0.0172382
637.879	0.0173048
637.957	0.0172652
638.035	0.0172623
638.113	0.0173570
638.192	0.0173856
638.270	0.0173431
638.348	0.0174004
638.426	0.0173911
638.504	0.0172861
638.582	0.0174010
638.660	0.0174101
638.738	0.0173836
638.817	0.0172865
638.895	0.0173144
638.973	0.0173976
639.051	0.0174010
639.129	0.0172957
639.207	0.0175183
639.285	0.0173504
639.363	0.0174265
639.442	0.0174741
639.520	0.0173857
639.598	0.0173293
639.676	0.0173641
639.754	0.0173651
639.832	0.0173879
639.910	0.0173750
639.988	0.0174297
640.067	0.0173927
640.145	0.0174882
640.223	0.0175066
640.301	0.0173161
640.379	0.0174858
640.457	0.0174508
640.535	0.0174184
640.613	0.0173807
640.692	0.0172822
640.770	0.0175352
640.848	0.0174540
640.926	0.0173297
641.004	0.0175513
641.082	0.0174382
641.160	0.0173785
641.238	0.0173081
641.317	0.0173634
641.395	0.0174825
641.473	0.0174286
641.551	0.0173604
641.629	0.0174722
641.707	0.0173228
641.785	0.0173647
641.863	0.0174658
641.942	0.0173548
642.020	0.0174239
642.098	0.0173994
642.176	0.0172574
642.254	0.0173489
642.332	0.0173165
642.410	0.0173920
642.488	0.0173534
642.567	0.0173258
642.645	0.0173315
642.723	0.0172090
642.801	0.0173125
642.879	0.0174447
642.957	0.0173600
643.035	0.0174661
643.113	0.0172560
643.192	0.0173526
643.270	0.0172829
643.348	0.0172762
643.426	0.0171925
643.504	0.0171129
643.582	0.0172491
643.660	0.0172963
643.738	0.0173043
643.817	0.0174066
643.895	0.0174232
643.973	0.0173417
644.051	0.0173405
644.129	0.0174827
644.207	0.0174422
644.285	0.0173569
644.363	0.0172427
644.442	0.0172314
644.520	0.0174592
644.598	0.0173190
644.676	0.0173956
644.754	0.0172139
644.832	0.0175042
644.910	0.0174184
644.988	0.0172573
645.067	0.0172652
645.145	0.0172609
645.223	0.0173094
645.301	0.0173558
645.379	0.0173664
645.457	0.0174538
645.535	0.0174335
645.613	0.0173266
645.692	0.0174224
645.770	0.0174287
645.848	0.0174343
645.926	0.0173348
646.004	0.0171792
646.082	0.0174649
646.160	0.0173763
646.238	0.0174355
646.317	0.0174660
646.395	0.0175073
646.473	0.0173562
646.551	0.0173692
646.629	0.0172301
646.707	0.0173994
646.785	0.0173962
646.863	0.0173248
646.942	0.0174564
647.020	0.0174043
647.098	0.0173891
647.176	0.0173898
647.254	0.0173934
647.332	0.0173557
647.410	0.0173293
647.488	0.0174068
647.567	0.0174960
647.645	0.0174228
647.723	0.0173729
647.801	0.0174168
647.879	0.0172923
647.957	0.0172908
648.035	0.0174116
648.113	0.0173503
648.192	0.0173125
648.270	0.0173259
648.348	0.0173154
648.426	0.0174748
648.504	0.0173499
648.582	0.0172987
648.660	0.0173841
648.738	0.0173442
648.817	0.0172994
648.895	0.0171793
648.973	0.0172383
649.051	0.0174290
649.129	0.0174519
649.207	0.0174152
649.285	0.0174026
649.363	0.0174065
649.442	0.0174274
649.520	0.0174964
649.598	0.0173186
649.676	0.0173458
649.754	0.0172691
649.832	0.0174188
649.910	0.0175075
649.988	0.0173421
650.067	0.0173125
650.145	0.0173749
650.223	0.0173573
650.301	0.0173433
650.379	0.0175671
650.457	0.0172792
650.535	0.0174083
650.613	0.0172381
650.692	0.0174100
650.770	0.0174060
650.848	0.0172998
650.926	0.0174072
651.004	0.0172874
651.082	0.0173266
651.160	0.0173457
651.238	0.0173640
651.317	0.0174123
651.395	0.0173788
651.473	0.0173646
651.551	0.0174353
651.629	0.0174746
651.707	0.0173786
651.785	0.0173631
651.863	0.0174123
651.942	0.0172010
652.020	0.0172964
652.098	0.0173438
652.176	0.0173399
652.254	0.0173766
652.332	0.0173512
652.410	0.0173067
652.488	0.0174986
652.567	0.0173849
652.645	0.0173226
652.723	0.0174091
652.801	0.0173892
652.879	0.0174044
652.957	0.0174773
653.035	0.0173975
653.113	0.0174989
653.192	0.0173547
653.270	0.0173795
653.348	0.0174200
653.426	0.0173627
653.504	0.0174374
653.582	0.0173952
653.660	0.0173575
653.738	0.0173639
653.817	0.0173553
653.895	0.0174295
653.973	0.0174748
654.051	0.0173326
654.129	0.0173009
654.207	0.0175034
654.285	0.0176112
654.363	0.0173630
654.442	0.0173521
654.520	0.0174388
654.598	0.0174306
654.676	0.0172878
654.754	0.0173222
654.832	0.0173695
654.910	0.0173895
654.988	0.0173617
655.067	0.0174517
655.145	0.0174109
655.223	0.0173959
655.301	0.0174481
655.379	0.0173218
655.457	0.0172859
655.535	0.0172884
655.613	0.0172749
655.692	0.0173826
655.770	0.0173793
655.848	0.0173328
655.926	0.0173604
656.004	0.0173018
656.082	0.0174059
656.160	0.0174553
656.238	0.0173986
656.317	0.0174133
656.395	0.0174556
656.473	0.0173198
656.551	0.0173977
656.629	0.0173249
656.707	0.0174735
656.785	0.0173411
656.863	0.0173479
656.942	0.0173730
657.020	0.0173662
657.098	0.0174444
657.176	0.0173999
657.254	0.0173785
657.332	0.0173236
657.410	0.0174632
657.488	0.0175266
657.567	0.0172989
657.645	0.0172687
657.723	0.0173396
657.801	0.0174241
657.879	0.0173309
657.957	0.0173571
658.035	0.0174034
658.113	0.0173669
658.192	0.0172507
658.270	0.0173548
658.348	0.0174104
658.426	0.0172501
658.504	0.0174007
658.582	0.0173909
658.660	0.0173672
658.738	0.0172456
658.817	0.0172649
658.895	0.0173824
658.973	0.0172557
659.051	0.0172622
659.129	0.0173619
659.207	0.0174250
659.285	0.0173047
659.363	0.0173703
659.442	0.0174030
659.520	0.0173874
659.598	0.0173759
659.676	0.0174079
659.754	0.0172159
659.832	0.0174980
659.910	0.0173029
659.988	0.0173122
660.067	0.0174236
660.145	0.0173495
660.223	0.0174537
660.301	0.0172774
660.379	0.0171827
660.457	0.0172695
660.535	0.0173632
660.613	0.0173198
660.692	0.0171791
660.770	0.0173254
660.848	0.0174307
660.926	0.0173733
661.004	0.0173613
661.082	0.0174249
661.160	0.0173969
661.238	0.0173148
661.317	0.0173341
661.395	0.0174247
661.473	0.0172885
661.551	0.0174344
661.629	0.0173632
661.707	0.0172230
661.785	0.0173192
661.863	0.0173648
661.942	0.0172415
662.020	0.0174083
662.098	0.0173714
662.176	0.0174687
662.254	0.0174223
662.332	0.0173827
662.410	0.0173833
662.488	0.0174795
662.567	0.0174782
662.645	0.0174015
662.723	0.0174622
662.801	0.0175850
662.879	0.0173875
662.957	0.0172687
663.035	0.0173239
663.113	0.0174515
663.192	0.0173631
663.270	0.0172832
663.348	0.0173438
663.426	0.0173012
663.504	0.0172701
663.582	0.0173576
663.660	0.0172015
663.738	0.0173035
663.817	0.0172992
663.895	0.0171947
663.973	0.0173683
664.051	0.0172802
664.129	0.0173528
664.207	0.0175001
664.285	0.0173771
664.363	0.0175762
664.442	0.0174068
664.520	0.0173602
664.598	0.0173813
664.676	0.0173445
664.754	0.0174230
664.832	0.0174124
664.910	0.0172379
664.988	0.0173741
665.067	0.0173376
665.145	0.0172140
665.223	0.0171364
665.301	0.0171976
665.379	0.0172032
665.457	0.0172017
665.535	0.0172601
665.613	0.0173470
665.692	0.0172538
665.770	0.0173064
665.848	0.0174260
665.926	0.0174696
666.004	0.0174395
666.082	0.0174688
666.160	0.0175359
666.238	0.0176202
666.317	0.0174196
666.395	0.0174241
666.473	0.0175150
666.551	0.0174136
666.629	0.0173658
666.707	0.0173537
666.785	0.0172796
666.863	0.0174139
666.942	0.0173091
667.020	0.0171942
667.098	0.0173010
667.176	0.0172143
667.254	0.0172253
667.332	0.0172643
667.410	0.0171552
667.488	0.0172383
667.567	0.0172293
667.645	0.0173110
667.723	0.0174126
667.801	0.0173679
667.879	0.0173331
667.957	0.0174150
668.035	0.0174361
668.113	0.0174901
668.192	0.0173396
668.270	0.0174554
668.348	0.0175497
668.426	0.0175229
668.504	0.0173252
668.582	0.0174496
668.660	0.0173244
668.738	0.0172746
668.817	0.0171938
668.895	0.0173130
668.973	0.0171954
669.051	0.0172369
669.129	0.0173271
669.207	0.0173170
669.285	0.0172115
669.363	0.0171831
669.442	0.0173952
669.520	0.0174774
669.598	0.0173563
669.676	0.0173948
669.754	0.0174119
669.832	0.0174677
669.910	0.0174119
669.988	0.0174567
670.067	0.0176221
670.145	0.0175528
670.223	0.0173997
670.301	0.0174911
670.379	0.0173936
670.457	0.0174728
670.535	0.0174754
670.613	0.0175230
670.692	0.0175069
670.770	0.0173409
670.848	0.0172670
670.926	0.0173293
671.004	0.0172086
671.082	0.0171470
671.160	0.0171863
671.238	0.0170821
671.317	0.0171713
671.395	0.0170918
671.473	0.0171891
671.551	0.0172019
671.629	0.0172948
671.707	0.0174158
671.785	0.0175031
671.863	0.0174203
671.942	0.0175298
672.020	0.0175694
672.098	0.0175864
672.176	0.0176681
672.254	0.0176242
672.332	0.0175201
672.410	0.0175797
672.488	0.0174980
672.567	0.0174784
672.645	0.0174326
672.723	0.0172483
672.801	0.0172869
672.879	0.0172102
672.957	0.0172272
673.035	0.0171679
673.113	0.0171323
673.192	0.0170835
673.270	0.0171444
673.348	0.0173234
673.426	0.0171535
673.504	0.0173969
673.582	0.0173726
673.660	0.0174947
673.738	0.0175910
673.817	0.0175533
673.895	0.0174614
673.973	0.0175206
674.051	0.0176567
674.129	0.0176742
674.207	0.0176510
674.285	0.0176091
674.363	0.0175207
674.442	0.0174094
674.520	0.0173836
674.598	0.0174327
674.676	0.0172248
674.754	0.0171260
674.832	0.0171970
674.910	0.0171423
674.988	0.0171430
675.067	0.0170869
675.145	0.0171838
675.223	0.0171701
675.301	0.0172004
675.379	0.0172611
675.457	0.0172878
675.535	0.0172464
675.613	0.0172223
675.692	0.0173091
675.770	0.0174063
675.848	0.0174192
675.926	0.0172983
676.004	0.0172875
676.082	0.0172823
676.160	0.0172358
676.238	0.0173575
676.317	0.0174278
676.395	0.0174608
676.473	0.0174074
676.551	0.0174084
676.629	0.0174846
676.707	0.0175829
676.785	0.0174934
676.863	0.0175486
676.942	0.0173671
677.020	0.0174799
677.098	0.0175378
677.176	0.0175013
677.254	0.0174345
677.332	0.0175108
677.410	0.0175867
677.488	0.0175143
677.567	0.0175517
677.645	0.0174146
677.723	0.0173849
677.801	0.0174718
677.879	0.0174151
677.957	0.0172006
678.035	0.0170689
678.113	0.0171595
678.192	0.0170659
678.270	0.0168957
678.348	0.0169936
678.426	0.0171071
678.504	0.0172011
678.582	0.0172361
678.660	0.0172269
678.738	0.0172266
678.817	0.0172947
678.895	0.0174072
678.973	0.0175424
679.051	0.0174073
679.129	0.0174944
679.207	0.0175948
679.285	0.0175833
679.363	0.0176493
679.442	0.0176128
679.520	0.0177449
679.598	0.0177632
679.676	0.0176070
679.754	0.0175922
679.832	0.0175903
679.910	0.0173918
679.988	0.0173678
680.067	0.0171285
680.145	0.0170154
680.223	0.0169656
680.301	0.0168170
680.379	0.0168372
680.457	0.0166503
680.535	0.0167828
680.613	0.0168930
680.692	0.0168986
680.770	0.0171169
680.848	0.0172521
680.926	0.0174067
681.004	0.0175827
681.082	0.0177872
681.160	0.0179146
681.238	0.0180303
681.317	0.0182304
681.395	0.0182101
681.473	0.0181274
681.551	0.0180246
681.629	0.0179916
681.707	0.0178668
681.785	0.0176105
681.863	0.0175437
681.942	0.0173309
682.020	0.0172307
682.098	0.0171245
682.176	0.0168146
682.254	0.0167184
682.332	0.0168411
682.410	0.0167661
682.488	0.0168953
682.567	0.0169670
682.645	0.0172086
682.723	0.0171987
682.801	0.0171204
682.879	0.0173263
682.957	0.0174949
683.035	0.0174997
683.113	0.0176175
683.192	0.0177555
683.270	0.0177186
683.348	0.0178365
683.426	0.0178635
683.504	0.0178993
683.582	0.0178497
683.660	0.0176467
683.738	0.0175317
683.817	0.0173941
683.895	0.0172491
683.973	0.0169640
684.051	0.0167265
684.129	0.0164405
684.207	0.0162161
684.285	0.0159563
684.363	0.0160017
684.442	0.0160166
684.520	0.0158866
684.598	0.0160999
684.676	0.0161082
684.754	0.0164305
684.832	0.0166930
684.910	0.0170000
684.988	0.0174165
685.067	0.0178643
685.145	0.0181586
685.223	0.0185532
685.301	0.0188496
685.379	0.0189516
685.457	0.0192259
685.535	0.0192147
685.613	0.0194259
685.692	0.0192795
685.770	0.0192106
685.848	0.0190797
685.926	0.0189068
686.004	0.0185479
686.082	0.0184931
686.160	0.0181383
686.238	0.0178176
686.317	0.0174254
686.395	0.0170199
686.473	0.0165693
686.551	0.0163429
686.629	0.0159829
686.707	0.0156486
686.785	0.0156591
686.863	0.0154275
686.942	0.0155403
687.020	0.0153635
687.098	0.0154459
687.176	0.0155862
687.254	0.0157093
687.332	0.0159161
687.410	0.0162058
687.488	0.0164309
687.567	0.0167297
687.645	0.0170885
687.723	0.0173693
687.801	0.0176711
687.879	0.0178989
687.957	0.0181586
688.035	0.0185159
688.113	0.0187435
688.192	0.0187532
688.270	0.0188680
688.348	0.0189273
688.426	0.0188345
688.504	0.0187601
688.582	0.0185219
688.660	0.0182876
688.738	0.0178181
688.817	0.0176030
688.895	0.0173542
688.973	0.0169700
689.051	0.0166499
689.129	0.0165172
689.207	0.0162749
689.285	0.0163122
689.363	0.0164297
689.442	0.0164145
689.520	0.0166383
689.598	0.0168648
689.676	0.0169670
689.754	0.0170927
689.832	0.0171638
689.910	0.0172202
689.988	0.0175090
690.067	0.0174811
690.145	0.0174110
690.223	0.0174621
690.301	0.0174417
690.379	0.0174204
690.457	0.0175287
690.535	0.0175217
690.613	0.0174966
690.692	0.0175750
690.770	0.0176769
690.848	0.0176817
690.926	0.0177697
691.004	0.0177041
691.082	0.0178519
691.160	0.0177770
691.238	0.0176749
691.317	0.0177665
691.395	0.0179434
691.473	0.0179849
691.551	0.0182668
691.629	0.0183665
691.707	0.0182893
691.785	0.0184290
691.863	0.0184005
691.942	0.0183548
692.020	0.0183530
692.098	0.0181106
692.176	0.0178346
692.254	0.0175269
692.332	0.0171297
692.410	0.0166432
692.488	0.0162231
692.567	0.0158502
692.645	0.0154307
692.723	0.0151782
692.801	0.0147919
692.879	0.0145911
692.957	0.0143774
693.035	0.0143440
693.113	0.0143482
693.192	0.0144105
693.270	0.0145347
693.348	0.0150342
693.426	0.0151324
693.504	0.0154649
693.582	0.0160809
693.660	0.0165551
693.738	0.0172200
693.817	0.0177070
693.895	0.0181731
693.973	0.0187637
694.051	0.0194035
694.129	0.0198021
694.207	0.0200060
694.285	0.0203278
694.363	0.0204836
694.442	0.0206561
694.520	0.0208276
694.598	0.0207999
694.676	0.0208031
694.754	0.0210342
694.832	0.0210944
694.910	0.0210860
694.988	0.0212012
695.067	0.0213073
695.145	0.0212014
695.223	0.0212218
695.301	0.0210558
695.379	0.0207693
695.457	0.0203210
695.535	0.0197002
695.613	0.0188879
695.692	0.0179889
695.770	0.0168204
695.848	0.0158290
695.926	0.0147657
696.004	0.0137651
696.082	0.0128990
696.160	0.0121093
696.238	0.0116866
696.317	0.0113065
696.395	0.0111964
696.473	0.0110770
696.551	0.0113139
696.629	0.0115605
696.707	0.0119859
696.785	0.0122900
696.863	0.0127596
696.942	0.0131989
697.020	0.0136996
697.098	0.0139892
697.176	0.0142660
697.254	0.0145947
697.332	0.0149759
697.410	0.0151954
697.488	0.0152882
697.567	0.0157367
697.645	0.0161436
697.723	0.0162926
697.801	0.0166909
697.879	0.0170963
697.957	0.0177406
698.035	0.0181523
698.113	0.0187209
698.192	0.0193164
698.270	0.0198795
698.348	0.0203954
698.426	0.0211111
698.504	0.0216017
698.582	0.0221289
698.660	0.0226028
698.738	0.0230036
698.817	0.0234975
698.895	0.0237517
698.973	0.0241426
699.051	0.0243797
699.129	0.0245766
699.207	0.0246463
699.285	0.0246747
699.363	0.0247404
699.442	0.0246681
699.520	0.0244264
699.598	0.0241192
699.676	0.0238085
699.754	0.0231785
699.832	0.0225457
699.910	0.0219502
699.988	0.0209785
700.067	0.0200759
700.145	0.0189875
700.223	0.0180056
700.301	0.0167043
700.379	0.0153618
700.457	0.0141183
700.535	0.0126245
700.613	0.0113783
700.692	0.00995331
700.770	0.00860268
700.848	0.00737732
700.926	0.00620155
701.004	0.00517822
701.082	0.00425980
701.160	0.00371056
701.238	0.00319771
701.317	0.00331017
701.395	0.00366089
701.473	0.00407913
701.551	0.00486305
701.629	0.00603676
701.707	0.00748718
701.785	0.00906403
701.863	0.0107737
701.942	0.0126851
702.020	0.0144718
702.098	0.0165223
702.176	0.0184860
702.254	0.0202348
702.332	0.0217308
702.410	0.0231926
702.488	0.0245445
702.567	0.0253233
702.645	0.0261456
702.723	0.0265421
702.801	0.0268819
702.879	0.0267911
702.957	0.0265848
703.035	0.0261418
703.113	0.0255911
703.192	0.0247125
703.270	0.0238419
703.348	0.0230464
703.426	0.0224771
703.504	0.0217438
703.582	0.0210899
703.660	0.0207407
703.738	0.0206128
703.817	0.0205431
703.895	0.0206150
703.973	0.0208540
704.051	0.0210567
704.129	0.0212947
704.207	0.0218623
704.285	0.0218900
704.363	0.0222238
704.442	0.0225388
704.520	0.0225021
704.598	0.0226064
704.676	0.0226726
704.754	0.0225722
704.832	0.0224393
704.910	0.0221587
704.988	0.0217600
705.067	0.0212239
705.145	0.0206512
705.223	0.0199669
705.301	0.0191269
705.379	0.0178679
705.457	0.0168326
705.535	0.0154184
705.613	0.0139266
705.692	0.0122517
705.770	0.0104753
705.848	0.00871498
705.926	0.00701935
706.004	0.00539131
706.082	0.00365479
706.160	0.00224411
706.238	0.000887756
706.317	-0.0000108337
706.395	-0.000483704
706.473	-0.000778580
706.551	-0.000696030
706.629	-0.000275116
706.707	0.000693665
706.785	0.00201645
706.863	0.00357422
706.942	0.00562866
707.020	0.00782570
707.098	0.0103387
707.176	0.0130037
707.254	0.0154615
707.332	0.0182864
707.410	0.0209131
707.488	0.0233801
707.567	0.0256418
707.645	0.0276128
707.723	0.0292758
707.801	0.0307624
707.879	0.0318778
707.957	0.0324915
708.035	0.0329379
708.113	0.0328442
708.192	0.0324326
708.270	0.0319640
708.348	0.0310439
708.426	0.0297620
708.504	0.0284576
708.582	0.0270072
708.660	0.0255312
708.738	0.0240791
708.817	0.0227585
708.895	0.0213503
708.973	0.0202808
709.051	0.0194756
709.129	0.0189283
709.207	0.0186588
709.285	0.0183616
709.363	0.0184864
709.442	0.0185078
709.520	0.0187480
709.598	0.0190881
709.676	0.0195953
709.754	0.0200873
709.832	0.0202705
709.910	0.0206034
709.988	0.0209733
710.067	0.0211860
710.145	0.0212642
710.223	0.0209910
710.301	0.0209280
710.379	0.0204794
710.457	0.0198606
710.535	0.0190170
710.613	0.0179400
710.692	0.0167257
710.770	0.0151964
710.848	0.0134962
710.926	0.0119893
711.004	0.0100076
711.082	0.00808250
711.160	0.00651642
711.238	0.00481277
711.317	0.00330055
711.395	0.00199234
711.473	0.000839081
711.551	0.000154343
711.629	-0.000309067
711.707	-0.000559921
711.785	-0.000404739
711.863	0.000201721
711.942	0.00100006
712.020	0.00201508
712.098	0.00343681
712.176	0.00516296
712.254	0.00712524
712.332	0.00936012
712.410	0.0118370
712.488	0.0142934
712.567	0.0168774
712.645	0.0194852
712.723	0.0218185
712.801	0.0240823
712.879	0.0261886
712.957	0.0281451
713.035	0.0298074
713.113	0.0310528
713.192	0.0319495
713.270	0.0325355
713.348	0.0326219
713.426	0.0324669
713.504	0.0316936
713.582	0.0308620
713.660	0.0301268
713.738	0.0289135
713.817	0.0276888
713.895	0.0265367
713.973	0.0252308
714.051	0.0240430
714.129	0.0231431
714.207	0.0224471
714.285	0.0217591
714.363	0.0211960
714.442	0.0209101
714.520	0.0205843
714.598	0.0206425
714.676	0.0205112
714.754	0.0203802
714.832	0.0204883
714.910	0.0204787
714.988	0.0202507
715.067	0.0203091
715.145	0.0202360
715.223	0.0198341
715.301	0.0196748
715.379	0.0193284
715.457	0.0190348
715.535	0.0186916
715.613	0.0181658
715.692	0.0176367
715.770	0.0170140
715.848	0.0162453
715.926	0.0153149
716.004	0.0140273
716.082	0.0128948
716.160	0.0116737
716.238	0.0102835
716.317	0.00910522
716.395	0.00807632
716.473	0.00697266
716.551	0.00608444
716.629	0.00515923
716.707	0.00460464
716.785	0.00421112
716.863	0.00416756
716.942	0.00415535
717.020	0.00433670
717.098	0.00480560
717.176	0.00547905
717.254	0.00626396
717.332	0.00719582
717.410	0.00823318
717.488	0.00936966
717.567	0.0106237
717.645	0.0120340
717.723	0.0134128
717.801	0.0148234
717.879	0.0164454
717.957	0.0178294
718.035	0.0193988
718.113	0.0208133
718.192	0.0220531
718.270	0.0232983
718.348	0.0245145
718.426	0.0252260
718.504	0.0258186
718.582	0.0263445
718.660	0.0264778
718.738	0.0264056
718.817	0.0261954
718.895	0.0258691
718.973	0.0254819
719.051	0.0249621
719.129	0.0245019
719.207	0.0238384
719.285	0.0233051
719.363	0.0227155
719.442	0.0223000
719.520	0.0220224
719.598	0.0217043
719.676	0.0215651
719.754	0.0216268
719.832	0.0217183
719.910	0.0217595
719.988	0.0220773
720.067	0.0223114
720.145	0.0223095
720.223	0.0222174
720.301	0.0222693
720.379	0.0221588
720.457	0.0219032
720.535	0.0214940
720.613	0.0211352
720.692	0.0204608
720.770	0.0195438
720.848	0.0188992
720.926	0.0178292
721.004	0.0169377
721.082	0.0161529
721.160	0.0152018
721.238	0.0144310
721.317	0.0136520
721.395	0.0129503
721.473	0.0122243
721.551	0.0118506
721.629	0.0113705
721.707	0.0110759
721.785	0.0107912
721.863	0.0108263
721.942	0.0105060
722.020	0.0105372
722.098	0.0105108
722.176	0.0105962
722.254	0.0107517
722.332	0.0110814
722.410	0.0111761
722.488	0.0111984
722.567	0.0114619
722.645	0.0117483
722.723	0.0121810
722.801	0.0127366
722.879	0.0129794
722.957	0.0134843
723.035	0.0140880
723.113	0.0146268
723.192	0.0151838
723.270	0.0158427
723.348	0.0163763
723.426	0.0168036
723.504	0.0174770
723.582	0.0178956
723.660	0.0182157
723.738	0.0186919
723.817	0.0188997
723.895	0.0191046
723.973	0.0192863
724.051	0.0192435
724.129	0.0192461
724.207	0.0193720
724.285	0.0191396
724.363	0.0191013
724.442	0.0191263
724.520	0.0192664
724.598	0.0192558
724.676	0.0194038
724.754	0.0196458
724.832	0.0201595
724.910	0.0203142
724.988	0.0206541
725.067	0.0212324
725.145	0.0216177
725.223	0.0218946
725.301	0.0221735
725.379	0.0223859
725.457	0.0226186
725.535	0.0225243
725.613	0.0223036
725.692	0.0221075
725.770	0.0216569
725.848	0.0212029
725.926	0.0207832
726.004	0.0202908
726.082	0.0196349
726.160	0.0192040
726.238	0.0184456
726.317	0.0179501
726.395	0.0177018
726.473	0.0173469
726.551	0.0167770
726.629	0.0164778
726.707	0.0165279
726.785	0.0163110
726.863	0.0161671
726.942	0.0160637
727.020	0.0158694
727.098	0.0156979
727.176	0.0156554
727.254	0.0154323
727.332	0.0154900
727.410	0.0154028
727.488	0.0151699
727.567	0.0151402
727.645	0.0149352
727.723	0.0150018
727.801	0.0149989
727.879	0.0149153
727.957	0.0149458
728.035	0.0150032
728.113	0.0151132
728.192	0.0153009
728.270	0.0154562
728.348	0.0155580
728.426	0.0156783
728.504	0.0157587
728.582	0.0159492
728.660	0.0158949
728.738	0.0161323
728.817	0.0161589
728.895	0.0160725
728.973	0.0161163
729.051	0.0162505
729.129	0.0162077
729.207	0.0164244
729.285	0.0163448
729.363	0.0162486
729.442	0.0164175
729.520	0.0163831
729.598	0.0163445
729.676	0.0163972
729.754	0.0164418
729.832	0.0163947
729.910	0.0165654
729.988	0.0166464
730.067	0.0168105
730.145	0.0171580
730.223	0.0172921
730.301	0.0174329
730.379	0.0179878
730.457	0.0180513
730.535	0.0182664
730.613	0.0184908
730.692	0.0185760
730.770	0.0188512
730.848	0.0188365
730.926	0.0188792
731.004	0.0187315
731.082	0.0184517
731.160	0.0184414
731.238	0.0182542
731.317	0.0181591
731.395	0.0180192
731.473	0.0179402
731.551	0.0177995
731.629	0.0177871
731.707	0.0179891
731.785	0.0182063
731.863	0.0182627
731.942	0.0184318
732.020	0.0186214
732.098	0.0188174
732.176	0.0189473
732.254	0.0190698
732.332	0.0190184
732.410	0.0191100
732.488	0.0190540
732.567	0.0188026
732.645	0.0185666
732.723	0.0184024
732.801	0.0184201
732.879	0.0182589
732.957	0.0181572
733.035	0.0181360
733.113	0.0180106
733.192	0.0178748
733.270	0.0178168
733.348	0.0178837
733.426	0.0178606
733.504	0.0178185
733.582	0.0178723
733.660	0.0180138
733.738	0.0178899
733.817	0.0177428
733.895	0.0175800
733.973	0.0175014
734.051	0.0172698
734.129	0.0171069
734.207	0.0169181
734.285	0.0165712
734.363	0.0163885
734.442	0.0163085
734.520	0.0159069
734.598	0.0157896
734.676	0.0156916
734.754	0.0156168
734.832	0.0153879
734.910	0.0155418
734.988	0.0157185
735.067	0.0157584
735.145	0.0157936
735.223	0.0160627
735.301	0.0163072
735.379	0.0164834
735.457	0.0167035
735.535	0.0169956
735.613	0.0171357
735.692	0.0172736
735.770	0.0174961
735.848	0.0174313
735.926	0.0174355
736.004	0.0174361
736.082	0.0172713
736.160	0.0171433
736.238	0.0170873
736.317	0.0168378
736.395	0.0165364
736.473	0.0164330
736.551	0.0161942
736.629	0.0158845
736.707	0.0161049
736.785	0.0161227
736.863	0.0160802
736.942	0.0162972
737.020	0.0162855
737.098	0.0165103
737.176	0.0167889
737.254	0.0169917
737.332	0.0172171
737.410	0.0175430
737.488	0.0176759
737.567	0.0176727
737.645	0.0178180
737.723	0.0180081
737.801	0.0180519
737.879	0.0181567
737.957	0.0180988
738.035	0.0180814
738.113	0.0180475
738.192	0.0179617
738.270	0.0180434
738.348	0.0181212
738.426	0.0182684
738.504	0.0182534
738.582	0.0186096
738.660	0.0186998
738.738	0.0187717
738.817	0.0188118
738.895	0.0189321
738.973	0.0188631
739.051	0.0189797
739.129	0.0189363
739.207	0.0187585
739.285	0.0183491
739.363	0.0182612
739.442	0.0180910
739.520	0.0177834
739.598	0.0176475
739.676	0.0174303
739.754	0.0172138
739.832	0.0171471
739.910	0.0170867
739.988	0.0170032
740.067	0.0171929
740.145	0.0172387
740.223	0.0173306
740.301	0.0176240
740.379	0.0177478
740.457	0.0178602
740.535	0.0178934
740.613	0.0178740
740.692	0.0179565
740.770	0.0179866
740.848	0.0179900
740.926	0.0178643
741.004	0.0178527
741.082	0.0175984
741.160	0.0174272
741.238	0.0174836
741.317	0.0171722
741.395	0.0169433
741.473	0.0168706
741.551	0.0167294
741.629	0.0166512
741.707	0.0164800
741.785	0.0164743
741.863	0.0162934
741.942	0.0162460
742.020	0.0163307
742.098	0.0162746
742.176	0.0161419
742.254	0.0160894
742.332	0.0162747
742.410	0.0162598
742.488	0.0163682
742.567	0.0164792
742.645	0.0164801
742.723	0.0166508
742.801	0.0167522
742.879	0.0167336
742.957	0.0168084
743.035	0.0170039
743.113	0.0168339
743.192	0.0168980
743.270	0.0169837
743.348	0.0169461
743.426	0.0169677
743.504	0.0168966
743.582	0.0168600
743.660	0.0168375
743.738	0.0169295
743.817	0.0169891
743.895	0.0169511
743.973	0.0170586
744.051	0.0170399
744.129	0.0170937
744.207	0.0171412
744.285	0.0171715
744.363	0.0172522
744.442	0.0172469
744.520	0.0175026
744.598	0.0176188
744.676	0.0175310
744.754	0.0175541
744.832	0.0174524
744.910	0.0173965
744.988	0.0175298
745.067	0.0173956
745.145	0.0174627
745.223	0.0174348
745.301	0.0173638
745.379	0.0174040
745.457	0.0174212
745.535	0.0175821
745.613	0.0175323
745.692	0.0178476
745.770	0.0177232
745.848	0.0179635
745.926	0.0180141
746.004	0.0180614
746.082	0.0182604
746.160	0.0183178
746.238	0.0183865
746.317	0.0185126
746.395	0.0186057
746.473	0.0186430
746.551	0.0186803
746.629	0.0186626
746.707	0.0186189
746.785	0.0186166
746.863	0.0185236
746.942	0.0183475
747.020	0.0180403
747.098	0.0179035
747.176	0.0176384
747.254	0.0174094
747.332	0.0170998
747.410	0.0168143
747.488	0.0166102
747.567	0.0164652
747.645	0.0161842
747.723	0.0160458
747.801	0.0159772
747.879	0.0161167
747.957	0.0161221
748.035	0.0161043
748.113	0.0165154
748.192	0.0167665
748.270	0.0169772
748.348	0.0172242
748.426	0.0174879
748.504	0.0178946
748.582	0.0179733
748.660	0.0180159
748.738	0.0182839
748.817	0.0181302
748.895	0.0183321
748.973	0.0180308
749.051	0.0179628
749.129	0.0179276
749.207	0.0176413
749.285	0.0173365
749.363	0.0171230
749.442	0.0169484
749.520	0.0168093
749.598	0.0164819
749.676	0.0164016
749.754	0.0161965
749.832	0.0159737
749.910	0.0157905
749.988	0.0158752
750.067	0.0157661
750.145	0.0157105
750.223	0.0155773
750.301	0.0156797
750.379	0.0157062
750.457	0.0158050
750.535	0.0159520
750.613	0.0159769
750.692	0.0163922
750.770	0.0165514
750.848	0.0167745
750.926	0.0168597
751.004	0.0172479
751.082	0.0176865
751.160	0.0180665
751.238	0.0183031
751.317	0.0185892
751.395	0.0187965
751.473	0.0190667
751.551	0.0192767
751.629	0.0191941
751.707	0.0191061
751.785	0.0188936
751.863	0.0184432
751.942	0.0183553
752.020	0.0180923
752.098	0.0177097
752.176	0.0172543
752.254	0.0168025
752.332	0.0165876
752.410	0.0163657
752.488	0.0160804
752.567	0.0157770
752.645	0.0159206
752.723	0.0158227
752.801	0.0159274
752.879	0.0160222
752.957	0.0160447
753.035	0.0162715
753.113	0.0166859
753.192	0.0169216
753.270	0.0171877
753.348	0.0175838
753.426	0.0178703
753.504	0.0181249
753.582	0.0184801
753.660	0.0187851
753.738	0.0189202
753.817	0.0190805
753.895	0.0192956
753.973	0.0192862
754.051	0.0195005
754.129	0.0191920
754.207	0.0191722
754.285	0.0189748
754.363	0.0188206
754.442	0.0184803
754.520	0.0183665
754.598	0.0181812
754.676	0.0179845
754.754	0.0177190
754.832	0.0175148
754.910	0.0173273
754.988	0.0171327
755.067	0.0169968
755.145	0.0168230
755.223	0.0167250
755.301	0.0166224
755.379	0.0164267
755.457	0.0164523
755.535	0.0162645
755.613	0.0163715
755.692	0.0163677
755.770	0.0163431
755.848	0.0163657
755.926	0.0165008
756.004	0.0165949
756.082	0.0167980
756.160	0.0171814
756.238	0.0173785
756.317	0.0175734
756.395	0.0178303
756.473	0.0181503
756.551	0.0182116
756.629	0.0183497
756.707	0.0185066
756.785	0.0183680
756.863	0.0185314
756.942	0.0184559
757.020	0.0180508
757.098	0.0179208
757.176	0.0175764
757.254	0.0172925
757.332	0.0171521
757.410	0.0167256
757.488	0.0163726
757.567	0.0161289
757.645	0.0158622
757.723	0.0154211
757.801	0.0153156
757.879	0.0154310
757.957	0.0153191
758.035	0.0152703
758.113	0.0152803
758.192	0.0155240
758.270	0.0157767
758.348	0.0159412
758.426	0.0161879
758.504	0.0164281
758.582	0.0166545
758.660	0.0171287
758.738	0.0173233
758.817	0.0175244
758.895	0.0177455
758.973	0.0180902
759.051	0.0181187
759.129	0.0183035
759.207	0.0182882
759.285	0.0183833
759.363	0.0184133
759.442	0.0182768
759.520	0.0183527
759.598	0.0183276
759.676	0.0181133
759.754	0.0183711
759.832	0.0182130
759.910	0.0179784
759.988	0.0179433
760.067	0.0178191
760.145	0.0177304
760.223	0.0176673
760.301	0.0176833
760.379	0.0176386
760.457	0.0175358
760.535	0.0174422
760.613	0.0175580
760.692	0.0174045
760.770	0.0174429
760.848	0.0175462
760.926	0.0174569
761.004	0.0176213
761.082	0.0176904
761.160	0.0175043
761.238	0.0175925
761.317	0.0178178
761.395	0.0178905
761.473	0.0177927
761.551	0.0180280
761.629	0.0180683
761.707	0.0181576
761.785	0.0182522
761.863	0.0184057
761.942	0.0184970
762.020	0.0182624
762.098	0.0182561
762.176	0.0180408
762.254	0.0179938
762.332	0.0177197
762.410	0.0174960
762.488	0.0172086
762.567	0.0171038
762.645	0.0168195
762.723	0.0166553
762.801	0.0163377
762.879	0.0163056
762.957	0.0161115
763.035	0.0161199
763.113	0.0161441
763.192	0.0162077
763.270	0.0162708
763.348	0.0163146
763.426	0.0164243
763.504	0.0166260
763.582	0.0167719
763.660	0.0168746
763.738	0.0171038
763.817	0.0172564
763.895	0.0173711
763.973	0.0174551
764.051	0.0176325
764.129	0.0176112
764.207	0.0178085
764.285	0.0176044
764.363	0.0176607
764.442	0.0176434
764.520	0.0175532
764.598	0.0175819
764.676	0.0174737
764.754	0.0175046
764.832	0.0175021
764.910	0.0173282
764.988	0.0171059
765.067	0.0170125
765.145	0.0171122
765.223	0.0169378
765.301	0.0170798
765.379	0.0170700
765.457	0.0169828
765.535	0.0168620
765.613	0.0168879
765.692	0.0170014
765.770	0.0169013
765.848	0.0167085
765.926	0.0167353
766.004	0.0168913
766.082	0.0166738
766.160	0.0166756
766.238	0.0166818
766.317	0.0166676
766.395	0.0167655
766.473	0.0167987
766.551	0.0167949
766.629	0.0169566
766.707	0.0171562
766.785	0.0172439
766.863	0.0171217
766.942	0.0173915
767.020	0.0175797
767.098	0.0176419
767.176	0.0176772
767.254	0.0179800
767.332	0.0179924
767.410	0.0180460
767.488	0.0182018
767.567	0.0183782
767.645	0.0184542
767.723	0.0184497
767.801	0.0182143
767.879	0.0183996
767.957	0.0183986
768.035	0.0182091
768.113	0.0182272
768.192	0.0181747
768.270	0.0180642
768.348	0.0178974
768.426	0.0178126
768.504	0.0176933
768.582	0.0174736
768.660	0.0175420
768.738	0.0173186
768.817	0.0172385
768.895	0.0173633
768.973	0.0173891
769.051	0.0172370
769.129	0.0172870
769.207	0.0172401
769.285	0.0172935
769.363	0.0174657
769.442	0.0174523
769.520	0.0174078
769.598	0.0175469
769.676	0.0177934
769.754	0.0176182
769.832	0.0177265
769.910	0.0178412
769.988	0.0177729
770.067	0.0179431
770.145	0.0180070
770.223	0.0178291
770.301	0.0176662
770.379	0.0176850
770.457	0.0177582
770.535	0.0175824
770.613	0.0174357
770.692	0.0172729
770.770	0.0171219
770.848	0.0169656
770.926	0.0168819
771.004	0.0167840
771.082	0.0165115
771.160	0.0163164
771.238	0.0162445
771.317	0.0161729
771.395	0.0161118
771.473	0.0161705
771.551	0.0159290
771.629	0.0158684
771.707	0.0162059
771.785	0.0161303
771.863	0.0162216
771.942	0.0162471
772.020	0.0164573
772.098	0.0167822
772.176	0.0167699
772.254	0.0170084
772.332	0.0171759
772.410	0.0174162
772.488	0.0174781
772.567	0.0176151
772.645	0.0175391
772.723	0.0176411
772.801	0.0177681
772.879	0.0178095
772.957	0.0177737
773.035	0.0177430
773.113	0.0178985
773.192	0.0177791
773.270	0.0177344
773.348	0.0177465
773.426	0.0177444
773.504	0.0176550
773.582	0.0174613
773.660	0.0174858
773.738	0.0175762
773.817	0.0173312
773.895	0.0171403
773.973	0.0171101
774.051	0.0170792
774.129	0.0170519
774.207	0.0169100
774.285	0.0169911
774.363	0.0168129
774.442	0.0168883
774.520	0.0168850
774.598	0.0169368
774.676	0.0170555
774.754	0.0171441
774.832	0.0171009
774.910	0.0173335
774.988	0.0174593
775.067	0.0175462
775.145	0.0177862
775.223	0.0177859
775.301	0.0179684
775.379	0.0180970
775.457	0.0180898
775.535	0.0180205
775.613	0.0180973
775.692	0.0181636
775.770	0.0181303
775.848	0.0180748
775.926	0.0180573
776.004	0.0180451
776.082	0.0178314
776.160	0.0176753
776.238	0.0176366
776.317	0.0174882
776.395	0.0175129
776.473	0.0176276
776.551	0.0173458
776.629	0.0172353
776.707	0.0171379
776.785	0.0170787
776.863	0.0170325
776.942	0.0171471
777.020	0.0170460
777.098	0.0170195
777.176	0.0170222
777.254	0.0170419
777.332	0.0169913
777.410	0.0171881
777.488	0.0173296
777.567	0.0171360
777.645	0.0171746
777.723	0.0173712
777.801	0.0174088
777.879	0.0174094
777.957	0.0176321
778.035	0.0176744
778.113	0.0176517
778.192	0.0176288
778.270	0.0177868
778.348	0.0178587
778.426	0.0178705
778.504	0.0178833
778.582	0.0178944
778.660	0.0178769
778.738	0.0177893
778.817	0.0178485
778.895	0.0176931
778.973	0.0175544
779.051	0.0176630
779.129	0.0172535
779.207	0.0171167
779.285	0.0169366
779.363	0.0168461
779.442	0.0166448
779.520	0.0165508
779.598	0.0163902
779.676	0.0162984
779.754	0.0163472
779.832	0.0163148
779.910	0.0162175
779.988	0.0161977
780.067	0.0161524
780.145	0.0163874
780.223	0.0162511
780.301	0.0162802
780.379	0.0163606
780.457	0.0166616
780.535	0.0166514
780.613	0.0167648
780.692	0.0169302
780.770	0.0170159
780.848	0.0170876
780.926	0.0171304
781.004	0.0171618
781.082	0.0173125
781.160	0.0174065
781.238	0.0174787
781.317	0.0175391
781.395	0.0176311
781.473	0.0175396
781.551	0.0176136
781.629	0.0176809
781.707	0.0176701
781.785	0.0177328
781.863	0.0178116
781.942	0.0179215
782.020	0.0180540
782.098	0.0179868
782.176	0.0178884
782.254	0.0179979
782.332	0.0179563
782.410	0.0180428
782.488	0.0180827
782.567	0.0179280
782.645	0.0180418
782.723	0.0179261
782.801	0.0178261
782.879	0.0177312
782.957	0.0174978
783.035	0.0175680
783.113	0.0175408
783.192	0.0176169
783.270	0.0174911
783.348	0.0175407
783.426	0.0174952
783.504	0.0177019
783.582	0.0177482
783.660	0.0178493
783.738	0.0180186
783.817	0.0178880
783.895	0.0179140
783.973	0.0179791
784.051	0.0180541
784.129	0.0179225
784.207	0.0179967
784.285	0.0178706
784.363	0.0176286
784.442	0.0177193
784.520	0.0177660
784.598	0.0175259
784.676	0.0174094
784.754	0.0173214
784.832	0.0173284
784.910	0.0172149
784.988	0.0170455
785.067	0.0169626
785.145	0.0171513
785.223	0.0169271
785.301	0.0170573
785.379	0.0171020
785.457	0.0168840
785.535	0.0168321
785.613	0.0168374
785.692	0.0169002
785.770	0.0168920
785.848	0.0169270
785.926	0.0169141
786.004	0.0167895
786.082	0.0167922
786.160	0.0168064
786.238	0.0167122
786.317	0.0166380
786.395	0.0167074
786.473	0.0166316
786.551	0.0166732
786.629	0.0167047
786.707	0.0166798
786.785	0.0169492
786.863	0.0170193
786.942	0.0171865
787.020	0.0173283
787.098	0.0174393
787.176	0.0176078
787.254	0.0177766
787.332	0.0178465
787.410	0.0178417
787.488	0.0179700
787.567	0.0180485
787.645	0.0178831
787.723	0.0179291
787.801	0.0178542
787.879	0.0178407
787.957	0.0178202
788.035	0.0176139
788.113	0.0174088
788.192	0.0173666
788.270	0.0172400
788.348	0.0172250
788.426	0.0169926
788.504	0.0168859
788.582	0.0169283
788.660	0.0169168
788.738	0.0169449
788.817	0.0167344
788.895	0.0168272
788.973	0.0169254
789.051	0.0169147
789.129	0.0169630
789.207	0.0169778
789.285	0.0169913
789.363	0.0172186
789.442	0.0171944
789.520	0.0172311
789.598	0.0173009
789.676	0.0171089
789.754	0.0172857
789.832	0.0172039
789.910	0.0172798
789.988	0.0174759
790.067	0.0173960
790.145	0.0174250
790.223	0.0174586
790.301	0.0176154
790.379	0.0175819
790.457	0.0177113
790.535	0.0178003
790.613	0.0177615
790.692	0.0179375
790.770	0.0179272
790.848	0.0180386
790.926	0.0180347
791.004	0.0181371
791.082	0.0184116
791.160	0.0181639
791.238	0.0181354
791.317	0.0181567
791.395	0.0181736
791.473	0.0181823
791.551	0.0180873
791.629	0.0178745
791.707	0.0180689
791.785	0.0178848
791.863	0.0177353
791.942	0.0176044
792.020	0.0175555
792.098	0.0175085
792.176	0.0175283
792.254	0.0174327
792.332	0.0174263
792.410	0.0173008
792.488	0.0173409
792.567	0.0173368
792.645	0.0173576
792.723	0.0173465
792.801	0.0172372
792.879	0.0170244
792.957	0.0171269
793.035	0.0171101
793.113	0.0169050
793.192	0.0167422
793.270	0.0167724
793.348	0.0166976
793.426	0.0166234
793.504	0.0165851
793.582	0.0164815
793.660	0.0165225
793.738	0.0164445
793.817	0.0163760
793.895	0.0163772
793.973	0.0164587
794.051	0.0165131
794.129	0.0164130
794.207	0.0164694
794.285	0.0164381
794.363	0.0167206
794.442	0.0168585
794.520	0.0168944
794.598	0.0171672
794.676	0.0172572
794.754	0.0171609
794.832	0.0172614
794.910	0.0175986
794.988	0.0176659
795.067	0.0177648
795.145	0.0178446
795.223	0.0181052
795.301	0.0180941
795.379	0.0181873
795.457	0.0183521
795.535	0.0183199
795.613	0.0183591
795.692	0.0184659
795.770	0.0183952
795.848	0.0184275
795.926	0.0184410
796.004	0.0184416
796.082	0.0184244
796.160	0.0182013
796.238	0.0181930
796.317	0.0180733
796.395	0.0178862
796.473	0.0177112
796.551	0.0176322
796.629	0.0174536
796.707	0.0171790
796.785	0.0169460
796.863	0.0168890
796.942	0.0166855
797.020	0.0164840
797.098	0.0162859
797.176	0.0160880
797.254	0.0159101
797.332	0.0157806
797.410	0.0156635
797.488	0.0157574
797.567	0.0156397
797.645	0.0158987
797.723	0.0157124
797.801	0.0159269
797.879	0.0159002
797.957	0.0161000
798.035	0.0162790
798.113	0.0165613
798.192	0.0166134
798.270	0.0170483
798.348	0.0171731
798.426	0.0173077
798.504	0.0175181
798.582	0.0177326
798.660	0.0178809
798.738	0.0179613
798.817	0.0181679
798.895	0.0181829
798.973	0.0181687
799.051	0.0183092
799.129	0.0183401
799.207	0.0184340
799.285	0.0185365
799.363	0.0183681
799.442	0.0184042
799.520	0.0185177
799.598	0.0183610
799.676	0.0184217
799.754	0.0183090
799.832	0.0184092
799.910	0.0184987
799.988	0.0184019
800.067	0.0183545
800.145	0.0182262
800.223	0.0181978
800.301	0.0181133
800.379	0.0182325
800.457	0.0182198
800.535	0.0181292
800.613	0.0180041
800.692	0.0180554
800.770	0.0179514
800.848	0.0179511
800.926	0.0179518
801.004	0.0179395
801.082	0.0178519
801.160	0.0178427
801.238	0.0178171
801.317	0.0178699
801.395	0.0178320
801.473	0.0176736
801.551	0.0174139
801.629	0.0173376
801.707	0.0172849
801.785	0.0172134
801.863	0.0168247
801.942	0.0165348
802.020	0.0163258
802.098	0.0160621
802.176	0.0159777
802.254	0.0159234
802.332	0.0155893
802.410	0.0153606
802.488	0.0153116
802.567	0.0150529
802.645	0.0149355
802.723	0.0149094
802.801	0.0149261
802.879	0.0149158
802.957	0.0151979
803.035	0.0150578
803.113	0.0153134
803.192	0.0156402
803.270	0.0157776
803.348	0.0158788
803.426	0.0162612
803.504	0.0164478
803.582	0.0168605
803.660	0.0169268
803.738	0.0173301
803.817	0.0173833
803.895	0.0177300
803.973	0.0179029
804.051	0.0180042
804.129	0.0181848
804.207	0.0183723
804.285	0.0185512
804.363	0.0185168
804.442	0.0185985
804.520	0.0187874
804.598	0.0187431
804.676	0.0188663
804.754	0.0188931
804.832	0.0190190
804.910	0.0190162
804.988	0.0191692
805.067	0.0190549
805.145	0.0189598
805.223	0.0190691
805.301	0.0190607
805.379	0.0190897
805.457	0.0191491
805.535	0.0188654
805.613	0.0188809
805.692	0.0189098
805.770	0.0188588
805.848	0.0187613
805.926	0.0186466
806.004	0.0185294
806.082	0.0184499
806.160	0.0182918
806.238	0.0181739
806.317	0.0181938
806.395	0.0180547
806.473	0.0179034
806.551	0.0177657
806.629	0.0177514
806.707	0.0177151
806.785	0.0175401
806.863	0.0174158
806.942	0.0171166
807.020	0.0171345
807.098	0.0168694
807.176	0.0168531
807.254	0.0167141
807.332	0.0163636
807.410	0.0163395
807.488	0.0160530
807.567	0.0160303
807.645	0.0159793
807.723	0.0158851
807.801	0.0156363
807.879	0.0153239
807.957	0.0152650
808.035	0.0153326
808.113	0.0152242
808.192	0.0152099
808.270	0.0152258
808.348	0.0153709
808.426	0.0155092
808.504	0.0156671
808.582	0.0156998
808.660	0.0157742
808.738	0.0161002
808.817	0.0162154
808.895	0.0163655
808.973	0.0167567
809.051	0.0169527
809.129	0.0172462
809.207	0.0173273
809.285	0.0176585
809.363	0.0177349
809.442	0.0180439
809.520	0.0182056
809.598	0.0183235
809.676	0.0183431
809.754	0.0183852
809.832	0.0185991
809.910	0.0185750
809.988	0.0187341
810.067	0.0188602
810.145	0.0189745
810.223	0.0187853
810.301	0.0189623
810.379	0.0189922
810.457	0.0190543
810.535	0.0191436
810.613	0.0190378
810.692	0.0189836
810.770	0.0189090
810.848	0.0188086
810.926	0.0186507
811.004	0.0187929
811.082	0.0187135
811.160	0.0186554
811.238	0.0185446
811.317	0.0183810
811.395	0.0183039
811.473	0.0181734
811.551	0.0179733
811.629	0.0179377
811.707	0.0177859
811.785	0.0175680
811.863	0.0173901
811.942	0.0172073
812.020	0.0171384
812.098	0.0169978
812.176	0.0168083
812.254	0.0166422
812.332	0.0163742
812.410	0.0164257
812.488	0.0163867
812.567	0.0160556
812.645	0.0159654
812.723	0.0160336
812.801	0.0159569
812.879	0.0159522
812.957	0.0156576
813.035	0.0157758
813.113	0.0158807
813.192	0.0157677
813.270	0.0156821
813.348	0.0159647
813.426	0.0159972
813.504	0.0159320
813.582	0.0160337
813.660	0.0160996
813.738	0.0161241
813.817	0.0163121
813.895	0.0164210
813.973	0.0164435
814.051	0.0166203
814.129	0.0166626
814.207	0.0168297
814.285	0.0169482
814.363	0.0170483
814.442	0.0172453
814.520	0.0173803
814.598	0.0175986
814.676	0.0178294
814.754	0.0178113
814.832	0.0179548
814.910	0.0182810
814.988	0.0183062
815.067	0.0184238
815.145	0.0185396
815.223	0.0185994
815.301	0.0185639
815.379	0.0188230
815.457	0.0187848
815.535	0.0186864
815.613	0.0187555
815.692	0.0189101
815.770	0.0186836
815.848	0.0185193
815.926	0.0186700
816.004	0.0186062
816.082	0.0185275
816.160	0.0185652
816.238	0.0184921
816.317	0.0183994
816.395	0.0183009
816.473	0.0183088
816.551	0.0182417
816.629	0.0180894
816.707	0.0180743
816.785	0.0181393
816.863	0.0179902
816.942	0.0179536
817.020	0.0178061
817.098	0.0177393
817.176	0.0175643
817.254	0.0174435
817.332	0.0172580
817.410	0.0171103
817.488	0.0171247
817.567	0.0168522
817.645	0.0168117
817.723	0.0165329
817.801	0.0165517
817.879	0.0163229
817.957	0.0162627
818.035	0.0162276
818.113	0.0162759
818.192	0.0162556
818.270	0.0160775
818.348	0.0161560
818.426	0.0160629
818.504	0.0161986
818.582	0.0162041
818.660	0.0162091
818.738	0.0161994
818.817	0.0162952
818.895	0.0163007
818.973	0.0163887
819.051	0.0164633
819.129	0.0166188
819.207	0.0166653
819.285	0.0167014
819.363	0.0166900
819.442	0.0165806
819.520	0.0166663
819.598	0.0168871
819.676	0.0167832
819.754	0.0169361
819.832	0.0168536
819.910	0.0168021
819.988	0.0170854
820.067	0.0171741
820.145	0.0171446
820.223	0.0173480
820.301	0.0174309
820.379	0.0174329
820.457	0.0174454
820.535	0.0176724
820.613	0.0177404
820.692	0.0178177
820.770	0.0179925
820.848	0.0179745
820.926	0.0181313
821.004	0.0182643
821.082	0.0181709
821.160	0.0182451
821.238	0.0183415
821.317	0.0184763
821.395	0.0185729
821.473	0.0185455
821.551	0.0185748
821.629	0.0186037
821.707	0.0185701
821.785	0.0185485
821.863	0.0186315
821.942	0.0184319
822.020	0.0183018
822.098	0.0183382
822.176	0.0182885
822.254	0.0183105
822.332	0.0181764
822.410	0.0181079
822.488	0.0180179
822.567	0.0178522
822.645	0.0177110
822.723	0.0176412
822.801	0.0175300
822.879	0.0174721
822.957	0.0174084
823.035	0.0172116
823.113	0.0172024
823.192	0.0171441
823.270	0.0170376
823.348	0.0168572
823.426	0.0167632
823.504	0.0168887
823.582	0.0165425
823.660	0.0165619
823.738	0.0166613
823.817	0.0164252
823.895	0.0164095
823.973	0.0164159
824.051	0.0163676
824.129	0.0164521
824.207	0.0165908
824.285	0.0166026
824.363	0.0166656
824.442	0.0166628
824.520	0.0168604
824.598	0.0169041
824.676	0.0169961
824.754	0.0169277
824.832	0.0170381
824.910	0.0170962
824.988	0.0171257
825.067	0.0172147
825.145	0.0171354
825.223	0.0173409
825.301	0.0174070
825.379	0.0173643
825.457	0.0173118
825.535	0.0173297
825.613	0.0172539
825.692	0.0171183
825.770	0.0173141
825.848	0.0172794
825.926	0.0171912
826.004	0.0170905
826.082	0.0170047
826.160	0.0170921
826.238	0.0171167
826.317	0.0171259
826.395	0.0171751
826.473	0.0171239
826.551	0.0171602
826.629	0.0173987
826.707	0.0173380
826.785	0.0173714
826.863	0.0174265
826.942	0.0175385
827.020	0.0176396
827.098	0.0177048
827.176	0.0176175
827.254	0.0176485
827.332	0.0178911
827.410	0.0178090
827.488	0.0177737
827.567	0.0178622
827.645	0.0179057
827.723	0.0177668
827.801	0.0176689
827.879	0.0177090
827.957	0.0177194
828.035	0.0177975
828.113	0.0176571
828.192	0.0176251
828.270	0.0177110
828.348	0.0177361
828.426	0.0175459
828.504	0.0175052
828.582	0.0174844
828.660	0.0175967
828.738	0.0175203
828.817	0.0174146
828.895	0.0174999
828.973	0.0174213
829.051	0.0174841
829.129	0.0174667
829.207	0.0175452
829.285	0.0174603
829.363	0.0173483
829.442	0.0174961
829.520	0.0173849
829.598	0.0172925
829.676	0.0172636
829.754	0.0173690
829.832	0.0172383
829.910	0.0173482
829.988	0.0174445
830.067	0.0172267
830.145	0.0172999
830.223	0.0174009
830.301	0.0172974
830.379	0.0174582
830.457	0.0174265
830.535	0.0174115
830.613	0.0173360
830.692	0.0174557
830.770	0.0174884
830.848	0.0174957
830.926	0.0175607
831.004	0.0174715
831.082	0.0174751
831.160	0.0173165
831.238	0.0173595
831.317	0.0172214
831.395	0.0171316
831.473	0.0172127
831.551	0.0171910
831.629	0.0169460
831.707	0.0169218
831.785	0.0169314
831.863	0.0168950
831.942	0.0170003
832.020	0.0169586
832.098	0.0168331
832.176	0.0170073
832.254	0.0168887
832.332	0.0170692
832.410	0.0170213
832.488	0.0170518
832.567	0.0170635
832.645	0.0172234
832.723	0.0172332
832.801	0.0172833
832.879	0.0172662
832.957	0.0173853
833.035	0.0174063
833.113	0.0172486
833.192	0.0173495
833.270	0.0174261
833.348	0.0174799
833.426	0.0173995
833.504	0.0173493
833.582	0.0173965
833.660	0.0173848
833.738	0.0175275
833.817	0.0173658
833.895	0.0174323
833.973	0.0172841
834.051	0.0174624
834.129	0.0173508
834.207	0.0172687
834.285	0.0176100
834.363	0.0176015
834.442	0.0174052
834.520	0.0173830
834.598	0.0173585
834.676	0.0175652
834.754	0.0175966
834.832	0.0173923
834.910	0.0174193
834.988	0.0173839
835.067	0.0174018
835.145	0.0173876
835.223	0.0174162
835.301	0.0173595
835.379	0.0174016
835.457	0.0173626
835.535	0.0173657
835.613	0.0173420
835.692	0.0174593
835.770	0.0174650
835.848	0.0174549
835.926	0.0173612
836.004	0.0175104
836.082	0.0176353
836.160	0.0175162
836.238	0.0175571
836.317	0.0175924
836.395	0.0174744
836.473	0.0176173
836.551	0.0175027
836.629	0.0176212
836.707	0.0176424
836.785	0.0176896
836.863	0.0175804
836.942	0.0176360
837.020	0.0176231
837.098	0.0175776
837.176	0.0177246
837.254	0.0176954
837.332	0.0175962
837.410	0.0175332
837.488	0.0175370
837.567	0.0174593
837.645	0.0175095
837.723	0.0174058
837.801	0.0173989
837.879	0.0173480
837.957	0.0171000
838.035	0.0174178
838.113	0.0172669
838.192	0.0170882
838.270	0.0170758
838.348	0.0169592
838.426	0.0168922
838.504	0.0169566
838.582	0.0169154
838.660	0.0168613
838.738	0.0168610
838.817	0.0167615
838.895	0.0168497
838.973	0.0168583
839.051	0.0168816
839.129	0.0169164
839.207	0.0169703
839.285	0.0169005
839.363	0.0169649
839.442	0.0169523
839.520	0.0170252
839.598	0.0169857
839.676	0.0169694
839.754	0.0170621
839.832	0.0170652
839.910	0.0172466
839.988	0.0172260
840.067	0.0171648
840.145	0.0172980
840.223	0.0173725
840.301	0.0172343
840.379	0.0173523
840.457	0.0174705
840.535	0.0174045
840.613	0.0175781
840.692	0.0176882
840.770	0.0175828
840.848	0.0175532
840.926	0.0176098
841.004	0.0175950
841.082	0.0176511
841.160	0.0176578
841.238	0.0177310
841.317	0.0177296
841.395	0.0177348
841.473	0.0176911
841.551	0.0177379
841.629	0.0176488
841.707	0.0177316
841.785	0.0179421
841.863	0.0178226
841.942	0.0178471
842.020	0.0177785
842.098	0.0177512
842.176	0.0177865
842.254	0.0176654
842.332	0.0177164
842.410	0.0177386
842.488	0.0176532
842.567	0.0178342
842.645	0.0176608
842.723	0.0176807
842.801	0.0176472
842.879	0.0175629
842.957	0.0176002
843.035	0.0173952
843.113	0.0172826
843.192	0.0171044
843.270	0.0170963
843.348	0.0170498
843.426	0.0169703
843.504	0.0167365
843.582	0.0167152
843.660	0.0165602
843.738	0.0166158
843.817	0.0165105
843.895	0.0164214
843.973	0.0162484
844.051	0.0163486
844.129	0.0164912
844.207	0.0164436
844.285	0.0163567
844.363	0.0165004
844.442	0.0166003
844.520	0.0168860
844.598	0.0168277
844.676	0.0168586
844.754	0.0170679
844.832	0.0170967
844.910	0.0171911
844.988	0.0173491
845.067	0.0173033
845.145	0.0174045
845.223	0.0173992
845.301	0.0175705
845.379	0.0176621
845.457	0.0175542
845.535	0.0176238
845.613	0.0176503
845.692	0.0175782
845.770	0.0177213
845.848	0.0176218
845.926	0.0177541
846.004	0.0177277
846.082	0.0177293
846.160	0.0175921
846.238	0.0175156
846.317	0.0175129
846.395	0.0176218
846.473	0.0176428
846.551	0.0177075
846.629	0.0175861
846.707	0.0175421
846.785	0.0175990
846.863	0.0174546
846.942	0.0176250
847.020	0.0174571
847.098	0.0173833
847.176	0.0174379
847.254	0.0175085
847.332	0.0174148
847.410	0.0174360
847.488	0.0174789
847.567	0.0175054
847.645	0.0174513
847.723	0.0174129
847.801	0.0173876
847.879	0.0173357
847.957	0.0173513
848.035	0.0174345
848.113	0.0173457
848.192	0.0174879
848.270	0.0172799
848.348	0.0173199
848.426	0.0172835
848.504	0.0172821
848.582	0.0171779
848.660	0.0170969
848.738	0.0172427
848.817	0.0171432
848.895	0.0168873
848.973	0.0168195
849.051	0.0168803
849.129	0.0167390
849.207	0.0166499
849.285	0.0165569
849.363	0.0166778
849.442	0.0166680
849.520	0.0164847
849.598	0.0164808
849.676	0.0164875
849.754	0.0166389
849.832	0.0166840
849.910	0.0165860
849.988	0.0167590
850.067	0.0168346
850.145	0.0169167
850.223	0.0170686
850.301	0.0171328
850.379	0.0173013
850.457	0.0172754
850.535	0.0174075
850.613	0.0173055
850.692	0.0176077
850.770	0.0177590
850.848	0.0177972
850.926	0.0178486
851.004	0.0177816
851.082	0.0178604
851.160	0.0177995
851.238	0.0179040
851.317	0.0178401
851.395	0.0177173
851.473	0.0177712
851.551	0.0178721
851.629	0.0178009
851.707	0.0177179
851.785	0.0175922
851.863	0.0177355
851.942	0.0176003
852.020	0.0174789
852.098	0.0175990
852.176	0.0175442
852.254	0.0174823
852.332	0.0175655
852.410	0.0175256
852.488	0.0175203
852.567	0.0175967
852.645	0.0175729
852.723	0.0174967
852.801	0.0174912
852.879	0.0175412
852.957	0.0173051
853.035	0.0174293
853.113	0.0174834
853.192	0.0174314
853.270	0.0173940
853.348	0.0173095
853.426	0.0172512
853.504	0.0172856
853.582	0.0170556
853.660	0.0171819
853.738	0.0172060
853.817	0.0171917
853.895	0.0170983
853.973	0.0169566
854.051	0.0169070
854.129	0.0169547
854.207	0.0168272
854.285	0.0168469
854.363	0.0168815
854.442	0.0168408
854.520	0.0168276
854.598	0.0167908
854.676	0.0167873
854.754	0.0168696
854.832	0.0168193
854.910	0.0167929
854.988	0.0169154
855.067	0.0167161
855.145	0.0168618
855.223	0.0169733
855.301	0.0169906
855.379	0.0168885
855.457	0.0171873
855.535	0.0170686
855.613	0.0171510
855.692	0.0172015
855.770	0.0172823
855.848	0.0172337
855.926	0.0172738
856.004	0.0172569
856.082	0.0175215
856.160	0.0175552
856.238	0.0176615
856.317	0.0176375
856.395	0.0175278
856.473	0.0176689
856.551	0.0177595
856.629	0.0176839
856.707	0.0178297
856.785	0.0177731
856.863	0.0177164
856.942	0.0177206
857.020	0.0178566
857.098	0.0177037
857.176	0.0178788
857.254	0.0175840
857.332	0.0176866
857.410	0.0176015
857.488	0.0176403
857.567	0.0175935
857.645	0.0175935
857.723	0.0176450
857.801	0.0175547
857.879	0.0175245
857.957	0.0175101
858.035	0.0175689
858.113	0.0174237
858.192	0.0175629
858.270	0.0174820
858.348	0.0175157
858.426	0.0174953
858.504	0.0173942
858.582	0.0174034
858.660	0.0173615
858.738	0.0173472
858.817	0.0172358
858.895	0.0171836
858.973	0.0171992
859.051	0.0172074
859.129	0.0172511
859.207	0.0172293
859.285	0.0172920
859.363	0.0171542
859.442	0.0170845
859.520	0.0172442
859.598	0.0173108
859.676	0.0170983
859.754	0.0171401
859.832	0.0170773
859.910	0.0170713
859.988	0.0170531
860.067	0.0171049
860.145	0.0169608
860.223	0.0169753
860.301	0.0170847
860.379	0.0170087
860.457	0.0170341
860.535	0.0168989
860.613	0.0166771
860.692	0.0168938
860.770	0.0170139
860.848	0.0169193
860.926	0.0170741
861.004	0.0169984
861.082	0.0170362
861.160	0.0172357
861.238	0.0172411
861.317	0.0173319
861.395	0.0173327
861.473	0.0173374
861.551	0.0173130
861.629	0.0174198
861.707	0.0173293
861.785	0.0172541
861.863	0.0175039
861.942	0.0175463
862.020	0.0174923
862.098	0.0174500
862.176	0.0174228
862.254	0.0175137
862.332	0.0174734
862.410	0.0174827
862.488	0.0175683
862.567	0.0175188
862.645	0.0174442
862.723	0.0175443
862.801	0.0176115
862.879	0.0175283
862.957	0.0175964
863.035	0.0176052
863.113	0.0175639
863.192	0.0175689
863.270	0.0177930
863.348	0.0175959
863.426	0.0176569
863.504	0.0177927
863.582	0.0176114
863.660	0.0177066
863.738	0.0174913
863.817	0.0176263
863.895	0.0176812
863.973	0.0175411
864.051	0.0176045
864.129	0.0175021
864.207	0.0175337
864.285	0.0174966
864.363	0.0174409
864.442	0.0174750
864.520	0.0174995
864.598	0.0173929
864.676	0.0172549
864.754	0.0174283
864.832	0.0173124
864.910	0.0173884
864.988	0.0174022
865.067	0.0174631
865.145	0.0175370
865.223	0.0175618
865.301	0.0173957
865.379	0.0172516
865.457	0.0173704
865.535	0.0173826
865.613	0.0174973
865.692	0.0172593
865.770	0.0172200
865.848	0.0171468
865.926	0.0170778
866.004	0.0170808
866.082	0.0170663
866.160	0.0169135
866.238	0.0169968
866.317	0.0170641
866.395	0.0169807
866.473	0.0169408
866.551	0.0169701
866.629	0.0170158
866.707	0.0170965
866.785	0.0169614
866.863	0.0171207
866.942	0.0171185
867.020	0.0173228
867.098	0.0172350
867.176	0.0171723
867.254	0.0171523
867.332	0.0173090
867.410	0.0173722
867.488	0.0172264
867.567	0.0172286
867.645	0.0173969
867.723	0.0173808
867.801	0.0173917
867.879	0.0175118
867.957	0.0174444
868.035	0.0172443
868.113	0.0173579
868.192	0.0173451
868.270	0.0173865
868.348	0.0172300
868.426	0.0174072
868.504	0.0174036
868.582	0.0173204
868.660	0.0172535
868.738	0.0174426
868.817	0.0174144
868.895	0.0173533
868.973	0.0174804
869.051	0.0174557
869.129	0.0175243
869.207	0.0174291
869.285	0.0174112
869.363	0.0174589
869.442	0.0175599
869.520	0.0174679
869.598	0.0176018
869.676	0.0174712
869.754	0.0174502
869.832	0.0175299
869.910	0.0175216
869.988	0.0175799
870.067	0.0175149
870.145	0.0175395
870.223	0.0175224
870.301	0.0175259
870.379	0.0174149
870.457	0.0174944
870.535	0.0175359
870.613	0.0175206
870.692	0.0174873
870.770	0.0175005
870.848	0.0175100
870.926	0.0174954
871.004	0.0174542
871.082	0.0175617
871.160	0.0172586
871.238	0.0172367
871.317	0.0172359
871.395	0.0172835
871.473	0.0172272
871.551	0.0169578
871.629	0.0169256
871.707	0.0169472
871.785	0.0170761
871.863	0.0169385
871.942	0.0168816
872.020	0.0170016
872.098	0.0169289
872.176	0.0168443
872.254	0.0169843
872.332	0.0170867
872.410	0.0171245
872.488	0.0170609
872.567	0.0171898
872.645	0.0172903
872.723	0.0173158
872.801	0.0173284
872.879	0.0173988
872.957	0.0174570
873.035	0.0175324
873.113	0.0174651
873.192	0.0175011
873.270	0.0174575
873.348	0.0175048
873.426	0.0175330
873.504	0.0174597
873.582	0.0173743
873.660	0.0175035
873.738	0.0175535
873.817	0.0174286
873.895	0.0174739
873.973	0.0174043
874.051	0.0174204
874.129	0.0175320
874.207	0.0174809
874.285	0.0175375
874.363	0.0175153
874.442	0.0174281
874.520	0.0175216
874.598	0.0174037
874.676	0.0173510
874.754	0.0175090
874.832	0.0174946
874.910	0.0174789
874.988	0.0175289
875.067	0.0175623
875.145	0.0176932
875.223	0.0176209
875.301	0.0177149
875.379	0.0175658
875.457	0.0174632
875.535	0.0175468
875.613	0.0175031
875.692	0.0175422
875.770	0.0174663
875.848	0.0173779
875.926	0.0173465
876.004	0.0174178
876.082	0.0173294
876.160	0.0171509
876.238	0.0171846
876.317	0.0171655
876.395	0.0172433
876.473	0.0172052
876.551	0.0172517
876.629	0.0171230
876.707	0.0172189
876.785	0.0171753
876.863	0.0170175
876.942	0.0171883
877.020	0.0172133
877.098	0.0170605
877.176	0.0170671
877.254	0.0170947
877.332	0.0169992
877.410	0.0171033
877.488	0.0170618
877.567	0.0171822
877.645	0.0171442
877.723	0.0173317
877.801	0.0172655
877.879	0.0173047
877.957	0.0172548
878.035	0.0173660
878.113	0.0174402
878.192	0.0174962
878.270	0.0173387
878.348	0.0174708
878.426	0.0174930
878.504	0.0176261
878.582	0.0175294
878.660	0.0175604
878.738	0.0175969
878.817	0.0175796
878.895	0.0174972
878.973	0.0177148
879.051	0.0177412
879.129	0.0175831
879.207	0.0177348
879.285	0.0177497
879.363	0.0176056
879.442	0.0175847
879.520	0.0175562
879.598	0.0175393
879.676	0.0175749
879.754	0.0174696
879.832	0.0175400
879.910	0.0172226
879.988	0.0173527
880.067	0.0174211
880.145	0.0174142
880.223	0.0170943
880.301	0.0171474
880.379	0.0171888
880.457	0.0172952
880.535	0.0171773
880.613	0.0172203
880.692	0.0173237
880.770	0.0172703
880.848	0.0172636
880.926	0.0173920
881.004	0.0174423
881.082	0.0175371
881.160	0.0175246
881.238	0.0175597
881.317	0.0175514
881.395	0.0175275
881.473	0.0175772
881.551	0.0175057
881.629	0.0175792
881.707	0.0175151
881.785	0.0174951
881.863	0.0174405
881.942	0.0174366
882.020	0.0173566
882.098	0.0172878
882.176	0.0172820
882.254	0.0171885
882.332	0.0172665
882.410	0.0172226
882.488	0.0171255
882.567	0.0172105
882.645	0.0170674
882.723	0.0171819
882.801	0.0172301
882.879	0.0172321
882.957	0.0170953
883.035	0.0171236
883.113	0.0170728
883.192	0.0170747
883.270	0.0171037
883.348	0.0172350
883.426	0.0172548
883.504	0.0172197
883.582	0.0173396
883.660	0.0173172
883.738	0.0174196
883.817	0.0173896
883.895	0.0174408
883.973	0.0174883
884.051	0.0174195
884.129	0.0174301
884.207	0.0173517
884.285	0.0174732
884.363	0.0173205
884.442	0.0172984
884.520	0.0171966
884.598	0.0171262
884.676	0.0173183
884.754	0.0173924
884.832	0.0173307
884.910	0.0173795
884.988	0.0173146
885.067	0.0173760
885.145	0.0174915
885.223	0.0174828
885.301	0.0173964
885.379	0.0174068
885.457	0.0175674
885.535	0.0176859
885.613	0.0176722
885.692	0.0177375
885.770	0.0176843
885.848	0.0177122
885.926	0.0177563
886.004	0.0178069
886.082	0.0176468
886.160	0.0176044
886.238	0.0176557
886.317	0.0177088
886.395	0.0177042
886.473	0.0175855
886.551	0.0175829
886.629	0.0176823
886.707	0.0175822
886.785	0.0175623
886.863	0.0177098
886.942	0.0175935
887.020	0.0177052
887.098	0.0177145
887.176	0.0175148
887.254	0.0175323
887.332	0.0172139
887.410	0.0171123
887.488	0.0169704
887.567	0.0170326
887.645	0.0169044
887.723	0.0169020
887.801	0.0167619
887.879	0.0167393
887.957	0.0168468
888.035	0.0168075
888.113	0.0167845
888.192	0.0167749
888.270	0.0170004
888.348	0.0171106
888.426	0.0172928
888.504	0.0172176
888.582	0.0172034
888.660	0.0173151
888.738	0.0173723
888.817	0.0175918
888.895	0.0175555
888.973	0.0173952
889.051	0.0175961
889.129	0.0176154
889.207	0.0176691
889.285	0.0176637
889.363	0.0176720
889.442	0.0178153
889.520	0.0176732
889.598	0.0177402
889.676	0.0177160
889.754	0.0176397
889.832	0.0176360
889.910	0.0177323
889.988	0.0176743
890.067	0.0176414
890.145	0.0177537
890.223	0.0175725
890.301	0.0175623
890.379	0.0175953
890.457	0.0174228
890.535	0.0174956
890.613	0.0175903
890.692	0.0175004
890.770	0.0174802
890.848	0.0176083
890.926	0.0175697
891.004	0.0175842
891.082	0.0176072
891.160	0.0175799
891.238	0.0175925
891.317	0.0176601
891.395	0.0174778
891.473	0.0175795
891.551	0.0173445
891.629	0.0173056
891.707	0.0172064
891.785	0.0171727
891.863	0.0170387
891.942	0.0168711
892.020	0.0170268
892.098	0.0169241
892.176	0.0167273
892.254	0.0168333
892.332	0.0167506
892.410	0.0166792
892.488	0.0166810
892.567	0.0167007
892.645	0.0167012
892.723	0.0168392
892.801	0.0166576
892.879	0.0167569
892.957	0.0169914
893.035	0.0169684
893.113	0.0169839
893.192	0.0169884
893.270	0.0170816
893.348	0.0172664
893.426	0.0173502
893.504	0.0175230
893.582	0.0176638
893.660	0.0177611
893.738	0.0178663
893.817	0.0179250
893.895	0.0181535
893.973	0.0180972
894.051	0.0181519
894.129	0.0180359
894.207	0.0181197
894.285	0.0179956
894.363	0.0179130
894.442	0.0179794
894.520	0.0179470
894.598	0.0177798
894.676	0.0176543
894.754	0.0175968
894.832	0.0174666
894.910	0.0174353
894.988	0.0174754
895.067	0.0174816
895.145	0.0174329
895.223	0.0173124
895.301	0.0173372
895.379	0.0173292
895.457	0.0174765
895.535	0.0173027
895.613	0.0174210
895.692	0.0173552
895.770	0.0174062
895.848	0.0177165
895.926	0.0175336
896.004	0.0175180
896.082	0.0175097
896.160	0.0175715
896.238	0.0178373
896.317	0.0176658
896.395	0.0177477
896.473	0.0176810
896.551	0.0178062
896.629	0.0178336
896.707	0.0177337
896.785	0.0176754
896.863	0.0177188
896.942	0.0177248
897.020	0.0176275
897.098	0.0175284
897.176	0.0173987
897.254	0.0173576
897.332	0.0170733
897.410	0.0170422
897.488	0.0167910
897.567	0.0167743
897.645	0.0166317
897.723	0.0166077
897.801	0.0164880
897.879	0.0165360
897.957	0.0164893
898.035	0.0164832
898.113	0.0164088
898.192	0.0164795
898.270	0.0166173
898.348	0.0167374
898.426	0.0168623
898.504	0.0170050
898.582	0.0170293
898.660	0.0171180
898.738	0.0173515
898.817	0.0175253
898.895	0.0175398
898.973	0.0178172
899.051	0.0177937
899.129	0.0177821
899.207	0.0179069
899.285	0.0180584
899.363	0.0181195
899.442	0.0179303
899.520	0.0178848
899.598	0.0179163
899.676	0.0179481
899.754	0.0178575
899.832	0.0179236
899.910	0.0178913
899.988	0.0179154
900.067	0.0179298
900.145	0.0178647
900.223	0.0176653
900.301	0.0175613
900.379	0.0176594
900.457	0.0175436
900.535	0.0174556
900.613	0.0175312
900.692	0.0174581
900.770	0.0173910
900.848	0.0173538
900.926	0.0173112
901.004	0.0172692
901.082	0.0172705
901.160	0.0174776
901.238	0.0175430
901.317	0.0175631
901.395	0.0177062
901.473	0.0177509
901.551	0.0178901
901.629	0.0177820
901.707	0.0178934
901.785	0.0176942
901.863	0.0177894
901.942	0.0178235
902.020	0.0178299
902.098	0.0175624
902.176	0.0175375
902.254	0.0175072
902.332	0.0173577
902.410	0.0172826
902.488	0.0171566
902.567	0.0169361
902.645	0.0169481
902.723	0.0167210
902.801	0.0166147
902.879	0.0166588
902.957	0.0166660
903.035	0.0166674
903.113	0.0166883
903.192	0.0166616
903.270	0.0166422
903.348	0.0167989
903.426	0.0169160
903.504	0.0169411
903.582	0.0169572
903.660	0.0170503
903.738	0.0172063
903.817	0.0171650
903.895	0.0174088
903.973	0.0174767
904.051	0.0175325
904.129	0.0176646
904.207	0.0177051
904.285	0.0177808
904.363	0.0179498
904.442	0.0178531
904.520	0.0179973
904.598	0.0180911
904.676	0.0179540
904.754	0.0180412
904.832	0.0178565
904.910	0.0178957
904.988	0.0178248
905.067	0.0178799
905.145	0.0177831
905.223	0.0177536
905.301	0.0176834
905.379	0.0175973
905.457	0.0176136
905.535	0.0175978
905.613	0.0174879
905.692	0.0172882
905.770	0.0172707
905.848	0.0171927
905.926	0.0172984
906.004	0.0170627
906.082	0.0172881
906.160	0.0170589
906.238	0.0172919
906.317	0.0172108
906.395	0.0172820
906.473	0.0174236
906.551	0.0174677
906.629	0.0172208
906.707	0.0173669
906.785	0.0172683
906.863	0.0173993
906.942	0.0172703
907.020	0.0173355
907.098	0.0173521
907.176	0.0173474
907.254	0.0171565
907.332	0.0173812
907.410	0.0172130
907.488	0.0171416
907.567	0.0170566
907.645	0.0171281
907.723	0.0170297
907.801	0.0168587
907.879	0.0168012
907.957	0.0169475
908.035	0.0169489
908.113	0.0169248
908.192	0.0169701
908.270	0.0172363
908.348	0.0172127
908.426	0.0173511
908.504	0.0172461
908.582	0.0174888
908.660	0.0175274
908.738	0.0175898
908.817	0.0177993
908.895	0.0176827
908.973	0.0178053
909.051	0.0177832
909.129	0.0178355
909.207	0.0177753
909.285	0.0176173
909.363	0.0176656
909.442	0.0176088
909.520	0.0175461
909.598	0.0174894
909.676	0.0175647
909.754	0.0177074
909.832	0.0175610
909.910	0.0175831
909.988	0.0176640
910.067	0.0176643
910.145	0.0177597
910.223	0.0176781
910.301	0.0179108
910.379	0.0176974
910.457	0.0176770
910.535	0.0177000
910.613	0.0176195
910.692	0.0175843
910.770	0.0174207
910.848	0.0173736
910.926	0.0173763
911.004	0.0173196
911.082	0.0171679
911.160	0.0170759
911.238	0.0170345
911.317	0.0170894
911.395	0.0170870
911.473	0.0170008
911.551	0.0171494
911.629	0.0172175
911.707	0.0174137
911.785	0.0173653
911.863	0.0174535
911.942	0.0174731
912.020	0.0175031
912.098	0.0175953
912.176	0.0175601
912.254	0.0176487
912.332	0.0175202
912.410	0.0175253
912.488	0.0175471
912.567	0.0174274
912.645	0.0171989
912.723	0.0171709
912.801	0.0171964
912.879	0.0170716
912.957	0.0170826
913.035	0.0168893
913.113	0.0170747
913.192	0.0169672
913.270	0.0170412
913.348	0.0168785
913.426	0.0169716
913.504	0.0170799
913.582	0.0170599
913.660	0.0170998
913.738	0.0171104
913.817	0.0173273
913.895	0.0173081
913.973	0.0173401
914.051	0.0173903
914.129	0.0173707
914.207	0.0174590
914.285	0.0175218
914.363	0.0175508
914.442	0.0176388
914.520	0.0174132
914.598	0.0175352
914.676	0.0176055
914.754	0.0177312
914.832	0.0175477
914.910	0.0176619
914.988	0.0175973
915.067	0.0176913
915.145	0.0176493
915.223	0.0177054
915.301	0.0177206
915.379	0.0176730
915.457	0.0176041
915.535	0.0175934
915.613	0.0177111
915.692	0.0175556
915.770	0.0174026
915.848	0.0173372
915.926	0.0172343
916.004	0.0173479
916.082	0.0171802
916.160	0.0171181
916.238	0.0171349
916.317	0.0171107
916.395	0.0170245
916.473	0.0170853
916.551	0.0170523
916.629	0.0171970
916.707	0.0172230
916.785	0.0173859
916.863	0.0173312
916.942	0.0174261
917.020	0.0175153
917.098	0.0175388
917.176	0.0177334
917.254	0.0178883
917.332	0.0177634
917.410	0.0178555
917.488	0.0177280
917.567	0.0177249
917.645	0.0175999
917.723	0.0176323
917.801	0.0175884
917.879	0.0175230
917.957	0.0174989
918.035	0.0174346
918.113	0.0172343
918.192	0.0169781
918.270	0.0170289
918.348	0.0170045
918.426	0.0169646
918.504	0.0170081
918.582	0.0169247
918.660	0.0169405
918.738	0.0170541
918.817	0.0171134
918.895	0.0172008
918.973	0.0171313
919.051	0.0172794
919.129	0.0173025
919.207	0.0172270
919.285	0.0174225
919.363	0.0173325
919.442	0.0174297
919.520	0.0173924
919.598	0.0173550
919.676	0.0175449
919.754	0.0175404
919.832	0.0174183
919.910	0.0175181
