06/01/2022	21:45:18	Ver.	4.1	UNKNOWN
Optical Delay	599.988409	Delta X		0.078125	Sweeps	1	Scan Rate	0/0
Coordinates	Axis 1	NaN	Axis 2	NaN	Axis 3	NaN	Axis 4	NaN	Axis 5	NaN	Axis 6	0.000000
TX Power	0.000000	RX Power	0.000000

599.988	0.0179676
600.067	0.0179426
600.145	0.0179430
600.223	0.0179173
600.301	0.0178518
600.379	0.0179520
600.457	0.0180505
600.535	0.0179240
600.613	0.0179612
600.692	0.0179420
600.770	0.0178851
600.848	0.0178506
600.926	0.0180392
601.004	0.0178832
601.082	0.0179861
601.160	0.0178852
601.238	0.0178475
601.317	0.0179056
601.395	0.0179469
601.473	0.0178758
601.551	0.0178387
601.629	0.0179507
601.707	0.0179299
601.785	0.0178551
601.863	0.0178559
601.942	0.0179267
602.020	0.0179124
602.098	0.0179798
602.176	0.0178250
602.254	0.0179884
602.332	0.0179238
602.410	0.0179178
602.488	0.0179276
602.567	0.0179707
602.645	0.0178724
602.723	0.0179657
602.801	0.0179592
602.879	0.0178867
602.957	0.0179716
603.035	0.0179131
603.113	0.0180174
603.192	0.0181193
603.270	0.0178882
603.348	0.0179454
603.426	0.0178596
603.504	0.0178867
603.582	0.0179633
603.660	0.0179879
603.738	0.0179418
603.817	0.0178290
603.895	0.0179932
603.973	0.0178662
604.051	0.0179974
604.129	0.0181071
604.207	0.0178735
604.285	0.0179137
604.363	0.0179030
604.442	0.0179073
604.520	0.0180107
604.598	0.0179211
604.676	0.0180599
604.754	0.0179157
604.832	0.0179752
604.910	0.0180353
604.988	0.0180115
605.067	0.0179282
605.145	0.0178428
605.223	0.0180039
605.301	0.0180314
605.379	0.0178655
605.457	0.0180199
605.535	0.0179455
605.613	0.0179578
605.692	0.0180478
605.770	0.0180686
605.848	0.0179507
605.926	0.0180353
606.004	0.0179353
606.082	0.0180344
606.160	0.0178806
606.238	0.0178668
606.317	0.0179294
606.395	0.0178576
606.473	0.0180150
606.551	0.0180048
606.629	0.0179826
606.707	0.0179160
606.785	0.0179421
606.863	0.0180559
606.942	0.0179810
607.020	0.0178755
607.098	0.0178671
607.176	0.0180011
607.254	0.0179366
607.332	0.0179924
607.410	0.0180030
607.488	0.0180670
607.567	0.0179910
607.645	0.0179207
607.723	0.0179385
607.801	0.0180138
607.879	0.0179005
607.957	0.0179784
608.035	0.0180540
608.113	0.0180262
608.192	0.0178577
608.270	0.0178832
608.348	0.0180099
608.426	0.0179084
608.504	0.0180489
608.582	0.0180560
608.660	0.0179798
608.738	0.0181043
608.817	0.0179720
608.895	0.0179331
608.973	0.0180427
609.051	0.0178998
609.129	0.0180399
609.207	0.0179477
609.285	0.0179424
609.363	0.0179745
609.442	0.0179599
609.520	0.0180122
609.598	0.0180518
609.676	0.0180441
609.754	0.0179736
609.832	0.0178812
609.910	0.0179364
609.988	0.0179154
610.067	0.0179566
610.145	0.0179951
610.223	0.0180185
610.301	0.0180334
610.379	0.0180192
610.457	0.0179525
610.535	0.0178897
610.613	0.0179948
610.692	0.0179066
610.770	0.0180124
610.848	0.0180753
610.926	0.0179268
611.004	0.0178504
611.082	0.0179488
611.160	0.0180154
611.238	0.0178461
611.317	0.0179287
611.395	0.0179168
611.473	0.0179581
611.551	0.0179967
611.629	0.0179413
611.707	0.0179092
611.785	0.0179705
611.863	0.0180324
611.942	0.0179807
612.020	0.0179872
612.098	0.0179052
612.176	0.0178481
612.254	0.0179464
612.332	0.0179401
612.410	0.0179916
612.488	0.0178467
612.567	0.0179920
612.645	0.0179067
612.723	0.0179173
612.801	0.0178486
612.879	0.0179823
612.957	0.0179729
613.035	0.0179289
613.113	0.0178182
613.192	0.0178917
613.270	0.0180555
613.348	0.0180550
613.426	0.0179726
613.504	0.0178654
613.582	0.0178667
613.660	0.0179947
613.738	0.0179257
613.817	0.0178780
613.895	0.0179178
613.973	0.0180855
614.051	0.0179822
614.129	0.0179784
614.207	0.0178755
614.285	0.0179063
614.363	0.0179449
614.442	0.0178893
614.520	0.0181131
614.598	0.0179868
614.676	0.0178667
614.754	0.0180747
614.832	0.0179974
614.910	0.0179446
614.988	0.0179391
615.067	0.0180447
615.145	0.0180131
615.223	0.0178952
615.301	0.0180159
615.379	0.0178870
615.457	0.0180261
615.535	0.0179459
615.613	0.0180105
615.692	0.0178948
615.770	0.0179869
615.848	0.0179198
615.926	0.0180696
616.004	0.0179742
616.082	0.0181416
616.160	0.0180967
616.238	0.0179658
616.317	0.0178484
616.395	0.0178707
616.473	0.0179452
616.551	0.0179092
616.629	0.0179895
616.707	0.0180412
616.785	0.0180077
616.863	0.0179394
616.942	0.0179429
617.020	0.0178345
617.098	0.0178993
617.176	0.0178673
617.254	0.0180247
617.332	0.0179930
617.410	0.0178960
617.488	0.0178809
617.567	0.0180747
617.645	0.0179936
617.723	0.0179855
617.801	0.0178445
617.879	0.0179625
617.957	0.0180027
618.035	0.0180449
618.113	0.0179292
618.192	0.0179550
618.270	0.0179648
618.348	0.0179944
618.426	0.0179926
618.504	0.0179561
618.582	0.0180412
618.660	0.0178480
618.738	0.0180011
618.817	0.0179278
618.895	0.0179639
618.973	0.0179849
619.051	0.0180197
619.129	0.0179483
619.207	0.0180948
619.285	0.0179056
619.363	0.0180427
619.442	0.0180454
619.520	0.0180661
619.598	0.0180032
619.676	0.0179629
619.754	0.0179650
619.832	0.0179233
619.910	0.0179619
619.988	0.0179222
620.067	0.0179523
620.145	0.0179387
620.223	0.0180581
620.301	0.0180276
620.379	0.0178700
620.457	0.0179541
620.535	0.0179488
620.613	0.0179597
620.692	0.0179719
620.770	0.0179130
620.848	0.0179496
620.926	0.0179391
621.004	0.0180740
621.082	0.0179922
621.160	0.0180399
621.238	0.0179478
621.317	0.0179544
621.395	0.0180043
621.473	0.0179339
621.551	0.0178676
621.629	0.0178557
621.707	0.0179784
621.785	0.0179028
621.863	0.0179958
621.942	0.0179127
622.020	0.0180066
622.098	0.0180374
622.176	0.0180330
622.254	0.0178293
622.332	0.0180242
622.410	0.0180133
622.488	0.0178829
622.567	0.0179858
622.645	0.0179247
622.723	0.0178608
622.801	0.0179383
622.879	0.0179784
622.957	0.0179115
623.035	0.0179816
623.113	0.0179292
623.192	0.0181281
623.270	0.0179615
623.348	0.0178675
623.426	0.0179037
623.504	0.0179608
623.582	0.0178921
623.660	0.0179531
623.738	0.0181213
623.817	0.0179093
623.895	0.0177595
623.973	0.0179110
624.051	0.0179863
624.129	0.0179963
624.207	0.0179624
624.285	0.0180499
624.363	0.0179049
624.442	0.0178590
624.520	0.0179345
624.598	0.0180065
624.676	0.0178160
624.754	0.0180179
624.832	0.0179927
624.910	0.0180193
624.988	0.0180150
625.067	0.0179805
625.145	0.0179466
625.223	0.0180289
625.301	0.0180338
625.379	0.0180304
625.457	0.0179649
625.535	0.0179163
625.613	0.0178961
625.692	0.0179984
625.770	0.0179880
625.848	0.0179794
625.926	0.0180222
626.004	0.0178957
626.082	0.0180067
626.160	0.0178587
626.238	0.0179814
626.317	0.0178725
626.395	0.0180040
626.473	0.0178885
626.551	0.0178726
626.629	0.0177349
626.707	0.0179563
626.785	0.0179081
626.863	0.0178622
626.942	0.0178107
627.020	0.0178452
627.098	0.0179509
627.176	0.0178790
627.254	0.0178671
627.332	0.0180746
627.410	0.0179153
627.488	0.0179586
627.567	0.0179153
627.645	0.0178296
627.723	0.0179808
627.801	0.0180123
627.879	0.0179506
627.957	0.0178653
628.035	0.0178819
628.113	0.0178920
628.192	0.0179203
628.270	0.0179949
628.348	0.0179299
628.426	0.0179874
628.504	0.0179599
628.582	0.0181071
628.660	0.0179893
628.738	0.0179637
628.817	0.0179162
628.895	0.0179173
628.973	0.0178816
629.051	0.0178674
629.129	0.0181058
629.207	0.0180537
629.285	0.0180051
629.363	0.0179309
629.442	0.0179364
629.520	0.0180768
629.598	0.0179514
629.676	0.0179362
629.754	0.0178295
629.832	0.0178814
629.910	0.0179674
629.988	0.0179068
630.067	0.0180050
630.145	0.0179110
630.223	0.0180157
630.301	0.0178490
630.379	0.0179381
630.457	0.0181255
630.535	0.0180539
630.613	0.0179723
630.692	0.0180345
630.770	0.0179130
630.848	0.0179029
630.926	0.0178462
631.004	0.0179151
631.082	0.0180038
631.160	0.0179432
631.238	0.0179178
631.317	0.0179259
631.395	0.0178101
631.473	0.0179010
631.551	0.0177950
631.629	0.0179253
631.707	0.0179501
631.785	0.0178471
631.863	0.0178175
631.942	0.0180480
632.020	0.0178492
632.098	0.0178917
632.176	0.0178995
632.254	0.0179394
632.332	0.0178769
632.410	0.0179755
632.488	0.0178114
632.567	0.0177920
632.645	0.0178654
632.723	0.0178925
632.801	0.0178529
632.879	0.0178151
632.957	0.0179491
633.035	0.0179435
633.113	0.0178725
633.192	0.0179920
633.270	0.0180295
633.348	0.0179466
633.426	0.0180505
633.504	0.0180116
633.582	0.0179803
633.660	0.0179019
633.738	0.0178963
633.817	0.0180996
633.895	0.0181520
633.973	0.0179267
634.051	0.0179998
634.129	0.0180135
634.207	0.0179807
634.285	0.0180086
634.363	0.0180245
634.442	0.0180064
634.520	0.0179240
634.598	0.0179996
634.676	0.0180256
634.754	0.0178805
634.832	0.0179709
634.910	0.0180859
634.988	0.0178719
635.067	0.0180126
635.145	0.0179424
635.223	0.0181177
635.301	0.0180911
635.379	0.0180505
635.457	0.0179517
635.535	0.0179383
635.613	0.0179696
635.692	0.0180601
635.770	0.0181517
635.848	0.0179997
635.926	0.0178876
636.004	0.0179341
636.082	0.0180039
636.160	0.0179083
636.238	0.0179050
636.317	0.0180409
636.395	0.0178845
636.473	0.0181297
636.551	0.0180262
636.629	0.0178946
636.707	0.0178632
636.785	0.0179984
636.863	0.0179597
636.942	0.0178886
637.020	0.0180625
637.098	0.0178088
637.176	0.0178408
637.254	0.0179326
637.332	0.0179257
637.410	0.0178484
637.488	0.0178458
637.567	0.0179368
637.645	0.0177489
637.723	0.0178677
637.801	0.0178172
637.879	0.0179309
637.957	0.0179156
638.035	0.0178741
638.113	0.0179389
638.192	0.0178519
638.270	0.0178030
638.348	0.0178640
638.426	0.0179617
638.504	0.0178933
638.582	0.0178920
638.660	0.0179614
638.738	0.0179723
638.817	0.0178656
638.895	0.0180004
638.973	0.0180057
639.051	0.0179874
639.129	0.0178575
639.207	0.0179653
639.285	0.0180155
639.363	0.0179110
639.442	0.0181158
639.520	0.0178739
639.598	0.0180762
639.676	0.0180251
639.754	0.0178273
639.832	0.0180739
639.910	0.0179803
639.988	0.0179995
640.067	0.0181753
640.145	0.0179998
640.223	0.0180286
640.301	0.0180212
640.379	0.0179967
640.457	0.0178499
640.535	0.0179177
640.613	0.0179328
640.692	0.0178928
640.770	0.0180791
640.848	0.0178384
640.926	0.0180579
641.004	0.0180294
641.082	0.0180045
641.160	0.0179577
641.238	0.0179549
641.317	0.0180261
641.395	0.0180579
641.473	0.0179565
641.551	0.0179726
641.629	0.0180074
641.707	0.0179259
641.785	0.0179741
641.863	0.0179951
641.942	0.0181137
642.020	0.0180228
642.098	0.0180434
642.176	0.0179730
642.254	0.0178860
642.332	0.0180026
642.410	0.0179768
642.488	0.0179653
642.567	0.0179433
642.645	0.0178489
642.723	0.0180502
642.801	0.0179041
642.879	0.0179131
642.957	0.0179205
643.035	0.0179202
643.113	0.0177989
643.192	0.0179185
643.270	0.0179724
643.348	0.0178531
643.426	0.0179142
643.504	0.0179064
643.582	0.0179382
643.660	0.0179598
643.738	0.0178547
643.817	0.0179662
643.895	0.0179424
643.973	0.0179298
644.051	0.0179463
644.129	0.0179990
644.207	0.0178570
644.285	0.0178386
644.363	0.0179593
644.442	0.0179250
644.520	0.0179391
644.598	0.0178704
644.676	0.0179816
644.754	0.0181158
644.832	0.0179108
644.910	0.0178755
644.988	0.0179605
645.067	0.0179655
645.145	0.0180286
645.223	0.0181110
645.301	0.0178603
645.379	0.0179005
645.457	0.0178733
645.535	0.0179973
645.613	0.0180755
645.692	0.0179739
645.770	0.0179475
645.848	0.0180078
645.926	0.0180013
646.004	0.0180049
646.082	0.0180960
646.160	0.0179462
646.238	0.0178799
646.317	0.0179420
646.395	0.0179079
646.473	0.0180337
646.551	0.0178710
646.629	0.0178850
646.707	0.0181265
646.785	0.0180855
646.863	0.0178712
646.942	0.0179434
647.020	0.0180607
647.098	0.0179178
647.176	0.0180486
647.254	0.0179739
647.332	0.0180395
647.410	0.0179855
647.488	0.0179243
647.567	0.0180347
647.645	0.0181544
647.723	0.0178963
647.801	0.0178216
647.879	0.0179826
647.957	0.0179264
648.035	0.0178811
648.113	0.0179018
648.192	0.0179231
648.270	0.0179422
648.348	0.0180328
648.426	0.0179633
648.504	0.0178217
648.582	0.0178912
648.660	0.0179536
648.738	0.0178992
648.817	0.0179193
648.895	0.0180180
648.973	0.0178949
649.051	0.0179401
649.129	0.0177763
649.207	0.0177764
649.285	0.0179173
649.363	0.0178662
649.442	0.0178381
649.520	0.0179836
649.598	0.0178999
649.676	0.0179400
649.754	0.0179870
649.832	0.0179156
649.910	0.0179240
649.988	0.0180708
650.067	0.0178976
650.145	0.0179376
650.223	0.0178061
650.301	0.0180060
650.379	0.0180214
650.457	0.0178739
650.535	0.0180016
650.613	0.0179028
650.692	0.0179225
650.770	0.0180062
650.848	0.0178175
650.926	0.0179970
651.004	0.0177834
651.082	0.0177625
651.160	0.0178292
651.238	0.0179285
651.317	0.0179247
651.395	0.0178769
651.473	0.0180301
651.551	0.0179518
651.629	0.0178234
651.707	0.0179472
651.785	0.0179842
651.863	0.0179651
651.942	0.0180367
652.020	0.0179820
652.098	0.0179675
652.176	0.0179856
652.254	0.0180361
652.332	0.0178667
652.410	0.0179714
652.488	0.0180120
652.567	0.0179215
652.645	0.0179850
652.723	0.0179374
652.801	0.0179152
652.879	0.0179942
652.957	0.0180127
653.035	0.0178435
653.113	0.0178888
653.192	0.0179887
653.270	0.0179542
653.348	0.0179620
653.426	0.0177679
653.504	0.0177896
653.582	0.0178284
653.660	0.0179485
653.738	0.0179396
653.817	0.0179733
653.895	0.0179101
653.973	0.0179055
654.051	0.0178612
654.129	0.0178049
654.207	0.0178808
654.285	0.0178609
654.363	0.0178867
654.442	0.0179698
654.520	0.0180155
654.598	0.0178804
654.676	0.0178082
654.754	0.0178541
654.832	0.0179410
654.910	0.0179618
654.988	0.0179152
655.067	0.0178680
655.145	0.0178355
655.223	0.0179984
655.301	0.0179030
655.379	0.0179389
655.457	0.0178448
655.535	0.0178822
655.613	0.0179304
655.692	0.0178724
655.770	0.0179019
655.848	0.0179078
655.926	0.0178879
656.004	0.0179541
656.082	0.0180000
656.160	0.0180183
656.238	0.0178058
656.317	0.0179699
656.395	0.0178766
656.473	0.0179952
656.551	0.0178739
656.629	0.0178986
656.707	0.0179500
656.785	0.0179608
656.863	0.0178207
656.942	0.0177879
657.020	0.0178014
657.098	0.0178977
657.176	0.0180338
657.254	0.0179299
657.332	0.0177578
657.410	0.0178794
657.488	0.0178602
657.567	0.0177559
657.645	0.0178688
657.723	0.0179962
657.801	0.0180003
657.879	0.0179714
657.957	0.0178458
658.035	0.0178310
658.113	0.0179565
658.192	0.0179981
658.270	0.0178830
658.348	0.0178175
658.426	0.0178648
658.504	0.0178684
658.582	0.0178404
658.660	0.0178505
658.738	0.0178020
658.817	0.0178458
658.895	0.0179330
658.973	0.0178793
659.051	0.0180090
659.129	0.0178108
659.207	0.0179697
659.285	0.0178922
659.363	0.0179826
659.442	0.0179247
659.520	0.0180485
659.598	0.0181110
659.676	0.0179292
659.754	0.0180520
659.832	0.0179482
659.910	0.0179433
659.988	0.0178562
660.067	0.0178944
660.145	0.0179233
660.223	0.0177187
660.301	0.0177753
660.379	0.0178315
660.457	0.0179088
660.535	0.0178331
660.613	0.0178635
660.692	0.0179458
660.770	0.0178780
660.848	0.0180196
660.926	0.0180945
661.004	0.0180473
661.082	0.0180303
661.160	0.0180650
661.238	0.0179756
661.317	0.0179893
661.395	0.0180045
661.473	0.0180637
661.551	0.0178778
661.629	0.0179436
661.707	0.0179935
661.785	0.0178115
661.863	0.0178334
661.942	0.0178147
662.020	0.0178210
662.098	0.0177464
662.176	0.0177808
662.254	0.0177444
662.332	0.0178648
662.410	0.0177784
662.488	0.0177032
662.567	0.0179516
662.645	0.0180581
662.723	0.0178656
662.801	0.0180097
662.879	0.0180338
662.957	0.0179415
663.035	0.0181474
663.113	0.0181158
663.192	0.0180595
663.270	0.0180943
663.348	0.0180238
663.426	0.0178349
663.504	0.0179710
663.582	0.0179527
663.660	0.0178142
663.738	0.0177073
663.817	0.0178042
663.895	0.0178049
663.973	0.0177348
664.051	0.0177389
664.129	0.0179033
664.207	0.0177344
664.285	0.0177769
664.363	0.0179204
664.442	0.0179107
664.520	0.0178173
664.598	0.0179028
664.676	0.0180912
664.754	0.0179690
664.832	0.0179046
664.910	0.0181122
664.988	0.0180328
665.067	0.0178850
665.145	0.0179841
665.223	0.0179143
665.301	0.0179008
665.379	0.0178808
665.457	0.0179274
665.535	0.0179474
665.613	0.0178748
665.692	0.0178439
665.770	0.0177791
665.848	0.0177284
665.926	0.0179044
666.004	0.0178601
666.082	0.0177238
666.160	0.0179424
666.238	0.0179149
666.317	0.0177866
666.395	0.0178587
666.473	0.0177693
666.551	0.0178228
666.629	0.0180324
666.707	0.0179623
666.785	0.0179818
666.863	0.0180291
666.942	0.0181257
667.020	0.0180838
667.098	0.0181274
667.176	0.0179287
667.254	0.0180054
667.332	0.0179710
667.410	0.0178876
667.488	0.0178299
667.567	0.0178623
667.645	0.0179095
667.723	0.0178317
667.801	0.0177242
667.879	0.0177580
667.957	0.0177219
668.035	0.0175935
668.113	0.0176450
668.192	0.0177033
668.270	0.0177692
668.348	0.0177550
668.426	0.0178415
668.504	0.0178452
668.582	0.0179534
668.660	0.0179326
668.738	0.0179653
668.817	0.0181421
668.895	0.0181601
668.973	0.0181045
669.051	0.0181035
669.129	0.0180600
669.207	0.0180962
669.285	0.0179716
669.363	0.0179346
669.442	0.0179623
669.520	0.0179458
669.598	0.0178205
669.676	0.0176231
669.754	0.0176775
669.832	0.0176772
669.910	0.0176427
669.988	0.0176100
670.067	0.0176561
670.145	0.0179428
670.223	0.0177179
670.301	0.0177875
670.379	0.0178841
670.457	0.0179634
670.535	0.0180402
670.613	0.0181091
670.692	0.0180471
670.770	0.0180811
670.848	0.0181999
670.926	0.0181931
671.004	0.0181293
671.082	0.0179990
671.160	0.0179710
671.238	0.0180424
671.317	0.0181461
671.395	0.0178946
671.473	0.0177888
671.551	0.0179239
671.629	0.0177966
671.707	0.0177398
671.785	0.0179136
671.863	0.0178101
671.942	0.0179607
672.020	0.0178746
672.098	0.0178373
672.176	0.0180340
672.254	0.0179720
672.332	0.0179090
672.410	0.0180500
672.488	0.0180856
672.567	0.0180032
672.645	0.0179234
672.723	0.0180483
672.801	0.0179961
672.879	0.0180335
672.957	0.0179425
673.035	0.0179978
673.113	0.0180038
673.192	0.0180569
673.270	0.0180187
673.348	0.0179623
673.426	0.0179982
673.504	0.0178881
673.582	0.0179365
673.660	0.0179929
673.738	0.0178297
673.817	0.0178852
673.895	0.0178701
673.973	0.0178704
674.051	0.0178751
674.129	0.0178909
674.207	0.0178085
674.285	0.0177196
674.363	0.0177159
674.442	0.0179327
674.520	0.0178049
674.598	0.0177579
674.676	0.0180034
674.754	0.0179854
674.832	0.0179507
674.910	0.0179971
674.988	0.0179609
675.067	0.0179602
675.145	0.0179855
675.223	0.0180049
675.301	0.0181218
675.379	0.0181693
675.457	0.0179799
675.535	0.0181375
675.613	0.0181104
675.692	0.0182076
675.770	0.0180049
675.848	0.0181078
675.926	0.0179990
676.004	0.0179749
676.082	0.0179955
676.160	0.0179516
676.238	0.0179116
676.317	0.0179861
676.395	0.0179553
676.473	0.0178581
676.551	0.0178942
676.629	0.0178746
676.707	0.0177834
676.785	0.0178424
676.863	0.0176788
676.942	0.0177811
677.020	0.0178008
677.098	0.0176776
677.176	0.0175949
677.254	0.0177266
677.332	0.0177719
677.410	0.0177438
677.488	0.0176634
677.567	0.0177988
677.645	0.0177230
677.723	0.0177359
677.801	0.0177847
677.879	0.0179642
677.957	0.0179644
678.035	0.0181163
678.113	0.0182069
678.192	0.0182369
678.270	0.0181770
678.348	0.0183035
678.426	0.0182087
678.504	0.0181730
678.582	0.0180949
678.660	0.0181676
678.738	0.0181255
678.817	0.0179619
678.895	0.0178005
678.973	0.0178545
679.051	0.0177924
679.129	0.0178423
679.207	0.0177814
679.285	0.0177132
679.363	0.0176924
679.442	0.0177615
679.520	0.0178827
679.598	0.0177448
679.676	0.0178076
679.754	0.0178925
679.832	0.0177924
679.910	0.0179086
679.988	0.0179601
680.067	0.0179254
680.145	0.0180196
680.223	0.0180907
680.301	0.0180312
680.379	0.0179155
680.457	0.0178817
680.535	0.0179400
680.613	0.0179903
680.692	0.0181178
680.770	0.0179284
680.848	0.0180433
680.926	0.0182652
681.004	0.0182090
681.082	0.0183481
681.160	0.0183471
681.238	0.0183072
681.317	0.0183552
681.395	0.0182690
681.473	0.0181211
681.551	0.0180503
681.629	0.0179588
681.707	0.0177251
681.785	0.0176234
681.863	0.0176464
681.942	0.0174440
682.020	0.0172845
682.098	0.0173672
682.176	0.0173551
682.254	0.0172548
682.332	0.0172937
682.410	0.0174224
682.488	0.0175137
682.567	0.0176292
682.645	0.0177139
682.723	0.0178333
682.801	0.0179487
682.879	0.0180402
682.957	0.0179969
683.035	0.0180786
683.113	0.0182283
683.192	0.0183816
683.270	0.0184641
683.348	0.0182593
683.426	0.0184885
683.504	0.0184402
683.582	0.0184401
683.660	0.0184827
683.738	0.0183891
683.817	0.0183589
683.895	0.0183128
683.973	0.0180255
684.051	0.0178663
684.129	0.0177646
684.207	0.0176595
684.285	0.0174995
684.363	0.0174063
684.442	0.0172224
684.520	0.0170946
684.598	0.0170631
684.676	0.0171340
684.754	0.0171566
684.832	0.0173555
684.910	0.0174981
684.988	0.0176176
685.067	0.0178686
685.145	0.0182581
685.223	0.0185068
685.301	0.0187478
685.379	0.0190149
685.457	0.0192883
685.535	0.0195726
685.613	0.0194965
685.692	0.0195722
685.770	0.0196342
685.848	0.0195442
685.926	0.0191856
686.004	0.0191412
686.082	0.0188113
686.160	0.0186073
686.238	0.0182500
686.317	0.0179357
686.395	0.0175805
686.473	0.0172432
686.551	0.0170090
686.629	0.0166866
686.707	0.0163799
686.785	0.0162016
686.863	0.0160928
686.942	0.0160175
687.020	0.0157925
687.098	0.0157803
687.176	0.0157520
687.254	0.0158203
687.332	0.0160611
687.410	0.0161779
687.488	0.0163761
687.567	0.0165672
687.645	0.0169732
687.723	0.0173833
687.801	0.0178437
687.879	0.0182195
687.957	0.0187152
688.035	0.0191164
688.113	0.0195397
688.192	0.0198885
688.270	0.0199839
688.348	0.0203086
688.426	0.0203225
688.504	0.0204819
688.582	0.0202723
688.660	0.0201208
688.738	0.0199276
688.817	0.0195592
688.895	0.0192755
688.973	0.0189435
689.051	0.0185404
689.129	0.0180769
689.207	0.0178136
689.285	0.0174356
689.363	0.0171400
689.442	0.0168456
689.520	0.0166038
689.598	0.0165475
689.676	0.0166438
689.754	0.0165112
689.832	0.0164436
689.910	0.0166862
689.988	0.0167659
690.067	0.0167619
690.145	0.0170769
690.223	0.0169649
690.301	0.0170758
690.379	0.0173347
690.457	0.0175622
690.535	0.0176234
690.613	0.0176695
690.692	0.0179352
690.770	0.0179036
690.848	0.0181373
690.926	0.0184883
691.004	0.0184873
691.082	0.0186149
691.160	0.0188073
691.238	0.0188946
691.317	0.0190468
691.395	0.0189910
691.473	0.0191357
691.551	0.0191521
691.629	0.0189202
691.707	0.0188183
691.785	0.0186394
691.863	0.0184970
691.942	0.0181934
692.020	0.0181364
692.098	0.0178960
692.176	0.0176520
692.254	0.0174295
692.332	0.0172601
692.410	0.0171702
692.488	0.0170072
692.567	0.0168313
692.645	0.0169174
692.723	0.0167625
692.801	0.0166097
692.879	0.0166730
692.957	0.0169140
693.035	0.0169650
693.113	0.0171418
693.192	0.0171977
693.270	0.0173343
693.348	0.0175320
693.426	0.0176067
693.504	0.0176939
693.582	0.0176747
693.660	0.0175855
693.738	0.0176387
693.817	0.0177681
693.895	0.0177464
693.973	0.0179927
694.051	0.0180452
694.129	0.0182054
694.207	0.0185452
694.285	0.0187720
694.363	0.0191254
694.442	0.0193295
694.520	0.0195500
694.598	0.0196281
694.676	0.0198335
694.754	0.0199625
694.832	0.0200578
694.910	0.0198583
694.988	0.0198679
695.067	0.0197108
695.145	0.0193797
695.223	0.0191476
695.301	0.0190731
695.379	0.0187605
695.457	0.0185822
695.535	0.0184068
695.613	0.0180585
695.692	0.0178355
695.770	0.0176016
695.848	0.0174393
695.926	0.0173011
696.004	0.0171853
696.082	0.0166718
696.160	0.0166492
696.238	0.0163608
696.317	0.0160609
696.395	0.0158798
696.473	0.0157320
696.551	0.0156643
696.629	0.0155905
696.707	0.0155816
696.785	0.0155785
696.863	0.0155962
696.942	0.0156600
697.020	0.0155827
697.098	0.0157057
697.176	0.0156812
697.254	0.0155055
697.332	0.0155428
697.410	0.0156030
697.488	0.0155894
697.567	0.0156517
697.645	0.0159515
697.723	0.0159914
697.801	0.0162085
697.879	0.0167290
697.957	0.0169886
698.035	0.0174940
698.113	0.0182357
698.192	0.0187840
698.270	0.0194150
698.348	0.0200883
698.426	0.0206728
698.504	0.0214382
698.582	0.0218259
698.660	0.0224969
698.738	0.0229555
698.817	0.0231953
698.895	0.0235700
698.973	0.0239150
699.051	0.0240408
699.129	0.0242334
699.207	0.0241973
699.285	0.0239336
699.363	0.0236206
699.442	0.0233791
699.520	0.0228382
699.598	0.0224451
699.676	0.0217944
699.754	0.0211115
699.832	0.0203664
699.910	0.0196326
699.988	0.0188905
700.067	0.0182207
700.145	0.0172791
700.223	0.0166206
700.301	0.0156850
700.379	0.0147291
700.457	0.0138280
700.535	0.0129651
700.613	0.0121041
700.692	0.0111372
700.770	0.0103804
700.848	0.00960503
700.926	0.00889915
701.004	0.00849037
701.082	0.00805527
701.160	0.00791725
701.238	0.00824387
701.317	0.00858986
701.395	0.00933655
701.473	0.0103025
701.551	0.0113011
701.629	0.0126064
701.707	0.0139305
701.785	0.0153255
701.863	0.0167311
701.942	0.0181900
702.020	0.0193642
702.098	0.0204256
702.176	0.0213465
702.254	0.0220020
702.332	0.0225811
702.410	0.0229320
702.488	0.0232552
702.567	0.0232993
702.645	0.0233679
702.723	0.0234779
702.801	0.0231577
702.879	0.0229238
702.957	0.0227987
703.035	0.0224523
703.113	0.0220943
703.192	0.0218102
703.270	0.0215355
703.348	0.0212159
703.426	0.0208677
703.504	0.0207633
703.582	0.0205506
703.660	0.0206269
703.738	0.0204913
703.817	0.0206879
703.895	0.0209503
703.973	0.0212243
704.051	0.0215347
704.129	0.0217672
704.207	0.0222369
704.285	0.0225197
704.363	0.0226810
704.442	0.0227608
704.520	0.0229207
704.598	0.0228098
704.676	0.0226776
704.754	0.0224823
704.832	0.0220078
704.910	0.0213206
704.988	0.0206219
705.067	0.0198286
705.145	0.0188245
705.223	0.0177926
705.301	0.0169200
705.379	0.0156715
705.457	0.0145948
705.535	0.0134942
705.613	0.0124577
705.692	0.0115518
705.770	0.0106451
705.848	0.00988182
705.926	0.00910217
706.004	0.00841362
706.082	0.00763046
706.160	0.00717522
706.238	0.00681282
706.317	0.00637085
706.395	0.00601311
706.473	0.00594681
706.551	0.00596725
706.629	0.00618134
706.707	0.00678268
706.785	0.00752953
706.863	0.00847023
706.942	0.0100210
707.020	0.0114097
707.098	0.0130087
707.176	0.0149921
707.254	0.0169952
707.332	0.0189229
707.410	0.0209422
707.488	0.0229929
707.567	0.0247414
707.645	0.0264812
707.723	0.0279282
707.801	0.0290665
707.879	0.0298728
707.957	0.0305781
708.035	0.0306203
708.113	0.0305676
708.192	0.0301957
708.270	0.0297174
708.348	0.0287822
708.426	0.0277248
708.504	0.0266486
708.582	0.0252513
708.660	0.0238963
708.738	0.0225430
708.817	0.0210959
708.895	0.0198793
708.973	0.0188576
709.051	0.0179379
709.129	0.0175201
709.207	0.0169810
709.285	0.0167319
709.363	0.0166346
709.442	0.0168373
709.520	0.0171415
709.598	0.0174528
709.676	0.0181211
709.754	0.0186105
709.832	0.0192369
709.910	0.0199792
709.988	0.0207121
710.067	0.0212875
710.145	0.0219328
710.223	0.0222657
710.301	0.0225412
710.379	0.0223746
710.457	0.0223064
710.535	0.0218667
710.613	0.0210847
710.692	0.0202037
710.770	0.0189486
710.848	0.0175253
710.926	0.0161800
711.004	0.0146563
711.082	0.0129594
711.160	0.0115376
711.238	0.00993172
711.317	0.00861374
711.395	0.00728386
711.473	0.00614304
711.551	0.00516197
711.629	0.00440651
711.707	0.00377380
711.785	0.00317047
711.863	0.00289825
711.942	0.00319939
712.020	0.00358109
712.098	0.00391869
712.176	0.00473961
712.254	0.00601097
712.332	0.00725037
712.410	0.00901031
712.488	0.0107858
712.567	0.0127039
712.645	0.0146864
712.723	0.0167819
712.801	0.0189817
712.879	0.0210631
712.957	0.0229589
713.035	0.0247908
713.113	0.0264108
713.192	0.0280534
713.270	0.0294267
713.348	0.0304868
713.426	0.0312478
713.504	0.0317551
713.582	0.0318697
713.660	0.0318008
713.738	0.0315189
713.817	0.0308907
713.895	0.0301317
713.973	0.0289895
714.051	0.0278793
714.129	0.0266184
714.207	0.0253773
714.285	0.0241315
714.363	0.0229908
714.442	0.0219691
714.520	0.0208990
714.598	0.0201763
714.676	0.0194173
714.754	0.0188956
714.832	0.0184671
714.910	0.0183461
714.988	0.0182272
715.067	0.0180180
715.145	0.0181536
715.223	0.0182729
715.301	0.0184751
715.379	0.0186639
715.457	0.0191595
715.535	0.0193343
715.613	0.0195602
715.692	0.0199316
715.770	0.0200036
715.848	0.0200414
715.926	0.0198801
716.004	0.0196117
716.082	0.0190943
716.160	0.0183705
716.238	0.0175014
716.317	0.0163889
716.395	0.0153291
716.473	0.0140371
716.551	0.0127617
716.629	0.0115320
716.707	0.00995102
716.785	0.00879189
716.863	0.00758904
716.942	0.00656136
717.020	0.00552086
717.098	0.00483971
717.176	0.00418449
717.254	0.00380531
717.332	0.00373688
717.410	0.00395432
717.488	0.00421288
717.567	0.00496803
717.645	0.00575020
717.723	0.00703239
717.801	0.00847488
717.879	0.00999001
717.957	0.0115879
718.035	0.0136414
718.113	0.0154812
718.192	0.0175525
718.270	0.0193509
718.348	0.0212847
718.426	0.0230175
718.504	0.0244096
718.582	0.0257173
718.660	0.0269218
718.738	0.0276034
718.817	0.0283791
718.895	0.0287006
718.973	0.0286071
719.051	0.0286060
719.129	0.0283080
719.207	0.0277764
719.285	0.0272554
719.363	0.0265901
719.442	0.0259193
719.520	0.0251614
719.598	0.0245325
719.676	0.0239529
719.754	0.0232345
719.832	0.0228851
719.910	0.0225831
719.988	0.0220875
720.067	0.0219994
720.145	0.0219157
720.223	0.0218242
720.301	0.0216340
720.379	0.0215680
720.457	0.0214112
720.535	0.0210454
720.613	0.0210599
720.692	0.0209584
720.770	0.0207643
720.848	0.0204095
720.926	0.0201482
721.004	0.0199770
721.082	0.0197314
721.160	0.0194113
721.238	0.0189601
721.317	0.0187995
721.395	0.0185890
721.473	0.0181066
721.551	0.0174814
721.629	0.0170795
721.707	0.0165730
721.785	0.0156886
721.863	0.0150294
721.942	0.0141730
722.020	0.0132883
722.098	0.0126549
722.176	0.0119300
722.254	0.0109277
722.332	0.0101681
722.410	0.00955177
722.488	0.00889526
722.567	0.00849052
722.645	0.00807907
722.723	0.00814278
722.801	0.00797089
722.879	0.00805695
722.957	0.00843658
723.035	0.00884109
723.113	0.00934853
723.192	0.00982994
723.270	0.0106112
723.348	0.0115428
723.426	0.0125246
723.504	0.0136439
723.582	0.0147919
723.660	0.0158151
723.738	0.0168597
723.817	0.0180523
723.895	0.0189925
723.973	0.0198415
724.051	0.0207676
724.129	0.0213585
724.207	0.0217979
724.285	0.0222028
724.363	0.0224030
724.442	0.0223633
724.520	0.0224421
724.598	0.0221416
724.676	0.0220695
724.754	0.0220105
724.832	0.0218683
724.910	0.0218304
724.988	0.0219063
725.067	0.0218430
725.145	0.0220533
725.223	0.0223055
725.301	0.0224807
725.379	0.0228161
725.457	0.0230762
725.535	0.0231481
725.613	0.0232914
725.692	0.0235913
725.770	0.0236385
725.848	0.0235500
725.926	0.0234738
726.004	0.0233443
726.082	0.0230325
726.160	0.0228808
726.238	0.0224686
726.317	0.0220173
726.395	0.0217216
726.473	0.0213357
726.551	0.0208884
726.629	0.0204343
726.707	0.0200707
726.785	0.0194452
726.863	0.0191404
726.942	0.0187701
727.020	0.0182799
727.098	0.0176109
727.176	0.0171026
727.254	0.0167593
727.332	0.0163264
727.410	0.0158614
727.488	0.0153399
727.567	0.0148576
727.645	0.0144427
727.723	0.0140646
727.801	0.0137382
727.879	0.0134269
727.957	0.0131509
728.035	0.0129298
728.113	0.0130132
728.192	0.0126042
728.270	0.0126645
728.348	0.0127271
728.426	0.0128247
728.504	0.0128378
728.582	0.0132094
728.660	0.0133611
728.738	0.0135113
728.817	0.0139905
728.895	0.0143534
728.973	0.0146683
729.051	0.0151540
729.129	0.0153690
729.207	0.0159370
729.285	0.0161984
729.363	0.0165098
729.442	0.0167707
729.520	0.0170171
729.598	0.0169926
729.676	0.0170679
729.754	0.0171727
729.832	0.0171286
729.910	0.0170728
729.988	0.0172325
730.067	0.0173256
730.145	0.0173151
730.223	0.0171450
730.301	0.0174068
730.379	0.0177538
730.457	0.0179086
730.535	0.0181320
730.613	0.0185980
730.692	0.0188726
730.770	0.0193578
730.848	0.0198757
730.926	0.0202102
731.004	0.0206927
731.082	0.0211687
731.160	0.0214526
731.238	0.0217066
731.317	0.0217915
731.395	0.0220828
731.473	0.0222095
731.551	0.0220576
731.629	0.0219466
731.707	0.0220345
731.785	0.0218136
731.863	0.0217407
731.942	0.0215065
732.020	0.0214114
732.098	0.0211549
732.176	0.0211716
732.254	0.0209090
732.332	0.0205079
732.410	0.0202409
732.488	0.0202000
732.567	0.0199236
732.645	0.0196178
732.723	0.0192254
732.801	0.0188653
732.879	0.0187422
732.957	0.0184039
733.035	0.0180711
733.113	0.0177187
733.192	0.0174879
733.270	0.0174038
733.348	0.0171282
733.426	0.0169298
733.504	0.0167834
733.582	0.0166608
733.660	0.0166331
733.738	0.0165208
733.817	0.0163650
733.895	0.0163448
733.973	0.0162830
734.051	0.0164037
734.129	0.0163360
734.207	0.0162704
734.285	0.0163303
734.363	0.0161784
734.442	0.0161393
734.520	0.0162047
734.598	0.0162362
734.676	0.0160009
734.754	0.0160677
734.832	0.0159930
734.910	0.0160870
734.988	0.0157892
735.067	0.0159211
735.145	0.0159427
735.223	0.0158617
735.301	0.0158709
735.379	0.0159982
735.457	0.0160626
735.535	0.0162659
735.613	0.0164555
735.692	0.0164939
735.770	0.0168513
735.848	0.0171233
735.926	0.0172025
736.004	0.0172739
736.082	0.0174889
736.160	0.0175169
736.238	0.0177808
736.317	0.0177600
736.395	0.0177487
736.473	0.0177980
736.551	0.0176042
736.629	0.0177230
736.707	0.0178137
736.785	0.0176262
736.863	0.0178260
736.942	0.0178465
737.020	0.0178405
737.098	0.0179285
737.176	0.0181250
737.254	0.0180670
737.332	0.0181455
737.410	0.0183944
737.488	0.0185760
737.567	0.0186617
737.645	0.0189948
737.723	0.0192171
737.801	0.0192673
737.879	0.0194733
737.957	0.0195636
738.035	0.0195749
738.113	0.0198418
738.192	0.0198267
738.270	0.0196726
738.348	0.0199191
738.426	0.0200533
738.504	0.0199385
738.582	0.0198152
738.660	0.0198732
738.738	0.0197328
738.817	0.0197581
738.895	0.0196134
738.973	0.0195373
739.051	0.0193269
739.129	0.0190879
739.207	0.0189981
739.285	0.0186997
739.363	0.0187331
739.442	0.0185423
739.520	0.0184937
739.598	0.0181003
739.676	0.0181915
739.754	0.0179585
739.832	0.0178108
739.910	0.0179769
739.988	0.0178514
740.067	0.0177917
740.145	0.0176482
740.223	0.0176521
740.301	0.0175848
740.379	0.0175207
740.457	0.0173297
740.535	0.0173876
740.613	0.0171834
740.692	0.0172425
740.770	0.0172650
740.848	0.0172120
740.926	0.0170769
741.004	0.0171896
741.082	0.0171567
741.160	0.0172698
741.238	0.0171615
741.317	0.0174359
741.395	0.0175650
741.473	0.0175640
741.551	0.0176249
741.629	0.0174780
741.707	0.0177052
741.785	0.0174599
741.863	0.0173831
741.942	0.0172095
742.020	0.0170145
742.098	0.0169117
742.176	0.0167316
742.254	0.0165433
742.332	0.0165271
742.410	0.0164890
742.488	0.0165243
742.567	0.0164378
742.645	0.0162804
742.723	0.0165364
742.801	0.0166965
742.879	0.0169103
742.957	0.0169177
743.035	0.0171305
743.113	0.0174281
743.192	0.0173351
743.270	0.0175041
743.348	0.0176092
743.426	0.0175677
743.504	0.0177542
743.582	0.0177638
743.660	0.0177081
743.738	0.0177363
743.817	0.0177213
743.895	0.0177393
743.973	0.0176558
744.051	0.0176992
744.129	0.0179617
744.207	0.0181156
744.285	0.0183342
744.363	0.0183823
744.442	0.0184793
744.520	0.0185001
744.598	0.0187151
744.676	0.0188284
744.754	0.0188469
744.832	0.0187799
744.910	0.0186974
744.988	0.0185992
745.067	0.0185935
745.145	0.0187172
745.223	0.0184876
745.301	0.0184322
745.379	0.0183893
745.457	0.0183732
745.535	0.0185342
745.613	0.0183871
745.692	0.0185535
745.770	0.0185493
745.848	0.0188818
745.926	0.0188206
746.004	0.0190302
746.082	0.0191605
746.160	0.0191666
746.238	0.0192917
746.317	0.0192648
746.395	0.0193452
746.473	0.0193816
746.551	0.0194006
746.629	0.0192815
746.707	0.0193810
746.785	0.0191422
746.863	0.0189509
746.942	0.0187733
747.020	0.0184537
747.098	0.0182700
747.176	0.0180354
747.254	0.0175549
747.332	0.0172832
747.410	0.0170470
747.488	0.0168159
747.567	0.0167115
747.645	0.0165588
747.723	0.0164376
747.801	0.0165266
747.879	0.0166208
747.957	0.0168439
748.035	0.0170710
748.113	0.0172432
748.192	0.0175966
748.270	0.0178001
748.348	0.0181124
748.426	0.0183412
748.504	0.0183405
748.582	0.0185380
748.660	0.0186209
748.738	0.0183924
748.817	0.0183298
748.895	0.0183227
748.973	0.0181509
749.051	0.0177682
749.129	0.0176095
749.207	0.0172852
749.285	0.0171299
749.363	0.0170264
749.442	0.0168797
749.520	0.0167239
749.598	0.0168326
749.676	0.0167653
749.754	0.0167443
749.832	0.0167508
749.910	0.0168463
749.988	0.0167306
750.067	0.0169500
750.145	0.0170252
750.223	0.0170827
750.301	0.0169566
750.379	0.0169965
750.457	0.0170810
750.535	0.0171213
750.613	0.0171687
750.692	0.0170631
750.770	0.0170570
750.848	0.0174586
750.926	0.0175336
751.004	0.0176111
751.082	0.0176994
751.160	0.0181303
751.238	0.0183627
751.317	0.0184952
751.395	0.0188824
751.473	0.0189731
751.551	0.0191085
751.629	0.0191976
751.707	0.0192754
751.785	0.0192887
751.863	0.0191958
751.942	0.0191785
752.020	0.0188540
752.098	0.0187541
752.176	0.0185523
752.254	0.0184771
752.332	0.0182146
752.410	0.0177908
752.488	0.0179297
752.567	0.0178578
752.645	0.0177055
752.723	0.0174537
752.801	0.0174323
752.879	0.0173093
752.957	0.0174331
753.035	0.0174834
753.113	0.0174722
753.192	0.0175336
753.270	0.0175369
753.348	0.0177673
753.426	0.0179462
753.504	0.0181780
753.582	0.0182655
753.660	0.0185614
753.738	0.0187220
753.817	0.0188485
753.895	0.0190784
753.973	0.0192352
754.051	0.0193956
754.129	0.0194391
754.207	0.0193618
754.285	0.0193555
754.363	0.0192403
754.442	0.0193136
754.520	0.0191473
754.598	0.0189355
754.676	0.0186114
754.754	0.0185511
754.832	0.0183195
754.910	0.0181383
754.988	0.0179018
755.067	0.0178240
755.145	0.0175702
755.223	0.0174028
755.301	0.0172289
755.379	0.0170024
755.457	0.0168974
755.535	0.0169124
755.613	0.0167995
755.692	0.0167832
755.770	0.0166425
755.848	0.0167011
755.926	0.0166817
756.004	0.0168361
756.082	0.0168852
756.160	0.0171656
756.238	0.0172466
756.317	0.0175149
756.395	0.0175584
756.473	0.0178992
756.551	0.0180554
756.629	0.0182417
756.707	0.0184836
756.785	0.0185664
756.863	0.0185902
756.942	0.0187298
757.020	0.0187604
757.098	0.0186578
757.176	0.0184107
757.254	0.0182960
757.332	0.0180438
757.410	0.0177457
757.488	0.0175240
757.567	0.0171819
757.645	0.0169236
757.723	0.0166135
757.801	0.0164012
757.879	0.0162124
757.957	0.0160410
758.035	0.0160092
758.113	0.0161310
758.192	0.0160809
758.270	0.0161456
758.348	0.0165583
758.426	0.0166190
758.504	0.0168538
758.582	0.0171440
758.660	0.0172845
758.738	0.0175343
758.817	0.0177194
758.895	0.0179858
758.973	0.0182843
759.051	0.0182063
759.129	0.0185566
759.207	0.0186308
759.285	0.0188147
759.363	0.0189040
759.442	0.0190758
759.520	0.0190526
759.598	0.0191600
759.676	0.0190538
759.754	0.0192240
759.832	0.0190841
759.910	0.0190846
759.988	0.0190015
760.067	0.0189769
760.145	0.0188717
760.223	0.0187932
760.301	0.0187741
760.379	0.0187687
760.457	0.0186939
760.535	0.0185378
760.613	0.0185023
760.692	0.0185120
760.770	0.0184475
760.848	0.0183782
760.926	0.0183202
761.004	0.0183138
761.082	0.0182265
761.160	0.0182393
761.238	0.0181129
761.317	0.0179108
761.395	0.0179958
761.473	0.0178909
761.551	0.0179190
761.629	0.0179063
761.707	0.0180069
761.785	0.0180209
761.863	0.0181493
761.942	0.0181428
762.020	0.0182776
762.098	0.0181690
762.176	0.0181434
762.254	0.0183487
762.332	0.0183400
762.410	0.0184122
762.488	0.0182849
762.567	0.0183333
762.645	0.0181651
762.723	0.0181617
762.801	0.0180170
762.879	0.0180202
762.957	0.0178635
763.035	0.0176017
763.113	0.0174953
763.192	0.0173383
763.270	0.0171540
763.348	0.0171055
763.426	0.0170876
763.504	0.0168392
763.582	0.0169733
763.660	0.0169341
763.738	0.0169753
763.817	0.0168869
763.895	0.0169854
763.973	0.0170822
764.051	0.0169984
764.129	0.0172421
764.207	0.0172281
764.285	0.0172922
764.363	0.0173691
764.442	0.0176138
764.520	0.0177376
764.598	0.0177013
764.676	0.0177218
764.754	0.0178877
764.832	0.0179275
764.910	0.0180817
764.988	0.0181027
765.067	0.0181032
765.145	0.0181758
765.223	0.0181298
765.301	0.0180633
765.379	0.0180592
765.457	0.0179203
765.535	0.0179565
765.613	0.0177005
765.692	0.0177355
765.770	0.0175802
765.848	0.0174585
765.926	0.0172839
766.004	0.0172690
766.082	0.0171063
766.160	0.0170638
766.238	0.0170499
766.317	0.0170947
766.395	0.0170828
766.473	0.0170733
766.551	0.0173135
766.629	0.0173653
766.707	0.0174302
766.785	0.0176955
766.863	0.0178845
766.942	0.0179680
767.020	0.0182854
767.098	0.0184089
767.176	0.0187375
767.254	0.0189849
767.332	0.0191740
767.410	0.0192638
767.488	0.0194723
767.567	0.0196568
767.645	0.0196272
767.723	0.0198377
767.801	0.0194441
767.879	0.0196325
767.957	0.0194977
768.035	0.0190650
768.113	0.0190018
768.192	0.0188844
768.270	0.0185371
768.348	0.0182627
768.426	0.0179788
768.504	0.0177969
768.582	0.0176837
768.660	0.0174693
768.738	0.0173050
768.817	0.0173141
768.895	0.0173480
768.973	0.0172842
769.051	0.0175269
769.129	0.0174899
769.207	0.0177042
769.285	0.0177173
769.363	0.0180234
769.442	0.0182537
769.520	0.0182914
769.598	0.0183106
769.676	0.0183451
769.754	0.0186497
769.832	0.0185187
769.910	0.0184516
769.988	0.0186221
770.067	0.0184784
770.145	0.0184994
770.223	0.0182912
770.301	0.0182240
770.379	0.0182725
770.457	0.0179949
770.535	0.0179387
770.613	0.0178050
770.692	0.0176740
770.770	0.0174591
770.848	0.0172602
770.926	0.0172614
771.004	0.0172159
771.082	0.0171739
771.160	0.0169841
771.238	0.0168475
771.317	0.0167580
771.395	0.0166988
771.473	0.0166399
771.551	0.0167773
771.629	0.0166363
771.707	0.0164594
771.785	0.0165086
771.863	0.0167151
771.942	0.0166936
772.020	0.0167441
772.098	0.0167844
772.176	0.0170258
772.254	0.0172459
772.332	0.0174525
772.410	0.0177157
772.488	0.0177176
772.567	0.0179689
772.645	0.0181696
772.723	0.0183794
772.801	0.0184854
772.879	0.0185111
772.957	0.0184869
773.035	0.0185803
773.113	0.0186006
773.192	0.0186308
773.270	0.0185400
773.348	0.0185533
773.426	0.0185929
773.504	0.0184920
773.582	0.0183035
773.660	0.0182285
773.738	0.0179393
773.817	0.0177698
773.895	0.0177747
773.973	0.0176417
774.051	0.0174578
774.129	0.0174287
774.207	0.0173621
774.285	0.0171531
774.363	0.0172507
774.442	0.0173061
774.520	0.0175063
774.598	0.0175549
774.676	0.0177879
774.754	0.0179814
774.832	0.0182058
774.910	0.0184106
774.988	0.0185690
775.067	0.0188687
775.145	0.0191727
775.223	0.0192753
775.301	0.0191827
775.379	0.0194335
775.457	0.0194308
775.535	0.0193979
775.613	0.0193385
775.692	0.0193095
775.770	0.0192601
775.848	0.0191286
775.926	0.0190247
776.004	0.0188464
776.082	0.0187784
776.160	0.0185664
776.238	0.0183558
776.317	0.0181769
776.395	0.0180838
776.473	0.0177982
776.551	0.0175727
776.629	0.0174466
776.707	0.0174089
776.785	0.0172003
776.863	0.0170116
776.942	0.0170959
777.020	0.0169942
777.098	0.0168716
777.176	0.0167977
777.254	0.0167838
777.332	0.0168702
777.410	0.0168534
777.488	0.0171321
777.567	0.0173463
777.645	0.0173862
777.723	0.0175580
777.801	0.0176472
777.879	0.0179071
777.957	0.0179205
778.035	0.0182270
778.113	0.0182523
778.192	0.0183636
778.270	0.0185170
778.348	0.0186002
778.426	0.0185920
778.504	0.0185706
778.582	0.0184572
778.660	0.0184425
778.738	0.0182967
778.817	0.0181755
778.895	0.0181469
778.973	0.0179333
779.051	0.0176224
779.129	0.0175769
779.207	0.0173853
779.285	0.0172822
779.363	0.0173104
779.442	0.0170809
779.520	0.0170099
779.598	0.0170370
779.676	0.0168143
779.754	0.0169520
779.832	0.0168015
779.910	0.0168423
779.988	0.0168152
780.067	0.0168607
780.145	0.0168005
780.223	0.0168977
780.301	0.0169669
780.379	0.0171928
780.457	0.0172457
780.535	0.0173009
780.613	0.0174826
780.692	0.0175765
780.770	0.0179143
780.848	0.0178849
780.926	0.0181916
781.004	0.0182594
781.082	0.0184641
781.160	0.0186813
781.238	0.0186073
781.317	0.0186704
781.395	0.0188774
781.473	0.0188020
781.551	0.0188177
781.629	0.0186778
781.707	0.0189751
781.785	0.0189217
781.863	0.0189139
781.942	0.0187269
782.020	0.0188297
782.098	0.0186369
782.176	0.0186140
782.254	0.0183709
782.332	0.0184377
782.410	0.0182812
782.488	0.0180951
782.567	0.0179192
782.645	0.0178794
782.723	0.0178011
782.801	0.0176248
782.879	0.0177897
782.957	0.0177956
783.035	0.0178516
783.113	0.0179636
783.192	0.0178023
783.270	0.0178107
783.348	0.0180913
783.426	0.0180315
783.504	0.0181586
783.582	0.0182260
783.660	0.0183680
783.738	0.0184679
783.817	0.0185628
783.895	0.0186855
783.973	0.0186907
784.051	0.0185655
784.129	0.0185310
784.207	0.0185000
784.285	0.0184492
784.363	0.0183639
784.442	0.0183189
784.520	0.0182582
784.598	0.0181432
784.676	0.0179662
784.754	0.0178811
784.832	0.0178854
784.910	0.0178606
784.988	0.0177106
785.067	0.0174417
785.145	0.0173361
785.223	0.0173192
785.301	0.0173253
785.379	0.0172017
785.457	0.0170812
785.535	0.0170674
785.613	0.0170110
785.692	0.0170592
785.770	0.0170163
785.848	0.0169532
785.926	0.0171307
786.004	0.0171127
786.082	0.0170895
786.160	0.0171445
786.238	0.0172186
786.317	0.0173417
786.395	0.0174842
786.473	0.0174270
786.551	0.0175391
786.629	0.0177068
786.707	0.0178437
786.785	0.0179208
786.863	0.0178362
786.942	0.0179578
787.020	0.0180257
787.098	0.0181557
787.176	0.0182404
787.254	0.0182804
787.332	0.0182239
787.410	0.0184059
787.488	0.0184323
787.567	0.0183990
787.645	0.0183691
787.723	0.0183208
787.801	0.0183047
787.879	0.0183440
787.957	0.0180992
788.035	0.0180219
788.113	0.0179837
788.192	0.0176241
788.270	0.0177792
788.348	0.0177276
788.426	0.0174488
788.504	0.0174512
788.582	0.0174069
788.660	0.0173991
788.738	0.0173380
788.817	0.0173753
788.895	0.0175826
788.973	0.0175542
789.051	0.0175038
789.129	0.0176447
789.207	0.0178458
789.285	0.0179479
789.363	0.0180630
789.442	0.0181417
789.520	0.0182377
789.598	0.0183401
789.676	0.0182983
789.754	0.0185131
789.832	0.0185733
789.910	0.0185575
789.988	0.0185376
790.067	0.0185501
790.145	0.0184814
790.223	0.0184866
790.301	0.0184934
790.379	0.0185391
790.457	0.0185140
790.535	0.0183363
790.613	0.0183857
790.692	0.0183014
790.770	0.0183648
790.848	0.0184525
790.926	0.0181963
791.004	0.0180865
791.082	0.0180374
791.160	0.0179794
791.238	0.0180427
791.317	0.0181644
791.395	0.0180405
791.473	0.0179578
791.551	0.0178957
791.629	0.0178583
791.707	0.0179379
791.785	0.0179856
791.863	0.0178896
791.942	0.0180020
792.020	0.0180297
792.098	0.0180705
792.176	0.0181921
792.254	0.0181905
792.332	0.0182010
792.410	0.0184197
792.488	0.0184476
792.567	0.0184753
792.645	0.0183150
792.723	0.0183160
792.801	0.0183210
792.879	0.0182868
792.957	0.0181229
793.035	0.0180446
793.113	0.0179392
793.192	0.0178149
793.270	0.0175594
793.348	0.0175877
793.426	0.0173009
793.504	0.0171719
793.582	0.0172253
793.660	0.0170374
793.738	0.0168361
793.817	0.0168367
793.895	0.0167142
793.973	0.0167556
794.051	0.0167860
794.129	0.0168127
794.207	0.0168355
794.285	0.0170594
794.363	0.0170648
794.442	0.0170987
794.520	0.0173576
794.598	0.0175356
794.676	0.0177349
794.754	0.0179559
794.832	0.0180524
794.910	0.0182062
794.988	0.0183214
795.067	0.0184139
795.145	0.0186414
795.223	0.0186119
795.301	0.0188190
795.379	0.0189253
795.457	0.0189290
795.535	0.0190473
795.613	0.0188260
795.692	0.0188844
795.770	0.0188731
795.848	0.0187577
795.926	0.0189112
796.004	0.0186127
796.082	0.0187127
796.160	0.0186922
796.238	0.0184068
796.317	0.0182870
796.395	0.0182255
796.473	0.0180708
796.551	0.0180368
796.629	0.0178200
796.707	0.0176900
796.785	0.0174945
796.863	0.0174106
796.942	0.0172237
797.020	0.0170125
797.098	0.0168633
797.176	0.0168140
797.254	0.0168407
797.332	0.0167355
797.410	0.0167045
797.488	0.0167318
797.567	0.0168407
797.645	0.0169481
797.723	0.0170125
797.801	0.0171210
797.879	0.0173113
797.957	0.0174847
798.035	0.0175676
798.113	0.0179057
798.192	0.0183380
798.270	0.0184675
798.348	0.0185587
798.426	0.0187674
798.504	0.0189357
798.582	0.0189272
798.660	0.0191244
798.738	0.0190792
798.817	0.0190899
798.895	0.0190726
798.973	0.0191490
799.051	0.0190732
799.129	0.0188806
799.207	0.0188185
799.285	0.0187300
799.363	0.0186820
799.442	0.0185329
799.520	0.0184313
799.598	0.0183366
799.676	0.0182344
799.754	0.0181936
799.832	0.0181293
799.910	0.0181268
799.988	0.0181041
800.067	0.0181075
800.145	0.0181623
800.223	0.0182355
800.301	0.0182345
800.379	0.0181878
800.457	0.0183270
800.535	0.0183982
800.613	0.0184069
800.692	0.0184467
800.770	0.0185681
800.848	0.0185884
800.926	0.0184660
801.004	0.0184262
801.082	0.0184543
801.160	0.0182387
801.238	0.0182590
801.317	0.0181395
801.395	0.0181078
801.473	0.0179813
801.551	0.0178644
801.629	0.0177597
801.707	0.0177013
801.785	0.0173759
801.863	0.0173008
801.942	0.0171502
802.020	0.0169027
802.098	0.0168358
802.176	0.0164443
802.254	0.0163791
802.332	0.0161774
802.410	0.0160709
802.488	0.0160038
802.567	0.0158170
802.645	0.0157973
802.723	0.0158218
802.801	0.0157582
802.879	0.0156919
802.957	0.0160622
803.035	0.0160059
803.113	0.0162132
803.192	0.0164542
803.270	0.0166523
803.348	0.0168588
803.426	0.0172191
803.504	0.0172520
803.582	0.0175681
803.660	0.0179347
803.738	0.0181860
803.817	0.0183559
803.895	0.0186650
803.973	0.0187974
804.051	0.0190208
804.129	0.0192309
804.207	0.0190381
804.285	0.0193216
804.363	0.0193665
804.442	0.0193425
804.520	0.0194720
804.598	0.0194322
804.676	0.0193672
804.754	0.0194877
804.832	0.0193256
804.910	0.0193677
804.988	0.0192939
805.067	0.0193911
805.145	0.0192902
805.223	0.0191134
805.301	0.0192332
805.379	0.0189863
805.457	0.0190617
805.535	0.0191035
805.613	0.0189693
805.692	0.0188815
805.770	0.0187589
805.848	0.0187267
805.926	0.0186158
806.004	0.0185610
806.082	0.0187289
806.160	0.0186554
806.238	0.0185764
806.317	0.0186820
806.395	0.0186519
806.473	0.0185877
806.551	0.0186627
806.629	0.0186675
806.707	0.0185778
806.785	0.0185865
806.863	0.0182755
806.942	0.0183044
807.020	0.0182402
807.098	0.0180760
807.176	0.0178327
807.254	0.0176080
807.332	0.0174612
807.410	0.0173615
807.488	0.0171621
807.567	0.0168179
807.645	0.0164930
807.723	0.0164052
807.801	0.0161259
807.879	0.0160659
807.957	0.0158006
808.035	0.0157597
808.113	0.0155634
808.192	0.0156614
808.270	0.0153204
808.348	0.0152823
808.426	0.0154937
808.504	0.0156420
808.582	0.0157144
808.660	0.0158596
808.738	0.0160305
808.817	0.0163786
808.895	0.0166315
808.973	0.0167410
809.051	0.0170213
809.129	0.0173306
809.207	0.0175930
809.285	0.0180984
809.363	0.0181080
809.442	0.0185730
809.520	0.0187377
809.598	0.0187943
809.676	0.0189052
809.754	0.0189069
809.832	0.0191013
809.910	0.0193100
809.988	0.0193277
810.067	0.0193279
810.145	0.0194618
810.223	0.0194009
810.301	0.0194542
810.379	0.0195846
810.457	0.0196585
810.535	0.0195566
810.613	0.0194988
810.692	0.0195410
810.770	0.0193848
810.848	0.0193447
810.926	0.0194162
811.004	0.0193002
811.082	0.0191183
811.160	0.0190999
811.238	0.0189452
811.317	0.0188671
811.395	0.0186245
811.473	0.0187955
811.551	0.0185001
811.629	0.0182932
811.707	0.0182687
811.785	0.0181498
811.863	0.0179729
811.942	0.0179858
812.020	0.0178647
812.098	0.0177940
812.176	0.0176540
812.254	0.0176622
812.332	0.0176919
812.410	0.0175046
812.488	0.0174787
812.567	0.0173946
812.645	0.0173098
812.723	0.0172330
812.801	0.0171748
812.879	0.0170244
812.957	0.0170776
813.035	0.0169276
813.113	0.0167204
813.192	0.0166653
813.270	0.0166480
813.348	0.0166236
813.426	0.0164490
813.504	0.0163744
813.582	0.0163957
813.660	0.0165818
813.738	0.0164931
813.817	0.0164596
813.895	0.0165791
813.973	0.0166833
814.051	0.0165421
814.129	0.0167602
814.207	0.0169812
814.285	0.0171208
814.363	0.0173335
814.442	0.0174986
814.520	0.0177937
814.598	0.0178473
814.676	0.0180145
814.754	0.0182324
814.832	0.0184673
814.910	0.0186664
814.988	0.0186185
815.067	0.0188287
815.145	0.0188549
815.223	0.0189013
815.301	0.0190597
815.379	0.0189743
815.457	0.0190457
815.535	0.0192577
815.613	0.0191206
815.692	0.0190385
815.770	0.0190588
815.848	0.0191056
815.926	0.0191943
816.004	0.0190118
816.082	0.0190380
816.160	0.0190226
816.238	0.0190959
816.317	0.0190274
816.395	0.0189651
816.473	0.0188628
816.551	0.0190211
816.629	0.0189122
816.707	0.0189304
816.785	0.0188342
816.863	0.0187070
816.942	0.0184526
817.020	0.0185526
817.098	0.0185580
817.176	0.0183694
817.254	0.0182000
817.332	0.0178983
817.410	0.0179012
817.488	0.0179191
817.567	0.0178040
817.645	0.0176540
817.723	0.0176089
817.801	0.0175119
817.879	0.0173852
817.957	0.0171824
818.035	0.0172832
818.113	0.0171170
818.192	0.0169497
818.270	0.0170306
818.348	0.0168855
818.426	0.0168043
818.504	0.0167818
818.582	0.0167576
818.660	0.0167165
818.738	0.0166559
818.817	0.0166078
818.895	0.0165391
818.973	0.0165637
819.051	0.0165488
819.129	0.0165734
819.207	0.0168458
819.285	0.0166418
819.363	0.0166914
819.442	0.0167477
819.520	0.0167591
819.598	0.0168612
819.676	0.0169579
819.754	0.0170541
819.832	0.0170683
819.910	0.0171580
819.988	0.0172694
820.067	0.0173363
820.145	0.0174310
820.223	0.0175552
820.301	0.0177618
820.379	0.0179628
820.457	0.0180741
820.535	0.0181085
820.613	0.0183496
820.692	0.0185478
820.770	0.0187029
820.848	0.0188445
820.926	0.0188899
821.004	0.0190070
821.082	0.0191619
821.160	0.0192558
821.238	0.0192435
821.317	0.0193796
821.395	0.0194035
821.473	0.0193073
821.551	0.0194194
821.629	0.0195812
821.707	0.0194636
821.785	0.0193730
821.863	0.0193768
821.942	0.0193797
822.020	0.0194162
822.098	0.0193623
822.176	0.0192808
822.254	0.0189464
822.332	0.0190347
822.410	0.0188762
822.488	0.0189390
822.567	0.0187796
822.645	0.0186031
822.723	0.0185078
822.801	0.0183751
822.879	0.0182100
822.957	0.0180270
823.035	0.0180099
823.113	0.0177676
823.192	0.0176518
823.270	0.0175848
823.348	0.0175361
823.426	0.0173369
823.504	0.0172467
823.582	0.0170690
823.660	0.0172177
823.738	0.0171381
823.817	0.0169688
823.895	0.0170060
823.973	0.0170353
824.051	0.0170052
824.129	0.0171160
824.207	0.0169814
824.285	0.0171015
824.363	0.0170551
824.442	0.0172016
824.520	0.0170518
824.598	0.0170965
824.676	0.0172072
824.754	0.0172894
824.832	0.0173357
824.910	0.0173790
824.988	0.0174164
825.067	0.0174214
825.145	0.0173337
825.223	0.0175077
825.301	0.0174342
825.379	0.0173448
825.457	0.0175365
825.535	0.0174028
825.613	0.0174902
825.692	0.0174619
825.770	0.0175211
825.848	0.0174566
825.926	0.0175011
826.004	0.0175283
826.082	0.0175300
826.160	0.0176078
826.238	0.0176048
826.317	0.0176568
826.395	0.0177756
826.473	0.0178254
826.551	0.0178815
826.629	0.0181079
826.707	0.0179690
826.785	0.0182198
826.863	0.0183050
826.942	0.0182076
827.020	0.0184481
827.098	0.0185191
827.176	0.0183810
827.254	0.0184823
827.332	0.0186311
827.410	0.0186263
827.488	0.0185899
827.567	0.0186098
827.645	0.0186166
827.723	0.0187823
827.801	0.0187576
827.879	0.0186710
827.957	0.0187046
828.035	0.0186784
828.113	0.0186703
828.192	0.0186272
828.270	0.0186347
828.348	0.0186209
828.426	0.0185265
828.504	0.0185846
828.582	0.0184568
828.660	0.0184886
828.738	0.0184212
828.817	0.0182940
828.895	0.0183327
828.973	0.0181981
829.051	0.0183175
829.129	0.0181266
829.207	0.0179832
829.285	0.0180216
829.363	0.0180505
829.442	0.0180257
829.520	0.0178426
829.598	0.0179554
829.676	0.0179089
829.754	0.0177679
829.832	0.0178947
829.910	0.0179424
829.988	0.0177833
830.067	0.0179311
830.145	0.0178328
830.223	0.0179154
830.301	0.0179689
830.379	0.0179138
830.457	0.0179514
830.535	0.0179397
830.613	0.0178161
830.692	0.0178084
830.770	0.0177494
830.848	0.0177171
830.926	0.0176963
831.004	0.0175608
831.082	0.0175506
831.160	0.0175477
831.238	0.0176251
831.317	0.0174072
831.395	0.0173380
831.473	0.0172475
831.551	0.0174857
831.629	0.0174272
831.707	0.0174568
831.785	0.0174773
831.863	0.0174342
831.942	0.0174872
832.020	0.0175113
832.098	0.0174590
832.176	0.0176638
832.254	0.0176292
832.332	0.0175127
832.410	0.0175789
832.488	0.0178014
832.567	0.0177782
832.645	0.0177796
832.723	0.0178440
832.801	0.0177926
832.879	0.0178642
832.957	0.0179039
833.035	0.0177969
833.113	0.0179863
833.192	0.0179618
833.270	0.0179950
833.348	0.0179345
833.426	0.0179534
833.504	0.0179994
833.582	0.0180290
833.660	0.0181728
833.738	0.0180171
833.817	0.0180869
833.895	0.0180980
833.973	0.0181470
834.051	0.0180807
834.129	0.0181744
834.207	0.0181046
834.285	0.0182021
834.363	0.0183008
834.442	0.0181463
834.520	0.0181494
834.598	0.0180242
834.676	0.0181001
834.754	0.0181018
834.832	0.0180912
834.910	0.0180117
834.988	0.0181448
835.067	0.0179571
835.145	0.0179445
835.223	0.0181556
835.301	0.0179412
835.379	0.0180611
835.457	0.0180773
835.535	0.0178262
835.613	0.0180355
835.692	0.0180061
835.770	0.0180620
835.848	0.0180898
835.926	0.0181609
836.004	0.0181272
836.082	0.0180679
836.160	0.0183446
836.238	0.0183456
836.317	0.0183222
836.395	0.0183583
836.473	0.0184197
836.551	0.0182702
836.629	0.0184035
836.707	0.0183430
836.785	0.0181503
836.863	0.0183852
836.942	0.0184195
837.020	0.0182063
837.098	0.0181477
837.176	0.0181256
837.254	0.0179496
837.332	0.0180700
837.410	0.0179829
837.488	0.0179544
837.567	0.0178170
837.645	0.0177783
837.723	0.0177426
837.801	0.0176298
837.879	0.0175775
837.957	0.0175834
838.035	0.0176513
838.113	0.0174612
838.192	0.0172984
838.270	0.0173548
838.348	0.0173827
838.426	0.0173792
838.504	0.0173238
838.582	0.0172358
838.660	0.0172313
838.738	0.0173922
838.817	0.0172849
838.895	0.0173215
838.973	0.0172300
839.051	0.0174692
839.129	0.0175880
839.207	0.0174642
839.285	0.0176046
839.363	0.0176086
839.442	0.0177792
839.520	0.0176729
839.598	0.0177731
839.676	0.0177836
839.754	0.0177996
839.832	0.0178424
839.910	0.0179575
839.988	0.0181151
840.067	0.0180273
840.145	0.0181593
840.223	0.0181490
840.301	0.0181010
840.379	0.0182438
840.457	0.0181660
840.535	0.0179994
840.613	0.0181156
840.692	0.0180820
840.770	0.0181106
840.848	0.0181945
840.926	0.0181347
841.004	0.0183832
841.082	0.0182873
841.160	0.0182393
841.238	0.0182876
841.317	0.0184373
841.395	0.0183457
841.473	0.0183447
841.551	0.0182880
841.629	0.0184298
841.707	0.0184537
841.785	0.0184587
841.863	0.0183199
841.942	0.0184396
842.020	0.0183054
842.098	0.0184002
842.176	0.0184529
842.254	0.0184185
842.332	0.0181846
842.410	0.0183131
842.488	0.0183981
842.567	0.0182291
842.645	0.0182440
842.723	0.0181658
842.801	0.0182123
842.879	0.0181131
842.957	0.0180562
843.035	0.0179402
843.113	0.0179401
843.192	0.0177430
843.270	0.0176925
843.348	0.0174920
843.426	0.0174821
843.504	0.0174628
843.582	0.0173153
843.660	0.0172775
843.738	0.0172855
843.817	0.0171782
843.895	0.0170842
843.973	0.0170692
844.051	0.0172165
844.129	0.0171938
844.207	0.0173165
844.285	0.0174252
844.363	0.0174146
844.442	0.0173520
844.520	0.0175800
844.598	0.0175353
844.676	0.0177194
844.754	0.0177812
844.832	0.0179403
844.910	0.0179261
844.988	0.0181114
845.067	0.0181282
845.145	0.0182098
845.223	0.0182053
845.301	0.0182137
845.379	0.0183316
845.457	0.0183703
845.535	0.0185144
845.613	0.0184526
845.692	0.0183759
845.770	0.0183528
845.848	0.0182985
845.926	0.0182484
846.004	0.0182436
846.082	0.0180417
846.160	0.0182011
846.238	0.0182959
846.317	0.0180285
846.395	0.0180370
846.473	0.0180157
846.551	0.0178938
846.629	0.0178151
846.707	0.0178931
846.785	0.0178684
846.863	0.0177462
846.942	0.0178549
847.020	0.0179987
847.098	0.0179292
847.176	0.0179996
847.254	0.0179728
847.332	0.0179672
847.410	0.0179803
847.488	0.0180962
847.567	0.0181451
847.645	0.0180576
847.723	0.0181161
847.801	0.0181664
847.879	0.0183301
847.957	0.0182555
848.035	0.0181840
848.113	0.0181966
848.192	0.0182393
848.270	0.0181300
848.348	0.0181787
848.426	0.0181382
848.504	0.0179761
848.582	0.0179855
848.660	0.0178508
848.738	0.0178802
848.817	0.0177774
848.895	0.0176968
848.973	0.0174796
849.051	0.0175171
849.129	0.0174007
849.207	0.0174152
849.285	0.0173874
849.363	0.0174490
849.442	0.0173719
849.520	0.0172148
849.598	0.0172070
849.676	0.0172351
849.754	0.0174415
849.832	0.0173629
849.910	0.0173354
849.988	0.0174849
850.067	0.0176590
850.145	0.0176761
850.223	0.0176194
850.301	0.0177242
850.379	0.0178463
850.457	0.0179795
850.535	0.0178718
850.613	0.0179191
850.692	0.0180202
850.770	0.0181032
850.848	0.0181554
850.926	0.0182202
851.004	0.0181239
851.082	0.0181695
851.160	0.0181905
851.238	0.0182381
851.317	0.0183044
851.395	0.0181369
851.473	0.0182750
851.551	0.0180449
851.629	0.0182996
851.707	0.0182668
851.785	0.0181974
851.863	0.0181422
851.942	0.0181421
852.020	0.0181660
852.098	0.0181018
852.176	0.0181013
852.254	0.0182837
852.332	0.0180941
852.410	0.0181651
852.488	0.0181242
852.567	0.0181717
852.645	0.0181490
852.723	0.0181149
852.801	0.0181029
852.879	0.0182377
852.957	0.0182234
853.035	0.0181210
853.113	0.0182370
853.192	0.0180424
853.270	0.0181380
853.348	0.0181767
853.426	0.0182448
853.504	0.0180984
853.582	0.0181744
853.660	0.0180067
853.738	0.0179805
853.817	0.0180352
853.895	0.0179811
853.973	0.0177485
854.051	0.0178006
854.129	0.0177158
854.207	0.0176163
854.285	0.0176305
854.363	0.0175001
854.442	0.0174472
854.520	0.0173782
854.598	0.0173576
854.676	0.0172572
854.754	0.0171691
854.832	0.0171969
854.910	0.0172059
854.988	0.0172902
855.067	0.0171927
855.145	0.0172534
855.223	0.0172593
855.301	0.0172420
855.379	0.0173484
855.457	0.0174502
855.535	0.0176489
855.613	0.0175799
855.692	0.0175939
855.770	0.0178415
855.848	0.0177726
855.926	0.0178844
856.004	0.0179968
856.082	0.0180734
856.160	0.0180418
856.238	0.0183585
856.317	0.0182203
856.395	0.0182132
856.473	0.0181710
856.551	0.0182746
856.629	0.0183896
856.707	0.0184990
856.785	0.0184871
856.863	0.0182870
856.942	0.0183468
857.020	0.0183292
857.098	0.0184181
857.176	0.0183051
857.254	0.0183979
857.332	0.0183303
857.410	0.0183915
857.488	0.0182595
857.567	0.0183285
857.645	0.0182597
857.723	0.0182791
857.801	0.0181123
857.879	0.0180471
857.957	0.0181780
858.035	0.0182256
858.113	0.0181705
858.192	0.0180126
858.270	0.0180023
858.348	0.0180525
858.426	0.0181422
858.504	0.0181384
858.582	0.0180299
858.660	0.0181996
858.738	0.0181181
858.817	0.0179771
858.895	0.0178671
858.973	0.0180145
859.051	0.0178061
859.129	0.0177757
859.207	0.0177374
859.285	0.0177702
859.363	0.0177345
859.442	0.0176328
859.520	0.0177732
859.598	0.0175984
859.676	0.0175306
859.754	0.0175684
859.832	0.0175622
859.910	0.0174754
859.988	0.0175237
860.067	0.0175225
860.145	0.0175694
860.223	0.0175081
860.301	0.0176177
860.379	0.0176357
860.457	0.0176665
860.535	0.0177460
860.613	0.0176958
860.692	0.0176620
860.770	0.0177451
860.848	0.0176124
860.926	0.0176954
861.004	0.0177138
861.082	0.0175637
861.160	0.0177187
861.238	0.0177538
861.317	0.0177063
861.395	0.0177682
861.473	0.0177810
861.551	0.0176871
861.629	0.0178518
861.707	0.0179308
861.785	0.0179716
861.863	0.0179392
861.942	0.0179583
862.020	0.0181514
862.098	0.0181187
862.176	0.0180942
862.254	0.0179840
862.332	0.0180708
862.410	0.0182418
862.488	0.0180739
862.567	0.0180445
862.645	0.0181059
862.723	0.0181606
862.801	0.0183005
862.879	0.0181606
862.957	0.0180828
863.035	0.0181396
863.113	0.0181373
863.192	0.0182085
863.270	0.0182231
863.348	0.0182046
863.426	0.0182114
863.504	0.0181670
863.582	0.0183571
863.660	0.0185199
863.738	0.0182485
863.817	0.0182800
863.895	0.0182143
863.973	0.0182890
864.051	0.0182026
864.129	0.0182200
864.207	0.0181211
864.285	0.0181973
864.363	0.0182346
864.442	0.0182148
864.520	0.0181783
864.598	0.0181670
864.676	0.0180467
864.754	0.0179563
864.832	0.0180529
864.910	0.0181201
864.988	0.0180850
865.067	0.0180402
865.145	0.0179050
865.223	0.0177817
865.301	0.0178327
865.379	0.0177752
865.457	0.0177490
865.535	0.0178760
865.613	0.0177029
865.692	0.0176746
865.770	0.0175649
865.848	0.0175036
865.926	0.0174419
866.004	0.0175394
866.082	0.0174699
866.160	0.0174579
866.238	0.0174538
866.317	0.0174077
866.395	0.0175529
866.473	0.0175864
866.551	0.0175488
866.629	0.0175468
866.707	0.0175715
866.785	0.0177250
866.863	0.0175849
866.942	0.0177123
867.020	0.0175647
867.098	0.0177435
867.176	0.0177605
867.254	0.0177905
867.332	0.0178858
867.410	0.0179517
867.488	0.0178541
867.567	0.0179759
867.645	0.0179295
867.723	0.0181062
867.801	0.0180437
867.879	0.0180280
867.957	0.0181294
868.035	0.0181261
868.113	0.0181422
868.192	0.0180835
868.270	0.0181855
868.348	0.0181628
868.426	0.0180276
868.504	0.0181287
868.582	0.0181931
868.660	0.0180664
868.738	0.0181421
868.817	0.0182053
868.895	0.0181211
868.973	0.0180567
869.051	0.0180022
869.129	0.0181190
869.207	0.0180997
869.285	0.0182048
869.363	0.0181904
869.442	0.0180939
869.520	0.0181915
869.598	0.0181233
869.676	0.0181609
869.754	0.0181255
869.832	0.0181792
869.910	0.0182693
869.988	0.0182426
870.067	0.0180547
870.145	0.0179758
870.223	0.0180894
870.301	0.0180503
870.379	0.0181248
870.457	0.0180514
870.535	0.0179768
870.613	0.0181178
870.692	0.0180013
870.770	0.0180661
870.848	0.0178342
870.926	0.0178072
871.004	0.0179054
871.082	0.0178918
871.160	0.0178210
871.238	0.0176481
871.317	0.0176705
871.395	0.0176736
871.473	0.0176035
871.551	0.0176540
871.629	0.0176456
871.707	0.0175030
871.785	0.0174881
871.863	0.0175903
871.942	0.0175222
872.020	0.0174450
872.098	0.0175893
872.176	0.0174725
872.254	0.0176188
872.332	0.0175729
872.410	0.0176774
872.488	0.0178759
872.567	0.0177566
872.645	0.0178987
872.723	0.0178481
872.801	0.0179250
872.879	0.0178596
872.957	0.0179895
873.035	0.0181099
873.113	0.0179153
873.192	0.0181388
873.270	0.0181433
873.348	0.0181738
873.426	0.0181152
873.504	0.0180670
873.582	0.0181906
873.660	0.0182758
873.738	0.0181390
873.817	0.0179485
873.895	0.0180788
873.973	0.0180632
874.051	0.0179533
874.129	0.0179671
874.207	0.0180373
874.285	0.0179700
874.363	0.0179624
874.442	0.0180019
874.520	0.0180709
874.598	0.0180253
874.676	0.0180585
874.754	0.0180225
874.832	0.0180478
874.910	0.0183969
874.988	0.0182130
875.067	0.0181718
875.145	0.0182198
875.223	0.0181462
875.301	0.0180970
875.379	0.0181451
875.457	0.0181605
875.535	0.0180929
875.613	0.0180497
875.692	0.0179840
875.770	0.0180704
875.848	0.0178004
875.926	0.0178844
876.004	0.0179468
876.082	0.0180236
876.160	0.0178208
876.238	0.0178103
876.317	0.0177185
876.395	0.0177637
876.473	0.0177354
876.551	0.0178048
876.629	0.0177664
876.707	0.0178317
876.785	0.0176793
876.863	0.0177323
876.942	0.0176902
877.020	0.0176246
877.098	0.0176630
877.176	0.0175940
877.254	0.0175598
877.332	0.0175773
877.410	0.0177338
877.488	0.0176792
877.567	0.0176711
877.645	0.0176621
877.723	0.0177064
877.801	0.0177366
877.879	0.0177384
877.957	0.0177104
878.035	0.0176413
878.113	0.0177872
878.192	0.0177741
878.270	0.0178202
878.348	0.0177567
878.426	0.0179566
878.504	0.0179296
878.582	0.0179320
878.660	0.0180861
878.738	0.0181077
878.817	0.0180112
878.895	0.0182439
878.973	0.0181467
879.051	0.0181831
879.129	0.0181886
879.207	0.0181276
879.285	0.0181682
879.363	0.0183034
879.442	0.0182410
879.520	0.0181895
879.598	0.0181276
879.676	0.0182722
879.754	0.0182410
879.832	0.0182084
879.910	0.0180499
879.988	0.0181060
880.067	0.0180560
880.145	0.0180451
880.223	0.0180392
880.301	0.0180414
880.379	0.0180643
880.457	0.0180297
880.535	0.0180589
880.613	0.0180315
880.692	0.0179438
880.770	0.0179415
880.848	0.0178529
880.926	0.0180595
881.004	0.0181030
881.082	0.0180177
881.160	0.0180549
881.238	0.0180714
881.317	0.0180058
881.395	0.0179053
881.473	0.0181909
881.551	0.0180648
881.629	0.0181728
881.707	0.0178848
881.785	0.0180225
881.863	0.0179448
881.942	0.0177816
882.020	0.0177508
882.098	0.0178145
882.176	0.0178373
882.254	0.0177470
882.332	0.0176139
882.410	0.0177133
882.488	0.0177223
882.567	0.0177622
882.645	0.0176868
882.723	0.0177151
882.801	0.0177818
882.879	0.0176701
882.957	0.0177592
883.035	0.0176939
883.113	0.0176203
883.192	0.0176771
883.270	0.0176546
883.348	0.0176970
883.426	0.0175662
883.504	0.0176523
883.582	0.0177997
883.660	0.0178915
883.738	0.0178163
883.817	0.0177081
883.895	0.0177741
883.973	0.0176763
884.051	0.0177811
884.129	0.0179509
884.207	0.0179360
884.285	0.0178967
884.363	0.0179599
884.442	0.0179652
884.520	0.0180195
884.598	0.0180731
884.676	0.0180278
884.754	0.0179297
884.832	0.0181036
884.910	0.0179922
884.988	0.0180701
885.067	0.0179724
885.145	0.0179587
885.223	0.0179140
885.301	0.0177747
885.379	0.0179615
885.457	0.0179625
885.535	0.0180048
885.613	0.0180371
885.692	0.0179015
885.770	0.0180761
885.848	0.0180897
885.926	0.0180457
886.004	0.0182380
886.082	0.0180676
886.160	0.0182256
886.238	0.0181847
886.317	0.0181921
886.395	0.0182506
886.473	0.0182851
886.551	0.0182211
886.629	0.0182577
886.707	0.0182426
886.785	0.0182015
886.863	0.0181899
886.942	0.0181879
887.020	0.0182629
887.098	0.0182811
887.176	0.0181283
887.254	0.0181932
887.332	0.0181596
887.410	0.0180342
887.488	0.0179442
887.567	0.0178941
887.645	0.0178974
887.723	0.0176974
887.801	0.0178040
887.879	0.0176787
887.957	0.0177280
888.035	0.0177840
888.113	0.0176799
888.192	0.0176499
888.270	0.0175369
888.348	0.0176649
888.426	0.0176953
888.504	0.0176803
888.582	0.0177026
888.660	0.0176385
888.738	0.0178291
888.817	0.0177300
888.895	0.0177453
888.973	0.0177313
889.051	0.0177354
889.129	0.0179444
889.207	0.0178452
889.285	0.0178358
889.363	0.0179319
889.442	0.0179028
889.520	0.0181322
889.598	0.0181310
889.676	0.0180289
889.754	0.0181445
889.832	0.0181120
889.910	0.0182355
889.988	0.0183815
890.067	0.0183771
890.145	0.0184267
890.223	0.0184251
890.301	0.0184029
890.379	0.0183356
890.457	0.0183817
890.535	0.0184378
890.613	0.0182580
890.692	0.0182103
890.770	0.0181981
890.848	0.0181985
890.926	0.0180650
891.004	0.0180782
891.082	0.0179012
891.160	0.0179301
891.238	0.0180383
891.317	0.0178532
891.395	0.0177920
891.473	0.0176143
891.551	0.0176050
891.629	0.0175610
891.707	0.0175538
891.785	0.0176003
891.863	0.0176577
891.942	0.0175170
892.020	0.0174683
892.098	0.0175586
892.176	0.0175980
892.254	0.0176211
892.332	0.0175313
892.410	0.0176846
892.488	0.0176186
892.567	0.0176009
892.645	0.0176475
892.723	0.0176411
892.801	0.0175029
892.879	0.0176241
892.957	0.0177287
893.035	0.0177435
893.113	0.0175437
893.192	0.0177230
893.270	0.0179358
893.348	0.0178398
893.426	0.0179894
893.504	0.0179874
893.582	0.0180064
893.660	0.0180882
893.738	0.0182833
893.817	0.0182754
893.895	0.0183006
893.973	0.0182568
894.051	0.0182846
894.129	0.0181754
894.207	0.0182231
894.285	0.0182061
894.363	0.0182141
894.442	0.0182076
894.520	0.0182462
894.598	0.0180627
894.676	0.0181155
894.754	0.0180749
894.832	0.0181196
894.910	0.0181172
894.988	0.0179906
895.067	0.0180239
895.145	0.0178950
895.223	0.0180420
895.301	0.0180842
895.379	0.0180300
895.457	0.0181133
895.535	0.0179671
895.613	0.0181576
895.692	0.0182964
895.770	0.0181900
895.848	0.0181902
895.926	0.0182391
896.004	0.0181969
896.082	0.0181116
896.160	0.0182053
896.238	0.0183210
896.317	0.0182711
896.395	0.0182536
896.473	0.0181786
896.551	0.0180862
896.629	0.0181411
896.707	0.0182283
896.785	0.0179984
896.863	0.0179405
896.942	0.0180784
897.020	0.0179031
897.098	0.0178549
897.176	0.0176736
897.254	0.0177143
897.332	0.0177559
897.410	0.0174851
897.488	0.0174097
897.567	0.0173805
897.645	0.0171936
897.723	0.0173587
897.801	0.0171992
897.879	0.0171439
897.957	0.0172305
898.035	0.0172597
898.113	0.0173247
898.192	0.0173622
898.270	0.0173289
898.348	0.0174446
898.426	0.0175422
898.504	0.0175114
898.582	0.0175569
898.660	0.0175649
898.738	0.0176831
898.817	0.0177441
898.895	0.0180541
898.973	0.0180162
899.051	0.0182203
899.129	0.0181462
899.207	0.0181728
899.285	0.0184455
899.363	0.0184548
899.442	0.0184290
899.520	0.0183496
899.598	0.0185441
899.676	0.0183867
899.754	0.0182469
899.832	0.0182938
899.910	0.0183514
899.988	0.0182805
900.067	0.0182192
900.145	0.0181021
900.223	0.0180569
900.301	0.0180148
900.379	0.0178065
900.457	0.0177909
900.535	0.0177425
900.613	0.0178288
900.692	0.0177705
900.770	0.0177230
900.848	0.0178162
900.926	0.0177581
901.004	0.0178587
901.082	0.0179356
901.160	0.0179887
901.238	0.0180573
901.317	0.0182806
901.395	0.0183329
901.473	0.0182603
901.551	0.0183737
901.629	0.0184299
901.707	0.0185968
901.785	0.0185937
901.863	0.0186769
901.942	0.0186063
902.020	0.0184438
902.098	0.0185521
902.176	0.0184710
902.254	0.0183893
902.332	0.0182575
902.410	0.0182146
902.488	0.0181431
902.567	0.0180240
902.645	0.0177942
902.723	0.0176420
902.801	0.0175925
902.879	0.0175085
902.957	0.0174131
903.035	0.0174728
903.113	0.0173775
903.192	0.0173098
903.270	0.0170779
903.348	0.0171347
903.426	0.0171586
903.504	0.0170764
903.582	0.0170576
903.660	0.0172375
903.738	0.0173480
903.817	0.0172614
903.895	0.0174606
903.973	0.0175392
904.051	0.0175710
904.129	0.0178824
904.207	0.0178813
904.285	0.0179935
904.363	0.0181832
904.442	0.0183940
904.520	0.0184120
904.598	0.0184792
904.676	0.0184496
904.754	0.0185516
904.832	0.0183844
904.910	0.0184512
904.988	0.0185176
905.067	0.0185933
905.145	0.0184870
905.223	0.0182729
905.301	0.0183193
905.379	0.0182663
905.457	0.0182805
905.535	0.0182233
905.613	0.0182277
905.692	0.0180283
905.770	0.0181171
905.848	0.0179524
905.926	0.0178438
906.004	0.0179097
906.082	0.0178263
906.160	0.0178301
906.238	0.0177228
906.317	0.0176186
906.395	0.0175324
906.473	0.0177264
906.551	0.0175672
906.629	0.0176317
906.707	0.0175491
906.785	0.0176190
906.863	0.0177604
906.942	0.0175560
907.020	0.0177328
907.098	0.0176305
907.176	0.0178634
907.254	0.0178854
907.332	0.0179941
907.410	0.0178996
907.488	0.0180408
907.567	0.0180547
907.645	0.0182068
907.723	0.0180051
907.801	0.0181328
907.879	0.0181519
907.957	0.0182234
908.035	0.0182594
908.113	0.0181956
908.192	0.0181564
908.270	0.0179318
908.348	0.0180079
908.426	0.0179958
908.504	0.0180438
908.582	0.0179125
908.660	0.0178085
908.738	0.0177195
908.817	0.0177082
908.895	0.0176496
908.973	0.0177383
909.051	0.0178045
909.129	0.0176885
909.207	0.0176352
909.285	0.0177382
909.363	0.0176984
909.442	0.0177575
909.520	0.0177979
909.598	0.0179536
909.676	0.0180377
909.754	0.0180790
909.832	0.0181813
909.910	0.0181706
909.988	0.0182352
910.067	0.0182447
910.145	0.0182497
910.223	0.0183515
910.301	0.0183898
910.379	0.0182519
910.457	0.0182304
910.535	0.0182590
910.613	0.0181870
910.692	0.0180093
910.770	0.0178802
910.848	0.0178471
910.926	0.0178993
911.004	0.0177785
911.082	0.0178475
911.160	0.0178027
911.238	0.0177560
911.317	0.0178477
911.395	0.0178212
911.473	0.0177484
911.551	0.0178996
911.629	0.0178353
911.707	0.0180214
911.785	0.0180621
911.863	0.0180816
911.942	0.0179620
912.020	0.0180278
912.098	0.0180540
912.176	0.0180878
912.254	0.0178362
912.332	0.0179123
912.410	0.0179142
912.488	0.0178091
912.567	0.0178019
912.645	0.0175861
912.723	0.0176078
912.801	0.0176418
912.879	0.0175490
912.957	0.0174076
913.035	0.0175390
913.113	0.0175269
913.192	0.0175317
913.270	0.0176321
913.348	0.0177158
913.426	0.0177159
913.504	0.0177533
913.582	0.0176636
913.660	0.0178975
913.738	0.0178374
913.817	0.0178650
913.895	0.0179887
913.973	0.0179768
914.051	0.0179154
914.129	0.0179885
914.207	0.0178373
914.285	0.0179972
914.363	0.0181068
914.442	0.0181976
914.520	0.0180730
914.598	0.0180167
914.676	0.0180005
914.754	0.0181698
914.832	0.0179343
914.910	0.0179598
914.988	0.0179055
915.067	0.0178094
915.145	0.0178682
915.223	0.0177652
915.301	0.0178208
915.379	0.0178857
915.457	0.0178711
915.535	0.0178029
915.613	0.0177110
915.692	0.0177341
915.770	0.0179824
915.848	0.0179906
915.926	0.0178066
916.004	0.0179399
916.082	0.0178267
916.160	0.0177943
916.238	0.0178915
916.317	0.0178441
916.395	0.0178628
916.473	0.0178835
916.551	0.0180409
916.629	0.0179224
916.707	0.0179500
916.785	0.0180463
916.863	0.0179732
916.942	0.0179613
917.020	0.0181325
917.098	0.0181135
917.176	0.0180896
917.254	0.0183340
917.332	0.0183643
917.410	0.0182086
917.488	0.0181734
917.567	0.0183778
917.645	0.0182504
917.723	0.0181451
917.801	0.0181339
917.879	0.0181537
917.957	0.0180026
918.035	0.0178874
918.113	0.0177270
918.192	0.0178588
918.270	0.0178066
918.348	0.0177120
918.426	0.0176759
918.504	0.0175517
918.582	0.0175758
918.660	0.0176419
918.738	0.0176596
918.817	0.0176730
918.895	0.0176797
918.973	0.0176113
919.051	0.0176793
919.129	0.0178414
919.207	0.0180122
919.285	0.0178915
919.363	0.0178902
919.442	0.0180227
919.520	0.0180409
919.598	0.0179099
919.676	0.0180846
919.754	0.0179195
919.832	0.0180882
919.910	0.0179323
