06/01/2022	21:45:33	Ver.	4.1	UNKNOWN
Optical Delay	599.988409	Delta X		0.078125	Sweeps	1	Scan Rate	0/0
Coordinates	Axis 1	NaN	Axis 2	NaN	Axis 3	NaN	Axis 4	NaN	Axis 5	NaN	Axis 6	0.000000
TX Power	0.000000	RX Power	0.000000

599.988	0.0179202
600.067	0.0179865
600.145	0.0180601
600.223	0.0177974
600.301	0.0179307
600.379	0.0179469
600.457	0.0179266
600.535	0.0179176
600.613	0.0179397
600.692	0.0179737
600.770	0.0179444
600.848	0.0179874
600.926	0.0180736
601.004	0.0179794
601.082	0.0180023
601.160	0.0178393
601.238	0.0179113
601.317	0.0179411
601.395	0.0179708
601.473	0.0179694
601.551	0.0179184
601.629	0.0179250
601.707	0.0179539
601.785	0.0179286
601.863	0.0177870
601.942	0.0178378
602.020	0.0180050
602.098	0.0179964
602.176	0.0179681
602.254	0.0178942
602.332	0.0179176
602.410	0.0179673
602.488	0.0179282
602.567	0.0178951
602.645	0.0178517
602.723	0.0178687
602.801	0.0179471
602.879	0.0179153
602.957	0.0179459
603.035	0.0178362
603.113	0.0178299
603.192	0.0180080
603.270	0.0179701
603.348	0.0179546
603.426	0.0177069
603.504	0.0180322
603.582	0.0180218
603.660	0.0179258
603.738	0.0177851
603.817	0.0179740
603.895	0.0180609
603.973	0.0179559
604.051	0.0180297
604.129	0.0178537
604.207	0.0179424
604.285	0.0180119
604.363	0.0180084
604.442	0.0177995
604.520	0.0179594
604.598	0.0179574
604.676	0.0180297
604.754	0.0179967
604.832	0.0180294
604.910	0.0178326
604.988	0.0179240
605.067	0.0179698
605.145	0.0179285
605.223	0.0178751
605.301	0.0179917
605.379	0.0178368
605.457	0.0179542
605.535	0.0178595
605.613	0.0179916
605.692	0.0179105
605.770	0.0178514
605.848	0.0178757
605.926	0.0178522
606.004	0.0178400
606.082	0.0179128
606.160	0.0179455
606.238	0.0179353
606.317	0.0179025
606.395	0.0179581
606.473	0.0178695
606.551	0.0178406
606.629	0.0179788
606.707	0.0179603
606.785	0.0178216
606.863	0.0179065
606.942	0.0178811
607.020	0.0178848
607.098	0.0179054
607.176	0.0179764
607.254	0.0178796
607.332	0.0177530
607.410	0.0179533
607.488	0.0180883
607.567	0.0179866
607.645	0.0179324
607.723	0.0178897
607.801	0.0178755
607.879	0.0178501
607.957	0.0179441
608.035	0.0179361
608.113	0.0178453
608.192	0.0179062
608.270	0.0180023
608.348	0.0178764
608.426	0.0178046
608.504	0.0178683
608.582	0.0179082
608.660	0.0179729
608.738	0.0179504
608.817	0.0178250
608.895	0.0178759
608.973	0.0180155
609.051	0.0180753
609.129	0.0178976
609.207	0.0179635
609.285	0.0180610
609.363	0.0178233
609.442	0.0179039
609.520	0.0179709
609.598	0.0178495
609.676	0.0178097
609.754	0.0179035
609.832	0.0179417
609.910	0.0178524
609.988	0.0178737
610.067	0.0179770
610.145	0.0180122
610.223	0.0177553
610.301	0.0178140
610.379	0.0179226
610.457	0.0178410
610.535	0.0178471
610.613	0.0179926
610.692	0.0178132
610.770	0.0178801
610.848	0.0179491
610.926	0.0179224
611.004	0.0178349
611.082	0.0178316
611.160	0.0180524
611.238	0.0178826
611.317	0.0179577
611.395	0.0180327
611.473	0.0180560
611.551	0.0179678
611.629	0.0180146
611.707	0.0178167
611.785	0.0178848
611.863	0.0179649
611.942	0.0180656
612.020	0.0179671
612.098	0.0178763
612.176	0.0178857
612.254	0.0178920
612.332	0.0178232
612.410	0.0178947
612.488	0.0179632
612.567	0.0178718
612.645	0.0179216
612.723	0.0181025
612.801	0.0179189
612.879	0.0179190
612.957	0.0178628
613.035	0.0178651
613.113	0.0179641
613.192	0.0180305
613.270	0.0179269
613.348	0.0178404
613.426	0.0178539
613.504	0.0180607
613.582	0.0179752
613.660	0.0180385
613.738	0.0179722
613.817	0.0179822
613.895	0.0179497
613.973	0.0179700
614.051	0.0179040
614.129	0.0179642
614.207	0.0178770
614.285	0.0177934
614.363	0.0178632
614.442	0.0180459
614.520	0.0179368
614.598	0.0179056
614.676	0.0180117
614.754	0.0178127
614.832	0.0179353
614.910	0.0179693
614.988	0.0178611
615.067	0.0179061
615.145	0.0179751
615.223	0.0178133
615.301	0.0179208
615.379	0.0178927
615.457	0.0178413
615.535	0.0179520
615.613	0.0178921
615.692	0.0179659
615.770	0.0178639
615.848	0.0179050
615.926	0.0179166
616.004	0.0179593
616.082	0.0181388
616.160	0.0178815
616.238	0.0180427
616.317	0.0179185
616.395	0.0179916
616.473	0.0180428
616.551	0.0177888
616.629	0.0179043
616.707	0.0179448
616.785	0.0178925
616.863	0.0178922
616.942	0.0179371
617.020	0.0178147
617.098	0.0178179
617.176	0.0178825
617.254	0.0178681
617.332	0.0179410
617.410	0.0179234
617.488	0.0179792
617.567	0.0178803
617.645	0.0178652
617.723	0.0178825
617.801	0.0178663
617.879	0.0179803
617.957	0.0179765
618.035	0.0179729
618.113	0.0178664
618.192	0.0180362
618.270	0.0179464
618.348	0.0179834
618.426	0.0179588
618.504	0.0178839
618.582	0.0178302
618.660	0.0178856
618.738	0.0178338
618.817	0.0179211
618.895	0.0178866
618.973	0.0179939
619.051	0.0179778
619.129	0.0180367
619.207	0.0179082
619.285	0.0178960
619.363	0.0181119
619.442	0.0179551
619.520	0.0179660
619.598	0.0179837
619.676	0.0178687
619.754	0.0179423
619.832	0.0179382
619.910	0.0179343
619.988	0.0178516
620.067	0.0179313
620.145	0.0179164
620.223	0.0178742
620.301	0.0178610
620.379	0.0178067
620.457	0.0178046
620.535	0.0179171
620.613	0.0179418
620.692	0.0179916
620.770	0.0178056
620.848	0.0178203
620.926	0.0180332
621.004	0.0178574
621.082	0.0178875
621.160	0.0180244
621.238	0.0179011
621.317	0.0178447
621.395	0.0178486
621.473	0.0178942
621.551	0.0179259
621.629	0.0179253
621.707	0.0177881
621.785	0.0179086
621.863	0.0179052
621.942	0.0179590
622.020	0.0178193
622.098	0.0179996
622.176	0.0178633
622.254	0.0179610
622.332	0.0179877
622.410	0.0179048
622.488	0.0178834
622.567	0.0180062
622.645	0.0179356
622.723	0.0179979
622.801	0.0179393
622.879	0.0179221
622.957	0.0180833
623.035	0.0178272
623.113	0.0178656
623.192	0.0180124
623.270	0.0179174
623.348	0.0179650
623.426	0.0178627
623.504	0.0180395
623.582	0.0180391
623.660	0.0179223
623.738	0.0178397
623.817	0.0179205
623.895	0.0178458
623.973	0.0179897
624.051	0.0180022
624.129	0.0178770
624.207	0.0179364
624.285	0.0179011
624.363	0.0180438
624.442	0.0180266
624.520	0.0178318
624.598	0.0179105
624.676	0.0179308
624.754	0.0179330
624.832	0.0180100
624.910	0.0179873
624.988	0.0179875
625.067	0.0178817
625.145	0.0179444
625.223	0.0179456
625.301	0.0178004
625.379	0.0178985
625.457	0.0177889
625.535	0.0178634
625.613	0.0179108
625.692	0.0178823
625.770	0.0180139
625.848	0.0177914
625.926	0.0178394
626.004	0.0178751
626.082	0.0179236
626.160	0.0180169
626.238	0.0178769
626.317	0.0178915
626.395	0.0179093
626.473	0.0178452
626.551	0.0178615
626.629	0.0179276
626.707	0.0177378
626.785	0.0179141
626.863	0.0179362
626.942	0.0178355
627.020	0.0177780
627.098	0.0178040
627.176	0.0178994
627.254	0.0179395
627.332	0.0180702
627.410	0.0179508
627.488	0.0180270
627.567	0.0178916
627.645	0.0179648
627.723	0.0177897
627.801	0.0178835
627.879	0.0178843
627.957	0.0179067
628.035	0.0178760
628.113	0.0179042
628.192	0.0180087
628.270	0.0178973
628.348	0.0179572
628.426	0.0180540
628.504	0.0180527
628.582	0.0180009
628.660	0.0178515
628.738	0.0179494
628.817	0.0180705
628.895	0.0179097
628.973	0.0179385
629.051	0.0179149
629.129	0.0179177
629.207	0.0179152
629.285	0.0179595
629.363	0.0179293
629.442	0.0178504
629.520	0.0179964
629.598	0.0179365
629.676	0.0178308
629.754	0.0179713
629.832	0.0178775
629.910	0.0178960
629.988	0.0179974
630.067	0.0179816
630.145	0.0180499
630.223	0.0178780
630.301	0.0179006
630.379	0.0178006
630.457	0.0179639
630.535	0.0180577
630.613	0.0179661
630.692	0.0180128
630.770	0.0178381
630.848	0.0177806
630.926	0.0180334
631.004	0.0178675
631.082	0.0179298
631.160	0.0178730
631.238	0.0179328
631.317	0.0178669
631.395	0.0178545
631.473	0.0177781
631.551	0.0178877
631.629	0.0178284
631.707	0.0178690
631.785	0.0179478
631.863	0.0178723
631.942	0.0177480
632.020	0.0178542
632.098	0.0180061
632.176	0.0178622
632.254	0.0178480
632.332	0.0178793
632.410	0.0178625
632.488	0.0178379
632.567	0.0176978
632.645	0.0179684
632.723	0.0178390
632.801	0.0178471
632.879	0.0178304
632.957	0.0179047
633.035	0.0178647
633.113	0.0179684
633.192	0.0178942
633.270	0.0178707
633.348	0.0178722
633.426	0.0179556
633.504	0.0179926
633.582	0.0179763
633.660	0.0178900
633.738	0.0179288
633.817	0.0178247
633.895	0.0179092
633.973	0.0180380
634.051	0.0179418
634.129	0.0179159
634.207	0.0179480
634.285	0.0179362
634.363	0.0179316
634.442	0.0179028
634.520	0.0179253
634.598	0.0179106
634.676	0.0178743
634.754	0.0179789
634.832	0.0179502
634.910	0.0177254
634.988	0.0179070
635.067	0.0180056
635.145	0.0180522
635.223	0.0179111
635.301	0.0178996
635.379	0.0177790
635.457	0.0179375
635.535	0.0179716
635.613	0.0179126
635.692	0.0179465
635.770	0.0180100
635.848	0.0179200
635.926	0.0179919
636.004	0.0179547
636.082	0.0179474
636.160	0.0180259
636.238	0.0180826
636.317	0.0179675
636.395	0.0179321
636.473	0.0178846
636.551	0.0178294
636.629	0.0180119
636.707	0.0179028
636.785	0.0178887
636.863	0.0179941
636.942	0.0179589
637.020	0.0178415
637.098	0.0178634
637.176	0.0178825
637.254	0.0178945
637.332	0.0177730
637.410	0.0178542
637.488	0.0179738
637.567	0.0179183
637.645	0.0177960
637.723	0.0178601
637.801	0.0177660
637.879	0.0177875
637.957	0.0178794
638.035	0.0178726
638.113	0.0179973
638.192	0.0179172
638.270	0.0177965
638.348	0.0179294
638.426	0.0179121
638.504	0.0179568
638.582	0.0180412
638.660	0.0178651
638.738	0.0179193
638.817	0.0179780
638.895	0.0179301
638.973	0.0179728
639.051	0.0180334
639.129	0.0180323
639.207	0.0179922
639.285	0.0179834
639.363	0.0179999
639.442	0.0179229
639.520	0.0179968
639.598	0.0179815
639.676	0.0179848
639.754	0.0180125
639.832	0.0179568
639.910	0.0178722
639.988	0.0178970
640.067	0.0179994
640.145	0.0180499
640.223	0.0178304
640.301	0.0178216
640.379	0.0177888
640.457	0.0180622
640.535	0.0180040
640.613	0.0179768
640.692	0.0179486
640.770	0.0179655
640.848	0.0179422
640.926	0.0180563
641.004	0.0178212
641.082	0.0179696
641.160	0.0178136
641.238	0.0179298
641.317	0.0178899
641.395	0.0179774
641.473	0.0179651
641.551	0.0180722
641.629	0.0179505
641.707	0.0180394
641.785	0.0179879
641.863	0.0179606
641.942	0.0179906
642.020	0.0179928
642.098	0.0179141
642.176	0.0179890
642.254	0.0178794
642.332	0.0180198
642.410	0.0180354
642.488	0.0179665
642.567	0.0180082
642.645	0.0181067
642.723	0.0179097
642.801	0.0180294
642.879	0.0180673
642.957	0.0178104
643.035	0.0179525
643.113	0.0178920
643.192	0.0179344
643.270	0.0178890
643.348	0.0178255
643.426	0.0180275
643.504	0.0180204
643.582	0.0177525
643.660	0.0179557
643.738	0.0178574
643.817	0.0179563
643.895	0.0179289
643.973	0.0179166
644.051	0.0179166
644.129	0.0179626
644.207	0.0179119
644.285	0.0178084
644.363	0.0179393
644.442	0.0179521
644.520	0.0179469
644.598	0.0179144
644.676	0.0179050
644.754	0.0180605
644.832	0.0181536
644.910	0.0178254
644.988	0.0178797
645.067	0.0178992
645.145	0.0179147
645.223	0.0179008
645.301	0.0179747
645.379	0.0178773
645.457	0.0180191
645.535	0.0180575
645.613	0.0178556
645.692	0.0179009
645.770	0.0179980
645.848	0.0179835
645.926	0.0179217
646.004	0.0179482
646.082	0.0177324
646.160	0.0179517
646.238	0.0179103
646.317	0.0179595
646.395	0.0179600
646.473	0.0178854
646.551	0.0179494
646.629	0.0179799
646.707	0.0178072
646.785	0.0179132
646.863	0.0180071
646.942	0.0179525
647.020	0.0178928
647.098	0.0179997
647.176	0.0179401
647.254	0.0178573
647.332	0.0179396
647.410	0.0179404
647.488	0.0179810
647.567	0.0178429
647.645	0.0179492
647.723	0.0180978
647.801	0.0180044
647.879	0.0179544
647.957	0.0178946
648.035	0.0177449
648.113	0.0178477
648.192	0.0178812
648.270	0.0179141
648.348	0.0179177
648.426	0.0178658
648.504	0.0179544
648.582	0.0179833
648.660	0.0179458
648.738	0.0178625
648.817	0.0178432
648.895	0.0178795
648.973	0.0179649
649.051	0.0178466
649.129	0.0177600
649.207	0.0178718
649.285	0.0178546
649.363	0.0179475
649.442	0.0179235
649.520	0.0178646
649.598	0.0179169
649.676	0.0178956
649.754	0.0178437
649.832	0.0179373
649.910	0.0178320
649.988	0.0178680
650.067	0.0178370
650.145	0.0179410
650.223	0.0179062
650.301	0.0178992
650.379	0.0179663
650.457	0.0180533
650.535	0.0179824
650.613	0.0179774
650.692	0.0179903
650.770	0.0179082
650.848	0.0179697
650.926	0.0179015
651.004	0.0179615
651.082	0.0179124
651.160	0.0179232
651.238	0.0178557
651.317	0.0179121
651.395	0.0178439
651.473	0.0179478
651.551	0.0179422
651.629	0.0179373
651.707	0.0179671
651.785	0.0179472
651.863	0.0180397
651.942	0.0179879
652.020	0.0179343
652.098	0.0179471
652.176	0.0178996
652.254	0.0178214
652.332	0.0180115
652.410	0.0179612
652.488	0.0179367
652.567	0.0179710
652.645	0.0179684
652.723	0.0177979
652.801	0.0178551
652.879	0.0178240
652.957	0.0179576
653.035	0.0179037
653.113	0.0179233
653.192	0.0180004
653.270	0.0179095
653.348	0.0178153
653.426	0.0180305
653.504	0.0178947
653.582	0.0178957
653.660	0.0179182
653.738	0.0177869
653.817	0.0179303
653.895	0.0179153
653.973	0.0177692
654.051	0.0177927
654.129	0.0179684
654.207	0.0178816
654.285	0.0177779
654.363	0.0178303
654.442	0.0179227
654.520	0.0178809
654.598	0.0179549
654.676	0.0178645
654.754	0.0179626
654.832	0.0179676
654.910	0.0179308
654.988	0.0179425
655.067	0.0179964
655.145	0.0180239
655.223	0.0179423
655.301	0.0179174
655.379	0.0179556
655.457	0.0179734
655.535	0.0178881
655.613	0.0178882
655.692	0.0179610
655.770	0.0178746
655.848	0.0178824
655.926	0.0179553
656.004	0.0179237
656.082	0.0180289
656.160	0.0180585
656.238	0.0179755
656.317	0.0178760
656.395	0.0179183
656.473	0.0179659
656.551	0.0180081
656.629	0.0180342
656.707	0.0179410
656.785	0.0178875
656.863	0.0178560
656.942	0.0180106
657.020	0.0179193
657.098	0.0180527
657.176	0.0179870
657.254	0.0177974
657.332	0.0180608
657.410	0.0178445
657.488	0.0178841
657.567	0.0180177
657.645	0.0179163
657.723	0.0179721
657.801	0.0179472
657.879	0.0180265
657.957	0.0179479
658.035	0.0180580
658.113	0.0181679
658.192	0.0179688
658.270	0.0180800
658.348	0.0179443
658.426	0.0180824
658.504	0.0179080
658.582	0.0179945
658.660	0.0180014
658.738	0.0177804
658.817	0.0179096
658.895	0.0180876
658.973	0.0179555
659.051	0.0178476
659.129	0.0177072
659.207	0.0180099
659.285	0.0179696
659.363	0.0178281
659.442	0.0178611
659.520	0.0179247
659.598	0.0179281
659.676	0.0179618
659.754	0.0180312
659.832	0.0178738
659.910	0.0180140
659.988	0.0180540
660.067	0.0180856
660.145	0.0180517
660.223	0.0182186
660.301	0.0181287
660.379	0.0179346
660.457	0.0180450
660.535	0.0178477
660.613	0.0179041
660.692	0.0178707
660.770	0.0178236
660.848	0.0179088
660.926	0.0178971
661.004	0.0176600
661.082	0.0177699
661.160	0.0177825
661.238	0.0177757
661.317	0.0177950
661.395	0.0178848
661.473	0.0180183
661.551	0.0179870
661.629	0.0180125
661.707	0.0178722
661.785	0.0180359
661.863	0.0181153
661.942	0.0181090
662.020	0.0181496
662.098	0.0180685
662.176	0.0179662
662.254	0.0179636
662.332	0.0179637
662.410	0.0177333
662.488	0.0178955
662.567	0.0179568
662.645	0.0177870
662.723	0.0178185
662.801	0.0178331
662.879	0.0178032
662.957	0.0179490
663.035	0.0177884
663.113	0.0179465
663.192	0.0178640
663.270	0.0179694
663.348	0.0179274
663.426	0.0179310
663.504	0.0179993
663.582	0.0180440
663.660	0.0179737
663.738	0.0181487
663.817	0.0180753
663.895	0.0180291
663.973	0.0180506
664.051	0.0180598
664.129	0.0179781
664.207	0.0180556
664.285	0.0180239
664.363	0.0179884
664.442	0.0178143
664.520	0.0179871
664.598	0.0178979
664.676	0.0178555
664.754	0.0179193
664.832	0.0178384
664.910	0.0179017
664.988	0.0178582
665.067	0.0178137
665.145	0.0178626
665.223	0.0179195
665.301	0.0177863
665.379	0.0179133
665.457	0.0179559
665.535	0.0179079
665.613	0.0180025
665.692	0.0180759
665.770	0.0181044
665.848	0.0181823
665.926	0.0180408
666.004	0.0180158
666.082	0.0180936
666.160	0.0179721
666.238	0.0180382
666.317	0.0180579
666.395	0.0179896
666.473	0.0181403
666.551	0.0178302
666.629	0.0178428
666.707	0.0178299
666.785	0.0176839
666.863	0.0178197
666.942	0.0178064
667.020	0.0176827
667.098	0.0179510
667.176	0.0178778
667.254	0.0178390
667.332	0.0179033
667.410	0.0179263
667.488	0.0180688
667.567	0.0180585
667.645	0.0182420
667.723	0.0179982
667.801	0.0179802
667.879	0.0180080
667.957	0.0181340
668.035	0.0181049
668.113	0.0180308
668.192	0.0180182
668.270	0.0178444
668.348	0.0178141
668.426	0.0178449
668.504	0.0178450
668.582	0.0177847
668.660	0.0177161
668.738	0.0176703
668.817	0.0178503
668.895	0.0177547
668.973	0.0177889
669.051	0.0179373
669.129	0.0179150
669.207	0.0179849
669.285	0.0180197
669.363	0.0178782
669.442	0.0180906
669.520	0.0181960
669.598	0.0181797
669.676	0.0182701
669.754	0.0181036
669.832	0.0180470
669.910	0.0180927
669.988	0.0181553
670.067	0.0180170
670.145	0.0180573
670.223	0.0178112
670.301	0.0177308
670.379	0.0179581
670.457	0.0178435
670.535	0.0178229
670.613	0.0176401
670.692	0.0178371
670.770	0.0178615
670.848	0.0178036
670.926	0.0178596
671.004	0.0178774
671.082	0.0179488
671.160	0.0179774
671.238	0.0179716
671.317	0.0180373
671.395	0.0179076
671.473	0.0179365
671.551	0.0179630
671.629	0.0180089
671.707	0.0178855
671.785	0.0180302
671.863	0.0180023
671.942	0.0180606
672.020	0.0180570
672.098	0.0179066
672.176	0.0178719
672.254	0.0179984
672.332	0.0180558
672.410	0.0178349
672.488	0.0177899
672.567	0.0180276
672.645	0.0179636
672.723	0.0178391
672.801	0.0177312
672.879	0.0178695
672.957	0.0178645
673.035	0.0177288
673.113	0.0178072
673.192	0.0176404
673.270	0.0178439
673.348	0.0178175
673.426	0.0178423
673.504	0.0178481
673.582	0.0177459
673.660	0.0177535
673.738	0.0178046
673.817	0.0177740
673.895	0.0179212
673.973	0.0178626
674.051	0.0180284
674.129	0.0179962
674.207	0.0180315
674.285	0.0180312
674.363	0.0179627
674.442	0.0181754
674.520	0.0182349
674.598	0.0181116
674.676	0.0180759
674.754	0.0180695
674.832	0.0180544
674.910	0.0181438
674.988	0.0180258
675.067	0.0180165
675.145	0.0180381
675.223	0.0179980
675.301	0.0179569
675.379	0.0178991
675.457	0.0179185
675.535	0.0177304
675.613	0.0178329
675.692	0.0178096
675.770	0.0177741
675.848	0.0177171
675.926	0.0178347
676.004	0.0177996
676.082	0.0179195
676.160	0.0178751
676.238	0.0179182
676.317	0.0177879
676.395	0.0179134
676.473	0.0180074
676.551	0.0179690
676.629	0.0179103
676.707	0.0178811
676.785	0.0180665
676.863	0.0181251
676.942	0.0180067
677.020	0.0180964
677.098	0.0179568
677.176	0.0179662
677.254	0.0180888
677.332	0.0178912
677.410	0.0178517
677.488	0.0180070
677.567	0.0178399
677.645	0.0178353
677.723	0.0179606
677.801	0.0180011
677.879	0.0179491
677.957	0.0180497
678.035	0.0179601
678.113	0.0179990
678.192	0.0180270
678.270	0.0179736
678.348	0.0178876
678.426	0.0180074
678.504	0.0179027
678.582	0.0180166
678.660	0.0181522
678.738	0.0181104
678.817	0.0181957
678.895	0.0182037
678.973	0.0181979
679.051	0.0183624
679.129	0.0182133
679.207	0.0181938
679.285	0.0181654
679.363	0.0180786
679.442	0.0178510
679.520	0.0179614
679.598	0.0177562
679.676	0.0177007
679.754	0.0176699
679.832	0.0177003
679.910	0.0175552
679.988	0.0174818
680.067	0.0175430
680.145	0.0176256
680.223	0.0175189
680.301	0.0177708
680.379	0.0178786
680.457	0.0180238
680.535	0.0180831
680.613	0.0182645
680.692	0.0183886
680.770	0.0185825
680.848	0.0186653
680.926	0.0187287
681.004	0.0187357
681.082	0.0185999
681.160	0.0185125
681.238	0.0183698
681.317	0.0181807
681.395	0.0179164
681.473	0.0178292
681.551	0.0174717
681.629	0.0174633
681.707	0.0172577
681.785	0.0171631
681.863	0.0170226
681.942	0.0168820
682.020	0.0170650
682.098	0.0170408
682.176	0.0172337
682.254	0.0170701
682.332	0.0174595
682.410	0.0177296
682.488	0.0177631
682.567	0.0179855
682.645	0.0181647
682.723	0.0183381
682.801	0.0185645
682.879	0.0186257
682.957	0.0188840
683.035	0.0189904
683.113	0.0190147
683.192	0.0190691
683.270	0.0189438
683.348	0.0189030
683.426	0.0187408
683.504	0.0184877
683.582	0.0183705
683.660	0.0180448
683.738	0.0176757
683.817	0.0177097
683.895	0.0173148
683.973	0.0170599
684.051	0.0168783
684.129	0.0168095
684.207	0.0168755
684.285	0.0170331
684.363	0.0168415
684.442	0.0168549
684.520	0.0171684
684.598	0.0174754
684.676	0.0177102
684.754	0.0179135
684.832	0.0182959
684.910	0.0186446
684.988	0.0187920
685.067	0.0190031
685.145	0.0193060
685.223	0.0194727
685.301	0.0195920
685.379	0.0196098
685.457	0.0196874
685.535	0.0194211
685.613	0.0193484
685.692	0.0191510
685.770	0.0188406
685.848	0.0186936
685.926	0.0182535
686.004	0.0179523
686.082	0.0175838
686.160	0.0172491
686.238	0.0169979
686.317	0.0165772
686.395	0.0163432
686.473	0.0160269
686.551	0.0158431
686.629	0.0157799
686.707	0.0156830
686.785	0.0156231
686.863	0.0157129
686.942	0.0157582
687.020	0.0160257
687.098	0.0163032
687.176	0.0163171
687.254	0.0167025
687.332	0.0170322
687.410	0.0173011
687.488	0.0176440
687.567	0.0180183
687.645	0.0185120
687.723	0.0190598
687.801	0.0192632
687.879	0.0196107
687.957	0.0200756
688.035	0.0202684
688.113	0.0204603
688.192	0.0205630
688.270	0.0207318
688.348	0.0207220
688.426	0.0206209
688.504	0.0203481
688.582	0.0202234
688.660	0.0198112
688.738	0.0193483
688.817	0.0187886
688.895	0.0182351
688.973	0.0176870
689.051	0.0171893
689.129	0.0168367
689.207	0.0162667
689.285	0.0159564
689.363	0.0157120
689.442	0.0156141
689.520	0.0155337
689.598	0.0155270
689.676	0.0157777
689.754	0.0159648
689.832	0.0160702
689.910	0.0163763
689.988	0.0166112
690.067	0.0170261
690.145	0.0172801
690.223	0.0176466
690.301	0.0178569
690.379	0.0181964
690.457	0.0184774
690.535	0.0185120
690.613	0.0187014
690.692	0.0188342
690.770	0.0190739
690.848	0.0192278
690.926	0.0193334
691.004	0.0193643
691.082	0.0195184
691.160	0.0196305
691.238	0.0194930
691.317	0.0192077
691.395	0.0190562
691.473	0.0188792
691.551	0.0184096
691.629	0.0182310
691.707	0.0179322
691.785	0.0173736
691.863	0.0170114
691.942	0.0168469
692.020	0.0166235
692.098	0.0164803
692.176	0.0161673
692.254	0.0163342
692.332	0.0163252
692.410	0.0164618
692.488	0.0167842
692.567	0.0170695
692.645	0.0173193
692.723	0.0175687
692.801	0.0177813
692.879	0.0180602
692.957	0.0181157
693.035	0.0183536
693.113	0.0184198
693.192	0.0183958
693.270	0.0182778
693.348	0.0181131
693.426	0.0181236
693.504	0.0180991
693.582	0.0178910
693.660	0.0178097
693.738	0.0180167
693.817	0.0181496
693.895	0.0181498
693.973	0.0183069
694.051	0.0183960
694.129	0.0186056
694.207	0.0186650
694.285	0.0187502
694.363	0.0186937
694.442	0.0189893
694.520	0.0188980
694.598	0.0188053
694.676	0.0189436
694.754	0.0188029
694.832	0.0187379
694.910	0.0187429
694.988	0.0186990
695.067	0.0187539
695.145	0.0189040
695.223	0.0186790
695.301	0.0186130
695.379	0.0187025
695.457	0.0186922
695.535	0.0186280
695.613	0.0185780
695.692	0.0183656
695.770	0.0179379
695.848	0.0176501
695.926	0.0172209
696.004	0.0168335
696.082	0.0164159
696.160	0.0159036
696.238	0.0154388
696.317	0.0152025
696.395	0.0149815
696.473	0.0148444
696.551	0.0148687
696.629	0.0147565
696.707	0.0148788
696.785	0.0149696
696.863	0.0153596
696.942	0.0155183
697.020	0.0157536
697.098	0.0157636
697.176	0.0161310
697.254	0.0164851
697.332	0.0165887
697.410	0.0168776
697.488	0.0171436
697.567	0.0173692
697.645	0.0178101
697.723	0.0182612
697.801	0.0187226
697.879	0.0191573
697.957	0.0197897
698.035	0.0202363
698.113	0.0208083
698.192	0.0213152
698.270	0.0217388
698.348	0.0221262
698.426	0.0223793
698.504	0.0226102
698.582	0.0228041
698.660	0.0229813
698.738	0.0230746
698.817	0.0228931
698.895	0.0229187
698.973	0.0227110
699.051	0.0224561
699.129	0.0222374
699.207	0.0218626
699.285	0.0215217
699.363	0.0210693
699.442	0.0205141
699.520	0.0196801
699.598	0.0192110
699.676	0.0185574
699.754	0.0178338
699.832	0.0173254
699.910	0.0164728
699.988	0.0157575
700.067	0.0149966
700.145	0.0142587
700.223	0.0135123
700.301	0.0127061
700.379	0.0118403
700.457	0.0112074
700.535	0.0104592
700.613	0.00991219
700.692	0.00954628
700.770	0.00935524
700.848	0.00913483
700.926	0.00955261
701.004	0.00993378
701.082	0.0106125
701.160	0.0115614
701.238	0.0123643
701.317	0.0136683
701.395	0.0149830
701.473	0.0164465
701.551	0.0175809
701.629	0.0187312
701.707	0.0197933
701.785	0.0208451
701.863	0.0213431
701.942	0.0218530
702.020	0.0222106
702.098	0.0225589
702.176	0.0224641
702.254	0.0223949
702.332	0.0223619
702.410	0.0221686
702.488	0.0219699
702.567	0.0218225
702.645	0.0218040
702.723	0.0216331
702.801	0.0212471
702.879	0.0212170
702.957	0.0209344
703.035	0.0208855
703.113	0.0207002
703.192	0.0207836
703.270	0.0206248
703.348	0.0207368
703.426	0.0207721
703.504	0.0207942
703.582	0.0212578
703.660	0.0215170
703.738	0.0216846
703.817	0.0218739
703.895	0.0220141
703.973	0.0222511
704.051	0.0225648
704.129	0.0225156
704.207	0.0224895
704.285	0.0224922
704.363	0.0222709
704.442	0.0218920
704.520	0.0213084
704.598	0.0206123
704.676	0.0199362
704.754	0.0190207
704.832	0.0180486
704.910	0.0169895
704.988	0.0160745
705.067	0.0149593
705.145	0.0137316
705.223	0.0129044
705.301	0.0120448
705.379	0.0110085
705.457	0.0101984
705.535	0.00954460
705.613	0.00899307
705.692	0.00870956
705.770	0.00839371
705.848	0.00812645
705.926	0.00785942
706.004	0.00772163
706.082	0.00762215
706.160	0.00775642
706.238	0.00784721
706.317	0.00797188
706.395	0.00858315
706.473	0.00929771
706.551	0.0101679
706.629	0.0113192
706.707	0.0126795
706.785	0.0142206
706.863	0.0158574
706.942	0.0177708
707.020	0.0195753
707.098	0.0215928
707.176	0.0232556
707.254	0.0249612
707.332	0.0264483
707.410	0.0277086
707.488	0.0286189
707.567	0.0291274
707.645	0.0295615
707.723	0.0295538
707.801	0.0294894
707.879	0.0289101
707.957	0.0282352
708.035	0.0272664
708.113	0.0264466
708.192	0.0251418
708.270	0.0239423
708.348	0.0227360
708.426	0.0215070
708.504	0.0204681
708.582	0.0194598
708.660	0.0187000
708.738	0.0180646
708.817	0.0174356
708.895	0.0172307
708.973	0.0169471
709.051	0.0168996
709.129	0.0172484
709.207	0.0174512
709.285	0.0177633
709.363	0.0180687
709.442	0.0186749
709.520	0.0190498
709.598	0.0196599
709.676	0.0203310
709.754	0.0208667
709.832	0.0214381
709.910	0.0215967
709.988	0.0218938
710.067	0.0220872
710.145	0.0218591
710.223	0.0214011
710.301	0.0207883
710.379	0.0199072
710.457	0.0187349
710.535	0.0174795
710.613	0.0160317
710.692	0.0146149
710.770	0.0131032
710.848	0.0116571
710.926	0.0100684
711.004	0.00894295
711.082	0.00773544
711.160	0.00689659
711.238	0.00626709
711.317	0.00555206
711.395	0.00514420
711.473	0.00507751
711.551	0.00505562
711.629	0.00511665
711.707	0.00567520
711.785	0.00583725
711.863	0.00658821
711.942	0.00742615
712.020	0.00841568
712.098	0.00961960
712.176	0.0109605
712.254	0.0125780
712.332	0.0142621
712.410	0.0159385
712.488	0.0177734
712.567	0.0195749
712.645	0.0214129
712.723	0.0233370
712.801	0.0250415
712.879	0.0265216
712.957	0.0280043
713.035	0.0291099
713.113	0.0302000
713.192	0.0309676
713.270	0.0313775
713.348	0.0314761
713.426	0.0313660
713.504	0.0309294
713.582	0.0301748
713.660	0.0293955
713.738	0.0282157
713.817	0.0269807
713.895	0.0256974
713.973	0.0242838
714.051	0.0231669
714.129	0.0219254
714.207	0.0207899
714.285	0.0198936
714.363	0.0191373
714.442	0.0185035
714.520	0.0181353
714.598	0.0176276
714.676	0.0176237
714.754	0.0175622
714.832	0.0174820
714.910	0.0177994
714.988	0.0179602
715.067	0.0182568
715.145	0.0186081
715.223	0.0192273
715.301	0.0194239
715.379	0.0198091
715.457	0.0200018
715.535	0.0202626
715.613	0.0201603
715.692	0.0200202
715.770	0.0195642
715.848	0.0190278
715.926	0.0182615
716.004	0.0172205
716.082	0.0162419
716.160	0.0151794
716.238	0.0139991
716.317	0.0126166
716.395	0.0109898
716.473	0.00989532
716.551	0.00863701
716.629	0.00754700
716.707	0.00632309
716.785	0.00555321
716.863	0.00499596
716.942	0.00433769
717.020	0.00402344
717.098	0.00404457
717.176	0.00430115
717.254	0.00483528
717.332	0.00553940
717.410	0.00663406
717.488	0.00795227
717.567	0.00941490
717.645	0.0109967
717.723	0.0126672
717.801	0.0145605
717.879	0.0163961
717.957	0.0181598
718.035	0.0198553
718.113	0.0216169
718.192	0.0231506
718.270	0.0243690
718.348	0.0254154
718.426	0.0266248
718.504	0.0271748
718.582	0.0276721
718.660	0.0282521
718.738	0.0284110
718.817	0.0284542
718.895	0.0282256
718.973	0.0278462
719.051	0.0275619
719.129	0.0270467
719.207	0.0262501
719.285	0.0254207
719.363	0.0247738
719.442	0.0242397
719.520	0.0236040
719.598	0.0229984
719.676	0.0225006
719.754	0.0220962
719.832	0.0216729
719.910	0.0215002
719.988	0.0213702
720.067	0.0209164
720.145	0.0207339
720.223	0.0205415
720.301	0.0203947
720.379	0.0202232
720.457	0.0198958
720.535	0.0199873
720.613	0.0198681
720.692	0.0198129
720.770	0.0195144
720.848	0.0192438
720.926	0.0191479
721.004	0.0189993
721.082	0.0187656
721.160	0.0186283
721.238	0.0181728
721.317	0.0177187
721.395	0.0174609
721.473	0.0167809
721.551	0.0161490
721.629	0.0154269
721.707	0.0148289
721.785	0.0140983
721.863	0.0129781
721.942	0.0124234
722.020	0.0117054
722.098	0.0109298
722.176	0.0102483
722.254	0.00947113
722.332	0.00885826
722.410	0.00848328
722.488	0.00794403
722.567	0.00770752
722.645	0.00772209
722.723	0.00772308
722.801	0.00814514
722.879	0.00833000
722.957	0.00886116
723.035	0.00959244
723.113	0.0104552
723.192	0.0114590
723.270	0.0125563
723.348	0.0138541
723.426	0.0149689
723.504	0.0163530
723.582	0.0176615
723.660	0.0188402
723.738	0.0198130
723.817	0.0210170
723.895	0.0217426
723.973	0.0224049
724.051	0.0228580
724.129	0.0231551
724.207	0.0232989
724.285	0.0233893
724.363	0.0233455
724.442	0.0231984
724.520	0.0228687
724.598	0.0227519
724.676	0.0225901
724.754	0.0224593
724.832	0.0225082
724.910	0.0225363
724.988	0.0224268
725.067	0.0226803
725.145	0.0229256
725.223	0.0229548
725.301	0.0229754
725.379	0.0231364
725.457	0.0233223
725.535	0.0232901
725.613	0.0230784
725.692	0.0230547
725.770	0.0229538
725.848	0.0228556
725.926	0.0223439
726.004	0.0221490
726.082	0.0217193
726.160	0.0215582
726.238	0.0212314
726.317	0.0208234
726.395	0.0204951
726.473	0.0200811
726.551	0.0198801
726.629	0.0194886
726.707	0.0191275
726.785	0.0186703
726.863	0.0182829
726.942	0.0179111
727.020	0.0174657
727.098	0.0169949
727.176	0.0164349
727.254	0.0159023
727.332	0.0153082
727.410	0.0148886
727.488	0.0143162
727.567	0.0138830
727.645	0.0134172
727.723	0.0129810
727.801	0.0125807
727.879	0.0121733
727.957	0.0119662
728.035	0.0118619
728.113	0.0116600
728.192	0.0117732
728.270	0.0117693
728.348	0.0119337
728.426	0.0120877
728.504	0.0126356
728.582	0.0129151
728.660	0.0133257
728.738	0.0138376
728.817	0.0141952
728.895	0.0147840
728.973	0.0152437
729.051	0.0158886
729.129	0.0163630
729.207	0.0167978
729.285	0.0170122
729.363	0.0174107
729.442	0.0176147
729.520	0.0176442
729.598	0.0177851
729.676	0.0178743
729.754	0.0178111
729.832	0.0177879
729.910	0.0176646
729.988	0.0175645
730.067	0.0176540
730.145	0.0176773
730.223	0.0178159
730.301	0.0180083
730.379	0.0185612
730.457	0.0187370
730.535	0.0192172
730.613	0.0197168
730.692	0.0203593
730.770	0.0207272
730.848	0.0214211
730.926	0.0217956
731.004	0.0221379
731.082	0.0226536
731.160	0.0228025
731.238	0.0227306
731.317	0.0229618
731.395	0.0228977
731.473	0.0228885
731.551	0.0228700
731.629	0.0226667
731.707	0.0224325
731.785	0.0220541
731.863	0.0217377
731.942	0.0214864
732.020	0.0212369
732.098	0.0209665
732.176	0.0204988
732.254	0.0200332
732.332	0.0196453
732.410	0.0193954
732.488	0.0191893
732.567	0.0186617
732.645	0.0185011
732.723	0.0181556
732.801	0.0178658
732.879	0.0175908
732.957	0.0173174
733.035	0.0171992
733.113	0.0168810
733.192	0.0169250
733.270	0.0166443
733.348	0.0165377
733.426	0.0165132
733.504	0.0162744
733.582	0.0161337
733.660	0.0160146
733.738	0.0158089
733.817	0.0158614
733.895	0.0156178
733.973	0.0157159
734.051	0.0155143
734.129	0.0154292
734.207	0.0153230
734.285	0.0153844
734.363	0.0154879
734.442	0.0154176
734.520	0.0154796
734.598	0.0156461
734.676	0.0156802
734.754	0.0156933
734.832	0.0158257
734.910	0.0158524
734.988	0.0158795
735.067	0.0159770
735.145	0.0161577
735.223	0.0162223
735.301	0.0162498
735.379	0.0163263
735.457	0.0166726
735.535	0.0166084
735.613	0.0167326
735.692	0.0170042
735.770	0.0169743
735.848	0.0170184
735.926	0.0171465
736.004	0.0170746
736.082	0.0171234
736.160	0.0173874
736.238	0.0174966
736.317	0.0176512
736.395	0.0177039
736.473	0.0177924
736.551	0.0179466
736.629	0.0180663
736.707	0.0180815
736.785	0.0183096
736.863	0.0183607
736.942	0.0186428
737.020	0.0187971
737.098	0.0188463
737.176	0.0189602
737.254	0.0190971
737.332	0.0193955
737.410	0.0196536
737.488	0.0198103
737.567	0.0200439
737.645	0.0201847
737.723	0.0201723
737.801	0.0203023
737.879	0.0204427
737.957	0.0204546
738.035	0.0204634
738.113	0.0202935
738.192	0.0202820
738.270	0.0202075
738.348	0.0200854
738.426	0.0198739
738.504	0.0198752
738.582	0.0195502
738.660	0.0194218
738.738	0.0191319
738.817	0.0190331
738.895	0.0188105
738.973	0.0185078
739.051	0.0183755
739.129	0.0182233
739.207	0.0181078
739.285	0.0179691
739.363	0.0180064
739.442	0.0178773
739.520	0.0179383
739.598	0.0177699
739.676	0.0178512
739.754	0.0177436
739.832	0.0178689
739.910	0.0176974
739.988	0.0175873
740.067	0.0175927
740.145	0.0174384
740.223	0.0173927
740.301	0.0170825
740.379	0.0170132
740.457	0.0168659
740.535	0.0167847
740.613	0.0169162
740.692	0.0168439
740.770	0.0167428
740.848	0.0168171
740.926	0.0168665
741.004	0.0168710
741.082	0.0169373
741.160	0.0171062
741.238	0.0171646
741.317	0.0172309
741.395	0.0171730
741.473	0.0172798
741.551	0.0171240
741.629	0.0172043
741.707	0.0171825
741.785	0.0169600
741.863	0.0167970
741.942	0.0168752
742.020	0.0167287
742.098	0.0164664
742.176	0.0165071
742.254	0.0166209
742.332	0.0165187
742.410	0.0165798
742.488	0.0166120
742.567	0.0167616
742.645	0.0169926
742.723	0.0170921
742.801	0.0170625
742.879	0.0173038
742.957	0.0172639
743.035	0.0172860
743.113	0.0176360
743.192	0.0177163
743.270	0.0177670
743.348	0.0176862
743.426	0.0178398
743.504	0.0179813
743.582	0.0179541
743.660	0.0179823
743.738	0.0182415
743.817	0.0181786
743.895	0.0183878
743.973	0.0183558
744.051	0.0184126
744.129	0.0185402
744.207	0.0186298
744.285	0.0187356
744.363	0.0187682
744.442	0.0188621
744.520	0.0187843
744.598	0.0187929
744.676	0.0187595
744.754	0.0187749
744.832	0.0187076
744.910	0.0186889
744.988	0.0189682
745.067	0.0188352
745.145	0.0187354
745.223	0.0190725
745.301	0.0188866
745.379	0.0189395
745.457	0.0191173
745.535	0.0191590
745.613	0.0190330
745.692	0.0190135
745.770	0.0189495
745.848	0.0189406
745.926	0.0189545
746.004	0.0187321
746.082	0.0187407
746.160	0.0188097
746.238	0.0187143
746.317	0.0185078
746.395	0.0184100
746.473	0.0182829
746.551	0.0183926
746.629	0.0182707
746.707	0.0181174
746.785	0.0179899
746.863	0.0178872
746.942	0.0176921
747.020	0.0175829
747.098	0.0173955
747.176	0.0172464
747.254	0.0171347
747.332	0.0170302
747.410	0.0170005
747.488	0.0170572
747.567	0.0170584
747.645	0.0172074
747.723	0.0171820
747.801	0.0174976
747.879	0.0175361
747.957	0.0175827
748.035	0.0177782
748.113	0.0180007
748.192	0.0179696
748.270	0.0178980
748.348	0.0180634
748.426	0.0180227
748.504	0.0179373
748.582	0.0177339
748.660	0.0175028
748.738	0.0172617
748.817	0.0171806
748.895	0.0169334
748.973	0.0168311
749.051	0.0166371
749.129	0.0166006
749.207	0.0165003
749.285	0.0164845
749.363	0.0167806
749.442	0.0167735
749.520	0.0168817
749.598	0.0168517
749.676	0.0169486
749.754	0.0171350
749.832	0.0172025
749.910	0.0174213
749.988	0.0173560
750.067	0.0172736
750.145	0.0174329
750.223	0.0174310
750.301	0.0173883
750.379	0.0175698
750.457	0.0176036
750.535	0.0174570
750.613	0.0176680
750.692	0.0178221
750.770	0.0178935
750.848	0.0180826
750.926	0.0182880
751.004	0.0183116
751.082	0.0185667
751.160	0.0186597
751.238	0.0186963
751.317	0.0188978
751.395	0.0190142
751.473	0.0189217
751.551	0.0189425
751.629	0.0189903
751.707	0.0190139
751.785	0.0189148
751.863	0.0188029
751.942	0.0186214
752.020	0.0185195
752.098	0.0184812
752.176	0.0182856
752.254	0.0179520
752.332	0.0180553
752.410	0.0180283
752.488	0.0177124
752.567	0.0178207
752.645	0.0176996
752.723	0.0177485
752.801	0.0177575
752.879	0.0177206
752.957	0.0177987
753.035	0.0177807
753.113	0.0179030
753.192	0.0180573
753.270	0.0182239
753.348	0.0182941
753.426	0.0186343
753.504	0.0187009
753.582	0.0189169
753.660	0.0189314
753.738	0.0190965
753.817	0.0192246
753.895	0.0193044
753.973	0.0192783
754.051	0.0192043
754.129	0.0190681
754.207	0.0189767
754.285	0.0186362
754.363	0.0184909
754.442	0.0183332
754.520	0.0180966
754.598	0.0177679
754.676	0.0177158
754.754	0.0176940
754.832	0.0174259
754.910	0.0172246
754.988	0.0169598
755.067	0.0170110
755.145	0.0169301
755.223	0.0168324
755.301	0.0169016
755.379	0.0169225
755.457	0.0168684
755.535	0.0169041
755.613	0.0169592
755.692	0.0170150
755.770	0.0171394
755.848	0.0172701
755.926	0.0174721
756.004	0.0175751
756.082	0.0177584
756.160	0.0177374
756.238	0.0179481
756.317	0.0180214
756.395	0.0180210
756.473	0.0180505
756.551	0.0183327
756.629	0.0183510
756.707	0.0182073
756.785	0.0182095
756.863	0.0181286
756.942	0.0180320
757.020	0.0178395
757.098	0.0176652
757.176	0.0174308
757.254	0.0173237
757.332	0.0169669
757.410	0.0168057
757.488	0.0166597
757.567	0.0166676
757.645	0.0164417
757.723	0.0164626
757.801	0.0164434
757.879	0.0165666
757.957	0.0165369
758.035	0.0166897
758.113	0.0167384
758.192	0.0170346
758.270	0.0172433
758.348	0.0173054
758.426	0.0175476
758.504	0.0177108
758.582	0.0178607
758.660	0.0179770
758.738	0.0182486
758.817	0.0184087
758.895	0.0183581
758.973	0.0183619
759.051	0.0187674
759.129	0.0188143
759.207	0.0189724
759.285	0.0191606
759.363	0.0190105
759.442	0.0190606
759.520	0.0191488
759.598	0.0190858
759.676	0.0191509
759.754	0.0191591
759.832	0.0189400
759.910	0.0189769
759.988	0.0189309
760.067	0.0188528
760.145	0.0187109
760.223	0.0187269
760.301	0.0186520
760.379	0.0187206
760.457	0.0185181
760.535	0.0185336
760.613	0.0184866
760.692	0.0185079
760.770	0.0182825
760.848	0.0182725
760.926	0.0180892
761.004	0.0179885
761.082	0.0180523
761.160	0.0179346
761.238	0.0178851
761.317	0.0177668
761.395	0.0176441
761.473	0.0177872
761.551	0.0177605
761.629	0.0176685
761.707	0.0177639
761.785	0.0177526
761.863	0.0178355
761.942	0.0180193
762.020	0.0179881
762.098	0.0180663
762.176	0.0181492
762.254	0.0182005
762.332	0.0185092
762.410	0.0183777
762.488	0.0181886
762.567	0.0183093
762.645	0.0182398
762.723	0.0180340
762.801	0.0180124
762.879	0.0177347
762.957	0.0174950
763.035	0.0174275
763.113	0.0172557
763.192	0.0171427
763.270	0.0170242
763.348	0.0169244
763.426	0.0169408
763.504	0.0168130
763.582	0.0166404
763.660	0.0168073
763.738	0.0167281
763.817	0.0168460
763.895	0.0168462
763.973	0.0167963
764.051	0.0170699
764.129	0.0172181
764.207	0.0172717
764.285	0.0173682
764.363	0.0176752
764.442	0.0178519
764.520	0.0179567
764.598	0.0180701
764.676	0.0180919
764.754	0.0180562
764.832	0.0183215
764.910	0.0183062
764.988	0.0180486
765.067	0.0181094
765.145	0.0180038
765.223	0.0179473
765.301	0.0179004
765.379	0.0177373
765.457	0.0176743
765.535	0.0176470
765.613	0.0174137
765.692	0.0173590
765.770	0.0172205
765.848	0.0173659
765.926	0.0172786
766.004	0.0172627
766.082	0.0172661
766.160	0.0173917
766.238	0.0173735
766.317	0.0175198
766.395	0.0177973
766.473	0.0178008
766.551	0.0179961
766.629	0.0181295
766.707	0.0183205
766.785	0.0185003
766.863	0.0185897
766.942	0.0187231
767.020	0.0188565
767.098	0.0190208
767.176	0.0189810
767.254	0.0191511
767.332	0.0192101
767.410	0.0193583
767.488	0.0195204
767.567	0.0193159
767.645	0.0191991
767.723	0.0193005
767.801	0.0192013
767.879	0.0189862
767.957	0.0189040
768.035	0.0186146
768.113	0.0185151
768.192	0.0182450
768.270	0.0181189
768.348	0.0179743
768.426	0.0178100
768.504	0.0175934
768.582	0.0174210
768.660	0.0175098
768.738	0.0174615
768.817	0.0174374
768.895	0.0174432
768.973	0.0176556
769.051	0.0176013
769.129	0.0177523
769.207	0.0179112
769.285	0.0179604
769.363	0.0181874
769.442	0.0181635
769.520	0.0183340
769.598	0.0182518
769.676	0.0183524
769.754	0.0184957
769.832	0.0183743
769.910	0.0182191
769.988	0.0182916
770.067	0.0182966
770.145	0.0182459
770.223	0.0180132
770.301	0.0176514
770.379	0.0177060
770.457	0.0176692
770.535	0.0176151
770.613	0.0174339
770.692	0.0173057
770.770	0.0171778
770.848	0.0170326
770.926	0.0169701
771.004	0.0168777
771.082	0.0167907
771.160	0.0167117
771.238	0.0166356
771.317	0.0165115
771.395	0.0167608
771.473	0.0165908
771.551	0.0165379
771.629	0.0165977
771.707	0.0166634
771.785	0.0169420
771.863	0.0171492
771.942	0.0171460
772.020	0.0174475
772.098	0.0175376
772.176	0.0176637
772.254	0.0178094
772.332	0.0180060
772.410	0.0181248
772.488	0.0183037
772.567	0.0183514
772.645	0.0183833
772.723	0.0184397
772.801	0.0186465
772.879	0.0186616
772.957	0.0186421
773.035	0.0185522
773.113	0.0184322
773.192	0.0186171
773.270	0.0183865
773.348	0.0182725
773.426	0.0182110
773.504	0.0179714
773.582	0.0178703
773.660	0.0175848
773.738	0.0175748
773.817	0.0176003
773.895	0.0173342
773.973	0.0173775
774.051	0.0173431
774.129	0.0172925
774.207	0.0175826
774.285	0.0176238
774.363	0.0178523
774.442	0.0180834
774.520	0.0183286
774.598	0.0185213
774.676	0.0189409
774.754	0.0188163
774.832	0.0190116
774.910	0.0194012
774.988	0.0195118
775.067	0.0194367
775.145	0.0196817
775.223	0.0195797
775.301	0.0193415
775.379	0.0192899
775.457	0.0193102
775.535	0.0192135
775.613	0.0188902
775.692	0.0188468
775.770	0.0186134
775.848	0.0183515
775.926	0.0183083
776.004	0.0181496
776.082	0.0179272
776.160	0.0178468
776.238	0.0175944
776.317	0.0176556
776.395	0.0174818
776.473	0.0172501
776.551	0.0173201
776.629	0.0171891
776.707	0.0170429
776.785	0.0170471
776.863	0.0170408
776.942	0.0169866
777.020	0.0169600
777.098	0.0169910
777.176	0.0170808
777.254	0.0171976
777.332	0.0172308
777.410	0.0173416
777.488	0.0174311
777.567	0.0176316
777.645	0.0178046
777.723	0.0178082
777.801	0.0179702
777.879	0.0181660
777.957	0.0182813
778.035	0.0182713
778.113	0.0183315
778.192	0.0183710
778.270	0.0183601
778.348	0.0184046
778.426	0.0183214
778.504	0.0183043
778.582	0.0182220
778.660	0.0180941
778.738	0.0179914
778.817	0.0177253
778.895	0.0176017
778.973	0.0174264
779.051	0.0172614
779.129	0.0172140
779.207	0.0170641
779.285	0.0169413
779.363	0.0167440
779.442	0.0167776
779.520	0.0166755
779.598	0.0166018
779.676	0.0167009
779.754	0.0166703
779.832	0.0166336
779.910	0.0166685
779.988	0.0167882
780.067	0.0170236
780.145	0.0172205
780.223	0.0173238
780.301	0.0176317
780.379	0.0177657
780.457	0.0180544
780.535	0.0184158
780.613	0.0185187
780.692	0.0186659
780.770	0.0186177
780.848	0.0187558
780.926	0.0189515
781.004	0.0190604
781.082	0.0190480
781.160	0.0191055
781.238	0.0190318
781.317	0.0190260
781.395	0.0190322
781.473	0.0189841
781.551	0.0189024
781.629	0.0188309
781.707	0.0188264
781.785	0.0186258
781.863	0.0187188
781.942	0.0184935
782.020	0.0183746
782.098	0.0182051
782.176	0.0181411
782.254	0.0180747
782.332	0.0179108
782.410	0.0177757
782.488	0.0178374
782.567	0.0175981
782.645	0.0175854
782.723	0.0176540
782.801	0.0177526
782.879	0.0175694
782.957	0.0178835
783.035	0.0179301
783.113	0.0179744
783.192	0.0181192
783.270	0.0182537
783.348	0.0185052
783.426	0.0183607
783.504	0.0184917
783.582	0.0186327
783.660	0.0187833
783.738	0.0186362
783.817	0.0186988
783.895	0.0186876
783.973	0.0185446
784.051	0.0184555
784.129	0.0182906
784.207	0.0183234
784.285	0.0182257
784.363	0.0180105
784.442	0.0179666
784.520	0.0178529
784.598	0.0177690
784.676	0.0176674
784.754	0.0174332
784.832	0.0174258
784.910	0.0174055
784.988	0.0172652
785.067	0.0173469
785.145	0.0170412
785.223	0.0169624
785.301	0.0169197
785.379	0.0168452
785.457	0.0170001
785.535	0.0169053
785.613	0.0169376
785.692	0.0170193
785.770	0.0170193
785.848	0.0170206
785.926	0.0171159
786.004	0.0172454
786.082	0.0173642
786.160	0.0175246
786.238	0.0177054
786.317	0.0176888
786.395	0.0177827
786.473	0.0179316
786.551	0.0180201
786.629	0.0181385
786.707	0.0182845
786.785	0.0183948
786.863	0.0185011
786.942	0.0183990
787.020	0.0184359
787.098	0.0185104
787.176	0.0184828
787.254	0.0183728
787.332	0.0184063
787.410	0.0183894
787.488	0.0183941
787.567	0.0181411
787.645	0.0180052
787.723	0.0180154
787.801	0.0178473
787.879	0.0176750
787.957	0.0176488
788.035	0.0174732
788.113	0.0173190
788.192	0.0173089
788.270	0.0172149
788.348	0.0172823
788.426	0.0173965
788.504	0.0173353
788.582	0.0174284
788.660	0.0176892
788.738	0.0178674
788.817	0.0177550
788.895	0.0179820
788.973	0.0180887
789.051	0.0183066
789.129	0.0185196
789.207	0.0185062
789.285	0.0185801
789.363	0.0185301
789.442	0.0187341
789.520	0.0186443
789.598	0.0188833
789.676	0.0185979
789.754	0.0185186
789.832	0.0185418
789.910	0.0185511
789.988	0.0184592
790.067	0.0183286
790.145	0.0184597
790.223	0.0184992
790.301	0.0181396
790.379	0.0181075
790.457	0.0181475
790.535	0.0180719
790.613	0.0180235
790.692	0.0178856
790.770	0.0178648
790.848	0.0179537
790.926	0.0179237
791.004	0.0179549
791.082	0.0179598
791.160	0.0178806
791.238	0.0178819
791.317	0.0177971
791.395	0.0176696
791.473	0.0177297
791.551	0.0179562
791.629	0.0179984
791.707	0.0178009
791.785	0.0180689
791.863	0.0181326
791.942	0.0180679
792.020	0.0181858
792.098	0.0183581
792.176	0.0183009
792.254	0.0184124
792.332	0.0183567
792.410	0.0182819
792.488	0.0182278
792.567	0.0182351
792.645	0.0180920
792.723	0.0180155
792.801	0.0179532
792.879	0.0178577
792.957	0.0175917
793.035	0.0175060
793.113	0.0173978
793.192	0.0173931
793.270	0.0173298
793.348	0.0171191
793.426	0.0170019
793.504	0.0169501
793.582	0.0169226
793.660	0.0168356
793.738	0.0168311
793.817	0.0168456
793.895	0.0168214
793.973	0.0170513
794.051	0.0171440
794.129	0.0171039
794.207	0.0172758
794.285	0.0174679
794.363	0.0175342
794.442	0.0176719
794.520	0.0179486
794.598	0.0180553
794.676	0.0182304
794.754	0.0183984
794.832	0.0184899
794.910	0.0185448
794.988	0.0186448
795.067	0.0187673
795.145	0.0189272
795.223	0.0187867
795.301	0.0188919
795.379	0.0189324
795.457	0.0191228
795.535	0.0190410
795.613	0.0187712
795.692	0.0187109
795.770	0.0185796
795.848	0.0185648
795.926	0.0184561
796.004	0.0183320
796.082	0.0182482
796.160	0.0179629
796.238	0.0178550
796.317	0.0178441
796.395	0.0176667
796.473	0.0173668
796.551	0.0173104
796.629	0.0170671
796.707	0.0170959
796.785	0.0169913
796.863	0.0167982
796.942	0.0166619
797.020	0.0166453
797.098	0.0166756
797.176	0.0168139
797.254	0.0169134
797.332	0.0168813
797.410	0.0170174
797.488	0.0171931
797.567	0.0175276
797.645	0.0177375
797.723	0.0179402
797.801	0.0180954
797.879	0.0182534
797.957	0.0185448
798.035	0.0187139
798.113	0.0187640
798.192	0.0189194
798.270	0.0190264
798.348	0.0191738
798.426	0.0191769
798.504	0.0190611
798.582	0.0191074
798.660	0.0189713
798.738	0.0189918
798.817	0.0188344
798.895	0.0187441
798.973	0.0188044
799.051	0.0184943
799.129	0.0184588
799.207	0.0184115
799.285	0.0182000
799.363	0.0180476
799.442	0.0181170
799.520	0.0180274
799.598	0.0179486
799.676	0.0178828
799.754	0.0180180
799.832	0.0180868
799.910	0.0182803
799.988	0.0183603
800.067	0.0182323
800.145	0.0184032
800.223	0.0183265
800.301	0.0183789
800.379	0.0184872
800.457	0.0183324
800.535	0.0186264
800.613	0.0185224
800.692	0.0184103
800.770	0.0183220
800.848	0.0183536
800.926	0.0181175
801.004	0.0180180
801.082	0.0178784
801.160	0.0178683
801.238	0.0176981
801.317	0.0177045
801.395	0.0174065
801.473	0.0172964
801.551	0.0171545
801.629	0.0169636
801.707	0.0168529
801.785	0.0166918
801.863	0.0165024
801.942	0.0163203
802.020	0.0161784
802.098	0.0160992
802.176	0.0161039
802.254	0.0160349
802.332	0.0160403
802.410	0.0159846
802.488	0.0159462
802.567	0.0160536
802.645	0.0163133
802.723	0.0162608
802.801	0.0164287
802.879	0.0165718
802.957	0.0167101
803.035	0.0169620
803.113	0.0171770
803.192	0.0174435
803.270	0.0175035
803.348	0.0179442
803.426	0.0181883
803.504	0.0184162
803.582	0.0185049
803.660	0.0187056
803.738	0.0189809
803.817	0.0189759
803.895	0.0191455
803.973	0.0192921
804.051	0.0193814
804.129	0.0195342
804.207	0.0195844
804.285	0.0193865
804.363	0.0195095
804.442	0.0194944
804.520	0.0195473
804.598	0.0194588
804.676	0.0194783
804.754	0.0192903
804.832	0.0191592
804.910	0.0191715
804.988	0.0191068
805.067	0.0188876
805.145	0.0190275
805.223	0.0187919
805.301	0.0187343
805.379	0.0187856
805.457	0.0186905
805.535	0.0186364
805.613	0.0185253
805.692	0.0185106
805.770	0.0187092
805.848	0.0185735
805.926	0.0183850
806.004	0.0185774
806.082	0.0186245
806.160	0.0187193
806.238	0.0186494
806.317	0.0185445
806.395	0.0186005
806.473	0.0185847
806.551	0.0184161
806.629	0.0182288
806.707	0.0181631
806.785	0.0180466
806.863	0.0178982
806.942	0.0177979
807.020	0.0175354
807.098	0.0172379
807.176	0.0171056
807.254	0.0169950
807.332	0.0166686
807.410	0.0165325
807.488	0.0162833
807.567	0.0161531
807.645	0.0160527
807.723	0.0159234
807.801	0.0157684
807.879	0.0157335
807.957	0.0155950
808.035	0.0156052
808.113	0.0156377
808.192	0.0156846
808.270	0.0157956
808.348	0.0159637
808.426	0.0160709
808.504	0.0164109
808.582	0.0165810
808.660	0.0168598
808.738	0.0170819
808.817	0.0173215
808.895	0.0176902
808.973	0.0179223
809.051	0.0181628
809.129	0.0183274
809.207	0.0185310
809.285	0.0187872
809.363	0.0188089
809.442	0.0191483
809.520	0.0192621
809.598	0.0192397
809.676	0.0194905
809.754	0.0194576
809.832	0.0195260
809.910	0.0195642
809.988	0.0195635
810.067	0.0196252
810.145	0.0196496
810.223	0.0194354
810.301	0.0195115
810.379	0.0194068
810.457	0.0192072
810.535	0.0191964
810.613	0.0190764
810.692	0.0190895
810.770	0.0190952
810.848	0.0187960
810.926	0.0187280
811.004	0.0187004
811.082	0.0185976
811.160	0.0183296
811.238	0.0183101
811.317	0.0182149
811.395	0.0181037
811.473	0.0179756
811.551	0.0179753
811.629	0.0177713
811.707	0.0179667
811.785	0.0178957
811.863	0.0177865
811.942	0.0176486
812.020	0.0176590
812.098	0.0176724
812.176	0.0176644
812.254	0.0176553
812.332	0.0174499
812.410	0.0174955
812.488	0.0174367
812.567	0.0172424
812.645	0.0173123
812.723	0.0170597
812.801	0.0171113
812.879	0.0169323
812.957	0.0166378
813.035	0.0167493
813.113	0.0165485
813.192	0.0165536
813.270	0.0166461
813.348	0.0164868
813.426	0.0163782
813.504	0.0163275
813.582	0.0163891
813.660	0.0164912
813.738	0.0165626
813.817	0.0166424
813.895	0.0167789
813.973	0.0170081
814.051	0.0172871
814.129	0.0174340
814.207	0.0174549
814.285	0.0176516
814.363	0.0178970
814.442	0.0181742
814.520	0.0183663
814.598	0.0185169
814.676	0.0185770
814.754	0.0188122
814.832	0.0188838
814.910	0.0189494
814.988	0.0189983
815.067	0.0190363
815.145	0.0191363
815.223	0.0191567
815.301	0.0191817
815.379	0.0191987
815.457	0.0190713
815.535	0.0189699
815.613	0.0190237
815.692	0.0191040
815.770	0.0189697
815.848	0.0187460
815.926	0.0188377
816.004	0.0187404
816.082	0.0188136
816.160	0.0185962
816.238	0.0186868
816.317	0.0186996
816.395	0.0186088
816.473	0.0184455
816.551	0.0184515
816.629	0.0184587
816.707	0.0183957
816.785	0.0184148
816.863	0.0181465
816.942	0.0180199
817.020	0.0180811
817.098	0.0179592
817.176	0.0177194
817.254	0.0178079
817.332	0.0178261
817.410	0.0174763
817.488	0.0173977
817.567	0.0175593
817.645	0.0175035
817.723	0.0173446
817.801	0.0171828
817.879	0.0171964
817.957	0.0172355
818.035	0.0171402
818.113	0.0170039
818.192	0.0169788
818.270	0.0169723
818.348	0.0167211
818.426	0.0168233
818.504	0.0167146
818.582	0.0167952
818.660	0.0169621
818.738	0.0167291
818.817	0.0165355
818.895	0.0165465
818.973	0.0166742
819.051	0.0166328
819.129	0.0165934
819.207	0.0166188
819.285	0.0165778
819.363	0.0166253
819.442	0.0169382
819.520	0.0169431
819.598	0.0170127
819.676	0.0171976
819.754	0.0172643
819.832	0.0173687
819.910	0.0176147
819.988	0.0177834
820.067	0.0178127
820.145	0.0182748
820.223	0.0183601
820.301	0.0184657
820.379	0.0186569
820.457	0.0188118
820.535	0.0189408
820.613	0.0190032
820.692	0.0191396
820.770	0.0192018
820.848	0.0192973
820.926	0.0194952
821.004	0.0193597
821.082	0.0193072
821.160	0.0195231
821.238	0.0195554
821.317	0.0194606
821.395	0.0194745
821.473	0.0192284
821.551	0.0192369
821.629	0.0192202
821.707	0.0192891
821.785	0.0191090
821.863	0.0189653
821.942	0.0191299
822.020	0.0188429
822.098	0.0189420
822.176	0.0188033
822.254	0.0185688
822.332	0.0185433
822.410	0.0184731
822.488	0.0184486
822.567	0.0182132
822.645	0.0179727
822.723	0.0178955
822.801	0.0177558
822.879	0.0177927
822.957	0.0175481
823.035	0.0174625
823.113	0.0175279
823.192	0.0173298
823.270	0.0172346
823.348	0.0172518
823.426	0.0171474
823.504	0.0170354
823.582	0.0168881
823.660	0.0170985
823.738	0.0169655
823.817	0.0168555
823.895	0.0169434
823.973	0.0167903
824.051	0.0169629
824.129	0.0171927
824.207	0.0171189
824.285	0.0171704
824.363	0.0171456
824.442	0.0171748
824.520	0.0172120
824.598	0.0173154
824.676	0.0172536
824.754	0.0172601
824.832	0.0171931
824.910	0.0173717
824.988	0.0172592
825.067	0.0174674
825.145	0.0173312
825.223	0.0173720
825.301	0.0173530
825.379	0.0174191
825.457	0.0173246
825.535	0.0173077
825.613	0.0174020
825.692	0.0174590
825.770	0.0175941
825.848	0.0174125
825.926	0.0176128
826.004	0.0176678
826.082	0.0177320
826.160	0.0179075
826.238	0.0178791
826.317	0.0179420
826.395	0.0180650
826.473	0.0183002
826.551	0.0181565
826.629	0.0182687
826.707	0.0184122
826.785	0.0184664
826.863	0.0183508
826.942	0.0184769
827.020	0.0185591
827.098	0.0186475
827.176	0.0186566
827.254	0.0186050
827.332	0.0185954
827.410	0.0186855
827.488	0.0188034
827.567	0.0187803
827.645	0.0187578
827.723	0.0187181
827.801	0.0186477
827.879	0.0186705
827.957	0.0187016
828.035	0.0185996
828.113	0.0185749
828.192	0.0185064
828.270	0.0184444
828.348	0.0185376
828.426	0.0183976
828.504	0.0183038
828.582	0.0184109
828.660	0.0183920
828.738	0.0181598
828.817	0.0181144
828.895	0.0182100
828.973	0.0180959
829.051	0.0180470
829.129	0.0178598
829.207	0.0179803
829.285	0.0179043
829.363	0.0179242
829.442	0.0178321
829.520	0.0179317
829.598	0.0178610
829.676	0.0177989
829.754	0.0178104
829.832	0.0178028
829.910	0.0178259
829.988	0.0177266
830.067	0.0175935
830.145	0.0176771
830.223	0.0175409
830.301	0.0175726
830.379	0.0175166
830.457	0.0176434
830.535	0.0175589
830.613	0.0174357
830.692	0.0173294
830.770	0.0173443
830.848	0.0175313
830.926	0.0175384
831.004	0.0174905
831.082	0.0173564
831.160	0.0173382
831.238	0.0172930
831.317	0.0174799
831.395	0.0173882
831.473	0.0172442
831.551	0.0173412
831.629	0.0173945
831.707	0.0174802
831.785	0.0174572
831.863	0.0174307
831.942	0.0175266
832.020	0.0175903
832.098	0.0177274
832.176	0.0176732
832.254	0.0175850
832.332	0.0177975
832.410	0.0178652
832.488	0.0177856
832.567	0.0177393
832.645	0.0178587
832.723	0.0178722
832.801	0.0177792
832.879	0.0178400
832.957	0.0179677
833.035	0.0179222
833.113	0.0180491
833.192	0.0180977
833.270	0.0180079
833.348	0.0181068
833.426	0.0181800
833.504	0.0181456
833.582	0.0183224
833.660	0.0181977
833.738	0.0181595
833.817	0.0182826
833.895	0.0181445
833.973	0.0182784
834.051	0.0182345
834.129	0.0181996
834.207	0.0181548
834.285	0.0182131
834.363	0.0181306
834.442	0.0180577
834.520	0.0180115
834.598	0.0179454
834.676	0.0180344
834.754	0.0179383
834.832	0.0179236
834.910	0.0180397
834.988	0.0179763
835.067	0.0179271
835.145	0.0180097
835.223	0.0179510
835.301	0.0180944
835.379	0.0180209
835.457	0.0180901
835.535	0.0181128
835.613	0.0181239
835.692	0.0181637
835.770	0.0183327
835.848	0.0184264
835.926	0.0183953
836.004	0.0183173
836.082	0.0184171
836.160	0.0184994
836.238	0.0183849
836.317	0.0182792
836.395	0.0184354
836.473	0.0183650
836.551	0.0182481
836.629	0.0181232
836.707	0.0183592
836.785	0.0180959
836.863	0.0179739
836.942	0.0180155
837.020	0.0180305
837.098	0.0178910
837.176	0.0177094
837.254	0.0176839
837.332	0.0176868
837.410	0.0175737
837.488	0.0175272
837.567	0.0175343
837.645	0.0173251
837.723	0.0174621
837.801	0.0174350
837.879	0.0173090
837.957	0.0174104
838.035	0.0173389
838.113	0.0173004
838.192	0.0172711
838.270	0.0173067
838.348	0.0173945
838.426	0.0173074
838.504	0.0174969
838.582	0.0173325
838.660	0.0173824
838.738	0.0173539
838.817	0.0173846
838.895	0.0176149
838.973	0.0174991
839.051	0.0176390
839.129	0.0175947
839.207	0.0177033
839.285	0.0177298
839.363	0.0176356
839.442	0.0178354
839.520	0.0178635
839.598	0.0179087
839.676	0.0179155
839.754	0.0180052
839.832	0.0180351
839.910	0.0180039
839.988	0.0181985
840.067	0.0181248
840.145	0.0180392
840.223	0.0181797
840.301	0.0181464
840.379	0.0181324
840.457	0.0181026
840.535	0.0181226
840.613	0.0181214
840.692	0.0180922
840.770	0.0182337
840.848	0.0182101
840.926	0.0181895
841.004	0.0181901
841.082	0.0182686
841.160	0.0183027
841.238	0.0182974
841.317	0.0183643
841.395	0.0182618
841.473	0.0182670
841.551	0.0182533
841.629	0.0182192
841.707	0.0184392
841.785	0.0182918
841.863	0.0182018
841.942	0.0182102
842.020	0.0182749
842.098	0.0183707
842.176	0.0183729
842.254	0.0182529
842.332	0.0182544
842.410	0.0181911
842.488	0.0180085
842.567	0.0180933
842.645	0.0179996
842.723	0.0179588
842.801	0.0178169
842.879	0.0176656
842.957	0.0176394
843.035	0.0176254
843.113	0.0173875
843.192	0.0172521
843.270	0.0172282
843.348	0.0172408
843.426	0.0171669
843.504	0.0171342
843.582	0.0171368
843.660	0.0170098
843.738	0.0172047
843.817	0.0173417
843.895	0.0173411
843.973	0.0174075
844.051	0.0176263
844.129	0.0176313
844.207	0.0175756
844.285	0.0178288
844.363	0.0178809
844.442	0.0179886
844.520	0.0179871
844.598	0.0180435
844.676	0.0180377
844.754	0.0182404
844.832	0.0181736
844.910	0.0182661
844.988	0.0182676
845.067	0.0182491
845.145	0.0182565
845.223	0.0183816
845.301	0.0183525
845.379	0.0183070
845.457	0.0181762
845.535	0.0182100
845.613	0.0181416
845.692	0.0181289
845.770	0.0182208
845.848	0.0180482
845.926	0.0179372
846.004	0.0179320
846.082	0.0178405
846.160	0.0179241
846.238	0.0177709
846.317	0.0179253
846.395	0.0178219
846.473	0.0179285
846.551	0.0179899
846.629	0.0178787
846.707	0.0177853
846.785	0.0179716
846.863	0.0178724
846.942	0.0179762
847.020	0.0180152
847.098	0.0181177
847.176	0.0181665
847.254	0.0180489
847.332	0.0180182
847.410	0.0182072
847.488	0.0182150
847.567	0.0180994
847.645	0.0181342
847.723	0.0182186
847.801	0.0182027
847.879	0.0181799
847.957	0.0180682
848.035	0.0181033
848.113	0.0180972
848.192	0.0179138
848.270	0.0179837
848.348	0.0178912
848.426	0.0178328
848.504	0.0177430
848.582	0.0177192
848.660	0.0175388
848.738	0.0177279
848.817	0.0176599
848.895	0.0174698
848.973	0.0174272
849.051	0.0173717
849.129	0.0172803
849.207	0.0173208
849.285	0.0173272
849.363	0.0174242
849.442	0.0173631
849.520	0.0175746
849.598	0.0174379
849.676	0.0173211
849.754	0.0172753
849.832	0.0174816
849.910	0.0176474
849.988	0.0178164
850.067	0.0177978
850.145	0.0177816
850.223	0.0178651
850.301	0.0180220
850.379	0.0181032
850.457	0.0181880
850.535	0.0182430
850.613	0.0181517
850.692	0.0182048
850.770	0.0181027
850.848	0.0182767
850.926	0.0182600
851.004	0.0183144
851.082	0.0182681
851.160	0.0182092
851.238	0.0182263
851.317	0.0182166
851.395	0.0181631
851.473	0.0182252
851.551	0.0182375
851.629	0.0182084
851.707	0.0180203
851.785	0.0180621
851.863	0.0181783
851.942	0.0180715
852.020	0.0180979
852.098	0.0181750
852.176	0.0180547
852.254	0.0180155
852.332	0.0181448
852.410	0.0181191
852.488	0.0180421
852.567	0.0181216
852.645	0.0181316
852.723	0.0182452
852.801	0.0181526
852.879	0.0181942
852.957	0.0183045
853.035	0.0181949
853.113	0.0181936
853.192	0.0182206
853.270	0.0180505
853.348	0.0182312
853.426	0.0181084
853.504	0.0180536
853.582	0.0179391
853.660	0.0179120
853.738	0.0177421
853.817	0.0177995
853.895	0.0175417
853.973	0.0175065
854.051	0.0174021
854.129	0.0174937
854.207	0.0175009
854.285	0.0171651
854.363	0.0172207
854.442	0.0171833
854.520	0.0172197
854.598	0.0171423
854.676	0.0171738
854.754	0.0173289
854.832	0.0173734
854.910	0.0174654
854.988	0.0173904
855.067	0.0173970
855.145	0.0174713
855.223	0.0175923
855.301	0.0176447
855.379	0.0177106
855.457	0.0179470
855.535	0.0178261
855.613	0.0179353
855.692	0.0180489
855.770	0.0180179
855.848	0.0181636
855.926	0.0181305
856.004	0.0181828
856.082	0.0181989
856.160	0.0182726
856.238	0.0181391
856.317	0.0182491
856.395	0.0182929
856.473	0.0183755
856.551	0.0182635
856.629	0.0183553
856.707	0.0183972
856.785	0.0184042
856.863	0.0182840
856.942	0.0183628
857.020	0.0185194
857.098	0.0184759
857.176	0.0182802
857.254	0.0182013
857.332	0.0182662
857.410	0.0183009
857.488	0.0183352
857.567	0.0182474
857.645	0.0181270
857.723	0.0181476
857.801	0.0180895
857.879	0.0181101
857.957	0.0181548
858.035	0.0179987
858.113	0.0179868
858.192	0.0179626
858.270	0.0180631
858.348	0.0180006
858.426	0.0179082
858.504	0.0179369
858.582	0.0181696
858.660	0.0179845
858.738	0.0179964
858.817	0.0179864
858.895	0.0180265
858.973	0.0178387
859.051	0.0178300
859.129	0.0177629
859.207	0.0177994
859.285	0.0178451
859.363	0.0177885
859.442	0.0176215
859.520	0.0175880
859.598	0.0174924
859.676	0.0175702
859.754	0.0176033
859.832	0.0175575
859.910	0.0173025
859.988	0.0173640
860.067	0.0174942
860.145	0.0175249
860.223	0.0173023
860.301	0.0174920
860.379	0.0175713
860.457	0.0174841
860.535	0.0175599
860.613	0.0176390
860.692	0.0177441
860.770	0.0175864
860.848	0.0176890
860.926	0.0178833
861.004	0.0177868
861.082	0.0177648
861.160	0.0178751
861.238	0.0177792
861.317	0.0178170
861.395	0.0179508
861.473	0.0179060
861.551	0.0178574
861.629	0.0181364
861.707	0.0180114
861.785	0.0179842
861.863	0.0179774
861.942	0.0179998
862.020	0.0181896
862.098	0.0181491
862.176	0.0181697
862.254	0.0181264
862.332	0.0181403
862.410	0.0181343
862.488	0.0180795
862.567	0.0182487
862.645	0.0182291
862.723	0.0181435
862.801	0.0182539
862.879	0.0183126
862.957	0.0183298
863.035	0.0182360
863.113	0.0184055
863.192	0.0183536
863.270	0.0182880
863.348	0.0183955
863.426	0.0183679
863.504	0.0182822
863.582	0.0183416
863.660	0.0181825
863.738	0.0182561
863.817	0.0182599
863.895	0.0181950
863.973	0.0182882
864.051	0.0181877
864.129	0.0181348
864.207	0.0182275
864.285	0.0179928
864.363	0.0181387
864.442	0.0180020
864.520	0.0179902
864.598	0.0179498
864.676	0.0181065
864.754	0.0179604
864.832	0.0177686
864.910	0.0179440
864.988	0.0177660
865.067	0.0177485
865.145	0.0177586
865.223	0.0177445
865.301	0.0177048
865.379	0.0177096
865.457	0.0176898
865.535	0.0174166
865.613	0.0176918
865.692	0.0175713
865.770	0.0173271
865.848	0.0176374
865.926	0.0174985
866.004	0.0172556
866.082	0.0174112
866.160	0.0175952
866.238	0.0175790
866.317	0.0175100
866.395	0.0175950
866.473	0.0176536
866.551	0.0177296
866.629	0.0176582
866.707	0.0177901
866.785	0.0178288
866.863	0.0178465
866.942	0.0176965
867.020	0.0177560
867.098	0.0179266
867.176	0.0179264
867.254	0.0178223
867.332	0.0179589
867.410	0.0179240
867.488	0.0180265
867.567	0.0180704
867.645	0.0180621
867.723	0.0179900
867.801	0.0181316
867.879	0.0180853
867.957	0.0181364
868.035	0.0180778
868.113	0.0181934
868.192	0.0181920
868.270	0.0180773
868.348	0.0182922
868.426	0.0182162
868.504	0.0182113
868.582	0.0180253
868.660	0.0181647
868.738	0.0182307
868.817	0.0182942
868.895	0.0181694
868.973	0.0182347
869.051	0.0183412
869.129	0.0182970
869.207	0.0183703
869.285	0.0183159
869.363	0.0182565
869.442	0.0181866
869.520	0.0182507
869.598	0.0183464
869.676	0.0183098
869.754	0.0181860
869.832	0.0180675
869.910	0.0182007
869.988	0.0182931
870.067	0.0182668
870.145	0.0181713
870.223	0.0180632
870.301	0.0181238
870.379	0.0180961
870.457	0.0179129
870.535	0.0179358
870.613	0.0179127
870.692	0.0178689
870.770	0.0179215
870.848	0.0177468
870.926	0.0178239
871.004	0.0176174
871.082	0.0175481
871.160	0.0176402
871.238	0.0176196
871.317	0.0174324
871.395	0.0175606
871.473	0.0174198
871.551	0.0174442
871.629	0.0175406
871.707	0.0175554
871.785	0.0174807
871.863	0.0174939
871.942	0.0173917
872.020	0.0176772
872.098	0.0176768
872.176	0.0176778
872.254	0.0178056
872.332	0.0177817
872.410	0.0179185
872.488	0.0180267
872.567	0.0179783
872.645	0.0180923
872.723	0.0181178
872.801	0.0181292
872.879	0.0180940
872.957	0.0181367
873.035	0.0180345
873.113	0.0180329
873.192	0.0180369
873.270	0.0180222
873.348	0.0180226
873.426	0.0179679
873.504	0.0178923
873.582	0.0179795
873.660	0.0180682
873.738	0.0179303
873.817	0.0179529
873.895	0.0178921
873.973	0.0180076
874.051	0.0180441
874.129	0.0178741
874.207	0.0179292
874.285	0.0181392
874.363	0.0180356
874.442	0.0181160
874.520	0.0181586
874.598	0.0182040
874.676	0.0181885
874.754	0.0182587
874.832	0.0182676
874.910	0.0182075
874.988	0.0182262
875.067	0.0181514
875.145	0.0181113
875.223	0.0181962
875.301	0.0181953
875.379	0.0179662
875.457	0.0180318
875.535	0.0180347
875.613	0.0179415
875.692	0.0180348
875.770	0.0179556
875.848	0.0176790
875.926	0.0178744
876.004	0.0179041
876.082	0.0177263
876.160	0.0177888
876.238	0.0176736
876.317	0.0176920
876.395	0.0177546
876.473	0.0177219
876.551	0.0177061
876.629	0.0176559
876.707	0.0176442
876.785	0.0177246
876.863	0.0177837
876.942	0.0177463
877.020	0.0178910
877.098	0.0177046
877.176	0.0175788
877.254	0.0176565
877.332	0.0177686
877.410	0.0177217
877.488	0.0177736
877.567	0.0178868
877.645	0.0177757
877.723	0.0176997
877.801	0.0177507
877.879	0.0178452
877.957	0.0177178
878.035	0.0178283
878.113	0.0177903
878.192	0.0178510
878.270	0.0179235
878.348	0.0179185
878.426	0.0179352
878.504	0.0179397
878.582	0.0180927
878.660	0.0180456
878.738	0.0181386
878.817	0.0182572
878.895	0.0180921
878.973	0.0179621
879.051	0.0181466
879.129	0.0181490
879.207	0.0182251
879.285	0.0181315
879.363	0.0181320
879.442	0.0181976
879.520	0.0181228
879.598	0.0182114
879.676	0.0181762
879.754	0.0180921
879.832	0.0181323
879.910	0.0182318
879.988	0.0180936
880.067	0.0180347
880.145	0.0181148
880.223	0.0181295
880.301	0.0180283
880.379	0.0181499
880.457	0.0179688
880.535	0.0180527
880.613	0.0180697
880.692	0.0181087
880.770	0.0181083
880.848	0.0181158
880.926	0.0180313
881.004	0.0179669
881.082	0.0179651
881.160	0.0180712
881.238	0.0180815
881.317	0.0179669
881.395	0.0180324
881.473	0.0179800
881.551	0.0178381
881.629	0.0180159
881.707	0.0179375
881.785	0.0176656
881.863	0.0178426
881.942	0.0179158
882.020	0.0178974
882.098	0.0178293
882.176	0.0176578
882.254	0.0177660
882.332	0.0178394
882.410	0.0177498
882.488	0.0177824
882.567	0.0178336
882.645	0.0176504
882.723	0.0176594
882.801	0.0176801
882.879	0.0177409
882.957	0.0178459
883.035	0.0177359
883.113	0.0176588
883.192	0.0178052
883.270	0.0176753
883.348	0.0178262
883.426	0.0176886
883.504	0.0177419
883.582	0.0175491
883.660	0.0178228
883.738	0.0178532
883.817	0.0178439
883.895	0.0178455
883.973	0.0179153
884.051	0.0179155
884.129	0.0180241
884.207	0.0180319
884.285	0.0181104
884.363	0.0180059
884.442	0.0181387
884.520	0.0181675
884.598	0.0180622
884.676	0.0180768
884.754	0.0179483
884.832	0.0179442
884.910	0.0180239
884.988	0.0178776
885.067	0.0178005
885.145	0.0180070
885.223	0.0178770
885.301	0.0177332
885.379	0.0180532
885.457	0.0180346
885.535	0.0178775
885.613	0.0180149
885.692	0.0180503
885.770	0.0180064
885.848	0.0180916
885.926	0.0181282
886.004	0.0182047
886.082	0.0181255
886.160	0.0182220
886.238	0.0181781
886.317	0.0181030
886.395	0.0182941
886.473	0.0183804
886.551	0.0182827
886.629	0.0183144
886.707	0.0182595
886.785	0.0182099
886.863	0.0182749
886.942	0.0183151
887.020	0.0181339
887.098	0.0182560
887.176	0.0181768
887.254	0.0179957
887.332	0.0181245
887.410	0.0178921
887.488	0.0178545
887.567	0.0177865
887.645	0.0175435
887.723	0.0175407
887.801	0.0176547
887.879	0.0176267
887.957	0.0174915
888.035	0.0175533
888.113	0.0174034
888.192	0.0175148
888.270	0.0175677
888.348	0.0175504
888.426	0.0176418
888.504	0.0176672
888.582	0.0178918
888.660	0.0176933
888.738	0.0177354
888.817	0.0178359
888.895	0.0177818
888.973	0.0180358
889.051	0.0178890
889.129	0.0180545
889.207	0.0180499
889.285	0.0179465
889.363	0.0180853
889.442	0.0181399
889.520	0.0182400
889.598	0.0183080
889.676	0.0181953
889.754	0.0182172
889.832	0.0182014
889.910	0.0183730
889.988	0.0182932
890.067	0.0183454
890.145	0.0183202
890.223	0.0182917
890.301	0.0180648
890.379	0.0180862
890.457	0.0182419
890.535	0.0181087
890.613	0.0179946
890.692	0.0179568
890.770	0.0178611
890.848	0.0177859
890.926	0.0178054
891.004	0.0178269
891.082	0.0177646
891.160	0.0176136
891.238	0.0177507
891.317	0.0176357
891.395	0.0176358
891.473	0.0176502
891.551	0.0176658
891.629	0.0176353
891.707	0.0175260
891.785	0.0176908
891.863	0.0178081
891.942	0.0178131
892.020	0.0177405
892.098	0.0176089
892.176	0.0177419
892.254	0.0176247
892.332	0.0177429
892.410	0.0177446
892.488	0.0176768
892.567	0.0177454
892.645	0.0176593
892.723	0.0178172
892.801	0.0178008
892.879	0.0177203
892.957	0.0179211
893.035	0.0179185
893.113	0.0179973
893.192	0.0179905
893.270	0.0181612
893.348	0.0182775
893.426	0.0183424
893.504	0.0182717
893.582	0.0184501
893.660	0.0184052
893.738	0.0183179
893.817	0.0183018
893.895	0.0182743
893.973	0.0182044
894.051	0.0181205
894.129	0.0181155
894.207	0.0180376
894.285	0.0180106
894.363	0.0181116
894.442	0.0180494
894.520	0.0180776
894.598	0.0181287
894.676	0.0179891
894.754	0.0179749
894.832	0.0179906
894.910	0.0182105
894.988	0.0182513
895.067	0.0180390
895.145	0.0181858
895.223	0.0180965
895.301	0.0180687
895.379	0.0182568
895.457	0.0182836
895.535	0.0183064
895.613	0.0183075
895.692	0.0184076
895.770	0.0184222
895.848	0.0183497
895.926	0.0183726
896.004	0.0183962
896.082	0.0183967
896.160	0.0182518
896.238	0.0181019
896.317	0.0182212
896.395	0.0180315
896.473	0.0178471
896.551	0.0181296
896.629	0.0178765
896.707	0.0177094
896.785	0.0176948
896.863	0.0174628
896.942	0.0175429
897.020	0.0174760
897.098	0.0175294
897.176	0.0174545
897.254	0.0174696
897.332	0.0172122
897.410	0.0173220
897.488	0.0172701
897.567	0.0172699
897.645	0.0174232
897.723	0.0174389
897.801	0.0173648
897.879	0.0173266
897.957	0.0173573
898.035	0.0175209
898.113	0.0175401
898.192	0.0175818
898.270	0.0176336
898.348	0.0176230
898.426	0.0177834
898.504	0.0177691
898.582	0.0180179
898.660	0.0180518
898.738	0.0181779
898.817	0.0181460
898.895	0.0183277
898.973	0.0184142
899.051	0.0183633
899.129	0.0184093
899.207	0.0183502
899.285	0.0184702
899.363	0.0184778
899.442	0.0182359
899.520	0.0181838
899.598	0.0182927
899.676	0.0181594
899.754	0.0179237
899.832	0.0181062
899.910	0.0179671
899.988	0.0178639
900.067	0.0177238
900.145	0.0177853
900.223	0.0178481
900.301	0.0176411
900.379	0.0177312
900.457	0.0177195
900.535	0.0175912
900.613	0.0178127
900.692	0.0178857
900.770	0.0179365
900.848	0.0180543
900.926	0.0180370
901.004	0.0181165
901.082	0.0181618
901.160	0.0183932
901.238	0.0184615
901.317	0.0185572
901.395	0.0185551
901.473	0.0185922
901.551	0.0187566
901.629	0.0187035
901.707	0.0185587
901.785	0.0186665
901.863	0.0186448
901.942	0.0184330
902.020	0.0185081
902.098	0.0183166
902.176	0.0181454
902.254	0.0180718
902.332	0.0179245
902.410	0.0176670
902.488	0.0176120
902.567	0.0175264
902.645	0.0174497
902.723	0.0173157
902.801	0.0171209
902.879	0.0173037
902.957	0.0171552
903.035	0.0170266
903.113	0.0170554
903.192	0.0172870
903.270	0.0170638
903.348	0.0170631
903.426	0.0171709
903.504	0.0173489
903.582	0.0174760
903.660	0.0174776
903.738	0.0174319
903.817	0.0177449
903.895	0.0180242
903.973	0.0177955
904.051	0.0179743
904.129	0.0182990
904.207	0.0183701
904.285	0.0183264
904.363	0.0183654
904.442	0.0183578
904.520	0.0185797
904.598	0.0184403
904.676	0.0185145
904.754	0.0184442
904.832	0.0184230
904.910	0.0183932
904.988	0.0183131
905.067	0.0183292
905.145	0.0182107
905.223	0.0181158
905.301	0.0181081
905.379	0.0180708
905.457	0.0180499
905.535	0.0179796
905.613	0.0177444
905.692	0.0177680
905.770	0.0176736
905.848	0.0176253
905.926	0.0176608
906.004	0.0175420
906.082	0.0175134
906.160	0.0175461
906.238	0.0176629
906.317	0.0176267
906.395	0.0175955
906.473	0.0177094
906.551	0.0177247
906.629	0.0176988
906.707	0.0176425
906.785	0.0177866
906.863	0.0179080
906.942	0.0179844
907.020	0.0179544
907.098	0.0180795
907.176	0.0181072
907.254	0.0181561
907.332	0.0181416
907.410	0.0181573
907.488	0.0182299
907.567	0.0183094
907.645	0.0182696
907.723	0.0183897
907.801	0.0181545
907.879	0.0181969
907.957	0.0182459
908.035	0.0181023
908.113	0.0180879
908.192	0.0179276
908.270	0.0178761
908.348	0.0179337
908.426	0.0177676
908.504	0.0177203
908.582	0.0177184
908.660	0.0175697
908.738	0.0176450
908.817	0.0177045
908.895	0.0175637
908.973	0.0176756
909.051	0.0176552
909.129	0.0176966
909.207	0.0177189
909.285	0.0178831
909.363	0.0179093
909.442	0.0179538
909.520	0.0179463
909.598	0.0182069
909.676	0.0182645
909.754	0.0182917
909.832	0.0182895
909.910	0.0182041
909.988	0.0182314
910.067	0.0182616
910.145	0.0181055
910.223	0.0180359
910.301	0.0180148
910.379	0.0180273
910.457	0.0179301
910.535	0.0179401
910.613	0.0178600
910.692	0.0178508
910.770	0.0177594
910.848	0.0177174
910.926	0.0178024
911.004	0.0177195
911.082	0.0178745
911.160	0.0177198
911.238	0.0178327
911.317	0.0179199
911.395	0.0179372
911.473	0.0178970
911.551	0.0180159
911.629	0.0181237
911.707	0.0180896
911.785	0.0180975
911.863	0.0180656
911.942	0.0180510
912.020	0.0181062
912.098	0.0179429
912.176	0.0179619
912.254	0.0178156
912.332	0.0177709
912.410	0.0176559
912.488	0.0175659
912.567	0.0174759
912.645	0.0175755
912.723	0.0176482
912.801	0.0176454
912.879	0.0176082
912.957	0.0175720
913.035	0.0176428
913.113	0.0177831
913.192	0.0177448
913.270	0.0178794
913.348	0.0178996
913.426	0.0179833
913.504	0.0179371
913.582	0.0180302
913.660	0.0180486
913.738	0.0180798
913.817	0.0179166
913.895	0.0179946
913.973	0.0182225
914.051	0.0182127
914.129	0.0180760
914.207	0.0180714
914.285	0.0179101
914.363	0.0179715
914.442	0.0179786
914.520	0.0178809
914.598	0.0178823
914.676	0.0178036
914.754	0.0177169
914.832	0.0177838
914.910	0.0178085
914.988	0.0178061
915.067	0.0178819
915.145	0.0178349
915.223	0.0177955
915.301	0.0179493
915.379	0.0179094
915.457	0.0180476
915.535	0.0178847
915.613	0.0181449
915.692	0.0180969
915.770	0.0180102
915.848	0.0179329
915.926	0.0180546
916.004	0.0179366
916.082	0.0178941
916.160	0.0177916
916.238	0.0177811
916.317	0.0178894
916.395	0.0179564
916.473	0.0178298
916.551	0.0178864
916.629	0.0179803
916.707	0.0179028
916.785	0.0180253
916.863	0.0178934
916.942	0.0181174
917.020	0.0181557
917.098	0.0181976
917.176	0.0181430
917.254	0.0182316
917.332	0.0183198
917.410	0.0181616
917.488	0.0181860
917.567	0.0182278
917.645	0.0179835
917.723	0.0180927
917.801	0.0181715
917.879	0.0179487
917.957	0.0178810
918.035	0.0176971
918.113	0.0177072
918.192	0.0177876
918.270	0.0177581
918.348	0.0175562
918.426	0.0176783
918.504	0.0177039
918.582	0.0176766
918.660	0.0177615
918.738	0.0177258
918.817	0.0178206
918.895	0.0178158
918.973	0.0177003
919.051	0.0180312
919.129	0.0179361
919.207	0.0179299
919.285	0.0179904
919.363	0.0178997
919.442	0.0178922
919.520	0.0179630
919.598	0.0178685
919.676	0.0179631
919.754	0.0178346
919.832	0.0178005
919.910	0.0177908
