06/01/2022	21:46:13	Ver.	4.1	UNKNOWN
Optical Delay	599.988409	Delta X		0.078125	Sweeps	1	Scan Rate	0/0
Coordinates	Axis 1	NaN	Axis 2	NaN	Axis 3	NaN	Axis 4	NaN	Axis 5	NaN	Axis 6	0.000000
TX Power	0.000000	RX Power	0.000000

599.988	0.0178833
600.067	0.0179689
600.145	0.0179977
600.223	0.0178057
600.301	0.0178411
600.379	0.0178383
600.457	0.0177726
600.535	0.0178465
600.613	0.0178368
600.692	0.0178123
600.770	0.0179589
600.848	0.0179328
600.926	0.0178760
601.004	0.0180064
601.082	0.0179182
601.160	0.0179966
601.238	0.0178928
601.317	0.0178314
601.395	0.0179261
601.473	0.0179765
601.551	0.0180575
601.629	0.0178815
601.707	0.0179765
601.785	0.0177784
601.863	0.0178085
601.942	0.0179575
602.020	0.0179321
602.098	0.0178430
602.176	0.0179124
602.254	0.0178866
602.332	0.0179329
602.410	0.0179099
602.488	0.0179281
602.567	0.0179478
602.645	0.0178234
602.723	0.0178255
602.801	0.0179646
602.879	0.0179336
602.957	0.0178040
603.035	0.0177740
603.113	0.0179233
603.192	0.0179959
603.270	0.0178961
603.348	0.0179774
603.426	0.0178782
603.504	0.0179093
603.582	0.0179253
603.660	0.0179248
603.738	0.0179449
603.817	0.0179586
603.895	0.0179293
603.973	0.0180025
604.051	0.0179433
604.129	0.0179256
604.207	0.0178752
604.285	0.0179953
604.363	0.0178498
604.442	0.0178686
604.520	0.0179354
604.598	0.0179697
604.676	0.0180524
604.754	0.0177982
604.832	0.0179586
604.910	0.0178979
604.988	0.0180088
605.067	0.0178996
605.145	0.0179726
605.223	0.0178265
605.301	0.0180166
605.379	0.0180997
605.457	0.0179908
605.535	0.0179163
605.613	0.0179649
605.692	0.0178977
605.770	0.0179536
605.848	0.0179414
605.926	0.0181171
606.004	0.0179922
606.082	0.0177851
606.160	0.0178957
606.238	0.0178378
606.317	0.0180122
606.395	0.0179635
606.473	0.0179098
606.551	0.0180024
606.629	0.0180668
606.707	0.0179234
606.785	0.0179849
606.863	0.0179230
606.942	0.0180195
607.020	0.0178941
607.098	0.0179169
607.176	0.0178500
607.254	0.0178410
607.332	0.0177788
607.410	0.0179919
607.488	0.0179491
607.567	0.0177898
607.645	0.0179465
607.723	0.0180551
607.801	0.0178647
607.879	0.0179704
607.957	0.0180125
608.035	0.0180465
608.113	0.0179565
608.192	0.0179407
608.270	0.0177507
608.348	0.0180096
608.426	0.0180404
608.504	0.0179954
608.582	0.0180741
608.660	0.0178704
608.738	0.0177592
608.817	0.0178945
608.895	0.0180946
608.973	0.0178603
609.051	0.0177988
609.129	0.0179382
609.207	0.0179459
609.285	0.0178390
609.363	0.0179743
609.442	0.0179488
609.520	0.0179078
609.598	0.0179228
609.676	0.0178841
609.754	0.0178654
609.832	0.0177946
609.910	0.0179186
609.988	0.0179643
610.067	0.0180843
610.145	0.0179801
610.223	0.0178865
610.301	0.0177151
610.379	0.0178853
610.457	0.0179401
610.535	0.0179456
610.613	0.0178845
610.692	0.0180429
610.770	0.0180022
610.848	0.0178854
610.926	0.0178977
611.004	0.0179428
611.082	0.0179786
611.160	0.0178816
611.238	0.0179251
611.317	0.0177351
611.395	0.0179228
611.473	0.0180439
611.551	0.0178487
611.629	0.0178818
611.707	0.0179025
611.785	0.0179779
611.863	0.0179463
611.942	0.0179713
612.020	0.0180875
612.098	0.0180285
612.176	0.0180873
612.254	0.0179391
612.332	0.0179095
612.410	0.0178742
612.488	0.0179113
612.567	0.0179971
612.645	0.0180263
612.723	0.0180241
612.801	0.0179532
612.879	0.0178326
612.957	0.0180151
613.035	0.0179556
613.113	0.0179849
613.192	0.0179822
613.270	0.0177811
613.348	0.0180146
613.426	0.0179500
613.504	0.0178259
613.582	0.0179392
613.660	0.0179050
613.738	0.0179104
613.817	0.0178930
613.895	0.0179711
613.973	0.0179217
614.051	0.0180173
614.129	0.0180036
614.207	0.0179323
614.285	0.0177736
614.363	0.0180432
614.442	0.0180491
614.520	0.0179482
614.598	0.0180004
614.676	0.0179036
614.754	0.0178967
614.832	0.0180553
614.910	0.0178853
614.988	0.0179929
615.067	0.0178915
615.145	0.0178522
615.223	0.0179443
615.301	0.0179872
615.379	0.0179105
615.457	0.0179708
615.535	0.0179015
615.613	0.0178902
615.692	0.0178860
615.770	0.0178971
615.848	0.0178990
615.926	0.0179070
616.004	0.0179720
616.082	0.0179626
616.160	0.0179697
616.238	0.0178181
616.317	0.0179317
616.395	0.0179463
616.473	0.0179137
616.551	0.0180201
616.629	0.0179861
616.707	0.0178661
616.785	0.0180825
616.863	0.0179496
616.942	0.0179372
617.020	0.0178827
617.098	0.0178986
617.176	0.0178572
617.254	0.0179890
617.332	0.0179323
617.410	0.0180040
617.488	0.0179382
617.567	0.0178544
617.645	0.0178603
617.723	0.0179385
617.801	0.0179556
617.879	0.0179077
617.957	0.0178880
618.035	0.0179320
618.113	0.0178207
618.192	0.0178864
618.270	0.0178824
618.348	0.0180151
618.426	0.0180184
618.504	0.0178722
618.582	0.0179657
618.660	0.0179096
618.738	0.0180068
618.817	0.0179887
618.895	0.0178422
618.973	0.0180207
619.051	0.0179039
619.129	0.0178587
619.207	0.0180466
619.285	0.0178452
619.363	0.0179156
619.442	0.0178800
619.520	0.0179527
619.598	0.0179774
619.676	0.0179360
619.754	0.0177126
619.832	0.0179331
619.910	0.0180144
619.988	0.0180302
620.067	0.0179745
620.145	0.0179197
620.223	0.0178691
620.301	0.0178872
620.379	0.0178322
620.457	0.0178622
620.535	0.0179853
620.613	0.0179524
620.692	0.0178080
620.770	0.0179108
620.848	0.0178416
620.926	0.0178281
621.004	0.0179523
621.082	0.0178578
621.160	0.0178276
621.238	0.0181166
621.317	0.0178371
621.395	0.0180486
621.473	0.0179846
621.551	0.0177576
621.629	0.0178341
621.707	0.0179468
621.785	0.0178993
621.863	0.0179067
621.942	0.0179151
622.020	0.0178915
622.098	0.0178864
622.176	0.0179092
622.254	0.0178921
622.332	0.0180148
622.410	0.0179446
622.488	0.0179903
622.567	0.0179831
622.645	0.0178823
622.723	0.0179330
622.801	0.0179564
622.879	0.0179298
622.957	0.0178413
623.035	0.0179967
623.113	0.0178652
623.192	0.0178092
623.270	0.0180008
623.348	0.0180231
623.426	0.0179408
623.504	0.0179678
623.582	0.0178941
623.660	0.0179207
623.738	0.0180383
623.817	0.0178573
623.895	0.0179196
623.973	0.0179841
624.051	0.0178799
624.129	0.0179607
624.207	0.0179545
624.285	0.0179633
624.363	0.0179636
624.442	0.0181181
624.520	0.0178752
624.598	0.0178797
624.676	0.0178373
624.754	0.0180891
624.832	0.0179138
624.910	0.0179112
624.988	0.0179567
625.067	0.0178661
625.145	0.0180496
625.223	0.0177908
625.301	0.0179802
625.379	0.0178977
625.457	0.0179432
625.535	0.0179533
625.613	0.0179004
625.692	0.0178091
625.770	0.0177486
625.848	0.0177583
625.926	0.0179213
626.004	0.0178637
626.082	0.0179584
626.160	0.0178156
626.238	0.0177516
626.317	0.0178385
626.395	0.0178759
626.473	0.0177910
626.551	0.0179659
626.629	0.0178014
626.707	0.0178710
626.785	0.0178357
626.863	0.0178613
626.942	0.0179360
627.020	0.0179680
627.098	0.0178568
627.176	0.0178394
627.254	0.0180293
627.332	0.0179118
627.410	0.0178574
627.488	0.0180324
627.567	0.0179819
627.645	0.0178503
627.723	0.0179922
627.801	0.0179622
627.879	0.0178699
627.957	0.0180837
628.035	0.0178887
628.113	0.0178795
628.192	0.0178893
628.270	0.0180187
628.348	0.0180121
628.426	0.0178735
628.504	0.0178320
628.582	0.0178833
628.660	0.0178771
628.738	0.0178930
628.817	0.0178826
628.895	0.0179182
628.973	0.0178715
629.051	0.0179977
629.129	0.0178787
629.207	0.0178218
629.285	0.0178098
629.363	0.0179299
629.442	0.0179640
629.520	0.0178755
629.598	0.0179446
629.676	0.0178703
629.754	0.0180341
629.832	0.0179991
629.910	0.0178078
629.988	0.0179556
630.067	0.0179005
630.145	0.0177901
630.223	0.0180082
630.301	0.0180250
630.379	0.0179116
630.457	0.0179996
630.535	0.0178762
630.613	0.0179050
630.692	0.0178014
630.770	0.0179733
630.848	0.0180619
630.926	0.0178327
631.004	0.0179586
631.082	0.0179906
631.160	0.0178206
631.238	0.0178620
631.317	0.0178105
631.395	0.0177389
631.473	0.0178761
631.551	0.0180005
631.629	0.0178976
631.707	0.0178131
631.785	0.0179371
631.863	0.0178115
631.942	0.0177956
632.020	0.0178996
632.098	0.0179575
632.176	0.0179688
632.254	0.0178733
632.332	0.0178417
632.410	0.0178715
632.488	0.0178654
632.567	0.0178931
632.645	0.0179242
632.723	0.0178744
632.801	0.0179618
632.879	0.0179388
632.957	0.0178007
633.035	0.0178891
633.113	0.0180795
633.192	0.0179347
633.270	0.0178807
633.348	0.0178764
633.426	0.0179895
633.504	0.0179534
633.582	0.0178906
633.660	0.0180406
633.738	0.0180991
633.817	0.0180196
633.895	0.0180277
633.973	0.0180629
634.051	0.0178041
634.129	0.0179178
634.207	0.0180089
634.285	0.0180340
634.363	0.0179370
634.442	0.0179945
634.520	0.0179812
634.598	0.0179372
634.676	0.0179080
634.754	0.0179273
634.832	0.0179527
634.910	0.0179279
634.988	0.0179048
635.067	0.0179038
635.145	0.0180008
635.223	0.0178163
635.301	0.0178674
635.379	0.0180154
635.457	0.0178132
635.535	0.0178793
635.613	0.0179281
635.692	0.0179377
635.770	0.0178827
635.848	0.0178384
635.926	0.0178155
636.004	0.0179288
636.082	0.0180690
636.160	0.0178601
636.238	0.0179722
636.317	0.0179373
636.395	0.0179267
636.473	0.0179395
636.551	0.0180220
636.629	0.0178868
636.707	0.0179184
636.785	0.0178742
636.863	0.0177122
636.942	0.0178466
637.020	0.0179609
637.098	0.0178109
637.176	0.0179643
637.254	0.0178464
637.332	0.0178663
637.410	0.0177608
637.488	0.0179009
637.567	0.0178541
637.645	0.0178043
637.723	0.0178387
637.801	0.0177876
637.879	0.0177850
637.957	0.0176997
638.035	0.0178341
638.113	0.0180190
638.192	0.0178582
638.270	0.0176871
638.348	0.0178757
638.426	0.0178692
638.504	0.0179279
638.582	0.0179253
638.660	0.0179282
638.738	0.0177949
638.817	0.0178386
638.895	0.0179414
638.973	0.0179063
639.051	0.0179586
639.129	0.0179566
639.207	0.0180107
639.285	0.0179305
639.363	0.0179645
639.442	0.0178732
639.520	0.0178761
639.598	0.0179229
639.676	0.0179249
639.754	0.0181389
639.832	0.0180669
639.910	0.0179282
639.988	0.0179684
640.067	0.0179842
640.145	0.0177986
640.223	0.0178949
640.301	0.0179768
640.379	0.0179747
640.457	0.0178883
640.535	0.0179530
640.613	0.0180124
640.692	0.0179281
640.770	0.0179148
640.848	0.0180057
640.926	0.0178932
641.004	0.0179459
641.082	0.0179819
641.160	0.0178113
641.238	0.0180383
641.317	0.0178291
641.395	0.0178646
641.473	0.0178546
641.551	0.0179990
641.629	0.0178531
641.707	0.0179515
641.785	0.0179583
641.863	0.0179080
641.942	0.0180115
642.020	0.0179742
642.098	0.0178233
642.176	0.0177516
642.254	0.0178904
642.332	0.0180315
642.410	0.0179418
642.488	0.0179905
642.567	0.0178080
642.645	0.0177602
642.723	0.0179255
642.801	0.0178738
642.879	0.0178300
642.957	0.0178025
643.035	0.0178277
643.113	0.0178823
643.192	0.0178131
643.270	0.0178590
643.348	0.0178928
643.426	0.0179050
643.504	0.0178397
643.582	0.0178960
643.660	0.0178288
643.738	0.0179210
643.817	0.0177952
643.895	0.0179901
643.973	0.0179421
644.051	0.0178217
644.129	0.0178036
644.207	0.0177874
644.285	0.0178014
644.363	0.0179979
644.442	0.0178230
644.520	0.0179560
644.598	0.0179533
644.676	0.0179165
644.754	0.0179726
644.832	0.0177899
644.910	0.0179191
644.988	0.0179865
645.067	0.0179301
645.145	0.0177656
645.223	0.0179178
645.301	0.0178157
645.379	0.0179308
645.457	0.0177877
645.535	0.0179003
645.613	0.0179529
645.692	0.0178964
645.770	0.0178253
645.848	0.0179717
645.926	0.0177815
646.004	0.0178577
646.082	0.0179468
646.160	0.0179100
646.238	0.0178828
646.317	0.0178432
646.395	0.0177877
646.473	0.0179382
646.551	0.0179456
646.629	0.0179359
646.707	0.0178497
646.785	0.0179778
646.863	0.0178713
646.942	0.0178394
647.020	0.0179086
647.098	0.0180240
647.176	0.0179372
647.254	0.0178936
647.332	0.0179620
647.410	0.0179686
647.488	0.0179958
647.567	0.0179649
647.645	0.0178925
647.723	0.0179682
647.801	0.0177818
647.879	0.0179121
647.957	0.0179144
648.035	0.0178975
648.113	0.0178229
648.192	0.0178355
648.270	0.0178906
648.348	0.0179345
648.426	0.0178539
648.504	0.0179905
648.582	0.0179356
648.660	0.0177797
648.738	0.0178224
648.817	0.0179202
648.895	0.0179082
648.973	0.0178117
649.051	0.0178593
649.129	0.0178979
649.207	0.0180523
649.285	0.0178139
649.363	0.0178348
649.442	0.0177956
649.520	0.0179266
649.598	0.0179670
649.676	0.0178233
649.754	0.0178738
649.832	0.0179124
649.910	0.0178081
649.988	0.0179589
650.067	0.0179237
650.145	0.0178654
650.223	0.0177508
650.301	0.0177795
650.379	0.0179184
650.457	0.0179262
650.535	0.0177350
650.613	0.0178536
650.692	0.0179506
650.770	0.0179796
650.848	0.0177322
650.926	0.0178322
651.004	0.0179707
651.082	0.0178606
651.160	0.0178657
651.238	0.0179338
651.317	0.0178318
651.395	0.0177921
651.473	0.0176937
651.551	0.0177950
651.629	0.0178864
651.707	0.0178877
651.785	0.0180378
651.863	0.0178504
651.942	0.0178471
652.020	0.0179053
652.098	0.0178700
652.176	0.0179028
652.254	0.0177589
652.332	0.0179491
652.410	0.0178480
652.488	0.0178231
652.567	0.0179836
652.645	0.0179691
652.723	0.0180065
652.801	0.0178442
652.879	0.0178465
652.957	0.0179530
653.035	0.0180154
653.113	0.0179607
653.192	0.0179102
653.270	0.0179449
653.348	0.0178416
653.426	0.0179100
653.504	0.0179251
653.582	0.0178996
653.660	0.0179547
653.738	0.0178832
653.817	0.0178779
653.895	0.0177375
653.973	0.0179401
654.051	0.0178951
654.129	0.0178918
654.207	0.0179010
654.285	0.0177745
654.363	0.0179830
654.442	0.0179144
654.520	0.0178375
654.598	0.0178021
654.676	0.0179193
654.754	0.0179266
654.832	0.0178768
654.910	0.0176594
654.988	0.0178606
655.067	0.0179649
655.145	0.0178822
655.223	0.0178400
655.301	0.0177998
655.379	0.0178542
655.457	0.0179836
655.535	0.0179562
655.613	0.0178006
655.692	0.0179337
655.770	0.0178545
655.848	0.0178661
655.926	0.0179199
656.004	0.0180327
656.082	0.0178441
656.160	0.0178047
656.238	0.0178839
656.317	0.0179907
656.395	0.0177946
656.473	0.0178381
656.551	0.0180065
656.629	0.0178077
656.707	0.0178081
656.785	0.0178876
656.863	0.0179858
656.942	0.0179057
657.020	0.0178283
657.098	0.0177263
657.176	0.0178442
657.254	0.0180546
657.332	0.0179137
657.410	0.0178917
657.488	0.0180904
657.567	0.0179758
657.645	0.0179599
657.723	0.0180023
657.801	0.0180626
657.879	0.0179901
657.957	0.0178822
658.035	0.0179872
658.113	0.0179804
658.192	0.0178707
658.270	0.0177168
658.348	0.0177226
658.426	0.0177611
658.504	0.0177108
658.582	0.0179253
658.660	0.0178269
658.738	0.0178017
658.817	0.0178832
658.895	0.0179258
658.973	0.0179169
659.051	0.0179086
659.129	0.0180363
659.207	0.0179482
659.285	0.0179928
659.363	0.0178649
659.442	0.0181084
659.520	0.0180947
659.598	0.0180404
659.676	0.0179615
659.754	0.0179505
659.832	0.0179557
659.910	0.0177750
659.988	0.0178683
660.067	0.0176741
660.145	0.0177505
660.223	0.0177959
660.301	0.0177133
660.379	0.0176599
660.457	0.0176976
660.535	0.0179103
660.613	0.0176874
660.692	0.0177822
660.770	0.0178838
660.848	0.0179111
660.926	0.0178955
661.004	0.0177764
661.082	0.0178149
661.160	0.0179276
661.238	0.0180808
661.317	0.0181413
661.395	0.0180001
661.473	0.0179941
661.551	0.0180960
661.629	0.0179237
661.707	0.0178219
661.785	0.0178421
661.863	0.0179444
661.942	0.0177125
662.020	0.0178960
662.098	0.0179547
662.176	0.0177846
662.254	0.0177821
662.332	0.0177338
662.410	0.0176593
662.488	0.0176838
662.567	0.0179865
662.645	0.0178491
662.723	0.0178343
662.801	0.0178350
662.879	0.0179010
662.957	0.0177566
663.035	0.0179604
663.113	0.0179716
663.192	0.0179299
663.270	0.0179543
663.348	0.0181642
663.426	0.0181332
663.504	0.0179887
663.582	0.0179657
663.660	0.0180107
663.738	0.0180161
663.817	0.0178928
663.895	0.0179370
663.973	0.0178934
664.051	0.0179501
664.129	0.0178328
664.207	0.0177488
664.285	0.0176598
664.363	0.0177290
664.442	0.0176426
664.520	0.0176429
664.598	0.0177013
664.676	0.0175880
664.754	0.0178366
664.832	0.0178510
664.910	0.0179059
664.988	0.0180228
665.067	0.0180907
665.145	0.0180548
665.223	0.0181258
665.301	0.0181427
665.379	0.0181789
665.457	0.0181579
665.535	0.0181111
665.613	0.0181245
665.692	0.0180289
665.770	0.0179815
665.848	0.0180157
665.926	0.0178812
666.004	0.0176945
666.082	0.0177267
666.160	0.0178676
666.238	0.0178275
666.317	0.0176514
666.395	0.0177721
666.473	0.0177106
666.551	0.0178006
666.629	0.0178820
666.707	0.0177992
666.785	0.0177979
666.863	0.0179412
666.942	0.0180593
667.020	0.0181353
667.098	0.0181026
667.176	0.0180098
667.254	0.0180359
667.332	0.0181042
667.410	0.0180936
667.488	0.0179763
667.567	0.0179500
667.645	0.0179154
667.723	0.0179337
667.801	0.0177825
667.879	0.0178425
667.957	0.0176777
668.035	0.0177853
668.113	0.0178104
668.192	0.0178035
668.270	0.0178461
668.348	0.0177393
668.426	0.0177926
668.504	0.0179596
668.582	0.0179149
668.660	0.0179412
668.738	0.0178465
668.817	0.0179597
668.895	0.0180931
668.973	0.0180019
669.051	0.0179466
669.129	0.0180216
669.207	0.0179703
669.285	0.0179520
669.363	0.0179636
669.442	0.0180019
669.520	0.0179254
669.598	0.0179301
669.676	0.0180117
669.754	0.0179758
669.832	0.0181716
669.910	0.0178954
669.988	0.0180035
670.067	0.0180545
670.145	0.0178917
670.223	0.0178824
670.301	0.0178947
670.379	0.0178633
670.457	0.0179517
670.535	0.0178886
670.613	0.0179178
670.692	0.0178787
670.770	0.0179533
670.848	0.0178699
670.926	0.0179292
671.004	0.0178261
671.082	0.0179295
671.160	0.0178561
671.238	0.0177061
671.317	0.0178526
671.395	0.0177755
671.473	0.0178780
671.551	0.0178007
671.629	0.0178291
671.707	0.0178706
671.785	0.0179845
671.863	0.0179658
671.942	0.0178337
672.020	0.0179800
672.098	0.0179712
672.176	0.0179402
672.254	0.0179261
672.332	0.0179821
672.410	0.0179095
672.488	0.0179683
672.567	0.0181178
672.645	0.0179468
672.723	0.0177452
672.801	0.0180663
672.879	0.0180310
672.957	0.0178811
673.035	0.0178751
673.113	0.0177952
673.192	0.0179393
673.270	0.0179446
673.348	0.0179652
673.426	0.0178640
673.504	0.0177116
673.582	0.0179433
673.660	0.0178320
673.738	0.0178635
673.817	0.0179803
673.895	0.0179301
673.973	0.0179687
674.051	0.0181326
674.129	0.0180398
674.207	0.0180640
674.285	0.0179974
674.363	0.0181659
674.442	0.0182153
674.520	0.0178479
674.598	0.0180377
674.676	0.0180401
674.754	0.0179060
674.832	0.0178826
674.910	0.0178524
674.988	0.0178171
675.067	0.0178294
675.145	0.0176536
675.223	0.0176967
675.301	0.0175671
675.379	0.0175533
675.457	0.0177605
675.535	0.0177068
675.613	0.0177301
675.692	0.0175471
675.770	0.0176299
675.848	0.0178135
675.926	0.0176821
676.004	0.0178489
676.082	0.0178645
676.160	0.0179553
676.238	0.0180262
676.317	0.0179687
676.395	0.0181116
676.473	0.0181485
676.551	0.0181819
676.629	0.0181842
676.707	0.0181644
676.785	0.0180708
676.863	0.0180692
676.942	0.0180408
677.020	0.0181140
677.098	0.0179826
677.176	0.0179658
677.254	0.0179375
677.332	0.0179368
677.410	0.0178806
677.488	0.0178799
677.567	0.0178197
677.645	0.0179076
677.723	0.0177654
677.801	0.0177000
677.879	0.0178237
677.957	0.0178450
678.035	0.0179144
678.113	0.0176527
678.192	0.0177548
678.270	0.0177687
678.348	0.0179045
678.426	0.0178728
678.504	0.0180589
678.582	0.0180008
678.660	0.0179775
678.738	0.0180333
678.817	0.0181113
678.895	0.0181390
678.973	0.0178498
679.051	0.0179220
679.129	0.0178374
679.207	0.0179212
679.285	0.0177547
679.363	0.0175735
679.442	0.0175948
679.520	0.0176175
679.598	0.0175686
679.676	0.0174760
679.754	0.0174155
679.832	0.0174931
679.910	0.0176848
679.988	0.0176529
680.067	0.0178297
680.145	0.0179705
680.223	0.0181561
680.301	0.0182442
680.379	0.0185261
680.457	0.0184834
680.535	0.0183904
680.613	0.0185686
680.692	0.0184305
680.770	0.0181902
680.848	0.0181107
680.926	0.0179670
681.004	0.0177538
681.082	0.0176795
681.160	0.0175145
681.238	0.0173618
681.317	0.0171792
681.395	0.0172377
681.473	0.0172245
681.551	0.0171413
681.629	0.0172238
681.707	0.0174120
681.785	0.0174199
681.863	0.0174559
681.942	0.0176842
682.020	0.0178512
682.098	0.0180139
682.176	0.0180164
682.254	0.0181659
682.332	0.0183566
682.410	0.0186301
682.488	0.0186385
682.567	0.0185986
682.645	0.0186905
682.723	0.0186016
682.801	0.0186255
682.879	0.0186046
682.957	0.0184601
683.035	0.0184566
683.113	0.0182738
683.192	0.0180798
683.270	0.0179819
683.348	0.0176537
683.426	0.0174073
683.504	0.0172994
683.582	0.0172432
683.660	0.0171533
683.738	0.0169476
683.817	0.0170264
683.895	0.0168999
683.973	0.0168048
684.051	0.0169421
684.129	0.0171593
684.207	0.0171527
684.285	0.0174321
684.363	0.0174677
684.442	0.0178323
684.520	0.0179527
684.598	0.0184135
684.676	0.0185236
684.754	0.0186957
684.832	0.0188206
684.910	0.0190379
684.988	0.0190119
685.067	0.0190245
685.145	0.0191798
685.223	0.0192053
685.301	0.0190749
685.379	0.0188982
685.457	0.0187884
685.535	0.0185952
685.613	0.0184055
685.692	0.0181162
685.770	0.0178785
685.848	0.0176814
685.926	0.0173468
686.004	0.0170222
686.082	0.0167421
686.160	0.0163438
686.238	0.0162379
686.317	0.0159654
686.395	0.0156611
686.473	0.0155471
686.551	0.0155747
686.629	0.0156863
686.707	0.0158216
686.785	0.0159858
686.863	0.0162762
686.942	0.0164909
687.020	0.0169597
687.098	0.0174266
687.176	0.0177882
687.254	0.0182378
687.332	0.0185670
687.410	0.0189367
687.488	0.0193849
687.567	0.0197535
687.645	0.0199805
687.723	0.0201077
687.801	0.0203091
687.879	0.0204704
687.957	0.0206483
688.035	0.0206709
688.113	0.0205765
688.192	0.0204832
688.270	0.0203779
688.348	0.0201994
688.426	0.0199740
688.504	0.0196183
688.582	0.0191395
688.660	0.0185279
688.738	0.0179951
688.817	0.0176055
688.895	0.0170581
688.973	0.0163709
689.051	0.0160225
689.129	0.0154835
689.207	0.0151441
689.285	0.0149800
689.363	0.0148447
689.442	0.0149444
689.520	0.0151356
689.598	0.0151837
689.676	0.0156323
689.754	0.0158878
689.832	0.0165604
689.910	0.0169707
689.988	0.0172727
690.067	0.0177360
690.145	0.0179284
690.223	0.0182290
690.301	0.0185155
690.379	0.0186568
690.457	0.0187435
690.535	0.0189764
690.613	0.0191331
690.692	0.0189148
690.770	0.0191614
690.848	0.0192625
690.926	0.0192820
691.004	0.0193428
691.082	0.0194535
691.160	0.0194171
691.238	0.0195551
691.317	0.0195151
691.395	0.0193768
691.473	0.0193408
691.551	0.0189412
691.629	0.0188003
691.707	0.0183298
691.785	0.0180564
691.863	0.0176534
691.942	0.0172411
692.020	0.0169336
692.098	0.0166074
692.176	0.0164232
692.254	0.0161687
692.332	0.0162413
692.410	0.0162765
692.488	0.0163242
692.567	0.0166453
692.645	0.0169379
692.723	0.0173096
692.801	0.0175410
692.879	0.0178988
692.957	0.0180080
693.035	0.0182832
693.113	0.0184177
693.192	0.0185085
693.270	0.0185476
693.348	0.0184013
693.426	0.0183913
693.504	0.0184187
693.582	0.0184747
693.660	0.0184381
693.738	0.0183892
693.817	0.0184359
693.895	0.0183440
693.973	0.0182783
694.051	0.0182360
694.129	0.0182829
694.207	0.0182308
694.285	0.0182033
694.363	0.0181006
694.442	0.0181286
694.520	0.0179604
694.598	0.0179041
694.676	0.0179698
694.754	0.0178691
694.832	0.0178487
694.910	0.0181240
694.988	0.0181720
695.067	0.0183101
695.145	0.0184030
695.223	0.0186802
695.301	0.0186961
695.379	0.0187063
695.457	0.0187648
695.535	0.0187305
695.613	0.0185332
695.692	0.0186019
695.770	0.0181762
695.848	0.0179479
695.926	0.0177525
696.004	0.0172875
696.082	0.0168831
696.160	0.0165092
696.238	0.0160995
696.317	0.0158574
696.395	0.0155323
696.473	0.0152198
696.551	0.0151305
696.629	0.0150982
696.707	0.0151337
696.785	0.0152378
696.863	0.0154020
696.942	0.0154718
697.020	0.0156942
697.098	0.0159479
697.176	0.0163571
697.254	0.0166386
697.332	0.0169596
697.410	0.0175897
697.488	0.0181507
697.567	0.0188099
697.645	0.0192361
697.723	0.0199447
697.801	0.0206646
697.879	0.0213391
697.957	0.0216107
698.035	0.0220122
698.113	0.0224769
698.192	0.0226048
698.270	0.0225985
698.348	0.0225371
698.426	0.0223765
698.504	0.0220937
698.582	0.0217392
698.660	0.0212576
698.738	0.0208134
698.817	0.0202792
698.895	0.0198335
698.973	0.0193749
699.051	0.0189442
699.129	0.0183324
699.207	0.0180315
699.285	0.0175597
699.363	0.0170853
699.442	0.0168025
699.520	0.0162971
699.598	0.0158549
699.676	0.0157240
699.754	0.0151729
699.832	0.0148382
699.910	0.0145254
699.988	0.0143026
700.067	0.0138815
700.145	0.0136136
700.223	0.0134705
700.301	0.0131921
700.379	0.0130388
700.457	0.0130775
700.535	0.0131260
700.613	0.0133334
700.692	0.0136061
700.770	0.0139931
700.848	0.0144021
700.926	0.0150220
701.004	0.0156541
701.082	0.0163750
701.160	0.0169714
701.238	0.0176231
701.317	0.0182360
701.395	0.0185937
701.473	0.0190010
701.551	0.0194562
701.629	0.0195242
701.707	0.0196539
701.785	0.0196838
701.863	0.0197196
701.942	0.0197962
702.020	0.0197836
702.098	0.0196679
702.176	0.0197456
702.254	0.0198360
702.332	0.0197639
702.410	0.0200052
702.488	0.0200544
702.567	0.0201065
702.645	0.0201984
702.723	0.0202947
702.801	0.0204453
702.879	0.0204886
702.957	0.0205605
703.035	0.0207890
703.113	0.0211148
703.192	0.0211993
703.270	0.0213081
703.348	0.0217827
703.426	0.0219508
703.504	0.0220951
703.582	0.0222259
703.660	0.0222916
703.738	0.0221847
703.817	0.0221138
703.895	0.0218806
703.973	0.0217305
704.051	0.0212193
704.129	0.0206880
704.207	0.0200108
704.285	0.0193763
704.363	0.0186062
704.442	0.0177207
704.520	0.0169736
704.598	0.0162323
704.676	0.0151277
704.754	0.0144877
704.832	0.0137061
704.910	0.0128928
704.988	0.0123203
705.067	0.0115338
705.145	0.0110889
705.223	0.0106967
705.301	0.0103710
705.379	0.0101031
705.457	0.0102337
705.535	0.0100522
705.613	0.0102088
705.692	0.0102133
705.770	0.0103004
705.848	0.0104425
705.926	0.0108436
706.004	0.0112547
706.082	0.0116284
706.160	0.0120815
706.238	0.0126311
706.317	0.0134029
706.395	0.0143096
706.473	0.0153276
706.551	0.0164537
706.629	0.0175902
706.707	0.0190134
706.785	0.0203165
706.863	0.0215472
706.942	0.0229323
707.020	0.0242271
707.098	0.0251168
707.176	0.0260216
707.254	0.0265916
707.332	0.0271003
707.410	0.0273233
707.488	0.0273005
707.567	0.0269726
707.645	0.0265928
707.723	0.0259500
707.801	0.0251485
707.879	0.0241647
707.957	0.0231632
708.035	0.0221452
708.113	0.0212316
708.192	0.0201497
708.270	0.0193242
708.348	0.0184425
708.426	0.0179124
708.504	0.0171957
708.582	0.0169662
708.660	0.0168785
708.738	0.0167506
708.817	0.0167498
708.895	0.0172047
708.973	0.0174168
709.051	0.0177962
709.129	0.0180678
709.207	0.0186520
709.285	0.0191322
709.363	0.0195001
709.442	0.0200385
709.520	0.0203945
709.598	0.0206303
709.676	0.0206911
709.754	0.0209959
709.832	0.0206904
709.910	0.0204369
709.988	0.0201324
710.067	0.0194612
710.145	0.0185059
710.223	0.0176620
710.301	0.0166760
710.379	0.0155100
710.457	0.0146169
710.535	0.0132727
710.613	0.0120664
710.692	0.0111557
710.770	0.0103805
710.848	0.00962303
710.926	0.00903770
711.004	0.00867210
711.082	0.00844109
711.160	0.00832733
711.238	0.00861183
711.317	0.00873444
711.395	0.00903824
711.473	0.00926826
711.551	0.00957611
711.629	0.0101385
711.707	0.0106732
711.785	0.0111284
711.863	0.0117796
711.942	0.0122079
712.020	0.0130582
712.098	0.0140050
712.176	0.0150193
712.254	0.0162576
712.332	0.0173823
712.410	0.0187997
712.488	0.0203395
712.567	0.0218143
712.645	0.0233818
712.723	0.0250314
712.801	0.0265501
712.879	0.0277829
712.957	0.0290144
713.035	0.0299535
713.113	0.0307155
713.192	0.0309197
713.270	0.0307774
713.348	0.0304440
713.426	0.0297428
713.504	0.0287164
713.582	0.0274934
713.660	0.0259820
713.738	0.0244552
713.817	0.0229300
713.895	0.0216030
713.973	0.0203161
714.051	0.0191000
714.129	0.0178767
714.207	0.0171375
714.285	0.0163636
714.363	0.0160487
714.442	0.0159381
714.520	0.0158085
714.598	0.0158953
714.676	0.0161749
714.754	0.0164696
714.832	0.0170001
714.910	0.0175476
714.988	0.0180199
715.067	0.0183491
715.145	0.0188348
715.223	0.0192981
715.301	0.0197382
715.379	0.0200387
715.457	0.0202589
715.535	0.0203586
715.613	0.0201978
715.692	0.0198090
715.770	0.0193864
715.848	0.0185387
715.926	0.0175460
716.004	0.0164916
716.082	0.0152900
716.160	0.0141628
716.238	0.0127438
716.317	0.0114319
716.395	0.0101973
716.473	0.00900818
716.551	0.00790840
716.629	0.00711967
716.707	0.00661217
716.785	0.00611946
716.863	0.00600487
716.942	0.00612923
717.020	0.00630814
717.098	0.00681419
717.176	0.00755180
717.254	0.00843628
717.332	0.00942596
717.410	0.0103140
717.488	0.0114836
717.567	0.0126590
717.645	0.0139600
717.723	0.0151111
717.801	0.0163403
717.879	0.0176389
717.957	0.0186606
718.035	0.0196712
718.113	0.0207384
718.192	0.0220083
718.270	0.0230632
718.348	0.0239391
718.426	0.0250993
718.504	0.0259363
718.582	0.0268523
718.660	0.0275950
718.738	0.0280703
718.817	0.0285106
718.895	0.0288454
718.973	0.0287435
719.051	0.0286066
719.129	0.0281456
719.207	0.0274420
719.285	0.0267507
719.363	0.0261113
719.442	0.0249845
719.520	0.0239980
719.598	0.0230051
719.676	0.0219813
719.754	0.0211691
719.832	0.0204449
719.910	0.0197656
719.988	0.0192056
720.067	0.0185168
720.145	0.0182716
720.223	0.0181532
720.301	0.0176670
720.379	0.0176526
720.457	0.0176789
720.535	0.0175289
720.613	0.0176886
720.692	0.0176247
720.770	0.0176423
720.848	0.0177140
720.926	0.0179733
721.004	0.0179264
721.082	0.0179831
721.160	0.0181202
721.238	0.0181246
721.317	0.0181080
721.395	0.0178672
721.473	0.0177066
721.551	0.0172232
721.629	0.0169778
721.707	0.0163165
721.785	0.0156709
721.863	0.0149506
721.942	0.0142233
722.020	0.0131128
722.098	0.0122936
722.176	0.0112260
722.254	0.0104017
722.332	0.00966461
722.410	0.00874519
722.488	0.00823967
722.567	0.00773842
722.645	0.00710037
722.723	0.00719101
722.801	0.00720428
722.879	0.00740974
722.957	0.00811661
723.035	0.00881798
723.113	0.00975510
723.192	0.0109389
723.270	0.0121075
723.348	0.0134982
723.426	0.0147507
723.504	0.0161447
723.582	0.0174812
723.660	0.0185564
723.738	0.0197325
723.817	0.0208331
723.895	0.0214581
723.973	0.0221474
724.051	0.0227986
724.129	0.0234344
724.207	0.0236710
724.285	0.0238785
724.363	0.0242579
724.442	0.0245841
724.520	0.0244791
724.598	0.0246569
724.676	0.0246719
724.754	0.0244653
724.832	0.0243050
724.910	0.0242909
724.988	0.0238656
725.067	0.0236363
725.145	0.0233792
725.223	0.0230582
725.301	0.0224928
725.379	0.0221673
725.457	0.0220552
725.535	0.0218333
725.613	0.0214802
725.692	0.0213744
725.770	0.0212061
725.848	0.0210104
725.926	0.0208795
726.004	0.0208914
726.082	0.0206567
726.160	0.0205939
726.238	0.0204888
726.317	0.0203065
726.395	0.0201234
726.473	0.0201028
726.551	0.0200565
726.629	0.0197220
726.707	0.0191954
726.785	0.0190244
726.863	0.0188222
726.942	0.0183900
727.020	0.0180141
727.098	0.0175148
727.176	0.0169930
727.254	0.0165643
727.332	0.0160933
727.410	0.0157225
727.488	0.0151439
727.567	0.0146555
727.645	0.0141959
727.723	0.0135941
727.801	0.0132610
727.879	0.0128489
727.957	0.0123010
728.035	0.0119370
728.113	0.0116168
728.192	0.0113112
728.270	0.0110098
728.348	0.0108270
728.426	0.0107888
728.504	0.0107452
728.582	0.0108073
728.660	0.0109579
728.738	0.0113282
728.817	0.0118111
728.895	0.0123629
728.973	0.0130510
729.051	0.0137733
729.129	0.0144578
729.207	0.0150974
729.285	0.0157867
729.363	0.0163187
729.442	0.0169820
729.520	0.0173862
729.598	0.0179332
729.676	0.0180627
729.754	0.0183224
729.832	0.0186089
729.910	0.0186025
729.988	0.0187851
730.067	0.0190204
730.145	0.0190499
730.223	0.0192472
730.301	0.0195218
730.379	0.0198970
730.457	0.0201421
730.535	0.0205715
730.613	0.0209813
730.692	0.0214523
730.770	0.0220585
730.848	0.0222765
730.926	0.0225507
731.004	0.0229005
731.082	0.0231069
731.160	0.0231290
731.238	0.0233628
731.317	0.0234727
731.395	0.0233382
731.473	0.0230972
731.551	0.0229600
731.629	0.0226806
731.707	0.0223640
731.785	0.0220347
731.863	0.0217645
731.942	0.0214613
732.020	0.0210434
732.098	0.0208401
732.176	0.0205653
732.254	0.0203559
732.332	0.0199770
732.410	0.0197678
732.488	0.0195357
732.567	0.0192045
732.645	0.0191709
732.723	0.0189058
732.801	0.0186423
732.879	0.0184228
732.957	0.0183068
733.035	0.0179713
733.113	0.0176020
733.192	0.0173502
733.270	0.0171209
733.348	0.0166228
733.426	0.0161551
733.504	0.0158128
733.582	0.0154814
733.660	0.0150375
733.738	0.0146045
733.817	0.0142919
733.895	0.0138091
733.973	0.0138190
734.051	0.0136578
734.129	0.0135611
734.207	0.0135262
734.285	0.0136742
734.363	0.0136939
734.442	0.0138061
734.520	0.0140656
734.598	0.0141988
734.676	0.0145866
734.754	0.0150824
734.832	0.0153683
734.910	0.0156148
734.988	0.0159148
735.067	0.0161874
735.145	0.0165203
735.223	0.0167035
735.301	0.0167741
735.379	0.0167551
735.457	0.0165119
735.535	0.0164659
735.613	0.0163671
735.692	0.0162792
735.770	0.0161355
735.848	0.0159982
735.926	0.0159584
736.004	0.0161053
736.082	0.0161755
736.160	0.0164237
736.238	0.0166779
736.317	0.0169122
736.395	0.0172423
736.473	0.0176218
736.551	0.0181253
736.629	0.0187791
736.707	0.0190167
736.785	0.0195691
736.863	0.0200196
736.942	0.0204922
737.020	0.0208657
737.098	0.0211115
737.176	0.0214149
737.254	0.0215547
737.332	0.0215279
737.410	0.0218507
737.488	0.0218809
737.567	0.0216860
737.645	0.0217966
737.723	0.0215107
737.801	0.0214464
737.879	0.0212253
737.957	0.0210205
738.035	0.0208910
738.113	0.0205577
738.192	0.0205599
738.270	0.0202367
738.348	0.0200348
738.426	0.0200108
738.504	0.0196154
738.582	0.0194519
738.660	0.0193046
738.738	0.0189891
738.817	0.0188657
738.895	0.0186199
738.973	0.0185134
739.051	0.0184350
739.129	0.0180862
739.207	0.0179561
739.285	0.0178822
739.363	0.0177678
739.442	0.0175278
739.520	0.0175290
739.598	0.0172636
739.676	0.0170023
739.754	0.0168443
739.832	0.0169440
739.910	0.0167649
739.988	0.0167749
740.067	0.0166872
740.145	0.0164225
740.223	0.0164722
740.301	0.0164551
740.379	0.0164627
740.457	0.0166010
740.535	0.0164288
740.613	0.0166276
740.692	0.0165601
740.770	0.0166532
740.848	0.0165764
740.926	0.0164098
741.004	0.0165979
741.082	0.0165447
741.160	0.0163219
741.238	0.0164296
741.317	0.0162549
741.395	0.0162499
741.473	0.0162486
741.551	0.0160790
741.629	0.0158438
741.707	0.0158512
741.785	0.0158238
741.863	0.0160751
741.942	0.0160072
742.020	0.0160190
742.098	0.0161838
742.176	0.0163501
742.254	0.0164709
742.332	0.0167298
742.410	0.0168107
742.488	0.0169324
742.567	0.0172237
742.645	0.0173579
742.723	0.0173131
742.801	0.0175729
742.879	0.0177859
742.957	0.0178858
743.035	0.0180145
743.113	0.0180871
743.192	0.0182227
743.270	0.0184809
743.348	0.0186395
743.426	0.0187513
743.504	0.0187439
743.582	0.0189182
743.660	0.0192212
743.738	0.0192518
743.817	0.0193883
743.895	0.0194680
743.973	0.0194443
744.051	0.0195767
744.129	0.0194164
744.207	0.0194041
744.285	0.0194240
744.363	0.0193181
744.442	0.0192377
744.520	0.0192303
744.598	0.0192313
744.676	0.0192067
744.754	0.0191023
744.832	0.0192089
744.910	0.0191619
744.988	0.0192857
745.067	0.0194070
745.145	0.0194470
745.223	0.0193601
745.301	0.0194493
745.379	0.0193810
745.457	0.0193253
745.535	0.0193436
745.613	0.0193414
745.692	0.0191673
745.770	0.0189527
745.848	0.0187334
745.926	0.0185582
746.004	0.0182372
746.082	0.0179481
746.160	0.0177554
746.238	0.0175404
746.317	0.0174287
746.395	0.0172572
746.473	0.0170775
746.551	0.0170426
746.629	0.0170056
746.707	0.0170604
746.785	0.0169497
746.863	0.0170655
746.942	0.0172167
747.020	0.0172623
747.098	0.0173663
747.176	0.0175661
747.254	0.0175320
747.332	0.0177084
747.410	0.0177363
747.488	0.0179520
747.567	0.0178144
747.645	0.0179044
747.723	0.0177064
747.801	0.0176641
747.879	0.0176162
747.957	0.0173549
748.035	0.0173821
748.113	0.0169115
748.192	0.0169756
748.270	0.0168516
748.348	0.0165300
748.426	0.0164075
748.504	0.0163438
748.582	0.0163020
748.660	0.0161860
748.738	0.0160223
748.817	0.0161849
748.895	0.0161890
748.973	0.0162474
749.051	0.0163766
749.129	0.0166227
749.207	0.0168069
749.285	0.0170671
749.363	0.0171847
749.442	0.0173132
749.520	0.0174506
749.598	0.0176560
749.676	0.0176981
749.754	0.0176630
749.832	0.0178130
749.910	0.0177633
749.988	0.0176942
750.067	0.0176083
750.145	0.0177512
750.223	0.0176664
750.301	0.0177024
750.379	0.0178229
750.457	0.0178925
750.535	0.0181151
750.613	0.0182439
750.692	0.0182655
750.770	0.0183729
750.848	0.0186739
750.926	0.0186745
751.004	0.0188181
751.082	0.0190260
751.160	0.0190336
751.238	0.0192715
751.317	0.0192168
751.395	0.0192887
751.473	0.0193118
751.551	0.0193741
751.629	0.0192068
751.707	0.0191580
751.785	0.0189854
751.863	0.0188724
751.942	0.0186971
752.020	0.0185368
752.098	0.0184431
752.176	0.0183086
752.254	0.0182703
752.332	0.0181364
752.410	0.0181473
752.488	0.0180103
752.567	0.0178564
752.645	0.0178914
752.723	0.0180592
752.801	0.0180599
752.879	0.0179738
752.957	0.0181198
753.035	0.0181082
753.113	0.0182412
753.192	0.0185115
753.270	0.0184828
753.348	0.0185721
753.426	0.0185474
753.504	0.0186686
753.582	0.0186989
753.660	0.0186550
753.738	0.0187344
753.817	0.0188482
753.895	0.0187904
753.973	0.0184972
754.051	0.0182783
754.129	0.0181895
754.207	0.0179052
754.285	0.0177585
754.363	0.0175728
754.442	0.0172713
754.520	0.0169917
754.598	0.0169356
754.676	0.0166986
754.754	0.0168787
754.832	0.0167680
754.910	0.0167429
754.988	0.0169063
755.067	0.0168687
755.145	0.0169498
755.223	0.0169695
755.301	0.0170954
755.379	0.0172704
755.457	0.0174231
755.535	0.0175270
755.613	0.0176816
755.692	0.0178016
755.770	0.0177288
755.848	0.0176955
755.926	0.0178052
756.004	0.0178728
756.082	0.0178314
756.160	0.0178114
756.238	0.0177700
756.317	0.0176280
756.395	0.0177380
756.473	0.0175574
756.551	0.0175456
756.629	0.0175404
756.707	0.0175083
756.785	0.0173360
756.863	0.0173293
756.942	0.0172800
757.020	0.0172342
757.098	0.0172720
757.176	0.0171432
757.254	0.0169955
757.332	0.0171329
757.410	0.0171642
757.488	0.0171351
757.567	0.0172915
757.645	0.0171831
757.723	0.0172363
757.801	0.0173814
757.879	0.0174857
757.957	0.0176382
758.035	0.0177658
758.113	0.0176791
758.192	0.0178631
758.270	0.0180122
758.348	0.0179704
758.426	0.0179875
758.504	0.0179147
758.582	0.0181870
758.660	0.0181880
758.738	0.0181973
758.817	0.0181324
758.895	0.0183249
758.973	0.0185856
759.051	0.0185955
759.129	0.0188078
759.207	0.0189340
759.285	0.0190255
759.363	0.0191347
759.442	0.0189883
759.520	0.0193771
759.598	0.0193252
759.676	0.0192680
759.754	0.0193085
759.832	0.0193365
759.910	0.0191911
759.988	0.0189764
760.067	0.0190191
760.145	0.0186915
760.223	0.0186468
760.301	0.0185316
760.379	0.0185403
760.457	0.0183907
760.535	0.0182593
760.613	0.0181738
760.692	0.0181448
760.770	0.0179382
760.848	0.0178582
760.926	0.0177619
761.004	0.0176713
761.082	0.0176523
761.160	0.0175325
761.238	0.0174874
761.317	0.0173071
761.395	0.0175072
761.473	0.0175439
761.551	0.0174611
761.629	0.0175060
761.707	0.0176115
761.785	0.0178082
761.863	0.0179367
761.942	0.0179852
762.020	0.0181418
762.098	0.0183368
762.176	0.0184944
762.254	0.0184333
762.332	0.0184859
762.410	0.0184199
762.488	0.0183146
762.567	0.0182806
762.645	0.0181185
762.723	0.0179692
762.801	0.0176389
762.879	0.0176825
762.957	0.0172379
763.035	0.0171049
763.113	0.0168822
763.192	0.0167107
763.270	0.0165035
763.348	0.0165299
763.426	0.0163377
763.504	0.0163325
763.582	0.0163934
763.660	0.0164117
763.738	0.0165259
763.817	0.0165963
763.895	0.0168880
763.973	0.0170464
764.051	0.0172310
764.129	0.0173716
764.207	0.0175600
764.285	0.0177045
764.363	0.0177999
764.442	0.0178792
764.520	0.0178569
764.598	0.0180918
764.676	0.0179031
764.754	0.0179639
764.832	0.0179787
764.910	0.0179962
764.988	0.0179412
765.067	0.0177968
765.145	0.0176965
765.223	0.0178145
765.301	0.0178410
765.379	0.0175820
765.457	0.0176923
765.535	0.0176015
765.613	0.0176301
765.692	0.0177048
765.770	0.0177234
765.848	0.0178915
765.926	0.0179988
766.004	0.0178476
766.082	0.0179266
766.160	0.0180458
766.238	0.0183260
766.317	0.0185473
766.395	0.0185118
766.473	0.0184418
766.551	0.0186386
766.629	0.0187047
766.707	0.0187318
766.785	0.0187647
766.863	0.0187161
766.942	0.0187012
767.020	0.0186431
767.098	0.0186041
767.176	0.0186510
767.254	0.0186346
767.332	0.0185976
767.410	0.0186758
767.488	0.0188600
767.567	0.0187749
767.645	0.0188560
767.723	0.0188908
767.801	0.0190577
767.879	0.0189520
767.957	0.0188918
768.035	0.0189100
768.113	0.0189474
768.192	0.0187159
768.270	0.0183615
768.348	0.0184850
768.426	0.0182071
768.504	0.0180219
768.582	0.0180386
768.660	0.0178710
768.738	0.0177621
768.817	0.0176227
768.895	0.0174798
768.973	0.0175054
769.051	0.0174894
769.129	0.0174464
769.207	0.0173055
769.285	0.0173596
769.363	0.0174348
769.442	0.0175583
769.520	0.0177178
769.598	0.0177531
769.676	0.0176650
769.754	0.0177744
769.832	0.0178186
769.910	0.0178435
769.988	0.0178562
770.067	0.0178957
770.145	0.0177234
770.223	0.0176617
770.301	0.0177381
770.379	0.0175326
770.457	0.0176203
770.535	0.0173067
770.613	0.0173784
770.692	0.0173091
770.770	0.0171821
770.848	0.0169836
770.926	0.0168328
771.004	0.0166850
771.082	0.0167514
771.160	0.0166412
771.238	0.0167528
771.317	0.0166920
771.395	0.0166745
771.473	0.0167530
771.551	0.0168525
771.629	0.0169200
771.707	0.0170138
771.785	0.0173560
771.863	0.0174293
771.942	0.0176250
772.020	0.0178957
772.098	0.0177483
772.176	0.0180615
772.254	0.0181111
772.332	0.0180975
772.410	0.0181624
772.488	0.0181445
772.567	0.0182241
772.645	0.0182967
772.723	0.0182147
772.801	0.0180277
772.879	0.0180945
772.957	0.0181691
773.035	0.0180827
773.113	0.0180502
773.192	0.0180220
773.270	0.0179758
773.348	0.0179807
773.426	0.0178618
773.504	0.0178815
773.582	0.0179216
773.660	0.0178567
773.738	0.0178921
773.817	0.0179147
773.895	0.0178468
773.973	0.0180134
774.051	0.0179636
774.129	0.0180083
774.207	0.0182581
774.285	0.0182745
774.363	0.0184635
774.442	0.0186033
774.520	0.0186624
774.598	0.0189844
774.676	0.0189307
774.754	0.0189819
774.832	0.0192075
774.910	0.0190121
774.988	0.0191333
775.067	0.0192503
775.145	0.0191972
775.223	0.0190668
775.301	0.0189822
775.379	0.0189369
775.457	0.0187359
775.535	0.0186439
775.613	0.0184933
775.692	0.0183646
775.770	0.0183701
775.848	0.0181329
775.926	0.0179546
776.004	0.0178406
776.082	0.0176719
776.160	0.0176414
776.238	0.0175285
776.317	0.0174479
776.395	0.0174265
776.473	0.0170658
776.551	0.0171284
776.629	0.0170744
776.707	0.0170420
776.785	0.0170448
776.863	0.0168751
776.942	0.0170308
777.020	0.0170858
777.098	0.0171184
777.176	0.0170740
777.254	0.0171355
777.332	0.0172411
777.410	0.0174133
777.488	0.0175826
777.567	0.0176198
777.645	0.0178516
777.723	0.0178388
777.801	0.0179158
777.879	0.0179848
777.957	0.0180818
778.035	0.0181060
778.113	0.0180580
778.192	0.0180385
778.270	0.0180013
778.348	0.0178608
778.426	0.0178574
778.504	0.0177754
778.582	0.0177206
778.660	0.0175999
778.738	0.0174732
778.817	0.0173650
778.895	0.0172603
778.973	0.0171719
779.051	0.0169138
779.129	0.0168690
779.207	0.0168554
779.285	0.0168083
779.363	0.0166869
779.442	0.0166671
779.520	0.0165956
779.598	0.0166596
779.676	0.0165932
779.754	0.0167316
779.832	0.0170133
779.910	0.0170667
779.988	0.0172765
780.067	0.0174764
780.145	0.0175346
780.223	0.0178907
780.301	0.0181467
780.379	0.0185222
780.457	0.0184444
780.535	0.0186113
780.613	0.0188804
780.692	0.0190653
780.770	0.0191879
780.848	0.0192722
780.926	0.0191593
781.004	0.0191021
781.082	0.0193024
781.160	0.0191502
781.238	0.0191203
781.317	0.0189920
781.395	0.0189552
781.473	0.0187218
781.551	0.0186547
781.629	0.0186425
781.707	0.0184991
781.785	0.0183875
781.863	0.0183255
781.942	0.0181873
782.020	0.0181338
782.098	0.0181084
782.176	0.0181497
782.254	0.0181030
782.332	0.0179355
782.410	0.0178938
782.488	0.0178704
782.567	0.0178320
782.645	0.0179022
782.723	0.0178872
782.801	0.0180006
782.879	0.0179532
782.957	0.0179761
783.035	0.0180518
783.113	0.0180682
783.192	0.0181880
783.270	0.0181813
783.348	0.0182917
783.426	0.0184084
783.504	0.0183467
783.582	0.0184109
783.660	0.0184299
783.738	0.0184105
783.817	0.0184212
783.895	0.0184061
783.973	0.0182764
784.051	0.0183405
784.129	0.0181821
784.207	0.0181910
784.285	0.0179752
784.363	0.0179398
784.442	0.0178885
784.520	0.0176585
784.598	0.0176898
784.676	0.0174463
784.754	0.0174437
784.832	0.0170623
784.910	0.0169603
784.988	0.0168134
785.067	0.0165572
785.145	0.0165276
785.223	0.0163496
785.301	0.0162662
785.379	0.0163937
785.457	0.0163152
785.535	0.0164812
785.613	0.0166631
785.692	0.0167258
785.770	0.0167914
785.848	0.0169224
785.926	0.0170171
786.004	0.0172409
786.082	0.0174506
786.160	0.0177126
786.238	0.0178077
786.317	0.0179951
786.395	0.0181774
786.473	0.0184988
786.551	0.0184172
786.629	0.0185865
786.707	0.0185484
786.785	0.0186753
786.863	0.0186127
786.942	0.0185855
787.020	0.0185220
787.098	0.0185660
787.176	0.0183276
787.254	0.0181511
787.332	0.0182159
787.410	0.0181123
787.488	0.0179249
787.567	0.0178825
787.645	0.0177457
787.723	0.0175986
787.801	0.0173831
787.879	0.0173896
787.957	0.0174088
788.035	0.0173646
788.113	0.0173077
788.192	0.0174632
788.270	0.0174462
788.348	0.0174456
788.426	0.0177104
788.504	0.0177323
788.582	0.0178876
788.660	0.0179915
788.738	0.0181401
788.817	0.0184126
788.895	0.0186277
788.973	0.0186227
789.051	0.0186334
789.129	0.0187903
789.207	0.0188570
789.285	0.0189767
789.363	0.0190264
789.442	0.0190887
789.520	0.0191382
789.598	0.0188574
789.676	0.0188229
789.754	0.0187427
789.832	0.0184976
789.910	0.0184463
789.988	0.0183599
790.067	0.0183022
790.145	0.0182159
790.223	0.0180833
790.301	0.0180424
790.379	0.0178006
790.457	0.0177672
790.535	0.0176328
790.613	0.0174992
790.692	0.0174679
790.770	0.0174281
790.848	0.0174315
790.926	0.0173152
791.004	0.0172711
791.082	0.0173064
791.160	0.0174709
791.238	0.0173838
791.317	0.0175128
791.395	0.0176444
791.473	0.0178152
791.551	0.0178062
791.629	0.0179433
791.707	0.0180666
791.785	0.0179786
791.863	0.0181553
791.942	0.0181580
792.020	0.0181161
792.098	0.0180827
792.176	0.0179388
792.254	0.0180736
792.332	0.0181046
792.410	0.0180271
792.488	0.0177032
792.567	0.0177055
792.645	0.0177321
792.723	0.0176520
792.801	0.0175043
792.879	0.0174451
792.957	0.0174892
793.035	0.0174149
793.113	0.0172529
793.192	0.0173112
793.270	0.0172388
793.348	0.0172388
793.426	0.0171616
793.504	0.0170403
793.582	0.0172474
793.660	0.0172114
793.738	0.0170663
793.817	0.0172414
793.895	0.0171979
793.973	0.0172450
794.051	0.0173342
794.129	0.0175558
794.207	0.0174440
794.285	0.0175344
794.363	0.0177950
794.442	0.0179254
794.520	0.0182104
794.598	0.0184544
794.676	0.0184123
794.754	0.0185401
794.832	0.0187119
794.910	0.0189030
794.988	0.0188857
795.067	0.0191353
795.145	0.0191099
795.223	0.0190372
795.301	0.0190112
795.379	0.0190060
795.457	0.0187473
795.535	0.0185861
795.613	0.0186017
795.692	0.0184862
795.770	0.0182376
795.848	0.0180508
795.926	0.0180010
796.004	0.0179092
796.082	0.0175179
796.160	0.0173637
796.238	0.0173636
796.317	0.0171719
796.395	0.0171848
796.473	0.0169566
796.551	0.0167719
796.629	0.0168958
796.707	0.0168232
796.785	0.0168437
796.863	0.0168949
796.942	0.0169965
797.020	0.0169447
797.098	0.0171585
797.176	0.0174970
797.254	0.0175440
797.332	0.0176024
797.410	0.0177555
797.488	0.0178652
797.567	0.0180820
797.645	0.0182585
797.723	0.0183481
797.801	0.0185860
797.879	0.0186352
797.957	0.0186790
798.035	0.0187970
798.113	0.0189079
798.192	0.0189236
798.270	0.0189518
798.348	0.0188811
798.426	0.0188869
798.504	0.0188255
798.582	0.0186861
798.660	0.0186418
798.738	0.0183762
798.817	0.0183804
798.895	0.0185004
798.973	0.0182344
799.051	0.0181065
799.129	0.0181397
799.207	0.0180236
799.285	0.0178734
799.363	0.0179209
799.442	0.0179222
799.520	0.0179826
799.598	0.0179082
799.676	0.0178417
799.754	0.0178860
799.832	0.0181282
799.910	0.0179086
799.988	0.0180922
800.067	0.0180633
800.145	0.0181270
800.223	0.0180873
800.301	0.0183297
800.379	0.0183423
800.457	0.0183418
800.535	0.0182728
800.613	0.0180686
800.692	0.0181046
800.770	0.0180891
800.848	0.0178462
800.926	0.0176953
801.004	0.0175500
801.082	0.0175539
801.160	0.0174929
801.238	0.0172334
801.317	0.0171677
801.395	0.0169994
801.473	0.0169526
801.551	0.0168095
801.629	0.0166004
801.707	0.0166150
801.785	0.0166180
801.863	0.0165438
801.942	0.0165970
802.020	0.0165306
802.098	0.0162993
802.176	0.0163809
802.254	0.0163039
802.332	0.0165037
802.410	0.0164559
802.488	0.0164014
802.567	0.0165516
802.645	0.0166623
802.723	0.0167833
802.801	0.0170318
802.879	0.0170737
802.957	0.0172507
803.035	0.0175892
803.113	0.0177306
803.192	0.0180102
803.270	0.0182749
803.348	0.0183331
803.426	0.0185596
803.504	0.0187545
803.582	0.0188514
803.660	0.0191679
803.738	0.0194408
803.817	0.0193434
803.895	0.0193538
803.973	0.0195341
804.051	0.0195875
804.129	0.0194940
804.207	0.0194709
804.285	0.0194080
804.363	0.0193427
804.442	0.0193008
804.520	0.0189935
804.598	0.0188964
804.676	0.0188498
804.754	0.0186950
804.832	0.0185226
804.910	0.0185321
804.988	0.0183350
805.067	0.0183897
805.145	0.0183826
805.223	0.0182244
805.301	0.0182066
805.379	0.0182636
805.457	0.0182934
805.535	0.0183567
805.613	0.0185296
805.692	0.0183257
805.770	0.0183673
805.848	0.0185298
805.926	0.0184737
806.004	0.0184206
806.082	0.0183482
806.160	0.0184013
806.238	0.0184668
806.317	0.0181240
806.395	0.0181493
806.473	0.0179423
806.551	0.0179360
806.629	0.0177888
806.707	0.0176956
806.785	0.0174290
806.863	0.0172903
806.942	0.0172268
807.020	0.0171336
807.098	0.0169870
807.176	0.0168467
807.254	0.0166843
807.332	0.0164461
807.410	0.0164509
807.488	0.0164160
807.567	0.0162735
807.645	0.0162485
807.723	0.0160277
807.801	0.0159915
807.879	0.0158984
807.957	0.0158966
808.035	0.0159783
808.113	0.0160612
808.192	0.0160604
808.270	0.0163403
808.348	0.0164481
808.426	0.0166010
808.504	0.0168310
808.582	0.0170104
808.660	0.0174063
808.738	0.0175254
808.817	0.0179337
808.895	0.0181765
808.973	0.0184445
809.051	0.0187206
809.129	0.0189134
809.207	0.0189358
809.285	0.0192221
809.363	0.0192479
809.442	0.0194106
809.520	0.0194786
809.598	0.0195361
809.676	0.0193371
809.754	0.0194906
809.832	0.0194694
809.910	0.0193913
809.988	0.0193747
810.067	0.0191558
810.145	0.0190454
810.223	0.0189766
810.301	0.0188021
810.379	0.0187428
810.457	0.0187267
810.535	0.0184766
810.613	0.0183271
810.692	0.0182588
810.770	0.0181960
810.848	0.0180177
810.926	0.0177886
811.004	0.0179598
811.082	0.0176889
811.160	0.0177046
811.238	0.0177437
811.317	0.0175896
811.395	0.0176050
811.473	0.0178237
811.551	0.0177016
811.629	0.0178226
811.707	0.0177965
811.785	0.0178526
811.863	0.0178523
811.942	0.0178123
812.020	0.0177928
812.098	0.0178258
812.176	0.0178634
812.254	0.0175789
812.332	0.0176831
812.410	0.0175677
812.488	0.0175246
812.567	0.0174531
812.645	0.0173787
812.723	0.0172298
812.801	0.0172589
812.879	0.0171375
812.957	0.0171955
813.035	0.0169853
813.113	0.0169064
813.192	0.0169125
813.270	0.0167628
813.348	0.0167184
813.426	0.0167736
813.504	0.0167944
813.582	0.0167281
813.660	0.0168004
813.738	0.0168766
813.817	0.0168760
813.895	0.0171046
813.973	0.0172450
814.051	0.0174213
814.129	0.0175600
814.207	0.0177116
814.285	0.0178554
814.363	0.0180896
814.442	0.0183009
814.520	0.0184473
814.598	0.0186657
814.676	0.0187615
814.754	0.0189522
814.832	0.0190839
814.910	0.0191699
814.988	0.0190401
815.067	0.0192153
815.145	0.0193627
815.223	0.0193009
815.301	0.0190607
815.379	0.0190613
815.457	0.0189526
815.535	0.0188895
815.613	0.0189574
815.692	0.0188780
815.770	0.0187386
815.848	0.0185408
815.926	0.0185703
816.004	0.0184071
816.082	0.0182240
816.160	0.0183571
816.238	0.0180994
816.317	0.0180261
816.395	0.0180260
816.473	0.0179591
816.551	0.0177781
816.629	0.0176749
816.707	0.0177670
816.785	0.0177654
816.863	0.0175673
816.942	0.0175757
817.020	0.0176052
817.098	0.0174731
817.176	0.0174287
817.254	0.0174073
817.332	0.0174082
817.410	0.0174804
817.488	0.0175156
817.567	0.0174770
817.645	0.0173751
817.723	0.0173036
817.801	0.0173573
817.879	0.0173004
817.957	0.0174352
818.035	0.0171655
818.113	0.0172216
818.192	0.0171484
818.270	0.0170020
818.348	0.0169434
818.426	0.0168549
818.504	0.0168929
818.582	0.0167719
818.660	0.0166325
818.738	0.0165777
818.817	0.0165859
818.895	0.0166492
818.973	0.0166067
819.051	0.0165519
819.129	0.0164937
819.207	0.0166897
819.285	0.0167119
819.363	0.0167664
819.442	0.0167936
819.520	0.0170638
819.598	0.0172055
819.676	0.0172470
819.754	0.0175938
819.832	0.0176987
819.910	0.0180864
819.988	0.0181360
820.067	0.0184953
820.145	0.0185333
820.223	0.0188731
820.301	0.0189370
820.379	0.0191899
820.457	0.0192274
820.535	0.0192353
820.613	0.0193530
820.692	0.0194649
820.770	0.0193699
820.848	0.0194082
820.926	0.0194168
821.004	0.0192555
821.082	0.0192881
821.160	0.0193075
821.238	0.0190508
821.317	0.0191094
821.395	0.0190882
821.473	0.0190049
821.551	0.0188235
821.629	0.0189951
821.707	0.0189371
821.785	0.0188446
821.863	0.0187094
821.942	0.0186717
822.020	0.0186911
822.098	0.0185711
822.176	0.0183022
822.254	0.0182998
822.332	0.0181921
822.410	0.0181001
822.488	0.0179410
822.567	0.0178938
822.645	0.0178297
822.723	0.0176640
822.801	0.0174456
822.879	0.0174184
822.957	0.0173316
823.035	0.0172496
823.113	0.0172288
823.192	0.0171082
823.270	0.0171021
823.348	0.0171130
823.426	0.0170206
823.504	0.0171085
823.582	0.0170888
823.660	0.0169957
823.738	0.0169801
823.817	0.0172155
823.895	0.0171623
823.973	0.0170577
824.051	0.0171196
824.129	0.0170631
824.207	0.0170297
824.285	0.0170900
824.363	0.0170699
824.442	0.0170441
824.520	0.0170574
824.598	0.0169328
824.676	0.0171238
824.754	0.0169666
824.832	0.0169739
824.910	0.0169192
824.988	0.0168656
825.067	0.0169611
825.145	0.0170651
825.223	0.0169659
825.301	0.0170260
825.379	0.0170492
825.457	0.0171281
825.535	0.0172505
825.613	0.0175196
825.692	0.0174983
825.770	0.0174659
825.848	0.0177583
825.926	0.0177592
826.004	0.0178087
826.082	0.0180276
826.160	0.0181338
826.238	0.0182466
826.317	0.0182831
826.395	0.0183641
826.473	0.0184743
826.551	0.0184576
826.629	0.0185530
826.707	0.0186383
826.785	0.0185229
826.863	0.0185237
826.942	0.0186247
827.020	0.0187327
827.098	0.0187041
827.176	0.0186617
827.254	0.0189088
827.332	0.0188755
827.410	0.0188983
827.488	0.0188319
827.567	0.0188889
827.645	0.0189485
827.723	0.0188666
827.801	0.0188425
827.879	0.0186501
827.957	0.0188667
828.035	0.0185229
828.113	0.0187215
828.192	0.0185169
828.270	0.0184958
828.348	0.0185984
828.426	0.0185007
828.504	0.0183056
828.582	0.0183598
828.660	0.0182941
828.738	0.0181643
828.817	0.0181950
828.895	0.0180646
828.973	0.0181496
829.051	0.0179106
829.129	0.0181078
829.207	0.0179980
829.285	0.0179575
829.363	0.0179144
829.442	0.0178439
829.520	0.0177571
829.598	0.0176620
829.676	0.0178014
829.754	0.0176577
829.832	0.0175993
829.910	0.0176566
829.988	0.0173792
830.067	0.0174767
830.145	0.0175136
830.223	0.0173868
830.301	0.0173629
830.379	0.0173118
830.457	0.0172380
830.535	0.0172718
830.613	0.0171140
830.692	0.0169750
830.770	0.0171452
830.848	0.0171863
830.926	0.0171668
831.004	0.0170135
831.082	0.0171353
831.160	0.0171370
831.238	0.0172074
831.317	0.0173894
831.395	0.0171561
831.473	0.0171267
831.551	0.0173344
831.629	0.0173293
831.707	0.0173288
831.785	0.0173962
831.863	0.0173294
831.942	0.0172934
832.020	0.0175346
832.098	0.0175923
832.176	0.0174603
832.254	0.0177205
832.332	0.0176265
832.410	0.0178190
832.488	0.0179601
832.567	0.0178837
832.645	0.0178896
832.723	0.0180468
832.801	0.0182365
832.879	0.0181589
832.957	0.0183466
833.035	0.0183310
833.113	0.0184550
833.192	0.0183669
833.270	0.0184465
833.348	0.0183679
833.426	0.0183887
833.504	0.0184682
833.582	0.0184260
833.660	0.0183315
833.738	0.0183864
833.817	0.0183186
833.895	0.0182905
833.973	0.0183533
834.051	0.0182185
834.129	0.0182832
834.207	0.0180388
834.285	0.0180714
834.363	0.0178811
834.442	0.0177723
834.520	0.0179992
834.598	0.0180381
834.676	0.0179281
834.754	0.0178537
834.832	0.0180358
834.910	0.0178412
834.988	0.0180398
835.067	0.0181447
835.145	0.0181401
835.223	0.0181371
835.301	0.0182436
835.379	0.0182875
835.457	0.0182867
835.535	0.0183807
835.613	0.0184280
835.692	0.0185127
835.770	0.0184023
835.848	0.0185028
835.926	0.0184582
836.004	0.0184851
836.082	0.0184055
836.160	0.0183587
836.238	0.0183739
836.317	0.0182618
836.395	0.0181676
836.473	0.0179385
836.551	0.0179585
836.629	0.0179287
836.707	0.0177512
836.785	0.0176539
836.863	0.0176105
836.942	0.0176074
837.020	0.0173460
837.098	0.0174287
837.176	0.0175462
837.254	0.0172894
837.332	0.0172871
837.410	0.0172814
837.488	0.0174049
837.567	0.0171888
837.645	0.0173845
837.723	0.0173303
837.801	0.0172720
837.879	0.0171839
837.957	0.0173186
838.035	0.0172821
838.113	0.0174343
838.192	0.0173064
838.270	0.0174236
838.348	0.0173685
838.426	0.0175346
838.504	0.0175471
838.582	0.0172549
838.660	0.0174643
838.738	0.0175304
838.817	0.0175625
838.895	0.0175511
838.973	0.0177500
839.051	0.0176751
839.129	0.0177412
839.207	0.0177434
839.285	0.0178859
839.363	0.0178075
839.442	0.0178588
839.520	0.0179827
839.598	0.0181101
839.676	0.0179711
839.754	0.0181103
839.832	0.0179880
839.910	0.0180775
839.988	0.0180476
840.067	0.0180468
840.145	0.0180342
840.223	0.0182137
840.301	0.0181819
840.379	0.0181274
840.457	0.0181065
840.535	0.0182291
840.613	0.0181453
840.692	0.0181551
840.770	0.0180436
840.848	0.0180071
840.926	0.0181081
841.004	0.0180925
841.082	0.0182548
841.160	0.0183026
841.238	0.0183568
841.317	0.0182684
841.395	0.0182521
841.473	0.0182608
841.551	0.0183768
841.629	0.0184811
841.707	0.0185584
841.785	0.0183859
841.863	0.0183691
841.942	0.0183523
842.020	0.0184233
842.098	0.0183177
842.176	0.0183940
842.254	0.0181849
842.332	0.0181288
842.410	0.0178930
842.488	0.0178786
842.567	0.0176694
842.645	0.0176055
842.723	0.0174974
842.801	0.0174837
842.879	0.0174477
842.957	0.0172730
843.035	0.0171053
843.113	0.0170528
843.192	0.0170437
843.270	0.0171945
843.348	0.0171292
843.426	0.0171899
843.504	0.0172112
843.582	0.0173587
843.660	0.0173160
843.738	0.0175914
843.817	0.0175675
843.895	0.0175879
843.973	0.0178173
844.051	0.0176951
844.129	0.0179232
844.207	0.0179438
844.285	0.0179955
844.363	0.0181155
844.442	0.0181131
844.520	0.0180122
844.598	0.0181184
844.676	0.0182700
844.754	0.0180380
844.832	0.0181826
844.910	0.0181496
844.988	0.0181719
845.067	0.0181782
845.145	0.0181456
845.223	0.0180035
845.301	0.0180906
845.379	0.0181419
845.457	0.0178776
845.535	0.0179041
845.613	0.0178740
845.692	0.0177340
845.770	0.0176447
845.848	0.0177635
845.926	0.0178048
846.004	0.0177805
846.082	0.0177026
846.160	0.0176227
846.238	0.0177532
846.317	0.0177246
846.395	0.0176709
846.473	0.0177961
846.551	0.0176714
846.629	0.0178513
846.707	0.0179908
846.785	0.0179356
846.863	0.0178500
846.942	0.0179510
847.020	0.0180389
847.098	0.0180181
847.176	0.0180090
847.254	0.0180127
847.332	0.0182349
847.410	0.0181384
847.488	0.0180648
847.567	0.0180556
847.645	0.0180034
847.723	0.0180737
847.801	0.0181745
847.879	0.0180798
847.957	0.0181505
848.035	0.0180173
848.113	0.0179956
848.192	0.0180206
848.270	0.0179166
848.348	0.0179163
848.426	0.0177311
848.504	0.0177171
848.582	0.0176958
848.660	0.0175131
848.738	0.0175880
848.817	0.0174701
848.895	0.0174261
848.973	0.0173825
849.051	0.0175578
849.129	0.0174159
849.207	0.0173599
849.285	0.0174107
849.363	0.0174334
849.442	0.0174465
849.520	0.0174460
849.598	0.0177233
849.676	0.0175702
849.754	0.0174785
849.832	0.0177929
849.910	0.0178264
849.988	0.0177917
850.067	0.0179728
850.145	0.0180718
850.223	0.0180344
850.301	0.0181651
850.379	0.0181594
850.457	0.0182984
850.535	0.0183724
850.613	0.0182574
850.692	0.0181686
850.770	0.0183815
850.848	0.0183278
850.926	0.0182677
851.004	0.0183633
851.082	0.0183126
851.160	0.0182150
851.238	0.0181038
851.317	0.0181065
851.395	0.0181457
851.473	0.0180453
851.551	0.0180399
851.629	0.0181072
851.707	0.0179476
851.785	0.0179652
851.863	0.0179294
851.942	0.0179399
852.020	0.0180489
852.098	0.0179642
852.176	0.0179978
852.254	0.0181371
852.332	0.0180271
852.410	0.0179334
852.488	0.0182249
852.567	0.0180979
852.645	0.0182844
852.723	0.0180257
852.801	0.0181736
852.879	0.0180509
852.957	0.0182035
853.035	0.0182089
853.113	0.0182021
853.192	0.0181851
853.270	0.0181390
853.348	0.0179158
853.426	0.0178188
853.504	0.0179803
853.582	0.0178203
853.660	0.0177324
853.738	0.0175767
853.817	0.0176002
853.895	0.0176326
853.973	0.0175219
854.051	0.0174831
854.129	0.0173677
854.207	0.0174085
854.285	0.0174140
854.363	0.0172209
854.442	0.0172041
854.520	0.0172223
854.598	0.0171765
854.676	0.0172062
854.754	0.0172141
854.832	0.0172652
854.910	0.0172989
854.988	0.0172411
855.067	0.0174707
855.145	0.0174374
855.223	0.0175100
855.301	0.0175421
855.379	0.0177584
855.457	0.0177718
855.535	0.0178728
855.613	0.0180896
855.692	0.0179016
855.770	0.0180116
855.848	0.0179774
855.926	0.0181183
856.004	0.0182539
856.082	0.0181015
856.160	0.0183009
856.238	0.0183530
856.317	0.0183817
856.395	0.0182999
856.473	0.0183249
856.551	0.0184220
856.629	0.0185247
856.707	0.0183322
856.785	0.0183064
856.863	0.0182463
856.942	0.0182216
857.020	0.0182147
857.098	0.0184224
857.176	0.0182005
857.254	0.0181293
857.332	0.0181927
857.410	0.0181527
857.488	0.0181914
857.567	0.0181051
857.645	0.0180128
857.723	0.0183009
857.801	0.0180009
857.879	0.0180432
857.957	0.0181421
858.035	0.0181163
858.113	0.0179935
858.192	0.0180207
858.270	0.0180607
858.348	0.0180693
858.426	0.0181439
858.504	0.0179561
858.582	0.0180956
858.660	0.0180489
858.738	0.0179873
858.817	0.0179607
858.895	0.0180268
858.973	0.0179090
859.051	0.0179018
859.129	0.0178471
859.207	0.0177408
859.285	0.0176367
859.363	0.0177749
859.442	0.0176083
859.520	0.0175696
859.598	0.0175636
859.676	0.0174892
859.754	0.0174046
859.832	0.0173732
859.910	0.0172908
859.988	0.0173679
860.067	0.0173849
860.145	0.0173377
860.223	0.0174067
860.301	0.0172429
860.379	0.0172356
860.457	0.0173061
860.535	0.0174390
860.613	0.0173042
860.692	0.0174053
860.770	0.0174435
860.848	0.0174976
860.926	0.0174947
861.004	0.0175154
861.082	0.0177764
861.160	0.0176881
861.238	0.0174305
861.317	0.0177160
861.395	0.0178252
861.473	0.0176749
861.551	0.0178265
861.629	0.0178211
861.707	0.0179671
861.785	0.0180195
861.863	0.0179797
861.942	0.0180440
862.020	0.0179948
862.098	0.0180000
862.176	0.0181429
862.254	0.0182161
862.332	0.0181176
862.410	0.0181552
862.488	0.0182372
862.567	0.0184375
862.645	0.0182169
862.723	0.0182906
862.801	0.0181908
862.879	0.0182860
862.957	0.0182636
863.035	0.0183070
863.113	0.0182534
863.192	0.0181820
863.270	0.0182521
863.348	0.0182661
863.426	0.0181360
863.504	0.0182012
863.582	0.0182050
863.660	0.0182716
863.738	0.0181453
863.817	0.0182246
863.895	0.0180846
863.973	0.0182207
864.051	0.0181883
864.129	0.0182575
864.207	0.0181157
864.285	0.0181284
864.363	0.0180541
864.442	0.0180785
864.520	0.0178722
864.598	0.0178661
864.676	0.0178506
864.754	0.0177508
864.832	0.0177338
864.910	0.0176473
864.988	0.0175635
865.067	0.0175867
865.145	0.0175150
865.223	0.0173840
865.301	0.0174828
865.379	0.0173876
865.457	0.0174934
865.535	0.0173763
865.613	0.0174818
865.692	0.0173691
865.770	0.0174031
865.848	0.0175606
865.926	0.0174224
866.004	0.0175903
866.082	0.0174604
866.160	0.0175064
866.238	0.0176273
866.317	0.0175166
866.395	0.0176324
866.473	0.0176546
866.551	0.0177005
866.629	0.0176170
866.707	0.0176646
866.785	0.0177126
866.863	0.0176300
866.942	0.0176276
867.020	0.0176481
867.098	0.0177296
867.176	0.0176439
867.254	0.0177887
867.332	0.0176674
867.410	0.0177367
867.488	0.0178714
867.567	0.0177290
867.645	0.0178191
867.723	0.0179261
867.801	0.0179330
867.879	0.0178789
867.957	0.0178357
868.035	0.0180762
868.113	0.0180449
868.192	0.0181158
868.270	0.0180823
868.348	0.0180206
868.426	0.0181111
868.504	0.0180202
868.582	0.0180358
868.660	0.0181661
868.738	0.0181307
868.817	0.0182599
868.895	0.0182352
868.973	0.0182070
869.051	0.0181131
869.129	0.0180061
869.207	0.0180973
869.285	0.0181906
869.363	0.0182821
869.442	0.0182584
869.520	0.0182735
869.598	0.0183001
869.676	0.0183232
869.754	0.0182831
869.832	0.0183420
869.910	0.0183031
869.988	0.0181136
870.067	0.0182587
870.145	0.0183204
870.223	0.0182970
870.301	0.0181493
870.379	0.0181994
870.457	0.0180228
870.535	0.0180539
870.613	0.0180891
870.692	0.0178767
870.770	0.0177904
870.848	0.0177489
870.926	0.0175568
871.004	0.0175507
871.082	0.0176395
871.160	0.0175510
871.238	0.0175418
871.317	0.0174867
871.395	0.0174668
871.473	0.0175935
871.551	0.0175661
871.629	0.0175790
871.707	0.0175279
871.785	0.0174428
871.863	0.0174848
871.942	0.0175766
872.020	0.0175559
872.098	0.0175015
872.176	0.0176749
872.254	0.0176808
872.332	0.0175517
872.410	0.0176460
872.488	0.0178024
872.567	0.0176728
872.645	0.0176221
872.723	0.0176933
872.801	0.0177863
872.879	0.0177455
872.957	0.0176265
873.035	0.0177798
873.113	0.0177382
873.192	0.0179247
873.270	0.0177671
873.348	0.0179108
873.426	0.0177978
873.504	0.0179168
873.582	0.0179914
873.660	0.0180489
873.738	0.0179498
873.817	0.0180249
873.895	0.0180341
873.973	0.0180619
874.051	0.0181561
874.129	0.0179472
874.207	0.0181580
874.285	0.0183160
874.363	0.0181194
874.442	0.0181101
874.520	0.0181403
874.598	0.0182151
874.676	0.0182158
874.754	0.0180907
874.832	0.0182336
874.910	0.0181876
874.988	0.0181853
875.067	0.0180839
875.145	0.0181066
875.223	0.0180089
875.301	0.0180260
875.379	0.0180444
875.457	0.0180315
875.535	0.0179536
875.613	0.0179942
875.692	0.0179178
875.770	0.0180496
875.848	0.0178861
875.926	0.0179961
876.004	0.0179301
876.082	0.0179960
876.160	0.0179257
876.238	0.0178097
876.317	0.0177898
876.395	0.0179178
876.473	0.0178975
876.551	0.0177670
876.629	0.0177762
876.707	0.0177950
876.785	0.0178186
876.863	0.0176613
876.942	0.0178970
877.020	0.0178412
877.098	0.0178767
877.176	0.0177561
877.254	0.0176520
877.332	0.0176932
877.410	0.0176950
877.488	0.0177811
877.567	0.0177856
877.645	0.0176236
877.723	0.0176857
877.801	0.0175827
877.879	0.0177055
877.957	0.0176517
878.035	0.0175417
878.113	0.0175468
878.192	0.0176807
878.270	0.0178572
878.348	0.0176801
878.426	0.0177261
878.504	0.0178681
878.582	0.0178583
878.660	0.0178102
878.738	0.0180202
878.817	0.0179916
878.895	0.0180674
878.973	0.0181774
879.051	0.0181136
879.129	0.0179364
879.207	0.0180357
879.285	0.0180482
879.363	0.0181230
879.442	0.0180491
879.520	0.0180303
879.598	0.0179950
879.676	0.0180839
879.754	0.0180833
879.832	0.0180497
879.910	0.0179897
879.988	0.0179344
880.067	0.0181372
880.145	0.0179817
880.223	0.0181194
880.301	0.0180733
880.379	0.0178747
880.457	0.0180280
880.535	0.0180165
880.613	0.0180298
880.692	0.0179285
880.770	0.0177753
880.848	0.0180682
880.926	0.0178990
881.004	0.0179329
881.082	0.0179469
881.160	0.0178431
881.238	0.0178767
881.317	0.0179990
881.395	0.0179674
881.473	0.0180405
881.551	0.0179392
881.629	0.0179818
881.707	0.0180350
881.785	0.0179574
881.863	0.0178765
881.942	0.0179664
882.020	0.0179185
882.098	0.0179535
882.176	0.0177863
882.254	0.0177676
882.332	0.0178675
882.410	0.0177788
882.488	0.0178304
882.567	0.0176968
882.645	0.0177238
882.723	0.0176743
882.801	0.0176336
882.879	0.0176267
882.957	0.0176860
883.035	0.0178244
883.113	0.0177904
883.192	0.0176003
883.270	0.0176894
883.348	0.0176148
883.426	0.0176833
883.504	0.0176968
883.582	0.0177356
883.660	0.0175735
883.738	0.0177962
883.817	0.0177557
883.895	0.0176714
883.973	0.0177452
884.051	0.0177539
884.129	0.0177410
884.207	0.0177019
884.285	0.0178114
884.363	0.0179135
884.442	0.0178619
884.520	0.0178230
884.598	0.0177786
884.676	0.0178443
884.754	0.0180811
884.832	0.0179541
884.910	0.0178677
884.988	0.0178833
885.067	0.0179053
885.145	0.0179376
885.223	0.0179017
885.301	0.0179705
885.379	0.0178129
885.457	0.0179705
885.535	0.0177371
885.613	0.0180746
885.692	0.0180066
885.770	0.0180520
885.848	0.0181855
885.926	0.0181471
886.004	0.0180932
886.082	0.0180685
886.160	0.0180125
886.238	0.0181990
886.317	0.0181055
886.395	0.0182141
886.473	0.0181301
886.551	0.0182246
886.629	0.0183465
886.707	0.0183340
886.785	0.0181950
886.863	0.0182400
886.942	0.0181583
887.020	0.0180119
887.098	0.0180815
887.176	0.0181166
887.254	0.0180098
887.332	0.0179566
887.410	0.0178893
887.488	0.0178719
887.567	0.0178168
887.645	0.0177271
887.723	0.0177439
887.801	0.0176778
887.879	0.0176322
887.957	0.0175325
888.035	0.0176508
888.113	0.0175076
888.192	0.0173726
888.270	0.0175560
888.348	0.0175965
888.426	0.0176385
888.504	0.0176671
888.582	0.0176957
888.660	0.0177282
888.738	0.0178477
888.817	0.0178643
888.895	0.0179829
888.973	0.0179889
889.051	0.0179119
889.129	0.0180337
889.207	0.0181667
889.285	0.0181586
889.363	0.0183217
889.442	0.0181087
889.520	0.0181718
889.598	0.0183189
889.676	0.0180949
889.754	0.0181873
889.832	0.0182590
889.910	0.0181448
889.988	0.0180416
890.067	0.0179863
890.145	0.0180231
890.223	0.0179004
890.301	0.0179019
890.379	0.0177612
890.457	0.0177271
890.535	0.0176563
890.613	0.0177351
890.692	0.0176171
890.770	0.0176135
890.848	0.0175916
890.926	0.0176844
891.004	0.0176717
891.082	0.0175343
891.160	0.0175962
891.238	0.0175395
891.317	0.0176881
891.395	0.0176738
891.473	0.0178336
891.551	0.0177251
891.629	0.0176090
891.707	0.0176670
891.785	0.0178299
891.863	0.0178046
891.942	0.0177772
892.020	0.0178514
892.098	0.0179330
892.176	0.0178606
892.254	0.0177740
892.332	0.0178551
892.410	0.0178973
892.488	0.0177592
892.567	0.0178248
892.645	0.0178815
892.723	0.0178748
892.801	0.0181038
892.879	0.0180791
892.957	0.0179670
893.035	0.0180504
893.113	0.0180387
893.192	0.0181443
893.270	0.0182541
893.348	0.0180121
893.426	0.0181676
893.504	0.0181451
893.582	0.0181021
893.660	0.0180813
893.738	0.0181139
893.817	0.0180772
893.895	0.0178801
893.973	0.0179665
894.051	0.0179166
894.129	0.0178708
894.207	0.0178839
894.285	0.0178500
894.363	0.0179933
894.442	0.0179619
894.520	0.0178615
894.598	0.0179456
894.676	0.0179003
894.754	0.0179883
894.832	0.0180780
894.910	0.0181455
894.988	0.0181736
895.067	0.0182246
895.145	0.0182139
895.223	0.0183327
895.301	0.0181190
895.379	0.0182112
895.457	0.0181320
895.535	0.0183648
895.613	0.0182221
895.692	0.0180804
895.770	0.0183187
895.848	0.0181319
895.926	0.0182797
896.004	0.0183327
896.082	0.0179505
896.160	0.0180031
896.238	0.0179000
896.317	0.0179430
896.395	0.0178479
896.473	0.0177081
896.551	0.0176135
896.629	0.0175714
896.707	0.0175736
896.785	0.0173444
896.863	0.0173932
896.942	0.0173273
897.020	0.0173660
897.098	0.0171968
897.176	0.0172563
897.254	0.0172152
897.332	0.0173620
897.410	0.0170893
897.488	0.0172314
897.567	0.0173647
897.645	0.0174609
897.723	0.0173975
897.801	0.0175728
897.879	0.0174553
897.957	0.0176191
898.035	0.0176476
898.113	0.0177676
898.192	0.0176903
898.270	0.0177567
898.348	0.0179620
898.426	0.0182420
898.504	0.0180953
898.582	0.0181630
898.660	0.0182890
898.738	0.0183166
898.817	0.0183054
898.895	0.0183414
898.973	0.0183844
899.051	0.0184884
899.129	0.0182246
899.207	0.0181339
899.285	0.0182545
899.363	0.0181559
899.442	0.0179862
899.520	0.0179169
899.598	0.0177872
899.676	0.0178712
899.754	0.0176914
899.832	0.0173664
899.910	0.0174278
899.988	0.0174097
900.067	0.0174104
900.145	0.0173600
900.223	0.0175146
900.301	0.0175297
900.379	0.0176440
900.457	0.0176006
900.535	0.0179866
900.613	0.0182193
900.692	0.0180721
900.770	0.0182378
900.848	0.0183099
900.926	0.0184785
901.004	0.0184029
901.082	0.0184434
901.160	0.0186295
901.238	0.0187219
901.317	0.0185771
901.395	0.0185596
901.473	0.0186655
901.551	0.0185138
901.629	0.0184647
901.707	0.0185825
901.785	0.0185436
901.863	0.0182374
901.942	0.0182420
902.020	0.0181299
902.098	0.0179500
902.176	0.0176940
902.254	0.0177616
902.332	0.0176515
902.410	0.0175680
902.488	0.0174239
902.567	0.0172438
902.645	0.0172546
902.723	0.0170942
902.801	0.0170323
902.879	0.0170513
902.957	0.0170601
903.035	0.0171867
903.113	0.0172093
903.192	0.0172823
903.270	0.0173978
903.348	0.0174229
903.426	0.0175279
903.504	0.0176211
903.582	0.0176834
903.660	0.0177312
903.738	0.0178899
903.817	0.0179678
903.895	0.0181348
903.973	0.0181632
904.051	0.0181701
904.129	0.0182437
904.207	0.0183612
904.285	0.0184112
904.363	0.0184082
904.442	0.0183912
904.520	0.0185300
904.598	0.0186872
904.676	0.0184544
904.754	0.0185109
904.832	0.0183029
904.910	0.0182872
904.988	0.0181455
905.067	0.0181351
905.145	0.0180024
905.223	0.0177995
905.301	0.0178081
905.379	0.0176907
905.457	0.0175019
905.535	0.0173288
905.613	0.0174619
905.692	0.0170907
905.770	0.0171754
905.848	0.0171616
905.926	0.0171331
906.004	0.0170393
906.082	0.0172580
906.160	0.0171918
906.238	0.0174243
906.317	0.0174766
906.395	0.0176123
906.473	0.0175880
906.551	0.0179338
906.629	0.0178973
906.707	0.0180127
906.785	0.0180992
906.863	0.0181715
906.942	0.0182083
907.020	0.0182431
907.098	0.0184625
907.176	0.0183636
907.254	0.0186152
907.332	0.0184584
907.410	0.0185412
907.488	0.0186053
907.567	0.0184797
907.645	0.0182468
907.723	0.0182291
907.801	0.0181166
907.879	0.0181793
907.957	0.0180730
908.035	0.0178135
908.113	0.0177935
908.192	0.0176487
908.270	0.0175006
908.348	0.0174778
908.426	0.0174914
908.504	0.0173524
908.582	0.0173378
908.660	0.0173132
908.738	0.0173507
908.817	0.0174044
908.895	0.0174936
908.973	0.0175878
909.051	0.0176186
909.129	0.0176669
909.207	0.0178065
909.285	0.0179036
909.363	0.0179732
909.442	0.0179721
909.520	0.0180679
909.598	0.0180827
909.676	0.0181129
909.754	0.0181112
909.832	0.0182246
909.910	0.0179037
909.988	0.0181200
910.067	0.0180486
910.145	0.0180053
910.223	0.0180206
910.301	0.0180080
910.379	0.0180604
910.457	0.0179377
910.535	0.0177992
910.613	0.0179682
910.692	0.0179072
910.770	0.0177845
910.848	0.0179620
910.926	0.0178771
911.004	0.0178505
911.082	0.0179006
911.160	0.0178244
911.238	0.0178506
911.317	0.0179040
911.395	0.0177817
911.473	0.0178415
911.551	0.0179390
911.629	0.0178128
911.707	0.0177986
911.785	0.0178436
911.863	0.0177494
911.942	0.0176007
912.020	0.0177080
912.098	0.0176482
912.176	0.0175998
912.254	0.0174989
912.332	0.0175454
912.410	0.0176525
912.488	0.0177272
912.567	0.0177250
912.645	0.0178725
912.723	0.0178240
912.801	0.0178887
912.879	0.0179839
912.957	0.0179906
913.035	0.0179704
913.113	0.0180805
913.192	0.0181645
913.270	0.0182791
913.348	0.0182722
913.426	0.0182986
913.504	0.0180954
913.582	0.0180982
913.660	0.0180264
913.738	0.0179038
913.817	0.0179736
913.895	0.0179636
913.973	0.0178400
914.051	0.0179135
914.129	0.0177551
914.207	0.0176456
914.285	0.0176981
914.363	0.0175257
914.442	0.0174816
914.520	0.0175085
914.598	0.0173189
914.676	0.0173451
914.754	0.0173579
914.832	0.0176302
914.910	0.0176225
914.988	0.0176725
915.067	0.0178343
915.145	0.0178123
915.223	0.0179649
915.301	0.0179842
915.379	0.0179273
915.457	0.0182073
915.535	0.0181308
915.613	0.0182002
915.692	0.0182203
915.770	0.0181499
915.848	0.0181979
915.926	0.0180620
916.004	0.0180325
916.082	0.0179625
916.160	0.0179965
916.238	0.0180512
916.317	0.0178566
916.395	0.0178695
916.473	0.0179895
916.551	0.0180253
916.629	0.0180467
916.707	0.0178992
916.785	0.0179449
916.863	0.0180682
916.942	0.0180785
917.020	0.0180612
917.098	0.0181543
917.176	0.0182813
917.254	0.0181747
917.332	0.0181641
917.410	0.0181182
917.488	0.0181984
917.567	0.0181957
917.645	0.0181422
917.723	0.0179787
917.801	0.0180287
917.879	0.0178358
917.957	0.0178292
918.035	0.0178156
918.113	0.0176089
918.192	0.0175787
918.270	0.0175146
918.348	0.0175926
918.426	0.0174255
918.504	0.0176626
918.582	0.0175161
918.660	0.0176952
918.738	0.0176536
918.817	0.0176608
918.895	0.0178278
918.973	0.0178453
919.051	0.0177588
919.129	0.0177143
919.207	0.0177838
919.285	0.0179015
919.363	0.0178366
919.442	0.0178216
919.520	0.0178432
919.598	0.0178757
919.676	0.0179127
919.754	0.0177766
919.832	0.0178974
919.910	0.0177788
