06/01/2022	21:46:33	Ver.	4.1	UNKNOWN
Optical Delay	599.988409	Delta X		0.078125	Sweeps	1	Scan Rate	0/0
Coordinates	Axis 1	NaN	Axis 2	NaN	Axis 3	NaN	Axis 4	NaN	Axis 5	NaN	Axis 6	0.000000
TX Power	0.000000	RX Power	0.000000

599.988	0.0175137
600.067	0.0175613
600.145	0.0174433
600.223	0.0175276
600.301	0.0175757
600.379	0.0175303
600.457	0.0173954
600.535	0.0175600
600.613	0.0176485
600.692	0.0176623
600.770	0.0175428
600.848	0.0175926
600.926	0.0175130
601.004	0.0175089
601.082	0.0175257
601.160	0.0175677
601.238	0.0174503
601.317	0.0175765
601.395	0.0174638
601.473	0.0173940
601.551	0.0176428
601.629	0.0175578
601.707	0.0175163
601.785	0.0173279
601.863	0.0174840
601.942	0.0175777
602.020	0.0173343
602.098	0.0174660
602.176	0.0175710
602.254	0.0175555
602.332	0.0173243
602.410	0.0174413
602.488	0.0174798
602.567	0.0174145
602.645	0.0175043
602.723	0.0176226
602.801	0.0176068
602.879	0.0175117
602.957	0.0175177
603.035	0.0174729
603.113	0.0175716
603.192	0.0174296
603.270	0.0174564
603.348	0.0175327
603.426	0.0176265
603.504	0.0175444
603.582	0.0173554
603.660	0.0175839
603.738	0.0174853
603.817	0.0176482
603.895	0.0176050
603.973	0.0175621
604.051	0.0174148
604.129	0.0175469
604.207	0.0174907
604.285	0.0175815
604.363	0.0174567
604.442	0.0175047
604.520	0.0176289
604.598	0.0176141
604.676	0.0175845
604.754	0.0175822
604.832	0.0174519
604.910	0.0176677
604.988	0.0175487
605.067	0.0174712
605.145	0.0174404
605.223	0.0175610
605.301	0.0175484
605.379	0.0174807
605.457	0.0175097
605.535	0.0174405
605.613	0.0174368
605.692	0.0175839
605.770	0.0174766
605.848	0.0175221
605.926	0.0174334
606.004	0.0175942
606.082	0.0176498
606.160	0.0175032
606.238	0.0175284
606.317	0.0175063
606.395	0.0174872
606.473	0.0175125
606.551	0.0175113
606.629	0.0177399
606.707	0.0175628
606.785	0.0175602
606.863	0.0174344
606.942	0.0173170
607.020	0.0174097
607.098	0.0175571
607.176	0.0174659
607.254	0.0175124
607.332	0.0175062
607.410	0.0174554
607.488	0.0174026
607.567	0.0176902
607.645	0.0175737
607.723	0.0176041
607.801	0.0174557
607.879	0.0176287
607.957	0.0173520
608.035	0.0174427
608.113	0.0175336
608.192	0.0173318
608.270	0.0175380
608.348	0.0175776
608.426	0.0174767
608.504	0.0175655
608.582	0.0174621
608.660	0.0174311
608.738	0.0176333
608.817	0.0174747
608.895	0.0175150
608.973	0.0176438
609.051	0.0174421
609.129	0.0176052
609.207	0.0176197
609.285	0.0175727
609.363	0.0175778
609.442	0.0175062
609.520	0.0174805
609.598	0.0175628
609.676	0.0174916
609.754	0.0175225
609.832	0.0175558
609.910	0.0176108
609.988	0.0176054
610.067	0.0176449
610.145	0.0174586
610.223	0.0175430
610.301	0.0176613
610.379	0.0174874
610.457	0.0175239
610.535	0.0176237
610.613	0.0175120
610.692	0.0175646
610.770	0.0175043
610.848	0.0174148
610.926	0.0174684
611.004	0.0176590
611.082	0.0176328
611.160	0.0175000
611.238	0.0174442
611.317	0.0175570
611.395	0.0175169
611.473	0.0174989
611.551	0.0175124
611.629	0.0174373
611.707	0.0174820
611.785	0.0176842
611.863	0.0175819
611.942	0.0175954
612.020	0.0175488
612.098	0.0176297
612.176	0.0174858
612.254	0.0174583
612.332	0.0176087
612.410	0.0175970
612.488	0.0174919
612.567	0.0175372
612.645	0.0176154
612.723	0.0175151
612.801	0.0175261
612.879	0.0174872
612.957	0.0175296
613.035	0.0174400
613.113	0.0174874
613.192	0.0176738
613.270	0.0174619
613.348	0.0175280
613.426	0.0174142
613.504	0.0175758
613.582	0.0175033
613.660	0.0174628
613.738	0.0174352
613.817	0.0174983
613.895	0.0175570
613.973	0.0174977
614.051	0.0174574
614.129	0.0175284
614.207	0.0174796
614.285	0.0176545
614.363	0.0175838
614.442	0.0174459
614.520	0.0174430
614.598	0.0176263
614.676	0.0174224
614.754	0.0174982
614.832	0.0175510
614.910	0.0174495
614.988	0.0175670
615.067	0.0173603
615.145	0.0176239
615.223	0.0174369
615.301	0.0174171
615.379	0.0174947
615.457	0.0176499
615.535	0.0175143
615.613	0.0174715
615.692	0.0175261
615.770	0.0173832
615.848	0.0174966
615.926	0.0175022
616.004	0.0174155
616.082	0.0175032
616.160	0.0175810
616.238	0.0176293
616.317	0.0174596
616.395	0.0175146
616.473	0.0175517
616.551	0.0175251
616.629	0.0174985
616.707	0.0176011
616.785	0.0174815
616.863	0.0175626
616.942	0.0174142
617.020	0.0174596
617.098	0.0173872
617.176	0.0174288
617.254	0.0174661
617.332	0.0174783
617.410	0.0174046
617.488	0.0174440
617.567	0.0173929
617.645	0.0175093
617.723	0.0177196
617.801	0.0175269
617.879	0.0175138
617.957	0.0175570
618.035	0.0174335
618.113	0.0175467
618.192	0.0175143
618.270	0.0175411
618.348	0.0174194
618.426	0.0176472
618.504	0.0175168
618.582	0.0175681
618.660	0.0174302
618.738	0.0174853
618.817	0.0176455
618.895	0.0175773
618.973	0.0174979
619.051	0.0174416
619.129	0.0175523
619.207	0.0175299
619.285	0.0176353
619.363	0.0175871
619.442	0.0175909
619.520	0.0175948
619.598	0.0174384
619.676	0.0175114
619.754	0.0175648
619.832	0.0173897
619.910	0.0174438
619.988	0.0173674
620.067	0.0175358
620.145	0.0174384
620.223	0.0174168
620.301	0.0175166
620.379	0.0175333
620.457	0.0175478
620.535	0.0175122
620.613	0.0173431
620.692	0.0173195
620.770	0.0174904
620.848	0.0176021
620.926	0.0174773
621.004	0.0174078
621.082	0.0175562
621.160	0.0175819
621.238	0.0174632
621.317	0.0174040
621.395	0.0173618
621.473	0.0174158
621.551	0.0175092
621.629	0.0175732
621.707	0.0174116
621.785	0.0175931
621.863	0.0176652
621.942	0.0174939
622.020	0.0173283
622.098	0.0175240
622.176	0.0176070
622.254	0.0173928
622.332	0.0174769
622.410	0.0174657
622.488	0.0175053
622.567	0.0174783
622.645	0.0174763
622.723	0.0174249
622.801	0.0174296
622.879	0.0175252
622.957	0.0174720
623.035	0.0174817
623.113	0.0174697
623.192	0.0176023
623.270	0.0175511
623.348	0.0173987
623.426	0.0175561
623.504	0.0174783
623.582	0.0175336
623.660	0.0175429
623.738	0.0175735
623.817	0.0174898
623.895	0.0175727
623.973	0.0173884
624.051	0.0174405
624.129	0.0175314
624.207	0.0174799
624.285	0.0174590
624.363	0.0175775
624.442	0.0176089
624.520	0.0174837
624.598	0.0174227
624.676	0.0174619
624.754	0.0174022
624.832	0.0175629
624.910	0.0175056
624.988	0.0174820
625.067	0.0174617
625.145	0.0174927
625.223	0.0174966
625.301	0.0174877
625.379	0.0174326
625.457	0.0173190
625.535	0.0174535
625.613	0.0175597
625.692	0.0173510
625.770	0.0174680
625.848	0.0174545
625.926	0.0174918
626.004	0.0174847
626.082	0.0175774
626.160	0.0175401
626.238	0.0174588
626.317	0.0174196
626.395	0.0174926
626.473	0.0174293
626.551	0.0174777
626.629	0.0176488
626.707	0.0174683
626.785	0.0176180
626.863	0.0175095
626.942	0.0174976
627.020	0.0174628
627.098	0.0175875
627.176	0.0174817
627.254	0.0175941
627.332	0.0176527
627.410	0.0174647
627.488	0.0176179
627.567	0.0175891
627.645	0.0174284
627.723	0.0176315
627.801	0.0175140
627.879	0.0175038
627.957	0.0175971
628.035	0.0175677
628.113	0.0174874
628.192	0.0174709
628.270	0.0175565
628.348	0.0175625
628.426	0.0174611
628.504	0.0175471
628.582	0.0175265
628.660	0.0174212
628.738	0.0175587
628.817	0.0174889
628.895	0.0174628
628.973	0.0174938
629.051	0.0176245
629.129	0.0174773
629.207	0.0174609
629.285	0.0177602
629.363	0.0175299
629.442	0.0174992
629.520	0.0175446
629.598	0.0175871
629.676	0.0176066
629.754	0.0175926
629.832	0.0175123
629.910	0.0174921
629.988	0.0176933
630.067	0.0176157
630.145	0.0175163
630.223	0.0174718
630.301	0.0175774
630.379	0.0174979
630.457	0.0176245
630.535	0.0175809
630.613	0.0175997
630.692	0.0175315
630.770	0.0174801
630.848	0.0175722
630.926	0.0175639
631.004	0.0175052
631.082	0.0175405
631.160	0.0173988
631.238	0.0174857
631.317	0.0174099
631.395	0.0175398
631.473	0.0173900
631.551	0.0174686
631.629	0.0173975
631.707	0.0175237
631.785	0.0174766
631.863	0.0172874
631.942	0.0175723
632.020	0.0174017
632.098	0.0174612
632.176	0.0175504
632.254	0.0175746
632.332	0.0175163
632.410	0.0174236
632.488	0.0174605
632.567	0.0175155
632.645	0.0175588
632.723	0.0174529
632.801	0.0174287
632.879	0.0174950
632.957	0.0175717
633.035	0.0176296
633.113	0.0175146
633.192	0.0174751
633.270	0.0175417
633.348	0.0175134
633.426	0.0175005
633.504	0.0175832
633.582	0.0177041
633.660	0.0175244
633.738	0.0176655
633.817	0.0175146
633.895	0.0174893
633.973	0.0175894
634.051	0.0174477
634.129	0.0174378
634.207	0.0175198
634.285	0.0175732
634.363	0.0173571
634.442	0.0175409
634.520	0.0175488
634.598	0.0173674
634.676	0.0175449
634.754	0.0175341
634.832	0.0176270
634.910	0.0174628
634.988	0.0174447
635.067	0.0173754
635.145	0.0174792
635.223	0.0176472
635.301	0.0175022
635.379	0.0174273
635.457	0.0175544
635.535	0.0174948
635.613	0.0175203
635.692	0.0174680
635.770	0.0175632
635.848	0.0175564
635.926	0.0175092
636.004	0.0175539
636.082	0.0174214
636.160	0.0175304
636.238	0.0176043
636.317	0.0174205
636.395	0.0175611
636.473	0.0174269
636.551	0.0174849
636.629	0.0174097
636.707	0.0174922
636.785	0.0174589
636.863	0.0176092
636.942	0.0173877
637.020	0.0173894
637.098	0.0175050
637.176	0.0173299
637.254	0.0173492
637.332	0.0175587
637.410	0.0174313
637.488	0.0173989
637.567	0.0174246
637.645	0.0175562
637.723	0.0174878
637.801	0.0174717
637.879	0.0173669
637.957	0.0175607
638.035	0.0176740
638.113	0.0174652
638.192	0.0174678
638.270	0.0174871
638.348	0.0174626
638.426	0.0175976
638.504	0.0174546
638.582	0.0174490
638.660	0.0175986
638.738	0.0175462
638.817	0.0175481
638.895	0.0177125
638.973	0.0176000
639.051	0.0175292
639.129	0.0176019
639.207	0.0175749
639.285	0.0175279
639.363	0.0175295
639.442	0.0175483
639.520	0.0176247
639.598	0.0175159
639.676	0.0174348
639.754	0.0175862
639.832	0.0176533
639.910	0.0174688
639.988	0.0174400
640.067	0.0175793
640.145	0.0174686
640.223	0.0175517
640.301	0.0175517
640.379	0.0174937
640.457	0.0175858
640.535	0.0175605
640.613	0.0173626
640.692	0.0174448
640.770	0.0173331
640.848	0.0175003
640.926	0.0174434
641.004	0.0175232
641.082	0.0174057
641.160	0.0175671
641.238	0.0176345
641.317	0.0174754
641.395	0.0174748
641.473	0.0175250
641.551	0.0175557
641.629	0.0176653
641.707	0.0174990
641.785	0.0175321
641.863	0.0175210
641.942	0.0174675
642.020	0.0174979
642.098	0.0176114
642.176	0.0174291
642.254	0.0175302
642.332	0.0174914
642.410	0.0175333
642.488	0.0176312
642.567	0.0174734
642.645	0.0175166
642.723	0.0175109
642.801	0.0176147
642.879	0.0174820
642.957	0.0174497
643.035	0.0175201
643.113	0.0173139
643.192	0.0173261
643.270	0.0175613
643.348	0.0175282
643.426	0.0174665
643.504	0.0173847
643.582	0.0175005
643.660	0.0174924
643.738	0.0176002
643.817	0.0175386
643.895	0.0175607
643.973	0.0175319
644.051	0.0175123
644.129	0.0174856
644.207	0.0174757
644.285	0.0174281
644.363	0.0175245
644.442	0.0175462
644.520	0.0177071
644.598	0.0176825
644.676	0.0174545
644.754	0.0175825
644.832	0.0175520
644.910	0.0176637
644.988	0.0175087
645.067	0.0175959
645.145	0.0174334
645.223	0.0174472
645.301	0.0176509
645.379	0.0176889
645.457	0.0176093
645.535	0.0176340
645.613	0.0175931
645.692	0.0175310
645.770	0.0175791
645.848	0.0174069
645.926	0.0174780
646.004	0.0174438
646.082	0.0175024
646.160	0.0175286
646.238	0.0175367
646.317	0.0174571
646.395	0.0174831
646.473	0.0175075
646.551	0.0176201
646.629	0.0175812
646.707	0.0175975
646.785	0.0174706
646.863	0.0176089
646.942	0.0175306
647.020	0.0174854
647.098	0.0175657
647.176	0.0175258
647.254	0.0176350
647.332	0.0174786
647.410	0.0176177
647.488	0.0175890
647.567	0.0174289
647.645	0.0175978
647.723	0.0176192
647.801	0.0175256
647.879	0.0173660
647.957	0.0175275
648.035	0.0175160
648.113	0.0175012
648.192	0.0175569
648.270	0.0173991
648.348	0.0175053
648.426	0.0174448
648.504	0.0175154
648.582	0.0175163
648.660	0.0175076
648.738	0.0174862
648.817	0.0175467
648.895	0.0173606
648.973	0.0175713
649.051	0.0175414
649.129	0.0175800
649.207	0.0175069
649.285	0.0174972
649.363	0.0174831
649.442	0.0174449
649.520	0.0175594
649.598	0.0174429
649.676	0.0175085
649.754	0.0175189
649.832	0.0173586
649.910	0.0175649
649.988	0.0176186
650.067	0.0174201
650.145	0.0174230
650.223	0.0174072
650.301	0.0175909
650.379	0.0176493
650.457	0.0174716
650.535	0.0174113
650.613	0.0174001
650.692	0.0175198
650.770	0.0175720
650.848	0.0174570
650.926	0.0173502
651.004	0.0175021
651.082	0.0175011
651.160	0.0174789
651.238	0.0174559
651.317	0.0175710
651.395	0.0175249
651.473	0.0176585
651.551	0.0174949
651.629	0.0174857
651.707	0.0175290
651.785	0.0174702
651.863	0.0175344
651.942	0.0174841
652.020	0.0174825
652.098	0.0175517
652.176	0.0175909
652.254	0.0176077
652.332	0.0175539
652.410	0.0175378
652.488	0.0175060
652.567	0.0174494
652.645	0.0175560
652.723	0.0175810
652.801	0.0175346
652.879	0.0174673
652.957	0.0174415
653.035	0.0174922
653.113	0.0174995
653.192	0.0174506
653.270	0.0174683
653.348	0.0174355
653.426	0.0175597
653.504	0.0174943
653.582	0.0174335
653.660	0.0175604
653.738	0.0175167
653.817	0.0175897
653.895	0.0174562
653.973	0.0175099
654.051	0.0174687
654.129	0.0175443
654.207	0.0176427
654.285	0.0174933
654.363	0.0174834
654.442	0.0174599
654.520	0.0176004
654.598	0.0176472
654.676	0.0175429
654.754	0.0175786
654.832	0.0174901
654.910	0.0176406
654.988	0.0175890
655.067	0.0174752
655.145	0.0175614
655.223	0.0174393
655.301	0.0175233
655.379	0.0173071
655.457	0.0173705
655.535	0.0175069
655.613	0.0174966
655.692	0.0175694
655.770	0.0173810
655.848	0.0174826
655.926	0.0176524
656.004	0.0176460
656.082	0.0176202
656.160	0.0175887
656.238	0.0175951
656.317	0.0175662
656.395	0.0176832
656.473	0.0176128
656.551	0.0176264
656.629	0.0175911
656.707	0.0174903
656.785	0.0174821
656.863	0.0175459
656.942	0.0174551
657.020	0.0174227
657.098	0.0173771
657.176	0.0172325
657.254	0.0174503
657.332	0.0174165
657.410	0.0174919
657.488	0.0174805
657.567	0.0173575
657.645	0.0174857
657.723	0.0174961
657.801	0.0176695
657.879	0.0177332
657.957	0.0177357
658.035	0.0177967
658.113	0.0176054
658.192	0.0175928
658.270	0.0177067
658.348	0.0177919
658.426	0.0176361
658.504	0.0175531
658.582	0.0175092
658.660	0.0174611
658.738	0.0174330
658.817	0.0172604
658.895	0.0172884
658.973	0.0174078
659.051	0.0173510
659.129	0.0174136
659.207	0.0173228
659.285	0.0173537
659.363	0.0174325
659.442	0.0174819
659.520	0.0173641
659.598	0.0175612
659.676	0.0176475
659.754	0.0175279
659.832	0.0176219
659.910	0.0176633
659.988	0.0175391
660.067	0.0176261
660.145	0.0176271
660.223	0.0176500
660.301	0.0175959
660.379	0.0176321
660.457	0.0175968
660.535	0.0175746
660.613	0.0175518
660.692	0.0174862
660.770	0.0174127
660.848	0.0174615
660.926	0.0174265
661.004	0.0173548
661.082	0.0173747
661.160	0.0174517
661.238	0.0173814
661.317	0.0175163
661.395	0.0174747
661.473	0.0175053
661.551	0.0173353
661.629	0.0174555
661.707	0.0174696
661.785	0.0175689
661.863	0.0176614
661.942	0.0174583
662.020	0.0175751
662.098	0.0176600
662.176	0.0176511
662.254	0.0177499
662.332	0.0175425
662.410	0.0176212
662.488	0.0175800
662.567	0.0174504
662.645	0.0175276
662.723	0.0174057
662.801	0.0174596
662.879	0.0172973
662.957	0.0172305
663.035	0.0171510
663.113	0.0174023
663.192	0.0172083
663.270	0.0171841
663.348	0.0173963
663.426	0.0173467
663.504	0.0173969
663.582	0.0174665
663.660	0.0174892
663.738	0.0176520
663.817	0.0176816
663.895	0.0177007
663.973	0.0178333
664.051	0.0177568
664.129	0.0178562
664.207	0.0178149
664.285	0.0176081
664.363	0.0175851
664.442	0.0175242
664.520	0.0175282
664.598	0.0175481
664.676	0.0174715
664.754	0.0174365
664.832	0.0173858
664.910	0.0174093
664.988	0.0173076
665.067	0.0174223
665.145	0.0174367
665.223	0.0174564
665.301	0.0174940
665.379	0.0173980
665.457	0.0174476
665.535	0.0175223
665.613	0.0176946
665.692	0.0177498
665.770	0.0178471
665.848	0.0176481
665.926	0.0177353
666.004	0.0176973
666.082	0.0177094
666.160	0.0176269
666.238	0.0177328
666.317	0.0176152
666.395	0.0174757
666.473	0.0175498
666.551	0.0174051
666.629	0.0174108
666.707	0.0173425
666.785	0.0174340
666.863	0.0176173
666.942	0.0175401
667.020	0.0174336
667.098	0.0174749
667.176	0.0174693
667.254	0.0175447
667.332	0.0176485
667.410	0.0175906
667.488	0.0175045
667.567	0.0175345
667.645	0.0175829
667.723	0.0176321
667.801	0.0176390
667.879	0.0177423
667.957	0.0176351
668.035	0.0175609
668.113	0.0174830
668.192	0.0176367
668.270	0.0175881
668.348	0.0176713
668.426	0.0176634
668.504	0.0176302
668.582	0.0177048
668.660	0.0176748
668.738	0.0176178
668.817	0.0175166
668.895	0.0175150
668.973	0.0175035
669.051	0.0175583
669.129	0.0174844
669.207	0.0176267
669.285	0.0174084
669.363	0.0174982
669.442	0.0175202
669.520	0.0174956
669.598	0.0175486
669.676	0.0176424
669.754	0.0174364
669.832	0.0174742
669.910	0.0174182
669.988	0.0173759
670.067	0.0174197
670.145	0.0173918
670.223	0.0176300
670.301	0.0174931
670.379	0.0174700
670.457	0.0176252
670.535	0.0174569
670.613	0.0175786
670.692	0.0175875
670.770	0.0176213
670.848	0.0175717
670.926	0.0175251
671.004	0.0175246
671.082	0.0174696
671.160	0.0175752
671.238	0.0176897
671.317	0.0175470
671.395	0.0174497
671.473	0.0175343
671.551	0.0174793
671.629	0.0175359
671.707	0.0175223
671.785	0.0175543
671.863	0.0174968
671.942	0.0174455
672.020	0.0174479
672.098	0.0174307
672.176	0.0174164
672.254	0.0175063
672.332	0.0175296
672.410	0.0175274
672.488	0.0174960
672.567	0.0176163
672.645	0.0177035
672.723	0.0177728
672.801	0.0176804
672.879	0.0175718
672.957	0.0177567
673.035	0.0177074
673.113	0.0177656
673.192	0.0175528
673.270	0.0176514
673.348	0.0177219
673.426	0.0175225
673.504	0.0175626
673.582	0.0175076
673.660	0.0172803
673.738	0.0174365
673.817	0.0174194
673.895	0.0173647
673.973	0.0171103
674.051	0.0172615
674.129	0.0173335
674.207	0.0171633
674.285	0.0172318
674.363	0.0172200
674.442	0.0172852
674.520	0.0171300
674.598	0.0172533
674.676	0.0172375
674.754	0.0175351
674.832	0.0176185
674.910	0.0175359
674.988	0.0176627
675.067	0.0176936
675.145	0.0177776
675.223	0.0177032
675.301	0.0177242
675.379	0.0176363
675.457	0.0176890
675.535	0.0176575
675.613	0.0176355
675.692	0.0175301
675.770	0.0174528
675.848	0.0173972
675.926	0.0173104
676.004	0.0173402
676.082	0.0172749
676.160	0.0172861
676.238	0.0174033
676.317	0.0173696
676.395	0.0172304
676.473	0.0174648
676.551	0.0173401
676.629	0.0174648
676.707	0.0176699
676.785	0.0175692
676.863	0.0176690
676.942	0.0178011
677.020	0.0177617
677.098	0.0178153
677.176	0.0179122
677.254	0.0179290
677.332	0.0179128
677.410	0.0178599
677.488	0.0177567
677.567	0.0177764
677.645	0.0177074
677.723	0.0175713
677.801	0.0176089
677.879	0.0174717
677.957	0.0171726
678.035	0.0172794
678.113	0.0173225
678.192	0.0172068
678.270	0.0171557
678.348	0.0171467
678.426	0.0172755
678.504	0.0172276
678.582	0.0171375
678.660	0.0170038
678.738	0.0171111
678.817	0.0170697
678.895	0.0172714
678.973	0.0172464
679.051	0.0172487
679.129	0.0173563
679.207	0.0175259
679.285	0.0174398
679.363	0.0176224
679.442	0.0176608
679.520	0.0177531
679.598	0.0177127
679.676	0.0179469
679.754	0.0179114
679.832	0.0179461
679.910	0.0180907
679.988	0.0182703
680.067	0.0180235
680.145	0.0181423
680.223	0.0178214
680.301	0.0177785
680.379	0.0178259
680.457	0.0176923
680.535	0.0175223
680.613	0.0173111
680.692	0.0172318
680.770	0.0170622
680.848	0.0169266
680.926	0.0167916
681.004	0.0167144
681.082	0.0167721
681.160	0.0168121
681.238	0.0168568
681.317	0.0168800
681.395	0.0170609
681.473	0.0171895
681.551	0.0172266
681.629	0.0174398
681.707	0.0177431
681.785	0.0177238
681.863	0.0179585
681.942	0.0181061
682.020	0.0181512
682.098	0.0182242
682.176	0.0183762
682.254	0.0185593
682.332	0.0184666
682.410	0.0183907
682.488	0.0183172
682.567	0.0182870
682.645	0.0180395
682.723	0.0179846
682.801	0.0177568
682.879	0.0175672
682.957	0.0173409
683.035	0.0171164
683.113	0.0169572
683.192	0.0167697
683.270	0.0165646
683.348	0.0164779
683.426	0.0163642
683.504	0.0164890
683.582	0.0165034
683.660	0.0164087
683.738	0.0164317
683.817	0.0166301
683.895	0.0167801
683.973	0.0170053
684.051	0.0172524
684.129	0.0174187
684.207	0.0175505
684.285	0.0179358
684.363	0.0184051
684.442	0.0186379
684.520	0.0188160
684.598	0.0188142
684.676	0.0190271
684.754	0.0191713
684.832	0.0190578
684.910	0.0190433
684.988	0.0189213
685.067	0.0186649
685.145	0.0186916
685.223	0.0183816
685.301	0.0180846
685.379	0.0176830
685.457	0.0171865
685.535	0.0168041
685.613	0.0164487
685.692	0.0161381
685.770	0.0157846
685.848	0.0154540
685.926	0.0153378
686.004	0.0150433
686.082	0.0148884
686.160	0.0148906
686.238	0.0150868
686.317	0.0153076
686.395	0.0156277
686.473	0.0158822
686.551	0.0165411
686.629	0.0169133
686.707	0.0173502
686.785	0.0179528
686.863	0.0184962
686.942	0.0189257
687.020	0.0192586
687.098	0.0194267
687.176	0.0197527
687.254	0.0199300
687.332	0.0200710
687.410	0.0200660
687.488	0.0201733
687.567	0.0199024
687.645	0.0197800
687.723	0.0197492
687.801	0.0195250
687.879	0.0192790
687.957	0.0190214
688.035	0.0187355
688.113	0.0184555
688.192	0.0181943
688.270	0.0179037
688.348	0.0174133
688.426	0.0170435
688.504	0.0168777
688.582	0.0165660
688.660	0.0160583
688.738	0.0157800
688.817	0.0155806
688.895	0.0154596
688.973	0.0153932
689.051	0.0151732
689.129	0.0154475
689.207	0.0154158
689.285	0.0154044
689.363	0.0155804
689.442	0.0156750
689.520	0.0161216
689.598	0.0162399
689.676	0.0167027
689.754	0.0169187
689.832	0.0171777
689.910	0.0174830
689.988	0.0175729
690.067	0.0176707
690.145	0.0180309
690.223	0.0181653
690.301	0.0181940
690.379	0.0183832
690.457	0.0185847
690.535	0.0186790
690.613	0.0188063
690.692	0.0189300
690.770	0.0191611
690.848	0.0191943
690.926	0.0194330
691.004	0.0195795
691.082	0.0194839
691.160	0.0195133
691.238	0.0193281
691.317	0.0191001
691.395	0.0189523
691.473	0.0184138
691.551	0.0180432
691.629	0.0177766
691.707	0.0171706
691.785	0.0167799
691.863	0.0163776
691.942	0.0159885
692.020	0.0157600
692.098	0.0155505
692.176	0.0155367
692.254	0.0154668
692.332	0.0155407
692.410	0.0158224
692.488	0.0160521
692.567	0.0163366
692.645	0.0167572
692.723	0.0169561
692.801	0.0173096
692.879	0.0176575
692.957	0.0179397
693.035	0.0181356
693.113	0.0184267
693.192	0.0185692
693.270	0.0186098
693.348	0.0185221
693.426	0.0185788
693.504	0.0184795
693.582	0.0182288
693.660	0.0179911
693.738	0.0180407
693.817	0.0178696
693.895	0.0176534
693.973	0.0174850
694.051	0.0176144
694.129	0.0174234
694.207	0.0173009
694.285	0.0173910
694.363	0.0173982
694.442	0.0176370
694.520	0.0175711
694.598	0.0177483
694.676	0.0179796
694.754	0.0180474
694.832	0.0182024
694.910	0.0182749
694.988	0.0182565
695.067	0.0181990
695.145	0.0181985
695.223	0.0180855
695.301	0.0179923
695.379	0.0179383
695.457	0.0175443
695.535	0.0174067
695.613	0.0171172
695.692	0.0169943
695.770	0.0167008
695.848	0.0163644
695.926	0.0159414
696.004	0.0157130
696.082	0.0156071
696.160	0.0153359
696.238	0.0152705
696.317	0.0151862
696.395	0.0151326
696.473	0.0151266
696.551	0.0152826
696.629	0.0154234
696.707	0.0157806
696.785	0.0159248
696.863	0.0162777
696.942	0.0166438
697.020	0.0168761
697.098	0.0174800
697.176	0.0179298
697.254	0.0183102
697.332	0.0188206
697.410	0.0195117
697.488	0.0197336
697.567	0.0200951
697.645	0.0204682
697.723	0.0207715
697.801	0.0212384
697.879	0.0215071
697.957	0.0215884
698.035	0.0214463
698.113	0.0213612
698.192	0.0212126
698.270	0.0207875
698.348	0.0205198
698.426	0.0201727
698.504	0.0197492
698.582	0.0192515
698.660	0.0186962
698.738	0.0181872
698.817	0.0177378
698.895	0.0171639
698.973	0.0166266
699.051	0.0161337
699.129	0.0156823
699.207	0.0154492
699.285	0.0150137
699.363	0.0146512
699.442	0.0144313
699.520	0.0141954
699.598	0.0140674
699.676	0.0136142
699.754	0.0136654
699.832	0.0135013
699.910	0.0133603
699.988	0.0133280
700.067	0.0135513
700.145	0.0137173
700.223	0.0140003
700.301	0.0141335
700.379	0.0145836
700.457	0.0150154
700.535	0.0155006
700.613	0.0160916
700.692	0.0166413
700.770	0.0170783
700.848	0.0178053
700.926	0.0182291
701.004	0.0186121
701.082	0.0188547
701.160	0.0191518
701.238	0.0191240
701.317	0.0192817
701.395	0.0192635
701.473	0.0191873
701.551	0.0188280
701.629	0.0186739
701.707	0.0186247
701.785	0.0185909
701.863	0.0185429
701.942	0.0184679
702.020	0.0184952
702.098	0.0184616
702.176	0.0186485
702.254	0.0188553
702.332	0.0189261
702.410	0.0192323
702.488	0.0194710
702.567	0.0195808
702.645	0.0200233
702.723	0.0203523
702.801	0.0205748
702.879	0.0208662
702.957	0.0209902
703.035	0.0213578
703.113	0.0217974
703.192	0.0218692
703.270	0.0218994
703.348	0.0219819
703.426	0.0218906
703.504	0.0216294
703.582	0.0213199
703.660	0.0210866
703.738	0.0204556
703.817	0.0198793
703.895	0.0192507
703.973	0.0185012
704.051	0.0175036
704.129	0.0167264
704.207	0.0158501
704.285	0.0148436
704.363	0.0141494
704.442	0.0134836
704.520	0.0126809
704.598	0.0121449
704.676	0.0114266
704.754	0.0112067
704.832	0.0108312
704.910	0.0104440
704.988	0.0104598
705.067	0.0104160
705.145	0.0103260
705.223	0.0102866
705.301	0.0104990
705.379	0.0107981
705.457	0.0109368
705.535	0.0112634
705.613	0.0116963
705.692	0.0123247
705.770	0.0127085
705.848	0.0133093
705.926	0.0139719
706.004	0.0148666
706.082	0.0153839
706.160	0.0164455
706.238	0.0174238
706.317	0.0184139
706.395	0.0194453
706.473	0.0204646
706.551	0.0216689
706.629	0.0226076
706.707	0.0236947
706.785	0.0244968
706.863	0.0250449
706.942	0.0256604
707.020	0.0258434
707.098	0.0258949
707.176	0.0258199
707.254	0.0254948
707.332	0.0249306
707.410	0.0244595
707.488	0.0236442
707.567	0.0226855
707.645	0.0218919
707.723	0.0210146
707.801	0.0200639
707.879	0.0193689
707.957	0.0186452
708.035	0.0178046
708.113	0.0172522
708.192	0.0169890
708.270	0.0166146
708.348	0.0163322
708.426	0.0163348
708.504	0.0166122
708.582	0.0167200
708.660	0.0169872
708.738	0.0173618
708.817	0.0177481
708.895	0.0182528
708.973	0.0187624
709.051	0.0191577
709.129	0.0196398
709.207	0.0198963
709.285	0.0201184
709.363	0.0202263
709.442	0.0199792
709.520	0.0196958
709.598	0.0192986
709.676	0.0188052
709.754	0.0182709
709.832	0.0174227
709.910	0.0162952
709.988	0.0153329
710.067	0.0143556
710.145	0.0133485
710.223	0.0123740
710.301	0.0114680
710.379	0.0106828
710.457	0.0101090
710.535	0.00949753
710.613	0.00924049
710.692	0.00904472
710.770	0.00890778
710.848	0.00906792
710.926	0.00915504
711.004	0.00954559
711.082	0.00995354
711.160	0.0105573
711.238	0.0109620
711.317	0.0114545
711.395	0.0119118
711.473	0.0123149
711.551	0.0128205
711.629	0.0133999
711.707	0.0140497
711.785	0.0148376
711.863	0.0155055
711.942	0.0165241
712.020	0.0175925
712.098	0.0186381
712.176	0.0198908
712.254	0.0212941
712.332	0.0228060
712.410	0.0242263
712.488	0.0255270
712.567	0.0267510
712.645	0.0278216
712.723	0.0286674
712.801	0.0291857
712.879	0.0295412
712.957	0.0294707
713.035	0.0289783
713.113	0.0284505
713.192	0.0275176
713.270	0.0263015
713.348	0.0250831
713.426	0.0236691
713.504	0.0222877
713.582	0.0209140
713.660	0.0196909
713.738	0.0184005
713.817	0.0175048
713.895	0.0165515
713.973	0.0159180
714.051	0.0152693
714.129	0.0151354
714.207	0.0149895
714.285	0.0150231
714.363	0.0152745
714.442	0.0157765
714.520	0.0161223
714.598	0.0166480
714.676	0.0169527
714.754	0.0175179
714.832	0.0181084
714.910	0.0187210
714.988	0.0190786
715.067	0.0194883
715.145	0.0197087
715.223	0.0197093
715.301	0.0195329
715.379	0.0191907
715.457	0.0185986
715.535	0.0178887
715.613	0.0167905
715.692	0.0159931
715.770	0.0148752
715.848	0.0136321
715.926	0.0124781
716.004	0.0111964
716.082	0.0102539
716.160	0.00926117
716.238	0.00854645
716.317	0.00783783
716.395	0.00742996
716.473	0.00721992
716.551	0.00716621
716.629	0.00720879
716.707	0.00755661
716.785	0.00809608
716.863	0.00881706
716.942	0.00963066
717.020	0.0105426
717.098	0.0113584
717.176	0.0121618
717.254	0.0130943
717.332	0.0140742
717.410	0.0148935
717.488	0.0156793
717.567	0.0165230
717.645	0.0173875
717.723	0.0182488
717.801	0.0191042
717.879	0.0200184
717.957	0.0210696
718.035	0.0220020
718.113	0.0229546
718.192	0.0240959
718.270	0.0252242
718.348	0.0260030
718.426	0.0269813
718.504	0.0278153
718.582	0.0282652
718.660	0.0286480
718.738	0.0287143
718.817	0.0283701
718.895	0.0281543
718.973	0.0275046
719.051	0.0267042
719.129	0.0256440
719.207	0.0247240
719.285	0.0235923
719.363	0.0224245
719.442	0.0212148
719.520	0.0202898
719.598	0.0193355
719.676	0.0185080
719.754	0.0179204
719.832	0.0173985
719.910	0.0170233
719.988	0.0168250
720.067	0.0165014
720.145	0.0162024
720.223	0.0163008
720.301	0.0164783
720.379	0.0164867
720.457	0.0166354
720.535	0.0168449
720.613	0.0170918
720.692	0.0172923
720.770	0.0175860
720.848	0.0176736
720.926	0.0176980
721.004	0.0179714
721.082	0.0178060
721.160	0.0177602
721.238	0.0176170
721.317	0.0170527
721.395	0.0165067
721.473	0.0159895
721.551	0.0153754
721.629	0.0144952
721.707	0.0135356
721.785	0.0124585
721.863	0.0114649
721.942	0.0105880
722.020	0.00970657
722.098	0.00868835
722.176	0.00808502
722.254	0.00739975
722.332	0.00709908
722.410	0.00699165
722.488	0.00704651
722.567	0.00731117
722.645	0.00776024
722.723	0.00863609
722.801	0.00952797
722.879	0.0104707
722.957	0.0118611
723.035	0.0130495
723.113	0.0143763
723.192	0.0154538
723.270	0.0167215
723.348	0.0177565
723.426	0.0187108
723.504	0.0196843
723.582	0.0202218
723.660	0.0208086
723.738	0.0216286
723.817	0.0221101
723.895	0.0226427
723.973	0.0230631
724.051	0.0234192
724.129	0.0238631
724.207	0.0239838
724.285	0.0241822
724.363	0.0246261
724.442	0.0248135
724.520	0.0247124
724.598	0.0245174
724.676	0.0243982
724.754	0.0240985
724.832	0.0237030
724.910	0.0232348
724.988	0.0228944
725.067	0.0224760
725.145	0.0220257
725.223	0.0214993
725.301	0.0209634
725.379	0.0206667
725.457	0.0204678
725.535	0.0201892
725.613	0.0201131
725.692	0.0200014
725.770	0.0198392
725.848	0.0197439
725.926	0.0198354
726.004	0.0196779
726.082	0.0194878
726.160	0.0193534
726.238	0.0193230
726.317	0.0190131
726.395	0.0187196
726.473	0.0184126
726.551	0.0181618
726.629	0.0178901
726.707	0.0174237
726.785	0.0172551
726.863	0.0168743
726.942	0.0164619
727.020	0.0161352
727.098	0.0157979
727.176	0.0154432
727.254	0.0150329
727.332	0.0149084
727.410	0.0144597
727.488	0.0140038
727.567	0.0134924
727.645	0.0130965
727.723	0.0127354
727.801	0.0122962
727.879	0.0117980
727.957	0.0111587
728.035	0.0108524
728.113	0.0104876
728.192	0.0101777
728.270	0.0100632
728.348	0.00992081
728.426	0.0100408
728.504	0.0101694
728.582	0.0106532
728.660	0.0111542
728.738	0.0118004
728.817	0.0123076
728.895	0.0131405
728.973	0.0140205
729.051	0.0147387
729.129	0.0154117
729.207	0.0160709
729.285	0.0165205
729.363	0.0173344
729.442	0.0176624
729.520	0.0181811
729.598	0.0184811
729.676	0.0189362
729.754	0.0191463
729.832	0.0195753
729.910	0.0199856
729.988	0.0204056
730.067	0.0207568
730.145	0.0210868
730.223	0.0213707
730.301	0.0216991
730.379	0.0220234
730.457	0.0222996
730.535	0.0223849
730.613	0.0225825
730.692	0.0226032
730.770	0.0226884
730.848	0.0227659
730.926	0.0224695
731.004	0.0226127
731.082	0.0223792
731.160	0.0221353
731.238	0.0221126
731.317	0.0218715
731.395	0.0217563
731.473	0.0213144
731.551	0.0211417
731.629	0.0209982
731.707	0.0204876
731.785	0.0203847
731.863	0.0203188
731.942	0.0202142
732.020	0.0199364
732.098	0.0198444
732.176	0.0196018
732.254	0.0194241
732.332	0.0193411
732.410	0.0191144
732.488	0.0189040
732.567	0.0185030
732.645	0.0182983
732.723	0.0179874
732.801	0.0175671
732.879	0.0173246
732.957	0.0169960
733.035	0.0165021
733.113	0.0161240
733.192	0.0156898
733.270	0.0154050
733.348	0.0149693
733.426	0.0146589
733.504	0.0141885
733.582	0.0138696
733.660	0.0136541
733.738	0.0133371
733.817	0.0130358
733.895	0.0129357
733.973	0.0129975
734.051	0.0126985
734.129	0.0128062
734.207	0.0130125
734.285	0.0133023
734.363	0.0134175
734.442	0.0135034
734.520	0.0140542
734.598	0.0144776
734.676	0.0147476
734.754	0.0152016
734.832	0.0153094
734.910	0.0157258
734.988	0.0158309
735.067	0.0159409
735.145	0.0159131
735.223	0.0160214
735.301	0.0160253
735.379	0.0159606
735.457	0.0159530
735.535	0.0157031
735.613	0.0157505
735.692	0.0157272
735.770	0.0156575
735.848	0.0158158
735.926	0.0159626
736.004	0.0162866
736.082	0.0166470
736.160	0.0170565
736.238	0.0176743
736.317	0.0181657
736.395	0.0186623
736.473	0.0192331
736.551	0.0197831
736.629	0.0203184
736.707	0.0208646
736.785	0.0211728
736.863	0.0215914
736.942	0.0217400
737.020	0.0219643
737.098	0.0220661
737.176	0.0220368
737.254	0.0218708
737.332	0.0217423
737.410	0.0217272
737.488	0.0213930
737.567	0.0210802
737.645	0.0207903
737.723	0.0207411
737.801	0.0203888
737.879	0.0201085
737.957	0.0199380
738.035	0.0196813
738.113	0.0195111
738.192	0.0193590
738.270	0.0191735
738.348	0.0190901
738.426	0.0189133
738.504	0.0188030
738.582	0.0186344
738.660	0.0185085
738.738	0.0183346
738.817	0.0181519
738.895	0.0179260
738.973	0.0177990
739.051	0.0174339
739.129	0.0172807
739.207	0.0170325
739.285	0.0167831
739.363	0.0165615
739.442	0.0161374
739.520	0.0161694
739.598	0.0160827
739.676	0.0157638
739.754	0.0158733
739.832	0.0157396
739.910	0.0156583
739.988	0.0157511
740.067	0.0155988
740.145	0.0157129
740.223	0.0157265
740.301	0.0157700
740.379	0.0158788
740.457	0.0158889
740.535	0.0160315
740.613	0.0159184
740.692	0.0160783
740.770	0.0162438
740.848	0.0159634
740.926	0.0157534
741.004	0.0154620
741.082	0.0155550
741.160	0.0153484
741.238	0.0152260
741.317	0.0151270
741.395	0.0151136
741.473	0.0150018
741.551	0.0150896
741.629	0.0152610
741.707	0.0152998
741.785	0.0155257
741.863	0.0156515
741.942	0.0158786
742.020	0.0160416
742.098	0.0162608
742.176	0.0164745
742.254	0.0166634
742.332	0.0170291
742.410	0.0171489
742.488	0.0172096
742.567	0.0174899
742.645	0.0177172
742.723	0.0175825
742.801	0.0179135
742.879	0.0181883
742.957	0.0183479
743.035	0.0185071
743.113	0.0185575
743.192	0.0188776
743.270	0.0190746
743.348	0.0191808
743.426	0.0193584
743.504	0.0194722
743.582	0.0194011
743.660	0.0195222
743.738	0.0194840
743.817	0.0194869
743.895	0.0194333
743.973	0.0196102
744.051	0.0194160
744.129	0.0193155
744.207	0.0192628
744.285	0.0192816
744.363	0.0191267
744.442	0.0190047
744.520	0.0190210
744.598	0.0190005
744.676	0.0190910
744.754	0.0189746
744.832	0.0189575
744.910	0.0189986
744.988	0.0189034
745.067	0.0188503
745.145	0.0189099
745.223	0.0188001
745.301	0.0187254
745.379	0.0184978
745.457	0.0182928
745.535	0.0181963
745.613	0.0180236
745.692	0.0178433
745.770	0.0174249
745.848	0.0173032
745.926	0.0171795
746.004	0.0169993
746.082	0.0168505
746.160	0.0165838
746.238	0.0166135
746.317	0.0166600
746.395	0.0165139
746.473	0.0166042
746.551	0.0166659
746.629	0.0167999
746.707	0.0168568
746.785	0.0170120
746.863	0.0171703
746.942	0.0172305
747.020	0.0172426
747.098	0.0171848
747.176	0.0174420
747.254	0.0174038
747.332	0.0171690
747.410	0.0172100
747.488	0.0170394
747.567	0.0167770
747.645	0.0167499
747.723	0.0165955
747.801	0.0164277
747.879	0.0161483
747.957	0.0160623
748.035	0.0159160
748.113	0.0156744
748.192	0.0156498
748.270	0.0155773
748.348	0.0154216
748.426	0.0153019
748.504	0.0155674
748.582	0.0157399
748.660	0.0158249
748.738	0.0160021
748.817	0.0162465
748.895	0.0163300
748.973	0.0167263
749.051	0.0168398
749.129	0.0171393
749.207	0.0174288
749.285	0.0175263
749.363	0.0176393
749.442	0.0176511
749.520	0.0177253
749.598	0.0175998
749.676	0.0175769
749.754	0.0174139
749.832	0.0176064
749.910	0.0177190
749.988	0.0174792
750.067	0.0176312
750.145	0.0177096
750.223	0.0176531
750.301	0.0177493
750.379	0.0177952
750.457	0.0179665
750.535	0.0182135
750.613	0.0183419
750.692	0.0186015
750.770	0.0186987
750.848	0.0187399
750.926	0.0189449
751.004	0.0191318
751.082	0.0193098
751.160	0.0191244
751.238	0.0191830
751.317	0.0191018
751.395	0.0190503
751.473	0.0187350
751.551	0.0186243
751.629	0.0185017
751.707	0.0184897
751.785	0.0182496
751.863	0.0180627
751.942	0.0179520
752.020	0.0178493
752.098	0.0177016
752.176	0.0176241
752.254	0.0175356
752.332	0.0176553
752.410	0.0175397
752.488	0.0175441
752.567	0.0177448
752.645	0.0176691
752.723	0.0177198
752.801	0.0178522
752.879	0.0178372
752.957	0.0179141
753.035	0.0180018
753.113	0.0182227
753.192	0.0182718
753.270	0.0183064
753.348	0.0180923
753.426	0.0181922
753.504	0.0181370
753.582	0.0180379
753.660	0.0179959
753.738	0.0178600
753.817	0.0175520
753.895	0.0175590
753.973	0.0172241
754.051	0.0171258
754.129	0.0166724
754.207	0.0166544
754.285	0.0164014
754.363	0.0161892
754.442	0.0161520
754.520	0.0161654
754.598	0.0161055
754.676	0.0160700
754.754	0.0161207
754.832	0.0164188
754.910	0.0164208
754.988	0.0165011
755.067	0.0166342
755.145	0.0167788
755.223	0.0171043
755.301	0.0172146
755.379	0.0173615
755.457	0.0172295
755.535	0.0173745
755.613	0.0175521
755.692	0.0174207
755.770	0.0174297
755.848	0.0174538
755.926	0.0172965
756.004	0.0171287
756.082	0.0171355
756.160	0.0168441
756.238	0.0170332
756.317	0.0168581
756.395	0.0166605
756.473	0.0166568
756.551	0.0166333
756.629	0.0168442
756.707	0.0167622
756.785	0.0167143
756.863	0.0167805
756.942	0.0169921
757.020	0.0170052
757.098	0.0170761
757.176	0.0172124
757.254	0.0172899
757.332	0.0174046
757.410	0.0176074
757.488	0.0175816
757.567	0.0177037
757.645	0.0177359
757.723	0.0177487
757.801	0.0177605
757.879	0.0176027
757.957	0.0177914
758.035	0.0177568
758.113	0.0175726
758.192	0.0177010
758.270	0.0177552
758.348	0.0176016
758.426	0.0177908
758.504	0.0179859
758.582	0.0178801
758.660	0.0180412
758.738	0.0181986
758.817	0.0183865
758.895	0.0185722
758.973	0.0185395
759.051	0.0187081
759.129	0.0190675
759.207	0.0190218
759.285	0.0191170
759.363	0.0191944
759.442	0.0190735
759.520	0.0190536
759.598	0.0190475
759.676	0.0188779
759.754	0.0186489
759.832	0.0185001
759.910	0.0183540
759.988	0.0181496
760.067	0.0179979
760.145	0.0179720
760.223	0.0177780
760.301	0.0174598
760.379	0.0174290
760.457	0.0173029
760.535	0.0170753
760.613	0.0169374
760.692	0.0168369
760.770	0.0168156
760.848	0.0169695
760.926	0.0169349
761.004	0.0170273
761.082	0.0169633
761.160	0.0171107
761.238	0.0172017
761.317	0.0172164
761.395	0.0173624
761.473	0.0174343
761.551	0.0175076
761.629	0.0177733
761.707	0.0180016
761.785	0.0178439
761.863	0.0179787
761.942	0.0179832
762.020	0.0180006
762.098	0.0178580
762.176	0.0178132
762.254	0.0177889
762.332	0.0177670
762.410	0.0175437
762.488	0.0173387
762.567	0.0171247
762.645	0.0169921
762.723	0.0166749
762.801	0.0164391
762.879	0.0164252
762.957	0.0160461
763.035	0.0159990
763.113	0.0159116
763.192	0.0158378
763.270	0.0159311
763.348	0.0160332
763.426	0.0161463
763.504	0.0162798
763.582	0.0163942
763.660	0.0166363
763.738	0.0168871
763.817	0.0170646
763.895	0.0172353
763.973	0.0174425
764.051	0.0175249
764.129	0.0175315
764.207	0.0176521
764.285	0.0177209
764.363	0.0177055
764.442	0.0175751
764.520	0.0175124
764.598	0.0174887
764.676	0.0174904
764.754	0.0174855
764.832	0.0174968
764.910	0.0173518
764.988	0.0172855
765.067	0.0172389
765.145	0.0173044
765.223	0.0174268
765.301	0.0173441
765.379	0.0171910
765.457	0.0175396
765.535	0.0176671
765.613	0.0176903
765.692	0.0178188
765.770	0.0178454
765.848	0.0179420
765.926	0.0182072
766.004	0.0183284
766.082	0.0183316
766.160	0.0183092
766.238	0.0182854
766.317	0.0184422
766.395	0.0183603
766.473	0.0184657
766.551	0.0183415
766.629	0.0181377
766.707	0.0180766
766.785	0.0180680
766.863	0.0178960
766.942	0.0180288
767.020	0.0180380
767.098	0.0179983
767.176	0.0180508
767.254	0.0180693
767.332	0.0180972
767.410	0.0183393
767.488	0.0184868
767.567	0.0184584
767.645	0.0183926
767.723	0.0184448
767.801	0.0186613
767.879	0.0182901
767.957	0.0184293
768.035	0.0183223
768.113	0.0181941
768.192	0.0180408
768.270	0.0179209
768.348	0.0177333
768.426	0.0175447
768.504	0.0174603
768.582	0.0172247
768.660	0.0171592
768.738	0.0171278
768.817	0.0168912
768.895	0.0167896
768.973	0.0168282
769.051	0.0169006
769.129	0.0168335
769.207	0.0168073
769.285	0.0169286
769.363	0.0170129
769.442	0.0169846
769.520	0.0171207
769.598	0.0170712
769.676	0.0172020
769.754	0.0173093
769.832	0.0172013
769.910	0.0172625
769.988	0.0173143
770.067	0.0171415
770.145	0.0170116
770.223	0.0170211
770.301	0.0169730
770.379	0.0168180
770.457	0.0166827
770.535	0.0167648
770.613	0.0165630
770.692	0.0165290
770.770	0.0164609
770.848	0.0163802
770.926	0.0165642
771.004	0.0164944
771.082	0.0164948
771.160	0.0164966
771.238	0.0167210
771.317	0.0167121
771.395	0.0168719
771.473	0.0168546
771.551	0.0170644
771.629	0.0172780
771.707	0.0173597
771.785	0.0174091
771.863	0.0174643
771.942	0.0174864
772.020	0.0175754
772.098	0.0176196
772.176	0.0177798
772.254	0.0176922
772.332	0.0178284
772.410	0.0176682
772.488	0.0176954
772.567	0.0176025
772.645	0.0175768
772.723	0.0177010
772.801	0.0174941
772.879	0.0175896
772.957	0.0175954
773.035	0.0175534
773.113	0.0177148
773.192	0.0177817
773.270	0.0176933
773.348	0.0178127
773.426	0.0177486
773.504	0.0178045
773.582	0.0178851
773.660	0.0179710
773.738	0.0180805
773.817	0.0181429
773.895	0.0181309
773.973	0.0182140
774.051	0.0182805
774.129	0.0183012
774.207	0.0184116
774.285	0.0184663
774.363	0.0186919
774.442	0.0187112
774.520	0.0185461
774.598	0.0186267
774.676	0.0188300
774.754	0.0187167
774.832	0.0185682
774.910	0.0186194
774.988	0.0185708
775.067	0.0183138
775.145	0.0184421
775.223	0.0182262
775.301	0.0180059
775.379	0.0179358
775.457	0.0176564
775.535	0.0175947
775.613	0.0174585
775.692	0.0173605
775.770	0.0172730
775.848	0.0172342
775.926	0.0169985
776.004	0.0169896
776.082	0.0168736
776.160	0.0169317
776.238	0.0168369
776.317	0.0168246
776.395	0.0166727
776.473	0.0167331
776.551	0.0168108
776.629	0.0169512
776.707	0.0167754
776.785	0.0169284
776.863	0.0169255
776.942	0.0170027
777.020	0.0169901
777.098	0.0170697
777.176	0.0173697
777.254	0.0172800
777.332	0.0174320
777.410	0.0174136
777.488	0.0173688
777.567	0.0174177
777.645	0.0176923
777.723	0.0175732
777.801	0.0175064
777.879	0.0174509
777.957	0.0174249
778.035	0.0174349
778.113	0.0172812
778.192	0.0171217
778.270	0.0169595
778.348	0.0170222
778.426	0.0169884
778.504	0.0168793
778.582	0.0167834
778.660	0.0166753
778.738	0.0165931
778.817	0.0165960
778.895	0.0165833
778.973	0.0165348
779.051	0.0164658
779.129	0.0164636
779.207	0.0164637
779.285	0.0166083
779.363	0.0164265
779.442	0.0166923
779.520	0.0168452
779.598	0.0169810
779.676	0.0170540
779.754	0.0173210
779.832	0.0175216
779.910	0.0176984
779.988	0.0179037
780.067	0.0181371
780.145	0.0181520
780.223	0.0184103
780.301	0.0184483
780.379	0.0184950
780.457	0.0185551
780.535	0.0186756
780.613	0.0186956
780.692	0.0187708
780.770	0.0187817
780.848	0.0185101
780.926	0.0186246
781.004	0.0185148
781.082	0.0185411
781.160	0.0184409
781.238	0.0183508
781.317	0.0182998
781.395	0.0181367
781.473	0.0180820
781.551	0.0179969
781.629	0.0179427
781.707	0.0178888
781.785	0.0178260
781.863	0.0176540
781.942	0.0176806
782.020	0.0175826
782.098	0.0175406
782.176	0.0175522
782.254	0.0175242
782.332	0.0175996
782.410	0.0175097
782.488	0.0177240
782.567	0.0175352
782.645	0.0175423
782.723	0.0177257
782.801	0.0177454
782.879	0.0177763
782.957	0.0177693
783.035	0.0179631
783.113	0.0179671
783.192	0.0179571
783.270	0.0178977
783.348	0.0179066
783.426	0.0178689
783.504	0.0178833
783.582	0.0178832
783.660	0.0179474
783.738	0.0179230
783.817	0.0178401
783.895	0.0175689
783.973	0.0175291
784.051	0.0174679
784.129	0.0173704
784.207	0.0173277
784.285	0.0171221
784.363	0.0171105
784.442	0.0168877
784.520	0.0168350
784.598	0.0166975
784.676	0.0164996
784.754	0.0163439
784.832	0.0163231
784.910	0.0161462
784.988	0.0160397
785.067	0.0160603
785.145	0.0161500
785.223	0.0161683
785.301	0.0162596
785.379	0.0163812
785.457	0.0164222
785.535	0.0164153
785.613	0.0166986
785.692	0.0168437
785.770	0.0170951
785.848	0.0172210
785.926	0.0174461
786.004	0.0176189
786.082	0.0176568
786.160	0.0176941
786.238	0.0179259
786.317	0.0179897
786.395	0.0180272
786.473	0.0180318
786.551	0.0179920
786.629	0.0180876
786.707	0.0181094
786.785	0.0180945
786.863	0.0179262
786.942	0.0176955
787.020	0.0177304
787.098	0.0177928
787.176	0.0176353
787.254	0.0176347
787.332	0.0175297
787.410	0.0174374
787.488	0.0172313
787.567	0.0171695
787.645	0.0170499
787.723	0.0171515
787.801	0.0170152
787.879	0.0171021
787.957	0.0170950
788.035	0.0170571
788.113	0.0174456
788.192	0.0173968
788.270	0.0175124
788.348	0.0178246
788.426	0.0179017
788.504	0.0180154
788.582	0.0181483
788.660	0.0185201
788.738	0.0183913
788.817	0.0186005
788.895	0.0185217
788.973	0.0188237
789.051	0.0186642
789.129	0.0187624
789.207	0.0187377
789.285	0.0185117
789.363	0.0185078
789.442	0.0183810
789.520	0.0183477
789.598	0.0182094
789.676	0.0180147
789.754	0.0179571
789.832	0.0179115
789.910	0.0176742
789.988	0.0175984
790.067	0.0175202
790.145	0.0173074
790.223	0.0171937
790.301	0.0171941
790.379	0.0171387
790.457	0.0170901
790.535	0.0169978
790.613	0.0170090
790.692	0.0168685
790.770	0.0169682
790.848	0.0169890
790.926	0.0169762
791.004	0.0170919
791.082	0.0170403
791.160	0.0173052
791.238	0.0173492
791.317	0.0172913
791.395	0.0175586
791.473	0.0175472
791.551	0.0176210
791.629	0.0176052
791.707	0.0175873
791.785	0.0176569
791.863	0.0177723
791.942	0.0174590
792.020	0.0175845
792.098	0.0175806
792.176	0.0175076
792.254	0.0173663
792.332	0.0175341
792.410	0.0174055
792.488	0.0172454
792.567	0.0171066
792.645	0.0171651
792.723	0.0170918
792.801	0.0169794
792.879	0.0169289
792.957	0.0169370
793.035	0.0167297
793.113	0.0166674
793.192	0.0167014
793.270	0.0166740
793.348	0.0165969
793.426	0.0167558
793.504	0.0166322
793.582	0.0166715
793.660	0.0168967
793.738	0.0168521
793.817	0.0170215
793.895	0.0170737
793.973	0.0172847
794.051	0.0174825
794.129	0.0175810
794.207	0.0177586
794.285	0.0179993
794.363	0.0180437
794.442	0.0183644
794.520	0.0184934
794.598	0.0184576
794.676	0.0185036
794.754	0.0186696
794.832	0.0187360
794.910	0.0186076
794.988	0.0187208
795.067	0.0184663
795.145	0.0184300
795.223	0.0183461
795.301	0.0181191
795.379	0.0180013
795.457	0.0178707
795.535	0.0176831
795.613	0.0176180
795.692	0.0174599
795.770	0.0172631
795.848	0.0170797
795.926	0.0169863
796.004	0.0168722
796.082	0.0169116
796.160	0.0167651
796.238	0.0167157
796.317	0.0167441
796.395	0.0167399
796.473	0.0166549
796.551	0.0167726
796.629	0.0167738
796.707	0.0168066
796.785	0.0170515
796.863	0.0172514
796.942	0.0173016
797.020	0.0175278
797.098	0.0176714
797.176	0.0177895
797.254	0.0178189
797.332	0.0180256
797.410	0.0181139
797.488	0.0182182
797.567	0.0183841
797.645	0.0183836
797.723	0.0183418
797.801	0.0183284
797.879	0.0183109
797.957	0.0182240
798.035	0.0182082
798.113	0.0183065
798.192	0.0181992
798.270	0.0181689
798.348	0.0180965
798.426	0.0179616
798.504	0.0179009
798.582	0.0179496
798.660	0.0178326
798.738	0.0177960
798.817	0.0176937
798.895	0.0176952
798.973	0.0176337
799.051	0.0175407
799.129	0.0175939
799.207	0.0176874
799.285	0.0175550
799.363	0.0175711
799.442	0.0174142
799.520	0.0172737
799.598	0.0174685
799.676	0.0174921
799.754	0.0175327
799.832	0.0174973
799.910	0.0175266
799.988	0.0175319
800.067	0.0177530
800.145	0.0175876
800.223	0.0176209
800.301	0.0177457
800.379	0.0174479
800.457	0.0173570
800.535	0.0174672
800.613	0.0174559
800.692	0.0174279
800.770	0.0173272
800.848	0.0172192
800.926	0.0170056
801.004	0.0170221
801.082	0.0168372
801.160	0.0166345
801.238	0.0166644
801.317	0.0164193
801.395	0.0164581
801.473	0.0164349
801.551	0.0164285
801.629	0.0162849
801.707	0.0162183
801.785	0.0162388
801.863	0.0161723
801.942	0.0162923
802.020	0.0161983
802.098	0.0162258
802.176	0.0163071
802.254	0.0163134
802.332	0.0163491
802.410	0.0167062
802.488	0.0167381
802.567	0.0168110
802.645	0.0169058
802.723	0.0172229
802.801	0.0174726
802.879	0.0176754
802.957	0.0178849
803.035	0.0180626
803.113	0.0183014
803.192	0.0184518
803.270	0.0187395
803.348	0.0189579
803.426	0.0189125
803.504	0.0192099
803.582	0.0192043
803.660	0.0192715
803.738	0.0192885
803.817	0.0193623
803.895	0.0192509
803.973	0.0190663
804.051	0.0190026
804.129	0.0188643
804.207	0.0188605
804.285	0.0187472
804.363	0.0183661
804.442	0.0182660
804.520	0.0181120
804.598	0.0180368
804.676	0.0178229
804.754	0.0175952
804.832	0.0177484
804.910	0.0175932
804.988	0.0175452
805.067	0.0175499
805.145	0.0176782
805.223	0.0176949
805.301	0.0176355
805.379	0.0178542
805.457	0.0177347
805.535	0.0178329
805.613	0.0178851
805.692	0.0178909
805.770	0.0179030
805.848	0.0179134
805.926	0.0178415
806.004	0.0178453
806.082	0.0177669
806.160	0.0177216
806.238	0.0175314
806.317	0.0173528
806.395	0.0173805
806.473	0.0172742
806.551	0.0168793
806.629	0.0168090
806.707	0.0167335
806.785	0.0165139
806.863	0.0164046
806.942	0.0161734
807.020	0.0162068
807.098	0.0160115
807.176	0.0159653
807.254	0.0160134
807.332	0.0157629
807.410	0.0157304
807.488	0.0158050
807.567	0.0157848
807.645	0.0158086
807.723	0.0158150
807.801	0.0160236
807.879	0.0161569
807.957	0.0161388
808.035	0.0162625
808.113	0.0165971
808.192	0.0166291
808.270	0.0169224
808.348	0.0171496
808.426	0.0173370
808.504	0.0175566
808.582	0.0178691
808.660	0.0179967
808.738	0.0181838
808.817	0.0184433
808.895	0.0185909
808.973	0.0187040
809.051	0.0189175
809.129	0.0191612
809.207	0.0190423
809.285	0.0191331
809.363	0.0191801
809.442	0.0192546
809.520	0.0190193
809.598	0.0190992
809.676	0.0189128
809.754	0.0189372
809.832	0.0187022
809.910	0.0186269
809.988	0.0184696
810.067	0.0182438
810.145	0.0180219
810.223	0.0177914
810.301	0.0177151
810.379	0.0176235
810.457	0.0175801
810.535	0.0173424
810.613	0.0174438
810.692	0.0172388
810.770	0.0172601
810.848	0.0172015
810.926	0.0171390
811.004	0.0171434
811.082	0.0172250
811.160	0.0172495
811.238	0.0173424
811.317	0.0172445
811.395	0.0173049
811.473	0.0173600
811.551	0.0174680
811.629	0.0174038
811.707	0.0174417
811.785	0.0174203
811.863	0.0174839
811.942	0.0175225
812.020	0.0173680
812.098	0.0173134
812.176	0.0172560
812.254	0.0172866
812.332	0.0172441
812.410	0.0171632
812.488	0.0170937
812.567	0.0169588
812.645	0.0169332
812.723	0.0168683
812.801	0.0167796
812.879	0.0168202
812.957	0.0165816
813.035	0.0166304
813.113	0.0164291
813.192	0.0166066
813.270	0.0165397
813.348	0.0164891
813.426	0.0164726
813.504	0.0167657
813.582	0.0166836
813.660	0.0168781
813.738	0.0169277
813.817	0.0170731
813.895	0.0171636
813.973	0.0175494
814.051	0.0177149
814.129	0.0177670
814.207	0.0179848
814.285	0.0181383
814.363	0.0181843
814.442	0.0184210
814.520	0.0186483
814.598	0.0187698
814.676	0.0188278
814.754	0.0189127
814.832	0.0188010
814.910	0.0190716
814.988	0.0189117
815.067	0.0188123
815.145	0.0188036
815.223	0.0186462
815.301	0.0186073
815.379	0.0184566
815.457	0.0184052
815.535	0.0183108
815.613	0.0182862
815.692	0.0180885
815.770	0.0177933
815.848	0.0176665
815.926	0.0177769
816.004	0.0176007
816.082	0.0174917
816.160	0.0174407
816.238	0.0174712
816.317	0.0173775
816.395	0.0172276
816.473	0.0173631
816.551	0.0172417
816.629	0.0171181
816.707	0.0173000
816.785	0.0172874
816.863	0.0172707
816.942	0.0171420
817.020	0.0170884
817.098	0.0171811
817.176	0.0170998
817.254	0.0170869
817.332	0.0172621
817.410	0.0170467
817.488	0.0170700
817.567	0.0169805
817.645	0.0169409
817.723	0.0167654
817.801	0.0168663
817.879	0.0167201
817.957	0.0166557
818.035	0.0165408
818.113	0.0165520
818.192	0.0165456
818.270	0.0164278
818.348	0.0164018
818.426	0.0163249
818.504	0.0163428
818.582	0.0161612
818.660	0.0162995
818.738	0.0161874
818.817	0.0162077
818.895	0.0161625
818.973	0.0163956
819.051	0.0164455
819.129	0.0166699
819.207	0.0167271
819.285	0.0168433
819.363	0.0170308
819.442	0.0172370
819.520	0.0174574
819.598	0.0176013
819.676	0.0179195
819.754	0.0181378
819.832	0.0181454
819.910	0.0183936
819.988	0.0184610
820.067	0.0186514
820.145	0.0189292
820.223	0.0190513
820.301	0.0191021
820.379	0.0190594
820.457	0.0191760
820.535	0.0190993
820.613	0.0190955
820.692	0.0190981
820.770	0.0190047
820.848	0.0189309
820.926	0.0188883
821.004	0.0187001
821.082	0.0187115
821.160	0.0187295
821.238	0.0187043
821.317	0.0186298
821.395	0.0186379
821.473	0.0184361
821.551	0.0184946
821.629	0.0183092
821.707	0.0181619
821.785	0.0180819
821.863	0.0180223
821.942	0.0178512
822.020	0.0178901
822.098	0.0178028
822.176	0.0175810
822.254	0.0174839
822.332	0.0174529
822.410	0.0173733
822.488	0.0173135
822.567	0.0172081
822.645	0.0170397
822.723	0.0169949
822.801	0.0169542
822.879	0.0169133
822.957	0.0168314
823.035	0.0169545
823.113	0.0167429
823.192	0.0167254
823.270	0.0167744
823.348	0.0166498
823.426	0.0168162
823.504	0.0168020
823.582	0.0167358
823.660	0.0165762
823.738	0.0165780
823.817	0.0167869
823.895	0.0167422
823.973	0.0165993
824.051	0.0166976
824.129	0.0164604
824.207	0.0166583
824.285	0.0166255
824.363	0.0165150
824.442	0.0166460
824.520	0.0164964
824.598	0.0165047
824.676	0.0165255
824.754	0.0166468
824.832	0.0165769
824.910	0.0165915
824.988	0.0166174
825.067	0.0167533
825.145	0.0168519
825.223	0.0167990
825.301	0.0168585
825.379	0.0172416
825.457	0.0172755
825.535	0.0171848
825.613	0.0174024
825.692	0.0175776
825.770	0.0176279
825.848	0.0178867
825.926	0.0178371
826.004	0.0180611
826.082	0.0180131
826.160	0.0180487
826.238	0.0181718
826.317	0.0183820
826.395	0.0182232
826.473	0.0181876
826.551	0.0183444
826.629	0.0184823
826.707	0.0184377
826.785	0.0182854
826.863	0.0184336
826.942	0.0185844
827.020	0.0185772
827.098	0.0185439
827.176	0.0185066
827.254	0.0185596
827.332	0.0185289
827.410	0.0185954
827.488	0.0184968
827.567	0.0185825
827.645	0.0185154
827.723	0.0185347
827.801	0.0184067
827.879	0.0182394
827.957	0.0181791
828.035	0.0182311
828.113	0.0181924
828.192	0.0180581
828.270	0.0180801
828.348	0.0181017
828.426	0.0177802
828.504	0.0178171
828.582	0.0177010
828.660	0.0177398
828.738	0.0175718
828.817	0.0175616
828.895	0.0176440
828.973	0.0175462
829.051	0.0174230
829.129	0.0173215
829.207	0.0175043
829.285	0.0173999
829.363	0.0173753
829.442	0.0172713
829.520	0.0172706
829.598	0.0171407
829.676	0.0171578
829.754	0.0170914
829.832	0.0169280
829.910	0.0171006
829.988	0.0170165
830.067	0.0168493
830.145	0.0166888
830.223	0.0168380
830.301	0.0168170
830.379	0.0167234
830.457	0.0164586
830.535	0.0165625
830.613	0.0165328
830.692	0.0166122
830.770	0.0166525
830.848	0.0165909
830.926	0.0165372
831.004	0.0166203
831.082	0.0167356
831.160	0.0167843
831.238	0.0168864
831.317	0.0168148
831.395	0.0169280
831.473	0.0169470
831.551	0.0172224
831.629	0.0170512
831.707	0.0171401
831.785	0.0171902
831.863	0.0172331
831.942	0.0173497
832.020	0.0174835
832.098	0.0174516
832.176	0.0175388
832.254	0.0175776
832.332	0.0176095
832.410	0.0177754
832.488	0.0177074
832.567	0.0178825
832.645	0.0178735
832.723	0.0178866
832.801	0.0180715
832.879	0.0181715
832.957	0.0180663
833.035	0.0181139
833.113	0.0182277
833.192	0.0180166
833.270	0.0180730
833.348	0.0178835
833.426	0.0179738
833.504	0.0179431
833.582	0.0179973
833.660	0.0178672
833.738	0.0178522
833.817	0.0179018
833.895	0.0176191
833.973	0.0176060
834.051	0.0177525
834.129	0.0177276
834.207	0.0176289
834.285	0.0176733
834.363	0.0176554
834.442	0.0176785
834.520	0.0176866
834.598	0.0176038
834.676	0.0177018
834.754	0.0179129
834.832	0.0178259
834.910	0.0178468
834.988	0.0179219
835.067	0.0180014
835.145	0.0180392
835.223	0.0179955
835.301	0.0181680
835.379	0.0180219
835.457	0.0180443
835.535	0.0181361
835.613	0.0179092
835.692	0.0180666
835.770	0.0180182
835.848	0.0177857
835.926	0.0176617
836.004	0.0176583
836.082	0.0176026
836.160	0.0174496
836.238	0.0173857
836.317	0.0173484
836.395	0.0174029
836.473	0.0172577
836.551	0.0171909
836.629	0.0170301
836.707	0.0170469
836.785	0.0169153
836.863	0.0170612
836.942	0.0169946
837.020	0.0169710
837.098	0.0169589
837.176	0.0168604
837.254	0.0168220
837.332	0.0169153
837.410	0.0168967
837.488	0.0168584
837.567	0.0168281
837.645	0.0169160
837.723	0.0169690
837.801	0.0168810
837.879	0.0169447
837.957	0.0169128
838.035	0.0170430
838.113	0.0170988
838.192	0.0171157
838.270	0.0170481
838.348	0.0171833
838.426	0.0172175
838.504	0.0172855
838.582	0.0173337
838.660	0.0172234
838.738	0.0174000
838.817	0.0174528
838.895	0.0174377
838.973	0.0174372
839.051	0.0175698
839.129	0.0176783
839.207	0.0174888
839.285	0.0176095
839.363	0.0175410
839.442	0.0176653
839.520	0.0177837
839.598	0.0176628
839.676	0.0176003
839.754	0.0176072
839.832	0.0176710
839.910	0.0177236
839.988	0.0176125
840.067	0.0175403
840.145	0.0177271
840.223	0.0176453
840.301	0.0176040
840.379	0.0177029
840.457	0.0177703
840.535	0.0177546
840.613	0.0178086
840.692	0.0177728
840.770	0.0178635
840.848	0.0177676
840.926	0.0179261
841.004	0.0179923
841.082	0.0180120
841.160	0.0180489
841.238	0.0180345
841.317	0.0180981
841.395	0.0180220
841.473	0.0179540
841.551	0.0179520
841.629	0.0181487
841.707	0.0179364
841.785	0.0178965
841.863	0.0178053
841.942	0.0177699
842.020	0.0175873
842.098	0.0174441
842.176	0.0175281
842.254	0.0175201
842.332	0.0174076
842.410	0.0171617
842.488	0.0169865
842.567	0.0170408
842.645	0.0170390
842.723	0.0170110
842.801	0.0170629
842.879	0.0168611
842.957	0.0170567
843.035	0.0169975
843.113	0.0170935
843.192	0.0170473
843.270	0.0169473
843.348	0.0171632
843.426	0.0171591
843.504	0.0173277
843.582	0.0172910
843.660	0.0172849
843.738	0.0172944
843.817	0.0175334
843.895	0.0174142
843.973	0.0174938
844.051	0.0174397
844.129	0.0176221
844.207	0.0176836
844.285	0.0175662
844.363	0.0177415
844.442	0.0177525
844.520	0.0176910
844.598	0.0175375
844.676	0.0176640
844.754	0.0176461
844.832	0.0175613
844.910	0.0176706
844.988	0.0174409
845.067	0.0174762
845.145	0.0174220
845.223	0.0173911
845.301	0.0174554
845.379	0.0174937
845.457	0.0173744
845.535	0.0174751
845.613	0.0173774
845.692	0.0172399
845.770	0.0173892
845.848	0.0172768
845.926	0.0173251
846.004	0.0172789
846.082	0.0173243
846.160	0.0173615
846.238	0.0173366
846.317	0.0173988
846.395	0.0174241
846.473	0.0173284
846.551	0.0174496
846.629	0.0174910
846.707	0.0173720
846.785	0.0176415
846.863	0.0175149
846.942	0.0176878
847.020	0.0176914
847.098	0.0176949
847.176	0.0176276
847.254	0.0178664
847.332	0.0177769
847.410	0.0179061
847.488	0.0176736
847.567	0.0179142
847.645	0.0178362
847.723	0.0176701
847.801	0.0176042
847.879	0.0175929
847.957	0.0174444
848.035	0.0174723
848.113	0.0175733
848.192	0.0173516
848.270	0.0173547
848.348	0.0172986
848.426	0.0173008
848.504	0.0171516
848.582	0.0170885
848.660	0.0170276
848.738	0.0171401
848.817	0.0169674
848.895	0.0170707
848.973	0.0171291
849.051	0.0170645
849.129	0.0171088
849.207	0.0170793
849.285	0.0172352
849.363	0.0172514
849.442	0.0173972
849.520	0.0173209
849.598	0.0174268
849.676	0.0175288
849.754	0.0176552
849.832	0.0177177
849.910	0.0175916
849.988	0.0178406
850.067	0.0177806
850.145	0.0178752
850.223	0.0178459
850.301	0.0178246
850.379	0.0178416
850.457	0.0179368
850.535	0.0177709
850.613	0.0178812
850.692	0.0177432
850.770	0.0178513
850.848	0.0178008
850.926	0.0177592
851.004	0.0175809
851.082	0.0176749
851.160	0.0176716
851.238	0.0176460
851.317	0.0175925
851.395	0.0176686
851.473	0.0175550
851.551	0.0175559
851.629	0.0175979
851.707	0.0176434
851.785	0.0174081
851.863	0.0175497
851.942	0.0175386
852.020	0.0177037
852.098	0.0177789
852.176	0.0177129
852.254	0.0177789
852.332	0.0177177
852.410	0.0175768
852.488	0.0176576
852.567	0.0176623
852.645	0.0175982
852.723	0.0176805
852.801	0.0176934
852.879	0.0175719
852.957	0.0175201
853.035	0.0175948
853.113	0.0177525
853.192	0.0175130
853.270	0.0175548
853.348	0.0174825
853.426	0.0174190
853.504	0.0174140
853.582	0.0173347
853.660	0.0170834
853.738	0.0171010
853.817	0.0170111
853.895	0.0170211
853.973	0.0170261
854.051	0.0168926
854.129	0.0167870
854.207	0.0168609
854.285	0.0168274
854.363	0.0166903
854.442	0.0168393
854.520	0.0168965
854.598	0.0169538
854.676	0.0169970
854.754	0.0171135
854.832	0.0171781
854.910	0.0172299
854.988	0.0172344
855.067	0.0173373
855.145	0.0174907
855.223	0.0175659
855.301	0.0176088
855.379	0.0177122
855.457	0.0177277
855.535	0.0179527
855.613	0.0177966
855.692	0.0178333
855.770	0.0178768
855.848	0.0178558
855.926	0.0179887
856.004	0.0179679
856.082	0.0179778
856.160	0.0180338
856.238	0.0179568
856.317	0.0179081
856.395	0.0180515
856.473	0.0180660
856.551	0.0179597
856.629	0.0178089
856.707	0.0178870
856.785	0.0178415
856.863	0.0177206
856.942	0.0179525
857.020	0.0178403
857.098	0.0178285
857.176	0.0177978
857.254	0.0177962
857.332	0.0178169
857.410	0.0176342
857.488	0.0175966
857.567	0.0175570
857.645	0.0176366
857.723	0.0177466
857.801	0.0175861
857.879	0.0176987
857.957	0.0176616
858.035	0.0177876
858.113	0.0176392
858.192	0.0176451
858.270	0.0176312
858.348	0.0176113
858.426	0.0175861
858.504	0.0177023
858.582	0.0176839
858.660	0.0175178
858.738	0.0173558
858.817	0.0175968
858.895	0.0176590
858.973	0.0174675
859.051	0.0174930
859.129	0.0174940
859.207	0.0172559
859.285	0.0171603
859.363	0.0172772
859.442	0.0173005
859.520	0.0172039
859.598	0.0171182
859.676	0.0171296
859.754	0.0170357
859.832	0.0170030
859.910	0.0168764
859.988	0.0169673
860.067	0.0169288
860.145	0.0170013
860.223	0.0170156
860.301	0.0168967
860.379	0.0170396
860.457	0.0169387
860.535	0.0170399
860.613	0.0170621
860.692	0.0171571
860.770	0.0172372
860.848	0.0173937
860.926	0.0173697
861.004	0.0175300
861.082	0.0174326
861.160	0.0174724
861.238	0.0174627
861.317	0.0175097
861.395	0.0177052
861.473	0.0175681
861.551	0.0175723
861.629	0.0177090
861.707	0.0179589
861.785	0.0177511
861.863	0.0177332
861.942	0.0177316
862.020	0.0178491
862.098	0.0178896
862.176	0.0178188
862.254	0.0178555
862.332	0.0180162
862.410	0.0180720
862.488	0.0178571
862.567	0.0178696
862.645	0.0178801
862.723	0.0180367
862.801	0.0179758
862.879	0.0180748
862.957	0.0180898
863.035	0.0180819
863.113	0.0179778
863.192	0.0179530
863.270	0.0178765
863.348	0.0178790
863.426	0.0179448
863.504	0.0179378
863.582	0.0178248
863.660	0.0177854
863.738	0.0178290
863.817	0.0177055
863.895	0.0178221
863.973	0.0177279
864.051	0.0176094
864.129	0.0175285
864.207	0.0175958
864.285	0.0175434
864.363	0.0174010
864.442	0.0172974
864.520	0.0173105
864.598	0.0172782
864.676	0.0173035
864.754	0.0172939
864.832	0.0170882
864.910	0.0170432
864.988	0.0172041
865.067	0.0169662
865.145	0.0171230
865.223	0.0171346
865.301	0.0170743
865.379	0.0170121
865.457	0.0171170
865.535	0.0170079
865.613	0.0170965
865.692	0.0170995
865.770	0.0170182
865.848	0.0170785
865.926	0.0171120
866.004	0.0171612
866.082	0.0171512
866.160	0.0171130
866.238	0.0171693
866.317	0.0173055
866.395	0.0171602
866.473	0.0172569
866.551	0.0172558
866.629	0.0173439
866.707	0.0173524
866.785	0.0174326
866.863	0.0173016
866.942	0.0173354
867.020	0.0174826
867.098	0.0173820
867.176	0.0174284
867.254	0.0175960
867.332	0.0175815
867.410	0.0175520
867.488	0.0175820
867.567	0.0175587
867.645	0.0177468
867.723	0.0175823
867.801	0.0176913
867.879	0.0175935
867.957	0.0176136
868.035	0.0177209
868.113	0.0178352
868.192	0.0176226
868.270	0.0177291
868.348	0.0178500
868.426	0.0179093
868.504	0.0178816
868.582	0.0178323
868.660	0.0177838
868.738	0.0179550
868.817	0.0177734
868.895	0.0179771
868.973	0.0178457
869.051	0.0178111
869.129	0.0179777
869.207	0.0178827
869.285	0.0179443
869.363	0.0177895
869.442	0.0179021
869.520	0.0180029
869.598	0.0179695
869.676	0.0178774
869.754	0.0179842
869.832	0.0177975
869.910	0.0177599
869.988	0.0177477
870.067	0.0176542
870.145	0.0176875
870.223	0.0176511
870.301	0.0175178
870.379	0.0175920
870.457	0.0174264
870.535	0.0174354
870.613	0.0174150
870.692	0.0173975
870.770	0.0172350
870.848	0.0173375
870.926	0.0172116
871.004	0.0171620
871.082	0.0171416
871.160	0.0172540
871.238	0.0171357
871.317	0.0172257
871.395	0.0171481
871.473	0.0171436
871.551	0.0171357
871.629	0.0171083
871.707	0.0171886
871.785	0.0172217
871.863	0.0172140
871.942	0.0171912
872.020	0.0171899
872.098	0.0172009
872.176	0.0172758
872.254	0.0173015
872.332	0.0171085
872.410	0.0171803
872.488	0.0172066
872.567	0.0173941
872.645	0.0174206
872.723	0.0173753
872.801	0.0174771
872.879	0.0175292
872.957	0.0174869
873.035	0.0175222
873.113	0.0176631
873.192	0.0177354
873.270	0.0175298
873.348	0.0177514
873.426	0.0178895
873.504	0.0176883
873.582	0.0178179
873.660	0.0177975
873.738	0.0177896
873.817	0.0177869
873.895	0.0177842
873.973	0.0178166
874.051	0.0177290
874.129	0.0178036
874.207	0.0176315
874.285	0.0176826
874.363	0.0177722
874.442	0.0177158
874.520	0.0176688
874.598	0.0176431
874.676	0.0175300
874.754	0.0176332
874.832	0.0175577
874.910	0.0176026
874.988	0.0175847
875.067	0.0174102
875.145	0.0176662
875.223	0.0176260
875.301	0.0176661
875.379	0.0177708
875.457	0.0175243
875.535	0.0177768
875.613	0.0176664
875.692	0.0176443
875.770	0.0176711
875.848	0.0177129
875.926	0.0176853
876.004	0.0176062
876.082	0.0175306
876.160	0.0175458
876.238	0.0177601
876.317	0.0176035
876.395	0.0174421
876.473	0.0174152
876.551	0.0173624
876.629	0.0175257
876.707	0.0174225
876.785	0.0174767
876.863	0.0173219
876.942	0.0174287
877.020	0.0172266
877.098	0.0173752
877.176	0.0172694
877.254	0.0174078
877.332	0.0171745
877.410	0.0171117
877.488	0.0172166
877.567	0.0171799
877.645	0.0172736
877.723	0.0173782
877.801	0.0173681
877.879	0.0172077
877.957	0.0173759
878.035	0.0173663
878.113	0.0173649
878.192	0.0172568
878.270	0.0173014
878.348	0.0175472
878.426	0.0175540
878.504	0.0176191
878.582	0.0177071
878.660	0.0177579
878.738	0.0176274
878.817	0.0175446
878.895	0.0176742
878.973	0.0176702
879.051	0.0176703
879.129	0.0176626
879.207	0.0175225
879.285	0.0174681
879.363	0.0176023
879.442	0.0176624
879.520	0.0177209
879.598	0.0177513
879.676	0.0175655
879.754	0.0175562
879.832	0.0175983
879.910	0.0175397
879.988	0.0175536
880.067	0.0176276
880.145	0.0176058
880.223	0.0176515
880.301	0.0175850
880.379	0.0175814
880.457	0.0176759
880.535	0.0176295
880.613	0.0177383
880.692	0.0175887
880.770	0.0175500
880.848	0.0176610
880.926	0.0175948
881.004	0.0176965
881.082	0.0177287
881.160	0.0175906
881.238	0.0176379
881.317	0.0176431
881.395	0.0176608
881.473	0.0177664
881.551	0.0176009
881.629	0.0175113
881.707	0.0176415
881.785	0.0177034
881.863	0.0175406
881.942	0.0176799
882.020	0.0176697
882.098	0.0175222
882.176	0.0172680
882.254	0.0175456
882.332	0.0174552
882.410	0.0173717
882.488	0.0173653
882.567	0.0174004
882.645	0.0173130
882.723	0.0173903
882.801	0.0173592
882.879	0.0174600
882.957	0.0174279
883.035	0.0173052
883.113	0.0173412
883.192	0.0173621
883.270	0.0174870
883.348	0.0174396
883.426	0.0171970
883.504	0.0174156
883.582	0.0173358
883.660	0.0171789
883.738	0.0173160
883.817	0.0172791
883.895	0.0173631
883.973	0.0173436
884.051	0.0174600
884.129	0.0173986
884.207	0.0173757
884.285	0.0175832
884.363	0.0173524
884.442	0.0175132
884.520	0.0175562
884.598	0.0176355
884.676	0.0176878
884.754	0.0176736
884.832	0.0176575
884.910	0.0177231
884.988	0.0176382
885.067	0.0176508
885.145	0.0175433
885.223	0.0177200
885.301	0.0176820
885.379	0.0175596
885.457	0.0175810
885.535	0.0176341
885.613	0.0176987
885.692	0.0176913
885.770	0.0178670
885.848	0.0176583
885.926	0.0177267
886.004	0.0178860
886.082	0.0177454
886.160	0.0179478
886.238	0.0178876
886.317	0.0179465
886.395	0.0179137
886.473	0.0177767
886.551	0.0177889
886.629	0.0177124
886.707	0.0177744
886.785	0.0177544
886.863	0.0175612
886.942	0.0176670
887.020	0.0176833
887.098	0.0175968
887.176	0.0174333
887.254	0.0174555
887.332	0.0175977
887.410	0.0174147
887.488	0.0173308
887.567	0.0173875
887.645	0.0171883
887.723	0.0173587
887.801	0.0173124
887.879	0.0172398
887.957	0.0172273
888.035	0.0172749
888.113	0.0174140
888.192	0.0173919
888.270	0.0172887
888.348	0.0174522
888.426	0.0175232
888.504	0.0174995
888.582	0.0176758
888.660	0.0176922
888.738	0.0176612
888.817	0.0177261
888.895	0.0177166
888.973	0.0177296
889.051	0.0176535
889.129	0.0177361
889.207	0.0176952
889.285	0.0176934
889.363	0.0177627
889.442	0.0176958
889.520	0.0176246
889.598	0.0176698
889.676	0.0176580
889.754	0.0175892
889.832	0.0175392
889.910	0.0175178
889.988	0.0173994
890.067	0.0174185
890.145	0.0174016
890.223	0.0174862
890.301	0.0172646
890.379	0.0172719
890.457	0.0172436
890.535	0.0171491
890.613	0.0172397
890.692	0.0172996
890.770	0.0171927
890.848	0.0170950
890.926	0.0171590
891.004	0.0173222
891.082	0.0172877
891.160	0.0173007
891.238	0.0174229
891.317	0.0173998
891.395	0.0174336
891.473	0.0173358
891.551	0.0174728
891.629	0.0174364
891.707	0.0173877
891.785	0.0175239
891.863	0.0175764
891.942	0.0175256
892.020	0.0176022
892.098	0.0175813
892.176	0.0175838
892.254	0.0176728
892.332	0.0176201
892.410	0.0176443
892.488	0.0176308
892.567	0.0176875
892.645	0.0178908
892.723	0.0177457
892.801	0.0176829
892.879	0.0176720
892.957	0.0177394
893.035	0.0176393
893.113	0.0176553
893.192	0.0177023
893.270	0.0176661
893.348	0.0176743
893.426	0.0177447
893.504	0.0175066
893.582	0.0174985
893.660	0.0174757
893.738	0.0175292
893.817	0.0176199
893.895	0.0176442
893.973	0.0176838
894.051	0.0176846
894.129	0.0178058
894.207	0.0177909
894.285	0.0177522
894.363	0.0177319
894.442	0.0177503
894.520	0.0178615
894.598	0.0178730
894.676	0.0178349
894.754	0.0178419
894.832	0.0177940
894.910	0.0179575
894.988	0.0178893
895.067	0.0178759
895.145	0.0180225
895.223	0.0179517
895.301	0.0178521
895.379	0.0177531
895.457	0.0177655
895.535	0.0177567
895.613	0.0176436
895.692	0.0176140
895.770	0.0176311
895.848	0.0174424
895.926	0.0175599
896.004	0.0174576
896.082	0.0173660
896.160	0.0172773
896.238	0.0172013
896.317	0.0171634
896.395	0.0169872
896.473	0.0169519
896.551	0.0169958
896.629	0.0170241
896.707	0.0171000
896.785	0.0168562
896.863	0.0170024
896.942	0.0169369
897.020	0.0168796
897.098	0.0169213
897.176	0.0170176
897.254	0.0170040
897.332	0.0170304
897.410	0.0172207
897.488	0.0171517
897.567	0.0171853
897.645	0.0173033
897.723	0.0174034
897.801	0.0174206
897.879	0.0175787
897.957	0.0176241
898.035	0.0176587
898.113	0.0177332
898.192	0.0176171
898.270	0.0177798
898.348	0.0179630
898.426	0.0178399
898.504	0.0178289
898.582	0.0179577
898.660	0.0179278
898.738	0.0178529
898.817	0.0178971
898.895	0.0177928
898.973	0.0176633
899.051	0.0177172
899.129	0.0175389
899.207	0.0174015
899.285	0.0174091
899.363	0.0170620
899.442	0.0170670
899.520	0.0171702
899.598	0.0171396
899.676	0.0170572
899.754	0.0171134
899.832	0.0170710
899.910	0.0170917
899.988	0.0171436
900.067	0.0173800
900.145	0.0174810
900.223	0.0176511
900.301	0.0176629
900.379	0.0177745
900.457	0.0180067
900.535	0.0180620
900.613	0.0181734
900.692	0.0182081
900.770	0.0182241
900.848	0.0182565
900.926	0.0183836
901.004	0.0182784
901.082	0.0181832
901.160	0.0181023
901.238	0.0182612
901.317	0.0180300
901.395	0.0180024
901.473	0.0178716
901.551	0.0178060
901.629	0.0177901
901.707	0.0174597
901.785	0.0174718
901.863	0.0173454
901.942	0.0172698
902.020	0.0171327
902.098	0.0171529
902.176	0.0170979
902.254	0.0169358
902.332	0.0168293
902.410	0.0166617
902.488	0.0167085
902.567	0.0167558
902.645	0.0168804
902.723	0.0167483
902.801	0.0168888
902.879	0.0169968
902.957	0.0169157
903.035	0.0171468
903.113	0.0171198
903.192	0.0172822
903.270	0.0173502
903.348	0.0174735
903.426	0.0175822
903.504	0.0175919
903.582	0.0176783
903.660	0.0178447
903.738	0.0179262
903.817	0.0179623
903.895	0.0178504
903.973	0.0181380
904.051	0.0182565
904.129	0.0179321
904.207	0.0181603
904.285	0.0181758
904.363	0.0180615
904.442	0.0181719
904.520	0.0181873
904.598	0.0180446
904.676	0.0178402
904.754	0.0178696
904.832	0.0177142
904.910	0.0175624
904.988	0.0174699
905.067	0.0172292
905.145	0.0170584
905.223	0.0169423
905.301	0.0168709
905.379	0.0167910
905.457	0.0166364
905.535	0.0166867
905.613	0.0165927
905.692	0.0165667
905.770	0.0168289
905.848	0.0167014
905.926	0.0168053
906.004	0.0170434
906.082	0.0171176
906.160	0.0173103
906.238	0.0174049
906.317	0.0174765
906.395	0.0177694
906.473	0.0178201
906.551	0.0179586
906.629	0.0181467
906.707	0.0181693
906.785	0.0182684
906.863	0.0181831
906.942	0.0182213
907.020	0.0182668
907.098	0.0182599
907.176	0.0182281
907.254	0.0181123
907.332	0.0180344
907.410	0.0179174
907.488	0.0176542
907.567	0.0176846
907.645	0.0176247
907.723	0.0173882
907.801	0.0174624
907.879	0.0173315
907.957	0.0172602
908.035	0.0170534
908.113	0.0170647
908.192	0.0169724
908.270	0.0170614
908.348	0.0169973
908.426	0.0169721
908.504	0.0171712
908.582	0.0172050
908.660	0.0171677
908.738	0.0172688
908.817	0.0174082
908.895	0.0174532
908.973	0.0175116
909.051	0.0175092
909.129	0.0174892
909.207	0.0176463
909.285	0.0175815
909.363	0.0176659
909.442	0.0176421
909.520	0.0177274
909.598	0.0177065
909.676	0.0177804
909.754	0.0177026
909.832	0.0178678
909.910	0.0176852
909.988	0.0176356
910.067	0.0178109
910.145	0.0177709
910.223	0.0177061
910.301	0.0176401
910.379	0.0178012
910.457	0.0176391
910.535	0.0176102
910.613	0.0177415
910.692	0.0176878
910.770	0.0175484
910.848	0.0175333
910.926	0.0174557
911.004	0.0174603
911.082	0.0174836
911.160	0.0174185
911.238	0.0172948
911.317	0.0172545
911.395	0.0173377
911.473	0.0172998
911.551	0.0174546
911.629	0.0172594
911.707	0.0172785
911.785	0.0171958
911.863	0.0172360
911.942	0.0171603
912.020	0.0173639
912.098	0.0173808
912.176	0.0173109
912.254	0.0173892
912.332	0.0175660
912.410	0.0175870
912.488	0.0175832
912.567	0.0177506
912.645	0.0176779
912.723	0.0178313
912.801	0.0176872
912.879	0.0178034
912.957	0.0178955
913.035	0.0178975
913.113	0.0178175
913.192	0.0179899
913.270	0.0176300
913.348	0.0177121
913.426	0.0175538
913.504	0.0174598
913.582	0.0175333
913.660	0.0174251
913.738	0.0172754
913.817	0.0171278
913.895	0.0172118
913.973	0.0170792
914.051	0.0169605
914.129	0.0168850
914.207	0.0169315
914.285	0.0170747
914.363	0.0171458
914.442	0.0170670
914.520	0.0172117
914.598	0.0173391
914.676	0.0174418
914.754	0.0174654
914.832	0.0174480
914.910	0.0176810
914.988	0.0177504
915.067	0.0177399
915.145	0.0177219
915.223	0.0177529
915.301	0.0178191
915.379	0.0177666
915.457	0.0178432
915.535	0.0176981
915.613	0.0176900
915.692	0.0176484
915.770	0.0175807
915.848	0.0174471
915.926	0.0174963
916.004	0.0175640
916.082	0.0177236
916.160	0.0174676
916.238	0.0176103
916.317	0.0176488
916.395	0.0176273
916.473	0.0177573
916.551	0.0178425
916.629	0.0178680
916.707	0.0177594
916.785	0.0178416
916.863	0.0179659
916.942	0.0178819
917.020	0.0179053
917.098	0.0177982
917.176	0.0177345
917.254	0.0178316
917.332	0.0177605
917.410	0.0176325
917.488	0.0175547
917.567	0.0173760
917.645	0.0173337
917.723	0.0172501
917.801	0.0172711
917.879	0.0173201
917.957	0.0172815
918.035	0.0172845
918.113	0.0172396
918.192	0.0171597
918.270	0.0173463
918.348	0.0173441
918.426	0.0173994
918.504	0.0174630
918.582	0.0174628
918.660	0.0173368
918.738	0.0175300
918.817	0.0174740
918.895	0.0176497
918.973	0.0174097
919.051	0.0175520
919.129	0.0175790
919.207	0.0175208
919.285	0.0174374
919.363	0.0175155
919.442	0.0174353
919.520	0.0174252
919.598	0.0174332
919.676	0.0174066
919.754	0.0175294
919.832	0.0174240
919.910	0.0172716
