06/01/2022	21:47:08	Ver.	4.1	UNKNOWN
Optical Delay	599.988409	Delta X		0.078125	Sweeps	1	Scan Rate	0/0
Coordinates	Axis 1	NaN	Axis 2	NaN	Axis 3	NaN	Axis 4	NaN	Axis 5	NaN	Axis 6	0.000000
TX Power	0.000000	RX Power	0.000000

599.988	0.0180865
600.067	0.0182356
600.145	0.0181150
600.223	0.0181440
600.301	0.0181979
600.379	0.0181307
600.457	0.0180769
600.535	0.0179996
600.613	0.0180766
600.692	0.0181263
600.770	0.0180409
600.848	0.0180617
600.926	0.0181555
601.004	0.0181522
601.082	0.0181335
601.160	0.0179566
601.238	0.0180700
601.317	0.0180133
601.395	0.0182247
601.473	0.0181672
601.551	0.0180959
601.629	0.0181847
601.707	0.0181564
601.785	0.0181104
601.863	0.0180495
601.942	0.0181230
602.020	0.0180673
602.098	0.0180129
602.176	0.0181248
602.254	0.0181085
602.332	0.0181473
602.410	0.0181076
602.488	0.0181724
602.567	0.0180686
602.645	0.0181050
602.723	0.0182772
602.801	0.0181657
602.879	0.0181209
602.957	0.0181083
603.035	0.0180811
603.113	0.0180902
603.192	0.0180614
603.270	0.0180803
603.348	0.0180352
603.426	0.0181640
603.504	0.0180100
603.582	0.0181171
603.660	0.0181938
603.738	0.0181513
603.817	0.0181205
603.895	0.0180764
603.973	0.0180328
604.051	0.0179994
604.129	0.0181713
604.207	0.0181422
604.285	0.0181739
604.363	0.0181865
604.442	0.0180769
604.520	0.0181462
604.598	0.0181161
604.676	0.0181629
604.754	0.0181416
604.832	0.0180961
604.910	0.0181428
604.988	0.0180434
605.067	0.0181051
605.145	0.0180347
605.223	0.0181081
605.301	0.0180994
605.379	0.0181612
605.457	0.0181012
605.535	0.0180865
605.613	0.0180964
605.692	0.0181915
605.770	0.0181011
605.848	0.0180245
605.926	0.0179552
606.004	0.0179945
606.082	0.0181654
606.160	0.0180439
606.238	0.0179231
606.317	0.0181206
606.395	0.0181304
606.473	0.0181013
606.551	0.0181458
606.629	0.0179822
606.707	0.0178254
606.785	0.0180137
606.863	0.0182155
606.942	0.0181915
607.020	0.0180695
607.098	0.0180373
607.176	0.0181095
607.254	0.0180062
607.332	0.0179660
607.410	0.0180819
607.488	0.0181477
607.567	0.0179627
607.645	0.0181129
607.723	0.0179581
607.801	0.0180774
607.879	0.0180893
607.957	0.0180110
608.035	0.0180262
608.113	0.0181493
608.192	0.0180429
608.270	0.0180317
608.348	0.0180622
608.426	0.0181193
608.504	0.0180900
608.582	0.0180513
608.660	0.0180561
608.738	0.0181577
608.817	0.0179211
608.895	0.0180867
608.973	0.0180824
609.051	0.0180977
609.129	0.0182095
609.207	0.0180653
609.285	0.0180991
609.363	0.0181026
609.442	0.0180046
609.520	0.0179916
609.598	0.0180463
609.676	0.0181609
609.754	0.0181908
609.832	0.0181661
609.910	0.0181380
609.988	0.0180193
610.067	0.0181287
610.145	0.0181740
610.223	0.0180751
610.301	0.0180801
610.379	0.0179741
610.457	0.0180943
610.535	0.0180244
610.613	0.0181165
610.692	0.0181020
610.770	0.0180685
610.848	0.0180997
610.926	0.0181807
611.004	0.0180212
611.082	0.0179288
611.160	0.0181533
611.238	0.0181758
611.317	0.0180688
611.395	0.0180624
611.473	0.0181634
611.551	0.0180556
611.629	0.0181261
611.707	0.0181301
611.785	0.0179948
611.863	0.0180800
611.942	0.0180371
612.020	0.0181154
612.098	0.0181491
612.176	0.0180138
612.254	0.0181532
612.332	0.0181183
612.410	0.0181332
612.488	0.0180699
612.567	0.0180671
612.645	0.0179704
612.723	0.0180603
612.801	0.0180642
612.879	0.0179878
612.957	0.0180496
613.035	0.0180370
613.113	0.0179492
613.192	0.0180672
613.270	0.0180249
613.348	0.0180671
613.426	0.0180383
613.504	0.0180419
613.582	0.0180550
613.660	0.0180350
613.738	0.0181050
613.817	0.0180942
613.895	0.0180582
613.973	0.0180475
614.051	0.0181420
614.129	0.0180383
614.207	0.0179897
614.285	0.0181150
614.363	0.0180223
614.442	0.0180161
614.520	0.0180966
614.598	0.0181294
614.676	0.0181010
614.754	0.0181773
614.832	0.0180955
614.910	0.0180872
614.988	0.0181496
615.067	0.0181834
615.145	0.0181165
615.223	0.0181149
615.301	0.0179872
615.379	0.0181094
615.457	0.0181441
615.535	0.0181577
615.613	0.0180686
615.692	0.0180008
615.770	0.0181239
615.848	0.0180412
615.926	0.0181889
616.004	0.0181628
616.082	0.0179676
616.160	0.0180592
616.238	0.0180805
616.317	0.0180129
616.395	0.0181504
616.473	0.0180740
616.551	0.0181129
616.629	0.0180743
616.707	0.0180327
616.785	0.0180965
616.863	0.0180264
616.942	0.0181026
617.020	0.0180901
617.098	0.0181109
617.176	0.0181009
617.254	0.0181829
617.332	0.0181010
617.410	0.0180369
617.488	0.0181866
617.567	0.0182038
617.645	0.0182047
617.723	0.0180218
617.801	0.0180582
617.879	0.0181205
617.957	0.0181998
618.035	0.0181062
618.113	0.0181530
618.192	0.0180725
618.270	0.0180636
618.348	0.0180784
618.426	0.0180544
618.504	0.0181297
618.582	0.0180748
618.660	0.0180247
618.738	0.0182652
618.817	0.0181380
618.895	0.0180378
618.973	0.0181030
619.051	0.0180963
619.129	0.0180003
619.207	0.0182150
619.285	0.0180466
619.363	0.0181324
619.442	0.0181436
619.520	0.0180951
619.598	0.0180356
619.676	0.0182369
619.754	0.0180932
619.832	0.0182224
619.910	0.0180063
619.988	0.0181383
620.067	0.0180283
620.145	0.0180895
620.223	0.0180091
620.301	0.0181147
620.379	0.0181234
620.457	0.0181451
620.535	0.0180196
620.613	0.0180326
620.692	0.0180420
620.770	0.0181229
620.848	0.0182239
620.926	0.0181631
621.004	0.0181360
621.082	0.0181254
621.160	0.0181750
621.238	0.0182094
621.317	0.0181401
621.395	0.0181611
621.473	0.0180611
621.551	0.0179126
621.629	0.0180917
621.707	0.0181410
621.785	0.0180383
621.863	0.0180956
621.942	0.0182141
622.020	0.0180300
622.098	0.0180291
622.176	0.0181899
622.254	0.0179739
622.332	0.0181701
622.410	0.0182229
622.488	0.0181460
622.567	0.0180515
622.645	0.0182456
622.723	0.0180478
622.801	0.0180532
622.879	0.0182618
622.957	0.0180626
623.035	0.0180632
623.113	0.0181823
623.192	0.0181900
623.270	0.0180039
623.348	0.0180507
623.426	0.0180176
623.504	0.0179695
623.582	0.0180292
623.660	0.0180030
623.738	0.0181626
623.817	0.0181154
623.895	0.0180075
623.973	0.0180602
624.051	0.0181073
624.129	0.0180774
624.207	0.0181725
624.285	0.0180105
624.363	0.0181734
624.442	0.0180833
624.520	0.0180636
624.598	0.0181068
624.676	0.0180576
624.754	0.0180516
624.832	0.0181934
624.910	0.0179376
624.988	0.0179289
625.067	0.0181257
625.145	0.0179477
625.223	0.0180553
625.301	0.0180879
625.379	0.0180408
625.457	0.0180678
625.535	0.0180365
625.613	0.0180075
625.692	0.0180053
625.770	0.0181031
625.848	0.0182151
625.926	0.0179228
626.004	0.0180428
626.082	0.0180463
626.160	0.0180759
626.238	0.0179606
626.317	0.0181361
626.395	0.0180749
626.473	0.0181692
626.551	0.0181904
626.629	0.0180965
626.707	0.0180513
626.785	0.0181275
626.863	0.0180626
626.942	0.0180475
627.020	0.0180502
627.098	0.0180861
627.176	0.0182258
627.254	0.0180389
627.332	0.0180580
627.410	0.0180980
627.488	0.0181892
627.567	0.0181528
627.645	0.0182115
627.723	0.0181777
627.801	0.0180846
627.879	0.0181446
627.957	0.0181252
628.035	0.0180865
628.113	0.0182279
628.192	0.0180104
628.270	0.0180161
628.348	0.0181292
628.426	0.0180292
628.504	0.0180929
628.582	0.0180878
628.660	0.0179954
628.738	0.0179497
628.817	0.0181233
628.895	0.0183189
628.973	0.0181001
629.051	0.0181747
629.129	0.0180804
629.207	0.0181281
629.285	0.0179888
629.363	0.0180487
629.442	0.0180806
629.520	0.0180412
629.598	0.0179813
629.676	0.0182188
629.754	0.0182066
629.832	0.0180731
629.910	0.0180640
629.988	0.0180145
630.067	0.0180241
630.145	0.0178681
630.223	0.0181069
630.301	0.0181719
630.379	0.0180260
630.457	0.0178793
630.535	0.0179082
630.613	0.0180648
630.692	0.0180607
630.770	0.0179912
630.848	0.0180530
630.926	0.0181561
631.004	0.0180914
631.082	0.0180620
631.160	0.0179952
631.238	0.0181013
631.317	0.0180403
631.395	0.0179745
631.473	0.0180374
631.551	0.0179352
631.629	0.0181032
631.707	0.0181123
631.785	0.0180519
631.863	0.0180329
631.942	0.0179668
632.020	0.0179594
632.098	0.0180486
632.176	0.0181698
632.254	0.0180272
632.332	0.0181632
632.410	0.0181508
632.488	0.0181557
632.567	0.0181589
632.645	0.0180821
632.723	0.0181914
632.801	0.0180396
632.879	0.0182405
632.957	0.0180627
633.035	0.0180259
633.113	0.0182174
633.192	0.0179657
633.270	0.0181386
633.348	0.0181861
633.426	0.0181081
633.504	0.0180396
633.582	0.0181387
633.660	0.0181460
633.738	0.0182167
633.817	0.0181602
633.895	0.0181242
633.973	0.0180871
634.051	0.0180228
634.129	0.0180757
634.207	0.0180946
634.285	0.0181170
634.363	0.0181396
634.442	0.0181817
634.520	0.0180608
634.598	0.0181081
634.676	0.0179454
634.754	0.0181719
634.832	0.0181012
634.910	0.0181940
634.988	0.0181290
635.067	0.0180881
635.145	0.0180938
635.223	0.0181528
635.301	0.0181437
635.379	0.0181412
635.457	0.0180142
635.535	0.0180916
635.613	0.0181154
635.692	0.0181740
635.770	0.0181129
635.848	0.0181739
635.926	0.0181158
636.004	0.0180168
636.082	0.0179647
636.160	0.0181198
636.238	0.0179523
636.317	0.0179865
636.395	0.0181143
636.473	0.0181249
636.551	0.0180444
636.629	0.0180510
636.707	0.0179164
636.785	0.0179556
636.863	0.0182606
636.942	0.0180151
637.020	0.0182271
637.098	0.0180627
637.176	0.0181151
637.254	0.0181081
637.332	0.0180508
637.410	0.0180900
637.488	0.0181469
637.567	0.0180183
637.645	0.0180936
637.723	0.0181069
637.801	0.0179341
637.879	0.0181968
637.957	0.0182397
638.035	0.0180977
638.113	0.0181184
638.192	0.0181929
638.270	0.0179543
638.348	0.0181501
638.426	0.0180869
638.504	0.0181261
638.582	0.0180978
638.660	0.0181255
638.738	0.0180804
638.817	0.0182530
638.895	0.0181426
638.973	0.0183517
639.051	0.0182068
639.129	0.0181399
639.207	0.0181229
639.285	0.0180541
639.363	0.0181759
639.442	0.0182281
639.520	0.0181287
639.598	0.0180816
639.676	0.0180495
639.754	0.0181860
639.832	0.0181789
639.910	0.0181562
639.988	0.0181629
640.067	0.0180307
640.145	0.0180196
640.223	0.0180030
640.301	0.0179874
640.379	0.0181231
640.457	0.0181479
640.535	0.0181303
640.613	0.0181311
640.692	0.0181311
640.770	0.0181666
640.848	0.0181474
640.926	0.0181503
641.004	0.0180550
641.082	0.0182070
641.160	0.0180652
641.238	0.0180727
641.317	0.0181013
641.395	0.0181754
641.473	0.0180354
641.551	0.0180312
641.629	0.0180505
641.707	0.0181119
641.785	0.0180778
641.863	0.0181544
641.942	0.0180893
642.020	0.0180643
642.098	0.0180370
642.176	0.0179808
642.254	0.0180766
642.332	0.0181033
642.410	0.0181348
642.488	0.0180955
642.567	0.0181596
642.645	0.0180423
642.723	0.0180360
642.801	0.0180038
642.879	0.0180413
642.957	0.0180392
643.035	0.0180462
643.113	0.0180566
643.192	0.0179918
643.270	0.0180342
643.348	0.0179659
643.426	0.0181050
643.504	0.0180929
643.582	0.0180183
643.660	0.0179974
643.738	0.0180832
643.817	0.0181052
643.895	0.0179872
643.973	0.0180415
644.051	0.0180732
644.129	0.0179567
644.207	0.0181492
644.285	0.0179887
644.363	0.0180939
644.442	0.0180317
644.520	0.0180858
644.598	0.0181054
644.676	0.0180189
644.754	0.0179900
644.832	0.0179566
644.910	0.0180627
644.988	0.0181380
645.067	0.0180158
645.145	0.0181641
645.223	0.0179871
645.301	0.0180975
645.379	0.0179864
645.457	0.0181326
645.535	0.0180222
645.613	0.0181319
645.692	0.0181401
645.770	0.0180994
645.848	0.0179745
645.926	0.0181339
646.004	0.0180589
646.082	0.0179544
646.160	0.0182067
646.238	0.0180552
646.317	0.0180688
646.395	0.0181129
646.473	0.0180071
646.551	0.0180680
646.629	0.0180149
646.707	0.0179865
646.785	0.0179521
646.863	0.0180099
646.942	0.0179998
647.020	0.0180299
647.098	0.0180164
647.176	0.0180052
647.254	0.0180863
647.332	0.0180288
647.410	0.0180418
647.488	0.0180471
647.567	0.0180125
647.645	0.0179823
647.723	0.0180430
647.801	0.0180386
647.879	0.0180272
647.957	0.0180810
648.035	0.0179636
648.113	0.0180283
648.192	0.0180972
648.270	0.0180003
648.348	0.0179980
648.426	0.0179699
648.504	0.0179356
648.582	0.0179576
648.660	0.0179027
648.738	0.0180960
648.817	0.0181854
648.895	0.0179821
648.973	0.0180606
649.051	0.0179627
649.129	0.0181189
649.207	0.0179517
649.285	0.0178524
649.363	0.0180527
649.442	0.0180386
649.520	0.0180700
649.598	0.0181539
649.676	0.0181136
649.754	0.0180489
649.832	0.0181403
649.910	0.0178915
649.988	0.0180723
650.067	0.0179921
650.145	0.0180716
650.223	0.0180978
650.301	0.0179342
650.379	0.0180812
650.457	0.0181181
650.535	0.0180869
650.613	0.0181232
650.692	0.0180968
650.770	0.0180519
650.848	0.0179385
650.926	0.0179517
651.004	0.0180922
651.082	0.0180148
651.160	0.0179641
651.238	0.0181413
651.317	0.0180061
651.395	0.0180794
651.473	0.0179685
651.551	0.0181507
651.629	0.0181664
651.707	0.0181236
651.785	0.0181487
651.863	0.0181382
651.942	0.0181009
652.020	0.0182655
652.098	0.0182153
652.176	0.0180888
652.254	0.0180523
652.332	0.0181773
652.410	0.0180594
652.488	0.0178437
652.567	0.0179245
652.645	0.0179797
652.723	0.0181326
652.801	0.0180329
652.879	0.0181456
652.957	0.0180203
653.035	0.0181850
653.113	0.0181541
653.192	0.0180674
653.270	0.0181551
653.348	0.0183035
653.426	0.0181700
653.504	0.0180959
653.582	0.0182465
653.660	0.0182706
653.738	0.0180854
653.817	0.0182156
653.895	0.0182280
653.973	0.0180336
654.051	0.0180121
654.129	0.0180791
654.207	0.0180958
654.285	0.0179221
654.363	0.0178086
654.442	0.0178850
654.520	0.0180112
654.598	0.0179148
654.676	0.0179530
654.754	0.0180487
654.832	0.0179443
654.910	0.0180392
654.988	0.0180427
655.067	0.0182319
655.145	0.0181705
655.223	0.0181592
655.301	0.0182603
655.379	0.0182395
655.457	0.0183018
655.535	0.0183172
655.613	0.0183155
655.692	0.0179812
655.770	0.0180801
655.848	0.0181207
655.926	0.0180007
656.004	0.0180463
656.082	0.0179835
656.160	0.0180596
656.238	0.0180650
656.317	0.0178593
656.395	0.0179749
656.473	0.0180272
656.551	0.0179652
656.629	0.0179850
656.707	0.0181519
656.785	0.0181174
656.863	0.0180822
656.942	0.0182232
657.020	0.0181647
657.098	0.0182472
657.176	0.0181590
657.254	0.0181101
657.332	0.0181204
657.410	0.0183094
657.488	0.0183140
657.567	0.0180304
657.645	0.0180406
657.723	0.0181095
657.801	0.0181985
657.879	0.0181297
657.957	0.0180669
658.035	0.0180099
658.113	0.0182540
658.192	0.0181087
658.270	0.0180312
658.348	0.0180862
658.426	0.0181241
658.504	0.0178720
658.582	0.0178445
658.660	0.0181708
658.738	0.0180562
658.817	0.0179405
658.895	0.0180873
658.973	0.0181936
659.051	0.0181236
659.129	0.0182925
659.207	0.0182912
659.285	0.0182320
659.363	0.0181615
659.442	0.0183121
659.520	0.0183447
659.598	0.0182890
659.676	0.0182310
659.754	0.0183016
659.832	0.0181764
659.910	0.0182628
659.988	0.0182129
660.067	0.0180215
660.145	0.0179308
660.223	0.0180329
660.301	0.0180350
660.379	0.0179092
660.457	0.0178667
660.535	0.0178947
660.613	0.0177831
660.692	0.0180442
660.770	0.0181139
660.848	0.0180293
660.926	0.0181519
661.004	0.0182271
661.082	0.0182432
661.160	0.0184129
661.238	0.0183831
661.317	0.0183948
661.395	0.0183510
661.473	0.0182953
661.551	0.0183619
661.629	0.0182078
661.707	0.0181777
661.785	0.0180798
661.863	0.0181664
661.942	0.0180756
662.020	0.0178953
662.098	0.0179145
662.176	0.0180608
662.254	0.0179740
662.332	0.0179471
662.410	0.0180814
662.488	0.0180296
662.567	0.0182099
662.645	0.0180819
662.723	0.0180659
662.801	0.0181413
662.879	0.0182861
662.957	0.0183430
663.035	0.0182545
663.113	0.0183487
663.192	0.0184964
663.270	0.0183138
663.348	0.0184013
663.426	0.0182764
663.504	0.0182128
663.582	0.0181964
663.660	0.0182720
663.738	0.0180950
663.817	0.0180630
663.895	0.0180710
663.973	0.0180972
664.051	0.0180240
664.129	0.0179456
664.207	0.0180538
664.285	0.0180104
664.363	0.0179825
664.442	0.0181546
664.520	0.0181751
664.598	0.0181290
664.676	0.0181497
664.754	0.0180359
664.832	0.0181927
664.910	0.0181979
664.988	0.0180491
665.067	0.0181309
665.145	0.0180189
665.223	0.0181135
665.301	0.0182819
665.379	0.0181362
665.457	0.0181236
665.535	0.0182246
665.613	0.0181688
665.692	0.0181828
665.770	0.0180070
665.848	0.0179943
665.926	0.0181914
666.004	0.0180956
666.082	0.0182363
666.160	0.0181942
666.238	0.0180729
666.317	0.0179101
666.395	0.0179353
666.473	0.0181503
666.551	0.0180669
666.629	0.0179209
666.707	0.0180424
666.785	0.0180718
666.863	0.0181028
666.942	0.0181489
667.020	0.0180067
667.098	0.0180945
667.176	0.0180753
667.254	0.0180169
667.332	0.0178397
667.410	0.0179955
667.488	0.0180273
667.567	0.0181351
667.645	0.0181440
667.723	0.0180871
667.801	0.0180417
667.879	0.0181121
667.957	0.0182635
668.035	0.0181212
668.113	0.0182653
668.192	0.0183438
668.270	0.0181875
668.348	0.0181435
668.426	0.0180488
668.504	0.0180682
668.582	0.0179836
668.660	0.0179855
668.738	0.0180763
668.817	0.0179839
668.895	0.0179434
668.973	0.0180013
669.051	0.0179379
669.129	0.0178852
669.207	0.0177722
669.285	0.0178342
669.363	0.0177091
669.442	0.0177343
669.520	0.0178883
669.598	0.0179844
669.676	0.0180722
669.754	0.0180160
669.832	0.0181438
669.910	0.0180537
669.988	0.0180980
670.067	0.0182595
670.145	0.0182040
670.223	0.0181868
670.301	0.0182214
670.379	0.0181776
670.457	0.0183163
670.535	0.0183542
670.613	0.0183205
670.692	0.0182819
670.770	0.0181877
670.848	0.0181194
670.926	0.0180938
671.004	0.0180651
671.082	0.0179728
671.160	0.0179884
671.238	0.0179832
671.317	0.0179041
671.395	0.0178771
671.473	0.0179491
671.551	0.0179446
671.629	0.0177852
671.707	0.0179053
671.785	0.0179438
671.863	0.0179695
671.942	0.0178956
672.020	0.0178961
672.098	0.0180500
672.176	0.0181197
672.254	0.0181747
672.332	0.0182842
672.410	0.0181987
672.488	0.0182757
672.567	0.0182702
672.645	0.0183231
672.723	0.0182293
672.801	0.0181488
672.879	0.0180035
672.957	0.0180237
673.035	0.0179484
673.113	0.0178890
673.192	0.0178616
673.270	0.0178141
673.348	0.0177985
673.426	0.0178148
673.504	0.0177988
673.582	0.0178281
673.660	0.0178905
673.738	0.0177496
673.817	0.0179050
673.895	0.0179464
673.973	0.0178304
674.051	0.0178917
674.129	0.0181120
674.207	0.0181620
674.285	0.0182674
674.363	0.0181583
674.442	0.0183052
674.520	0.0182935
674.598	0.0183647
674.676	0.0183264
674.754	0.0183056
674.832	0.0182660
674.910	0.0181929
674.988	0.0183106
675.067	0.0182584
675.145	0.0181764
675.223	0.0180949
675.301	0.0181624
675.379	0.0180428
675.457	0.0179464
675.535	0.0180162
675.613	0.0179544
675.692	0.0179637
675.770	0.0179118
675.848	0.0180118
675.926	0.0181491
676.004	0.0182151
676.082	0.0180267
676.160	0.0180773
676.238	0.0182798
676.317	0.0183444
676.395	0.0183639
676.473	0.0181404
676.551	0.0182403
676.629	0.0181284
676.707	0.0180988
676.785	0.0180761
676.863	0.0179705
676.942	0.0178310
677.020	0.0177550
677.098	0.0178506
677.176	0.0177750
677.254	0.0178413
677.332	0.0178787
677.410	0.0178232
677.488	0.0179133
677.567	0.0180870
677.645	0.0180556
677.723	0.0179065
677.801	0.0179828
677.879	0.0182167
677.957	0.0180806
678.035	0.0180099
678.113	0.0179176
678.192	0.0178870
678.270	0.0179751
678.348	0.0178674
678.426	0.0180125
678.504	0.0179295
678.582	0.0181831
678.660	0.0181483
678.738	0.0183247
678.817	0.0184566
678.895	0.0182416
678.973	0.0183581
679.051	0.0185423
679.129	0.0186998
679.207	0.0186323
679.285	0.0186440
679.363	0.0186925
679.442	0.0188376
679.520	0.0186806
679.598	0.0186671
679.676	0.0185067
679.754	0.0183757
679.832	0.0182298
679.910	0.0182554
679.988	0.0179034
680.067	0.0177533
680.145	0.0176956
680.223	0.0174664
680.301	0.0175120
680.379	0.0174604
680.457	0.0174573
680.535	0.0174812
680.613	0.0174991
680.692	0.0173984
680.770	0.0175876
680.848	0.0177775
680.926	0.0178304
681.004	0.0179980
681.082	0.0180776
681.160	0.0183840
681.238	0.0185168
681.317	0.0187595
681.395	0.0188383
681.473	0.0188198
681.551	0.0191219
681.629	0.0191654
681.707	0.0191248
681.785	0.0191581
681.863	0.0190459
681.942	0.0191017
682.020	0.0188691
682.098	0.0187219
682.176	0.0183784
682.254	0.0182691
682.332	0.0180122
682.410	0.0178331
682.488	0.0175188
682.567	0.0172876
682.645	0.0173096
682.723	0.0169594
682.801	0.0169769
682.879	0.0169305
682.957	0.0168147
683.035	0.0169435
683.113	0.0170704
683.192	0.0170930
683.270	0.0174356
683.348	0.0174990
683.426	0.0175886
683.504	0.0179539
683.582	0.0181480
683.660	0.0183598
683.738	0.0184467
683.817	0.0186568
683.895	0.0188267
683.973	0.0189793
684.051	0.0190925
684.129	0.0192941
684.207	0.0194174
684.285	0.0193906
684.363	0.0195036
684.442	0.0194796
684.520	0.0193697
684.598	0.0193425
684.676	0.0191932
684.754	0.0189561
684.832	0.0184655
684.910	0.0180966
684.988	0.0177857
685.067	0.0175554
685.145	0.0171807
685.223	0.0169084
685.301	0.0164552
685.379	0.0162424
685.457	0.0157777
685.535	0.0158519
685.613	0.0159432
685.692	0.0158674
685.770	0.0159706
685.848	0.0162840
685.926	0.0164178
686.004	0.0168405
686.082	0.0172731
686.160	0.0176504
686.238	0.0182177
686.317	0.0186063
686.395	0.0191261
686.473	0.0193686
686.551	0.0197617
686.629	0.0201466
686.707	0.0202246
686.785	0.0203875
686.863	0.0205908
686.942	0.0204468
687.020	0.0203784
687.098	0.0203118
687.176	0.0200561
687.254	0.0197876
687.332	0.0196796
687.410	0.0192989
687.488	0.0191402
687.567	0.0187612
687.645	0.0185225
687.723	0.0182832
687.801	0.0178308
687.879	0.0176202
687.957	0.0173708
688.035	0.0170460
688.113	0.0168784
688.192	0.0167364
688.270	0.0165561
688.348	0.0163519
688.426	0.0163545
688.504	0.0162724
688.582	0.0163069
688.660	0.0162663
688.738	0.0162558
688.817	0.0164232
688.895	0.0163232
688.973	0.0164159
689.051	0.0165279
689.129	0.0164577
689.207	0.0165151
689.285	0.0168176
689.363	0.0168400
689.442	0.0170499
689.520	0.0174613
689.598	0.0176634
689.676	0.0180579
689.754	0.0182823
689.832	0.0185341
689.910	0.0190800
689.988	0.0193463
690.067	0.0195721
690.145	0.0197683
690.223	0.0200739
690.301	0.0202186
690.379	0.0202981
690.457	0.0203152
690.535	0.0202390
690.613	0.0203217
690.692	0.0202098
690.770	0.0200151
690.848	0.0197239
690.926	0.0195477
691.004	0.0191854
691.082	0.0189114
691.160	0.0185604
691.238	0.0182323
691.317	0.0179921
691.395	0.0176259
691.473	0.0173164
691.551	0.0169960
691.629	0.0167714
691.707	0.0165834
691.785	0.0164730
691.863	0.0162462
691.942	0.0162136
692.020	0.0162312
692.098	0.0160271
692.176	0.0162833
692.254	0.0162836
692.332	0.0163980
692.410	0.0165728
692.488	0.0167891
692.567	0.0171880
692.645	0.0174850
692.723	0.0178392
692.801	0.0181259
692.879	0.0185348
692.957	0.0186920
693.035	0.0188421
693.113	0.0189446
693.192	0.0189832
693.270	0.0188976
693.348	0.0187902
693.426	0.0187729
693.504	0.0185756
693.582	0.0185161
693.660	0.0184752
693.738	0.0184326
693.817	0.0184692
693.895	0.0185542
693.973	0.0186343
694.051	0.0188519
694.129	0.0189549
694.207	0.0190337
694.285	0.0192164
694.363	0.0192095
694.442	0.0191003
694.520	0.0189478
694.598	0.0189575
694.676	0.0186884
694.754	0.0183765
694.832	0.0181722
694.910	0.0180047
694.988	0.0176820
695.067	0.0175079
695.145	0.0171648
695.223	0.0169271
695.301	0.0167624
695.379	0.0163299
695.457	0.0163981
695.535	0.0161999
695.613	0.0161062
695.692	0.0160947
695.770	0.0162084
695.848	0.0161678
695.926	0.0164002
696.004	0.0167113
696.082	0.0169424
696.160	0.0172829
696.238	0.0175821
696.317	0.0178522
696.395	0.0183198
696.473	0.0185725
696.551	0.0187229
696.629	0.0190886
696.707	0.0192999
696.785	0.0194065
696.863	0.0196489
696.942	0.0198302
697.020	0.0198777
697.098	0.0200916
697.176	0.0201570
697.254	0.0201728
697.332	0.0200735
697.410	0.0202094
697.488	0.0201554
697.567	0.0200294
697.645	0.0199232
697.723	0.0198507
697.801	0.0195683
697.879	0.0193644
697.957	0.0189976
698.035	0.0187408
698.113	0.0184187
698.192	0.0181550
698.270	0.0179758
698.348	0.0177593
698.426	0.0174976
698.504	0.0173328
698.582	0.0171040
698.660	0.0169103
698.738	0.0167233
698.817	0.0165951
698.895	0.0165080
698.973	0.0163351
699.051	0.0159988
699.129	0.0159253
699.207	0.0158390
699.285	0.0156246
699.363	0.0155101
699.442	0.0153798
699.520	0.0154624
699.598	0.0153423
699.676	0.0155062
699.754	0.0157601
699.832	0.0160126
699.910	0.0161707
699.988	0.0164698
700.067	0.0169669
700.145	0.0175397
700.223	0.0178461
700.301	0.0184155
700.379	0.0186383
700.457	0.0191035
700.535	0.0191106
700.613	0.0194986
700.692	0.0197766
700.770	0.0195457
700.848	0.0196061
700.926	0.0195290
701.004	0.0194457
701.082	0.0192596
701.160	0.0191963
701.238	0.0190261
701.317	0.0190212
701.395	0.0188786
701.473	0.0188333
701.551	0.0188773
701.629	0.0188483
701.707	0.0189297
701.785	0.0189227
701.863	0.0188537
701.942	0.0189716
702.020	0.0191805
702.098	0.0192850
702.176	0.0194087
702.254	0.0195554
702.332	0.0199014
702.410	0.0199130
702.488	0.0201530
702.567	0.0204698
702.645	0.0205972
702.723	0.0205959
702.801	0.0208119
702.879	0.0209335
702.957	0.0209721
703.035	0.0209593
703.113	0.0205629
703.192	0.0204893
703.270	0.0202762
703.348	0.0199346
703.426	0.0194395
703.504	0.0189315
703.582	0.0183968
703.660	0.0178275
703.738	0.0172767
703.817	0.0166678
703.895	0.0159716
703.973	0.0152395
704.051	0.0145781
704.129	0.0140118
704.207	0.0134725
704.285	0.0130424
704.363	0.0126209
704.442	0.0122291
704.520	0.0120010
704.598	0.0119122
704.676	0.0120624
704.754	0.0119692
704.832	0.0121420
704.910	0.0124299
704.988	0.0128652
705.067	0.0132111
705.145	0.0136706
705.223	0.0142596
705.301	0.0148827
705.379	0.0154625
705.457	0.0163061
705.535	0.0170981
705.613	0.0180417
705.692	0.0187410
705.770	0.0194199
705.848	0.0202307
705.926	0.0210362
706.004	0.0217893
706.082	0.0222076
706.160	0.0227892
706.238	0.0231253
706.317	0.0234302
706.395	0.0236262
706.473	0.0238867
706.551	0.0238073
706.629	0.0236987
706.707	0.0235162
706.785	0.0233452
706.863	0.0230336
706.942	0.0228956
707.020	0.0222976
707.098	0.0216977
707.176	0.0213510
707.254	0.0207837
707.332	0.0202981
707.410	0.0197135
707.488	0.0192663
707.567	0.0187933
707.645	0.0183847
707.723	0.0179561
707.801	0.0177598
707.879	0.0175057
707.957	0.0173692
708.035	0.0173672
708.113	0.0174733
708.192	0.0177535
708.270	0.0180308
708.348	0.0182355
708.426	0.0187435
708.504	0.0190240
708.582	0.0193603
708.660	0.0194648
708.738	0.0196212
708.817	0.0197804
708.895	0.0195123
708.973	0.0191842
709.051	0.0189442
709.129	0.0185635
709.207	0.0181665
709.285	0.0175611
709.363	0.0167556
709.442	0.0161153
709.520	0.0153857
709.598	0.0144911
709.676	0.0136774
709.754	0.0130820
709.832	0.0124792
709.910	0.0120246
709.988	0.0115157
710.067	0.0113461
710.145	0.0111559
710.223	0.0112016
710.301	0.0112464
710.379	0.0114214
710.457	0.0117692
710.535	0.0121245
710.613	0.0125503
710.692	0.0129713
710.770	0.0135776
710.848	0.0139872
710.926	0.0145446
711.004	0.0151057
711.082	0.0156857
711.160	0.0161285
711.238	0.0166441
711.317	0.0174683
711.395	0.0180128
711.473	0.0186388
711.551	0.0194451
711.629	0.0202952
711.707	0.0212576
711.785	0.0222849
711.863	0.0232040
711.942	0.0241022
712.020	0.0248978
712.098	0.0257788
712.176	0.0262309
712.254	0.0266387
712.332	0.0269316
712.410	0.0269126
712.488	0.0267068
712.567	0.0262593
712.645	0.0259433
712.723	0.0253543
712.801	0.0245877
712.879	0.0237381
712.957	0.0227951
713.035	0.0217327
713.113	0.0209345
713.192	0.0200171
713.270	0.0192613
713.348	0.0184082
713.426	0.0178178
713.504	0.0171870
713.582	0.0166920
713.660	0.0166026
713.738	0.0162419
713.817	0.0160005
713.895	0.0160013
713.973	0.0159454
714.051	0.0161222
714.129	0.0164992
714.207	0.0166684
714.285	0.0171178
714.363	0.0177293
714.442	0.0179463
714.520	0.0183210
714.598	0.0186977
714.676	0.0188875
714.754	0.0191045
714.832	0.0189057
714.910	0.0186633
714.988	0.0183237
715.067	0.0176984
715.145	0.0168974
715.223	0.0163165
715.301	0.0154817
715.379	0.0144486
715.457	0.0136879
715.535	0.0130418
715.613	0.0122903
715.692	0.0116737
715.770	0.0112988
715.848	0.0108579
715.926	0.0107270
716.004	0.0107106
716.082	0.0106452
716.160	0.0107354
716.238	0.0111915
716.317	0.0115731
716.395	0.0120785
716.473	0.0124413
716.551	0.0129685
716.629	0.0136504
716.707	0.0140818
716.785	0.0147129
716.863	0.0152652
716.942	0.0159834
717.020	0.0164539
717.098	0.0168765
717.176	0.0174952
717.254	0.0179291
717.332	0.0186390
717.410	0.0193328
717.488	0.0198971
717.567	0.0205954
717.645	0.0215205
717.723	0.0222241
717.801	0.0232698
717.879	0.0241381
717.957	0.0249075
718.035	0.0258749
718.113	0.0266009
718.192	0.0273785
718.270	0.0280766
718.348	0.0283815
718.426	0.0283276
718.504	0.0282909
718.582	0.0278560
718.660	0.0271960
718.738	0.0265231
718.817	0.0253831
718.895	0.0243674
718.973	0.0231351
719.051	0.0220264
719.129	0.0208160
719.207	0.0197124
719.285	0.0185822
719.363	0.0176075
719.442	0.0168556
719.520	0.0161011
719.598	0.0157815
719.676	0.0153824
719.754	0.0152572
719.832	0.0152028
719.910	0.0155552
719.988	0.0158397
720.067	0.0160482
720.145	0.0164739
720.223	0.0170692
720.301	0.0176587
720.379	0.0181380
720.457	0.0186147
720.535	0.0188726
720.613	0.0191116
720.692	0.0193260
720.770	0.0192005
720.848	0.0188811
720.926	0.0185275
721.004	0.0179829
721.082	0.0170075
721.160	0.0161967
721.238	0.0151292
721.317	0.0141087
721.395	0.0129585
721.473	0.0118189
721.551	0.0109690
721.629	0.00995613
721.707	0.00930229
721.785	0.00889442
721.863	0.00871170
721.942	0.00858002
722.020	0.00870659
722.098	0.00903648
722.176	0.00973808
722.254	0.0104514
722.332	0.0112965
722.410	0.0123450
722.488	0.0132439
722.567	0.0143967
722.645	0.0153503
722.723	0.0161316
722.801	0.0168311
722.879	0.0174719
722.957	0.0181484
723.035	0.0187411
723.113	0.0191828
723.192	0.0196542
723.270	0.0199734
723.348	0.0203499
723.426	0.0207957
723.504	0.0213163
723.582	0.0218918
723.660	0.0224072
723.738	0.0227500
723.817	0.0233650
723.895	0.0238388
723.973	0.0244617
724.051	0.0250263
724.129	0.0253526
724.207	0.0256541
724.285	0.0258681
724.363	0.0258949
724.442	0.0257074
724.520	0.0255090
724.598	0.0250265
724.676	0.0245168
724.754	0.0239296
724.832	0.0232944
724.910	0.0226688
724.988	0.0219006
725.067	0.0214404
725.145	0.0208774
725.223	0.0202501
725.301	0.0197658
725.379	0.0194428
725.457	0.0190842
725.535	0.0185712
725.613	0.0185434
725.692	0.0183445
725.770	0.0181883
725.848	0.0179963
725.926	0.0178381
726.004	0.0177487
726.082	0.0177717
726.160	0.0178799
726.238	0.0178703
726.317	0.0178295
726.395	0.0179668
726.473	0.0179964
726.551	0.0178632
726.629	0.0178272
726.707	0.0177132
726.785	0.0174630
726.863	0.0173653
726.942	0.0171035
727.020	0.0168008
727.098	0.0162481
727.176	0.0157279
727.254	0.0150461
727.332	0.0143916
727.410	0.0137535
727.488	0.0129192
727.567	0.0122422
727.645	0.0116420
727.723	0.0108286
727.801	0.0104577
727.879	0.0103712
727.957	0.0101071
728.035	0.0100829
728.113	0.0102231
728.192	0.0106065
728.270	0.0108981
728.348	0.0114677
728.426	0.0121077
728.504	0.0127654
728.582	0.0135327
728.660	0.0142314
728.738	0.0149391
728.817	0.0156036
728.895	0.0164395
728.973	0.0169755
729.051	0.0175554
729.129	0.0182877
729.207	0.0187114
729.285	0.0193778
729.363	0.0199470
729.442	0.0204615
729.520	0.0211224
729.598	0.0215105
729.676	0.0219933
729.754	0.0224677
729.832	0.0230514
729.910	0.0234012
729.988	0.0237557
730.067	0.0238476
730.145	0.0239996
730.223	0.0241154
730.301	0.0241517
730.379	0.0239821
730.457	0.0237872
730.535	0.0235933
730.613	0.0231875
730.692	0.0227733
730.770	0.0224118
730.848	0.0221195
730.926	0.0215961
731.004	0.0211743
731.082	0.0209679
731.160	0.0207684
731.238	0.0205755
731.317	0.0203415
731.395	0.0203564
731.473	0.0203518
731.551	0.0203372
731.629	0.0204903
731.707	0.0203704
731.785	0.0203583
731.863	0.0201987
731.942	0.0200370
732.020	0.0199191
732.098	0.0199154
732.176	0.0194054
732.254	0.0190828
732.332	0.0188939
732.410	0.0184114
732.488	0.0179803
732.567	0.0176035
732.645	0.0172396
732.723	0.0169645
732.801	0.0166188
732.879	0.0163907
732.957	0.0159627
733.035	0.0157991
733.113	0.0153654
733.192	0.0151243
733.270	0.0148795
733.348	0.0145844
733.426	0.0143372
733.504	0.0141042
733.582	0.0138279
733.660	0.0136222
733.738	0.0134277
733.817	0.0133415
733.895	0.0133406
733.973	0.0131608
734.051	0.0132581
734.129	0.0134132
734.207	0.0135999
734.285	0.0136562
734.363	0.0138022
734.442	0.0141092
734.520	0.0143597
734.598	0.0145499
734.676	0.0149294
734.754	0.0151250
734.832	0.0151602
734.910	0.0153282
734.988	0.0155290
735.067	0.0156476
735.145	0.0158204
735.223	0.0159874
735.301	0.0162343
735.379	0.0164352
735.457	0.0166885
735.535	0.0170726
735.613	0.0174966
735.692	0.0181283
735.770	0.0186920
735.848	0.0192706
735.926	0.0198443
736.004	0.0205344
736.082	0.0209746
736.160	0.0215250
736.238	0.0219553
736.317	0.0223040
736.395	0.0225779
736.473	0.0227492
736.551	0.0227849
736.629	0.0228748
736.707	0.0227013
736.785	0.0224530
736.863	0.0222059
736.942	0.0219857
737.020	0.0216535
737.098	0.0213586
737.176	0.0211074
737.254	0.0208252
737.332	0.0207007
737.410	0.0207637
737.488	0.0205013
737.567	0.0203333
737.645	0.0205871
737.723	0.0204443
737.801	0.0205576
737.879	0.0204668
737.957	0.0204221
738.035	0.0204376
738.113	0.0203452
738.192	0.0200624
738.270	0.0197564
738.348	0.0197491
738.426	0.0192680
738.504	0.0189471
738.582	0.0186673
738.660	0.0183641
738.738	0.0181582
738.817	0.0178068
738.895	0.0175043
738.973	0.0171781
739.051	0.0169342
739.129	0.0168559
739.207	0.0165610
739.285	0.0164635
739.363	0.0163594
739.442	0.0161541
739.520	0.0161201
739.598	0.0158699
739.676	0.0159425
739.754	0.0158057
739.832	0.0156525
739.910	0.0158160
739.988	0.0157350
740.067	0.0157072
740.145	0.0156582
740.223	0.0157220
740.301	0.0156664
740.379	0.0154212
740.457	0.0155091
740.535	0.0154641
740.613	0.0152848
740.692	0.0152952
740.770	0.0151147
740.848	0.0151390
740.926	0.0150954
741.004	0.0150555
741.082	0.0151852
741.160	0.0150947
741.238	0.0151906
741.317	0.0154941
741.395	0.0154900
741.473	0.0155126
741.551	0.0157349
741.629	0.0160375
741.707	0.0162486
741.785	0.0165701
741.863	0.0168758
741.942	0.0172162
742.020	0.0174685
742.098	0.0179148
742.176	0.0184255
742.254	0.0184414
742.332	0.0190816
742.410	0.0192600
742.488	0.0195531
742.567	0.0195848
742.645	0.0199028
742.723	0.0199892
742.801	0.0201318
742.879	0.0203442
742.957	0.0203812
743.035	0.0205052
743.113	0.0205074
743.192	0.0206324
743.270	0.0206227
743.348	0.0206599
743.426	0.0207575
743.504	0.0208594
743.582	0.0208061
743.660	0.0207832
743.738	0.0207819
743.817	0.0208047
743.895	0.0208215
743.973	0.0206458
744.051	0.0204099
744.129	0.0203496
744.207	0.0204078
744.285	0.0203103
744.363	0.0199866
744.442	0.0200244
744.520	0.0197585
744.598	0.0194757
744.676	0.0193967
744.754	0.0190533
744.832	0.0187820
744.910	0.0186807
744.988	0.0184462
745.067	0.0181237
745.145	0.0179173
745.223	0.0174100
745.301	0.0174207
745.379	0.0172691
745.457	0.0170599
745.535	0.0170901
745.613	0.0171154
745.692	0.0169572
745.770	0.0171577
745.848	0.0171989
745.926	0.0174679
746.004	0.0176175
746.082	0.0179227
746.160	0.0179606
746.238	0.0180119
746.317	0.0181126
746.395	0.0181979
746.473	0.0180939
746.551	0.0179528
746.629	0.0179771
746.707	0.0175685
746.785	0.0174593
746.863	0.0170304
746.942	0.0168548
747.020	0.0164876
747.098	0.0161967
747.176	0.0158859
747.254	0.0155396
747.332	0.0154584
747.410	0.0152765
747.488	0.0153490
747.567	0.0152966
747.645	0.0149834
747.723	0.0152593
747.801	0.0154412
747.879	0.0155258
747.957	0.0159258
748.035	0.0161634
748.113	0.0164326
748.192	0.0165623
748.270	0.0169364
748.348	0.0171738
748.426	0.0174766
748.504	0.0175592
748.582	0.0177357
748.660	0.0178767
748.738	0.0179884
748.817	0.0180165
748.895	0.0181055
748.973	0.0180290
749.051	0.0180365
749.129	0.0180206
749.207	0.0180244
749.285	0.0180936
749.363	0.0182327
749.442	0.0182996
749.520	0.0182697
749.598	0.0184507
749.676	0.0185259
749.754	0.0186485
749.832	0.0188235
749.910	0.0191289
749.988	0.0193671
750.067	0.0193706
750.145	0.0194754
750.223	0.0197833
750.301	0.0200230
750.379	0.0202081
750.457	0.0202032
750.535	0.0202791
750.613	0.0202142
750.692	0.0201456
750.770	0.0203093
750.848	0.0201347
750.926	0.0200678
751.004	0.0197315
751.082	0.0195620
751.160	0.0193903
751.238	0.0191675
751.317	0.0190108
751.395	0.0187968
751.473	0.0186816
751.551	0.0184943
751.629	0.0183412
751.707	0.0181765
751.785	0.0181110
751.863	0.0180114
751.942	0.0180650
752.020	0.0181090
752.098	0.0181947
752.176	0.0183971
752.254	0.0184760
752.332	0.0186196
752.410	0.0186555
752.488	0.0186317
752.567	0.0186877
752.645	0.0189545
752.723	0.0187447
752.801	0.0187909
752.879	0.0187127
752.957	0.0186635
753.035	0.0183761
753.113	0.0182156
753.192	0.0178030
753.270	0.0177261
753.348	0.0175461
753.426	0.0172540
753.504	0.0171162
753.582	0.0168951
753.660	0.0168086
753.738	0.0165989
753.817	0.0166548
753.895	0.0165517
753.973	0.0164841
754.051	0.0164708
754.129	0.0165921
754.207	0.0164748
754.285	0.0166156
754.363	0.0166827
754.442	0.0169969
754.520	0.0169830
754.598	0.0170550
754.676	0.0173625
754.754	0.0174070
754.832	0.0176318
754.910	0.0176390
754.988	0.0177102
755.067	0.0177824
755.145	0.0177587
755.223	0.0177943
755.301	0.0176829
755.379	0.0174738
755.457	0.0175831
755.535	0.0173180
755.613	0.0172786
755.692	0.0172299
755.770	0.0170200
755.848	0.0169474
755.926	0.0169870
756.004	0.0170740
756.082	0.0171739
756.160	0.0170945
756.238	0.0172841
756.317	0.0174477
756.395	0.0177013
756.473	0.0179153
756.551	0.0182061
756.629	0.0185408
756.707	0.0185126
756.785	0.0187021
756.863	0.0189267
756.942	0.0190652
757.020	0.0190537
757.098	0.0190465
757.176	0.0190218
757.254	0.0190080
757.332	0.0188631
757.410	0.0187036
757.488	0.0185818
757.567	0.0184326
757.645	0.0183330
757.723	0.0184839
757.801	0.0183544
757.879	0.0184042
757.957	0.0182992
758.035	0.0185160
758.113	0.0185861
758.192	0.0187612
758.270	0.0189397
758.348	0.0190467
758.426	0.0194080
758.504	0.0194983
758.582	0.0197636
758.660	0.0198353
758.738	0.0198273
758.817	0.0198133
758.895	0.0199041
758.973	0.0199846
759.051	0.0198459
759.129	0.0195538
759.207	0.0194756
759.285	0.0191962
759.363	0.0190401
759.442	0.0187988
759.520	0.0186118
759.598	0.0183311
759.676	0.0179697
759.754	0.0176784
759.832	0.0175412
759.910	0.0174775
759.988	0.0169846
760.067	0.0169068
760.145	0.0168423
760.223	0.0169344
760.301	0.0168105
760.379	0.0170110
760.457	0.0172438
760.535	0.0172894
760.613	0.0174383
760.692	0.0176155
760.770	0.0179448
760.848	0.0180436
760.926	0.0183050
761.004	0.0184677
761.082	0.0186261
761.160	0.0186885
761.238	0.0185556
761.317	0.0187303
761.395	0.0186658
761.473	0.0184605
761.551	0.0182731
761.629	0.0181438
761.707	0.0178278
761.785	0.0176995
761.863	0.0174687
761.942	0.0171368
762.020	0.0168594
762.098	0.0167353
762.176	0.0164825
762.254	0.0165607
762.332	0.0165607
762.410	0.0165121
762.488	0.0163908
762.567	0.0165055
762.645	0.0168390
762.723	0.0167764
762.801	0.0169322
762.879	0.0170460
762.957	0.0173827
763.035	0.0175001
763.113	0.0177048
763.192	0.0178448
763.270	0.0178397
763.348	0.0179917
763.426	0.0180434
763.504	0.0181199
763.582	0.0181339
763.660	0.0181795
763.738	0.0178706
763.817	0.0178796
763.895	0.0179072
763.973	0.0177493
764.051	0.0176616
764.129	0.0176932
764.207	0.0175874
764.285	0.0177966
764.363	0.0177609
764.442	0.0180083
764.520	0.0179859
764.598	0.0180536
764.676	0.0180885
764.754	0.0184460
764.832	0.0184851
764.910	0.0184680
764.988	0.0188468
765.067	0.0189160
765.145	0.0190718
765.223	0.0191064
765.301	0.0193118
765.379	0.0193777
765.457	0.0193757
765.535	0.0192452
765.613	0.0191909
765.692	0.0192052
765.770	0.0189026
765.848	0.0187167
765.926	0.0187129
766.004	0.0185584
766.082	0.0182249
766.160	0.0182690
766.238	0.0182092
766.317	0.0181541
766.395	0.0180640
766.473	0.0180364
766.551	0.0182059
766.629	0.0183714
766.707	0.0185207
766.785	0.0184934
766.863	0.0188319
766.942	0.0189788
767.020	0.0189711
767.098	0.0189893
767.176	0.0191483
767.254	0.0191748
767.332	0.0191439
767.410	0.0191118
767.488	0.0191632
767.567	0.0190798
767.645	0.0187875
767.723	0.0186871
767.801	0.0183942
767.879	0.0184859
767.957	0.0180589
768.035	0.0180508
768.113	0.0178767
768.192	0.0177099
768.270	0.0175816
768.348	0.0174960
768.426	0.0172976
768.504	0.0169730
768.582	0.0169044
768.660	0.0170525
768.738	0.0170110
768.817	0.0170665
768.895	0.0171031
768.973	0.0171464
769.051	0.0171338
769.129	0.0172489
769.207	0.0175306
769.285	0.0175552
769.363	0.0175240
769.442	0.0174686
769.520	0.0176217
769.598	0.0175848
769.676	0.0175734
769.754	0.0175420
769.832	0.0175223
769.910	0.0175717
769.988	0.0174287
770.067	0.0172616
770.145	0.0172948
770.223	0.0171918
770.301	0.0172459
770.379	0.0172964
770.457	0.0170911
770.535	0.0172330
770.613	0.0171686
770.692	0.0173063
770.770	0.0173402
770.848	0.0174145
770.926	0.0175768
771.004	0.0177059
771.082	0.0177374
771.160	0.0178081
771.238	0.0178735
771.317	0.0181049
771.395	0.0182324
771.473	0.0184023
771.551	0.0183414
771.629	0.0185274
771.707	0.0185468
771.785	0.0185143
771.863	0.0183595
771.942	0.0184299
772.020	0.0183801
772.098	0.0184464
772.176	0.0182150
772.254	0.0182269
772.332	0.0180621
772.410	0.0180672
772.488	0.0183048
772.567	0.0182413
772.645	0.0181296
772.723	0.0181098
772.801	0.0181966
772.879	0.0184196
772.957	0.0185314
773.035	0.0186030
773.113	0.0187604
773.192	0.0188149
773.270	0.0190380
773.348	0.0189507
773.426	0.0190374
773.504	0.0191969
773.582	0.0195522
773.660	0.0193094
773.738	0.0193471
773.817	0.0194255
773.895	0.0194055
773.973	0.0195153
774.051	0.0192977
774.129	0.0192065
774.207	0.0190923
774.285	0.0190798
774.363	0.0190351
774.442	0.0187572
774.520	0.0187215
774.598	0.0184863
774.676	0.0181861
774.754	0.0181684
774.832	0.0182035
774.910	0.0180178
774.988	0.0178694
775.067	0.0177757
775.145	0.0177440
775.223	0.0177988
775.301	0.0176342
775.379	0.0176157
775.457	0.0175134
775.535	0.0175823
775.613	0.0176249
775.692	0.0174369
775.770	0.0175750
775.848	0.0174657
775.926	0.0175123
776.004	0.0175587
776.082	0.0174406
776.160	0.0174818
776.238	0.0177248
776.317	0.0176154
776.395	0.0175748
776.473	0.0177097
776.551	0.0177643
776.629	0.0177251
776.707	0.0178299
776.785	0.0178793
776.863	0.0178816
776.942	0.0179491
777.020	0.0179614
777.098	0.0179939
777.176	0.0179324
777.254	0.0177853
777.332	0.0177550
777.410	0.0176611
777.488	0.0176083
777.567	0.0176003
777.645	0.0176318
777.723	0.0173743
777.801	0.0175014
777.879	0.0173286
777.957	0.0172607
778.035	0.0172620
778.113	0.0171452
778.192	0.0171545
778.270	0.0172441
778.348	0.0171821
778.426	0.0171063
778.504	0.0171140
778.582	0.0171786
778.660	0.0173676
778.738	0.0175969
778.817	0.0175153
778.895	0.0174944
778.973	0.0177828
779.051	0.0178306
779.129	0.0179871
779.207	0.0181101
779.285	0.0183517
779.363	0.0183661
779.442	0.0184753
779.520	0.0185632
779.598	0.0186996
779.676	0.0186786
779.754	0.0189355
779.832	0.0190086
779.910	0.0190631
779.988	0.0190344
780.067	0.0190852
780.145	0.0191722
780.223	0.0191455
780.301	0.0190977
780.379	0.0191161
780.457	0.0191647
780.535	0.0191416
780.613	0.0189841
780.692	0.0189333
780.770	0.0188373
780.848	0.0188312
780.926	0.0188987
781.004	0.0187349
781.082	0.0187403
781.160	0.0187929
781.238	0.0186271
781.317	0.0184315
781.395	0.0185213
781.473	0.0184300
781.551	0.0184827
781.629	0.0182421
781.707	0.0183379
781.785	0.0182578
781.863	0.0182313
781.942	0.0182664
782.020	0.0182729
782.098	0.0182680
782.176	0.0181027
782.254	0.0181441
782.332	0.0183215
782.410	0.0181801
782.488	0.0181747
782.567	0.0183097
782.645	0.0182147
782.723	0.0182944
782.801	0.0183371
782.879	0.0182150
782.957	0.0180578
783.035	0.0181320
783.113	0.0182246
783.192	0.0182680
783.270	0.0181014
783.348	0.0180687
783.426	0.0181384
783.504	0.0180518
783.582	0.0179404
783.660	0.0178183
783.738	0.0179035
783.817	0.0177409
783.895	0.0177181
783.973	0.0176462
784.051	0.0174879
784.129	0.0173470
784.207	0.0172449
784.285	0.0171726
784.363	0.0170833
784.442	0.0168710
784.520	0.0168584
784.598	0.0168595
784.676	0.0168296
784.754	0.0167488
784.832	0.0168243
784.910	0.0167913
784.988	0.0168595
785.067	0.0169933
785.145	0.0169800
785.223	0.0173101
785.301	0.0173721
785.379	0.0174911
785.457	0.0175761
785.535	0.0177865
785.613	0.0178851
785.692	0.0180481
785.770	0.0184512
785.848	0.0183350
785.926	0.0185307
786.004	0.0186100
786.082	0.0186751
786.160	0.0185475
786.238	0.0185654
786.317	0.0185466
786.395	0.0183878
786.473	0.0183936
786.551	0.0184210
786.629	0.0182981
786.707	0.0179536
786.785	0.0179380
786.863	0.0180418
786.942	0.0178887
787.020	0.0178133
787.098	0.0178330
787.176	0.0178429
787.254	0.0179400
787.332	0.0179369
787.410	0.0179988
787.488	0.0181451
787.567	0.0181540
787.645	0.0182894
787.723	0.0184684
787.801	0.0185932
787.879	0.0188064
787.957	0.0187412
788.035	0.0188629
788.113	0.0189655
788.192	0.0190231
788.270	0.0189909
788.348	0.0189503
788.426	0.0191008
788.504	0.0189915
788.582	0.0189250
788.660	0.0188373
788.738	0.0188171
788.817	0.0186481
788.895	0.0188241
788.973	0.0187107
789.051	0.0187119
789.129	0.0185651
789.207	0.0184873
789.285	0.0183159
789.363	0.0183310
789.442	0.0183112
789.520	0.0182855
789.598	0.0182259
789.676	0.0182000
789.754	0.0181331
789.832	0.0180093
789.910	0.0179761
789.988	0.0179433
790.067	0.0178632
790.145	0.0179202
790.223	0.0179958
790.301	0.0178087
790.379	0.0177686
790.457	0.0176688
790.535	0.0176865
790.613	0.0177413
790.692	0.0175716
790.770	0.0174185
790.848	0.0175089
790.926	0.0175965
791.004	0.0176224
791.082	0.0176569
791.160	0.0176476
791.238	0.0176698
791.317	0.0178284
791.395	0.0177673
791.473	0.0178672
791.551	0.0179849
791.629	0.0180270
791.707	0.0179092
791.785	0.0180716
791.863	0.0180399
791.942	0.0179895
792.020	0.0180234
792.098	0.0179219
792.176	0.0179865
792.254	0.0179084
792.332	0.0178698
792.410	0.0178464
792.488	0.0177705
792.567	0.0176585
792.645	0.0175353
792.723	0.0175095
792.801	0.0171515
792.879	0.0172482
792.957	0.0172047
793.035	0.0171455
793.113	0.0171569
793.192	0.0171170
793.270	0.0171657
793.348	0.0171855
793.426	0.0173205
793.504	0.0175266
793.582	0.0176425
793.660	0.0176585
793.738	0.0179761
793.817	0.0180347
793.895	0.0181607
793.973	0.0184156
794.051	0.0185474
794.129	0.0188326
794.207	0.0189299
794.285	0.0191070
794.363	0.0190244
794.442	0.0191806
794.520	0.0191213
794.598	0.0191847
794.676	0.0190943
794.754	0.0189171
794.832	0.0186926
794.910	0.0185376
794.988	0.0185191
795.067	0.0186477
795.145	0.0182606
795.223	0.0181213
795.301	0.0181663
795.379	0.0179328
795.457	0.0178696
795.535	0.0179784
795.613	0.0178459
795.692	0.0178060
795.770	0.0178960
795.848	0.0177713
795.926	0.0178718
796.004	0.0179814
796.082	0.0179355
796.160	0.0177751
796.238	0.0179867
796.317	0.0179934
796.395	0.0180958
796.473	0.0181421
796.551	0.0182586
796.629	0.0183688
796.707	0.0183987
796.785	0.0183186
796.863	0.0184503
796.942	0.0183744
797.020	0.0183758
797.098	0.0184962
797.176	0.0184657
797.254	0.0184342
797.332	0.0186213
797.410	0.0184294
797.488	0.0185371
797.567	0.0187407
797.645	0.0186231
797.723	0.0186113
797.801	0.0188303
797.879	0.0186976
797.957	0.0186047
798.035	0.0186468
798.113	0.0186531
798.192	0.0185542
798.270	0.0185877
798.348	0.0184190
798.426	0.0184038
798.504	0.0182938
798.582	0.0181609
798.660	0.0181614
798.738	0.0180074
798.817	0.0176767
798.895	0.0177541
798.973	0.0176504
799.051	0.0175765
799.129	0.0174702
799.207	0.0175799
799.285	0.0175015
799.363	0.0174639
799.442	0.0173811
799.520	0.0175056
799.598	0.0173996
799.676	0.0174933
799.754	0.0177197
799.832	0.0175594
799.910	0.0176295
799.988	0.0177589
800.067	0.0178234
800.145	0.0177476
800.223	0.0178465
800.301	0.0177508
800.379	0.0176396
800.457	0.0176703
800.535	0.0176188
800.613	0.0175276
800.692	0.0174037
800.770	0.0174519
800.848	0.0173247
800.926	0.0173099
801.004	0.0172115
801.082	0.0171056
801.160	0.0172070
801.238	0.0171805
801.317	0.0170715
801.395	0.0171084
801.473	0.0171661
801.551	0.0172964
801.629	0.0173448
801.707	0.0173588
801.785	0.0172937
801.863	0.0173962
801.942	0.0173549
802.020	0.0175879
802.098	0.0178345
802.176	0.0179459
802.254	0.0180642
802.332	0.0182564
802.410	0.0184362
802.488	0.0184910
802.567	0.0187128
802.645	0.0188964
802.723	0.0190847
802.801	0.0193172
802.879	0.0194209
802.957	0.0195982
803.035	0.0197478
803.113	0.0197720
803.192	0.0199582
803.270	0.0199103
803.348	0.0198688
803.426	0.0199056
803.504	0.0198637
803.582	0.0197227
803.660	0.0194294
803.738	0.0194106
803.817	0.0193819
803.895	0.0189661
803.973	0.0188967
804.051	0.0186930
804.129	0.0186758
804.207	0.0184119
804.285	0.0182838
804.363	0.0180786
804.442	0.0182352
804.520	0.0180307
804.598	0.0180579
804.676	0.0179156
804.754	0.0179259
804.832	0.0179838
804.910	0.0178970
804.988	0.0180347
805.067	0.0179125
805.145	0.0180099
805.223	0.0179359
805.301	0.0180139
805.379	0.0180490
805.457	0.0178762
805.535	0.0178444
805.613	0.0178611
805.692	0.0179191
805.770	0.0177503
805.848	0.0178783
805.926	0.0175761
806.004	0.0174612
806.082	0.0174032
806.160	0.0173141
806.238	0.0172319
806.317	0.0171620
806.395	0.0169894
806.473	0.0169975
806.551	0.0168639
806.629	0.0167043
806.707	0.0166800
806.785	0.0167009
806.863	0.0165963
806.942	0.0165818
807.020	0.0167371
807.098	0.0166760
807.176	0.0167089
807.254	0.0166828
807.332	0.0167620
807.410	0.0169629
807.488	0.0170974
807.567	0.0172771
807.645	0.0173843
807.723	0.0175897
807.801	0.0176914
807.879	0.0179546
807.957	0.0181509
808.035	0.0182275
808.113	0.0183990
808.192	0.0185316
808.270	0.0186671
808.348	0.0188847
808.426	0.0189726
808.504	0.0193140
808.582	0.0192735
808.660	0.0194655
808.738	0.0195381
808.817	0.0195832
808.895	0.0196219
808.973	0.0195864
809.051	0.0195029
809.129	0.0194995
809.207	0.0196014
809.285	0.0194024
809.363	0.0192908
809.442	0.0192349
809.520	0.0190780
809.598	0.0188056
809.676	0.0186731
809.754	0.0185139
809.832	0.0182738
809.910	0.0181440
809.988	0.0182056
810.067	0.0179552
810.145	0.0179374
810.223	0.0177943
810.301	0.0176173
810.379	0.0176086
810.457	0.0177129
810.535	0.0175793
810.613	0.0176302
810.692	0.0177222
810.770	0.0178566
810.848	0.0178032
810.926	0.0178508
811.004	0.0179430
811.082	0.0179050
811.160	0.0179560
811.238	0.0179211
811.317	0.0180013
811.395	0.0179089
811.473	0.0180150
811.551	0.0179192
811.629	0.0179619
811.707	0.0179403
811.785	0.0177254
811.863	0.0177364
811.942	0.0177138
812.020	0.0178419
812.098	0.0175458
812.176	0.0174325
812.254	0.0174705
812.332	0.0174122
812.410	0.0173911
812.488	0.0173035
812.567	0.0174026
812.645	0.0173338
812.723	0.0172294
812.801	0.0171724
812.879	0.0175021
812.957	0.0173603
813.035	0.0174216
813.113	0.0176482
813.192	0.0174759
813.270	0.0176841
813.348	0.0178110
813.426	0.0178827
813.504	0.0180345
813.582	0.0179795
813.660	0.0182068
813.738	0.0182864
813.817	0.0186018
813.895	0.0186657
813.973	0.0186618
814.051	0.0187958
814.129	0.0190451
814.207	0.0189861
814.285	0.0190635
814.363	0.0191226
814.442	0.0192381
814.520	0.0190806
814.598	0.0192323
814.676	0.0192828
814.754	0.0191646
814.832	0.0191530
814.910	0.0189429
814.988	0.0190317
815.067	0.0188441
815.145	0.0188197
815.223	0.0186188
815.301	0.0184842
815.379	0.0183935
815.457	0.0184636
815.535	0.0184712
815.613	0.0182117
815.692	0.0179388
815.770	0.0179959
815.848	0.0179693
815.926	0.0179302
816.004	0.0178714
816.082	0.0179813
816.160	0.0178072
816.238	0.0177005
816.317	0.0178973
816.395	0.0178690
816.473	0.0178421
816.551	0.0178155
816.629	0.0176292
816.707	0.0178030
816.785	0.0177302
816.863	0.0175929
816.942	0.0176442
817.020	0.0175574
817.098	0.0175468
817.176	0.0174574
817.254	0.0175079
817.332	0.0174126
817.410	0.0172283
817.488	0.0170840
817.567	0.0169308
817.645	0.0169600
817.723	0.0170778
817.801	0.0168569
817.879	0.0169093
817.957	0.0169507
818.035	0.0167834
818.113	0.0168742
818.192	0.0170228
818.270	0.0170869
818.348	0.0170096
818.426	0.0171828
818.504	0.0174020
818.582	0.0172726
818.660	0.0174953
818.738	0.0175446
818.817	0.0178333
818.895	0.0179872
818.973	0.0180532
819.051	0.0182150
819.129	0.0181762
819.207	0.0182559
819.285	0.0186049
819.363	0.0186633
819.442	0.0187452
819.520	0.0188207
819.598	0.0190078
819.676	0.0191743
819.754	0.0192368
819.832	0.0191381
819.910	0.0193018
819.988	0.0195197
820.067	0.0193265
820.145	0.0194608
820.223	0.0194087
820.301	0.0193940
820.379	0.0195964
820.457	0.0195237
820.535	0.0193558
820.613	0.0193131
820.692	0.0193783
820.770	0.0193195
820.848	0.0193529
820.926	0.0192603
821.004	0.0190162
821.082	0.0190572
821.160	0.0187511
821.238	0.0187354
821.317	0.0186964
821.395	0.0184622
821.473	0.0183963
821.551	0.0183174
821.629	0.0183674
821.707	0.0181964
821.785	0.0180542
821.863	0.0180014
821.942	0.0179164
822.020	0.0176614
822.098	0.0176749
822.176	0.0178566
822.254	0.0175895
822.332	0.0175419
822.410	0.0176050
822.488	0.0173940
822.567	0.0174812
822.645	0.0174971
822.723	0.0175042
822.801	0.0175227
822.879	0.0174660
822.957	0.0175591
823.035	0.0174187
823.113	0.0172598
823.192	0.0174657
823.270	0.0173045
823.348	0.0172800
823.426	0.0173465
823.504	0.0170798
823.582	0.0172430
823.660	0.0172219
823.738	0.0171999
823.817	0.0171674
823.895	0.0169905
823.973	0.0170744
824.051	0.0169498
824.129	0.0169686
824.207	0.0169503
824.285	0.0171231
824.363	0.0169608
824.442	0.0170186
824.520	0.0170132
824.598	0.0170995
824.676	0.0172520
824.754	0.0171864
824.832	0.0172134
824.910	0.0173069
824.988	0.0175709
825.067	0.0177309
825.145	0.0177973
825.223	0.0178541
825.301	0.0180186
825.379	0.0181419
825.457	0.0183726
825.535	0.0183757
825.613	0.0185004
825.692	0.0185247
825.770	0.0186221
825.848	0.0189245
825.926	0.0187357
826.004	0.0188898
826.082	0.0187774
826.160	0.0189205
826.238	0.0190401
826.317	0.0189751
826.395	0.0190926
826.473	0.0190974
826.551	0.0190929
826.629	0.0192045
826.707	0.0191360
826.785	0.0190649
826.863	0.0192552
826.942	0.0191051
827.020	0.0192273
827.098	0.0189923
827.176	0.0191478
827.254	0.0192838
827.332	0.0192009
827.410	0.0191968
827.488	0.0189919
827.567	0.0187854
827.645	0.0188537
827.723	0.0189584
827.801	0.0188389
827.879	0.0186729
827.957	0.0185593
828.035	0.0186732
828.113	0.0185616
828.192	0.0184563
828.270	0.0182754
828.348	0.0182405
828.426	0.0183640
828.504	0.0182732
828.582	0.0181324
828.660	0.0180453
828.738	0.0180239
828.817	0.0179703
828.895	0.0180024
828.973	0.0179493
829.051	0.0178130
829.129	0.0177677
829.207	0.0176242
829.285	0.0175182
829.363	0.0175641
829.442	0.0174373
829.520	0.0175194
829.598	0.0175473
829.676	0.0174303
829.754	0.0173706
829.832	0.0174097
829.910	0.0172806
829.988	0.0173709
830.067	0.0171726
830.145	0.0170837
830.223	0.0172414
830.301	0.0170528
830.379	0.0170061
830.457	0.0171236
830.535	0.0171005
830.613	0.0171239
830.692	0.0170744
830.770	0.0170986
830.848	0.0171281
830.926	0.0171900
831.004	0.0172736
831.082	0.0175228
831.160	0.0174630
831.238	0.0175534
831.317	0.0175923
831.395	0.0176481
831.473	0.0177704
831.551	0.0179279
831.629	0.0179301
831.707	0.0180492
831.785	0.0182809
831.863	0.0183211
831.942	0.0183158
832.020	0.0183952
832.098	0.0185750
832.176	0.0185273
832.254	0.0184673
832.332	0.0184657
832.410	0.0186150
832.488	0.0186232
832.567	0.0186349
832.645	0.0185319
832.723	0.0185848
832.801	0.0186328
832.879	0.0186810
832.957	0.0184128
833.035	0.0185310
833.113	0.0186209
833.192	0.0184151
833.270	0.0185169
833.348	0.0185916
833.426	0.0184722
833.504	0.0183637
833.582	0.0184221
833.660	0.0185953
833.738	0.0185456
833.817	0.0185139
833.895	0.0185137
833.973	0.0184242
834.051	0.0183932
834.129	0.0185798
834.207	0.0184448
834.285	0.0187119
834.363	0.0187882
834.442	0.0187383
834.520	0.0189175
834.598	0.0187824
834.676	0.0186981
834.754	0.0189120
834.832	0.0187978
834.910	0.0188663
834.988	0.0187187
835.067	0.0186590
835.145	0.0186440
835.223	0.0186449
835.301	0.0185560
835.379	0.0183848
835.457	0.0182948
835.535	0.0182010
835.613	0.0180383
835.692	0.0181059
835.770	0.0180500
835.848	0.0179175
835.926	0.0178593
836.004	0.0177923
836.082	0.0177303
836.160	0.0176449
836.238	0.0177129
836.317	0.0177389
836.395	0.0175776
836.473	0.0176309
836.551	0.0175829
836.629	0.0175204
836.707	0.0174675
836.785	0.0173722
836.863	0.0173624
836.942	0.0173389
837.020	0.0173852
837.098	0.0174281
837.176	0.0173698
837.254	0.0175644
837.332	0.0173737
837.410	0.0173471
837.488	0.0174079
837.567	0.0174754
837.645	0.0173441
837.723	0.0175108
837.801	0.0175780
837.879	0.0176209
837.957	0.0173961
838.035	0.0176201
838.113	0.0177076
838.192	0.0177979
838.270	0.0177299
838.348	0.0179737
838.426	0.0179829
838.504	0.0178743
838.582	0.0180463
838.660	0.0182063
838.738	0.0179991
838.817	0.0183278
838.895	0.0181263
838.973	0.0181301
839.051	0.0184878
839.129	0.0183994
839.207	0.0183598
839.285	0.0185332
839.363	0.0185705
839.442	0.0184472
839.520	0.0185426
839.598	0.0183498
839.676	0.0183472
839.754	0.0183858
839.832	0.0184843
839.910	0.0184038
839.988	0.0184990
840.067	0.0183473
840.145	0.0185126
840.223	0.0184084
840.301	0.0185460
840.379	0.0186647
840.457	0.0185493
840.535	0.0185808
840.613	0.0185357
840.692	0.0186559
840.770	0.0186832
840.848	0.0186198
840.926	0.0186900
841.004	0.0187512
841.082	0.0186182
841.160	0.0187119
841.238	0.0185769
841.317	0.0185880
841.395	0.0185769
841.473	0.0183699
841.551	0.0181765
841.629	0.0183230
841.707	0.0182168
841.785	0.0181039
841.863	0.0180264
841.942	0.0180387
842.020	0.0179400
842.098	0.0178529
842.176	0.0176611
842.254	0.0177795
842.332	0.0176894
842.410	0.0177698
842.488	0.0176228
842.567	0.0177551
842.645	0.0177541
842.723	0.0177569
842.801	0.0177798
842.879	0.0178075
842.957	0.0176949
843.035	0.0178223
843.113	0.0180678
843.192	0.0180119
843.270	0.0180128
843.348	0.0180312
843.426	0.0179456
843.504	0.0180000
843.582	0.0179744
843.660	0.0179565
843.738	0.0180157
843.817	0.0180186
843.895	0.0179592
843.973	0.0179012
844.051	0.0180737
844.129	0.0179377
844.207	0.0180749
844.285	0.0181371
844.363	0.0179010
844.442	0.0178717
844.520	0.0181474
844.598	0.0180190
844.676	0.0179359
844.754	0.0180213
844.832	0.0180585
844.910	0.0179935
844.988	0.0180521
845.067	0.0180254
845.145	0.0179770
845.223	0.0179073
845.301	0.0178699
845.379	0.0180437
845.457	0.0180425
845.535	0.0179865
845.613	0.0179172
845.692	0.0179192
845.770	0.0179327
845.848	0.0179086
845.926	0.0179474
846.004	0.0180435
846.082	0.0181621
846.160	0.0181126
846.238	0.0181512
846.317	0.0181213
846.395	0.0182175
846.473	0.0182742
846.551	0.0183344
846.629	0.0183299
846.707	0.0185155
846.785	0.0185211
846.863	0.0185527
846.942	0.0184084
847.020	0.0184541
847.098	0.0184467
847.176	0.0183768
847.254	0.0184937
847.332	0.0183910
847.410	0.0183642
847.488	0.0182230
847.567	0.0181741
847.645	0.0181056
847.723	0.0179872
847.801	0.0180436
847.879	0.0179939
847.957	0.0178700
848.035	0.0178798
848.113	0.0177712
848.192	0.0177488
848.270	0.0177678
848.348	0.0176875
848.426	0.0177365
848.504	0.0177061
848.582	0.0176864
848.660	0.0177551
848.738	0.0178616
848.817	0.0177567
848.895	0.0180285
848.973	0.0178380
849.051	0.0180399
849.129	0.0181283
849.207	0.0182191
849.285	0.0182230
849.363	0.0181962
849.442	0.0182547
849.520	0.0184582
849.598	0.0184705
849.676	0.0183125
849.754	0.0184328
849.832	0.0184962
849.910	0.0185464
849.988	0.0184793
850.067	0.0185256
850.145	0.0185583
850.223	0.0185107
850.301	0.0185038
850.379	0.0183932
850.457	0.0183743
850.535	0.0183566
850.613	0.0183356
850.692	0.0180599
850.770	0.0181474
850.848	0.0182111
850.926	0.0181273
851.004	0.0179871
851.082	0.0180346
851.160	0.0180009
851.238	0.0180380
851.317	0.0179752
851.395	0.0179408
851.473	0.0180906
851.551	0.0180302
851.629	0.0180910
851.707	0.0181281
851.785	0.0181602
851.863	0.0181912
851.942	0.0182039
852.020	0.0181697
852.098	0.0182700
852.176	0.0181219
852.254	0.0182460
852.332	0.0183025
852.410	0.0181483
852.488	0.0179696
852.567	0.0182203
852.645	0.0181769
852.723	0.0180274
852.801	0.0180679
852.879	0.0181487
852.957	0.0180698
853.035	0.0180756
853.113	0.0180249
853.192	0.0179659
853.270	0.0178412
853.348	0.0178014
853.426	0.0177673
853.504	0.0176649
853.582	0.0177625
853.660	0.0177287
853.738	0.0176756
853.817	0.0176156
853.895	0.0176736
853.973	0.0178577
854.051	0.0176100
854.129	0.0177962
854.207	0.0176275
854.285	0.0177614
854.363	0.0178934
854.442	0.0178445
854.520	0.0179493
854.598	0.0179388
854.676	0.0180082
854.754	0.0181134
854.832	0.0182277
854.910	0.0182308
854.988	0.0181557
855.067	0.0182701
855.145	0.0183255
855.223	0.0182883
855.301	0.0182300
855.379	0.0183807
855.457	0.0184226
855.535	0.0184315
855.613	0.0183848
855.692	0.0185027
855.770	0.0183444
855.848	0.0183868
855.926	0.0185820
856.004	0.0184533
856.082	0.0184607
856.160	0.0185757
856.238	0.0185775
856.317	0.0183617
856.395	0.0183955
856.473	0.0183672
856.551	0.0185283
856.629	0.0182373
856.707	0.0182848
856.785	0.0182634
856.863	0.0182314
856.942	0.0181889
857.020	0.0181446
857.098	0.0181184
857.176	0.0180551
857.254	0.0181419
857.332	0.0181571
857.410	0.0180573
857.488	0.0181724
857.567	0.0181003
857.645	0.0180550
857.723	0.0180177
857.801	0.0180810
857.879	0.0181354
857.957	0.0182588
858.035	0.0181873
858.113	0.0181743
858.192	0.0182526
858.270	0.0182056
858.348	0.0181480
858.426	0.0181254
858.504	0.0181393
858.582	0.0182435
858.660	0.0179858
858.738	0.0180518
858.817	0.0180640
858.895	0.0179409
858.973	0.0176624
859.051	0.0179643
859.129	0.0179356
859.207	0.0176258
859.285	0.0176095
859.363	0.0176598
859.442	0.0177081
859.520	0.0178588
859.598	0.0176964
859.676	0.0175588
859.754	0.0175741
859.832	0.0174735
859.910	0.0175446
859.988	0.0174975
860.067	0.0177348
860.145	0.0175877
860.223	0.0176668
860.301	0.0177457
860.379	0.0177834
860.457	0.0178456
860.535	0.0179294
860.613	0.0178641
860.692	0.0179510
860.770	0.0179466
860.848	0.0179893
860.926	0.0180294
861.004	0.0181247
861.082	0.0181084
861.160	0.0182284
861.238	0.0182222
861.317	0.0183475
861.395	0.0182291
861.473	0.0183384
861.551	0.0183954
861.629	0.0183781
861.707	0.0183967
861.785	0.0185609
861.863	0.0186166
861.942	0.0185843
862.020	0.0186844
862.098	0.0184573
862.176	0.0185657
862.254	0.0186077
862.332	0.0186768
862.410	0.0187281
862.488	0.0186042
862.567	0.0185164
862.645	0.0185574
862.723	0.0184273
862.801	0.0184117
862.879	0.0184373
862.957	0.0184787
863.035	0.0183826
863.113	0.0183034
863.192	0.0182968
863.270	0.0182594
863.348	0.0182679
863.426	0.0181686
863.504	0.0180946
863.582	0.0180904
863.660	0.0180937
863.738	0.0180334
863.817	0.0179520
863.895	0.0179814
863.973	0.0180233
864.051	0.0180260
864.129	0.0178294
864.207	0.0179274
864.285	0.0179014
864.363	0.0179093
864.442	0.0177670
864.520	0.0177166
864.598	0.0179031
864.676	0.0177885
864.754	0.0177942
864.832	0.0177660
864.910	0.0178445
864.988	0.0177657
865.067	0.0177985
865.145	0.0178577
865.223	0.0178371
865.301	0.0177550
865.379	0.0178719
865.457	0.0178486
865.535	0.0179571
865.613	0.0178358
865.692	0.0178310
865.770	0.0179168
865.848	0.0178465
865.926	0.0179130
866.004	0.0178889
866.082	0.0180196
866.160	0.0180576
866.238	0.0178868
866.317	0.0179604
866.395	0.0179282
866.473	0.0181087
866.551	0.0180077
866.629	0.0180094
866.707	0.0181686
866.785	0.0181148
866.863	0.0181551
866.942	0.0180772
867.020	0.0179792
867.098	0.0182071
867.176	0.0181126
867.254	0.0181550
867.332	0.0182430
867.410	0.0182421
867.488	0.0183000
867.567	0.0184700
867.645	0.0183760
867.723	0.0183427
867.801	0.0183954
867.879	0.0182967
867.957	0.0183609
868.035	0.0185667
868.113	0.0183453
868.192	0.0183604
868.270	0.0182714
868.348	0.0183636
868.426	0.0183790
868.504	0.0185017
868.582	0.0184373
868.660	0.0183916
868.738	0.0184708
868.817	0.0184813
868.895	0.0184328
868.973	0.0185159
869.051	0.0184490
869.129	0.0184192
869.207	0.0185571
869.285	0.0184042
869.363	0.0183888
869.442	0.0183402
869.520	0.0184014
869.598	0.0184016
869.676	0.0181721
869.754	0.0183366
869.832	0.0181377
869.910	0.0180608
869.988	0.0180106
870.067	0.0178655
870.145	0.0181425
870.223	0.0180839
870.301	0.0179755
870.379	0.0179562
870.457	0.0180439
870.535	0.0179438
870.613	0.0179552
870.692	0.0178584
870.770	0.0179794
870.848	0.0179813
870.926	0.0180025
871.004	0.0178458
871.082	0.0177094
871.160	0.0179636
871.238	0.0177718
871.317	0.0178606
871.395	0.0179136
871.473	0.0176546
871.551	0.0178399
871.629	0.0178473
871.707	0.0177219
871.785	0.0176760
871.863	0.0178304
871.942	0.0178340
872.020	0.0179037
872.098	0.0177723
872.176	0.0179084
872.254	0.0180881
872.332	0.0180799
872.410	0.0179852
872.488	0.0179575
872.567	0.0182701
872.645	0.0180912
872.723	0.0181158
872.801	0.0182063
872.879	0.0183838
872.957	0.0182099
873.035	0.0183678
873.113	0.0183765
873.192	0.0184171
873.270	0.0184113
873.348	0.0184296
873.426	0.0183202
873.504	0.0184504
873.582	0.0183919
873.660	0.0183634
873.738	0.0183213
873.817	0.0182640
873.895	0.0183067
873.973	0.0184193
874.051	0.0183376
874.129	0.0183114
874.207	0.0180586
874.285	0.0180233
874.363	0.0180746
874.442	0.0181445
874.520	0.0180982
874.598	0.0181081
874.676	0.0180846
874.754	0.0181591
874.832	0.0180992
874.910	0.0180869
874.988	0.0181555
875.067	0.0181792
875.145	0.0182758
875.223	0.0182565
875.301	0.0181662
875.379	0.0181248
875.457	0.0180757
875.535	0.0181510
875.613	0.0182104
875.692	0.0181535
875.770	0.0182282
875.848	0.0182800
875.926	0.0181198
876.004	0.0180296
876.082	0.0180128
876.160	0.0180413
876.238	0.0180752
876.317	0.0180628
876.395	0.0179929
876.473	0.0179940
876.551	0.0179250
876.629	0.0179133
876.707	0.0179032
876.785	0.0179216
876.863	0.0178522
876.942	0.0178413
877.020	0.0177399
877.098	0.0179509
877.176	0.0177652
877.254	0.0177952
877.332	0.0178091
877.410	0.0178704
877.488	0.0178262
877.567	0.0177422
877.645	0.0179776
877.723	0.0179235
877.801	0.0179752
877.879	0.0179044
877.957	0.0180474
878.035	0.0180714
878.113	0.0181976
878.192	0.0180594
878.270	0.0182514
878.348	0.0181225
878.426	0.0182515
878.504	0.0182944
878.582	0.0181908
878.660	0.0183108
878.738	0.0183149
878.817	0.0182504
878.895	0.0182753
878.973	0.0182407
879.051	0.0183136
879.129	0.0182684
879.207	0.0181789
879.285	0.0181707
879.363	0.0182491
879.442	0.0182388
879.520	0.0181310
879.598	0.0181779
879.676	0.0182516
879.754	0.0181824
879.832	0.0182147
879.910	0.0182337
879.988	0.0182657
880.067	0.0181374
880.145	0.0181607
880.223	0.0183029
880.301	0.0181252
880.379	0.0181342
880.457	0.0181458
880.535	0.0181298
880.613	0.0181539
880.692	0.0181356
880.770	0.0180586
880.848	0.0180153
880.926	0.0182639
881.004	0.0181406
881.082	0.0181667
881.160	0.0181586
881.238	0.0180711
881.317	0.0182414
881.395	0.0181226
881.473	0.0180192
881.551	0.0181240
881.629	0.0182034
881.707	0.0181373
881.785	0.0181467
881.863	0.0180866
881.942	0.0180637
882.020	0.0180775
882.098	0.0179982
882.176	0.0180062
882.254	0.0179165
882.332	0.0180347
882.410	0.0179264
882.488	0.0179269
882.567	0.0178896
882.645	0.0182337
882.723	0.0179642
882.801	0.0178504
882.879	0.0179719
882.957	0.0180516
883.035	0.0178407
883.113	0.0178347
883.192	0.0178147
883.270	0.0178693
883.348	0.0179211
883.426	0.0178830
883.504	0.0177769
883.582	0.0178366
883.660	0.0179680
883.738	0.0179786
883.817	0.0179612
883.895	0.0180979
883.973	0.0180864
884.051	0.0180235
884.129	0.0180824
884.207	0.0180484
884.285	0.0181068
884.363	0.0182963
884.442	0.0182149
884.520	0.0182400
884.598	0.0180730
884.676	0.0181890
884.754	0.0182426
884.832	0.0182021
884.910	0.0182224
884.988	0.0182396
885.067	0.0183424
885.145	0.0184215
885.223	0.0182655
885.301	0.0182468
885.379	0.0182689
885.457	0.0182901
885.535	0.0183214
885.613	0.0184503
885.692	0.0184412
885.770	0.0183487
885.848	0.0183482
885.926	0.0183158
886.004	0.0183438
886.082	0.0184143
886.160	0.0184234
886.238	0.0183305
886.317	0.0181985
886.395	0.0182214
886.473	0.0182665
886.551	0.0180362
886.629	0.0181178
886.707	0.0181992
886.785	0.0179935
886.863	0.0178375
886.942	0.0178386
887.020	0.0179482
887.098	0.0178983
887.176	0.0179198
887.254	0.0178286
887.332	0.0178407
887.410	0.0178072
887.488	0.0179386
887.567	0.0178887
887.645	0.0179163
887.723	0.0177487
887.801	0.0179116
887.879	0.0179861
887.957	0.0180962
888.035	0.0182250
888.113	0.0180378
888.192	0.0179835
888.270	0.0180233
888.348	0.0181195
888.426	0.0180304
888.504	0.0181364
888.582	0.0182174
888.660	0.0181178
888.738	0.0182449
888.817	0.0180595
888.895	0.0180614
888.973	0.0181483
889.051	0.0182307
889.129	0.0179076
889.207	0.0179947
889.285	0.0180873
889.363	0.0180238
889.442	0.0179062
889.520	0.0179277
889.598	0.0179126
889.676	0.0180122
889.754	0.0179166
889.832	0.0178748
889.910	0.0179621
889.988	0.0178970
890.067	0.0179290
890.145	0.0177985
890.223	0.0178682
890.301	0.0179336
890.379	0.0179414
890.457	0.0178826
890.535	0.0179444
890.613	0.0178620
890.692	0.0180647
890.770	0.0179403
890.848	0.0180173
890.926	0.0180522
891.004	0.0179723
891.082	0.0180314
891.160	0.0179642
891.238	0.0179605
891.317	0.0179453
891.395	0.0181041
891.473	0.0181007
891.551	0.0180885
891.629	0.0181851
891.707	0.0183434
891.785	0.0183488
891.863	0.0183355
891.942	0.0183759
892.020	0.0184912
892.098	0.0183416
892.176	0.0183504
892.254	0.0184379
892.332	0.0184290
892.410	0.0184786
892.488	0.0182860
892.567	0.0183695
892.645	0.0183725
892.723	0.0181879
892.801	0.0181250
892.879	0.0182801
892.957	0.0181757
893.035	0.0181054
893.113	0.0179698
893.192	0.0180556
893.270	0.0180910
893.348	0.0180555
893.426	0.0181615
893.504	0.0180855
893.582	0.0181831
893.660	0.0181322
893.738	0.0181743
893.817	0.0182945
893.895	0.0181514
893.973	0.0182465
894.051	0.0183038
894.129	0.0184055
894.207	0.0183437
894.285	0.0183237
894.363	0.0184823
894.442	0.0184766
894.520	0.0185080
894.598	0.0184224
894.676	0.0184882
894.754	0.0184826
894.832	0.0184354
894.910	0.0182742
894.988	0.0182999
895.067	0.0181981
895.145	0.0180769
895.223	0.0179955
895.301	0.0180432
895.379	0.0180828
895.457	0.0179447
895.535	0.0177404
895.613	0.0178156
895.692	0.0176910
895.770	0.0176056
895.848	0.0176266
895.926	0.0174199
896.004	0.0176335
896.082	0.0174925
896.160	0.0174587
896.238	0.0175766
896.317	0.0175868
896.395	0.0175179
896.473	0.0176653
896.551	0.0176411
896.629	0.0177685
896.707	0.0178191
896.785	0.0178355
896.863	0.0179203
896.942	0.0179721
897.020	0.0181226
897.098	0.0181017
897.176	0.0180903
897.254	0.0181221
897.332	0.0180846
897.410	0.0183242
897.488	0.0182030
897.567	0.0183295
897.645	0.0182550
897.723	0.0182853
897.801	0.0183546
897.879	0.0182887
897.957	0.0183443
898.035	0.0183282
898.113	0.0183401
898.192	0.0181937
898.270	0.0180508
898.348	0.0182156
898.426	0.0181747
898.504	0.0180865
898.582	0.0180935
898.660	0.0179047
898.738	0.0179735
898.817	0.0179603
898.895	0.0178482
898.973	0.0178883
899.051	0.0179337
899.129	0.0178587
899.207	0.0176987
899.285	0.0177671
899.363	0.0178965
899.442	0.0179387
899.520	0.0179837
899.598	0.0181378
899.676	0.0183001
899.754	0.0183200
899.832	0.0183678
899.910	0.0185556
899.988	0.0186679
900.067	0.0187645
900.145	0.0187902
900.223	0.0188515
900.301	0.0188504
900.379	0.0189012
900.457	0.0188850
900.535	0.0187810
900.613	0.0186656
900.692	0.0186744
900.770	0.0186520
900.848	0.0185591
900.926	0.0181780
901.004	0.0182173
901.082	0.0180890
901.160	0.0179384
901.238	0.0179710
901.317	0.0178560
901.395	0.0176614
901.473	0.0176355
901.551	0.0175764
901.629	0.0175044
901.707	0.0174618
901.785	0.0175144
901.863	0.0173210
901.942	0.0173158
902.020	0.0174965
902.098	0.0177116
902.176	0.0174953
902.254	0.0175148
902.332	0.0177148
902.410	0.0176089
902.488	0.0178418
902.567	0.0178233
902.645	0.0180276
902.723	0.0180088
902.801	0.0179332
902.879	0.0180196
902.957	0.0181620
903.035	0.0181848
903.113	0.0181552
903.192	0.0182770
903.270	0.0183063
903.348	0.0184620
903.426	0.0185332
903.504	0.0185689
903.582	0.0184922
903.660	0.0185070
903.738	0.0187086
903.817	0.0187342
903.895	0.0186033
903.973	0.0185860
904.051	0.0185142
904.129	0.0183776
904.207	0.0182619
904.285	0.0182484
904.363	0.0181461
904.442	0.0178973
904.520	0.0178207
904.598	0.0177470
904.676	0.0176492
904.754	0.0175459
904.832	0.0173750
904.910	0.0173232
904.988	0.0173404
905.067	0.0173422
905.145	0.0171914
905.223	0.0174211
905.301	0.0172302
905.379	0.0173101
905.457	0.0174555
905.535	0.0177190
905.613	0.0177673
905.692	0.0179212
905.770	0.0180188
905.848	0.0180856
905.926	0.0182705
906.004	0.0184364
906.082	0.0183823
906.160	0.0185308
906.238	0.0185416
906.317	0.0186734
906.395	0.0187796
906.473	0.0188226
906.551	0.0186695
906.629	0.0186060
906.707	0.0187436
906.785	0.0186480
906.863	0.0184887
906.942	0.0184690
907.020	0.0183321
907.098	0.0180939
907.176	0.0180614
907.254	0.0181511
907.332	0.0179829
907.410	0.0179623
907.488	0.0179034
907.567	0.0177625
907.645	0.0177720
907.723	0.0178016
907.801	0.0177702
907.879	0.0178818
907.957	0.0179023
908.035	0.0178043
908.113	0.0178415
908.192	0.0179096
908.270	0.0179931
908.348	0.0180376
908.426	0.0180343
908.504	0.0180747
908.582	0.0181187
908.660	0.0181334
908.738	0.0181879
908.817	0.0180398
908.895	0.0181335
908.973	0.0182627
909.051	0.0180230
909.129	0.0180764
909.207	0.0180919
909.285	0.0180619
909.363	0.0181541
909.442	0.0181302
909.520	0.0180850
909.598	0.0182780
909.676	0.0182158
909.754	0.0180933
909.832	0.0181795
909.910	0.0183586
909.988	0.0183743
910.067	0.0183080
910.145	0.0183244
910.223	0.0183302
910.301	0.0183066
910.379	0.0182227
910.457	0.0181664
910.535	0.0182417
910.613	0.0179529
910.692	0.0178586
910.770	0.0178475
910.848	0.0177165
910.926	0.0177219
911.004	0.0175597
911.082	0.0175360
911.160	0.0174116
911.238	0.0175993
911.317	0.0176111
911.395	0.0175291
911.473	0.0177273
911.551	0.0178041
911.629	0.0178574
911.707	0.0180519
911.785	0.0180808
911.863	0.0180865
911.942	0.0182585
912.020	0.0183676
912.098	0.0183745
912.176	0.0184094
912.254	0.0185476
912.332	0.0184105
912.410	0.0185500
912.488	0.0185699
912.567	0.0185583
912.645	0.0184209
912.723	0.0182974
912.801	0.0182534
912.879	0.0183179
912.957	0.0182096
913.035	0.0180099
913.113	0.0177863
913.192	0.0179094
913.270	0.0178890
913.348	0.0175375
913.426	0.0176273
913.504	0.0176334
913.582	0.0175685
913.660	0.0176463
913.738	0.0175602
913.817	0.0176831
913.895	0.0176049
913.973	0.0175916
914.051	0.0178043
914.129	0.0178846
914.207	0.0179245
914.285	0.0178509
914.363	0.0180002
914.442	0.0181197
914.520	0.0181091
914.598	0.0181250
914.676	0.0181260
914.754	0.0183172
914.832	0.0181271
914.910	0.0182259
914.988	0.0181603
915.067	0.0181078
915.145	0.0180743
915.223	0.0180666
915.301	0.0180897
915.379	0.0180603
915.457	0.0181402
915.535	0.0182433
915.613	0.0183602
915.692	0.0182194
915.770	0.0182174
915.848	0.0183407
915.926	0.0181718
916.004	0.0184348
916.082	0.0184988
916.160	0.0184666
916.238	0.0186021
916.317	0.0185204
916.395	0.0184283
916.473	0.0185854
916.551	0.0185648
916.629	0.0184836
916.707	0.0184062
916.785	0.0184724
916.863	0.0182722
916.942	0.0182132
917.020	0.0180146
917.098	0.0179626
917.176	0.0179668
917.254	0.0179022
917.332	0.0178481
917.410	0.0179282
917.488	0.0178257
917.567	0.0176742
917.645	0.0177780
917.723	0.0179182
917.801	0.0177997
917.879	0.0178512
917.957	0.0179053
918.035	0.0180434
918.113	0.0180363
918.192	0.0179121
918.270	0.0179425
918.348	0.0180122
918.426	0.0182523
918.504	0.0181827
918.582	0.0181287
918.660	0.0181364
918.738	0.0183244
918.817	0.0183015
918.895	0.0181728
918.973	0.0181992
919.051	0.0182262
919.129	0.0181441
919.207	0.0181040
919.285	0.0180581
919.363	0.0180490
919.442	0.0179624
919.520	0.0178005
919.598	0.0179240
919.676	0.0179283
919.754	0.0176933
919.832	0.0178864
919.910	0.0177972
