06/01/2022	21:48:13	Ver.	4.1	UNKNOWN
Optical Delay	599.988409	Delta X		0.078125	Sweeps	1	Scan Rate	0/0
Coordinates	Axis 1	NaN	Axis 2	NaN	Axis 3	NaN	Axis 4	NaN	Axis 5	NaN	Axis 6	0.000000
TX Power	0.000000	RX Power	0.000000

599.988	0.0186762
600.067	0.0187354
600.145	0.0187331
600.223	0.0186777
600.301	0.0186141
600.379	0.0187486
600.457	0.0187060
600.535	0.0186150
600.613	0.0185382
600.692	0.0186826
600.770	0.0187690
600.848	0.0186777
600.926	0.0187721
601.004	0.0187463
601.082	0.0186935
601.160	0.0187647
601.238	0.0186893
601.317	0.0185845
601.395	0.0187697
601.473	0.0186440
601.551	0.0187800
601.629	0.0187626
601.707	0.0186772
601.785	0.0186555
601.863	0.0187188
601.942	0.0187089
602.020	0.0186414
602.098	0.0185139
602.176	0.0187650
602.254	0.0188218
602.332	0.0186253
602.410	0.0187544
602.488	0.0185850
602.567	0.0188122
602.645	0.0188412
602.723	0.0185533
602.801	0.0187172
602.879	0.0186821
602.957	0.0186212
603.035	0.0185797
603.113	0.0186385
603.192	0.0186344
603.270	0.0186499
603.348	0.0186276
603.426	0.0187706
603.504	0.0187310
603.582	0.0188338
603.660	0.0186374
603.738	0.0187423
603.817	0.0185560
603.895	0.0187042
603.973	0.0186630
604.051	0.0186644
604.129	0.0188291
604.207	0.0187711
604.285	0.0187533
604.363	0.0186536
604.442	0.0188326
604.520	0.0186331
604.598	0.0187102
604.676	0.0185909
604.754	0.0188496
604.832	0.0187577
604.910	0.0187359
604.988	0.0187186
605.067	0.0186709
605.145	0.0186897
605.223	0.0187179
605.301	0.0187660
605.379	0.0187714
605.457	0.0186049
605.535	0.0186566
605.613	0.0186888
605.692	0.0186927
605.770	0.0187338
605.848	0.0188225
605.926	0.0186950
606.004	0.0186410
606.082	0.0187228
606.160	0.0187764
606.238	0.0186525
606.317	0.0186582
606.395	0.0186015
606.473	0.0186418
606.551	0.0188219
606.629	0.0187155
606.707	0.0186128
606.785	0.0187654
606.863	0.0187482
606.942	0.0186979
607.020	0.0186871
607.098	0.0187031
607.176	0.0186464
607.254	0.0187337
607.332	0.0186214
607.410	0.0186330
607.488	0.0188603
607.567	0.0187447
607.645	0.0187690
607.723	0.0187638
607.801	0.0186997
607.879	0.0186640
607.957	0.0186582
608.035	0.0188003
608.113	0.0187708
608.192	0.0187915
608.270	0.0187071
608.348	0.0186175
608.426	0.0187325
608.504	0.0186266
608.582	0.0187150
608.660	0.0186391
608.738	0.0187223
608.817	0.0187247
608.895	0.0186809
608.973	0.0188269
609.051	0.0187927
609.129	0.0187648
609.207	0.0186776
609.285	0.0187403
609.363	0.0186129
609.442	0.0187189
609.520	0.0186766
609.598	0.0188067
609.676	0.0187802
609.754	0.0187795
609.832	0.0186549
609.910	0.0186656
609.988	0.0186982
610.067	0.0187469
610.145	0.0187266
610.223	0.0187269
610.301	0.0187534
610.379	0.0187943
610.457	0.0188103
610.535	0.0187149
610.613	0.0186861
610.692	0.0187437
610.770	0.0186614
610.848	0.0188155
610.926	0.0186859
611.004	0.0186896
611.082	0.0187827
611.160	0.0187717
611.238	0.0188021
611.317	0.0187382
611.395	0.0188000
611.473	0.0187221
611.551	0.0186250
611.629	0.0188613
611.707	0.0188994
611.785	0.0187169
611.863	0.0187414
611.942	0.0187775
612.020	0.0188636
612.098	0.0187897
612.176	0.0186880
612.254	0.0186349
612.332	0.0187716
612.410	0.0188779
612.488	0.0187859
612.567	0.0187242
612.645	0.0185089
612.723	0.0186454
612.801	0.0187917
612.879	0.0187904
612.957	0.0186591
613.035	0.0187481
613.113	0.0187166
613.192	0.0186923
613.270	0.0187509
613.348	0.0187171
613.426	0.0186901
613.504	0.0186568
613.582	0.0187247
613.660	0.0186891
613.738	0.0188291
613.817	0.0187386
613.895	0.0187086
613.973	0.0186970
614.051	0.0187772
614.129	0.0186864
614.207	0.0186626
614.285	0.0186822
614.363	0.0186393
614.442	0.0187254
614.520	0.0187054
614.598	0.0187231
614.676	0.0187154
614.754	0.0185285
614.832	0.0187276
614.910	0.0187506
614.988	0.0186581
615.067	0.0186982
615.145	0.0186984
615.223	0.0186678
615.301	0.0186126
615.379	0.0185875
615.457	0.0186952
615.535	0.0187253
615.613	0.0188203
615.692	0.0188172
615.770	0.0186745
615.848	0.0186440
615.926	0.0187037
616.004	0.0186240
616.082	0.0187584
616.160	0.0186954
616.238	0.0186067
616.317	0.0187043
616.395	0.0186730
616.473	0.0186731
616.551	0.0187437
616.629	0.0187248
616.707	0.0187138
616.785	0.0186426
616.863	0.0187847
616.942	0.0186405
617.020	0.0186700
617.098	0.0186962
617.176	0.0185419
617.254	0.0186530
617.332	0.0187047
617.410	0.0186754
617.488	0.0188045
617.567	0.0187321
617.645	0.0187572
617.723	0.0185363
617.801	0.0185896
617.879	0.0186254
617.957	0.0186512
618.035	0.0186388
618.113	0.0186666
618.192	0.0186382
618.270	0.0187325
618.348	0.0187412
618.426	0.0187804
618.504	0.0188303
618.582	0.0186667
618.660	0.0187161
618.738	0.0187068
618.817	0.0186083
618.895	0.0187688
618.973	0.0186892
619.051	0.0186578
619.129	0.0185226
619.207	0.0187098
619.285	0.0188699
619.363	0.0188151
619.442	0.0186430
619.520	0.0185941
619.598	0.0187240
619.676	0.0186607
619.754	0.0186433
619.832	0.0186798
619.910	0.0188061
619.988	0.0186338
620.067	0.0185201
620.145	0.0186596
620.223	0.0187222
620.301	0.0187508
620.379	0.0187798
620.457	0.0187038
620.535	0.0187161
620.613	0.0186853
620.692	0.0187191
620.770	0.0187663
620.848	0.0186054
620.926	0.0186805
621.004	0.0186642
621.082	0.0186813
621.160	0.0187750
621.238	0.0186732
621.317	0.0185298
621.395	0.0187024
621.473	0.0187112
621.551	0.0187110
621.629	0.0187094
621.707	0.0186383
621.785	0.0187901
621.863	0.0187287
621.942	0.0186569
622.020	0.0187821
622.098	0.0186681
622.176	0.0187700
622.254	0.0185495
622.332	0.0187612
622.410	0.0187749
622.488	0.0186687
622.567	0.0187422
622.645	0.0186732
622.723	0.0187007
622.801	0.0187289
622.879	0.0186620
622.957	0.0186656
623.035	0.0186316
623.113	0.0188245
623.192	0.0186018
623.270	0.0186403
623.348	0.0188084
623.426	0.0187331
623.504	0.0186954
623.582	0.0187104
623.660	0.0186781
623.738	0.0186819
623.817	0.0188055
623.895	0.0187871
623.973	0.0185984
624.051	0.0185143
624.129	0.0187163
624.207	0.0186459
624.285	0.0186662
624.363	0.0187425
624.442	0.0187263
624.520	0.0186105
624.598	0.0185473
624.676	0.0187711
624.754	0.0186955
624.832	0.0186856
624.910	0.0186520
624.988	0.0186994
625.067	0.0186524
625.145	0.0185310
625.223	0.0186061
625.301	0.0185928
625.379	0.0186504
625.457	0.0186796
625.535	0.0186547
625.613	0.0186678
625.692	0.0187797
625.770	0.0186771
625.848	0.0185690
625.926	0.0186505
626.004	0.0186536
626.082	0.0187182
626.160	0.0187200
626.238	0.0186771
626.317	0.0186154
626.395	0.0187180
626.473	0.0186689
626.551	0.0186758
626.629	0.0187395
626.707	0.0185942
626.785	0.0186163
626.863	0.0187553
626.942	0.0188531
627.020	0.0186833
627.098	0.0186588
627.176	0.0186336
627.254	0.0187514
627.332	0.0186710
627.410	0.0187540
627.488	0.0188570
627.567	0.0187068
627.645	0.0185839
627.723	0.0186934
627.801	0.0187556
627.879	0.0186079
627.957	0.0187134
628.035	0.0187661
628.113	0.0186887
628.192	0.0186731
628.270	0.0186917
628.348	0.0188212
628.426	0.0188009
628.504	0.0186733
628.582	0.0187733
628.660	0.0186684
628.738	0.0188001
628.817	0.0186493
628.895	0.0186578
628.973	0.0186058
629.051	0.0186768
629.129	0.0187876
629.207	0.0188055
629.285	0.0186852
629.363	0.0187491
629.442	0.0187045
629.520	0.0186423
629.598	0.0185735
629.676	0.0186550
629.754	0.0185493
629.832	0.0185944
629.910	0.0187767
629.988	0.0186143
630.067	0.0186004
630.145	0.0187466
630.223	0.0187160
630.301	0.0185870
630.379	0.0186940
630.457	0.0188055
630.535	0.0188098
630.613	0.0187959
630.692	0.0186877
630.770	0.0186716
630.848	0.0185416
630.926	0.0187153
631.004	0.0188271
631.082	0.0186684
631.160	0.0186240
631.238	0.0188120
631.317	0.0187470
631.395	0.0187009
631.473	0.0188205
631.551	0.0186230
631.629	0.0185744
631.707	0.0185113
631.785	0.0187188
631.863	0.0188373
631.942	0.0186005
632.020	0.0186029
632.098	0.0187297
632.176	0.0186665
632.254	0.0186511
632.332	0.0186692
632.410	0.0185946
632.488	0.0187260
632.567	0.0188218
632.645	0.0187357
632.723	0.0187803
632.801	0.0187818
632.879	0.0186868
632.957	0.0186730
633.035	0.0186518
633.113	0.0186841
633.192	0.0187745
633.270	0.0187064
633.348	0.0186885
633.426	0.0187138
633.504	0.0186873
633.582	0.0185504
633.660	0.0187753
633.738	0.0187051
633.817	0.0186933
633.895	0.0187039
633.973	0.0186529
634.051	0.0186444
634.129	0.0187332
634.207	0.0186494
634.285	0.0186103
634.363	0.0187454
634.442	0.0186602
634.520	0.0186344
634.598	0.0186835
634.676	0.0186145
634.754	0.0186665
634.832	0.0187788
634.910	0.0187269
634.988	0.0186593
635.067	0.0187037
635.145	0.0187830
635.223	0.0186747
635.301	0.0187030
635.379	0.0186472
635.457	0.0186667
635.535	0.0186329
635.613	0.0187572
635.692	0.0186928
635.770	0.0186565
635.848	0.0186232
635.926	0.0185270
636.004	0.0187418
636.082	0.0187827
636.160	0.0187072
636.238	0.0186716
636.317	0.0186753
636.395	0.0187714
636.473	0.0187836
636.551	0.0188075
636.629	0.0186250
636.707	0.0186730
636.785	0.0187452
636.863	0.0186417
636.942	0.0185176
637.020	0.0185940
637.098	0.0187755
637.176	0.0186891
637.254	0.0186098
637.332	0.0186411
637.410	0.0186468
637.488	0.0187095
637.567	0.0186400
637.645	0.0187901
637.723	0.0187343
637.801	0.0187620
637.879	0.0187439
637.957	0.0186216
638.035	0.0187409
638.113	0.0186875
638.192	0.0185710
638.270	0.0187280
638.348	0.0188080
638.426	0.0187409
638.504	0.0187053
638.582	0.0186819
638.660	0.0187847
638.738	0.0186329
638.817	0.0187016
638.895	0.0187418
638.973	0.0186558
639.051	0.0187800
639.129	0.0187450
639.207	0.0187707
639.285	0.0187431
639.363	0.0186752
639.442	0.0187282
639.520	0.0187614
639.598	0.0187556
639.676	0.0187165
639.754	0.0188260
639.832	0.0186908
639.910	0.0186415
639.988	0.0186059
640.067	0.0187785
640.145	0.0187212
640.223	0.0187405
640.301	0.0186151
640.379	0.0186018
640.457	0.0186507
640.535	0.0187091
640.613	0.0188416
640.692	0.0187000
640.770	0.0186651
640.848	0.0186167
640.926	0.0186793
641.004	0.0186540
641.082	0.0186158
641.160	0.0187331
641.238	0.0188128
641.317	0.0186485
641.395	0.0186685
641.473	0.0186877
641.551	0.0185586
641.629	0.0187364
641.707	0.0186389
641.785	0.0186660
641.863	0.0187411
641.942	0.0186353
642.020	0.0186527
642.098	0.0186987
642.176	0.0187498
642.254	0.0187473
642.332	0.0185923
642.410	0.0187379
642.488	0.0184940
642.567	0.0187508
642.645	0.0187363
642.723	0.0185760
642.801	0.0185303
642.879	0.0186946
642.957	0.0186852
643.035	0.0186658
643.113	0.0186833
643.192	0.0185472
643.270	0.0187080
643.348	0.0186457
643.426	0.0186472
643.504	0.0186319
643.582	0.0186658
643.660	0.0186630
643.738	0.0187485
643.817	0.0187865
643.895	0.0186854
643.973	0.0186176
644.051	0.0187038
644.129	0.0188069
644.207	0.0187032
644.285	0.0186903
644.363	0.0186945
644.442	0.0187130
644.520	0.0187313
644.598	0.0186988
644.676	0.0186699
644.754	0.0187979
644.832	0.0187052
644.910	0.0186677
644.988	0.0187779
645.067	0.0187659
645.145	0.0185685
645.223	0.0186700
645.301	0.0188235
645.379	0.0186485
645.457	0.0187259
645.535	0.0186961
645.613	0.0186529
645.692	0.0187420
645.770	0.0187145
645.848	0.0187737
645.926	0.0186809
646.004	0.0186553
646.082	0.0187122
646.160	0.0187929
646.238	0.0186388
646.317	0.0186140
646.395	0.0187281
646.473	0.0186131
646.551	0.0187598
646.629	0.0185637
646.707	0.0188409
646.785	0.0186412
646.863	0.0186597
646.942	0.0187581
647.020	0.0186123
647.098	0.0186734
647.176	0.0188044
647.254	0.0186205
647.332	0.0187006
647.410	0.0186913
647.488	0.0187021
647.567	0.0187440
647.645	0.0186678
647.723	0.0187333
647.801	0.0185994
647.879	0.0187005
647.957	0.0186846
648.035	0.0187982
648.113	0.0186612
648.192	0.0187550
648.270	0.0186632
648.348	0.0187308
648.426	0.0188174
648.504	0.0189072
648.582	0.0186880
648.660	0.0186813
648.738	0.0187581
648.817	0.0187425
648.895	0.0188390
648.973	0.0187886
649.051	0.0187095
649.129	0.0186249
649.207	0.0186486
649.285	0.0186983
649.363	0.0186137
649.442	0.0186871
649.520	0.0187352
649.598	0.0186295
649.676	0.0186416
649.754	0.0187408
649.832	0.0189144
649.910	0.0187607
649.988	0.0187487
650.067	0.0188315
650.145	0.0188779
650.223	0.0188160
650.301	0.0189722
650.379	0.0188348
650.457	0.0188667
650.535	0.0189027
650.613	0.0186918
650.692	0.0187249
650.770	0.0187519
650.848	0.0186405
650.926	0.0186160
651.004	0.0186186
651.082	0.0186986
651.160	0.0186936
651.238	0.0185116
651.317	0.0186794
651.395	0.0187499
651.473	0.0185868
651.551	0.0187224
651.629	0.0186559
651.707	0.0187605
651.785	0.0188338
651.863	0.0189211
651.942	0.0188259
652.020	0.0190282
652.098	0.0189831
652.176	0.0188464
652.254	0.0189195
652.332	0.0188469
652.410	0.0187415
652.488	0.0188301
652.567	0.0186053
652.645	0.0185849
652.723	0.0187669
652.801	0.0186020
652.879	0.0187189
652.957	0.0185180
653.035	0.0185303
653.113	0.0187468
653.192	0.0186848
653.270	0.0185979
653.348	0.0186684
653.426	0.0187222
653.504	0.0186224
653.582	0.0187386
653.660	0.0187659
653.738	0.0187818
653.817	0.0188195
653.895	0.0188775
653.973	0.0187972
654.051	0.0188770
654.129	0.0187981
654.207	0.0187313
654.285	0.0187273
654.363	0.0188210
654.442	0.0186908
654.520	0.0187629
654.598	0.0186847
654.676	0.0186186
654.754	0.0186021
654.832	0.0185203
654.910	0.0186733
654.988	0.0185866
655.067	0.0185857
655.145	0.0186352
655.223	0.0186714
655.301	0.0186870
655.379	0.0186250
655.457	0.0185998
655.535	0.0186789
655.613	0.0187086
655.692	0.0187921
655.770	0.0187029
655.848	0.0188214
655.926	0.0188878
656.004	0.0188117
656.082	0.0187790
656.160	0.0187664
656.238	0.0188750
656.317	0.0187482
656.395	0.0188344
656.473	0.0188136
656.551	0.0187232
656.629	0.0186986
656.707	0.0188383
656.785	0.0187016
656.863	0.0186292
656.942	0.0184865
657.020	0.0183962
657.098	0.0184821
657.176	0.0184737
657.254	0.0186325
657.332	0.0184461
657.410	0.0186270
657.488	0.0186452
657.567	0.0186070
657.645	0.0188490
657.723	0.0188982
657.801	0.0187840
657.879	0.0189154
657.957	0.0187836
658.035	0.0189361
658.113	0.0189364
658.192	0.0189040
658.270	0.0188348
658.348	0.0188074
658.426	0.0185971
658.504	0.0185811
658.582	0.0185267
658.660	0.0184492
658.738	0.0184940
658.817	0.0185913
658.895	0.0185468
658.973	0.0185104
659.051	0.0184907
659.129	0.0184431
659.207	0.0185147
659.285	0.0186962
659.363	0.0186999
659.442	0.0186481
659.520	0.0187421
659.598	0.0187270
659.676	0.0186503
659.754	0.0188353
659.832	0.0187852
659.910	0.0187393
659.988	0.0188391
660.067	0.0188265
660.145	0.0187564
660.223	0.0188242
660.301	0.0186860
660.379	0.0188139
660.457	0.0185519
660.535	0.0186069
660.613	0.0184243
660.692	0.0186198
660.770	0.0186709
660.848	0.0186669
660.926	0.0185077
661.004	0.0185393
661.082	0.0184137
661.160	0.0186008
661.238	0.0187477
661.317	0.0187411
661.395	0.0186205
661.473	0.0186861
661.551	0.0188098
661.629	0.0186271
661.707	0.0186436
661.785	0.0185510
661.863	0.0186816
661.942	0.0186149
662.020	0.0186578
662.098	0.0188786
662.176	0.0187606
662.254	0.0187363
662.332	0.0186024
662.410	0.0186816
662.488	0.0188467
662.567	0.0185184
662.645	0.0186703
662.723	0.0186140
662.801	0.0187058
662.879	0.0186143
662.957	0.0184978
663.035	0.0185794
663.113	0.0185932
663.192	0.0185192
663.270	0.0186810
663.348	0.0187157
663.426	0.0186340
663.504	0.0187002
663.582	0.0186324
663.660	0.0188035
663.738	0.0187027
663.817	0.0186111
663.895	0.0185472
663.973	0.0186553
664.051	0.0186452
664.129	0.0185704
664.207	0.0186386
664.285	0.0186644
664.363	0.0186093
664.442	0.0187473
664.520	0.0188012
664.598	0.0188303
664.676	0.0188361
664.754	0.0188721
664.832	0.0187672
664.910	0.0187198
664.988	0.0188132
665.067	0.0188829
665.145	0.0188463
665.223	0.0187369
665.301	0.0187076
665.379	0.0188639
665.457	0.0187404
665.535	0.0186758
665.613	0.0186804
665.692	0.0184999
665.770	0.0184703
665.848	0.0185649
665.926	0.0185378
666.004	0.0184690
666.082	0.0185499
666.160	0.0186420
666.238	0.0185851
666.317	0.0186115
666.395	0.0186440
666.473	0.0185515
666.551	0.0187814
666.629	0.0187881
666.707	0.0187666
666.785	0.0188350
666.863	0.0189554
666.942	0.0189419
667.020	0.0189215
667.098	0.0189586
667.176	0.0190099
667.254	0.0188888
667.332	0.0186688
667.410	0.0188910
667.488	0.0186834
667.567	0.0186581
667.645	0.0186964
667.723	0.0185710
667.801	0.0185555
667.879	0.0185193
667.957	0.0183734
668.035	0.0183895
668.113	0.0183676
668.192	0.0185467
668.270	0.0184678
668.348	0.0184059
668.426	0.0185635
668.504	0.0185770
668.582	0.0187679
668.660	0.0186114
668.738	0.0188107
668.817	0.0189413
668.895	0.0189342
668.973	0.0189581
669.051	0.0189604
669.129	0.0190485
669.207	0.0191586
669.285	0.0189426
669.363	0.0189941
669.442	0.0189377
669.520	0.0188460
669.598	0.0188173
669.676	0.0187872
669.754	0.0185709
669.832	0.0185281
669.910	0.0186413
669.988	0.0186031
670.067	0.0184289
670.145	0.0185168
670.223	0.0183272
670.301	0.0184634
670.379	0.0183743
670.457	0.0185073
670.535	0.0184888
670.613	0.0186170
670.692	0.0187092
670.770	0.0188204
670.848	0.0187156
670.926	0.0187755
671.004	0.0190141
671.082	0.0188480
671.160	0.0188067
671.238	0.0189250
671.317	0.0189120
671.395	0.0189099
671.473	0.0190398
671.551	0.0187782
671.629	0.0189768
671.707	0.0188490
671.785	0.0188209
671.863	0.0186897
671.942	0.0186364
672.020	0.0186449
672.098	0.0184730
672.176	0.0183926
672.254	0.0186298
672.332	0.0184168
672.410	0.0183630
672.488	0.0184968
672.567	0.0186178
672.645	0.0186420
672.723	0.0185809
672.801	0.0186044
672.879	0.0187375
672.957	0.0189320
673.035	0.0189631
673.113	0.0189644
673.192	0.0190336
673.270	0.0189893
673.348	0.0189298
673.426	0.0190574
673.504	0.0188870
673.582	0.0189440
673.660	0.0187803
673.738	0.0187460
673.817	0.0189276
673.895	0.0187408
673.973	0.0187276
674.051	0.0188593
674.129	0.0187309
674.207	0.0188088
674.285	0.0187010
674.363	0.0187450
674.442	0.0187785
674.520	0.0186628
674.598	0.0186945
674.676	0.0186184
674.754	0.0187582
674.832	0.0187639
674.910	0.0188340
674.988	0.0188567
675.067	0.0186948
675.145	0.0187089
675.223	0.0186763
675.301	0.0187196
675.379	0.0186505
675.457	0.0187555
675.535	0.0186890
675.613	0.0186086
675.692	0.0185898
675.770	0.0186929
675.848	0.0187450
675.926	0.0186462
676.004	0.0185959
676.082	0.0184710
676.160	0.0184093
676.238	0.0185185
676.317	0.0185201
676.395	0.0182985
676.473	0.0182930
676.551	0.0182594
676.629	0.0184137
676.707	0.0185103
676.785	0.0184541
676.863	0.0187299
676.942	0.0187609
677.020	0.0188321
677.098	0.0189224
677.176	0.0189693
677.254	0.0187805
677.332	0.0189004
677.410	0.0189857
677.488	0.0189082
677.567	0.0189011
677.645	0.0187944
677.723	0.0187106
677.801	0.0189931
677.879	0.0187520
677.957	0.0187146
678.035	0.0188190
678.113	0.0187670
678.192	0.0186332
678.270	0.0187484
678.348	0.0187991
678.426	0.0189064
678.504	0.0188900
678.582	0.0189526
678.660	0.0189243
678.738	0.0190100
678.817	0.0189671
678.895	0.0188709
678.973	0.0189810
679.051	0.0189365
679.129	0.0189376
679.207	0.0188731
679.285	0.0187389
679.363	0.0186643
679.442	0.0185104
679.520	0.0184071
679.598	0.0183899
679.676	0.0182241
679.754	0.0180972
679.832	0.0181043
679.910	0.0180518
679.988	0.0180866
680.067	0.0180487
680.145	0.0180464
680.223	0.0180611
680.301	0.0182420
680.379	0.0182079
680.457	0.0183938
680.535	0.0183834
680.613	0.0187402
680.692	0.0188632
680.770	0.0191169
680.848	0.0193213
680.926	0.0195518
681.004	0.0196550
681.082	0.0198126
681.160	0.0198965
681.238	0.0197784
681.317	0.0197160
681.395	0.0197150
681.473	0.0195525
681.551	0.0191812
681.629	0.0190632
681.707	0.0189772
681.785	0.0185107
681.863	0.0182514
681.942	0.0180286
682.020	0.0178018
682.098	0.0175954
682.176	0.0175486
682.254	0.0175388
682.332	0.0174482
682.410	0.0174164
682.488	0.0175976
682.567	0.0176163
682.645	0.0176898
682.723	0.0178781
682.801	0.0180231
682.879	0.0182776
682.957	0.0185155
683.035	0.0187445
683.113	0.0188407
683.192	0.0190940
683.270	0.0191022
683.348	0.0194021
683.426	0.0194762
683.504	0.0194749
683.582	0.0194637
683.660	0.0195313
683.738	0.0194759
683.817	0.0193774
683.895	0.0194830
683.973	0.0194143
684.051	0.0195175
684.129	0.0194278
684.207	0.0193704
684.285	0.0193942
684.363	0.0192814
684.442	0.0191991
684.520	0.0192090
684.598	0.0189950
684.676	0.0188427
684.754	0.0185141
684.832	0.0182579
684.910	0.0181470
684.988	0.0178893
685.067	0.0176709
685.145	0.0175140
685.223	0.0173550
685.301	0.0172739
685.379	0.0172789
685.457	0.0173956
685.535	0.0174902
685.613	0.0175153
685.692	0.0177268
685.770	0.0178764
685.848	0.0181333
685.926	0.0182948
686.004	0.0184732
686.082	0.0186454
686.160	0.0187154
686.238	0.0189794
686.317	0.0191828
686.395	0.0195897
686.473	0.0196730
686.551	0.0198123
686.629	0.0200536
686.707	0.0201679
686.785	0.0203552
686.863	0.0201948
686.942	0.0204243
687.020	0.0202572
687.098	0.0202007
687.176	0.0201738
687.254	0.0200267
687.332	0.0196940
687.410	0.0194082
687.488	0.0192690
687.567	0.0189423
687.645	0.0185807
687.723	0.0184364
687.801	0.0181945
687.879	0.0179414
687.957	0.0177289
688.035	0.0174892
688.113	0.0172925
688.192	0.0171806
688.270	0.0170457
688.348	0.0170315
688.426	0.0168051
688.504	0.0168605
688.582	0.0167997
688.660	0.0170715
688.738	0.0170011
688.817	0.0170557
688.895	0.0171119
688.973	0.0172983
689.051	0.0173941
689.129	0.0177283
689.207	0.0176676
689.285	0.0179507
689.363	0.0182826
689.442	0.0183937
689.520	0.0187409
689.598	0.0188737
689.676	0.0191167
689.754	0.0194855
689.832	0.0197835
689.910	0.0200411
689.988	0.0202888
690.067	0.0205533
690.145	0.0207159
690.223	0.0210902
690.301	0.0211436
690.379	0.0212160
690.457	0.0215089
690.535	0.0213969
690.613	0.0214129
690.692	0.0211790
690.770	0.0210056
690.848	0.0206886
690.926	0.0203613
691.004	0.0201137
691.082	0.0196300
691.160	0.0191825
691.238	0.0188228
691.317	0.0184074
691.395	0.0179915
691.473	0.0174564
691.551	0.0170639
691.629	0.0168208
691.707	0.0165064
691.785	0.0162376
691.863	0.0161031
691.942	0.0161051
692.020	0.0160816
692.098	0.0161311
692.176	0.0162479
692.254	0.0163707
692.332	0.0167780
692.410	0.0169772
692.488	0.0172887
692.567	0.0176024
692.645	0.0176923
692.723	0.0179642
692.801	0.0180910
692.879	0.0185298
692.957	0.0186171
693.035	0.0186806
693.113	0.0190505
693.192	0.0191661
693.270	0.0192966
693.348	0.0196590
693.426	0.0196607
693.504	0.0197270
693.582	0.0200625
693.660	0.0203453
693.738	0.0204340
693.817	0.0205186
693.895	0.0205056
693.973	0.0205396
694.051	0.0204937
694.129	0.0205033
694.207	0.0202532
694.285	0.0202143
694.363	0.0198798
694.442	0.0197929
694.520	0.0196040
694.598	0.0193355
694.676	0.0190951
694.754	0.0190152
694.832	0.0186913
694.910	0.0184483
694.988	0.0183195
695.067	0.0181341
695.145	0.0179428
695.223	0.0177164
695.301	0.0173804
695.379	0.0174586
695.457	0.0173405
695.535	0.0172420
695.613	0.0172701
695.692	0.0172107
695.770	0.0172886
695.848	0.0174530
695.926	0.0176251
696.004	0.0177497
696.082	0.0178493
696.160	0.0179066
696.238	0.0182491
696.317	0.0183795
696.395	0.0186569
696.473	0.0187125
696.551	0.0188416
696.629	0.0189204
696.707	0.0191689
696.785	0.0192567
696.863	0.0195074
696.942	0.0198017
697.020	0.0197675
697.098	0.0200114
697.176	0.0201836
697.254	0.0203145
697.332	0.0202832
697.410	0.0203698
697.488	0.0203070
697.567	0.0202286
697.645	0.0202416
697.723	0.0199976
697.801	0.0199730
697.879	0.0195618
697.957	0.0194733
698.035	0.0192471
698.113	0.0190084
698.192	0.0186507
698.270	0.0182271
698.348	0.0178735
698.426	0.0176244
698.504	0.0173257
698.582	0.0169643
698.660	0.0167793
698.738	0.0166989
698.817	0.0167785
698.895	0.0169777
698.973	0.0170968
699.051	0.0172691
699.129	0.0176612
699.207	0.0179275
699.285	0.0182014
699.363	0.0184645
699.442	0.0185191
699.520	0.0188477
699.598	0.0188292
699.676	0.0187333
699.754	0.0187054
699.832	0.0187691
699.910	0.0186607
699.988	0.0184522
700.067	0.0185136
700.145	0.0184414
700.223	0.0182845
700.301	0.0185040
700.379	0.0184978
700.457	0.0185023
700.535	0.0186180
700.613	0.0185532
700.692	0.0187093
700.770	0.0186881
700.848	0.0189828
700.926	0.0189880
701.004	0.0189590
701.082	0.0190674
701.160	0.0192640
701.238	0.0194419
701.317	0.0197035
701.395	0.0197932
701.473	0.0201072
701.551	0.0204467
701.629	0.0203397
701.707	0.0205422
701.785	0.0207741
701.863	0.0208622
701.942	0.0207162
702.020	0.0207417
702.098	0.0205289
702.176	0.0205638
702.254	0.0203347
702.332	0.0198839
702.410	0.0197206
702.488	0.0193104
702.567	0.0189578
702.645	0.0185272
702.723	0.0183145
702.801	0.0181260
702.879	0.0177332
702.957	0.0178133
703.035	0.0175146
703.113	0.0175130
703.192	0.0175893
703.270	0.0173950
703.348	0.0176018
703.426	0.0177831
703.504	0.0178066
703.582	0.0177965
703.660	0.0178546
703.738	0.0177877
703.817	0.0177593
703.895	0.0177020
703.973	0.0176557
704.051	0.0173069
704.129	0.0172657
704.207	0.0170462
704.285	0.0168896
704.363	0.0167364
704.442	0.0164514
704.520	0.0163380
704.598	0.0162927
704.676	0.0162228
704.754	0.0161700
704.832	0.0162505
704.910	0.0163283
704.988	0.0166035
705.067	0.0168739
705.145	0.0170045
705.223	0.0172662
705.301	0.0178001
705.379	0.0181625
705.457	0.0187151
705.535	0.0190096
705.613	0.0197010
705.692	0.0201577
705.770	0.0204506
705.848	0.0211831
705.926	0.0213797
706.004	0.0217281
706.082	0.0219108
706.160	0.0220880
706.238	0.0219790
706.317	0.0217877
706.395	0.0216157
706.473	0.0213779
706.551	0.0212959
706.629	0.0210024
706.707	0.0207578
706.785	0.0204195
706.863	0.0200881
706.942	0.0199627
707.020	0.0196517
707.098	0.0194414
707.176	0.0193122
707.254	0.0192121
707.332	0.0190998
707.410	0.0190004
707.488	0.0190928
707.567	0.0192224
707.645	0.0191782
707.723	0.0194584
707.801	0.0194563
707.879	0.0196163
707.957	0.0197821
708.035	0.0200460
708.113	0.0201783
708.192	0.0201756
708.270	0.0201794
708.348	0.0201416
708.426	0.0198914
708.504	0.0195762
708.582	0.0192113
708.660	0.0189545
708.738	0.0184791
708.817	0.0180418
708.895	0.0175864
708.973	0.0172516
709.051	0.0167956
709.129	0.0162563
709.207	0.0158638
709.285	0.0155754
709.363	0.0151443
709.442	0.0146011
709.520	0.0144728
709.598	0.0141124
709.676	0.0139534
709.754	0.0138227
709.832	0.0136983
709.910	0.0138145
709.988	0.0139537
710.067	0.0141428
710.145	0.0143524
710.223	0.0146120
710.301	0.0148409
710.379	0.0151647
710.457	0.0155235
710.535	0.0157315
710.613	0.0160965
710.692	0.0165590
710.770	0.0169431
710.848	0.0173567
710.926	0.0178532
711.004	0.0182555
711.082	0.0190315
711.160	0.0195898
711.238	0.0200779
711.317	0.0207277
711.395	0.0213867
711.473	0.0220151
711.551	0.0226116
711.629	0.0230550
711.707	0.0235818
711.785	0.0241344
711.863	0.0244303
711.942	0.0246544
712.020	0.0247838
712.098	0.0249346
712.176	0.0248803
712.254	0.0248318
712.332	0.0245734
712.410	0.0240952
712.488	0.0238153
712.567	0.0233099
712.645	0.0228571
712.723	0.0220733
712.801	0.0215115
712.879	0.0208426
712.957	0.0202239
713.035	0.0196915
713.113	0.0192791
713.192	0.0187821
713.270	0.0182755
713.348	0.0180605
713.426	0.0178939
713.504	0.0175924
713.582	0.0172760
713.660	0.0170606
713.738	0.0170153
713.817	0.0169249
713.895	0.0168063
713.973	0.0168528
714.051	0.0168726
714.129	0.0168918
714.207	0.0170148
714.285	0.0173044
714.363	0.0172115
714.442	0.0173554
714.520	0.0174718
714.598	0.0174783
714.676	0.0172755
714.754	0.0172575
714.832	0.0172268
714.910	0.0167663
714.988	0.0164838
715.067	0.0160715
715.145	0.0158466
715.223	0.0155221
715.301	0.0153565
715.379	0.0151399
715.457	0.0149710
715.535	0.0150135
715.613	0.0148466
715.692	0.0148261
715.770	0.0149984
715.848	0.0151086
715.926	0.0149792
716.004	0.0150660
716.082	0.0153558
716.160	0.0153143
716.238	0.0154565
716.317	0.0154756
716.395	0.0158441
716.473	0.0158904
716.551	0.0160241
716.629	0.0163327
716.707	0.0167389
716.785	0.0169949
716.863	0.0173965
716.942	0.0177092
717.020	0.0182296
717.098	0.0187354
717.176	0.0192692
717.254	0.0199457
717.332	0.0206163
717.410	0.0211534
717.488	0.0218445
717.567	0.0225156
717.645	0.0230801
717.723	0.0239352
717.801	0.0245618
717.879	0.0251181
717.957	0.0254686
718.035	0.0258128
718.113	0.0261424
718.192	0.0262340
718.270	0.0261600
718.348	0.0259808
718.426	0.0256911
718.504	0.0254389
718.582	0.0249448
718.660	0.0242323
718.738	0.0235262
718.817	0.0226165
718.895	0.0217100
718.973	0.0209415
719.051	0.0200940
719.129	0.0190827
719.207	0.0183791
719.285	0.0177798
719.363	0.0172395
719.442	0.0168288
719.520	0.0165483
719.598	0.0164028
719.676	0.0162402
719.754	0.0163797
719.832	0.0165892
719.910	0.0167268
719.988	0.0169760
720.067	0.0172905
720.145	0.0175762
720.223	0.0178188
720.301	0.0180915
720.379	0.0183125
720.457	0.0182355
720.535	0.0182152
720.613	0.0180791
720.692	0.0177996
720.770	0.0173202
720.848	0.0169593
720.926	0.0164375
721.004	0.0157285
721.082	0.0150777
721.160	0.0145107
721.238	0.0141331
721.317	0.0134488
721.395	0.0131496
721.473	0.0128907
721.551	0.0127970
721.629	0.0128504
721.707	0.0128634
721.785	0.0130283
721.863	0.0135783
721.942	0.0140218
722.020	0.0144502
722.098	0.0146490
722.176	0.0153082
722.254	0.0160173
722.332	0.0161108
722.410	0.0166438
722.488	0.0170181
722.567	0.0172672
722.645	0.0175999
722.723	0.0178669
722.801	0.0181348
722.879	0.0181509
722.957	0.0182884
723.035	0.0185784
723.113	0.0189381
723.192	0.0192048
723.270	0.0196076
723.348	0.0198841
723.426	0.0203917
723.504	0.0208308
723.582	0.0215591
723.660	0.0220699
723.738	0.0227794
723.817	0.0233297
723.895	0.0239558
723.973	0.0244485
724.051	0.0251717
724.129	0.0256177
724.207	0.0258120
724.285	0.0262058
724.363	0.0261678
724.442	0.0259991
724.520	0.0257171
724.598	0.0255366
724.676	0.0249884
724.754	0.0244904
724.832	0.0237405
724.910	0.0231207
724.988	0.0223265
725.067	0.0215266
725.145	0.0207181
725.223	0.0200818
725.301	0.0193061
725.379	0.0188794
725.457	0.0183170
725.535	0.0177377
725.613	0.0174410
725.692	0.0173021
725.770	0.0170905
725.848	0.0170915
725.926	0.0170870
726.004	0.0172733
726.082	0.0174200
726.160	0.0176620
726.238	0.0178679
726.317	0.0182498
726.395	0.0184992
726.473	0.0186243
726.551	0.0186718
726.629	0.0187910
726.707	0.0186622
726.785	0.0185689
726.863	0.0183868
726.942	0.0178722
727.020	0.0172931
727.098	0.0167072
727.176	0.0160961
727.254	0.0152210
727.332	0.0143724
727.410	0.0138780
727.488	0.0129117
727.567	0.0121162
727.645	0.0115272
727.723	0.0111587
727.801	0.0108332
727.879	0.0108920
727.957	0.0107823
728.035	0.0109939
728.113	0.0114760
728.192	0.0119296
728.270	0.0126625
728.348	0.0133716
728.426	0.0142168
728.504	0.0151269
728.582	0.0160600
728.660	0.0168244
728.738	0.0175899
728.817	0.0183215
728.895	0.0189936
728.973	0.0195428
729.051	0.0200080
729.129	0.0203271
729.207	0.0206946
729.285	0.0210323
729.363	0.0212250
729.442	0.0214623
729.520	0.0215855
729.598	0.0218202
729.676	0.0218414
729.754	0.0219824
729.832	0.0221550
729.910	0.0223717
729.988	0.0226112
730.067	0.0229197
730.145	0.0232814
730.223	0.0234104
730.301	0.0235712
730.379	0.0239352
730.457	0.0241484
730.535	0.0242975
730.613	0.0243641
730.692	0.0242413
730.770	0.0241203
730.848	0.0238758
730.926	0.0237217
731.004	0.0233329
731.082	0.0230125
731.160	0.0226914
731.238	0.0219902
731.317	0.0214388
731.395	0.0208707
731.473	0.0205552
731.551	0.0200435
731.629	0.0196069
731.707	0.0192888
731.785	0.0188759
731.863	0.0185516
731.942	0.0184946
732.020	0.0183306
732.098	0.0180559
732.176	0.0180876
732.254	0.0180212
732.332	0.0181252
732.410	0.0179883
732.488	0.0180506
732.567	0.0182806
732.645	0.0181423
732.723	0.0180000
732.801	0.0181456
732.879	0.0178335
732.957	0.0176413
733.035	0.0175395
733.113	0.0172295
733.192	0.0170695
733.270	0.0166912
733.348	0.0162804
733.426	0.0160087
733.504	0.0155177
733.582	0.0151141
733.660	0.0145538
733.738	0.0143122
733.817	0.0138752
733.895	0.0134943
733.973	0.0132392
734.051	0.0132306
734.129	0.0131787
734.207	0.0129396
734.285	0.0130740
734.363	0.0133413
734.442	0.0134981
734.520	0.0134487
734.598	0.0138681
734.676	0.0141647
734.754	0.0144229
734.832	0.0148347
734.910	0.0153201
734.988	0.0156422
735.067	0.0160113
735.145	0.0164903
735.223	0.0169845
735.301	0.0176678
735.379	0.0183308
735.457	0.0187917
735.535	0.0196249
735.613	0.0203493
735.692	0.0209724
735.770	0.0214424
735.848	0.0219074
735.926	0.0224821
736.004	0.0228440
736.082	0.0231705
736.160	0.0234491
736.238	0.0234380
736.317	0.0236779
736.395	0.0235706
736.473	0.0235638
736.551	0.0231321
736.629	0.0229955
736.707	0.0226611
736.785	0.0225666
736.863	0.0221815
736.942	0.0218553
737.020	0.0218261
737.098	0.0215723
737.176	0.0212411
737.254	0.0209439
737.332	0.0208505
737.410	0.0208710
737.488	0.0206866
737.567	0.0209154
737.645	0.0207536
737.723	0.0207150
737.801	0.0206353
737.879	0.0204678
737.957	0.0203381
738.035	0.0202432
738.113	0.0202311
738.192	0.0198431
738.270	0.0197053
738.348	0.0195734
738.426	0.0193374
738.504	0.0195520
738.582	0.0191792
738.660	0.0190829
738.738	0.0191024
738.817	0.0190865
738.895	0.0188847
738.973	0.0187681
739.051	0.0187903
739.129	0.0186002
739.207	0.0183750
739.285	0.0182911
739.363	0.0181461
739.442	0.0177424
739.520	0.0174380
739.598	0.0170086
739.676	0.0166638
739.754	0.0163927
739.832	0.0159592
739.910	0.0156705
739.988	0.0154796
740.067	0.0153420
740.145	0.0151723
740.223	0.0150147
740.301	0.0150102
740.379	0.0149198
740.457	0.0149478
740.535	0.0148790
740.613	0.0149117
740.692	0.0149901
740.770	0.0148930
740.848	0.0149858
740.926	0.0149767
741.004	0.0150134
741.082	0.0148930
741.160	0.0149107
741.238	0.0150027
741.317	0.0149249
741.395	0.0152444
741.473	0.0155706
741.551	0.0157329
741.629	0.0162422
741.707	0.0167731
741.785	0.0172854
741.863	0.0175520
741.942	0.0183118
742.020	0.0188033
742.098	0.0195569
742.176	0.0201756
742.254	0.0206194
742.332	0.0211391
742.410	0.0215675
742.488	0.0218248
742.567	0.0220334
742.645	0.0221626
742.723	0.0220818
742.801	0.0220227
742.879	0.0220145
742.957	0.0217773
743.035	0.0216074
743.113	0.0216074
743.192	0.0213870
743.270	0.0212970
743.348	0.0211855
743.426	0.0210198
743.504	0.0211581
743.582	0.0211182
743.660	0.0212369
743.738	0.0212099
743.817	0.0213590
743.895	0.0213955
743.973	0.0214677
744.051	0.0214261
744.129	0.0213914
744.207	0.0214455
744.285	0.0212453
744.363	0.0209718
744.442	0.0206258
744.520	0.0204067
744.598	0.0200201
744.676	0.0199326
744.754	0.0194601
744.832	0.0192013
744.910	0.0189912
744.988	0.0187000
745.067	0.0187189
745.145	0.0186078
745.223	0.0185268
745.301	0.0185466
745.379	0.0185874
745.457	0.0185007
745.535	0.0186904
745.613	0.0188974
745.692	0.0188284
745.770	0.0188476
745.848	0.0188963
745.926	0.0187677
746.004	0.0186304
746.082	0.0185792
746.160	0.0183424
746.238	0.0180126
746.317	0.0179167
746.395	0.0178571
746.473	0.0174029
746.551	0.0171289
746.629	0.0167641
746.707	0.0164194
746.785	0.0161692
746.863	0.0159603
746.942	0.0158678
747.020	0.0154808
747.098	0.0154333
747.176	0.0153595
747.254	0.0152599
747.332	0.0150414
747.410	0.0151287
747.488	0.0152499
747.567	0.0153392
747.645	0.0154620
747.723	0.0156961
747.801	0.0158987
747.879	0.0162476
747.957	0.0165686
748.035	0.0169104
748.113	0.0173885
748.192	0.0176876
748.270	0.0177627
748.348	0.0182075
748.426	0.0184410
748.504	0.0185748
748.582	0.0186275
748.660	0.0186612
748.738	0.0187099
748.817	0.0187466
748.895	0.0187656
748.973	0.0187485
749.051	0.0186310
749.129	0.0187328
749.207	0.0187991
749.285	0.0190005
749.363	0.0193597
749.442	0.0193307
749.520	0.0195593
749.598	0.0197067
749.676	0.0200836
749.754	0.0204092
749.832	0.0207600
749.910	0.0211604
749.988	0.0213320
750.067	0.0218031
750.145	0.0219244
750.223	0.0221235
750.301	0.0221432
750.379	0.0222214
750.457	0.0221352
750.535	0.0216983
750.613	0.0214974
750.692	0.0213329
750.770	0.0209084
750.848	0.0205022
750.926	0.0201403
751.004	0.0198042
751.082	0.0194341
751.160	0.0192046
751.238	0.0190401
751.317	0.0188039
751.395	0.0187303
751.473	0.0185867
751.551	0.0185438
751.629	0.0186564
751.707	0.0187577
751.785	0.0189776
751.863	0.0191704
751.942	0.0193074
752.020	0.0196564
752.098	0.0196481
752.176	0.0198476
752.254	0.0199865
752.332	0.0197591
752.410	0.0197559
752.488	0.0198074
752.567	0.0194930
752.645	0.0193089
752.723	0.0192613
752.801	0.0188442
752.879	0.0185365
752.957	0.0183017
753.035	0.0179478
753.113	0.0175803
753.192	0.0171674
753.270	0.0169803
753.348	0.0167345
753.426	0.0166127
753.504	0.0164468
753.582	0.0163074
753.660	0.0163854
753.738	0.0164239
753.817	0.0164120
753.895	0.0164874
753.973	0.0167015
754.051	0.0168923
754.129	0.0170605
754.207	0.0171945
754.285	0.0174211
754.363	0.0174963
754.442	0.0175465
754.520	0.0178430
754.598	0.0179660
754.676	0.0178458
754.754	0.0177914
754.832	0.0177875
754.910	0.0178197
754.988	0.0176385
755.067	0.0175591
755.145	0.0174140
755.223	0.0173145
755.301	0.0171482
755.379	0.0171453
755.457	0.0171999
755.535	0.0172974
755.613	0.0172557
755.692	0.0173470
755.770	0.0176637
755.848	0.0179526
755.926	0.0181585
756.004	0.0183892
756.082	0.0187231
756.160	0.0191695
756.238	0.0192278
756.317	0.0195515
756.395	0.0198574
756.473	0.0200453
756.551	0.0202542
756.629	0.0202156
756.707	0.0201438
756.785	0.0201396
756.863	0.0201880
756.942	0.0200001
757.020	0.0198203
757.098	0.0197286
757.176	0.0196650
757.254	0.0195291
757.332	0.0193108
757.410	0.0193095
757.488	0.0192921
757.567	0.0193722
757.645	0.0194586
757.723	0.0192582
757.801	0.0195694
757.879	0.0198055
757.957	0.0200014
758.035	0.0201180
758.113	0.0203883
758.192	0.0206657
758.270	0.0209464
758.348	0.0208556
758.426	0.0209675
758.504	0.0210825
758.582	0.0210415
758.660	0.0207467
758.738	0.0206521
758.817	0.0204787
758.895	0.0201719
758.973	0.0198534
759.051	0.0194527
759.129	0.0191574
759.207	0.0187115
759.285	0.0181455
759.363	0.0179892
759.442	0.0177396
759.520	0.0174954
759.598	0.0174409
759.676	0.0173790
759.754	0.0173389
759.832	0.0172839
759.910	0.0172589
759.988	0.0175473
760.067	0.0176833
760.145	0.0178292
760.223	0.0179351
760.301	0.0181803
760.379	0.0184370
760.457	0.0185147
760.535	0.0187215
760.613	0.0188643
760.692	0.0189485
760.770	0.0189632
760.848	0.0190299
760.926	0.0187199
761.004	0.0186267
761.082	0.0185188
761.160	0.0185215
761.238	0.0181681
761.317	0.0178924
761.395	0.0175577
761.473	0.0172073
761.551	0.0172029
761.629	0.0167078
761.707	0.0166445
761.785	0.0165903
761.863	0.0164274
761.942	0.0165348
762.020	0.0167523
762.098	0.0168036
762.176	0.0169602
762.254	0.0172696
762.332	0.0174412
762.410	0.0178378
762.488	0.0181055
762.567	0.0182176
762.645	0.0186382
762.723	0.0189246
762.801	0.0189301
762.879	0.0189251
762.957	0.0189404
763.035	0.0190511
763.113	0.0189098
763.192	0.0188375
763.270	0.0185859
763.348	0.0185693
763.426	0.0183792
763.504	0.0182007
763.582	0.0181524
763.660	0.0182296
763.738	0.0180872
763.817	0.0181966
763.895	0.0182520
763.973	0.0182897
764.051	0.0184629
764.129	0.0188644
764.207	0.0189957
764.285	0.0192435
764.363	0.0195734
764.442	0.0198251
764.520	0.0201154
764.598	0.0203197
764.676	0.0205341
764.754	0.0207059
764.832	0.0211215
764.910	0.0210090
764.988	0.0208573
765.067	0.0208575
765.145	0.0207475
765.223	0.0205761
765.301	0.0203606
765.379	0.0201208
765.457	0.0198306
765.535	0.0195830
765.613	0.0191149
765.692	0.0188023
765.770	0.0185833
765.848	0.0184467
765.926	0.0183755
766.004	0.0181625
766.082	0.0182204
766.160	0.0183405
766.238	0.0183010
766.317	0.0185254
766.395	0.0187058
766.473	0.0186511
766.551	0.0190099
766.629	0.0192526
766.707	0.0193564
766.785	0.0194912
766.863	0.0197874
766.942	0.0200060
767.020	0.0199362
767.098	0.0199086
767.176	0.0198890
767.254	0.0197038
767.332	0.0196380
767.410	0.0193848
767.488	0.0192743
767.567	0.0190973
767.645	0.0188165
767.723	0.0185467
767.801	0.0183636
767.879	0.0180898
767.957	0.0179208
768.035	0.0176714
768.113	0.0175406
768.192	0.0175140
768.270	0.0172771
768.348	0.0173341
768.426	0.0172535
768.504	0.0173089
768.582	0.0174295
768.660	0.0175734
768.738	0.0175945
768.817	0.0177605
768.895	0.0179961
768.973	0.0180493
769.051	0.0179489
769.129	0.0181101
769.207	0.0181883
769.285	0.0181345
769.363	0.0181821
769.442	0.0181030
769.520	0.0179362
769.598	0.0178558
769.676	0.0178109
769.754	0.0177843
769.832	0.0176216
769.910	0.0175313
769.988	0.0175056
770.067	0.0175796
770.145	0.0174673
770.223	0.0175199
770.301	0.0175052
770.379	0.0176973
770.457	0.0178690
770.535	0.0179864
770.613	0.0179958
770.692	0.0184674
770.770	0.0185110
770.848	0.0187818
770.926	0.0190778
771.004	0.0192420
771.082	0.0193872
771.160	0.0194861
771.238	0.0195827
771.317	0.0196533
771.395	0.0196725
771.473	0.0196727
771.551	0.0196255
771.629	0.0195413
771.707	0.0194069
771.785	0.0193304
771.863	0.0192288
771.942	0.0191068
772.020	0.0189001
772.098	0.0189369
772.176	0.0189214
772.254	0.0186835
772.332	0.0187637
772.410	0.0189258
772.488	0.0188666
772.567	0.0190090
772.645	0.0191087
772.723	0.0193176
772.801	0.0194210
772.879	0.0194893
772.957	0.0197147
773.035	0.0199526
773.113	0.0199444
773.192	0.0201265
773.270	0.0202145
773.348	0.0203052
773.426	0.0203275
773.504	0.0204646
773.582	0.0204292
773.660	0.0203905
773.738	0.0203004
773.817	0.0202415
773.895	0.0198808
773.973	0.0199065
774.051	0.0196309
774.129	0.0193254
774.207	0.0191277
774.285	0.0188905
774.363	0.0186806
774.442	0.0185545
774.520	0.0183047
774.598	0.0180146
774.676	0.0178649
774.754	0.0176757
774.832	0.0176434
774.910	0.0176894
774.988	0.0179077
775.067	0.0179034
775.145	0.0178980
775.223	0.0180702
775.301	0.0181577
775.379	0.0180794
775.457	0.0183033
775.535	0.0182195
775.613	0.0182391
775.692	0.0183061
775.770	0.0183460
775.848	0.0183492
775.926	0.0183325
776.004	0.0183767
776.082	0.0182774
776.160	0.0183192
776.238	0.0182983
776.317	0.0180913
776.395	0.0180637
776.473	0.0181177
776.551	0.0179426
776.629	0.0180070
776.707	0.0178688
776.785	0.0178734
776.863	0.0178823
776.942	0.0178146
777.020	0.0177744
777.098	0.0178706
777.176	0.0180617
777.254	0.0180264
777.332	0.0180593
777.410	0.0180350
777.488	0.0180196
777.567	0.0182031
777.645	0.0182082
777.723	0.0181951
777.801	0.0181601
777.879	0.0183273
777.957	0.0182022
778.035	0.0179710
778.113	0.0181638
778.192	0.0181564
778.270	0.0180537
778.348	0.0181323
778.426	0.0181293
778.504	0.0183096
778.582	0.0183724
778.660	0.0183637
778.738	0.0184220
778.817	0.0186727
778.895	0.0187947
778.973	0.0189031
779.051	0.0189503
779.129	0.0190141
779.207	0.0191886
779.285	0.0193958
779.363	0.0194504
779.442	0.0197012
779.520	0.0196437
779.598	0.0197910
779.676	0.0198209
779.754	0.0199246
779.832	0.0199196
779.910	0.0199812
779.988	0.0200073
780.067	0.0199306
780.145	0.0199527
780.223	0.0199050
780.301	0.0196886
780.379	0.0198261
780.457	0.0197592
780.535	0.0195302
780.613	0.0195209
780.692	0.0196217
780.770	0.0194169
780.848	0.0192339
780.926	0.0193311
781.004	0.0194124
781.082	0.0192224
781.160	0.0193515
781.238	0.0192438
781.317	0.0191487
781.395	0.0192350
781.473	0.0192167
781.551	0.0190392
781.629	0.0190002
781.707	0.0190457
781.785	0.0188840
781.863	0.0188593
781.942	0.0187766
782.020	0.0186231
782.098	0.0186197
782.176	0.0185065
782.254	0.0183907
782.332	0.0185439
782.410	0.0184328
782.488	0.0184711
782.567	0.0183210
782.645	0.0182926
782.723	0.0184035
782.801	0.0184808
782.879	0.0183748
782.957	0.0183970
783.035	0.0182609
783.113	0.0183249
783.192	0.0183584
783.270	0.0184927
783.348	0.0184079
783.426	0.0182991
783.504	0.0183868
783.582	0.0183681
783.660	0.0181924
783.738	0.0181252
783.817	0.0182124
783.895	0.0180685
783.973	0.0178809
784.051	0.0178419
784.129	0.0175673
784.207	0.0176511
784.285	0.0176454
784.363	0.0174493
784.442	0.0174225
784.520	0.0172913
784.598	0.0173811
784.676	0.0174017
784.754	0.0175293
784.832	0.0176182
784.910	0.0177523
784.988	0.0179398
785.067	0.0179496
785.145	0.0181689
785.223	0.0184019
785.301	0.0184100
785.379	0.0186048
785.457	0.0186301
785.535	0.0187695
785.613	0.0187783
785.692	0.0188432
785.770	0.0187859
785.848	0.0188633
785.926	0.0191158
786.004	0.0190756
786.082	0.0190651
786.160	0.0191111
786.238	0.0190931
786.317	0.0190257
786.395	0.0190402
786.473	0.0189014
786.551	0.0188377
786.629	0.0188620
786.707	0.0189610
786.785	0.0188851
786.863	0.0190016
786.942	0.0190338
787.020	0.0190553
787.098	0.0190733
787.176	0.0192210
787.254	0.0192389
787.332	0.0192616
787.410	0.0194281
787.488	0.0195942
787.567	0.0195994
787.645	0.0195903
787.723	0.0196521
787.801	0.0197154
787.879	0.0196736
787.957	0.0196050
788.035	0.0195134
788.113	0.0195196
788.192	0.0195491
788.270	0.0194084
788.348	0.0193060
788.426	0.0191991
788.504	0.0191612
788.582	0.0191604
788.660	0.0189929
788.738	0.0189513
788.817	0.0189761
788.895	0.0190488
788.973	0.0190186
789.051	0.0188885
789.129	0.0189024
789.207	0.0190352
789.285	0.0189390
789.363	0.0188819
789.442	0.0187881
789.520	0.0187794
789.598	0.0187532
789.676	0.0186235
789.754	0.0185928
789.832	0.0185295
789.910	0.0184909
789.988	0.0184534
790.067	0.0184991
790.145	0.0182663
790.223	0.0183437
790.301	0.0182330
790.379	0.0181402
790.457	0.0180371
790.535	0.0179234
790.613	0.0179192
790.692	0.0178156
790.770	0.0178407
790.848	0.0179079
790.926	0.0180033
791.004	0.0180583
791.082	0.0181039
791.160	0.0182969
791.238	0.0183009
791.317	0.0184480
791.395	0.0184682
791.473	0.0186204
791.551	0.0186555
791.629	0.0188182
791.707	0.0188689
791.785	0.0187061
791.863	0.0187197
791.942	0.0187224
792.020	0.0186994
792.098	0.0185623
792.176	0.0184830
792.254	0.0185319
792.332	0.0183027
792.410	0.0182629
792.488	0.0181144
792.567	0.0179913
792.645	0.0180865
792.723	0.0177968
792.801	0.0177317
792.879	0.0177332
792.957	0.0177156
793.035	0.0176783
793.113	0.0177150
793.192	0.0178303
793.270	0.0180348
793.348	0.0180569
793.426	0.0181581
793.504	0.0184155
793.582	0.0186663
793.660	0.0187905
793.738	0.0189555
793.817	0.0190970
793.895	0.0192258
793.973	0.0193571
794.051	0.0194633
794.129	0.0193510
794.207	0.0194437
794.285	0.0195055
794.363	0.0193795
794.442	0.0194768
794.520	0.0194133
794.598	0.0191860
794.676	0.0192336
794.754	0.0192506
794.832	0.0193437
794.910	0.0192496
794.988	0.0193858
795.067	0.0191580
795.145	0.0192815
795.223	0.0193594
795.301	0.0192365
795.379	0.0192973
795.457	0.0192804
795.535	0.0192413
795.613	0.0191845
795.692	0.0192268
795.770	0.0192239
795.848	0.0191566
795.926	0.0190644
796.004	0.0190527
796.082	0.0190286
796.160	0.0191599
796.238	0.0188613
796.317	0.0188830
796.395	0.0188597
796.473	0.0186478
796.551	0.0186217
796.629	0.0187267
796.707	0.0185749
796.785	0.0186472
796.863	0.0185774
796.942	0.0186166
797.020	0.0185970
797.098	0.0185882
797.176	0.0187375
797.254	0.0185191
797.332	0.0187091
797.410	0.0188656
797.488	0.0190271
797.567	0.0190372
797.645	0.0190585
797.723	0.0191649
797.801	0.0192526
797.879	0.0193271
797.957	0.0192671
798.035	0.0194161
798.113	0.0192310
798.192	0.0188901
798.270	0.0189809
798.348	0.0189767
798.426	0.0187508
798.504	0.0185337
798.582	0.0184850
798.660	0.0183936
798.738	0.0181747
798.817	0.0181499
798.895	0.0183452
798.973	0.0179751
799.051	0.0177350
799.129	0.0178394
799.207	0.0177646
799.285	0.0178143
799.363	0.0177197
799.442	0.0178279
799.520	0.0179202
799.598	0.0180235
799.676	0.0180574
799.754	0.0180523
799.832	0.0182252
799.910	0.0182584
799.988	0.0182404
800.067	0.0184132
800.145	0.0183923
800.223	0.0182576
800.301	0.0183143
800.379	0.0184374
800.457	0.0182093
800.535	0.0182205
800.613	0.0181740
800.692	0.0181393
800.770	0.0181099
800.848	0.0181138
800.926	0.0180036
801.004	0.0180293
801.082	0.0179750
801.160	0.0179237
801.238	0.0180285
801.317	0.0180313
801.395	0.0181754
801.473	0.0182991
801.551	0.0184400
801.629	0.0184677
801.707	0.0184977
801.785	0.0187163
801.863	0.0187868
801.942	0.0190471
802.020	0.0191290
802.098	0.0194088
802.176	0.0195336
802.254	0.0194860
802.332	0.0197599
802.410	0.0197926
802.488	0.0199089
802.567	0.0198820
802.645	0.0199033
802.723	0.0198102
802.801	0.0198174
802.879	0.0198833
802.957	0.0198552
803.035	0.0198321
803.113	0.0197713
803.192	0.0195959
803.270	0.0194381
803.348	0.0194952
803.426	0.0194606
803.504	0.0194575
803.582	0.0192406
803.660	0.0192899
803.738	0.0191161
803.817	0.0191971
803.895	0.0190845
803.973	0.0190694
804.051	0.0190799
804.129	0.0191190
804.207	0.0190860
804.285	0.0191043
804.363	0.0190580
804.442	0.0191710
804.520	0.0190196
804.598	0.0189381
804.676	0.0189089
804.754	0.0188026
804.832	0.0187694
804.910	0.0186956
804.988	0.0185335
805.067	0.0184408
805.145	0.0184413
805.223	0.0182429
805.301	0.0182919
805.379	0.0182132
805.457	0.0181960
805.535	0.0180611
805.613	0.0179193
805.692	0.0176999
805.770	0.0178903
805.848	0.0178598
805.926	0.0177630
806.004	0.0176185
806.082	0.0176263
806.160	0.0176715
806.238	0.0176641
806.317	0.0177385
806.395	0.0176411
806.473	0.0177510
806.551	0.0178326
806.629	0.0177007
806.707	0.0177763
806.785	0.0177926
806.863	0.0177130
806.942	0.0178550
807.020	0.0179904
807.098	0.0178312
807.176	0.0179935
807.254	0.0181262
807.332	0.0181394
807.410	0.0181355
807.488	0.0183170
807.567	0.0184668
807.645	0.0186153
807.723	0.0185585
807.801	0.0186983
807.879	0.0186417
807.957	0.0189410
808.035	0.0189928
808.113	0.0192924
808.192	0.0193999
808.270	0.0192265
808.348	0.0192491
808.426	0.0194911
808.504	0.0196427
808.582	0.0195761
808.660	0.0196082
808.738	0.0196645
808.817	0.0197432
808.895	0.0199313
808.973	0.0198228
809.051	0.0199046
809.129	0.0196400
809.207	0.0195479
809.285	0.0194815
809.363	0.0193787
809.442	0.0193288
809.520	0.0190849
809.598	0.0191577
809.676	0.0189148
809.754	0.0188563
809.832	0.0187952
809.910	0.0185636
809.988	0.0184350
810.067	0.0186729
810.145	0.0185976
810.223	0.0185338
810.301	0.0184335
810.379	0.0185559
810.457	0.0185388
810.535	0.0185815
810.613	0.0185548
810.692	0.0185134
810.770	0.0186139
810.848	0.0185642
810.926	0.0185002
811.004	0.0184786
811.082	0.0186210
811.160	0.0186302
811.238	0.0185152
811.317	0.0185207
811.395	0.0185773
811.473	0.0184631
811.551	0.0185169
811.629	0.0184284
811.707	0.0183949
811.785	0.0183435
811.863	0.0183170
811.942	0.0180675
812.020	0.0182990
812.098	0.0182703
812.176	0.0181840
812.254	0.0183047
812.332	0.0181058
812.410	0.0181658
812.488	0.0182018
812.567	0.0182556
812.645	0.0182249
812.723	0.0183694
812.801	0.0185074
812.879	0.0185210
812.957	0.0186361
813.035	0.0186665
813.113	0.0188694
813.192	0.0188136
813.270	0.0188241
813.348	0.0190300
813.426	0.0189410
813.504	0.0189367
813.582	0.0190324
813.660	0.0189911
813.738	0.0190064
813.817	0.0190385
813.895	0.0190815
813.973	0.0189975
814.051	0.0190839
814.129	0.0188762
814.207	0.0189252
814.285	0.0189835
814.363	0.0189600
814.442	0.0189211
814.520	0.0191170
814.598	0.0190304
814.676	0.0190214
814.754	0.0191875
814.832	0.0190241
814.910	0.0191142
814.988	0.0191570
815.067	0.0190634
815.145	0.0190536
815.223	0.0189895
815.301	0.0190103
815.379	0.0189499
815.457	0.0190658
815.535	0.0189677
815.613	0.0187178
815.692	0.0186585
815.770	0.0186852
815.848	0.0186192
815.926	0.0183804
816.004	0.0182468
816.082	0.0183433
816.160	0.0182356
816.238	0.0182594
816.317	0.0182262
816.395	0.0181614
816.473	0.0181141
816.551	0.0180682
816.629	0.0181425
816.707	0.0180427
816.785	0.0181548
816.863	0.0180560
816.942	0.0181181
817.020	0.0181077
817.098	0.0181440
817.176	0.0182056
817.254	0.0179773
817.332	0.0180403
817.410	0.0180666
817.488	0.0182033
817.567	0.0181763
817.645	0.0180491
817.723	0.0180934
817.801	0.0182429
817.879	0.0182406
817.957	0.0182359
818.035	0.0182452
818.113	0.0184277
818.192	0.0184316
818.270	0.0184407
818.348	0.0185815
818.426	0.0186114
818.504	0.0187127
818.582	0.0186140
818.660	0.0188747
818.738	0.0188969
818.817	0.0189417
818.895	0.0188708
818.973	0.0190230
819.051	0.0190883
819.129	0.0192414
819.207	0.0192941
819.285	0.0191099
819.363	0.0192599
819.442	0.0193110
819.520	0.0194418
819.598	0.0194446
819.676	0.0193724
819.754	0.0194431
819.832	0.0195206
819.910	0.0194810
819.988	0.0194667
820.067	0.0195797
820.145	0.0195357
820.223	0.0194801
820.301	0.0195491
820.379	0.0196117
820.457	0.0196321
820.535	0.0195201
820.613	0.0194123
820.692	0.0194912
820.770	0.0194492
820.848	0.0194827
820.926	0.0194464
821.004	0.0192566
821.082	0.0192280
821.160	0.0192142
821.238	0.0190562
821.317	0.0188890
821.395	0.0187093
821.473	0.0186526
821.551	0.0186619
821.629	0.0185757
821.707	0.0184663
821.785	0.0183212
821.863	0.0183419
821.942	0.0182163
822.020	0.0182444
822.098	0.0181745
822.176	0.0180376
822.254	0.0180857
822.332	0.0179850
822.410	0.0180399
822.488	0.0180499
822.567	0.0180596
822.645	0.0180920
822.723	0.0180624
822.801	0.0181150
822.879	0.0182581
822.957	0.0182220
823.035	0.0180216
823.113	0.0180731
823.192	0.0182520
823.270	0.0182193
823.348	0.0181070
823.426	0.0180986
823.504	0.0179621
823.582	0.0179639
823.660	0.0179803
823.738	0.0179012
823.817	0.0180460
823.895	0.0178730
823.973	0.0178677
824.051	0.0180373
824.129	0.0179513
824.207	0.0178667
824.285	0.0178046
824.363	0.0179585
824.442	0.0180185
824.520	0.0179984
824.598	0.0180002
824.676	0.0181993
824.754	0.0181919
824.832	0.0181486
824.910	0.0184341
824.988	0.0184343
825.067	0.0185078
825.145	0.0186230
825.223	0.0188305
825.301	0.0187804
825.379	0.0188457
825.457	0.0189500
825.535	0.0191949
825.613	0.0191633
825.692	0.0192224
825.770	0.0194270
825.848	0.0193745
825.926	0.0194988
826.004	0.0196218
826.082	0.0195477
826.160	0.0197612
826.238	0.0196380
826.317	0.0195684
826.395	0.0196553
826.473	0.0198235
826.551	0.0197797
826.629	0.0196600
826.707	0.0197514
826.785	0.0196539
826.863	0.0197115
826.942	0.0197272
827.020	0.0197240
827.098	0.0195973
827.176	0.0196107
827.254	0.0195567
827.332	0.0194262
827.410	0.0194439
827.488	0.0193509
827.567	0.0193169
827.645	0.0192037
827.723	0.0190929
827.801	0.0190811
827.879	0.0189291
827.957	0.0190102
828.035	0.0188408
828.113	0.0188160
828.192	0.0187054
828.270	0.0187887
828.348	0.0189355
828.426	0.0187366
828.504	0.0185585
828.582	0.0185750
828.660	0.0186266
828.738	0.0186712
828.817	0.0184572
828.895	0.0183842
828.973	0.0183217
829.051	0.0183260
829.129	0.0183012
829.207	0.0181439
829.285	0.0180540
829.363	0.0180608
829.442	0.0179494
829.520	0.0179726
829.598	0.0179462
829.676	0.0178657
829.754	0.0177785
829.832	0.0176528
829.910	0.0177464
829.988	0.0176974
830.067	0.0175024
830.145	0.0176244
830.223	0.0174895
830.301	0.0174725
830.379	0.0174248
830.457	0.0174777
830.535	0.0176486
830.613	0.0176637
830.692	0.0176601
830.770	0.0177418
830.848	0.0178559
830.926	0.0180949
831.004	0.0181168
831.082	0.0180530
831.160	0.0181946
831.238	0.0184079
831.317	0.0184843
831.395	0.0185188
831.473	0.0186549
831.551	0.0187970
831.629	0.0188524
831.707	0.0187973
831.785	0.0189774
831.863	0.0191586
831.942	0.0190802
832.020	0.0191412
832.098	0.0192414
832.176	0.0191335
832.254	0.0192351
832.332	0.0192229
832.410	0.0191553
832.488	0.0190649
832.567	0.0192118
832.645	0.0191186
832.723	0.0191165
832.801	0.0192087
832.879	0.0191895
832.957	0.0191141
833.035	0.0192509
833.113	0.0191862
833.192	0.0192303
833.270	0.0190173
833.348	0.0192432
833.426	0.0192812
833.504	0.0192413
833.582	0.0193597
833.660	0.0192800
833.738	0.0191479
833.817	0.0193193
833.895	0.0194387
833.973	0.0193565
834.051	0.0193368
834.129	0.0193741
834.207	0.0194425
834.285	0.0192958
834.363	0.0193943
834.442	0.0193445
834.520	0.0193123
834.598	0.0192938
834.676	0.0194227
834.754	0.0194025
834.832	0.0191238
834.910	0.0191531
834.988	0.0193375
835.067	0.0189490
835.145	0.0189555
835.223	0.0188792
835.301	0.0187965
835.379	0.0187685
835.457	0.0186515
835.535	0.0184847
835.613	0.0184812
835.692	0.0184285
835.770	0.0182755
835.848	0.0182732
835.926	0.0182334
836.004	0.0183094
836.082	0.0182189
836.160	0.0181506
836.238	0.0180203
836.317	0.0180772
836.395	0.0179015
836.473	0.0179510
836.551	0.0179752
836.629	0.0178871
836.707	0.0180501
836.785	0.0179627
836.863	0.0179051
836.942	0.0178760
837.020	0.0178157
837.098	0.0179605
837.176	0.0178776
837.254	0.0179099
837.332	0.0179375
837.410	0.0180203
837.488	0.0179205
837.567	0.0181856
837.645	0.0182629
837.723	0.0181748
837.801	0.0182903
837.879	0.0182304
837.957	0.0183908
838.035	0.0184097
838.113	0.0184393
838.192	0.0185155
838.270	0.0186170
838.348	0.0186320
838.426	0.0187918
838.504	0.0187876
838.582	0.0187357
838.660	0.0189233
838.738	0.0190996
838.817	0.0189967
838.895	0.0191435
838.973	0.0190906
839.051	0.0191518
839.129	0.0191003
839.207	0.0191020
839.285	0.0189984
839.363	0.0190516
839.442	0.0191064
839.520	0.0190245
839.598	0.0189228
839.676	0.0189777
839.754	0.0188664
839.832	0.0189184
839.910	0.0189087
839.988	0.0190326
840.067	0.0188711
840.145	0.0189870
840.223	0.0190373
840.301	0.0189727
840.379	0.0190915
840.457	0.0189857
840.535	0.0190847
840.613	0.0191579
840.692	0.0190858
840.770	0.0191125
840.848	0.0190645
840.926	0.0191474
841.004	0.0190836
841.082	0.0189360
841.160	0.0191032
841.238	0.0189845
841.317	0.0191084
841.395	0.0188963
841.473	0.0189606
841.551	0.0189126
841.629	0.0188288
841.707	0.0186935
841.785	0.0186546
841.863	0.0185997
841.942	0.0185569
842.020	0.0186271
842.098	0.0184822
842.176	0.0184257
842.254	0.0183952
842.332	0.0184628
842.410	0.0185770
842.488	0.0184843
842.567	0.0184633
842.645	0.0183995
842.723	0.0183936
842.801	0.0183503
842.879	0.0185452
842.957	0.0185138
843.035	0.0184522
843.113	0.0185796
843.192	0.0184926
843.270	0.0184964
843.348	0.0183019
843.426	0.0184660
843.504	0.0183959
843.582	0.0185005
843.660	0.0185126
843.738	0.0184325
843.817	0.0185972
843.895	0.0184313
843.973	0.0185007
844.051	0.0184393
844.129	0.0185509
844.207	0.0184182
844.285	0.0185378
844.363	0.0186276
844.442	0.0184701
844.520	0.0184573
844.598	0.0187259
844.676	0.0186094
844.754	0.0185594
844.832	0.0187213
844.910	0.0186066
844.988	0.0187002
845.067	0.0185872
845.145	0.0186968
845.223	0.0187364
845.301	0.0186456
845.379	0.0185892
845.457	0.0187688
845.535	0.0185868
845.613	0.0186111
845.692	0.0186663
845.770	0.0185279
845.848	0.0188406
845.926	0.0187299
846.004	0.0186821
846.082	0.0186380
846.160	0.0185642
846.238	0.0187205
846.317	0.0186019
846.395	0.0189158
846.473	0.0187659
846.551	0.0189145
846.629	0.0189500
846.707	0.0190311
846.785	0.0191326
846.863	0.0190746
846.942	0.0190585
847.020	0.0190622
847.098	0.0191999
847.176	0.0189956
847.254	0.0189294
847.332	0.0191759
847.410	0.0190492
847.488	0.0188733
847.567	0.0187763
847.645	0.0187299
847.723	0.0186872
847.801	0.0184859
847.879	0.0183598
847.957	0.0184065
848.035	0.0183636
848.113	0.0184356
848.192	0.0184422
848.270	0.0184480
848.348	0.0183655
848.426	0.0183804
848.504	0.0184566
848.582	0.0183298
848.660	0.0184077
848.738	0.0183580
848.817	0.0186613
848.895	0.0186787
848.973	0.0188503
849.051	0.0190199
849.129	0.0189290
849.207	0.0190173
849.285	0.0189423
849.363	0.0189381
849.442	0.0190401
849.520	0.0191027
849.598	0.0189798
849.676	0.0189380
849.754	0.0188231
849.832	0.0190694
849.910	0.0190203
849.988	0.0189238
850.067	0.0187907
850.145	0.0188245
850.223	0.0188612
850.301	0.0187381
850.379	0.0187561
850.457	0.0186620
850.535	0.0185821
850.613	0.0186234
850.692	0.0187070
850.770	0.0187366
850.848	0.0186844
850.926	0.0186391
851.004	0.0186752
851.082	0.0187140
851.160	0.0187436
851.238	0.0186989
851.317	0.0185725
851.395	0.0187740
851.473	0.0188251
851.551	0.0187520
851.629	0.0186760
851.707	0.0188068
851.785	0.0186918
851.863	0.0187682
851.942	0.0186755
852.020	0.0186124
852.098	0.0185886
852.176	0.0185599
852.254	0.0185366
852.332	0.0185857
852.410	0.0184986
852.488	0.0185780
852.567	0.0185445
852.645	0.0185498
852.723	0.0186604
852.801	0.0187174
852.879	0.0184985
852.957	0.0186404
853.035	0.0186989
853.113	0.0186852
853.192	0.0186438
853.270	0.0186677
853.348	0.0186342
853.426	0.0186694
853.504	0.0186755
853.582	0.0185534
853.660	0.0186272
853.738	0.0187280
853.817	0.0186226
853.895	0.0185503
853.973	0.0185262
854.051	0.0186002
854.129	0.0185056
854.207	0.0185818
854.285	0.0185764
854.363	0.0185710
854.442	0.0184911
854.520	0.0186790
854.598	0.0187715
854.676	0.0186349
854.754	0.0186469
854.832	0.0186549
854.910	0.0186526
854.988	0.0188342
855.067	0.0188328
855.145	0.0187289
855.223	0.0188671
855.301	0.0189958
855.379	0.0188686
855.457	0.0188638
855.535	0.0188383
855.613	0.0190001
855.692	0.0190180
855.770	0.0188969
855.848	0.0188455
855.926	0.0186430
856.004	0.0189274
856.082	0.0188405
856.160	0.0185915
856.238	0.0186657
856.317	0.0188306
856.395	0.0187442
856.473	0.0187411
856.551	0.0186262
856.629	0.0187900
856.707	0.0186572
856.785	0.0186370
856.863	0.0187135
856.942	0.0188717
857.020	0.0188589
857.098	0.0187784
857.176	0.0187518
857.254	0.0188475
857.332	0.0187909
857.410	0.0188132
857.488	0.0186912
857.567	0.0188106
857.645	0.0189698
857.723	0.0188078
857.801	0.0187481
857.879	0.0187593
857.957	0.0187840
858.035	0.0187883
858.113	0.0189384
858.192	0.0188148
858.270	0.0187414
858.348	0.0187885
858.426	0.0187495
858.504	0.0188634
858.582	0.0187401
858.660	0.0186740
858.738	0.0186081
858.817	0.0187804
858.895	0.0187666
858.973	0.0186784
859.051	0.0186018
859.129	0.0186871
859.207	0.0186430
859.285	0.0185670
859.363	0.0184924
859.442	0.0184748
859.520	0.0186358
859.598	0.0185532
859.676	0.0184119
859.754	0.0185752
859.832	0.0184347
859.910	0.0184624
859.988	0.0183317
860.067	0.0184860
860.145	0.0184637
860.223	0.0185329
860.301	0.0184233
860.379	0.0185431
860.457	0.0185292
860.535	0.0184085
860.613	0.0184937
860.692	0.0186606
860.770	0.0185095
860.848	0.0185445
860.926	0.0188340
861.004	0.0185879
861.082	0.0187338
861.160	0.0187904
861.238	0.0187490
861.317	0.0187500
861.395	0.0188403
861.473	0.0189887
861.551	0.0189258
861.629	0.0188922
861.707	0.0189087
861.785	0.0189898
861.863	0.0189577
861.942	0.0189577
862.020	0.0190186
862.098	0.0189297
862.176	0.0189794
862.254	0.0188450
862.332	0.0189163
862.410	0.0188810
862.488	0.0189690
862.567	0.0188891
862.645	0.0188436
862.723	0.0187836
862.801	0.0187605
862.879	0.0188237
862.957	0.0187212
863.035	0.0186930
863.113	0.0189319
863.192	0.0186694
863.270	0.0187344
863.348	0.0187076
863.426	0.0186472
863.504	0.0185416
863.582	0.0185140
863.660	0.0184753
863.738	0.0185455
863.817	0.0185637
863.895	0.0185145
863.973	0.0186167
864.051	0.0185117
864.129	0.0185900
864.207	0.0185892
864.285	0.0184257
864.363	0.0186381
864.442	0.0186570
864.520	0.0186966
864.598	0.0187195
864.676	0.0187200
864.754	0.0186449
864.832	0.0187036
864.910	0.0187269
864.988	0.0187245
865.067	0.0186068
865.145	0.0187961
865.223	0.0186834
865.301	0.0186935
865.379	0.0187281
865.457	0.0185924
865.535	0.0187766
865.613	0.0186758
865.692	0.0187124
865.770	0.0187036
865.848	0.0186907
865.926	0.0187774
866.004	0.0186588
866.082	0.0187356
866.160	0.0187032
866.238	0.0185477
866.317	0.0185306
866.395	0.0186391
866.473	0.0186075
866.551	0.0185875
866.629	0.0185981
866.707	0.0187139
866.785	0.0188026
866.863	0.0186967
866.942	0.0187847
867.020	0.0187508
867.098	0.0187202
867.176	0.0187021
867.254	0.0187897
867.332	0.0188093
867.410	0.0188495
867.488	0.0188357
867.567	0.0188195
867.645	0.0187511
867.723	0.0187411
867.801	0.0188413
867.879	0.0187900
867.957	0.0187143
868.035	0.0187212
868.113	0.0188027
868.192	0.0187205
868.270	0.0188435
868.348	0.0188033
868.426	0.0189468
868.504	0.0188615
868.582	0.0186909
868.660	0.0188477
868.738	0.0189664
868.817	0.0188132
868.895	0.0187672
868.973	0.0188886
869.051	0.0188742
869.129	0.0188744
869.207	0.0188120
869.285	0.0188798
869.363	0.0187495
869.442	0.0187910
869.520	0.0188457
869.598	0.0185699
869.676	0.0184830
869.754	0.0186575
869.832	0.0185832
869.910	0.0185892
869.988	0.0185633
870.067	0.0185762
870.145	0.0183921
870.223	0.0184953
870.301	0.0185493
870.379	0.0185184
870.457	0.0186427
870.535	0.0185521
870.613	0.0185609
870.692	0.0185816
870.770	0.0185508
870.848	0.0185703
870.926	0.0185831
871.004	0.0186108
871.082	0.0185917
871.160	0.0183806
871.238	0.0184584
871.317	0.0186182
871.395	0.0184644
871.473	0.0184686
871.551	0.0183705
871.629	0.0184904
871.707	0.0187022
871.785	0.0184891
871.863	0.0184932
871.942	0.0184917
872.020	0.0184617
872.098	0.0186113
872.176	0.0186611
872.254	0.0185590
872.332	0.0186566
872.410	0.0186217
872.488	0.0188285
872.567	0.0189478
872.645	0.0188101
872.723	0.0189246
872.801	0.0189300
872.879	0.0190162
872.957	0.0190651
873.035	0.0189162
873.113	0.0189642
873.192	0.0190175
873.270	0.0190440
873.348	0.0188307
873.426	0.0189053
873.504	0.0189641
873.582	0.0187796
873.660	0.0187773
873.738	0.0187843
873.817	0.0189137
873.895	0.0186846
873.973	0.0186956
874.051	0.0187611
874.129	0.0188253
874.207	0.0187723
874.285	0.0186980
874.363	0.0188330
874.442	0.0187641
874.520	0.0186569
874.598	0.0186302
874.676	0.0187204
874.754	0.0186889
874.832	0.0187506
874.910	0.0188966
874.988	0.0186661
875.067	0.0187301
875.145	0.0188521
875.223	0.0186858
875.301	0.0185963
875.379	0.0187630
875.457	0.0186974
875.535	0.0186224
875.613	0.0186060
875.692	0.0184229
875.770	0.0186148
875.848	0.0185818
875.926	0.0186051
876.004	0.0185716
876.082	0.0185339
876.160	0.0185365
876.238	0.0185947
876.317	0.0185310
876.395	0.0185413
876.473	0.0185762
876.551	0.0185159
876.629	0.0186787
876.707	0.0184225
876.785	0.0185588
876.863	0.0186842
876.942	0.0187086
877.020	0.0186969
877.098	0.0186589
877.176	0.0186510
877.254	0.0186438
877.332	0.0186473
877.410	0.0186257
877.488	0.0187398
877.567	0.0186493
877.645	0.0188012
877.723	0.0189014
877.801	0.0187911
877.879	0.0187274
877.957	0.0187500
878.035	0.0187444
878.113	0.0187720
878.192	0.0187571
878.270	0.0187954
878.348	0.0188087
878.426	0.0189178
878.504	0.0188008
878.582	0.0189496
878.660	0.0188216
878.738	0.0188543
878.817	0.0188887
878.895	0.0188390
878.973	0.0187905
879.051	0.0190654
879.129	0.0189153
879.207	0.0188287
879.285	0.0188239
879.363	0.0188871
879.442	0.0189017
879.520	0.0188293
879.598	0.0187318
879.676	0.0188068
879.754	0.0188134
879.832	0.0187915
879.910	0.0187862
879.988	0.0188573
880.067	0.0188453
880.145	0.0188481
880.223	0.0187892
880.301	0.0186262
880.379	0.0186732
880.457	0.0187914
880.535	0.0187833
880.613	0.0186449
880.692	0.0187793
880.770	0.0188992
880.848	0.0188241
880.926	0.0186031
881.004	0.0188205
881.082	0.0188861
881.160	0.0187849
881.238	0.0187814
881.317	0.0187654
881.395	0.0188940
881.473	0.0188831
881.551	0.0187587
881.629	0.0187863
881.707	0.0186916
881.785	0.0187775
881.863	0.0185742
881.942	0.0187303
882.020	0.0187667
882.098	0.0186963
882.176	0.0186613
882.254	0.0186505
882.332	0.0186687
882.410	0.0187120
882.488	0.0185423
882.567	0.0184773
882.645	0.0185474
882.723	0.0184682
882.801	0.0185077
882.879	0.0184389
882.957	0.0182858
883.035	0.0185075
883.113	0.0182467
883.192	0.0183326
883.270	0.0184225
883.348	0.0183675
883.426	0.0183812
883.504	0.0184629
883.582	0.0184509
883.660	0.0185168
883.738	0.0184976
883.817	0.0187112
883.895	0.0186868
883.973	0.0185892
884.051	0.0186051
884.129	0.0187032
884.207	0.0187248
884.285	0.0187062
884.363	0.0186048
884.442	0.0186633
884.520	0.0187628
884.598	0.0187018
884.676	0.0188020
884.754	0.0188500
884.832	0.0187682
884.910	0.0191169
884.988	0.0187602
885.067	0.0190186
885.145	0.0191273
885.223	0.0190859
885.301	0.0191441
885.379	0.0190259
885.457	0.0190594
885.535	0.0191983
885.613	0.0191322
885.692	0.0190334
885.770	0.0192073
885.848	0.0190952
885.926	0.0191647
886.004	0.0189649
886.082	0.0189103
886.160	0.0189957
886.238	0.0189693
886.317	0.0188313
886.395	0.0187316
886.473	0.0188023
886.551	0.0185542
886.629	0.0184910
886.707	0.0185457
886.785	0.0186858
886.863	0.0185117
886.942	0.0184901
887.020	0.0184988
887.098	0.0186411
887.176	0.0186195
887.254	0.0185970
887.332	0.0186526
887.410	0.0186722
887.488	0.0185761
887.567	0.0184840
887.645	0.0187083
887.723	0.0187713
887.801	0.0187151
887.879	0.0187482
887.957	0.0188136
888.035	0.0186928
888.113	0.0187908
888.192	0.0188537
888.270	0.0186769
888.348	0.0187475
888.426	0.0187991
888.504	0.0187315
888.582	0.0186712
888.660	0.0187571
888.738	0.0187656
888.817	0.0187264
888.895	0.0187796
888.973	0.0188430
889.051	0.0187868
889.129	0.0186326
889.207	0.0186206
889.285	0.0186378
889.363	0.0185981
889.442	0.0186127
889.520	0.0185062
889.598	0.0184865
889.676	0.0185951
889.754	0.0184427
889.832	0.0183110
889.910	0.0184428
889.988	0.0185085
890.067	0.0184199
890.145	0.0184409
890.223	0.0185193
890.301	0.0185114
890.379	0.0184579
890.457	0.0186197
890.535	0.0184219
890.613	0.0185435
890.692	0.0185416
890.770	0.0186081
890.848	0.0185080
890.926	0.0185665
891.004	0.0186258
891.082	0.0185924
891.160	0.0186481
891.238	0.0187697
891.317	0.0187342
891.395	0.0188206
891.473	0.0188767
891.551	0.0188963
891.629	0.0188722
891.707	0.0188151
891.785	0.0190610
891.863	0.0189414
891.942	0.0189698
892.020	0.0190735
892.098	0.0190116
892.176	0.0190453
892.254	0.0190845
892.332	0.0190656
892.410	0.0190852
892.488	0.0189776
892.567	0.0189167
892.645	0.0190044
892.723	0.0188370
892.801	0.0187617
892.879	0.0188947
892.957	0.0189178
893.035	0.0188326
893.113	0.0188544
893.192	0.0187325
893.270	0.0187076
893.348	0.0189044
893.426	0.0188933
893.504	0.0187642
893.582	0.0187994
893.660	0.0190118
893.738	0.0188913
893.817	0.0188359
893.895	0.0188752
893.973	0.0187082
894.051	0.0188319
894.129	0.0188876
894.207	0.0188580
894.285	0.0186808
894.363	0.0187413
894.442	0.0186694
894.520	0.0187151
894.598	0.0187245
894.676	0.0186250
894.754	0.0187477
894.832	0.0187465
894.910	0.0186893
894.988	0.0186749
895.067	0.0186017
895.145	0.0186755
895.223	0.0185871
895.301	0.0184039
895.379	0.0185304
895.457	0.0184952
895.535	0.0184414
895.613	0.0182838
895.692	0.0183485
895.770	0.0182703
895.848	0.0182465
895.926	0.0181653
896.004	0.0183826
896.082	0.0184245
896.160	0.0183556
896.238	0.0184644
896.317	0.0184904
896.395	0.0186408
896.473	0.0186153
896.551	0.0186526
896.629	0.0186404
896.707	0.0186369
896.785	0.0187447
896.863	0.0187234
896.942	0.0187605
897.020	0.0186727
897.098	0.0185889
897.176	0.0186111
897.254	0.0185867
897.332	0.0185867
897.410	0.0187076
897.488	0.0186855
897.567	0.0184871
897.645	0.0184055
897.723	0.0184810
897.801	0.0186215
897.879	0.0184007
897.957	0.0184829
898.035	0.0185879
898.113	0.0185905
898.192	0.0184594
898.270	0.0186523
898.348	0.0185653
898.426	0.0187167
898.504	0.0186654
898.582	0.0186867
898.660	0.0186473
898.738	0.0187045
898.817	0.0187470
898.895	0.0187309
898.973	0.0188117
899.051	0.0189650
899.129	0.0187924
899.207	0.0189104
899.285	0.0188938
899.363	0.0190253
899.442	0.0191290
899.520	0.0190479
899.598	0.0192691
899.676	0.0192286
899.754	0.0191827
899.832	0.0193470
899.910	0.0192839
899.988	0.0193510
900.067	0.0192922
900.145	0.0192723
900.223	0.0193640
900.301	0.0191898
900.379	0.0190785
900.457	0.0190581
900.535	0.0190880
900.613	0.0191801
900.692	0.0189365
900.770	0.0188636
900.848	0.0188557
900.926	0.0186537
901.004	0.0185534
901.082	0.0184779
901.160	0.0184113
901.238	0.0184476
901.317	0.0182420
901.395	0.0182111
901.473	0.0182226
901.551	0.0182225
901.629	0.0180862
901.707	0.0181822
901.785	0.0180235
901.863	0.0180686
901.942	0.0181034
902.020	0.0180188
902.098	0.0182343
902.176	0.0183685
902.254	0.0182758
902.332	0.0184428
902.410	0.0184678
902.488	0.0185904
902.567	0.0186805
902.645	0.0187264
902.723	0.0186034
902.801	0.0187548
902.879	0.0189058
902.957	0.0190026
903.035	0.0189360
903.113	0.0189684
903.192	0.0190411
903.270	0.0191300
903.348	0.0191322
903.426	0.0190494
903.504	0.0191221
903.582	0.0190015
903.660	0.0188799
903.738	0.0188230
903.817	0.0186526
903.895	0.0186886
903.973	0.0187724
904.051	0.0185532
904.129	0.0185821
904.207	0.0184876
904.285	0.0184091
904.363	0.0182758
904.442	0.0182981
904.520	0.0181618
904.598	0.0182263
904.676	0.0181571
904.754	0.0180416
904.832	0.0181316
904.910	0.0181622
904.988	0.0181625
905.067	0.0183172
905.145	0.0185138
905.223	0.0184795
905.301	0.0185194
905.379	0.0187021
905.457	0.0187688
905.535	0.0189420
905.613	0.0189601
905.692	0.0189635
905.770	0.0190620
905.848	0.0191853
905.926	0.0191927
906.004	0.0191119
906.082	0.0193027
906.160	0.0191666
906.238	0.0191566
906.317	0.0191699
906.395	0.0192443
906.473	0.0189683
906.551	0.0190235
906.629	0.0189983
906.707	0.0188982
906.785	0.0188396
906.863	0.0187649
906.942	0.0188111
907.020	0.0187011
907.098	0.0186263
907.176	0.0188490
907.254	0.0184976
907.332	0.0185922
907.410	0.0184449
907.488	0.0185113
907.567	0.0184751
907.645	0.0185105
907.723	0.0185437
907.801	0.0185226
907.879	0.0184937
907.957	0.0185959
908.035	0.0185327
908.113	0.0185984
908.192	0.0185217
908.270	0.0186479
908.348	0.0187173
908.426	0.0187098
908.504	0.0186377
908.582	0.0188147
908.660	0.0188447
908.738	0.0187575
908.817	0.0188509
908.895	0.0187561
908.973	0.0186716
909.051	0.0188923
909.129	0.0189728
909.207	0.0189109
909.285	0.0188764
909.363	0.0190818
909.442	0.0189548
909.520	0.0189770
909.598	0.0189992
909.676	0.0190421
909.754	0.0190070
909.832	0.0189841
909.910	0.0189859
909.988	0.0188219
910.067	0.0186706
910.145	0.0187021
910.223	0.0186292
910.301	0.0183988
910.379	0.0185555
910.457	0.0183723
910.535	0.0182685
910.613	0.0182046
910.692	0.0182113
910.770	0.0179747
910.848	0.0182135
910.926	0.0182130
911.004	0.0182386
911.082	0.0181467
911.160	0.0183235
911.238	0.0185212
911.317	0.0185095
911.395	0.0185961
911.473	0.0186215
911.551	0.0188313
911.629	0.0188581
911.707	0.0189997
911.785	0.0190095
911.863	0.0190774
911.942	0.0192065
912.020	0.0192644
912.098	0.0190835
912.176	0.0191741
912.254	0.0191702
912.332	0.0192222
912.410	0.0191062
912.488	0.0189873
912.567	0.0189215
912.645	0.0187379
912.723	0.0186544
912.801	0.0186626
912.879	0.0186039
912.957	0.0183911
913.035	0.0184941
913.113	0.0183900
913.192	0.0183704
913.270	0.0183804
913.348	0.0183125
913.426	0.0184665
913.504	0.0183680
913.582	0.0182938
913.660	0.0183238
913.738	0.0184827
913.817	0.0185145
913.895	0.0185411
913.973	0.0185469
914.051	0.0185263
914.129	0.0184921
914.207	0.0185637
914.285	0.0186720
914.363	0.0185715
914.442	0.0185908
914.520	0.0186987
914.598	0.0186121
914.676	0.0184601
914.754	0.0185317
914.832	0.0186923
914.910	0.0185045
914.988	0.0185155
915.067	0.0186512
915.145	0.0187358
915.223	0.0187689
915.301	0.0188548
915.379	0.0188598
915.457	0.0188400
915.535	0.0190395
915.613	0.0191075
915.692	0.0191038
915.770	0.0191824
915.848	0.0192492
915.926	0.0192350
916.004	0.0192022
916.082	0.0193184
916.160	0.0191850
916.238	0.0192090
916.317	0.0192808
916.395	0.0191005
916.473	0.0190965
916.551	0.0189924
916.629	0.0187949
916.707	0.0186807
916.785	0.0187785
916.863	0.0186076
916.942	0.0186315
917.020	0.0186307
917.098	0.0183965
917.176	0.0185445
917.254	0.0185025
917.332	0.0183650
917.410	0.0184459
917.488	0.0184587
917.567	0.0185958
917.645	0.0184680
917.723	0.0184724
917.801	0.0186458
917.879	0.0185470
917.957	0.0186661
918.035	0.0185812
918.113	0.0187022
918.192	0.0186230
918.270	0.0187488
918.348	0.0187263
918.426	0.0186873
918.504	0.0187466
918.582	0.0187533
918.660	0.0186183
918.738	0.0186720
918.817	0.0186042
918.895	0.0187411
918.973	0.0187235
919.051	0.0185738
919.129	0.0185353
919.207	0.0184638
919.285	0.0185504
919.363	0.0184870
919.442	0.0184820
919.520	0.0185141
919.598	0.0183935
919.676	0.0184396
919.754	0.0184467
919.832	0.0185275
919.910	0.0185249
