06/01/2022	21:49:28	Ver.	4.1	UNKNOWN
Optical Delay	599.988409	Delta X		0.078125	Sweeps	1	Scan Rate	0/0
Coordinates	Axis 1	NaN	Axis 2	NaN	Axis 3	NaN	Axis 4	NaN	Axis 5	NaN	Axis 6	0.000000
TX Power	0.000000	RX Power	0.000000

599.988	0.0178308
600.067	0.0178239
600.145	0.0178183
600.223	0.0177696
600.301	0.0178032
600.379	0.0179361
600.457	0.0178598
600.535	0.0178527
600.613	0.0178350
600.692	0.0178840
600.770	0.0179037
600.848	0.0179671
600.926	0.0178126
601.004	0.0179962
601.082	0.0179564
601.160	0.0178680
601.238	0.0179615
601.317	0.0178756
601.395	0.0179115
601.473	0.0177712
601.551	0.0178908
601.629	0.0179778
601.707	0.0178568
601.785	0.0178864
601.863	0.0178526
601.942	0.0179422
602.020	0.0178995
602.098	0.0177705
602.176	0.0177600
602.254	0.0179562
602.332	0.0179148
602.410	0.0178718
602.488	0.0177105
602.567	0.0179413
602.645	0.0177667
602.723	0.0178132
602.801	0.0178033
602.879	0.0177332
602.957	0.0178832
603.035	0.0178065
603.113	0.0179695
603.192	0.0179854
603.270	0.0177696
603.348	0.0179826
603.426	0.0179185
603.504	0.0179344
603.582	0.0177786
603.660	0.0178098
603.738	0.0178967
603.817	0.0178445
603.895	0.0178530
603.973	0.0179363
604.051	0.0179172
604.129	0.0178040
604.207	0.0178677
604.285	0.0178594
604.363	0.0178174
604.442	0.0180070
604.520	0.0179587
604.598	0.0177885
604.676	0.0177777
604.754	0.0178672
604.832	0.0179047
604.910	0.0178490
604.988	0.0178082
605.067	0.0178438
605.145	0.0179147
605.223	0.0178814
605.301	0.0179547
605.379	0.0178938
605.457	0.0178737
605.535	0.0178424
605.613	0.0178432
605.692	0.0178463
605.770	0.0178360
605.848	0.0177493
605.926	0.0178201
606.004	0.0178893
606.082	0.0178729
606.160	0.0180535
606.238	0.0179276
606.317	0.0178608
606.395	0.0178705
606.473	0.0177736
606.551	0.0179052
606.629	0.0178484
606.707	0.0179839
606.785	0.0178841
606.863	0.0177446
606.942	0.0177830
607.020	0.0179610
607.098	0.0179446
607.176	0.0179390
607.254	0.0179720
607.332	0.0179385
607.410	0.0180095
607.488	0.0179610
607.567	0.0179990
607.645	0.0180031
607.723	0.0178887
607.801	0.0177911
607.879	0.0180146
607.957	0.0178503
608.035	0.0178093
608.113	0.0179382
608.192	0.0179021
608.270	0.0178310
608.348	0.0177888
608.426	0.0177739
608.504	0.0178259
608.582	0.0178629
608.660	0.0178446
608.738	0.0180317
608.817	0.0178246
608.895	0.0179610
608.973	0.0177277
609.051	0.0177664
609.129	0.0179234
609.207	0.0179061
609.285	0.0179910
609.363	0.0177718
609.442	0.0177802
609.520	0.0178388
609.598	0.0178371
609.676	0.0177392
609.754	0.0179546
609.832	0.0178479
609.910	0.0179084
609.988	0.0177573
610.067	0.0178781
610.145	0.0178035
610.223	0.0179588
610.301	0.0180537
610.379	0.0178169
610.457	0.0177408
610.535	0.0178862
610.613	0.0179953
610.692	0.0179211
610.770	0.0178269
610.848	0.0178843
610.926	0.0178211
611.004	0.0178802
611.082	0.0177697
611.160	0.0178910
611.238	0.0178453
611.317	0.0178264
611.395	0.0178878
611.473	0.0179158
611.551	0.0177777
611.629	0.0179482
611.707	0.0179042
611.785	0.0179366
611.863	0.0178611
611.942	0.0180463
612.020	0.0179668
612.098	0.0177845
612.176	0.0177946
612.254	0.0179010
612.332	0.0178368
612.410	0.0179295
612.488	0.0179934
612.567	0.0177841
612.645	0.0178268
612.723	0.0180402
612.801	0.0179614
612.879	0.0178519
612.957	0.0178940
613.035	0.0178036
613.113	0.0177584
613.192	0.0178834
613.270	0.0179938
613.348	0.0179315
613.426	0.0179044
613.504	0.0177982
613.582	0.0178589
613.660	0.0178128
613.738	0.0180128
613.817	0.0178735
613.895	0.0179248
613.973	0.0178271
614.051	0.0179196
614.129	0.0179868
614.207	0.0179015
614.285	0.0178614
614.363	0.0178398
614.442	0.0178356
614.520	0.0178762
614.598	0.0179644
614.676	0.0178881
614.754	0.0179084
614.832	0.0179004
614.910	0.0177994
614.988	0.0177540
615.067	0.0179192
615.145	0.0180420
615.223	0.0178001
615.301	0.0178965
615.379	0.0179028
615.457	0.0179884
615.535	0.0180119
615.613	0.0179107
615.692	0.0179620
615.770	0.0180064
615.848	0.0179688
615.926	0.0178330
616.004	0.0177750
616.082	0.0179515
616.160	0.0178461
616.238	0.0178168
616.317	0.0178927
616.395	0.0179311
616.473	0.0179507
616.551	0.0178551
616.629	0.0179430
616.707	0.0178236
616.785	0.0177818
616.863	0.0178314
616.942	0.0178581
617.020	0.0178513
617.098	0.0180126
617.176	0.0178829
617.254	0.0178952
617.332	0.0179273
617.410	0.0179086
617.488	0.0177337
617.567	0.0179104
617.645	0.0178165
617.723	0.0177834
617.801	0.0179217
617.879	0.0178924
617.957	0.0178980
618.035	0.0178451
618.113	0.0178158
618.192	0.0178041
618.270	0.0178130
618.348	0.0178111
618.426	0.0177702
618.504	0.0178075
618.582	0.0179411
618.660	0.0179016
618.738	0.0178616
618.817	0.0177817
618.895	0.0178618
618.973	0.0179093
619.051	0.0179347
619.129	0.0179433
619.207	0.0178063
619.285	0.0179575
619.363	0.0177684
619.442	0.0178351
619.520	0.0177622
619.598	0.0177834
619.676	0.0178289
619.754	0.0179062
619.832	0.0177428
619.910	0.0178569
619.988	0.0178005
620.067	0.0177881
620.145	0.0178055
620.223	0.0177848
620.301	0.0179123
620.379	0.0177699
620.457	0.0178592
620.535	0.0178433
620.613	0.0178448
620.692	0.0179459
620.770	0.0178404
620.848	0.0179480
620.926	0.0178745
621.004	0.0177916
621.082	0.0179218
621.160	0.0178120
621.238	0.0178697
621.317	0.0178747
621.395	0.0178738
621.473	0.0179642
621.551	0.0178356
621.629	0.0178014
621.707	0.0177407
621.785	0.0179123
621.863	0.0180272
621.942	0.0178976
622.020	0.0178040
622.098	0.0178629
622.176	0.0179153
622.254	0.0179716
622.332	0.0179214
622.410	0.0176897
622.488	0.0179240
622.567	0.0178574
622.645	0.0178881
622.723	0.0179548
622.801	0.0177424
622.879	0.0178284
622.957	0.0178992
623.035	0.0177369
623.113	0.0178460
623.192	0.0179588
623.270	0.0179071
623.348	0.0179356
623.426	0.0178602
623.504	0.0178039
623.582	0.0176874
623.660	0.0178619
623.738	0.0178254
623.817	0.0178606
623.895	0.0179153
623.973	0.0178825
624.051	0.0177919
624.129	0.0179688
624.207	0.0179018
624.285	0.0179575
624.363	0.0178719
624.442	0.0179484
624.520	0.0178085
624.598	0.0177873
624.676	0.0178209
624.754	0.0177794
624.832	0.0177782
624.910	0.0178527
624.988	0.0178212
625.067	0.0178583
625.145	0.0177621
625.223	0.0177936
625.301	0.0178806
625.379	0.0178185
625.457	0.0179382
625.535	0.0177986
625.613	0.0178420
625.692	0.0179572
625.770	0.0177855
625.848	0.0178066
625.926	0.0179169
626.004	0.0178513
626.082	0.0177863
626.160	0.0179060
626.238	0.0178043
626.317	0.0179826
626.395	0.0179783
626.473	0.0180398
626.551	0.0178995
626.629	0.0179172
626.707	0.0178319
626.785	0.0179019
626.863	0.0178829
626.942	0.0178848
627.020	0.0179663
627.098	0.0178661
627.176	0.0178680
627.254	0.0178066
627.332	0.0178819
627.410	0.0178270
627.488	0.0177973
627.567	0.0179121
627.645	0.0178416
627.723	0.0177863
627.801	0.0178816
627.879	0.0179743
627.957	0.0179181
628.035	0.0179006
628.113	0.0179943
628.192	0.0179538
628.270	0.0179247
628.348	0.0179183
628.426	0.0178554
628.504	0.0179282
628.582	0.0178625
628.660	0.0178767
628.738	0.0177414
628.817	0.0177969
628.895	0.0177665
628.973	0.0177376
629.051	0.0178217
629.129	0.0177643
629.207	0.0178389
629.285	0.0179023
629.363	0.0178491
629.442	0.0179067
629.520	0.0178601
629.598	0.0178630
629.676	0.0177361
629.754	0.0177493
629.832	0.0180080
629.910	0.0178557
629.988	0.0178121
630.067	0.0178892
630.145	0.0178685
630.223	0.0178211
630.301	0.0179240
630.379	0.0178104
630.457	0.0178262
630.535	0.0179394
630.613	0.0179193
630.692	0.0177694
630.770	0.0178408
630.848	0.0179099
630.926	0.0179121
631.004	0.0177280
631.082	0.0178312
631.160	0.0179378
631.238	0.0179719
631.317	0.0177506
631.395	0.0177591
631.473	0.0179649
631.551	0.0177954
631.629	0.0177916
631.707	0.0179216
631.785	0.0178906
631.863	0.0178789
631.942	0.0178576
632.020	0.0180088
632.098	0.0179421
632.176	0.0179233
632.254	0.0179392
632.332	0.0180763
632.410	0.0178662
632.488	0.0178282
632.567	0.0178348
632.645	0.0179408
632.723	0.0179324
632.801	0.0179661
632.879	0.0178596
632.957	0.0178734
633.035	0.0178706
633.113	0.0180158
633.192	0.0179740
633.270	0.0178382
633.348	0.0177617
633.426	0.0177938
633.504	0.0178802
633.582	0.0179311
633.660	0.0179154
633.738	0.0179300
633.817	0.0177946
633.895	0.0178459
633.973	0.0178639
634.051	0.0179076
634.129	0.0180914
634.207	0.0177205
634.285	0.0178585
634.363	0.0177975
634.442	0.0179328
634.520	0.0178221
634.598	0.0178684
634.676	0.0179154
634.754	0.0178987
634.832	0.0178655
634.910	0.0179018
634.988	0.0179331
635.067	0.0179217
635.145	0.0178389
635.223	0.0178190
635.301	0.0178326
635.379	0.0178658
635.457	0.0177930
635.535	0.0178157
635.613	0.0179240
635.692	0.0179086
635.770	0.0177303
635.848	0.0179022
635.926	0.0177971
636.004	0.0179498
636.082	0.0179719
636.160	0.0178822
636.238	0.0179259
636.317	0.0178337
636.395	0.0178682
636.473	0.0178114
636.551	0.0177999
636.629	0.0178434
636.707	0.0177541
636.785	0.0178122
636.863	0.0178881
636.942	0.0177333
637.020	0.0177924
637.098	0.0176932
637.176	0.0179417
637.254	0.0178669
637.332	0.0178069
637.410	0.0177825
637.488	0.0176878
637.567	0.0179303
637.645	0.0178823
637.723	0.0179195
637.801	0.0179510
637.879	0.0178809
637.957	0.0179253
638.035	0.0177495
638.113	0.0178043
638.192	0.0178027
638.270	0.0179609
638.348	0.0178145
638.426	0.0178844
638.504	0.0178214
638.582	0.0179274
638.660	0.0178694
638.738	0.0178446
638.817	0.0178740
638.895	0.0177258
638.973	0.0178714
639.051	0.0178088
639.129	0.0178469
639.207	0.0177669
639.285	0.0178922
639.363	0.0179941
639.442	0.0178207
639.520	0.0179141
639.598	0.0178986
639.676	0.0179378
639.754	0.0178932
639.832	0.0179162
639.910	0.0177592
639.988	0.0178388
640.067	0.0177966
640.145	0.0178675
640.223	0.0178249
640.301	0.0178746
640.379	0.0178940
640.457	0.0178156
640.535	0.0178993
640.613	0.0178709
640.692	0.0177930
640.770	0.0178626
640.848	0.0179261
640.926	0.0179633
641.004	0.0178623
641.082	0.0176022
641.160	0.0177977
641.238	0.0179761
641.317	0.0178539
641.395	0.0177850
641.473	0.0177856
641.551	0.0177908
641.629	0.0178848
641.707	0.0177946
641.785	0.0176942
641.863	0.0178612
641.942	0.0179205
642.020	0.0179158
642.098	0.0178865
642.176	0.0178964
642.254	0.0178168
642.332	0.0177798
642.410	0.0177800
642.488	0.0179349
642.567	0.0179564
642.645	0.0178108
642.723	0.0178067
642.801	0.0178894
642.879	0.0177640
642.957	0.0177676
643.035	0.0179361
643.113	0.0178915
643.192	0.0179207
643.270	0.0178534
643.348	0.0179069
643.426	0.0177780
643.504	0.0177590
643.582	0.0177413
643.660	0.0179049
643.738	0.0178228
643.817	0.0179322
643.895	0.0179585
643.973	0.0178789
644.051	0.0178829
644.129	0.0177607
644.207	0.0177890
644.285	0.0179633
644.363	0.0179388
644.442	0.0179916
644.520	0.0177725
644.598	0.0178596
644.676	0.0177307
644.754	0.0177940
644.832	0.0179801
644.910	0.0179596
644.988	0.0178154
645.067	0.0178237
645.145	0.0179156
645.223	0.0178735
645.301	0.0177942
645.379	0.0179027
645.457	0.0178690
645.535	0.0178186
645.613	0.0177538
645.692	0.0178847
645.770	0.0178927
645.848	0.0179601
645.926	0.0179169
646.004	0.0178629
646.082	0.0178345
646.160	0.0178707
646.238	0.0178552
646.317	0.0178501
646.395	0.0178206
646.473	0.0176382
646.551	0.0177646
646.629	0.0177769
646.707	0.0178017
646.785	0.0177259
646.863	0.0177295
646.942	0.0178446
647.020	0.0179510
647.098	0.0178359
647.176	0.0177916
647.254	0.0178745
647.332	0.0179806
647.410	0.0179410
647.488	0.0179229
647.567	0.0179108
647.645	0.0179598
647.723	0.0179490
647.801	0.0179716
647.879	0.0179190
647.957	0.0177972
648.035	0.0178881
648.113	0.0178049
648.192	0.0178351
648.270	0.0178587
648.348	0.0177168
648.426	0.0176813
648.504	0.0176913
648.582	0.0176888
648.660	0.0178220
648.738	0.0177285
648.817	0.0177467
648.895	0.0179482
648.973	0.0178556
649.051	0.0179268
649.129	0.0178929
649.207	0.0180456
649.285	0.0179831
649.363	0.0180065
649.442	0.0180504
649.520	0.0180124
649.598	0.0180444
649.676	0.0180013
649.754	0.0179357
649.832	0.0179305
649.910	0.0177354
649.988	0.0176913
650.067	0.0178463
650.145	0.0177092
650.223	0.0177057
650.301	0.0177615
650.379	0.0177474
650.457	0.0177608
650.535	0.0177628
650.613	0.0177389
650.692	0.0177455
650.770	0.0177760
650.848	0.0177511
650.926	0.0177941
651.004	0.0178342
651.082	0.0179780
651.160	0.0179018
651.238	0.0179681
651.317	0.0179719
651.395	0.0181670
651.473	0.0179976
651.551	0.0178455
651.629	0.0178806
651.707	0.0179349
651.785	0.0179548
651.863	0.0178888
651.942	0.0178599
652.020	0.0178248
652.098	0.0177946
652.176	0.0177564
652.254	0.0177040
652.332	0.0177940
652.410	0.0176746
652.488	0.0177898
652.567	0.0177393
652.645	0.0178391
652.723	0.0178463
652.801	0.0177570
652.879	0.0178004
652.957	0.0179083
653.035	0.0176653
653.113	0.0177412
653.192	0.0180001
653.270	0.0180099
653.348	0.0179658
653.426	0.0179739
653.504	0.0180788
653.582	0.0178858
653.660	0.0179382
653.738	0.0179164
653.817	0.0178583
653.895	0.0178417
653.973	0.0177803
654.051	0.0178115
654.129	0.0177469
654.207	0.0176273
654.285	0.0176981
654.363	0.0176162
654.442	0.0175409
654.520	0.0176217
654.598	0.0177078
654.676	0.0176906
654.754	0.0177258
654.832	0.0178362
654.910	0.0179051
654.988	0.0179565
655.067	0.0178600
655.145	0.0178647
655.223	0.0182144
655.301	0.0179874
655.379	0.0181332
655.457	0.0180785
655.535	0.0179787
655.613	0.0178995
655.692	0.0177707
655.770	0.0179232
655.848	0.0178577
655.926	0.0177607
656.004	0.0177905
656.082	0.0178732
656.160	0.0176513
656.238	0.0176765
656.317	0.0177171
656.395	0.0176135
656.473	0.0175240
656.551	0.0176243
656.629	0.0176849
656.707	0.0178497
656.785	0.0178059
656.863	0.0178881
656.942	0.0180800
657.020	0.0180045
657.098	0.0178719
657.176	0.0180372
657.254	0.0181302
657.332	0.0180328
657.410	0.0181237
657.488	0.0180767
657.567	0.0179403
657.645	0.0178761
657.723	0.0178974
657.801	0.0178899
657.879	0.0178535
657.957	0.0178027
658.035	0.0178059
658.113	0.0176942
658.192	0.0177051
658.270	0.0177785
658.348	0.0176619
658.426	0.0177759
658.504	0.0178515
658.582	0.0178179
658.660	0.0178601
658.738	0.0177805
658.817	0.0177674
658.895	0.0178796
658.973	0.0179822
659.051	0.0177865
659.129	0.0178824
659.207	0.0179681
659.285	0.0177793
659.363	0.0177959
659.442	0.0179489
659.520	0.0179478
659.598	0.0179977
659.676	0.0181527
659.754	0.0180404
659.832	0.0179205
659.910	0.0179012
659.988	0.0181239
660.067	0.0178262
660.145	0.0178050
660.223	0.0178046
660.301	0.0177604
660.379	0.0177024
660.457	0.0178265
660.535	0.0176682
660.613	0.0177397
660.692	0.0178303
660.770	0.0178788
660.848	0.0178107
660.926	0.0177731
661.004	0.0177008
661.082	0.0177585
661.160	0.0179220
661.238	0.0176784
661.317	0.0175692
661.395	0.0177341
661.473	0.0178297
661.551	0.0178863
661.629	0.0178026
661.707	0.0178446
661.785	0.0180767
661.863	0.0179024
661.942	0.0179639
662.020	0.0179782
662.098	0.0179364
662.176	0.0179023
662.254	0.0179148
662.332	0.0180196
662.410	0.0179025
662.488	0.0180236
662.567	0.0178709
662.645	0.0178877
662.723	0.0178849
662.801	0.0179452
662.879	0.0179214
662.957	0.0178230
663.035	0.0177958
663.113	0.0178502
663.192	0.0177589
663.270	0.0177596
663.348	0.0177531
663.426	0.0177295
663.504	0.0177761
663.582	0.0177838
663.660	0.0178471
663.738	0.0179590
663.817	0.0178519
663.895	0.0178431
663.973	0.0179199
664.051	0.0180740
664.129	0.0181749
664.207	0.0181102
664.285	0.0181671
664.363	0.0181676
664.442	0.0182268
664.520	0.0181841
664.598	0.0181416
664.676	0.0181168
664.754	0.0179439
664.832	0.0179613
664.910	0.0179486
664.988	0.0178181
665.067	0.0178036
665.145	0.0176201
665.223	0.0176719
665.301	0.0176239
665.379	0.0176038
665.457	0.0176687
665.535	0.0176705
665.613	0.0175468
665.692	0.0176080
665.770	0.0177630
665.848	0.0177687
665.926	0.0177178
666.004	0.0177982
666.082	0.0179185
666.160	0.0180642
666.238	0.0180698
666.317	0.0182070
666.395	0.0182030
666.473	0.0182546
666.551	0.0182466
666.629	0.0182388
666.707	0.0181009
666.785	0.0180981
666.863	0.0179927
666.942	0.0178893
667.020	0.0178027
667.098	0.0178085
667.176	0.0175474
667.254	0.0176064
667.332	0.0174744
667.410	0.0174628
667.488	0.0176008
667.567	0.0175869
667.645	0.0175847
667.723	0.0175507
667.801	0.0175191
667.879	0.0177325
667.957	0.0177621
668.035	0.0177551
668.113	0.0180016
668.192	0.0179677
668.270	0.0179506
668.348	0.0180727
668.426	0.0181338
668.504	0.0181794
668.582	0.0181145
668.660	0.0181401
668.738	0.0181778
668.817	0.0181996
668.895	0.0181425
668.973	0.0181277
669.051	0.0180627
669.129	0.0179292
669.207	0.0178865
669.285	0.0177432
669.363	0.0177184
669.442	0.0176366
669.520	0.0176334
669.598	0.0176696
669.676	0.0176132
669.754	0.0175000
669.832	0.0175536
669.910	0.0175847
669.988	0.0177904
670.067	0.0178841
670.145	0.0178081
670.223	0.0178644
670.301	0.0179405
670.379	0.0181152
670.457	0.0180800
670.535	0.0180351
670.613	0.0182004
670.692	0.0180219
670.770	0.0180901
670.848	0.0180704
670.926	0.0180488
671.004	0.0180083
671.082	0.0178727
671.160	0.0178463
671.238	0.0180282
671.317	0.0177882
671.395	0.0178445
671.473	0.0178635
671.551	0.0177647
671.629	0.0180061
671.707	0.0178998
671.785	0.0177879
671.863	0.0178001
671.942	0.0179574
672.020	0.0181886
672.098	0.0179704
672.176	0.0178484
672.254	0.0178760
672.332	0.0178880
672.410	0.0179228
672.488	0.0180081
672.567	0.0179654
672.645	0.0179367
672.723	0.0179737
672.801	0.0178300
672.879	0.0179853
672.957	0.0179382
673.035	0.0178243
673.113	0.0179348
673.192	0.0178498
673.270	0.0177914
673.348	0.0179540
673.426	0.0178873
673.504	0.0178568
673.582	0.0177536
673.660	0.0178112
673.738	0.0178800
673.817	0.0177750
673.895	0.0177303
673.973	0.0178869
674.051	0.0177405
674.129	0.0177643
674.207	0.0179398
674.285	0.0178189
674.363	0.0179449
674.442	0.0180202
674.520	0.0177651
674.598	0.0177905
674.676	0.0177345
674.754	0.0176709
674.832	0.0177711
674.910	0.0177692
674.988	0.0177665
675.067	0.0176816
675.145	0.0177220
675.223	0.0175752
675.301	0.0175725
675.379	0.0176115
675.457	0.0176204
675.535	0.0175016
675.613	0.0175934
675.692	0.0177106
675.770	0.0178942
675.848	0.0177386
675.926	0.0179263
676.004	0.0178980
676.082	0.0178896
676.160	0.0181303
676.238	0.0179095
676.317	0.0179682
676.395	0.0181570
676.473	0.0182570
676.551	0.0182494
676.629	0.0182009
676.707	0.0180660
676.785	0.0181595
676.863	0.0183878
676.942	0.0181641
677.020	0.0178718
677.098	0.0179239
677.176	0.0178720
677.254	0.0178186
677.332	0.0177655
677.410	0.0178194
677.488	0.0176265
677.567	0.0177126
677.645	0.0175645
677.723	0.0176932
677.801	0.0177296
677.879	0.0178545
677.957	0.0177121
678.035	0.0177562
678.113	0.0179671
678.192	0.0177549
678.270	0.0178555
678.348	0.0180614
678.426	0.0180101
678.504	0.0180256
678.582	0.0180618
678.660	0.0178342
678.738	0.0178301
678.817	0.0178703
678.895	0.0178182
678.973	0.0178010
679.051	0.0176198
679.129	0.0176737
679.207	0.0175993
679.285	0.0177315
679.363	0.0174578
679.442	0.0175100
679.520	0.0174032
679.598	0.0175572
679.676	0.0174945
679.754	0.0175085
679.832	0.0175215
679.910	0.0174966
679.988	0.0175698
680.067	0.0177111
680.145	0.0178542
680.223	0.0179910
680.301	0.0181850
680.379	0.0183411
680.457	0.0183743
680.535	0.0186372
680.613	0.0185836
680.692	0.0187133
680.770	0.0188873
680.848	0.0188628
680.926	0.0188406
681.004	0.0188464
681.082	0.0184737
681.160	0.0184103
681.238	0.0183334
681.317	0.0180546
681.395	0.0177733
681.473	0.0175102
681.551	0.0173277
681.629	0.0171664
681.707	0.0169243
681.785	0.0167636
681.863	0.0166145
681.942	0.0166248
682.020	0.0165502
682.098	0.0166502
682.176	0.0167097
682.254	0.0167959
682.332	0.0168912
682.410	0.0172766
682.488	0.0173871
682.567	0.0176591
682.645	0.0179036
682.723	0.0182983
682.801	0.0184039
682.879	0.0186756
682.957	0.0186079
683.035	0.0188553
683.113	0.0189494
683.192	0.0188808
683.270	0.0189208
683.348	0.0188845
683.426	0.0186486
683.504	0.0186208
683.582	0.0185619
683.660	0.0183382
683.738	0.0184409
683.817	0.0183221
683.895	0.0183047
683.973	0.0182948
684.051	0.0181380
684.129	0.0182515
684.207	0.0181523
684.285	0.0179385
684.363	0.0178217
684.442	0.0176909
684.520	0.0175426
684.598	0.0175064
684.676	0.0172430
684.754	0.0171081
684.832	0.0170515
684.910	0.0167619
684.988	0.0167316
685.067	0.0167532
685.145	0.0166381
685.223	0.0166872
685.301	0.0166647
685.379	0.0166897
685.457	0.0169096
685.535	0.0169166
685.613	0.0171592
685.692	0.0172625
685.770	0.0176578
685.848	0.0177972
685.926	0.0179386
686.004	0.0181080
686.082	0.0183839
686.160	0.0185536
686.238	0.0186739
686.317	0.0189926
686.395	0.0191009
686.473	0.0190971
686.551	0.0192997
686.629	0.0194746
686.707	0.0195158
686.785	0.0195119
686.863	0.0193513
686.942	0.0193091
687.020	0.0191251
687.098	0.0190522
687.176	0.0187214
687.254	0.0184887
687.332	0.0182634
687.410	0.0179711
687.488	0.0176067
687.567	0.0174216
687.645	0.0169613
687.723	0.0168483
687.801	0.0165842
687.879	0.0162591
687.957	0.0162129
688.035	0.0160336
688.113	0.0160487
688.192	0.0158241
688.270	0.0159629
688.348	0.0159021
688.426	0.0160159
688.504	0.0160811
688.582	0.0161504
688.660	0.0163972
688.738	0.0167764
688.817	0.0170361
688.895	0.0170939
688.973	0.0174949
689.051	0.0175706
689.129	0.0179095
689.207	0.0181921
689.285	0.0183434
689.363	0.0186689
689.442	0.0191086
689.520	0.0191475
689.598	0.0194081
689.676	0.0197219
689.754	0.0197687
689.832	0.0198628
689.910	0.0200981
689.988	0.0201022
690.067	0.0202801
690.145	0.0202174
690.223	0.0201717
690.301	0.0201295
690.379	0.0201851
690.457	0.0198783
690.535	0.0198002
690.613	0.0194376
690.692	0.0193033
690.770	0.0190244
690.848	0.0187626
690.926	0.0184029
691.004	0.0179510
691.082	0.0178026
691.160	0.0173022
691.238	0.0168656
691.317	0.0165026
691.395	0.0161041
691.473	0.0156596
691.551	0.0153707
691.629	0.0151957
691.707	0.0148769
691.785	0.0148638
691.863	0.0149544
691.942	0.0150731
692.020	0.0151410
692.098	0.0153493
692.176	0.0157455
692.254	0.0159627
692.332	0.0162225
692.410	0.0165079
692.488	0.0168855
692.567	0.0169881
692.645	0.0170618
692.723	0.0172827
692.801	0.0174540
692.879	0.0175998
692.957	0.0179505
693.035	0.0181458
693.113	0.0183950
693.192	0.0186507
693.270	0.0189507
693.348	0.0193234
693.426	0.0194639
693.504	0.0199362
693.582	0.0200289
693.660	0.0201514
693.738	0.0204272
693.817	0.0203841
693.895	0.0205073
693.973	0.0203647
694.051	0.0202249
694.129	0.0200933
694.207	0.0198445
694.285	0.0195929
694.363	0.0195005
694.442	0.0193214
694.520	0.0190734
694.598	0.0189001
694.676	0.0184837
694.754	0.0182425
694.832	0.0179863
694.910	0.0175964
694.988	0.0173972
695.067	0.0169882
695.145	0.0166692
695.223	0.0161665
695.301	0.0160480
695.379	0.0160403
695.457	0.0157568
695.535	0.0155943
695.613	0.0155649
695.692	0.0156418
695.770	0.0157040
695.848	0.0157507
695.926	0.0159672
696.004	0.0161948
696.082	0.0165163
696.160	0.0168332
696.238	0.0171095
696.317	0.0173764
696.395	0.0175751
696.473	0.0179175
696.551	0.0180994
696.629	0.0183046
696.707	0.0184689
696.785	0.0185833
696.863	0.0185981
696.942	0.0185780
697.020	0.0186814
697.098	0.0188097
697.176	0.0188530
697.254	0.0189719
697.332	0.0189503
697.410	0.0190897
697.488	0.0191634
697.567	0.0193909
697.645	0.0192690
697.723	0.0193979
697.801	0.0192870
697.879	0.0193777
697.957	0.0192532
698.035	0.0190597
698.113	0.0187669
698.192	0.0184727
698.270	0.0182594
698.348	0.0178458
698.426	0.0174266
698.504	0.0172256
698.582	0.0169718
698.660	0.0167438
698.738	0.0165630
698.817	0.0165823
698.895	0.0166392
698.973	0.0166234
699.051	0.0166508
699.129	0.0168066
699.207	0.0167208
699.285	0.0166564
699.363	0.0169584
699.442	0.0167915
699.520	0.0170169
699.598	0.0169338
699.676	0.0167341
699.754	0.0167152
699.832	0.0168218
699.910	0.0168143
699.988	0.0168746
700.067	0.0171220
700.145	0.0172284
700.223	0.0174790
700.301	0.0177056
700.379	0.0180692
700.457	0.0184132
700.535	0.0186805
700.613	0.0189620
700.692	0.0193047
700.770	0.0195612
700.848	0.0197650
700.926	0.0199736
701.004	0.0201340
701.082	0.0201833
701.160	0.0203773
701.238	0.0202075
701.317	0.0201591
701.395	0.0199312
701.473	0.0198417
701.551	0.0195479
701.629	0.0191138
701.707	0.0188271
701.785	0.0186616
701.863	0.0183318
701.942	0.0179221
702.020	0.0175364
702.098	0.0174274
702.176	0.0170695
702.254	0.0166691
702.332	0.0165552
702.410	0.0163318
702.488	0.0162865
702.567	0.0164209
702.645	0.0162780
702.723	0.0162090
702.801	0.0163539
702.879	0.0164603
702.957	0.0165982
703.035	0.0166638
703.113	0.0168758
703.192	0.0169485
703.270	0.0171387
703.348	0.0172355
703.426	0.0174388
703.504	0.0174854
703.582	0.0173669
703.660	0.0175344
703.738	0.0175445
703.817	0.0174189
703.895	0.0174674
703.973	0.0174903
704.051	0.0174461
704.129	0.0174690
704.207	0.0175430
704.285	0.0174906
704.363	0.0175223
704.442	0.0175218
704.520	0.0173946
704.598	0.0174179
704.676	0.0175536
704.754	0.0174678
704.832	0.0174560
704.910	0.0173837
704.988	0.0176092
705.067	0.0175344
705.145	0.0176447
705.223	0.0178626
705.301	0.0182369
705.379	0.0184977
705.457	0.0187258
705.535	0.0189685
705.613	0.0193204
705.692	0.0194855
705.770	0.0199170
705.848	0.0199869
705.926	0.0199860
706.004	0.0198672
706.082	0.0198581
706.160	0.0194321
706.238	0.0192209
706.317	0.0190198
706.395	0.0184483
706.473	0.0179087
706.551	0.0176302
706.629	0.0173747
706.707	0.0171638
706.785	0.0169630
706.863	0.0170253
706.942	0.0169935
707.020	0.0171871
707.098	0.0173814
707.176	0.0175971
707.254	0.0182706
707.332	0.0184929
707.410	0.0188095
707.488	0.0193386
707.567	0.0195111
707.645	0.0198240
707.723	0.0199831
707.801	0.0201770
707.879	0.0203236
707.957	0.0203767
708.035	0.0202670
708.113	0.0199941
708.192	0.0196346
708.270	0.0191557
708.348	0.0189361
708.426	0.0184040
708.504	0.0179360
708.582	0.0173650
708.660	0.0168995
708.738	0.0161619
708.817	0.0156333
708.895	0.0152155
708.973	0.0148672
709.051	0.0144689
709.129	0.0141367
709.207	0.0138918
709.285	0.0136119
709.363	0.0136962
709.442	0.0135009
709.520	0.0134774
709.598	0.0136968
709.676	0.0137476
709.754	0.0138119
709.832	0.0139954
709.910	0.0143207
709.988	0.0146324
710.067	0.0150879
710.145	0.0152412
710.223	0.0155801
710.301	0.0159895
710.379	0.0163374
710.457	0.0170042
710.535	0.0173656
710.613	0.0179716
710.692	0.0185392
710.770	0.0190672
710.848	0.0196627
710.926	0.0201883
711.004	0.0206387
711.082	0.0210535
711.160	0.0213831
711.238	0.0218418
711.317	0.0221402
711.395	0.0221204
711.473	0.0223403
711.551	0.0223921
711.629	0.0224003
711.707	0.0223466
711.785	0.0222015
711.863	0.0220138
711.942	0.0219999
712.020	0.0218656
712.098	0.0216014
712.176	0.0213032
712.254	0.0210255
712.332	0.0206786
712.410	0.0204874
712.488	0.0200882
712.567	0.0195792
712.645	0.0192404
712.723	0.0188503
712.801	0.0184976
712.879	0.0183344
712.957	0.0180817
713.035	0.0178443
713.113	0.0175690
713.192	0.0171468
713.270	0.0167995
713.348	0.0164398
713.426	0.0163594
713.504	0.0158686
713.582	0.0155619
713.660	0.0153118
713.738	0.0151066
713.817	0.0150352
713.895	0.0148888
713.973	0.0151167
714.051	0.0152420
714.129	0.0154691
714.207	0.0157305
714.285	0.0159723
714.363	0.0161369
714.442	0.0165174
714.520	0.0165050
714.598	0.0166817
714.676	0.0165719
714.754	0.0166019
714.832	0.0163481
714.910	0.0159647
714.988	0.0158737
715.067	0.0156187
715.145	0.0153098
715.223	0.0150254
715.301	0.0150397
715.379	0.0148784
715.457	0.0148936
715.535	0.0149471
715.613	0.0149283
715.692	0.0150388
715.770	0.0152013
715.848	0.0152519
715.926	0.0153929
716.004	0.0156261
716.082	0.0159173
716.160	0.0161591
716.238	0.0163577
716.317	0.0167046
716.395	0.0170952
716.473	0.0174290
716.551	0.0177567
716.629	0.0180695
716.707	0.0183539
716.785	0.0189352
716.863	0.0193570
716.942	0.0195779
717.020	0.0201352
717.098	0.0205251
717.176	0.0209531
717.254	0.0213483
717.332	0.0218557
717.410	0.0221432
717.488	0.0224616
717.567	0.0229549
717.645	0.0231056
717.723	0.0231464
717.801	0.0233522
717.879	0.0233624
717.957	0.0230740
718.035	0.0227463
718.113	0.0225341
718.192	0.0221463
718.270	0.0219643
718.348	0.0215614
718.426	0.0210724
718.504	0.0206001
718.582	0.0201031
718.660	0.0198213
718.738	0.0193142
718.817	0.0189428
718.895	0.0186192
718.973	0.0181290
719.051	0.0178501
719.129	0.0176036
719.207	0.0172968
719.285	0.0170486
719.363	0.0168683
719.442	0.0167496
719.520	0.0166680
719.598	0.0165649
719.676	0.0161621
719.754	0.0160954
719.832	0.0160535
719.910	0.0159726
719.988	0.0156678
720.067	0.0154790
720.145	0.0153156
720.223	0.0150112
720.301	0.0148537
720.379	0.0147707
720.457	0.0144861
720.535	0.0143557
720.613	0.0140908
720.692	0.0140834
720.770	0.0140528
720.848	0.0139787
720.926	0.0140313
721.004	0.0140112
721.082	0.0141644
721.160	0.0143887
721.238	0.0145776
721.317	0.0147103
721.395	0.0147561
721.473	0.0151620
721.551	0.0155832
721.629	0.0156564
721.707	0.0160448
721.785	0.0161000
721.863	0.0161836
721.942	0.0163332
722.020	0.0166118
722.098	0.0166029
722.176	0.0166498
722.254	0.0168211
722.332	0.0168134
722.410	0.0169209
722.488	0.0169878
722.567	0.0170692
722.645	0.0171382
722.723	0.0173625
722.801	0.0176216
722.879	0.0178673
722.957	0.0182327
723.035	0.0187878
723.113	0.0193150
723.192	0.0196761
723.270	0.0202602
723.348	0.0208181
723.426	0.0215234
723.504	0.0221120
723.582	0.0226127
723.660	0.0231472
723.738	0.0235011
723.817	0.0238949
723.895	0.0241093
723.973	0.0242329
724.051	0.0241955
724.129	0.0240434
724.207	0.0239338
724.285	0.0234219
724.363	0.0231051
724.442	0.0224445
724.520	0.0218758
724.598	0.0214188
724.676	0.0207906
724.754	0.0201138
724.832	0.0196181
724.910	0.0190471
724.988	0.0185803
725.067	0.0181255
725.145	0.0176985
725.223	0.0173070
725.301	0.0170499
725.379	0.0169775
725.457	0.0169102
725.535	0.0166827
725.613	0.0166595
725.692	0.0166909
725.770	0.0167664
725.848	0.0169335
725.926	0.0171339
726.004	0.0171449
726.082	0.0173283
726.160	0.0174033
726.238	0.0173415
726.317	0.0174280
726.395	0.0173305
726.473	0.0173508
726.551	0.0170591
726.629	0.0165826
726.707	0.0161049
726.785	0.0155960
726.863	0.0148575
726.942	0.0144360
727.020	0.0136552
727.098	0.0128813
727.176	0.0125346
727.254	0.0119071
727.332	0.0114050
727.410	0.0111906
727.488	0.0112231
727.567	0.0112476
727.645	0.0114581
727.723	0.0118883
727.801	0.0123760
727.879	0.0129459
727.957	0.0138895
728.035	0.0144630
728.113	0.0149950
728.192	0.0159055
728.270	0.0164699
728.348	0.0170060
728.426	0.0176515
728.504	0.0182307
728.582	0.0185524
728.660	0.0189048
728.738	0.0191026
728.817	0.0192422
728.895	0.0193581
728.973	0.0194685
729.051	0.0193365
729.129	0.0194794
729.207	0.0193963
729.285	0.0195121
729.363	0.0195657
729.442	0.0195660
729.520	0.0196564
729.598	0.0199011
729.676	0.0200361
729.754	0.0204105
729.832	0.0206545
729.910	0.0209263
729.988	0.0214407
730.067	0.0219899
730.145	0.0223596
730.223	0.0229301
730.301	0.0233604
730.379	0.0236556
730.457	0.0239796
730.535	0.0241759
730.613	0.0240937
730.692	0.0240839
730.770	0.0238147
730.848	0.0233368
730.926	0.0227323
731.004	0.0221816
731.082	0.0214349
731.160	0.0206282
731.238	0.0198515
731.317	0.0190284
731.395	0.0184866
731.473	0.0177134
731.551	0.0170775
731.629	0.0168285
731.707	0.0165022
731.785	0.0162435
731.863	0.0162883
731.942	0.0163548
732.020	0.0164043
732.098	0.0166117
732.176	0.0166138
732.254	0.0168630
732.332	0.0170686
732.410	0.0171503
732.488	0.0173130
732.567	0.0174555
732.645	0.0173701
732.723	0.0172499
732.801	0.0171157
732.879	0.0168114
732.957	0.0166302
733.035	0.0162053
733.113	0.0157114
733.192	0.0153214
733.270	0.0147036
733.348	0.0142069
733.426	0.0135329
733.504	0.0129352
733.582	0.0126261
733.660	0.0120707
733.738	0.0118317
733.817	0.0115897
733.895	0.0115685
733.973	0.0114346
734.051	0.0114840
734.129	0.0117626
734.207	0.0120468
734.285	0.0124265
734.363	0.0130262
734.442	0.0134997
734.520	0.0141905
734.598	0.0149987
734.676	0.0155289
734.754	0.0162217
734.832	0.0169965
734.910	0.0176885
734.988	0.0183363
735.067	0.0189191
735.145	0.0194477
735.223	0.0198198
735.301	0.0202921
735.379	0.0207371
735.457	0.0209726
735.535	0.0210107
735.613	0.0211265
735.692	0.0211861
735.770	0.0211206
735.848	0.0211098
735.926	0.0210113
736.004	0.0210875
736.082	0.0210289
736.160	0.0209016
736.238	0.0210061
736.317	0.0211327
736.395	0.0211595
736.473	0.0210046
736.551	0.0211991
736.629	0.0211469
736.707	0.0214390
736.785	0.0213076
736.863	0.0214558
736.942	0.0213998
737.020	0.0213287
737.098	0.0213216
737.176	0.0212390
737.254	0.0209725
737.332	0.0207307
737.410	0.0204179
737.488	0.0201716
737.567	0.0196671
737.645	0.0193165
737.723	0.0189703
737.801	0.0185868
737.879	0.0184127
737.957	0.0180884
738.035	0.0179486
738.113	0.0176644
738.192	0.0177486
738.270	0.0177741
738.348	0.0177721
738.426	0.0178776
738.504	0.0181846
738.582	0.0185211
738.660	0.0184433
738.738	0.0183802
738.817	0.0184163
738.895	0.0184314
738.973	0.0182939
739.051	0.0180659
739.129	0.0178526
739.207	0.0173660
739.285	0.0169506
739.363	0.0166511
739.442	0.0162813
739.520	0.0159984
739.598	0.0155229
739.676	0.0151218
739.754	0.0147297
739.832	0.0144840
739.910	0.0142992
739.988	0.0140266
740.067	0.0136867
740.145	0.0136922
740.223	0.0135477
740.301	0.0133429
740.379	0.0133467
740.457	0.0133015
740.535	0.0133582
740.613	0.0134708
740.692	0.0134523
740.770	0.0135995
740.848	0.0137592
740.926	0.0139537
741.004	0.0142328
741.082	0.0144786
741.160	0.0147739
741.238	0.0152664
741.317	0.0155643
741.395	0.0158620
741.473	0.0164839
741.551	0.0168980
741.629	0.0173626
741.707	0.0178030
741.785	0.0183862
741.863	0.0188818
741.942	0.0192685
742.020	0.0197456
742.098	0.0201483
742.176	0.0203315
742.254	0.0207264
742.332	0.0209931
742.410	0.0212804
742.488	0.0212624
742.567	0.0213514
742.645	0.0212851
742.723	0.0213471
742.801	0.0213855
742.879	0.0212569
742.957	0.0210366
743.035	0.0209778
743.113	0.0208378
743.192	0.0204704
743.270	0.0205412
743.348	0.0205058
743.426	0.0201102
743.504	0.0201215
743.582	0.0200090
743.660	0.0198566
743.738	0.0198511
743.817	0.0196515
743.895	0.0196161
743.973	0.0193240
744.051	0.0194106
744.129	0.0192848
744.207	0.0192673
744.285	0.0190146
744.363	0.0187969
744.442	0.0186240
744.520	0.0185848
744.598	0.0186834
744.676	0.0188036
744.754	0.0186128
744.832	0.0187288
744.910	0.0188354
744.988	0.0190393
745.067	0.0190108
745.145	0.0191473
745.223	0.0192137
745.301	0.0191439
745.379	0.0191325
745.457	0.0189912
745.535	0.0187206
745.613	0.0184445
745.692	0.0182594
745.770	0.0177545
745.848	0.0173198
745.926	0.0170908
746.004	0.0166228
746.082	0.0160809
746.160	0.0157209
746.238	0.0153266
746.317	0.0150500
746.395	0.0149043
746.473	0.0148606
746.551	0.0147392
746.629	0.0146522
746.707	0.0145617
746.785	0.0146244
746.863	0.0146750
746.942	0.0145906
747.020	0.0147211
747.098	0.0145692
747.176	0.0147179
747.254	0.0147413
747.332	0.0147346
747.410	0.0148122
747.488	0.0148357
747.567	0.0148677
747.645	0.0150471
747.723	0.0151563
747.801	0.0153975
747.879	0.0156452
747.957	0.0158942
748.035	0.0160997
748.113	0.0162319
748.192	0.0166808
748.270	0.0169300
748.348	0.0172545
748.426	0.0174566
748.504	0.0177043
748.582	0.0180756
748.660	0.0182281
748.738	0.0184788
748.817	0.0185875
748.895	0.0187276
748.973	0.0189569
749.051	0.0191434
749.129	0.0191055
749.207	0.0192775
749.285	0.0197301
749.363	0.0198934
749.442	0.0202428
749.520	0.0203880
749.598	0.0205627
749.676	0.0206770
749.754	0.0209324
749.832	0.0209250
749.910	0.0208408
749.988	0.0209402
750.067	0.0210439
750.145	0.0210023
750.223	0.0207249
750.301	0.0204356
750.379	0.0202897
750.457	0.0201595
750.535	0.0196767
750.613	0.0193286
750.692	0.0190639
750.770	0.0187505
750.848	0.0185954
750.926	0.0185944
751.004	0.0184636
751.082	0.0184161
751.160	0.0184130
751.238	0.0184151
751.317	0.0185373
751.395	0.0188281
751.473	0.0189745
751.551	0.0189761
751.629	0.0191412
751.707	0.0192112
751.785	0.0190533
751.863	0.0191264
751.942	0.0190664
752.020	0.0190853
752.098	0.0188536
752.176	0.0186861
752.254	0.0184569
752.332	0.0181805
752.410	0.0180257
752.488	0.0176884
752.567	0.0174524
752.645	0.0171847
752.723	0.0169479
752.801	0.0166199
752.879	0.0163949
752.957	0.0161823
753.035	0.0162086
753.113	0.0159063
753.192	0.0158605
753.270	0.0157287
753.348	0.0157299
753.426	0.0157186
753.504	0.0155502
753.582	0.0153877
753.660	0.0153613
753.738	0.0154475
753.817	0.0155882
753.895	0.0155103
753.973	0.0155190
754.051	0.0156669
754.129	0.0157237
754.207	0.0157047
754.285	0.0157641
754.363	0.0159168
754.442	0.0160658
754.520	0.0160112
754.598	0.0162045
754.676	0.0163809
754.754	0.0164169
754.832	0.0165501
754.910	0.0167055
754.988	0.0169247
755.067	0.0169222
755.145	0.0169756
755.223	0.0169898
755.301	0.0170695
755.379	0.0171075
755.457	0.0172587
755.535	0.0175276
755.613	0.0175780
755.692	0.0176312
755.770	0.0178896
755.848	0.0181827
755.926	0.0184824
756.004	0.0186068
756.082	0.0186897
756.160	0.0189658
756.238	0.0191328
756.317	0.0192197
756.395	0.0195320
756.473	0.0194902
756.551	0.0195370
756.629	0.0196664
756.707	0.0196176
756.785	0.0195441
756.863	0.0196353
756.942	0.0194227
757.020	0.0194280
757.098	0.0193658
757.176	0.0192273
757.254	0.0193277
757.332	0.0192735
757.410	0.0192899
757.488	0.0193233
757.567	0.0194421
757.645	0.0194868
757.723	0.0194140
757.801	0.0194852
757.879	0.0196127
757.957	0.0197404
758.035	0.0197886
758.113	0.0197958
758.192	0.0199374
758.270	0.0198002
758.348	0.0195987
758.426	0.0195895
758.504	0.0192603
758.582	0.0189720
758.660	0.0187138
758.738	0.0183663
758.817	0.0181445
758.895	0.0177722
758.973	0.0178688
759.051	0.0175248
759.129	0.0172446
759.207	0.0170304
759.285	0.0170944
759.363	0.0171220
759.442	0.0168833
759.520	0.0169859
759.598	0.0171019
759.676	0.0169180
759.754	0.0170496
759.832	0.0170494
759.910	0.0172256
759.988	0.0172297
760.067	0.0172999
760.145	0.0174744
760.223	0.0172549
760.301	0.0173761
760.379	0.0172980
760.457	0.0173363
760.535	0.0172224
760.613	0.0170867
760.692	0.0169624
760.770	0.0168033
760.848	0.0166730
760.926	0.0165205
761.004	0.0163528
761.082	0.0161703
761.160	0.0159751
761.238	0.0157387
761.317	0.0155478
761.395	0.0154791
761.473	0.0155099
761.551	0.0155370
761.629	0.0156341
761.707	0.0158815
761.785	0.0160982
761.863	0.0161575
761.942	0.0165051
762.020	0.0168726
762.098	0.0171984
762.176	0.0174537
762.254	0.0175906
762.332	0.0177599
762.410	0.0178947
762.488	0.0179757
762.567	0.0180052
762.645	0.0181847
762.723	0.0180692
762.801	0.0177824
762.879	0.0178536
762.957	0.0176910
763.035	0.0176653
763.113	0.0176888
763.192	0.0176821
763.270	0.0176994
763.348	0.0176054
763.426	0.0177210
763.504	0.0176966
763.582	0.0179565
763.660	0.0182600
763.738	0.0184131
763.817	0.0186162
763.895	0.0188258
763.973	0.0189098
764.051	0.0192781
764.129	0.0196053
764.207	0.0197198
764.285	0.0198274
764.363	0.0200698
764.442	0.0202171
764.520	0.0201780
764.598	0.0202333
764.676	0.0202623
764.754	0.0201238
764.832	0.0199567
764.910	0.0198498
764.988	0.0195644
765.067	0.0192135
765.145	0.0190314
765.223	0.0185881
765.301	0.0184167
765.379	0.0180173
765.457	0.0178176
765.535	0.0175966
765.613	0.0174928
765.692	0.0173614
765.770	0.0172864
765.848	0.0173508
765.926	0.0174468
766.004	0.0176727
766.082	0.0178408
766.160	0.0179564
766.238	0.0182294
766.317	0.0182697
766.395	0.0185250
766.473	0.0186339
766.551	0.0188528
766.629	0.0189636
766.707	0.0189020
766.785	0.0189082
766.863	0.0187212
766.942	0.0186204
767.020	0.0185048
767.098	0.0182555
767.176	0.0180021
767.254	0.0178372
767.332	0.0175205
767.410	0.0172378
767.488	0.0171597
767.567	0.0168238
767.645	0.0166380
767.723	0.0162830
767.801	0.0162450
767.879	0.0161268
767.957	0.0162917
768.035	0.0160947
768.113	0.0160249
768.192	0.0162122
768.270	0.0162181
768.348	0.0163668
768.426	0.0165778
768.504	0.0167736
768.582	0.0169344
768.660	0.0170755
768.738	0.0173377
768.817	0.0173738
768.895	0.0173968
768.973	0.0174194
769.051	0.0172526
769.129	0.0172336
769.207	0.0170713
769.285	0.0169036
769.363	0.0168517
769.442	0.0166766
769.520	0.0166789
769.598	0.0166026
769.676	0.0164834
769.754	0.0162119
769.832	0.0163915
769.910	0.0164801
769.988	0.0164104
770.067	0.0166723
770.145	0.0167735
770.223	0.0171517
770.301	0.0174010
770.379	0.0175382
770.457	0.0178744
770.535	0.0183002
770.613	0.0185742
770.692	0.0187497
770.770	0.0192827
770.848	0.0195074
770.926	0.0194775
771.004	0.0195644
771.082	0.0195146
771.160	0.0196011
771.238	0.0194974
771.317	0.0194276
771.395	0.0193034
771.473	0.0189713
771.551	0.0187257
771.629	0.0184962
771.707	0.0181831
771.785	0.0179793
771.863	0.0179925
771.942	0.0179626
772.020	0.0179530
772.098	0.0179672
772.176	0.0179391
772.254	0.0181149
772.332	0.0182347
772.410	0.0185035
772.488	0.0186485
772.567	0.0188616
772.645	0.0191149
772.723	0.0193203
772.801	0.0193732
772.879	0.0194457
772.957	0.0195383
773.035	0.0195093
773.113	0.0197083
773.192	0.0195000
773.270	0.0194720
773.348	0.0194189
773.426	0.0191816
773.504	0.0190965
773.582	0.0188992
773.660	0.0187438
773.738	0.0184595
773.817	0.0181738
773.895	0.0178323
773.973	0.0175598
774.051	0.0174063
774.129	0.0171525
774.207	0.0171423
774.285	0.0169186
774.363	0.0168543
774.442	0.0168671
774.520	0.0168747
774.598	0.0168597
774.676	0.0170105
774.754	0.0170748
774.832	0.0171635
774.910	0.0172784
774.988	0.0174277
775.067	0.0175250
775.145	0.0176714
775.223	0.0177290
775.301	0.0176230
775.379	0.0175981
775.457	0.0176475
775.535	0.0174207
775.613	0.0173056
775.692	0.0171249
775.770	0.0171667
775.848	0.0170988
775.926	0.0166954
776.004	0.0166609
776.082	0.0163784
776.160	0.0164482
776.238	0.0165586
776.317	0.0164175
776.395	0.0163163
776.473	0.0164852
776.551	0.0164825
776.629	0.0165261
776.707	0.0166740
776.785	0.0168410
776.863	0.0168604
776.942	0.0172404
777.020	0.0174196
777.098	0.0174290
777.176	0.0175645
777.254	0.0177763
777.332	0.0180124
777.410	0.0179780
777.488	0.0179941
777.567	0.0179869
777.645	0.0179572
777.723	0.0178124
777.801	0.0177949
777.879	0.0177637
777.957	0.0177259
778.035	0.0177229
778.113	0.0175343
778.192	0.0175047
778.270	0.0176084
778.348	0.0174952
778.426	0.0175532
778.504	0.0175958
778.582	0.0178147
778.660	0.0179309
778.738	0.0179881
778.817	0.0180437
778.895	0.0182642
778.973	0.0185830
779.051	0.0187685
779.129	0.0189770
779.207	0.0190109
779.285	0.0192515
779.363	0.0193887
779.442	0.0193890
779.520	0.0196645
779.598	0.0196390
779.676	0.0195936
779.754	0.0194928
779.832	0.0194701
779.910	0.0194530
779.988	0.0192800
780.067	0.0190790
780.145	0.0192256
780.223	0.0189492
780.301	0.0187692
780.379	0.0186060
780.457	0.0184564
780.535	0.0186230
780.613	0.0183881
780.692	0.0182985
780.770	0.0182647
780.848	0.0182065
780.926	0.0182333
781.004	0.0180293
781.082	0.0181384
781.160	0.0180518
781.238	0.0180450
781.317	0.0180958
781.395	0.0180612
781.473	0.0178709
781.551	0.0178756
781.629	0.0175328
781.707	0.0176211
781.785	0.0176930
781.863	0.0177064
781.942	0.0175114
782.020	0.0175098
782.098	0.0173356
782.176	0.0173592
782.254	0.0171902
782.332	0.0171814
782.410	0.0171375
782.488	0.0171433
782.567	0.0172094
782.645	0.0170644
782.723	0.0169789
782.801	0.0171534
782.879	0.0170618
782.957	0.0170926
783.035	0.0170879
783.113	0.0171059
783.192	0.0171268
783.270	0.0173801
783.348	0.0171279
783.426	0.0172203
783.504	0.0171918
783.582	0.0171755
783.660	0.0171459
783.738	0.0169461
783.817	0.0169358
783.895	0.0170058
783.973	0.0168718
784.051	0.0168089
784.129	0.0168327
784.207	0.0168222
784.285	0.0168840
784.363	0.0170222
784.442	0.0170351
784.520	0.0169637
784.598	0.0168968
784.676	0.0173255
784.754	0.0172034
784.832	0.0172929
784.910	0.0174459
784.988	0.0173929
785.067	0.0175127
785.145	0.0176594
785.223	0.0178203
785.301	0.0176820
785.379	0.0177622
785.457	0.0178260
785.535	0.0180711
785.613	0.0181382
785.692	0.0182857
785.770	0.0184166
785.848	0.0183372
785.926	0.0183449
786.004	0.0184158
786.082	0.0183508
786.160	0.0185832
786.238	0.0184129
786.317	0.0184266
786.395	0.0187588
786.473	0.0187241
786.551	0.0186385
786.629	0.0187328
786.707	0.0187924
786.785	0.0188776
786.863	0.0189005
786.942	0.0189309
787.020	0.0188617
787.098	0.0190858
787.176	0.0189520
787.254	0.0188892
787.332	0.0189937
787.410	0.0189206
787.488	0.0187202
787.567	0.0186198
787.645	0.0186497
787.723	0.0186961
787.801	0.0185603
787.879	0.0184084
787.957	0.0183627
788.035	0.0183257
788.113	0.0183999
788.192	0.0181875
788.270	0.0184100
788.348	0.0182262
788.426	0.0181746
788.504	0.0181388
788.582	0.0182090
788.660	0.0181242
788.738	0.0178635
788.817	0.0179796
788.895	0.0179203
788.973	0.0179103
789.051	0.0178002
789.129	0.0178536
789.207	0.0177100
789.285	0.0176698
789.363	0.0175806
789.442	0.0175091
789.520	0.0174364
789.598	0.0174323
789.676	0.0173006
789.754	0.0172200
789.832	0.0171359
789.910	0.0172643
789.988	0.0170509
790.067	0.0171542
790.145	0.0171074
790.223	0.0171242
790.301	0.0170897
790.379	0.0171249
790.457	0.0171433
790.535	0.0171172
790.613	0.0173367
790.692	0.0172495
790.770	0.0175203
790.848	0.0176734
790.926	0.0175526
791.004	0.0177843
791.082	0.0178221
791.160	0.0178731
791.238	0.0180042
791.317	0.0179037
791.395	0.0180392
791.473	0.0179688
791.551	0.0177979
791.629	0.0176898
791.707	0.0176498
791.785	0.0175713
791.863	0.0175378
791.942	0.0174218
792.020	0.0173119
792.098	0.0172683
792.176	0.0172317
792.254	0.0170984
792.332	0.0169087
792.410	0.0168476
792.488	0.0168698
792.567	0.0169787
792.645	0.0167951
792.723	0.0169905
792.801	0.0170345
792.879	0.0170532
792.957	0.0173205
793.035	0.0174117
793.113	0.0176099
793.192	0.0178053
793.270	0.0179494
793.348	0.0181181
793.426	0.0182673
793.504	0.0183386
793.582	0.0183949
793.660	0.0185582
793.738	0.0185207
793.817	0.0185843
793.895	0.0186956
793.973	0.0187020
794.051	0.0186965
794.129	0.0186681
794.207	0.0183649
794.285	0.0185233
794.363	0.0185656
794.442	0.0185271
794.520	0.0185368
794.598	0.0186261
794.676	0.0187358
794.754	0.0185521
794.832	0.0187227
794.910	0.0187938
794.988	0.0188391
795.067	0.0187296
795.145	0.0187238
795.223	0.0187518
795.301	0.0186894
795.379	0.0186855
795.457	0.0184352
795.535	0.0183914
795.613	0.0183667
795.692	0.0181496
795.770	0.0181970
795.848	0.0181216
795.926	0.0179007
796.004	0.0178027
796.082	0.0177894
796.160	0.0177045
796.238	0.0178313
796.317	0.0176705
796.395	0.0177743
796.473	0.0177287
796.551	0.0174848
796.629	0.0174908
796.707	0.0175683
796.785	0.0175830
796.863	0.0177825
796.942	0.0177055
797.020	0.0177602
797.098	0.0178165
797.176	0.0178945
797.254	0.0179305
797.332	0.0180029
797.410	0.0180621
797.488	0.0180917
797.567	0.0179039
797.645	0.0178831
797.723	0.0178784
797.801	0.0178760
797.879	0.0179095
797.957	0.0178426
798.035	0.0177019
798.113	0.0177141
798.192	0.0176321
798.270	0.0175876
798.348	0.0176479
798.426	0.0174672
798.504	0.0174171
798.582	0.0173750
798.660	0.0173851
798.738	0.0172114
798.817	0.0172922
798.895	0.0172121
798.973	0.0173311
799.051	0.0172552
799.129	0.0172790
799.207	0.0172152
799.285	0.0173689
799.363	0.0172807
799.442	0.0172293
799.520	0.0173082
799.598	0.0174287
799.676	0.0173811
799.754	0.0172923
799.832	0.0174018
799.910	0.0174165
799.988	0.0174475
800.067	0.0173971
800.145	0.0174519
800.223	0.0174610
800.301	0.0173815
800.379	0.0172851
800.457	0.0172198
800.535	0.0172949
800.613	0.0172221
800.692	0.0172702
800.770	0.0173816
800.848	0.0174561
800.926	0.0174767
801.004	0.0174386
801.082	0.0176159
801.160	0.0177655
801.238	0.0177711
801.317	0.0180182
801.395	0.0180540
801.473	0.0183250
801.551	0.0185268
801.629	0.0185384
801.707	0.0187540
801.785	0.0188387
801.863	0.0190419
801.942	0.0190240
802.020	0.0191612
802.098	0.0191084
802.176	0.0192196
802.254	0.0190478
802.332	0.0190587
802.410	0.0189446
802.488	0.0188872
802.567	0.0187425
802.645	0.0187296
802.723	0.0185032
802.801	0.0184492
802.879	0.0182652
802.957	0.0182363
803.035	0.0182882
803.113	0.0182635
803.192	0.0181017
803.270	0.0180872
803.348	0.0180643
803.426	0.0181604
803.504	0.0181846
803.582	0.0182484
803.660	0.0182466
803.738	0.0182928
803.817	0.0183313
803.895	0.0182604
803.973	0.0182790
804.051	0.0184364
804.129	0.0183320
804.207	0.0182624
804.285	0.0183220
804.363	0.0181378
804.442	0.0181705
804.520	0.0180340
804.598	0.0179767
804.676	0.0179161
804.754	0.0176508
804.832	0.0175854
804.910	0.0175343
804.988	0.0174596
805.067	0.0172737
805.145	0.0171185
805.223	0.0171779
805.301	0.0168837
805.379	0.0168060
805.457	0.0168429
805.535	0.0167580
805.613	0.0167785
805.692	0.0166985
805.770	0.0166235
805.848	0.0167761
805.926	0.0170217
806.004	0.0169241
806.082	0.0169924
806.160	0.0171572
806.238	0.0171306
806.317	0.0171204
806.395	0.0173250
806.473	0.0173573
806.551	0.0173368
806.629	0.0173155
806.707	0.0174390
806.785	0.0173748
806.863	0.0173734
806.942	0.0174987
807.020	0.0175008
807.098	0.0174962
807.176	0.0175138
807.254	0.0176147
807.332	0.0176284
807.410	0.0175839
807.488	0.0178246
807.567	0.0179256
807.645	0.0180453
807.723	0.0181615
807.801	0.0180729
807.879	0.0181956
807.957	0.0184000
808.035	0.0183532
808.113	0.0184442
808.192	0.0186111
808.270	0.0187080
808.348	0.0188053
808.426	0.0187849
808.504	0.0187606
808.582	0.0187770
808.660	0.0187375
808.738	0.0187710
808.817	0.0185422
808.895	0.0186995
808.973	0.0185596
809.051	0.0182636
809.129	0.0182935
809.207	0.0180699
809.285	0.0181729
809.363	0.0179575
809.442	0.0177701
809.520	0.0177834
809.598	0.0178288
809.676	0.0178365
809.754	0.0177966
809.832	0.0178204
809.910	0.0179324
809.988	0.0179566
810.067	0.0180693
810.145	0.0179233
810.223	0.0180377
810.301	0.0180067
810.379	0.0181395
810.457	0.0181017
810.535	0.0180891
810.613	0.0181119
810.692	0.0180285
810.770	0.0180479
810.848	0.0179843
810.926	0.0177926
811.004	0.0178770
811.082	0.0177768
811.160	0.0177280
811.238	0.0176509
811.317	0.0175089
811.395	0.0173250
811.473	0.0173022
811.551	0.0173365
811.629	0.0172356
811.707	0.0173356
811.785	0.0173294
811.863	0.0173293
811.942	0.0172597
812.020	0.0174763
812.098	0.0176472
812.176	0.0176170
812.254	0.0176579
812.332	0.0178461
812.410	0.0178478
812.488	0.0179264
812.567	0.0181628
812.645	0.0182036
812.723	0.0181029
812.801	0.0180706
812.879	0.0182305
812.957	0.0181817
813.035	0.0180425
813.113	0.0180237
813.192	0.0179494
813.270	0.0178282
813.348	0.0180976
813.426	0.0178851
813.504	0.0177798
813.582	0.0178065
813.660	0.0176881
813.738	0.0178622
813.817	0.0178729
813.895	0.0179488
813.973	0.0178028
814.051	0.0179643
814.129	0.0180181
814.207	0.0182230
814.285	0.0181107
814.363	0.0181482
814.442	0.0183495
814.520	0.0181626
814.598	0.0181728
814.676	0.0182768
814.754	0.0183113
814.832	0.0183617
814.910	0.0181821
814.988	0.0182333
815.067	0.0182420
815.145	0.0181097
815.223	0.0180829
815.301	0.0179146
815.379	0.0179047
815.457	0.0175605
815.535	0.0174975
815.613	0.0175970
815.692	0.0174612
815.770	0.0173389
815.848	0.0172936
815.926	0.0172529
816.004	0.0172565
816.082	0.0171242
816.160	0.0171014
816.238	0.0172243
816.317	0.0170319
816.395	0.0171629
816.473	0.0172541
816.551	0.0171701
816.629	0.0171179
816.707	0.0172686
816.785	0.0173351
816.863	0.0173750
816.942	0.0175003
817.020	0.0174046
817.098	0.0173833
817.176	0.0175990
817.254	0.0176131
817.332	0.0177818
817.410	0.0176974
817.488	0.0175937
817.567	0.0178058
817.645	0.0177640
817.723	0.0179049
817.801	0.0180003
817.879	0.0178267
817.957	0.0179703
818.035	0.0179578
818.113	0.0179789
818.192	0.0179513
818.270	0.0182180
818.348	0.0181318
818.426	0.0181069
818.504	0.0180502
818.582	0.0180667
818.660	0.0182994
818.738	0.0181556
818.817	0.0182168
818.895	0.0184334
818.973	0.0184370
819.051	0.0183360
819.129	0.0184039
819.207	0.0185635
819.285	0.0184291
819.363	0.0184839
819.442	0.0186153
819.520	0.0185565
819.598	0.0186359
819.676	0.0186163
819.754	0.0186539
819.832	0.0186423
819.910	0.0185954
819.988	0.0184715
820.067	0.0185716
820.145	0.0186855
820.223	0.0186635
820.301	0.0186520
820.379	0.0186028
820.457	0.0184569
820.535	0.0183744
820.613	0.0182384
820.692	0.0182335
820.770	0.0182925
820.848	0.0180514
820.926	0.0179457
821.004	0.0179900
821.082	0.0178867
821.160	0.0177392
821.238	0.0178136
821.317	0.0175912
821.395	0.0174937
821.473	0.0173997
821.551	0.0174696
821.629	0.0173191
821.707	0.0174545
821.785	0.0174137
821.863	0.0172398
821.942	0.0173415
822.020	0.0173940
822.098	0.0172219
822.176	0.0171564
822.254	0.0172674
822.332	0.0172714
822.410	0.0171863
822.488	0.0173017
822.567	0.0172288
822.645	0.0172300
822.723	0.0173705
822.801	0.0172442
822.879	0.0172055
822.957	0.0172298
823.035	0.0172419
823.113	0.0170433
823.192	0.0171723
823.270	0.0172623
823.348	0.0172077
823.426	0.0171242
823.504	0.0171490
823.582	0.0172003
823.660	0.0171441
823.738	0.0170682
823.817	0.0171831
823.895	0.0173109
823.973	0.0173237
824.051	0.0172946
824.129	0.0174490
824.207	0.0175101
824.285	0.0175545
824.363	0.0176721
824.442	0.0177011
824.520	0.0177493
824.598	0.0177707
824.676	0.0180308
824.754	0.0180057
824.832	0.0179797
824.910	0.0180968
824.988	0.0180882
825.067	0.0182586
825.145	0.0184393
825.223	0.0183672
825.301	0.0182926
825.379	0.0183731
825.457	0.0184592
825.535	0.0186683
825.613	0.0186202
825.692	0.0186520
825.770	0.0185464
825.848	0.0187125
825.926	0.0186301
826.004	0.0185993
826.082	0.0186987
826.160	0.0186701
826.238	0.0187727
826.317	0.0187802
826.395	0.0188280
826.473	0.0188033
826.551	0.0187533
826.629	0.0187621
826.707	0.0188232
826.785	0.0188603
826.863	0.0187120
826.942	0.0185555
827.020	0.0186513
827.098	0.0186451
827.176	0.0184438
827.254	0.0185598
827.332	0.0184330
827.410	0.0183624
827.488	0.0181509
827.567	0.0181983
827.645	0.0181790
827.723	0.0180701
827.801	0.0179870
827.879	0.0179644
827.957	0.0180196
828.035	0.0180003
828.113	0.0178544
828.192	0.0179376
828.270	0.0178427
828.348	0.0177512
828.426	0.0176688
828.504	0.0175821
828.582	0.0175862
828.660	0.0174516
828.738	0.0174139
828.817	0.0172735
828.895	0.0172356
828.973	0.0170546
829.051	0.0170777
829.129	0.0171606
829.207	0.0168875
829.285	0.0168089
829.363	0.0168571
829.442	0.0167805
829.520	0.0166731
829.598	0.0166820
829.676	0.0166822
829.754	0.0166983
829.832	0.0166904
829.910	0.0167972
829.988	0.0168668
830.067	0.0168631
830.145	0.0167635
830.223	0.0169408
830.301	0.0171793
830.379	0.0171187
830.457	0.0172266
830.535	0.0174477
830.613	0.0174300
830.692	0.0176296
830.770	0.0176022
830.848	0.0177890
830.926	0.0176649
831.004	0.0176846
831.082	0.0178131
831.160	0.0179345
831.238	0.0180628
831.317	0.0181284
831.395	0.0181361
831.473	0.0180984
831.551	0.0181333
831.629	0.0180384
831.707	0.0181334
831.785	0.0180381
831.863	0.0181562
831.942	0.0181538
832.020	0.0181847
832.098	0.0181723
832.176	0.0181672
832.254	0.0183287
832.332	0.0182377
832.410	0.0184924
832.488	0.0183652
832.567	0.0183686
832.645	0.0184391
832.723	0.0184267
832.801	0.0186546
832.879	0.0185266
832.957	0.0185352
833.035	0.0184093
833.113	0.0187656
833.192	0.0187142
833.270	0.0186247
833.348	0.0186067
833.426	0.0186398
833.504	0.0188224
833.582	0.0189645
833.660	0.0187199
833.738	0.0186790
833.817	0.0186043
833.895	0.0185034
833.973	0.0183970
834.051	0.0185251
834.129	0.0185247
834.207	0.0183469
834.285	0.0184544
834.363	0.0183300
834.442	0.0182349
834.520	0.0180755
834.598	0.0181605
834.676	0.0182020
834.754	0.0181347
834.832	0.0179070
834.910	0.0179367
834.988	0.0177751
835.067	0.0178963
835.145	0.0178361
835.223	0.0178330
835.301	0.0176289
835.379	0.0175800
835.457	0.0175759
835.535	0.0175929
835.613	0.0174483
835.692	0.0174652
835.770	0.0173995
835.848	0.0173916
835.926	0.0172456
836.004	0.0172304
836.082	0.0171883
836.160	0.0171814
836.238	0.0170205
836.317	0.0170358
836.395	0.0171245
836.473	0.0168317
836.551	0.0169697
836.629	0.0169277
836.707	0.0168952
836.785	0.0168886
836.863	0.0169547
836.942	0.0170508
837.020	0.0170287
837.098	0.0170341
837.176	0.0169512
837.254	0.0171625
837.332	0.0172792
837.410	0.0172939
837.488	0.0173550
837.567	0.0174643
837.645	0.0176812
837.723	0.0177116
837.801	0.0176868
837.879	0.0177137
837.957	0.0178712
838.035	0.0180666
838.113	0.0180711
838.192	0.0181918
838.270	0.0182242
838.348	0.0181208
838.426	0.0182597
838.504	0.0182767
838.582	0.0183945
838.660	0.0184036
838.738	0.0182676
838.817	0.0181429
838.895	0.0182993
838.973	0.0183179
839.051	0.0181609
839.129	0.0181031
839.207	0.0181078
839.285	0.0181212
839.363	0.0179556
839.442	0.0179675
839.520	0.0180627
839.598	0.0180701
839.676	0.0180654
839.754	0.0180579
839.832	0.0181342
839.910	0.0182613
839.988	0.0182301
840.067	0.0183087
840.145	0.0183167
840.223	0.0182737
840.301	0.0182912
840.379	0.0184206
840.457	0.0185354
840.535	0.0185378
840.613	0.0184425
840.692	0.0183535
840.770	0.0183144
840.848	0.0184780
840.926	0.0183228
841.004	0.0182032
841.082	0.0183290
841.160	0.0182858
841.238	0.0181837
841.317	0.0182820
841.395	0.0182902
841.473	0.0180096
841.551	0.0180159
841.629	0.0179138
841.707	0.0180560
841.785	0.0178726
841.863	0.0178046
841.942	0.0177733
842.020	0.0177746
842.098	0.0175147
842.176	0.0176031
842.254	0.0176260
842.332	0.0176466
842.410	0.0174741
842.488	0.0176016
842.567	0.0175866
842.645	0.0173454
842.723	0.0176495
842.801	0.0173801
842.879	0.0173936
842.957	0.0173878
843.035	0.0173769
843.113	0.0175201
843.192	0.0173933
843.270	0.0173361
843.348	0.0173964
843.426	0.0175125
843.504	0.0175296
843.582	0.0174072
843.660	0.0173798
843.738	0.0174898
843.817	0.0175062
843.895	0.0175962
843.973	0.0177282
844.051	0.0176873
844.129	0.0178556
844.207	0.0178550
844.285	0.0176711
844.363	0.0177562
844.442	0.0179230
844.520	0.0179198
844.598	0.0178339
844.676	0.0180030
844.754	0.0178535
844.832	0.0179391
844.910	0.0178528
844.988	0.0178903
845.067	0.0178626
845.145	0.0178069
845.223	0.0177760
845.301	0.0178844
845.379	0.0178107
845.457	0.0177573
845.535	0.0178534
845.613	0.0178008
845.692	0.0177824
845.770	0.0178455
845.848	0.0178953
845.926	0.0178304
846.004	0.0179741
846.082	0.0180780
846.160	0.0181731
846.238	0.0181586
846.317	0.0182254
846.395	0.0182460
846.473	0.0181808
846.551	0.0184151
846.629	0.0184274
846.707	0.0182720
846.785	0.0181715
846.863	0.0183106
846.942	0.0181777
847.020	0.0181336
847.098	0.0180341
847.176	0.0180825
847.254	0.0181135
847.332	0.0180708
847.410	0.0180169
847.488	0.0179459
847.567	0.0177508
847.645	0.0177924
847.723	0.0178574
847.801	0.0178477
847.879	0.0177911
847.957	0.0177414
848.035	0.0178436
848.113	0.0177872
848.192	0.0179330
848.270	0.0179157
848.348	0.0179138
848.426	0.0178429
848.504	0.0181334
848.582	0.0179843
848.660	0.0179102
848.738	0.0179742
848.817	0.0180795
848.895	0.0180489
848.973	0.0180972
849.051	0.0180474
849.129	0.0181261
849.207	0.0181094
849.285	0.0180513
849.363	0.0179762
849.442	0.0179805
849.520	0.0180358
849.598	0.0179877
849.676	0.0177829
849.754	0.0179279
849.832	0.0178978
849.910	0.0178085
849.988	0.0177889
850.067	0.0177257
850.145	0.0178232
850.223	0.0178087
850.301	0.0177758
850.379	0.0176375
850.457	0.0177659
850.535	0.0178886
850.613	0.0177275
850.692	0.0177698
850.770	0.0178552
850.848	0.0177544
850.926	0.0177246
851.004	0.0179007
851.082	0.0177977
851.160	0.0179688
851.238	0.0178603
851.317	0.0179517
851.395	0.0178448
851.473	0.0179588
851.551	0.0179099
851.629	0.0178244
851.707	0.0178514
851.785	0.0180483
851.863	0.0177361
851.942	0.0176810
852.020	0.0178703
852.098	0.0177528
852.176	0.0176566
852.254	0.0177227
852.332	0.0177528
852.410	0.0177393
852.488	0.0177444
852.567	0.0177472
852.645	0.0177604
852.723	0.0177827
852.801	0.0178777
852.879	0.0178808
852.957	0.0178506
853.035	0.0178538
853.113	0.0177263
853.192	0.0179092
853.270	0.0178358
853.348	0.0179295
853.426	0.0179619
853.504	0.0179906
853.582	0.0180704
853.660	0.0179042
853.738	0.0177627
853.817	0.0179501
853.895	0.0179621
853.973	0.0179890
854.051	0.0177471
854.129	0.0178275
854.207	0.0178590
854.285	0.0178935
854.363	0.0179695
854.442	0.0177602
854.520	0.0178432
854.598	0.0179518
854.676	0.0179617
854.754	0.0179582
854.832	0.0178976
854.910	0.0180013
854.988	0.0179951
855.067	0.0178905
855.145	0.0180103
855.223	0.0179764
855.301	0.0179808
855.379	0.0180699
855.457	0.0178806
855.535	0.0178913
855.613	0.0179722
855.692	0.0178091
855.770	0.0179677
855.848	0.0177678
855.926	0.0178578
856.004	0.0178367
856.082	0.0177953
856.160	0.0177228
856.238	0.0177201
856.317	0.0179251
856.395	0.0177531
856.473	0.0179015
856.551	0.0178668
856.629	0.0179112
856.707	0.0179028
856.785	0.0179321
856.863	0.0177651
856.942	0.0178710
857.020	0.0178745
857.098	0.0179250
857.176	0.0181397
857.254	0.0179356
857.332	0.0180338
857.410	0.0178854
857.488	0.0178412
857.567	0.0178157
857.645	0.0178655
857.723	0.0178258
857.801	0.0177576
857.879	0.0177279
857.957	0.0178551
858.035	0.0178158
858.113	0.0178301
858.192	0.0177412
858.270	0.0176562
858.348	0.0175852
858.426	0.0177334
858.504	0.0176022
858.582	0.0176900
858.660	0.0178112
858.738	0.0177903
858.817	0.0177233
858.895	0.0177460
858.973	0.0177399
859.051	0.0177248
859.129	0.0178535
859.207	0.0179266
859.285	0.0177628
859.363	0.0177703
859.442	0.0178672
859.520	0.0177971
859.598	0.0178690
859.676	0.0178625
859.754	0.0178490
859.832	0.0178581
859.910	0.0179488
859.988	0.0178127
860.067	0.0177766
860.145	0.0177989
860.223	0.0176468
860.301	0.0178583
860.379	0.0178735
860.457	0.0178722
860.535	0.0177467
860.613	0.0177914
860.692	0.0179229
860.770	0.0178225
860.848	0.0178892
860.926	0.0179745
861.004	0.0178467
861.082	0.0180728
861.160	0.0179321
861.238	0.0180288
861.317	0.0180013
861.395	0.0181331
861.473	0.0181101
861.551	0.0179907
861.629	0.0178968
861.707	0.0179769
861.785	0.0180577
861.863	0.0180906
861.942	0.0180503
862.020	0.0180615
862.098	0.0178908
862.176	0.0180466
862.254	0.0178145
862.332	0.0180484
862.410	0.0178925
862.488	0.0177339
862.567	0.0178001
862.645	0.0176942
862.723	0.0176883
862.801	0.0177682
862.879	0.0177984
862.957	0.0176472
863.035	0.0176255
863.113	0.0177187
863.192	0.0176691
863.270	0.0177843
863.348	0.0176066
863.426	0.0177806
863.504	0.0177751
863.582	0.0178123
863.660	0.0178207
863.738	0.0178761
863.817	0.0177266
863.895	0.0178059
863.973	0.0178158
864.051	0.0179147
864.129	0.0178054
864.207	0.0177274
864.285	0.0177701
864.363	0.0177587
864.442	0.0178673
864.520	0.0179393
864.598	0.0176665
864.676	0.0178321
864.754	0.0178162
864.832	0.0177426
864.910	0.0179243
864.988	0.0178535
865.067	0.0178320
865.145	0.0178226
865.223	0.0177515
865.301	0.0178349
865.379	0.0178470
865.457	0.0179687
865.535	0.0178870
865.613	0.0178063
865.692	0.0178538
865.770	0.0177979
865.848	0.0178300
865.926	0.0179448
866.004	0.0177900
866.082	0.0177684
866.160	0.0177985
866.238	0.0178854
866.317	0.0178410
866.395	0.0178990
866.473	0.0178622
866.551	0.0177670
866.629	0.0178961
866.707	0.0178102
866.785	0.0178956
866.863	0.0178572
866.942	0.0178786
867.020	0.0177425
867.098	0.0178780
867.176	0.0179851
867.254	0.0179256
867.332	0.0179023
867.410	0.0181380
867.488	0.0180726
867.567	0.0179726
867.645	0.0180250
867.723	0.0182151
867.801	0.0181882
867.879	0.0181394
867.957	0.0182256
868.035	0.0180789
868.113	0.0181943
868.192	0.0182279
868.270	0.0181937
868.348	0.0180995
868.426	0.0181173
868.504	0.0180693
868.582	0.0182391
868.660	0.0180775
868.738	0.0180624
868.817	0.0179488
868.895	0.0179829
868.973	0.0179385
869.051	0.0178152
869.129	0.0177157
869.207	0.0178467
869.285	0.0177312
869.363	0.0176994
869.442	0.0178161
869.520	0.0176607
869.598	0.0177153
869.676	0.0176714
869.754	0.0176369
869.832	0.0176076
869.910	0.0176569
869.988	0.0176713
870.067	0.0175821
870.145	0.0175643
870.223	0.0177346
870.301	0.0176745
870.379	0.0175943
870.457	0.0177679
870.535	0.0177676
870.613	0.0176303
870.692	0.0178642
870.770	0.0177913
870.848	0.0177710
870.926	0.0177349
871.004	0.0176400
871.082	0.0177759
871.160	0.0177844
871.238	0.0176669
871.317	0.0175667
871.395	0.0177524
871.473	0.0177005
871.551	0.0176673
871.629	0.0177122
871.707	0.0178507
871.785	0.0177564
871.863	0.0178835
871.942	0.0178164
872.020	0.0177835
872.098	0.0180788
872.176	0.0180208
872.254	0.0179858
872.332	0.0180493
872.410	0.0181245
872.488	0.0180939
872.567	0.0181365
872.645	0.0181149
872.723	0.0179729
872.801	0.0180772
872.879	0.0181008
872.957	0.0180506
873.035	0.0180127
873.113	0.0180472
873.192	0.0179529
873.270	0.0179786
873.348	0.0178123
873.426	0.0178988
873.504	0.0178639
873.582	0.0178774
873.660	0.0178877
873.738	0.0180069
873.817	0.0180097
873.895	0.0179517
873.973	0.0178798
874.051	0.0179417
874.129	0.0181044
874.207	0.0181027
874.285	0.0180256
874.363	0.0180450
874.442	0.0181740
874.520	0.0181482
874.598	0.0181363
874.676	0.0179631
874.754	0.0180193
874.832	0.0182228
874.910	0.0181872
874.988	0.0180117
875.067	0.0180344
875.145	0.0180443
875.223	0.0179037
875.301	0.0178761
875.379	0.0178472
875.457	0.0177593
875.535	0.0176681
875.613	0.0177591
875.692	0.0177283
875.770	0.0176997
875.848	0.0177190
875.926	0.0176205
876.004	0.0175482
876.082	0.0175846
876.160	0.0175172
876.238	0.0176548
876.317	0.0175092
876.395	0.0175579
876.473	0.0175417
876.551	0.0176276
876.629	0.0176220
876.707	0.0175598
876.785	0.0175835
876.863	0.0176542
876.942	0.0176038
877.020	0.0176601
877.098	0.0176207
877.176	0.0176359
877.254	0.0178832
877.332	0.0178509
877.410	0.0178693
877.488	0.0178986
877.567	0.0178289
877.645	0.0178891
877.723	0.0179311
877.801	0.0179082
877.879	0.0178855
877.957	0.0177959
878.035	0.0179523
878.113	0.0180005
878.192	0.0178665
878.270	0.0178455
878.348	0.0179485
878.426	0.0180621
878.504	0.0178438
878.582	0.0178216
878.660	0.0178729
878.738	0.0179413
878.817	0.0179607
878.895	0.0179151
878.973	0.0178122
879.051	0.0178455
879.129	0.0178783
879.207	0.0179862
879.285	0.0180288
879.363	0.0179887
879.442	0.0179391
879.520	0.0177968
879.598	0.0178780
879.676	0.0179349
879.754	0.0178635
879.832	0.0179797
879.910	0.0179349
879.988	0.0178201
880.067	0.0180104
880.145	0.0179768
880.223	0.0178915
880.301	0.0178934
880.379	0.0179431
880.457	0.0179830
880.535	0.0179555
880.613	0.0179804
880.692	0.0178499
880.770	0.0179385
880.848	0.0180414
880.926	0.0181842
881.004	0.0179579
881.082	0.0179310
881.160	0.0181206
881.238	0.0180723
881.317	0.0180521
881.395	0.0180296
881.473	0.0179561
881.551	0.0179923
881.629	0.0181484
881.707	0.0179459
881.785	0.0178619
881.863	0.0178938
881.942	0.0177565
882.020	0.0179137
882.098	0.0178074
882.176	0.0177345
882.254	0.0176640
882.332	0.0176175
882.410	0.0176733
882.488	0.0177273
882.567	0.0175634
882.645	0.0175513
882.723	0.0176157
882.801	0.0175734
882.879	0.0175668
882.957	0.0174049
883.035	0.0175101
883.113	0.0175975
883.192	0.0176804
883.270	0.0176702
883.348	0.0176659
883.426	0.0173756
883.504	0.0175941
883.582	0.0176026
883.660	0.0175468
883.738	0.0175601
883.817	0.0177156
883.895	0.0177668
883.973	0.0176710
884.051	0.0177486
884.129	0.0178884
884.207	0.0178958
884.285	0.0178394
884.363	0.0179554
884.442	0.0179784
884.520	0.0178677
884.598	0.0180712
884.676	0.0181260
884.754	0.0179800
884.832	0.0180437
884.910	0.0181084
884.988	0.0180847
885.067	0.0181205
885.145	0.0182135
885.223	0.0182840
885.301	0.0182912
885.379	0.0181818
885.457	0.0181260
885.535	0.0182072
885.613	0.0181324
885.692	0.0179964
885.770	0.0179810
885.848	0.0179977
885.926	0.0180927
886.004	0.0180610
886.082	0.0179911
886.160	0.0179774
886.238	0.0179800
886.317	0.0178318
886.395	0.0179182
886.473	0.0178574
886.551	0.0177733
886.629	0.0178825
886.707	0.0177550
886.785	0.0178471
886.863	0.0177379
886.942	0.0176876
887.020	0.0179173
887.098	0.0177395
887.176	0.0175035
887.254	0.0175931
887.332	0.0177177
887.410	0.0176197
887.488	0.0176657
887.567	0.0177844
887.645	0.0178061
887.723	0.0178539
887.801	0.0177855
887.879	0.0177128
887.957	0.0179119
888.035	0.0178233
888.113	0.0179121
888.192	0.0179935
888.270	0.0178685
888.348	0.0178030
888.426	0.0178550
888.504	0.0178934
888.582	0.0180573
888.660	0.0178851
888.738	0.0179709
888.817	0.0179269
888.895	0.0178613
888.973	0.0177691
889.051	0.0177988
889.129	0.0178027
889.207	0.0179546
889.285	0.0178135
889.363	0.0177953
889.442	0.0178311
889.520	0.0177789
889.598	0.0177087
889.676	0.0177605
889.754	0.0177622
889.832	0.0176602
889.910	0.0176640
889.988	0.0176785
890.067	0.0177051
890.145	0.0177044
890.223	0.0176775
890.301	0.0176927
890.379	0.0176546
890.457	0.0176528
890.535	0.0175570
890.613	0.0177200
890.692	0.0177604
890.770	0.0177700
890.848	0.0177598
890.926	0.0177402
891.004	0.0178137
891.082	0.0179314
891.160	0.0178365
891.238	0.0179812
891.317	0.0179391
891.395	0.0179740
891.473	0.0180202
891.551	0.0180502
891.629	0.0179785
891.707	0.0180074
891.785	0.0181031
891.863	0.0182078
891.942	0.0182478
892.020	0.0181879
892.098	0.0182802
892.176	0.0182987
892.254	0.0181879
892.332	0.0182839
892.410	0.0181543
892.488	0.0180434
892.567	0.0181604
892.645	0.0181559
892.723	0.0181668
892.801	0.0181146
892.879	0.0179776
892.957	0.0179982
893.035	0.0180563
893.113	0.0181089
893.192	0.0180146
893.270	0.0180392
893.348	0.0180862
893.426	0.0181049
893.504	0.0180440
893.582	0.0179913
893.660	0.0179755
893.738	0.0178577
893.817	0.0179505
893.895	0.0178600
893.973	0.0178941
894.051	0.0178191
894.129	0.0177753
894.207	0.0177196
894.285	0.0177611
894.363	0.0176607
894.442	0.0177889
894.520	0.0178255
894.598	0.0177631
894.676	0.0177407
894.754	0.0176589
894.832	0.0177448
894.910	0.0176524
894.988	0.0177054
895.067	0.0176351
895.145	0.0175993
895.223	0.0176721
895.301	0.0176363
895.379	0.0177631
895.457	0.0176081
895.535	0.0177262
895.613	0.0176924
895.692	0.0177451
895.770	0.0177198
895.848	0.0178967
895.926	0.0178201
896.004	0.0179571
896.082	0.0179130
896.160	0.0180860
896.238	0.0181539
896.317	0.0178790
896.395	0.0179226
896.473	0.0180800
896.551	0.0179149
896.629	0.0179653
896.707	0.0179042
896.785	0.0178726
896.863	0.0177580
896.942	0.0178452
897.020	0.0178010
897.098	0.0177026
897.176	0.0175276
897.254	0.0176123
897.332	0.0177608
897.410	0.0175514
897.488	0.0175710
897.567	0.0175681
897.645	0.0176388
897.723	0.0177087
897.801	0.0176459
897.879	0.0176897
897.957	0.0176545
898.035	0.0176705
898.113	0.0177518
898.192	0.0177626
898.270	0.0177348
898.348	0.0178594
898.426	0.0179487
898.504	0.0178444
898.582	0.0179931
898.660	0.0180590
898.738	0.0179482
898.817	0.0180909
898.895	0.0181493
898.973	0.0182259
899.051	0.0182080
899.129	0.0182502
899.207	0.0183451
899.285	0.0183524
899.363	0.0182713
899.442	0.0184377
899.520	0.0183691
899.598	0.0183883
899.676	0.0184622
899.754	0.0183773
899.832	0.0183833
899.910	0.0183136
899.988	0.0182587
900.067	0.0182388
900.145	0.0182301
900.223	0.0180993
900.301	0.0181108
900.379	0.0179673
900.457	0.0179679
900.535	0.0179105
900.613	0.0178498
900.692	0.0178015
900.770	0.0178467
900.848	0.0176388
900.926	0.0175567
901.004	0.0175105
901.082	0.0175974
901.160	0.0174261
901.238	0.0173108
901.317	0.0174458
901.395	0.0174668
901.473	0.0175541
901.551	0.0175821
901.629	0.0176074
901.707	0.0176061
901.785	0.0177332
901.863	0.0177113
901.942	0.0176108
902.020	0.0176680
902.098	0.0177969
902.176	0.0177874
902.254	0.0178169
902.332	0.0179663
902.410	0.0179650
902.488	0.0180044
902.567	0.0180973
902.645	0.0180660
902.723	0.0180270
902.801	0.0181164
902.879	0.0181377
902.957	0.0180879
903.035	0.0181159
903.113	0.0180846
903.192	0.0180964
903.270	0.0180520
903.348	0.0181007
903.426	0.0178710
903.504	0.0180403
903.582	0.0178814
903.660	0.0178279
903.738	0.0176288
903.817	0.0176507
903.895	0.0176411
903.973	0.0176224
904.051	0.0175462
904.129	0.0175794
904.207	0.0174178
904.285	0.0173382
904.363	0.0175362
904.442	0.0174072
904.520	0.0174174
904.598	0.0174854
904.676	0.0174098
904.754	0.0176399
904.832	0.0176702
904.910	0.0176646
904.988	0.0177499
905.067	0.0179426
905.145	0.0180381
905.223	0.0180265
905.301	0.0181285
905.379	0.0182327
905.457	0.0183121
905.535	0.0182314
905.613	0.0184203
905.692	0.0183672
905.770	0.0183521
905.848	0.0182894
905.926	0.0184558
906.004	0.0182787
906.082	0.0183103
906.160	0.0182693
906.238	0.0181964
906.317	0.0180382
906.395	0.0180547
906.473	0.0180492
906.551	0.0179002
906.629	0.0179068
906.707	0.0177766
906.785	0.0177119
906.863	0.0177121
906.942	0.0178471
907.020	0.0177341
907.098	0.0176669
907.176	0.0175718
907.254	0.0177771
907.332	0.0177843
907.410	0.0177470
907.488	0.0177855
907.567	0.0177338
907.645	0.0177766
907.723	0.0177521
907.801	0.0177834
907.879	0.0179801
907.957	0.0178592
908.035	0.0178105
908.113	0.0178702
908.192	0.0177890
908.270	0.0178793
908.348	0.0179964
908.426	0.0179852
908.504	0.0180260
908.582	0.0179649
908.660	0.0180379
908.738	0.0180173
908.817	0.0180630
908.895	0.0181361
908.973	0.0180128
909.051	0.0180518
909.129	0.0180598
909.207	0.0181622
909.285	0.0181212
909.363	0.0180740
909.442	0.0179887
909.520	0.0179498
909.598	0.0180288
909.676	0.0180463
909.754	0.0177456
909.832	0.0177718
909.910	0.0177801
909.988	0.0176957
910.067	0.0175077
910.145	0.0175572
910.223	0.0174604
910.301	0.0174107
910.379	0.0173963
910.457	0.0175230
910.535	0.0174200
910.613	0.0177085
910.692	0.0174162
910.770	0.0174722
910.848	0.0175646
910.926	0.0178152
911.004	0.0178807
911.082	0.0177541
911.160	0.0179002
911.238	0.0179573
911.317	0.0179954
911.395	0.0180923
911.473	0.0180409
911.551	0.0181137
911.629	0.0180353
911.707	0.0182332
911.785	0.0180844
911.863	0.0181108
911.942	0.0181109
912.020	0.0181715
912.098	0.0180033
912.176	0.0180482
912.254	0.0178387
912.332	0.0177946
912.410	0.0179639
912.488	0.0179063
912.567	0.0176313
912.645	0.0177772
912.723	0.0176823
912.801	0.0178139
912.879	0.0176998
912.957	0.0178328
913.035	0.0176322
913.113	0.0176888
913.192	0.0176997
913.270	0.0177694
913.348	0.0178567
913.426	0.0176188
913.504	0.0179491
913.582	0.0177567
913.660	0.0177591
913.738	0.0176969
913.817	0.0176304
913.895	0.0176178
913.973	0.0177471
914.051	0.0177631
914.129	0.0178001
914.207	0.0176963
914.285	0.0177111
914.363	0.0176163
914.442	0.0175234
914.520	0.0177256
914.598	0.0178144
914.676	0.0177511
914.754	0.0178408
914.832	0.0177582
914.910	0.0180067
914.988	0.0181173
915.067	0.0180568
915.145	0.0181921
915.223	0.0183584
915.301	0.0182479
915.379	0.0183859
915.457	0.0184992
915.535	0.0184281
915.613	0.0183965
915.692	0.0184074
915.770	0.0184612
915.848	0.0184394
915.926	0.0182910
916.004	0.0181773
916.082	0.0182533
916.160	0.0182239
916.238	0.0179596
916.317	0.0178931
916.395	0.0177662
916.473	0.0178100
916.551	0.0177721
916.629	0.0176269
916.707	0.0176054
916.785	0.0176540
916.863	0.0176863
916.942	0.0175120
917.020	0.0177539
917.098	0.0177406
917.176	0.0176935
917.254	0.0177372
917.332	0.0177758
917.410	0.0177813
917.488	0.0177524
917.567	0.0179516
917.645	0.0177682
917.723	0.0179943
917.801	0.0180286
917.879	0.0178259
917.957	0.0177657
918.035	0.0177975
918.113	0.0178572
918.192	0.0178484
918.270	0.0177672
918.348	0.0178668
918.426	0.0177455
918.504	0.0177060
918.582	0.0177087
918.660	0.0176856
918.738	0.0177295
918.817	0.0176511
918.895	0.0177085
918.973	0.0175913
919.051	0.0177148
919.129	0.0176730
919.207	0.0176993
919.285	0.0176841
919.363	0.0176344
919.442	0.0175200
919.520	0.0177135
919.598	0.0176891
919.676	0.0177334
919.754	0.0177912
919.832	0.0179057
919.910	0.0179629
