06/01/2022	21:49:58	Ver.	4.1	UNKNOWN
Optical Delay	599.988409	Delta X		0.078125	Sweeps	1	Scan Rate	0/0
Coordinates	Axis 1	NaN	Axis 2	NaN	Axis 3	NaN	Axis 4	NaN	Axis 5	NaN	Axis 6	0.000000
TX Power	0.000000	RX Power	0.000000

599.988	0.0183618
600.067	0.0183544
600.145	0.0183921
600.223	0.0182352
600.301	0.0183563
600.379	0.0185677
600.457	0.0184557
600.535	0.0184225
600.613	0.0184055
600.692	0.0184518
600.770	0.0183419
600.848	0.0183007
600.926	0.0184175
601.004	0.0183419
601.082	0.0183750
601.160	0.0185015
601.238	0.0183156
601.317	0.0181696
601.395	0.0183432
601.473	0.0183008
601.551	0.0184161
601.629	0.0183600
601.707	0.0185205
601.785	0.0183375
601.863	0.0184232
601.942	0.0182863
602.020	0.0184151
602.098	0.0184046
602.176	0.0184074
602.254	0.0182546
602.332	0.0183591
602.410	0.0183858
602.488	0.0181783
602.567	0.0182621
602.645	0.0183183
602.723	0.0183340
602.801	0.0183025
602.879	0.0184139
602.957	0.0184093
603.035	0.0183340
603.113	0.0183792
603.192	0.0182681
603.270	0.0182749
603.348	0.0182813
603.426	0.0183525
603.504	0.0183756
603.582	0.0183350
603.660	0.0182676
603.738	0.0183681
603.817	0.0183845
603.895	0.0183656
603.973	0.0183450
604.051	0.0183472
604.129	0.0184199
604.207	0.0182175
604.285	0.0183316
604.363	0.0184584
604.442	0.0183413
604.520	0.0182621
604.598	0.0181935
604.676	0.0183590
604.754	0.0182954
604.832	0.0183069
604.910	0.0183401
604.988	0.0183202
605.067	0.0184492
605.145	0.0184351
605.223	0.0183662
605.301	0.0183167
605.379	0.0182812
605.457	0.0184540
605.535	0.0183974
605.613	0.0183562
605.692	0.0183112
605.770	0.0184586
605.848	0.0184035
605.926	0.0184426
606.004	0.0183649
606.082	0.0182206
606.160	0.0183525
606.238	0.0183157
606.317	0.0182185
606.395	0.0182682
606.473	0.0184380
606.551	0.0183394
606.629	0.0184353
606.707	0.0183511
606.785	0.0183692
606.863	0.0183669
606.942	0.0183408
607.020	0.0183051
607.098	0.0182915
607.176	0.0183994
607.254	0.0184397
607.332	0.0183895
607.410	0.0183949
607.488	0.0184573
607.567	0.0183510
607.645	0.0182923
607.723	0.0183976
607.801	0.0184026
607.879	0.0184461
607.957	0.0183703
608.035	0.0183890
608.113	0.0183305
608.192	0.0183115
608.270	0.0182368
608.348	0.0183485
608.426	0.0182531
608.504	0.0182200
608.582	0.0183602
608.660	0.0182755
608.738	0.0183070
608.817	0.0183786
608.895	0.0182539
608.973	0.0182236
609.051	0.0182750
609.129	0.0182363
609.207	0.0183045
609.285	0.0183158
609.363	0.0183074
609.442	0.0182316
609.520	0.0183432
609.598	0.0184633
609.676	0.0184346
609.754	0.0183971
609.832	0.0183697
609.910	0.0183600
609.988	0.0183923
610.067	0.0183300
610.145	0.0183211
610.223	0.0183891
610.301	0.0183342
610.379	0.0184538
610.457	0.0182887
610.535	0.0182444
610.613	0.0183977
610.692	0.0183728
610.770	0.0183313
610.848	0.0185815
610.926	0.0182646
611.004	0.0183097
611.082	0.0183172
611.160	0.0184206
611.238	0.0184328
611.317	0.0183031
611.395	0.0182626
611.473	0.0183878
611.551	0.0183640
611.629	0.0183282
611.707	0.0184662
611.785	0.0181936
611.863	0.0183167
611.942	0.0183670
612.020	0.0183485
612.098	0.0183603
612.176	0.0183926
612.254	0.0182698
612.332	0.0182980
612.410	0.0182980
612.488	0.0182353
612.567	0.0183723
612.645	0.0181966
612.723	0.0182313
612.801	0.0182542
612.879	0.0182886
612.957	0.0183635
613.035	0.0182958
613.113	0.0184279
613.192	0.0182968
613.270	0.0182147
613.348	0.0182990
613.426	0.0183481
613.504	0.0182854
613.582	0.0182796
613.660	0.0183535
613.738	0.0182674
613.817	0.0183040
613.895	0.0183286
613.973	0.0183234
614.051	0.0182816
614.129	0.0183193
614.207	0.0182499
614.285	0.0183113
614.363	0.0182559
614.442	0.0183039
614.520	0.0183807
614.598	0.0183411
614.676	0.0183434
614.754	0.0183835
614.832	0.0182678
614.910	0.0183112
614.988	0.0183546
615.067	0.0182178
615.145	0.0182124
615.223	0.0184286
615.301	0.0183573
615.379	0.0182170
615.457	0.0183072
615.535	0.0184113
615.613	0.0183869
615.692	0.0183974
615.770	0.0183272
615.848	0.0183922
615.926	0.0183463
616.004	0.0183338
616.082	0.0182716
616.160	0.0183146
616.238	0.0184596
616.317	0.0183451
616.395	0.0183100
616.473	0.0182503
616.551	0.0183743
616.629	0.0183694
616.707	0.0184485
616.785	0.0184248
616.863	0.0183138
616.942	0.0182988
617.020	0.0183054
617.098	0.0184203
617.176	0.0181660
617.254	0.0182779
617.332	0.0183060
617.410	0.0182501
617.488	0.0183931
617.567	0.0183326
617.645	0.0183015
617.723	0.0182583
617.801	0.0183440
617.879	0.0183492
617.957	0.0183752
618.035	0.0184041
618.113	0.0182620
618.192	0.0184874
618.270	0.0184307
618.348	0.0183614
618.426	0.0183275
618.504	0.0183994
618.582	0.0183996
618.660	0.0182867
618.738	0.0183232
618.817	0.0184593
618.895	0.0182460
618.973	0.0182404
619.051	0.0182372
619.129	0.0183911
619.207	0.0182915
619.285	0.0184189
619.363	0.0184200
619.442	0.0183305
619.520	0.0183918
619.598	0.0183420
619.676	0.0182557
619.754	0.0182838
619.832	0.0182702
619.910	0.0183484
619.988	0.0183994
620.067	0.0183389
620.145	0.0182696
620.223	0.0184407
620.301	0.0183389
620.379	0.0183962
620.457	0.0183488
620.535	0.0184483
620.613	0.0183505
620.692	0.0183407
620.770	0.0184209
620.848	0.0184747
620.926	0.0183205
621.004	0.0183769
621.082	0.0185530
621.160	0.0183826
621.238	0.0182344
621.317	0.0184481
621.395	0.0182841
621.473	0.0183801
621.551	0.0185114
621.629	0.0184940
621.707	0.0183260
621.785	0.0182902
621.863	0.0183275
621.942	0.0183372
622.020	0.0183535
622.098	0.0184531
622.176	0.0183037
622.254	0.0183955
622.332	0.0183473
622.410	0.0182603
622.488	0.0183850
622.567	0.0184423
622.645	0.0184665
622.723	0.0183524
622.801	0.0183961
622.879	0.0183504
622.957	0.0183296
623.035	0.0182769
623.113	0.0183134
623.192	0.0184692
623.270	0.0183561
623.348	0.0184206
623.426	0.0183681
623.504	0.0182836
623.582	0.0183725
623.660	0.0183966
623.738	0.0182098
623.817	0.0183007
623.895	0.0183482
623.973	0.0183062
624.051	0.0184873
624.129	0.0183793
624.207	0.0183789
624.285	0.0182076
624.363	0.0183096
624.442	0.0184166
624.520	0.0183887
624.598	0.0182786
624.676	0.0183650
624.754	0.0184069
624.832	0.0183741
624.910	0.0183656
624.988	0.0184855
625.067	0.0184880
625.145	0.0182526
625.223	0.0183939
625.301	0.0182603
625.379	0.0183960
625.457	0.0182218
625.535	0.0183863
625.613	0.0184317
625.692	0.0183595
625.770	0.0183528
625.848	0.0184468
625.926	0.0183997
626.004	0.0183054
626.082	0.0183151
626.160	0.0183492
626.238	0.0184725
626.317	0.0183090
626.395	0.0184625
626.473	0.0184235
626.551	0.0184635
626.629	0.0183799
626.707	0.0183491
626.785	0.0182891
626.863	0.0183484
626.942	0.0182992
627.020	0.0183211
627.098	0.0182201
627.176	0.0183369
627.254	0.0183508
627.332	0.0183994
627.410	0.0183025
627.488	0.0183565
627.567	0.0183650
627.645	0.0184908
627.723	0.0184236
627.801	0.0183874
627.879	0.0183159
627.957	0.0183454
628.035	0.0183653
628.113	0.0183613
628.192	0.0184452
628.270	0.0182794
628.348	0.0183517
628.426	0.0184179
628.504	0.0183025
628.582	0.0182824
628.660	0.0184432
628.738	0.0185436
628.817	0.0183064
628.895	0.0183791
628.973	0.0182925
629.051	0.0185652
629.129	0.0184219
629.207	0.0182713
629.285	0.0183142
629.363	0.0182470
629.442	0.0182875
629.520	0.0183492
629.598	0.0181715
629.676	0.0182835
629.754	0.0182585
629.832	0.0182810
629.910	0.0183355
629.988	0.0182886
630.067	0.0182941
630.145	0.0184527
630.223	0.0182933
630.301	0.0185428
630.379	0.0183274
630.457	0.0182551
630.535	0.0183643
630.613	0.0183875
630.692	0.0183641
630.770	0.0182991
630.848	0.0184129
630.926	0.0182577
631.004	0.0182738
631.082	0.0184194
631.160	0.0183085
631.238	0.0184101
631.317	0.0184111
631.395	0.0183066
631.473	0.0183417
631.551	0.0184592
631.629	0.0182575
631.707	0.0184258
631.785	0.0185131
631.863	0.0183601
631.942	0.0184060
632.020	0.0182466
632.098	0.0182686
632.176	0.0184171
632.254	0.0183720
632.332	0.0182709
632.410	0.0183410
632.488	0.0183646
632.567	0.0183115
632.645	0.0184625
632.723	0.0183711
632.801	0.0184079
632.879	0.0186800
632.957	0.0185333
633.035	0.0183780
633.113	0.0184525
633.192	0.0183335
633.270	0.0183319
633.348	0.0183360
633.426	0.0182952
633.504	0.0184551
633.582	0.0184209
633.660	0.0182481
633.738	0.0182009
633.817	0.0183749
633.895	0.0184515
633.973	0.0182757
634.051	0.0182693
634.129	0.0183569
634.207	0.0182816
634.285	0.0183878
634.363	0.0183334
634.442	0.0182257
634.520	0.0181849
634.598	0.0183189
634.676	0.0182479
634.754	0.0183312
634.832	0.0183940
634.910	0.0183340
634.988	0.0182723
635.067	0.0183535
635.145	0.0183401
635.223	0.0183755
635.301	0.0183921
635.379	0.0182466
635.457	0.0183131
635.535	0.0183421
635.613	0.0184038
635.692	0.0184007
635.770	0.0184084
635.848	0.0183136
635.926	0.0182590
636.004	0.0182407
636.082	0.0183746
636.160	0.0184438
636.238	0.0182731
636.317	0.0183681
636.395	0.0184743
636.473	0.0183900
636.551	0.0183762
636.629	0.0183265
636.707	0.0183350
636.785	0.0183779
636.863	0.0183064
636.942	0.0182656
637.020	0.0183549
637.098	0.0183932
637.176	0.0182798
637.254	0.0183311
637.332	0.0184727
637.410	0.0183940
637.488	0.0183135
637.567	0.0183431
637.645	0.0184602
637.723	0.0184320
637.801	0.0183302
637.879	0.0184403
637.957	0.0183639
638.035	0.0184222
638.113	0.0183520
638.192	0.0183125
638.270	0.0183278
638.348	0.0184751
638.426	0.0183441
638.504	0.0184336
638.582	0.0183834
638.660	0.0183156
638.738	0.0183485
638.817	0.0183808
638.895	0.0183294
638.973	0.0182830
639.051	0.0182818
639.129	0.0183708
639.207	0.0184549
639.285	0.0183636
639.363	0.0184100
639.442	0.0184309
639.520	0.0182959
639.598	0.0184803
639.676	0.0184502
639.754	0.0182468
639.832	0.0183656
639.910	0.0183281
639.988	0.0182903
640.067	0.0184045
640.145	0.0184026
640.223	0.0182949
640.301	0.0185019
640.379	0.0184196
640.457	0.0183615
640.535	0.0183772
640.613	0.0183280
640.692	0.0183376
640.770	0.0183404
640.848	0.0183938
640.926	0.0183763
641.004	0.0183990
641.082	0.0183711
641.160	0.0182455
641.238	0.0183627
641.317	0.0183467
641.395	0.0182658
641.473	0.0183247
641.551	0.0182475
641.629	0.0183105
641.707	0.0182280
641.785	0.0182161
641.863	0.0184101
641.942	0.0183946
642.020	0.0181631
642.098	0.0182439
642.176	0.0183595
642.254	0.0182988
642.332	0.0182801
642.410	0.0182631
642.488	0.0182849
642.567	0.0183839
642.645	0.0182579
642.723	0.0182423
642.801	0.0183343
642.879	0.0183319
642.957	0.0181884
643.035	0.0182195
643.113	0.0184471
643.192	0.0183181
643.270	0.0183598
643.348	0.0185204
643.426	0.0183421
643.504	0.0183286
643.582	0.0184301
643.660	0.0183456
643.738	0.0182445
643.817	0.0183478
643.895	0.0184290
643.973	0.0184242
644.051	0.0184393
644.129	0.0183845
644.207	0.0184143
644.285	0.0183834
644.363	0.0184414
644.442	0.0183417
644.520	0.0184312
644.598	0.0183912
644.676	0.0184614
644.754	0.0183382
644.832	0.0184644
644.910	0.0184943
644.988	0.0183830
645.067	0.0183743
645.145	0.0183319
645.223	0.0184145
645.301	0.0182859
645.379	0.0183470
645.457	0.0182735
645.535	0.0182189
645.613	0.0183067
645.692	0.0182979
645.770	0.0183369
645.848	0.0183420
645.926	0.0183716
646.004	0.0183720
646.082	0.0183200
646.160	0.0183566
646.238	0.0186671
646.317	0.0184527
646.395	0.0183794
646.473	0.0185388
646.551	0.0185123
646.629	0.0184507
646.707	0.0184801
646.785	0.0184642
646.863	0.0183083
646.942	0.0182299
647.020	0.0183250
647.098	0.0182920
647.176	0.0182277
647.254	0.0183241
647.332	0.0182259
647.410	0.0182616
647.488	0.0182182
647.567	0.0183021
647.645	0.0182481
647.723	0.0182903
647.801	0.0182279
647.879	0.0182510
647.957	0.0183690
648.035	0.0183969
648.113	0.0184209
648.192	0.0185233
648.270	0.0184304
648.348	0.0184987
648.426	0.0183344
648.504	0.0184388
648.582	0.0184534
648.660	0.0184192
648.738	0.0182267
648.817	0.0183241
648.895	0.0181807
648.973	0.0182342
649.051	0.0181455
649.129	0.0181629
649.207	0.0181966
649.285	0.0181889
649.363	0.0182690
649.442	0.0182968
649.520	0.0183638
649.598	0.0182390
649.676	0.0182207
649.754	0.0182854
649.832	0.0182451
649.910	0.0183813
649.988	0.0183661
650.067	0.0182691
650.145	0.0183191
650.223	0.0184756
650.301	0.0184247
650.379	0.0183997
650.457	0.0184683
650.535	0.0183578
650.613	0.0183769
650.692	0.0184626
650.770	0.0186146
650.848	0.0183153
650.926	0.0182765
651.004	0.0181676
651.082	0.0182196
651.160	0.0183952
651.238	0.0183414
651.317	0.0183007
651.395	0.0183385
651.473	0.0183480
651.551	0.0183032
651.629	0.0182464
651.707	0.0182714
651.785	0.0183442
651.863	0.0183423
651.942	0.0183295
652.020	0.0184250
652.098	0.0183913
652.176	0.0183958
652.254	0.0185206
652.332	0.0185145
652.410	0.0184286
652.488	0.0184932
652.567	0.0183870
652.645	0.0185107
652.723	0.0184218
652.801	0.0183344
652.879	0.0182924
652.957	0.0182240
653.035	0.0181966
653.113	0.0182935
653.192	0.0181778
653.270	0.0179862
653.348	0.0179684
653.426	0.0181422
653.504	0.0181287
653.582	0.0182423
653.660	0.0181969
653.738	0.0182060
653.817	0.0182691
653.895	0.0183540
653.973	0.0183700
654.051	0.0185238
654.129	0.0185094
654.207	0.0185936
654.285	0.0185426
654.363	0.0185526
654.442	0.0184091
654.520	0.0184357
654.598	0.0184486
654.676	0.0183829
654.754	0.0182987
654.832	0.0182265
654.910	0.0181899
654.988	0.0180565
655.067	0.0181664
655.145	0.0180378
655.223	0.0181354
655.301	0.0182439
655.379	0.0181182
655.457	0.0182890
655.535	0.0182085
655.613	0.0183391
655.692	0.0182530
655.770	0.0185219
655.848	0.0184585
655.926	0.0185215
656.004	0.0185219
656.082	0.0184073
656.160	0.0184599
656.238	0.0185941
656.317	0.0185107
656.395	0.0184874
656.473	0.0184520
656.551	0.0184786
656.629	0.0184298
656.707	0.0182716
656.785	0.0182915
656.863	0.0182275
656.942	0.0182795
657.020	0.0182854
657.098	0.0182606
657.176	0.0183038
657.254	0.0182133
657.332	0.0183126
657.410	0.0183209
657.488	0.0183279
657.567	0.0183505
657.645	0.0183831
657.723	0.0183265
657.801	0.0184496
657.879	0.0183441
657.957	0.0183592
658.035	0.0184838
658.113	0.0183092
658.192	0.0184446
658.270	0.0184494
658.348	0.0184489
658.426	0.0185311
658.504	0.0185349
658.582	0.0184103
658.660	0.0184213
658.738	0.0184936
658.817	0.0183846
658.895	0.0185125
658.973	0.0183781
659.051	0.0183380
659.129	0.0183240
659.207	0.0182592
659.285	0.0183141
659.363	0.0183785
659.442	0.0183550
659.520	0.0183681
659.598	0.0184377
659.676	0.0183056
659.754	0.0183804
659.832	0.0184287
659.910	0.0183333
659.988	0.0184712
660.067	0.0183923
660.145	0.0183820
660.223	0.0182131
660.301	0.0182433
660.379	0.0184858
660.457	0.0183739
660.535	0.0182412
660.613	0.0182458
660.692	0.0183961
660.770	0.0184381
660.848	0.0184080
660.926	0.0184280
661.004	0.0185738
661.082	0.0184077
661.160	0.0184632
661.238	0.0183260
661.317	0.0186600
661.395	0.0184839
661.473	0.0184710
661.551	0.0184438
661.629	0.0183442
661.707	0.0183703
661.785	0.0183620
661.863	0.0183757
661.942	0.0183792
662.020	0.0182158
662.098	0.0183302
662.176	0.0183015
662.254	0.0182502
662.332	0.0182083
662.410	0.0181911
662.488	0.0181468
662.567	0.0182275
662.645	0.0182722
662.723	0.0183682
662.801	0.0183745
662.879	0.0184668
662.957	0.0185351
663.035	0.0186254
663.113	0.0186600
663.192	0.0186438
663.270	0.0187570
663.348	0.0187821
663.426	0.0186801
663.504	0.0186322
663.582	0.0186165
663.660	0.0184666
663.738	0.0184915
663.817	0.0184383
663.895	0.0184569
663.973	0.0183138
664.051	0.0182262
664.129	0.0181026
664.207	0.0182407
664.285	0.0181805
664.363	0.0181233
664.442	0.0181017
664.520	0.0178951
664.598	0.0180858
664.676	0.0182116
664.754	0.0180823
664.832	0.0182615
664.910	0.0182826
664.988	0.0182317
665.067	0.0184766
665.145	0.0184612
665.223	0.0186222
665.301	0.0186664
665.379	0.0185960
665.457	0.0185753
665.535	0.0187572
665.613	0.0186906
665.692	0.0186072
665.770	0.0185973
665.848	0.0183589
665.926	0.0185470
666.004	0.0184483
666.082	0.0182391
666.160	0.0181065
666.238	0.0181525
666.317	0.0179818
666.395	0.0180865
666.473	0.0181805
666.551	0.0179489
666.629	0.0180618
666.707	0.0180815
666.785	0.0180560
666.863	0.0182444
666.942	0.0183450
667.020	0.0182444
667.098	0.0182120
667.176	0.0183040
667.254	0.0185093
667.332	0.0185816
667.410	0.0185822
667.488	0.0184940
667.567	0.0186048
667.645	0.0185058
667.723	0.0185505
667.801	0.0187119
667.879	0.0185426
667.957	0.0184924
668.035	0.0184583
668.113	0.0181774
668.192	0.0183366
668.270	0.0182724
668.348	0.0181884
668.426	0.0180633
668.504	0.0181274
668.582	0.0180021
668.660	0.0180065
668.738	0.0180676
668.817	0.0180348
668.895	0.0180861
668.973	0.0182031
669.051	0.0183017
669.129	0.0183567
669.207	0.0184602
669.285	0.0184384
669.363	0.0184502
669.442	0.0185665
669.520	0.0186508
669.598	0.0186926
669.676	0.0184302
669.754	0.0185482
669.832	0.0183840
669.910	0.0185402
669.988	0.0184622
670.067	0.0184352
670.145	0.0183047
670.223	0.0183306
670.301	0.0182132
670.379	0.0181683
670.457	0.0182706
670.535	0.0183463
670.613	0.0182588
670.692	0.0183067
670.770	0.0184094
670.848	0.0183273
670.926	0.0182990
671.004	0.0183176
671.082	0.0182443
671.160	0.0183833
671.238	0.0184857
671.317	0.0183621
671.395	0.0183864
671.473	0.0184759
671.551	0.0184092
671.629	0.0183027
671.707	0.0183918
671.785	0.0184888
671.863	0.0183060
671.942	0.0183669
672.020	0.0184892
672.098	0.0184997
672.176	0.0185133
672.254	0.0184811
672.332	0.0184452
672.410	0.0185558
672.488	0.0185751
672.567	0.0183857
672.645	0.0184754
672.723	0.0185014
672.801	0.0183635
672.879	0.0183887
672.957	0.0184501
673.035	0.0184499
673.113	0.0183183
673.192	0.0183453
673.270	0.0183260
673.348	0.0181667
673.426	0.0182294
673.504	0.0181126
673.582	0.0181659
673.660	0.0182496
673.738	0.0181126
673.817	0.0181129
673.895	0.0180276
673.973	0.0182462
674.051	0.0181429
674.129	0.0181293
674.207	0.0181648
674.285	0.0184319
674.363	0.0183750
674.442	0.0183312
674.520	0.0184266
674.598	0.0184919
674.676	0.0184645
674.754	0.0186087
674.832	0.0184409
674.910	0.0183546
674.988	0.0185173
675.067	0.0184390
675.145	0.0183537
675.223	0.0182265
675.301	0.0182568
675.379	0.0182825
675.457	0.0179956
675.535	0.0181124
675.613	0.0182003
675.692	0.0180417
675.770	0.0180135
675.848	0.0180891
675.926	0.0180019
676.004	0.0179992
676.082	0.0180627
676.160	0.0182285
676.238	0.0183327
676.317	0.0184248
676.395	0.0183028
676.473	0.0185764
676.551	0.0185094
676.629	0.0187384
676.707	0.0188435
676.785	0.0189148
676.863	0.0188273
676.942	0.0189551
677.020	0.0188596
677.098	0.0186236
677.176	0.0187597
677.254	0.0187027
677.332	0.0183691
677.410	0.0182001
677.488	0.0181913
677.567	0.0182044
677.645	0.0181849
677.723	0.0178632
677.801	0.0179317
677.879	0.0177937
677.957	0.0176709
678.035	0.0177626
678.113	0.0177885
678.192	0.0178225
678.270	0.0179108
678.348	0.0180693
678.426	0.0181351
678.504	0.0182076
678.582	0.0184431
678.660	0.0183578
678.738	0.0183673
678.817	0.0186027
678.895	0.0186488
678.973	0.0186226
679.051	0.0186974
679.129	0.0186749
679.207	0.0185697
679.285	0.0185645
679.363	0.0185034
679.442	0.0185172
679.520	0.0183972
679.598	0.0182104
679.676	0.0180605
679.754	0.0181705
679.832	0.0179684
679.910	0.0177657
679.988	0.0177614
680.067	0.0179624
680.145	0.0179402
680.223	0.0179507
680.301	0.0181396
680.379	0.0183369
680.457	0.0185769
680.535	0.0188028
680.613	0.0189465
680.692	0.0190801
680.770	0.0191505
680.848	0.0191896
680.926	0.0193103
681.004	0.0193808
681.082	0.0193210
681.160	0.0190634
681.238	0.0188776
681.317	0.0186951
681.395	0.0184902
681.473	0.0184224
681.551	0.0180270
681.629	0.0177587
681.707	0.0175976
681.785	0.0175240
681.863	0.0173609
681.942	0.0171722
682.020	0.0171306
682.098	0.0172134
682.176	0.0170900
682.254	0.0171355
682.332	0.0171453
682.410	0.0174901
682.488	0.0178296
682.567	0.0178352
682.645	0.0181537
682.723	0.0183127
682.801	0.0187134
682.879	0.0189772
682.957	0.0190581
683.035	0.0193107
683.113	0.0194653
683.192	0.0195471
683.270	0.0196155
683.348	0.0195631
683.426	0.0195573
683.504	0.0194551
683.582	0.0193726
683.660	0.0191029
683.738	0.0190046
683.817	0.0191737
683.895	0.0188731
683.973	0.0186979
684.051	0.0186553
684.129	0.0186189
684.207	0.0184428
684.285	0.0184685
684.363	0.0183424
684.442	0.0181975
684.520	0.0180571
684.598	0.0180030
684.676	0.0178455
684.754	0.0178095
684.832	0.0175770
684.910	0.0173167
684.988	0.0171392
685.067	0.0171789
685.145	0.0172113
685.223	0.0171139
685.301	0.0170726
685.379	0.0170529
685.457	0.0172658
685.535	0.0172500
685.613	0.0174767
685.692	0.0176224
685.770	0.0178867
685.848	0.0180461
685.926	0.0183646
686.004	0.0184051
686.082	0.0187463
686.160	0.0189224
686.238	0.0192054
686.317	0.0193484
686.395	0.0195653
686.473	0.0194765
686.551	0.0195867
686.629	0.0197207
686.707	0.0198099
686.785	0.0197417
686.863	0.0197213
686.942	0.0197633
687.020	0.0197180
687.098	0.0197266
687.176	0.0196488
687.254	0.0192489
687.332	0.0190550
687.410	0.0189944
687.488	0.0187966
687.567	0.0185406
687.645	0.0182678
687.723	0.0178905
687.801	0.0176494
687.879	0.0174914
687.957	0.0171127
688.035	0.0170344
688.113	0.0167848
688.192	0.0164952
688.270	0.0163432
688.348	0.0163290
688.426	0.0162019
688.504	0.0162810
688.582	0.0163929
688.660	0.0166596
688.738	0.0166906
688.817	0.0168856
688.895	0.0169790
688.973	0.0173140
689.051	0.0177309
689.129	0.0180951
689.207	0.0183579
689.285	0.0187885
689.363	0.0189923
689.442	0.0193076
689.520	0.0195688
689.598	0.0198116
689.676	0.0200627
689.754	0.0202003
689.832	0.0204173
689.910	0.0206242
689.988	0.0207837
690.067	0.0208625
690.145	0.0208224
690.223	0.0207814
690.301	0.0208513
690.379	0.0205305
690.457	0.0203547
690.535	0.0199972
690.613	0.0199668
690.692	0.0195350
690.770	0.0193180
690.848	0.0190459
690.926	0.0187365
691.004	0.0185265
691.082	0.0183267
691.160	0.0179241
691.238	0.0176630
691.317	0.0173782
691.395	0.0171860
691.473	0.0170428
691.551	0.0166817
691.629	0.0165337
691.707	0.0161950
691.785	0.0160150
691.863	0.0160011
691.942	0.0159891
692.020	0.0158724
692.098	0.0156523
692.176	0.0158407
692.254	0.0158913
692.332	0.0160404
692.410	0.0162321
692.488	0.0163719
692.567	0.0166001
692.645	0.0168150
692.723	0.0169218
692.801	0.0172405
692.879	0.0175640
692.957	0.0177232
693.035	0.0179582
693.113	0.0183952
693.192	0.0187246
693.270	0.0190127
693.348	0.0195332
693.426	0.0198424
693.504	0.0201807
693.582	0.0205568
693.660	0.0207990
693.738	0.0210423
693.817	0.0210469
693.895	0.0213898
693.973	0.0212503
694.051	0.0213287
694.129	0.0213712
694.207	0.0210271
694.285	0.0209105
694.363	0.0207042
694.442	0.0206910
694.520	0.0203902
694.598	0.0198573
694.676	0.0196575
694.754	0.0195694
694.832	0.0189763
694.910	0.0187402
694.988	0.0183592
695.067	0.0180032
695.145	0.0176644
695.223	0.0173596
695.301	0.0170894
695.379	0.0168649
695.457	0.0164957
695.535	0.0162993
695.613	0.0159732
695.692	0.0160565
695.770	0.0158361
695.848	0.0159584
695.926	0.0160371
696.004	0.0159698
696.082	0.0162589
696.160	0.0163033
696.238	0.0165736
696.317	0.0167955
696.395	0.0170357
696.473	0.0171815
696.551	0.0174429
696.629	0.0177579
696.707	0.0180446
696.785	0.0182446
696.863	0.0184923
696.942	0.0187731
697.020	0.0188809
697.098	0.0189999
697.176	0.0190570
697.254	0.0191988
697.332	0.0195235
697.410	0.0196078
697.488	0.0195705
697.567	0.0197169
697.645	0.0197134
697.723	0.0199980
697.801	0.0201983
697.879	0.0200672
697.957	0.0202496
698.035	0.0202539
698.113	0.0201179
698.192	0.0199622
698.270	0.0198248
698.348	0.0195107
698.426	0.0193214
698.504	0.0191943
698.582	0.0187865
698.660	0.0185464
698.738	0.0182323
698.817	0.0180067
698.895	0.0177598
698.973	0.0174770
699.051	0.0173029
699.129	0.0172104
699.207	0.0168675
699.285	0.0166794
699.363	0.0165945
699.442	0.0163427
699.520	0.0162495
699.598	0.0162628
699.676	0.0162031
699.754	0.0162035
699.832	0.0163170
699.910	0.0164251
699.988	0.0165882
700.067	0.0169272
700.145	0.0173138
700.223	0.0175420
700.301	0.0178146
700.379	0.0183804
700.457	0.0186494
700.535	0.0190105
700.613	0.0194810
700.692	0.0197192
700.770	0.0200240
700.848	0.0202972
700.926	0.0205447
701.004	0.0206818
701.082	0.0207862
701.160	0.0206975
701.238	0.0207114
701.317	0.0205389
701.395	0.0204779
701.473	0.0203423
701.551	0.0200822
701.629	0.0199243
701.707	0.0196938
701.785	0.0193417
701.863	0.0191599
701.942	0.0189381
702.020	0.0184946
702.098	0.0182726
702.176	0.0181860
702.254	0.0178590
702.332	0.0175137
702.410	0.0173502
702.488	0.0170344
702.567	0.0168568
702.645	0.0165811
702.723	0.0164857
702.801	0.0163284
702.879	0.0163092
702.957	0.0163123
703.035	0.0163671
703.113	0.0165017
703.192	0.0166407
703.270	0.0170153
703.348	0.0172405
703.426	0.0174570
703.504	0.0177210
703.582	0.0180278
703.660	0.0182224
703.738	0.0184433
703.817	0.0185609
703.895	0.0187453
703.973	0.0187399
704.051	0.0188748
704.129	0.0189226
704.207	0.0187390
704.285	0.0186573
704.363	0.0187911
704.442	0.0187332
704.520	0.0184746
704.598	0.0186105
704.676	0.0184877
704.754	0.0183931
704.832	0.0183494
704.910	0.0183619
704.988	0.0182887
705.067	0.0183035
705.145	0.0181961
705.223	0.0181786
705.301	0.0185175
705.379	0.0184487
705.457	0.0185996
705.535	0.0187620
705.613	0.0189714
705.692	0.0192213
705.770	0.0192667
705.848	0.0194583
705.926	0.0195731
706.004	0.0197507
706.082	0.0196793
706.160	0.0195086
706.238	0.0196494
706.317	0.0193942
706.395	0.0190604
706.473	0.0190199
706.551	0.0186819
706.629	0.0183367
706.707	0.0178774
706.785	0.0178580
706.863	0.0177140
706.942	0.0176228
707.020	0.0175451
707.098	0.0175969
707.176	0.0177092
707.254	0.0181046
707.332	0.0183985
707.410	0.0188157
707.488	0.0190598
707.567	0.0193157
707.645	0.0196983
707.723	0.0198973
707.801	0.0201917
707.879	0.0202882
707.957	0.0203882
708.035	0.0204118
708.113	0.0204002
708.192	0.0203500
708.270	0.0200319
708.348	0.0198484
708.426	0.0196105
708.504	0.0192530
708.582	0.0188444
708.660	0.0184103
708.738	0.0179665
708.817	0.0174973
708.895	0.0169458
708.973	0.0165485
709.051	0.0160865
709.129	0.0157466
709.207	0.0155168
709.285	0.0151276
709.363	0.0148781
709.442	0.0146980
709.520	0.0147229
709.598	0.0145424
709.676	0.0144371
709.754	0.0145453
709.832	0.0146690
709.910	0.0148573
709.988	0.0147587
710.067	0.0150975
710.145	0.0152685
710.223	0.0156108
710.301	0.0160998
710.379	0.0163489
710.457	0.0169320
710.535	0.0173700
710.613	0.0178030
710.692	0.0185249
710.770	0.0190434
710.848	0.0195115
710.926	0.0199359
711.004	0.0204828
711.082	0.0210217
711.160	0.0213307
711.238	0.0214954
711.317	0.0218684
711.395	0.0221549
711.473	0.0222968
711.551	0.0223936
711.629	0.0222968
711.707	0.0225471
711.785	0.0224599
711.863	0.0224187
711.942	0.0224870
712.020	0.0221674
712.098	0.0220776
712.176	0.0218636
712.254	0.0212734
712.332	0.0211292
712.410	0.0207802
712.488	0.0203876
712.567	0.0200423
712.645	0.0195829
712.723	0.0193733
712.801	0.0190041
712.879	0.0188758
712.957	0.0186008
713.035	0.0184418
713.113	0.0180914
713.192	0.0179434
713.270	0.0176353
713.348	0.0174827
713.426	0.0171647
713.504	0.0169473
713.582	0.0167252
713.660	0.0164139
713.738	0.0161536
713.817	0.0159952
713.895	0.0158511
713.973	0.0158881
714.051	0.0158356
714.129	0.0158810
714.207	0.0161122
714.285	0.0162679
714.363	0.0164671
714.442	0.0165029
714.520	0.0168745
714.598	0.0170560
714.676	0.0171422
714.754	0.0169475
714.832	0.0168461
714.910	0.0167784
714.988	0.0168127
715.067	0.0165440
715.145	0.0165364
715.223	0.0163138
715.301	0.0161779
715.379	0.0160611
715.457	0.0158561
715.535	0.0157140
715.613	0.0157030
715.692	0.0157127
715.770	0.0156773
715.848	0.0157189
715.926	0.0159390
716.004	0.0161407
716.082	0.0162806
716.160	0.0165646
716.238	0.0169941
716.317	0.0171855
716.395	0.0173849
716.473	0.0177878
716.551	0.0181680
716.629	0.0186094
716.707	0.0190735
716.785	0.0193442
716.863	0.0198300
716.942	0.0202536
717.020	0.0205637
717.098	0.0209967
717.176	0.0212915
717.254	0.0216611
717.332	0.0219836
717.410	0.0221848
717.488	0.0225930
717.567	0.0226745
717.645	0.0228645
717.723	0.0229577
717.801	0.0229708
717.879	0.0229214
717.957	0.0227833
718.035	0.0225417
718.113	0.0223375
718.192	0.0221270
718.270	0.0218005
718.348	0.0214465
718.426	0.0212068
718.504	0.0208541
718.582	0.0206091
718.660	0.0203443
718.738	0.0200254
718.817	0.0196318
718.895	0.0194968
718.973	0.0191450
719.051	0.0188644
719.129	0.0186797
719.207	0.0184431
719.285	0.0183018
719.363	0.0180916
719.442	0.0178170
719.520	0.0176427
719.598	0.0174362
719.676	0.0172291
719.754	0.0170360
719.832	0.0168353
719.910	0.0164620
719.988	0.0163456
720.067	0.0159044
720.145	0.0156670
720.223	0.0153929
720.301	0.0150228
720.379	0.0147665
720.457	0.0145242
720.535	0.0145466
720.613	0.0142635
720.692	0.0142355
720.770	0.0143765
720.848	0.0144137
720.926	0.0144899
721.004	0.0147025
721.082	0.0148489
721.160	0.0152835
721.238	0.0155714
721.317	0.0158398
721.395	0.0161023
721.473	0.0164095
721.551	0.0167307
721.629	0.0171072
721.707	0.0171308
721.785	0.0173946
721.863	0.0175390
721.942	0.0175085
722.020	0.0174966
722.098	0.0176146
722.176	0.0175282
722.254	0.0174963
722.332	0.0174338
722.410	0.0175138
722.488	0.0175109
722.567	0.0174755
722.645	0.0175776
722.723	0.0175707
722.801	0.0178522
722.879	0.0179900
722.957	0.0184565
723.035	0.0185610
723.113	0.0189881
723.192	0.0195157
723.270	0.0198946
723.348	0.0205013
723.426	0.0210831
723.504	0.0217659
723.582	0.0222245
723.660	0.0226298
723.738	0.0233227
723.817	0.0236793
723.895	0.0241127
723.973	0.0241591
724.051	0.0243395
724.129	0.0242905
724.207	0.0241533
724.285	0.0239168
724.363	0.0233587
724.442	0.0231814
724.520	0.0226360
724.598	0.0217383
724.676	0.0215102
724.754	0.0209348
724.832	0.0203827
724.910	0.0199718
724.988	0.0194656
725.067	0.0190121
725.145	0.0185424
725.223	0.0184291
725.301	0.0182256
725.379	0.0178499
725.457	0.0177310
725.535	0.0176488
725.613	0.0174478
725.692	0.0173993
725.770	0.0174654
725.848	0.0174153
725.926	0.0175536
726.004	0.0176417
726.082	0.0176839
726.160	0.0177689
726.238	0.0178461
726.317	0.0178419
726.395	0.0176924
726.473	0.0175038
726.551	0.0171529
726.629	0.0170350
726.707	0.0167754
726.785	0.0161844
726.863	0.0157628
726.942	0.0151806
727.020	0.0147205
727.098	0.0140091
727.176	0.0135458
727.254	0.0130575
727.332	0.0125969
727.410	0.0124232
727.488	0.0121735
727.567	0.0123194
727.645	0.0124646
727.723	0.0127325
727.801	0.0133704
727.879	0.0137627
727.957	0.0145861
728.035	0.0151196
728.113	0.0158460
728.192	0.0165801
728.270	0.0171677
728.348	0.0176740
728.426	0.0183582
728.504	0.0187156
728.582	0.0190310
728.660	0.0192430
728.738	0.0195602
728.817	0.0193491
728.895	0.0195359
728.973	0.0196110
729.051	0.0193787
729.129	0.0194333
729.207	0.0194056
729.285	0.0192624
729.363	0.0193416
729.442	0.0194937
729.520	0.0194485
729.598	0.0196519
729.676	0.0199627
729.754	0.0201490
729.832	0.0204005
729.910	0.0208070
729.988	0.0209203
730.067	0.0215662
730.145	0.0219739
730.223	0.0225481
730.301	0.0229624
730.379	0.0235651
730.457	0.0237497
730.535	0.0240886
730.613	0.0242513
730.692	0.0242793
730.770	0.0244672
730.848	0.0242414
730.926	0.0238930
731.004	0.0233537
731.082	0.0228487
731.160	0.0222393
731.238	0.0215238
731.317	0.0207507
731.395	0.0199992
731.473	0.0193302
731.551	0.0186066
731.629	0.0180429
731.707	0.0177527
731.785	0.0172327
731.863	0.0171258
731.942	0.0168720
732.020	0.0170030
732.098	0.0168742
732.176	0.0170778
732.254	0.0172747
732.332	0.0175103
732.410	0.0177122
732.488	0.0177795
732.567	0.0179421
732.645	0.0180372
732.723	0.0178386
732.801	0.0178799
732.879	0.0177672
732.957	0.0175098
733.035	0.0172234
733.113	0.0167791
733.192	0.0162836
733.270	0.0158981
733.348	0.0153030
733.426	0.0148692
733.504	0.0142156
733.582	0.0136316
733.660	0.0131341
733.738	0.0126365
733.817	0.0123179
733.895	0.0121691
733.973	0.0119430
734.051	0.0119744
734.129	0.0120350
734.207	0.0123323
734.285	0.0124783
734.363	0.0128864
734.442	0.0133957
734.520	0.0140981
734.598	0.0146866
734.676	0.0154510
734.754	0.0161503
734.832	0.0169858
734.910	0.0177657
734.988	0.0185696
735.067	0.0193221
735.145	0.0197028
735.223	0.0203922
735.301	0.0208702
735.379	0.0212174
735.457	0.0213724
735.535	0.0214614
735.613	0.0216485
735.692	0.0216151
735.770	0.0215723
735.848	0.0212653
735.926	0.0211341
736.004	0.0212358
736.082	0.0210376
736.160	0.0209579
736.238	0.0209467
736.317	0.0208324
736.395	0.0208920
736.473	0.0210742
736.551	0.0210459
736.629	0.0211857
736.707	0.0213451
736.785	0.0215199
736.863	0.0218685
736.942	0.0219595
737.020	0.0220062
737.098	0.0218919
737.176	0.0221185
737.254	0.0221112
737.332	0.0218270
737.410	0.0218120
737.488	0.0215240
737.567	0.0211729
737.645	0.0207827
737.723	0.0203899
737.801	0.0197887
737.879	0.0193739
737.957	0.0190154
738.035	0.0186626
738.113	0.0183752
738.192	0.0180830
738.270	0.0180694
738.348	0.0181576
738.426	0.0181281
738.504	0.0181523
738.582	0.0181538
738.660	0.0183003
738.738	0.0184957
738.817	0.0185067
738.895	0.0187105
738.973	0.0185756
739.051	0.0184978
739.129	0.0185231
739.207	0.0184725
739.285	0.0180910
739.363	0.0178830
739.442	0.0175962
739.520	0.0172650
739.598	0.0171303
739.676	0.0166625
739.754	0.0163979
739.832	0.0160270
739.910	0.0157231
739.988	0.0153770
740.067	0.0149802
740.145	0.0146678
740.223	0.0143783
740.301	0.0139915
740.379	0.0138278
740.457	0.0136658
740.535	0.0135233
740.613	0.0132185
740.692	0.0132505
740.770	0.0134971
740.848	0.0135331
740.926	0.0137702
741.004	0.0141702
741.082	0.0142922
741.160	0.0147333
741.238	0.0152847
741.317	0.0157462
741.395	0.0162703
741.473	0.0165986
741.551	0.0172583
741.629	0.0177129
741.707	0.0183619
741.785	0.0187334
741.863	0.0192550
741.942	0.0196162
742.020	0.0199617
742.098	0.0201687
742.176	0.0205632
742.254	0.0207245
742.332	0.0208530
742.410	0.0211126
742.488	0.0212290
742.567	0.0213354
742.645	0.0213360
742.723	0.0214925
742.801	0.0216145
742.879	0.0216583
742.957	0.0215796
743.035	0.0215717
743.113	0.0213864
743.192	0.0214901
743.270	0.0212450
743.348	0.0210352
743.426	0.0209644
743.504	0.0207823
743.582	0.0206838
743.660	0.0204215
743.738	0.0204722
743.817	0.0205401
743.895	0.0201409
743.973	0.0200272
744.051	0.0201231
744.129	0.0197914
744.207	0.0198159
744.285	0.0196410
744.363	0.0196374
744.442	0.0195232
744.520	0.0193890
744.598	0.0193094
744.676	0.0191573
744.754	0.0191991
744.832	0.0190754
744.910	0.0194360
744.988	0.0194952
745.067	0.0195665
745.145	0.0195593
745.223	0.0196535
745.301	0.0198878
745.379	0.0198636
745.457	0.0197507
745.535	0.0195984
745.613	0.0194133
745.692	0.0190930
745.770	0.0189819
745.848	0.0185067
745.926	0.0181413
746.004	0.0177209
746.082	0.0174140
746.160	0.0169595
746.238	0.0163989
746.317	0.0162262
746.395	0.0160212
746.473	0.0156332
746.551	0.0152752
746.629	0.0152367
746.707	0.0152242
746.785	0.0151357
746.863	0.0149280
746.942	0.0149855
747.020	0.0149974
747.098	0.0150578
747.176	0.0149759
747.254	0.0149583
747.332	0.0149677
747.410	0.0149687
747.488	0.0150073
747.567	0.0151947
747.645	0.0151086
747.723	0.0153550
747.801	0.0153584
747.879	0.0156360
747.957	0.0157579
748.035	0.0159273
748.113	0.0160957
748.192	0.0164947
748.270	0.0167299
748.348	0.0170396
748.426	0.0172546
748.504	0.0175800
748.582	0.0179423
748.660	0.0182925
748.738	0.0186268
748.817	0.0187868
748.895	0.0192924
748.973	0.0193842
749.051	0.0196812
749.129	0.0198890
749.207	0.0200069
749.285	0.0203251
749.363	0.0206688
749.442	0.0208386
749.520	0.0210252
749.598	0.0212347
749.676	0.0213561
749.754	0.0214545
749.832	0.0215017
749.910	0.0215773
749.988	0.0215170
750.067	0.0213256
750.145	0.0212569
750.223	0.0211407
750.301	0.0209551
750.379	0.0204882
750.457	0.0202888
750.535	0.0199781
750.613	0.0196706
750.692	0.0194767
750.770	0.0193694
750.848	0.0191740
750.926	0.0189143
751.004	0.0189401
751.082	0.0191441
751.160	0.0191071
751.238	0.0191295
751.317	0.0192465
751.395	0.0194366
751.473	0.0195301
751.551	0.0196836
751.629	0.0198296
751.707	0.0199297
751.785	0.0199190
751.863	0.0200865
751.942	0.0201042
752.020	0.0200767
752.098	0.0198901
752.176	0.0196519
752.254	0.0195459
752.332	0.0193575
752.410	0.0189447
752.488	0.0187991
752.567	0.0184032
752.645	0.0182025
752.723	0.0178188
752.801	0.0176429
752.879	0.0172416
752.957	0.0170549
753.035	0.0166656
753.113	0.0165873
753.192	0.0163829
753.270	0.0163398
753.348	0.0161395
753.426	0.0162005
753.504	0.0159611
753.582	0.0158446
753.660	0.0159595
753.738	0.0157434
753.817	0.0157602
753.895	0.0158109
753.973	0.0157217
754.051	0.0156699
754.129	0.0158116
754.207	0.0157439
754.285	0.0158006
754.363	0.0159433
754.442	0.0161690
754.520	0.0160467
754.598	0.0162952
754.676	0.0164680
754.754	0.0167011
754.832	0.0168948
754.910	0.0170039
754.988	0.0171561
755.067	0.0173828
755.145	0.0174948
755.223	0.0177332
755.301	0.0176556
755.379	0.0178493
755.457	0.0178855
755.535	0.0178626
755.613	0.0180439
755.692	0.0181808
755.770	0.0180837
755.848	0.0183202
755.926	0.0184277
756.004	0.0184843
756.082	0.0185240
756.160	0.0187982
756.238	0.0190029
756.317	0.0192899
756.395	0.0195467
756.473	0.0197662
756.551	0.0198962
756.629	0.0201563
756.707	0.0201746
756.785	0.0203250
756.863	0.0204765
756.942	0.0205451
757.020	0.0204463
757.098	0.0204139
757.176	0.0204717
757.254	0.0202724
757.332	0.0200459
757.410	0.0199804
757.488	0.0199828
757.567	0.0199300
757.645	0.0200105
757.723	0.0199664
757.801	0.0199089
757.879	0.0200340
757.957	0.0200058
758.035	0.0199850
758.113	0.0200192
758.192	0.0201211
758.270	0.0200502
758.348	0.0201141
758.426	0.0199158
758.504	0.0199625
758.582	0.0198801
758.660	0.0195479
758.738	0.0195254
758.817	0.0192567
758.895	0.0189188
758.973	0.0186771
759.051	0.0185345
759.129	0.0183499
759.207	0.0183306
759.285	0.0181261
759.363	0.0181258
759.442	0.0179845
759.520	0.0178675
759.598	0.0180215
759.676	0.0178400
759.754	0.0176956
759.832	0.0179683
759.910	0.0177822
759.988	0.0175285
760.067	0.0176103
760.145	0.0175051
760.223	0.0175038
760.301	0.0173620
760.379	0.0174318
760.457	0.0172672
760.535	0.0172041
760.613	0.0170156
760.692	0.0169228
760.770	0.0170559
760.848	0.0169765
760.926	0.0168415
761.004	0.0167152
761.082	0.0165360
761.160	0.0166103
761.238	0.0163821
761.317	0.0163577
761.395	0.0162858
761.473	0.0161920
761.551	0.0161812
761.629	0.0163613
761.707	0.0163643
761.785	0.0164935
761.863	0.0166119
761.942	0.0166956
762.020	0.0168770
762.098	0.0171990
762.176	0.0173428
762.254	0.0176193
762.332	0.0178418
762.410	0.0178481
762.488	0.0180334
762.567	0.0181733
762.645	0.0183043
762.723	0.0184772
762.801	0.0183213
762.879	0.0183875
762.957	0.0184240
763.035	0.0184716
763.113	0.0183106
763.192	0.0185336
763.270	0.0184834
763.348	0.0183898
763.426	0.0183978
763.504	0.0186366
763.582	0.0187708
763.660	0.0187125
763.738	0.0188880
763.817	0.0190977
763.895	0.0192857
763.973	0.0193447
764.051	0.0193843
764.129	0.0197440
764.207	0.0198928
764.285	0.0200176
764.363	0.0203204
764.442	0.0204783
764.520	0.0205952
764.598	0.0205797
764.676	0.0208820
764.754	0.0207340
764.832	0.0206660
764.910	0.0205373
764.988	0.0203709
765.067	0.0201015
765.145	0.0197503
765.223	0.0196914
765.301	0.0195455
765.379	0.0190371
765.457	0.0187630
765.535	0.0185676
765.613	0.0183562
765.692	0.0181482
765.770	0.0182040
765.848	0.0181583
765.926	0.0180020
766.004	0.0180624
766.082	0.0180519
766.160	0.0183237
766.238	0.0185153
766.317	0.0186262
766.395	0.0187592
766.473	0.0188445
766.551	0.0190198
766.629	0.0190098
766.707	0.0191341
766.785	0.0191013
766.863	0.0191782
766.942	0.0189553
767.020	0.0190205
767.098	0.0188665
767.176	0.0186659
767.254	0.0185999
767.332	0.0182145
767.410	0.0178453
767.488	0.0177124
767.567	0.0174715
767.645	0.0172384
767.723	0.0170768
767.801	0.0167186
767.879	0.0167122
767.957	0.0167876
768.035	0.0166494
768.113	0.0165209
768.192	0.0163755
768.270	0.0165044
768.348	0.0166689
768.426	0.0168111
768.504	0.0170116
768.582	0.0171375
768.660	0.0172800
768.738	0.0174374
768.817	0.0176054
768.895	0.0175087
768.973	0.0176564
769.051	0.0177670
769.129	0.0177962
769.207	0.0176444
769.285	0.0175554
769.363	0.0174973
769.442	0.0174086
769.520	0.0172572
769.598	0.0172247
769.676	0.0172038
769.754	0.0169747
769.832	0.0170084
769.910	0.0169337
769.988	0.0170632
770.067	0.0171091
770.145	0.0172034
770.223	0.0174110
770.301	0.0174889
770.379	0.0177760
770.457	0.0180272
770.535	0.0183151
770.613	0.0188071
770.692	0.0189753
770.770	0.0192059
770.848	0.0196475
770.926	0.0198368
771.004	0.0200156
771.082	0.0200374
771.160	0.0202289
771.238	0.0202535
771.317	0.0200244
771.395	0.0199317
771.473	0.0200183
771.551	0.0197588
771.629	0.0195549
771.707	0.0192651
771.785	0.0190151
771.863	0.0191186
771.942	0.0188164
772.020	0.0185445
772.098	0.0186507
772.176	0.0186189
772.254	0.0185213
772.332	0.0185831
772.410	0.0185976
772.488	0.0188483
772.567	0.0190204
772.645	0.0192160
772.723	0.0193516
772.801	0.0194439
772.879	0.0197408
772.957	0.0197519
773.035	0.0198286
773.113	0.0200351
773.192	0.0201814
773.270	0.0200117
773.348	0.0200682
773.426	0.0198724
773.504	0.0197949
773.582	0.0196213
773.660	0.0194520
773.738	0.0193366
773.817	0.0188511
773.895	0.0186238
773.973	0.0183216
774.051	0.0179408
774.129	0.0177342
774.207	0.0175317
774.285	0.0174960
774.363	0.0171686
774.442	0.0169751
774.520	0.0169746
774.598	0.0169427
774.676	0.0170077
774.754	0.0171451
774.832	0.0174129
774.910	0.0174155
774.988	0.0176062
775.067	0.0178854
775.145	0.0178377
775.223	0.0180853
775.301	0.0181582
775.379	0.0181987
775.457	0.0180894
775.535	0.0181542
775.613	0.0181070
775.692	0.0178824
775.770	0.0177721
775.848	0.0177105
775.926	0.0175340
776.004	0.0173852
776.082	0.0170986
776.160	0.0169531
776.238	0.0168682
776.317	0.0167590
776.395	0.0166905
776.473	0.0165199
776.551	0.0164697
776.629	0.0166595
776.707	0.0166521
776.785	0.0168906
776.863	0.0169193
776.942	0.0172002
777.020	0.0175472
777.098	0.0177131
777.176	0.0178913
777.254	0.0182108
777.332	0.0183691
777.410	0.0185605
777.488	0.0188358
777.567	0.0188292
777.645	0.0188220
777.723	0.0189396
777.801	0.0188613
777.879	0.0185342
777.957	0.0186295
778.035	0.0187477
778.113	0.0184945
778.192	0.0183404
778.270	0.0184205
778.348	0.0181854
778.426	0.0179961
778.504	0.0179837
778.582	0.0179540
778.660	0.0179168
778.738	0.0181016
778.817	0.0183556
778.895	0.0183131
778.973	0.0184705
779.051	0.0187941
779.129	0.0189687
779.207	0.0192083
779.285	0.0194718
779.363	0.0197933
779.442	0.0200206
779.520	0.0199446
779.598	0.0200461
779.676	0.0202473
779.754	0.0203871
779.832	0.0203502
779.910	0.0204207
779.988	0.0201936
780.067	0.0199419
780.145	0.0199884
780.223	0.0199212
780.301	0.0195866
780.379	0.0194868
780.457	0.0194946
780.535	0.0192970
780.613	0.0192215
780.692	0.0189022
780.770	0.0188070
780.848	0.0188085
780.926	0.0184602
781.004	0.0184988
781.082	0.0184331
781.160	0.0183279
781.238	0.0182391
781.317	0.0182397
781.395	0.0182497
781.473	0.0182779
781.551	0.0182379
781.629	0.0182253
781.707	0.0183607
781.785	0.0182507
781.863	0.0182577
781.942	0.0182124
782.020	0.0181316
782.098	0.0180769
782.176	0.0179975
782.254	0.0181049
782.332	0.0179011
782.410	0.0179578
782.488	0.0176473
782.567	0.0176334
782.645	0.0175535
782.723	0.0175173
782.801	0.0173251
782.879	0.0172234
782.957	0.0171973
783.035	0.0172644
783.113	0.0172208
783.192	0.0171758
783.270	0.0172314
783.348	0.0173283
783.426	0.0172762
783.504	0.0174014
783.582	0.0174728
783.660	0.0175033
783.738	0.0175787
783.817	0.0175684
783.895	0.0176446
783.973	0.0176959
784.051	0.0177592
784.129	0.0176318
784.207	0.0175887
784.285	0.0176749
784.363	0.0178062
784.442	0.0178595
784.520	0.0178384
784.598	0.0175977
784.676	0.0176719
784.754	0.0177670
784.832	0.0176543
784.910	0.0178036
784.988	0.0178210
785.067	0.0178395
785.145	0.0179003
785.223	0.0179014
785.301	0.0179514
785.379	0.0180708
785.457	0.0181834
785.535	0.0182713
785.613	0.0184283
785.692	0.0185158
785.770	0.0186797
785.848	0.0187795
785.926	0.0188763
786.004	0.0189829
786.082	0.0191302
786.160	0.0192589
786.238	0.0192351
786.317	0.0192591
786.395	0.0193988
786.473	0.0194472
786.551	0.0192591
786.629	0.0194200
786.707	0.0194466
786.785	0.0195033
786.863	0.0194022
786.942	0.0193517
787.020	0.0194255
787.098	0.0194164
787.176	0.0192859
787.254	0.0193460
787.332	0.0194640
787.410	0.0194698
787.488	0.0193566
787.567	0.0192387
787.645	0.0191953
787.723	0.0193341
787.801	0.0191075
787.879	0.0189928
787.957	0.0189870
788.035	0.0190911
788.113	0.0189481
788.192	0.0189372
788.270	0.0189006
788.348	0.0187952
788.426	0.0188103
788.504	0.0187116
788.582	0.0185799
788.660	0.0185662
788.738	0.0185474
788.817	0.0184092
788.895	0.0184201
788.973	0.0184595
789.051	0.0182670
789.129	0.0182043
789.207	0.0180724
789.285	0.0180444
789.363	0.0179604
789.442	0.0180263
789.520	0.0178422
789.598	0.0177675
789.676	0.0177730
789.754	0.0175476
789.832	0.0175689
789.910	0.0175206
789.988	0.0174841
790.067	0.0176154
790.145	0.0174589
790.223	0.0174768
790.301	0.0174693
790.379	0.0175195
790.457	0.0176146
790.535	0.0177429
790.613	0.0177065
790.692	0.0178476
790.770	0.0180122
790.848	0.0181090
790.926	0.0181702
791.004	0.0181121
791.082	0.0182195
791.160	0.0183660
791.238	0.0184016
791.317	0.0184606
791.395	0.0184264
791.473	0.0184702
791.551	0.0182602
791.629	0.0182712
791.707	0.0180721
791.785	0.0180715
791.863	0.0179864
791.942	0.0177450
792.020	0.0180015
792.098	0.0177459
792.176	0.0175587
792.254	0.0176528
792.332	0.0175608
792.410	0.0176178
792.488	0.0176501
792.567	0.0176275
792.645	0.0175645
792.723	0.0177190
792.801	0.0178818
792.879	0.0178514
792.957	0.0179189
793.035	0.0180109
793.113	0.0179895
793.192	0.0182227
793.270	0.0183146
793.348	0.0183478
793.426	0.0184184
793.504	0.0185389
793.582	0.0185976
793.660	0.0186182
793.738	0.0187852
793.817	0.0188368
793.895	0.0188710
793.973	0.0188595
794.051	0.0190073
794.129	0.0191782
794.207	0.0190730
794.285	0.0191925
794.363	0.0193156
794.442	0.0192834
794.520	0.0192156
794.598	0.0193455
794.676	0.0191702
794.754	0.0193168
794.832	0.0193062
794.910	0.0193468
794.988	0.0193439
795.067	0.0193072
795.145	0.0193565
795.223	0.0193667
795.301	0.0191663
795.379	0.0190603
795.457	0.0189743
795.535	0.0189265
795.613	0.0187502
795.692	0.0186671
795.770	0.0187095
795.848	0.0185873
795.926	0.0183719
796.004	0.0185497
796.082	0.0185513
796.160	0.0183876
796.238	0.0183967
796.317	0.0182735
796.395	0.0182723
796.473	0.0182716
796.551	0.0183449
796.629	0.0182159
796.707	0.0182368
796.785	0.0181531
796.863	0.0182342
796.942	0.0181956
797.020	0.0181416
797.098	0.0181239
797.176	0.0179671
797.254	0.0180123
797.332	0.0179944
797.410	0.0181226
797.488	0.0181600
797.567	0.0182160
797.645	0.0181419
797.723	0.0181897
797.801	0.0181010
797.879	0.0181409
797.957	0.0182781
798.035	0.0181380
798.113	0.0180688
798.192	0.0180898
798.270	0.0180495
798.348	0.0181589
798.426	0.0179820
798.504	0.0180654
798.582	0.0180161
798.660	0.0180214
798.738	0.0180596
798.817	0.0179746
798.895	0.0179436
798.973	0.0178810
799.051	0.0178453
799.129	0.0179732
799.207	0.0178692
799.285	0.0177544
799.363	0.0178163
799.442	0.0176128
799.520	0.0175755
799.598	0.0177611
799.676	0.0177163
799.754	0.0177222
799.832	0.0176680
799.910	0.0177947
799.988	0.0178933
800.067	0.0177485
800.145	0.0178398
800.223	0.0178163
800.301	0.0178757
800.379	0.0179952
800.457	0.0178915
800.535	0.0179343
800.613	0.0179697
800.692	0.0180196
800.770	0.0180746
800.848	0.0180021
800.926	0.0179356
801.004	0.0180775
801.082	0.0183537
801.160	0.0183039
801.238	0.0183707
801.317	0.0184991
801.395	0.0185757
801.473	0.0187504
801.551	0.0189005
801.629	0.0190322
801.707	0.0193158
801.785	0.0193927
801.863	0.0193473
801.942	0.0194567
802.020	0.0195329
802.098	0.0194621
802.176	0.0195962
802.254	0.0196299
802.332	0.0196252
802.410	0.0196123
802.488	0.0195632
802.567	0.0193703
802.645	0.0192445
802.723	0.0191305
802.801	0.0189502
802.879	0.0190031
802.957	0.0189057
803.035	0.0186916
803.113	0.0184667
803.192	0.0185674
803.270	0.0184296
803.348	0.0184169
803.426	0.0185751
803.504	0.0185136
803.582	0.0185340
803.660	0.0184512
803.738	0.0185789
803.817	0.0187184
803.895	0.0187945
803.973	0.0186572
804.051	0.0188425
804.129	0.0187834
804.207	0.0187244
804.285	0.0187604
804.363	0.0188171
804.442	0.0186308
804.520	0.0185704
804.598	0.0185484
804.676	0.0184846
804.754	0.0182476
804.832	0.0182391
804.910	0.0180723
804.988	0.0179814
805.067	0.0177664
805.145	0.0176671
805.223	0.0176608
805.301	0.0177481
805.379	0.0174091
805.457	0.0172543
805.535	0.0172784
805.613	0.0174509
805.692	0.0171912
805.770	0.0172686
805.848	0.0173135
805.926	0.0174440
806.004	0.0174277
806.082	0.0175065
806.160	0.0176733
806.238	0.0177279
806.317	0.0177192
806.395	0.0179122
806.473	0.0178215
806.551	0.0178979
806.629	0.0179324
806.707	0.0180778
806.785	0.0179427
806.863	0.0180437
806.942	0.0181243
807.020	0.0179300
807.098	0.0179168
807.176	0.0180646
807.254	0.0180133
807.332	0.0179147
807.410	0.0180122
807.488	0.0181721
807.567	0.0181718
807.645	0.0181351
807.723	0.0183717
807.801	0.0184987
807.879	0.0184421
807.957	0.0186753
808.035	0.0188240
808.113	0.0187437
808.192	0.0187903
808.270	0.0189356
808.348	0.0190119
808.426	0.0190942
808.504	0.0191862
808.582	0.0191929
808.660	0.0191328
808.738	0.0192099
808.817	0.0192974
808.895	0.0191396
808.973	0.0191020
809.051	0.0190254
809.129	0.0188277
809.207	0.0186677
809.285	0.0186086
809.363	0.0185938
809.442	0.0184378
809.520	0.0184157
809.598	0.0182323
809.676	0.0182198
809.754	0.0183402
809.832	0.0181507
809.910	0.0182902
809.988	0.0182051
810.067	0.0183596
810.145	0.0185028
810.223	0.0183646
810.301	0.0185921
810.379	0.0186444
810.457	0.0186041
810.535	0.0186148
810.613	0.0185244
810.692	0.0187294
810.770	0.0186395
810.848	0.0187288
810.926	0.0186118
811.004	0.0185123
811.082	0.0182338
811.160	0.0182832
811.238	0.0181902
811.317	0.0180746
811.395	0.0181485
811.473	0.0179681
811.551	0.0179135
811.629	0.0178481
811.707	0.0179372
811.785	0.0178506
811.863	0.0177994
811.942	0.0178188
812.020	0.0179977
812.098	0.0180350
812.176	0.0180545
812.254	0.0181564
812.332	0.0183258
812.410	0.0182845
812.488	0.0183651
812.567	0.0183342
812.645	0.0185204
812.723	0.0185947
812.801	0.0186655
812.879	0.0185486
812.957	0.0185728
813.035	0.0185740
813.113	0.0185468
813.192	0.0185424
813.270	0.0185786
813.348	0.0183736
813.426	0.0183353
813.504	0.0183535
813.582	0.0183008
813.660	0.0182603
813.738	0.0182808
813.817	0.0182302
813.895	0.0182707
813.973	0.0183846
814.051	0.0184695
814.129	0.0184640
814.207	0.0184570
814.285	0.0185603
814.363	0.0186490
814.442	0.0186363
814.520	0.0187139
814.598	0.0187566
814.676	0.0187531
814.754	0.0186678
814.832	0.0187927
814.910	0.0188025
814.988	0.0186501
815.067	0.0187140
815.145	0.0185219
815.223	0.0184784
815.301	0.0184828
815.379	0.0183822
815.457	0.0182516
815.535	0.0182285
815.613	0.0181081
815.692	0.0180358
815.770	0.0179991
815.848	0.0178193
815.926	0.0177151
816.004	0.0178781
816.082	0.0178149
816.160	0.0175378
816.238	0.0177380
816.317	0.0175836
816.395	0.0176048
816.473	0.0176188
816.551	0.0175717
816.629	0.0176884
816.707	0.0177870
816.785	0.0178861
816.863	0.0178947
816.942	0.0178408
817.020	0.0180941
817.098	0.0179396
817.176	0.0181450
817.254	0.0183078
817.332	0.0181686
817.410	0.0183076
817.488	0.0182903
817.567	0.0184264
817.645	0.0184872
817.723	0.0185893
817.801	0.0185696
817.879	0.0186546
817.957	0.0186095
818.035	0.0186197
818.113	0.0187031
818.192	0.0186890
818.270	0.0184991
818.348	0.0187059
818.426	0.0187865
818.504	0.0186273
818.582	0.0185686
818.660	0.0185854
818.738	0.0187896
818.817	0.0187504
818.895	0.0187441
818.973	0.0187651
819.051	0.0187720
819.129	0.0188413
819.207	0.0188672
819.285	0.0188396
819.363	0.0189890
819.442	0.0190484
819.520	0.0191933
819.598	0.0192050
819.676	0.0192208
819.754	0.0193458
819.832	0.0192776
819.910	0.0191433
819.988	0.0191734
820.067	0.0191366
820.145	0.0191678
820.223	0.0191231
820.301	0.0190529
820.379	0.0189667
820.457	0.0189220
820.535	0.0188668
820.613	0.0188848
820.692	0.0186552
820.770	0.0186534
820.848	0.0185019
820.926	0.0184357
821.004	0.0183099
821.082	0.0182949
821.160	0.0184232
821.238	0.0181052
821.317	0.0180502
821.395	0.0178863
821.473	0.0179613
821.551	0.0179842
821.629	0.0179066
821.707	0.0178798
821.785	0.0177969
821.863	0.0179319
821.942	0.0179988
822.020	0.0178778
822.098	0.0179005
822.176	0.0178589
822.254	0.0179342
822.332	0.0179193
822.410	0.0178086
822.488	0.0178278
822.567	0.0179253
822.645	0.0177239
822.723	0.0178047
822.801	0.0176834
822.879	0.0177753
822.957	0.0176295
823.035	0.0178339
823.113	0.0177354
823.192	0.0176844
823.270	0.0176800
823.348	0.0176219
823.426	0.0175406
823.504	0.0177264
823.582	0.0178081
823.660	0.0176916
823.738	0.0176855
823.817	0.0177198
823.895	0.0176876
823.973	0.0177383
824.051	0.0178917
824.129	0.0179043
824.207	0.0180138
824.285	0.0180699
824.363	0.0180733
824.442	0.0181739
824.520	0.0182190
824.598	0.0184147
824.676	0.0185144
824.754	0.0186005
824.832	0.0186115
824.910	0.0186946
824.988	0.0187401
825.067	0.0188037
825.145	0.0188030
825.223	0.0187422
825.301	0.0189219
825.379	0.0187762
825.457	0.0190109
825.535	0.0190255
825.613	0.0189510
825.692	0.0189841
825.770	0.0190564
825.848	0.0188306
825.926	0.0190724
826.004	0.0191289
826.082	0.0190821
826.160	0.0190491
826.238	0.0190898
826.317	0.0192503
826.395	0.0192673
826.473	0.0191411
826.551	0.0191421
826.629	0.0192705
826.707	0.0192860
826.785	0.0193027
826.863	0.0193353
826.942	0.0192320
827.020	0.0192034
827.098	0.0191458
827.176	0.0189935
827.254	0.0189674
827.332	0.0187833
827.410	0.0187210
827.488	0.0186929
827.567	0.0187107
827.645	0.0186604
827.723	0.0185072
827.801	0.0185822
827.879	0.0184978
827.957	0.0184763
828.035	0.0186214
828.113	0.0187112
828.192	0.0185812
828.270	0.0185272
828.348	0.0184427
828.426	0.0182888
828.504	0.0182328
828.582	0.0183431
828.660	0.0181085
828.738	0.0181792
828.817	0.0180090
828.895	0.0179007
828.973	0.0177987
829.051	0.0178945
829.129	0.0177555
829.207	0.0174902
829.285	0.0174481
829.363	0.0174773
829.442	0.0174110
829.520	0.0172005
829.598	0.0172367
829.676	0.0173239
829.754	0.0170138
829.832	0.0171083
829.910	0.0171488
829.988	0.0171257
830.067	0.0171110
830.145	0.0172268
830.223	0.0171938
830.301	0.0173032
830.379	0.0174419
830.457	0.0175127
830.535	0.0175533
830.613	0.0178316
830.692	0.0178288
830.770	0.0179939
830.848	0.0181314
830.926	0.0181908
831.004	0.0182224
831.082	0.0182801
831.160	0.0183925
831.238	0.0185023
831.317	0.0184585
831.395	0.0184910
831.473	0.0186430
831.551	0.0185558
831.629	0.0184867
831.707	0.0184820
831.785	0.0185410
831.863	0.0185400
831.942	0.0185432
832.020	0.0185304
832.098	0.0185015
832.176	0.0184869
832.254	0.0187014
832.332	0.0186855
832.410	0.0187065
832.488	0.0188108
832.567	0.0187806
832.645	0.0188703
832.723	0.0189822
832.801	0.0190321
832.879	0.0191006
832.957	0.0191410
833.035	0.0191943
833.113	0.0192168
833.192	0.0193207
833.270	0.0191646
833.348	0.0192213
833.426	0.0192949
833.504	0.0193317
833.582	0.0193417
833.660	0.0192309
833.738	0.0192697
833.817	0.0191806
833.895	0.0191165
833.973	0.0190437
834.051	0.0189320
834.129	0.0189192
834.207	0.0188206
834.285	0.0188424
834.363	0.0186124
834.442	0.0187152
834.520	0.0185120
834.598	0.0185983
834.676	0.0184978
834.754	0.0184591
834.832	0.0184492
834.910	0.0182651
834.988	0.0183988
835.067	0.0184115
835.145	0.0182984
835.223	0.0182192
835.301	0.0182469
835.379	0.0183150
835.457	0.0181300
835.535	0.0181174
835.613	0.0181329
835.692	0.0181234
835.770	0.0180287
835.848	0.0180561
835.926	0.0178824
836.004	0.0179678
836.082	0.0178050
836.160	0.0177391
836.238	0.0176529
836.317	0.0175887
836.395	0.0175729
836.473	0.0174502
836.551	0.0174998
836.629	0.0173474
836.707	0.0174143
836.785	0.0172585
836.863	0.0173227
836.942	0.0173724
837.020	0.0173235
837.098	0.0175340
837.176	0.0174814
837.254	0.0174783
837.332	0.0177409
837.410	0.0176678
837.488	0.0177428
837.567	0.0178146
837.645	0.0179173
837.723	0.0180717
837.801	0.0181461
837.879	0.0181896
837.957	0.0182352
838.035	0.0184905
838.113	0.0185252
838.192	0.0184929
838.270	0.0184261
838.348	0.0184932
838.426	0.0186111
838.504	0.0186469
838.582	0.0187907
838.660	0.0185557
838.738	0.0186426
838.817	0.0186744
838.895	0.0185878
838.973	0.0187709
839.051	0.0186514
839.129	0.0186466
839.207	0.0186966
839.285	0.0186053
839.363	0.0186417
839.442	0.0185751
839.520	0.0185648
839.598	0.0186419
839.676	0.0186468
839.754	0.0186826
839.832	0.0187237
839.910	0.0188801
839.988	0.0186024
840.067	0.0186665
840.145	0.0188039
840.223	0.0190009
840.301	0.0188771
840.379	0.0189252
840.457	0.0188951
840.535	0.0187971
840.613	0.0188759
840.692	0.0187652
840.770	0.0187934
840.848	0.0188184
840.926	0.0188503
841.004	0.0188956
841.082	0.0189077
841.160	0.0187586
841.238	0.0188727
841.317	0.0187999
841.395	0.0188392
841.473	0.0188241
841.551	0.0188451
841.629	0.0187289
841.707	0.0187658
841.785	0.0186130
841.863	0.0185576
841.942	0.0186137
842.020	0.0184620
842.098	0.0183231
842.176	0.0183008
842.254	0.0183202
842.332	0.0181032
842.410	0.0180952
842.488	0.0180676
842.567	0.0179176
842.645	0.0178674
842.723	0.0177580
842.801	0.0178062
842.879	0.0179609
842.957	0.0179153
843.035	0.0178752
843.113	0.0177615
843.192	0.0178688
843.270	0.0177443
843.348	0.0179204
843.426	0.0178156
843.504	0.0179182
843.582	0.0180764
843.660	0.0180616
843.738	0.0180647
843.817	0.0180842
843.895	0.0181464
843.973	0.0182264
844.051	0.0182037
844.129	0.0181000
844.207	0.0181207
844.285	0.0182401
844.363	0.0183813
844.442	0.0181470
844.520	0.0182589
844.598	0.0181407
844.676	0.0181901
844.754	0.0182864
844.832	0.0182215
844.910	0.0183810
844.988	0.0182318
845.067	0.0181755
845.145	0.0181949
845.223	0.0183271
845.301	0.0183328
845.379	0.0182899
845.457	0.0183511
845.535	0.0183613
845.613	0.0183574
845.692	0.0184038
845.770	0.0183155
845.848	0.0184878
845.926	0.0185546
846.004	0.0184700
846.082	0.0184910
846.160	0.0184750
846.238	0.0184370
846.317	0.0185727
846.395	0.0185801
846.473	0.0186599
846.551	0.0186668
846.629	0.0186723
846.707	0.0185116
846.785	0.0187961
846.863	0.0187907
846.942	0.0187693
847.020	0.0186760
847.098	0.0185941
847.176	0.0186267
847.254	0.0186083
847.332	0.0184197
847.410	0.0184802
847.488	0.0186188
847.567	0.0184630
847.645	0.0183356
847.723	0.0183056
847.801	0.0185461
847.879	0.0184135
847.957	0.0184453
848.035	0.0184352
848.113	0.0183320
848.192	0.0185177
848.270	0.0183991
848.348	0.0183985
848.426	0.0184947
848.504	0.0183881
848.582	0.0185332
848.660	0.0185294
848.738	0.0184903
848.817	0.0185973
848.895	0.0184714
848.973	0.0186306
849.051	0.0185100
849.129	0.0185456
849.207	0.0185773
849.285	0.0184293
849.363	0.0183322
849.442	0.0184950
849.520	0.0185063
849.598	0.0183147
849.676	0.0184167
849.754	0.0183748
849.832	0.0184670
849.910	0.0183066
849.988	0.0182777
850.067	0.0182756
850.145	0.0181703
850.223	0.0181461
850.301	0.0180121
850.379	0.0182021
850.457	0.0181103
850.535	0.0180410
850.613	0.0180064
850.692	0.0180812
850.770	0.0179986
850.848	0.0181216
850.926	0.0181287
851.004	0.0181537
851.082	0.0182127
851.160	0.0182384
851.238	0.0183475
851.317	0.0182903
851.395	0.0182109
851.473	0.0183836
851.551	0.0184079
851.629	0.0183739
851.707	0.0184359
851.785	0.0184111
851.863	0.0182350
851.942	0.0182468
852.020	0.0182750
852.098	0.0182454
852.176	0.0181335
852.254	0.0181978
852.332	0.0182056
852.410	0.0181586
852.488	0.0182517
852.567	0.0181968
852.645	0.0182663
852.723	0.0182933
852.801	0.0183354
852.879	0.0181694
852.957	0.0182366
853.035	0.0183273
853.113	0.0183039
853.192	0.0184135
853.270	0.0185835
853.348	0.0184786
853.426	0.0185706
853.504	0.0186144
853.582	0.0184401
853.660	0.0184843
853.738	0.0184936
853.817	0.0184270
853.895	0.0184722
853.973	0.0185146
854.051	0.0183704
854.129	0.0184859
854.207	0.0184720
854.285	0.0184922
854.363	0.0185180
854.442	0.0183457
854.520	0.0184756
854.598	0.0184613
854.676	0.0184679
854.754	0.0185995
854.832	0.0185448
854.910	0.0185615
854.988	0.0184499
855.067	0.0185024
855.145	0.0186152
855.223	0.0186074
855.301	0.0185191
855.379	0.0184628
855.457	0.0184888
855.535	0.0184956
855.613	0.0184061
855.692	0.0181608
855.770	0.0183497
855.848	0.0184232
855.926	0.0182591
856.004	0.0182243
856.082	0.0183226
856.160	0.0181861
856.238	0.0181313
856.317	0.0182088
856.395	0.0183428
856.473	0.0182819
856.551	0.0183428
856.629	0.0182149
856.707	0.0182861
856.785	0.0184010
856.863	0.0183710
856.942	0.0183945
857.020	0.0184109
857.098	0.0184857
857.176	0.0184253
857.254	0.0184613
857.332	0.0185316
857.410	0.0184773
857.488	0.0184420
857.567	0.0183208
857.645	0.0183411
857.723	0.0182504
857.801	0.0182018
857.879	0.0181290
857.957	0.0182127
858.035	0.0181387
858.113	0.0181045
858.192	0.0181470
858.270	0.0181486
858.348	0.0180221
858.426	0.0181275
858.504	0.0179845
858.582	0.0180459
858.660	0.0182348
858.738	0.0182005
858.817	0.0181469
858.895	0.0180658
858.973	0.0182504
859.051	0.0183035
859.129	0.0182686
859.207	0.0182713
859.285	0.0182150
859.363	0.0183416
859.442	0.0184056
859.520	0.0184159
859.598	0.0184428
859.676	0.0184414
859.754	0.0183597
859.832	0.0183875
859.910	0.0184254
859.988	0.0183820
860.067	0.0183378
860.145	0.0182932
860.223	0.0182954
860.301	0.0184682
860.379	0.0182397
860.457	0.0182873
860.535	0.0183669
860.613	0.0184670
860.692	0.0183567
860.770	0.0184388
860.848	0.0185384
860.926	0.0186849
861.004	0.0185609
861.082	0.0185707
861.160	0.0187382
861.238	0.0186715
861.317	0.0187029
861.395	0.0185997
861.473	0.0186848
861.551	0.0186954
861.629	0.0185899
861.707	0.0185606
861.785	0.0186441
861.863	0.0186451
861.942	0.0186131
862.020	0.0185479
862.098	0.0185693
862.176	0.0183595
862.254	0.0183569
862.332	0.0184128
862.410	0.0183882
862.488	0.0184068
862.567	0.0183256
862.645	0.0183343
862.723	0.0183740
862.801	0.0182131
862.879	0.0180627
862.957	0.0182246
863.035	0.0182256
863.113	0.0182609
863.192	0.0182349
863.270	0.0181997
863.348	0.0181849
863.426	0.0183058
863.504	0.0181432
863.582	0.0182349
863.660	0.0182284
863.738	0.0183257
863.817	0.0184103
863.895	0.0184597
863.973	0.0184303
864.051	0.0183678
864.129	0.0183901
864.207	0.0183634
864.285	0.0183540
864.363	0.0184042
864.442	0.0183920
864.520	0.0183418
864.598	0.0182966
864.676	0.0182436
864.754	0.0182742
864.832	0.0182508
864.910	0.0181820
864.988	0.0182492
865.067	0.0182815
865.145	0.0183595
865.223	0.0183676
865.301	0.0182195
865.379	0.0182467
865.457	0.0181902
865.535	0.0182696
865.613	0.0182342
865.692	0.0184284
865.770	0.0183900
865.848	0.0182281
865.926	0.0184232
866.004	0.0183134
866.082	0.0182542
866.160	0.0183738
866.238	0.0183829
866.317	0.0183875
866.395	0.0182786
866.473	0.0182967
866.551	0.0183688
866.629	0.0183870
866.707	0.0183109
866.785	0.0183040
866.863	0.0184682
866.942	0.0184813
867.020	0.0183559
867.098	0.0184405
867.176	0.0184587
867.254	0.0184201
867.332	0.0182846
867.410	0.0185301
867.488	0.0185709
867.567	0.0185063
867.645	0.0186270
867.723	0.0185226
867.801	0.0185794
867.879	0.0186762
867.957	0.0187812
868.035	0.0187839
868.113	0.0187344
868.192	0.0186034
868.270	0.0188705
868.348	0.0187363
868.426	0.0185287
868.504	0.0186231
868.582	0.0187573
868.660	0.0186803
868.738	0.0185731
868.817	0.0185244
868.895	0.0184581
868.973	0.0186638
869.051	0.0183806
869.129	0.0184054
869.207	0.0182133
869.285	0.0182535
869.363	0.0181413
869.442	0.0180826
869.520	0.0180640
869.598	0.0180774
869.676	0.0181110
869.754	0.0181319
869.832	0.0180301
869.910	0.0179711
869.988	0.0180888
870.067	0.0179992
870.145	0.0180532
870.223	0.0181091
870.301	0.0181135
870.379	0.0182323
870.457	0.0182197
870.535	0.0182095
870.613	0.0182164
870.692	0.0182179
870.770	0.0181806
870.848	0.0182578
870.926	0.0180289
871.004	0.0180801
871.082	0.0181026
871.160	0.0181824
871.238	0.0181046
871.317	0.0181496
871.395	0.0180689
871.473	0.0181648
871.551	0.0181112
871.629	0.0182829
871.707	0.0182421
871.785	0.0180769
871.863	0.0181815
871.942	0.0182008
872.020	0.0183086
872.098	0.0183533
872.176	0.0182253
872.254	0.0183446
872.332	0.0184373
872.410	0.0183791
872.488	0.0186700
872.567	0.0183937
872.645	0.0184145
872.723	0.0185378
872.801	0.0186452
872.879	0.0184737
872.957	0.0185031
873.035	0.0183850
873.113	0.0184605
873.192	0.0184447
873.270	0.0185328
873.348	0.0184457
873.426	0.0184277
873.504	0.0183540
873.582	0.0184119
873.660	0.0183790
873.738	0.0182692
873.817	0.0185740
873.895	0.0184486
873.973	0.0184634
874.051	0.0185709
874.129	0.0186094
874.207	0.0187047
874.285	0.0185387
874.363	0.0185685
874.442	0.0183821
874.520	0.0186112
874.598	0.0186737
874.676	0.0185984
874.754	0.0185841
874.832	0.0186468
874.910	0.0186266
874.988	0.0185166
875.067	0.0184808
875.145	0.0185554
875.223	0.0184807
875.301	0.0183822
875.379	0.0183710
875.457	0.0183516
875.535	0.0182267
875.613	0.0182465
875.692	0.0182614
875.770	0.0182188
875.848	0.0183080
875.926	0.0181327
876.004	0.0180949
876.082	0.0181048
876.160	0.0182154
876.238	0.0180511
876.317	0.0180848
876.395	0.0181428
876.473	0.0180030
876.551	0.0181564
876.629	0.0181120
876.707	0.0181432
876.785	0.0180359
876.863	0.0180801
876.942	0.0181367
877.020	0.0181967
877.098	0.0182554
877.176	0.0181516
877.254	0.0183270
877.332	0.0182999
877.410	0.0182793
877.488	0.0183181
877.567	0.0182544
877.645	0.0183198
877.723	0.0183929
877.801	0.0185159
877.879	0.0183732
877.957	0.0184389
878.035	0.0183019
878.113	0.0183311
878.192	0.0183886
878.270	0.0182786
878.348	0.0181374
878.426	0.0182296
878.504	0.0183235
878.582	0.0181950
878.660	0.0183013
878.738	0.0183407
878.817	0.0182501
878.895	0.0182932
878.973	0.0182554
879.051	0.0182987
879.129	0.0182258
879.207	0.0182930
879.285	0.0183537
879.363	0.0182924
879.442	0.0182465
879.520	0.0183287
879.598	0.0183105
879.676	0.0182201
879.754	0.0183131
879.832	0.0183216
879.910	0.0184711
879.988	0.0182826
880.067	0.0183598
880.145	0.0183442
880.223	0.0183833
880.301	0.0184069
880.379	0.0184361
880.457	0.0184360
880.535	0.0185562
880.613	0.0185876
880.692	0.0185139
880.770	0.0185516
880.848	0.0185955
880.926	0.0184272
881.004	0.0185618
881.082	0.0185081
881.160	0.0183928
881.238	0.0184813
881.317	0.0184488
881.395	0.0184517
881.473	0.0185210
881.551	0.0185865
881.629	0.0185437
881.707	0.0185508
881.785	0.0183871
881.863	0.0184617
881.942	0.0184190
882.020	0.0184730
882.098	0.0183713
882.176	0.0183286
882.254	0.0182799
882.332	0.0184042
882.410	0.0183087
882.488	0.0182385
882.567	0.0182417
882.645	0.0182439
882.723	0.0182250
882.801	0.0181891
882.879	0.0182194
882.957	0.0181824
883.035	0.0182066
883.113	0.0180785
883.192	0.0181400
883.270	0.0180253
883.348	0.0180090
883.426	0.0181358
883.504	0.0181497
883.582	0.0182442
883.660	0.0181615
883.738	0.0182397
883.817	0.0180326
883.895	0.0180881
883.973	0.0182590
884.051	0.0181940
884.129	0.0182566
884.207	0.0183955
884.285	0.0183032
884.363	0.0183142
884.442	0.0182314
884.520	0.0183998
884.598	0.0184533
884.676	0.0183591
884.754	0.0184460
884.832	0.0184953
884.910	0.0184688
884.988	0.0185885
885.067	0.0186090
885.145	0.0187232
885.223	0.0185266
885.301	0.0185517
885.379	0.0185592
885.457	0.0186227
885.535	0.0186330
885.613	0.0185629
885.692	0.0186397
885.770	0.0185979
885.848	0.0185811
885.926	0.0185334
886.004	0.0183749
886.082	0.0184917
886.160	0.0186282
886.238	0.0183376
886.317	0.0183650
886.395	0.0184102
886.473	0.0183526
886.551	0.0183322
886.629	0.0183211
886.707	0.0182943
886.785	0.0182973
886.863	0.0183636
886.942	0.0182928
887.020	0.0181236
887.098	0.0180539
887.176	0.0181104
887.254	0.0182198
887.332	0.0183203
887.410	0.0181721
887.488	0.0181918
887.567	0.0182079
887.645	0.0181497
887.723	0.0182247
887.801	0.0183404
887.879	0.0183207
887.957	0.0183180
888.035	0.0183834
888.113	0.0183573
888.192	0.0183937
888.270	0.0184276
888.348	0.0184574
888.426	0.0184265
888.504	0.0184277
888.582	0.0184277
888.660	0.0183876
888.738	0.0184293
888.817	0.0184576
888.895	0.0182919
888.973	0.0183269
889.051	0.0184389
889.129	0.0184440
889.207	0.0183857
889.285	0.0183842
889.363	0.0183254
889.442	0.0182326
889.520	0.0183017
889.598	0.0181746
889.676	0.0182309
889.754	0.0182267
889.832	0.0182636
889.910	0.0182765
889.988	0.0181197
890.067	0.0181034
890.145	0.0182520
890.223	0.0180533
890.301	0.0181559
890.379	0.0181454
890.457	0.0181290
890.535	0.0181676
890.613	0.0182800
890.692	0.0181532
890.770	0.0182008
890.848	0.0182858
890.926	0.0181793
891.004	0.0182838
891.082	0.0183280
891.160	0.0184004
891.238	0.0182320
891.317	0.0183562
891.395	0.0184035
891.473	0.0184496
891.551	0.0183823
891.629	0.0184397
891.707	0.0185128
891.785	0.0184914
891.863	0.0185258
891.942	0.0185566
892.020	0.0184729
892.098	0.0185223
892.176	0.0185142
892.254	0.0186967
892.332	0.0185880
892.410	0.0185766
892.488	0.0185606
892.567	0.0186768
892.645	0.0185411
892.723	0.0184573
892.801	0.0185706
892.879	0.0185373
892.957	0.0185018
893.035	0.0186215
893.113	0.0185329
893.192	0.0184921
893.270	0.0184330
893.348	0.0183919
893.426	0.0183048
893.504	0.0185992
893.582	0.0183880
893.660	0.0183604
893.738	0.0185534
893.817	0.0182672
893.895	0.0183361
893.973	0.0183254
894.051	0.0181443
894.129	0.0182487
894.207	0.0183510
894.285	0.0183829
894.363	0.0182340
894.442	0.0183310
894.520	0.0184859
894.598	0.0183144
894.676	0.0183087
894.754	0.0181072
894.832	0.0182425
894.910	0.0182947
894.988	0.0181813
895.067	0.0182947
895.145	0.0181709
895.223	0.0181465
895.301	0.0180665
895.379	0.0181093
895.457	0.0182349
895.535	0.0183197
895.613	0.0182286
895.692	0.0180836
895.770	0.0183188
895.848	0.0182178
895.926	0.0183002
896.004	0.0182376
896.082	0.0183663
896.160	0.0184122
896.238	0.0184127
896.317	0.0184821
896.395	0.0184663
896.473	0.0183288
896.551	0.0184825
896.629	0.0183540
896.707	0.0185831
896.785	0.0184916
896.863	0.0184309
896.942	0.0182444
897.020	0.0183141
897.098	0.0182982
897.176	0.0181679
897.254	0.0182826
897.332	0.0182792
897.410	0.0180296
897.488	0.0181144
897.567	0.0181831
897.645	0.0182101
897.723	0.0181306
897.801	0.0181126
897.879	0.0181571
897.957	0.0181140
898.035	0.0180941
898.113	0.0180672
898.192	0.0182352
898.270	0.0182069
898.348	0.0181138
898.426	0.0182976
898.504	0.0182421
898.582	0.0183469
898.660	0.0184818
898.738	0.0185148
898.817	0.0185288
898.895	0.0185548
898.973	0.0185184
899.051	0.0185505
899.129	0.0184945
899.207	0.0185256
899.285	0.0186295
899.363	0.0186794
899.442	0.0186884
899.520	0.0186963
899.598	0.0186986
899.676	0.0186122
899.754	0.0188799
899.832	0.0187918
899.910	0.0188625
899.988	0.0187519
900.067	0.0187016
900.145	0.0185580
900.223	0.0185677
900.301	0.0186051
900.379	0.0185844
900.457	0.0185801
900.535	0.0184846
900.613	0.0182536
900.692	0.0183257
900.770	0.0180773
900.848	0.0181655
900.926	0.0179995
901.004	0.0180929
901.082	0.0181116
901.160	0.0180272
901.238	0.0179228
901.317	0.0179859
901.395	0.0180054
901.473	0.0180150
901.551	0.0180238
901.629	0.0180563
901.707	0.0180417
901.785	0.0179980
901.863	0.0181050
901.942	0.0182336
902.020	0.0182281
902.098	0.0181728
902.176	0.0182861
902.254	0.0182504
902.332	0.0184299
902.410	0.0183761
902.488	0.0184451
902.567	0.0185087
902.645	0.0184196
902.723	0.0185594
902.801	0.0185831
902.879	0.0185014
902.957	0.0184781
903.035	0.0187235
903.113	0.0186293
903.192	0.0184781
903.270	0.0185546
903.348	0.0184867
903.426	0.0183917
903.504	0.0183916
903.582	0.0182922
903.660	0.0185333
903.738	0.0184101
903.817	0.0181873
903.895	0.0182304
903.973	0.0181944
904.051	0.0181332
904.129	0.0180976
904.207	0.0180372
904.285	0.0182395
904.363	0.0180584
904.442	0.0179748
904.520	0.0180737
904.598	0.0180412
904.676	0.0179926
904.754	0.0181856
904.832	0.0181574
904.910	0.0182645
904.988	0.0181629
905.067	0.0183727
905.145	0.0184843
905.223	0.0185001
905.301	0.0185876
905.379	0.0184910
905.457	0.0185596
905.535	0.0187394
905.613	0.0187134
905.692	0.0184929
905.770	0.0185514
905.848	0.0186890
905.926	0.0185075
906.004	0.0186456
906.082	0.0186749
906.160	0.0185000
906.238	0.0185893
906.317	0.0185855
906.395	0.0186085
906.473	0.0185231
906.551	0.0185039
906.629	0.0184419
906.707	0.0183899
906.785	0.0182726
906.863	0.0182520
906.942	0.0184120
907.020	0.0183525
907.098	0.0181940
907.176	0.0181902
907.254	0.0181363
907.332	0.0182061
907.410	0.0180840
907.488	0.0182543
907.567	0.0182630
907.645	0.0183147
907.723	0.0183007
907.801	0.0182642
907.879	0.0183321
907.957	0.0183210
908.035	0.0181580
908.113	0.0183125
908.192	0.0184034
908.270	0.0184537
908.348	0.0185209
908.426	0.0184413
908.504	0.0183620
908.582	0.0184649
908.660	0.0185472
908.738	0.0185294
908.817	0.0185653
908.895	0.0186156
908.973	0.0187331
909.051	0.0185796
909.129	0.0186451
909.207	0.0186133
909.285	0.0185304
909.363	0.0185489
909.442	0.0184936
909.520	0.0184692
909.598	0.0183942
909.676	0.0183852
909.754	0.0182851
909.832	0.0183088
909.910	0.0182613
909.988	0.0183333
910.067	0.0181764
910.145	0.0180415
910.223	0.0180667
910.301	0.0180674
910.379	0.0180853
910.457	0.0181289
910.535	0.0180933
910.613	0.0180846
910.692	0.0181156
910.770	0.0181711
910.848	0.0181190
910.926	0.0181429
911.004	0.0182865
911.082	0.0182467
911.160	0.0183382
911.238	0.0184568
911.317	0.0184446
911.395	0.0185146
911.473	0.0185612
911.551	0.0184429
911.629	0.0185811
911.707	0.0185251
911.785	0.0186874
911.863	0.0187061
911.942	0.0186404
912.020	0.0185316
912.098	0.0185799
912.176	0.0185658
912.254	0.0184164
912.332	0.0183794
912.410	0.0182527
912.488	0.0183047
912.567	0.0181818
912.645	0.0181698
912.723	0.0182250
912.801	0.0181749
912.879	0.0181007
912.957	0.0182449
913.035	0.0181758
913.113	0.0182099
913.192	0.0182712
913.270	0.0182700
913.348	0.0180782
913.426	0.0182697
913.504	0.0182695
913.582	0.0181570
913.660	0.0183310
913.738	0.0182643
913.817	0.0183238
913.895	0.0182224
913.973	0.0181001
914.051	0.0181346
914.129	0.0180932
914.207	0.0182583
914.285	0.0181583
914.363	0.0181250
914.442	0.0180634
914.520	0.0181123
914.598	0.0181698
914.676	0.0182366
914.754	0.0181372
914.832	0.0181259
914.910	0.0183336
914.988	0.0183796
915.067	0.0184994
915.145	0.0186611
915.223	0.0186774
915.301	0.0187418
915.379	0.0188824
915.457	0.0188908
915.535	0.0189400
915.613	0.0189305
915.692	0.0189217
915.770	0.0189211
915.848	0.0189372
915.926	0.0189694
916.004	0.0190224
916.082	0.0187990
916.160	0.0186459
916.238	0.0186147
916.317	0.0185607
916.395	0.0183242
916.473	0.0184018
916.551	0.0183147
916.629	0.0181290
916.707	0.0181917
916.785	0.0182095
916.863	0.0180286
916.942	0.0179124
917.020	0.0180814
917.098	0.0181796
917.176	0.0182131
917.254	0.0180780
917.332	0.0182494
917.410	0.0181366
917.488	0.0183102
917.567	0.0183768
917.645	0.0182610
917.723	0.0185281
917.801	0.0183620
917.879	0.0185790
917.957	0.0185178
918.035	0.0184333
918.113	0.0182071
918.192	0.0182350
918.270	0.0183408
918.348	0.0183962
918.426	0.0182444
918.504	0.0183860
918.582	0.0182111
918.660	0.0182553
918.738	0.0182412
918.817	0.0181663
918.895	0.0180761
918.973	0.0180299
919.051	0.0182037
919.129	0.0179699
919.207	0.0181303
919.285	0.0180074
919.363	0.0180653
919.442	0.0181465
919.520	0.0182478
919.598	0.0182097
919.676	0.0182793
919.754	0.0184330
919.832	0.0185599
919.910	0.0184158
