06/01/2022	21:50:33	Ver.	4.1	UNKNOWN
Optical Delay	599.988409	Delta X		0.078125	Sweeps	1	Scan Rate	0/0
Coordinates	Axis 1	NaN	Axis 2	NaN	Axis 3	NaN	Axis 4	NaN	Axis 5	NaN	Axis 6	0.000000
TX Power	0.000000	RX Power	0.000000

599.988	0.0188506
600.067	0.0188498
600.145	0.0189011
600.223	0.0188795
600.301	0.0188525
600.379	0.0187682
600.457	0.0188495
600.535	0.0188071
600.613	0.0188030
600.692	0.0188475
600.770	0.0188853
600.848	0.0187633
600.926	0.0189144
601.004	0.0188936
601.082	0.0189922
601.160	0.0189285
601.238	0.0188846
601.317	0.0188622
601.395	0.0188265
601.473	0.0188767
601.551	0.0189090
601.629	0.0187541
601.707	0.0188194
601.785	0.0188070
601.863	0.0188319
601.942	0.0188199
602.020	0.0188116
602.098	0.0188178
602.176	0.0187235
602.254	0.0190067
602.332	0.0189601
602.410	0.0188300
602.488	0.0188258
602.567	0.0188022
602.645	0.0187690
602.723	0.0187271
602.801	0.0189091
602.879	0.0190153
602.957	0.0188219
603.035	0.0188502
603.113	0.0189420
603.192	0.0188943
603.270	0.0188110
603.348	0.0187870
603.426	0.0188676
603.504	0.0188478
603.582	0.0189046
603.660	0.0188541
603.738	0.0188365
603.817	0.0187455
603.895	0.0189110
603.973	0.0189808
604.051	0.0187643
604.129	0.0188187
604.207	0.0186720
604.285	0.0188269
604.363	0.0189677
604.442	0.0187243
604.520	0.0187362
604.598	0.0188811
604.676	0.0188474
604.754	0.0187936
604.832	0.0188657
604.910	0.0189141
604.988	0.0187617
605.067	0.0188305
605.145	0.0186689
605.223	0.0187618
605.301	0.0187566
605.379	0.0189455
605.457	0.0189922
605.535	0.0186658
605.613	0.0187664
605.692	0.0188305
605.770	0.0188814
605.848	0.0188033
605.926	0.0187794
606.004	0.0187236
606.082	0.0187598
606.160	0.0187275
606.238	0.0187313
606.317	0.0188649
606.395	0.0188486
606.473	0.0187861
606.551	0.0187486
606.629	0.0187534
606.707	0.0187295
606.785	0.0185928
606.863	0.0187583
606.942	0.0188910
607.020	0.0187964
607.098	0.0187984
607.176	0.0188730
607.254	0.0187930
607.332	0.0187798
607.410	0.0187523
607.488	0.0188704
607.567	0.0188421
607.645	0.0189393
607.723	0.0187613
607.801	0.0186903
607.879	0.0188409
607.957	0.0189189
608.035	0.0188148
608.113	0.0187543
608.192	0.0187447
608.270	0.0187177
608.348	0.0188560
608.426	0.0187825
608.504	0.0188251
608.582	0.0187650
608.660	0.0187199
608.738	0.0187782
608.817	0.0187260
608.895	0.0187878
608.973	0.0188151
609.051	0.0186892
609.129	0.0187447
609.207	0.0186954
609.285	0.0187593
609.363	0.0188152
609.442	0.0188508
609.520	0.0187772
609.598	0.0187576
609.676	0.0187918
609.754	0.0187817
609.832	0.0187490
609.910	0.0188054
609.988	0.0187106
610.067	0.0188054
610.145	0.0188309
610.223	0.0188503
610.301	0.0187625
610.379	0.0188776
610.457	0.0188397
610.535	0.0188436
610.613	0.0188019
610.692	0.0187735
610.770	0.0188905
610.848	0.0189043
610.926	0.0188177
611.004	0.0188475
611.082	0.0188338
611.160	0.0188828
611.238	0.0188775
611.317	0.0188541
611.395	0.0187852
611.473	0.0189263
611.551	0.0187688
611.629	0.0188287
611.707	0.0187897
611.785	0.0187985
611.863	0.0187592
611.942	0.0188218
612.020	0.0187991
612.098	0.0188229
612.176	0.0189227
612.254	0.0189058
612.332	0.0186864
612.410	0.0187631
612.488	0.0188712
612.567	0.0187242
612.645	0.0187574
612.723	0.0187553
612.801	0.0187772
612.879	0.0188295
612.957	0.0189458
613.035	0.0189127
613.113	0.0187869
613.192	0.0188935
613.270	0.0187824
613.348	0.0186417
613.426	0.0187617
613.504	0.0189832
613.582	0.0187939
613.660	0.0188070
613.738	0.0187972
613.817	0.0188213
613.895	0.0188677
613.973	0.0187369
614.051	0.0188680
614.129	0.0188541
614.207	0.0188374
614.285	0.0187346
614.363	0.0189369
614.442	0.0188516
614.520	0.0187215
614.598	0.0188064
614.676	0.0188776
614.754	0.0188762
614.832	0.0188310
614.910	0.0186828
614.988	0.0187856
615.067	0.0187845
615.145	0.0188361
615.223	0.0189996
615.301	0.0189323
615.379	0.0187123
615.457	0.0188418
615.535	0.0187160
615.613	0.0187556
615.692	0.0188361
615.770	0.0188783
615.848	0.0187053
615.926	0.0189470
616.004	0.0187309
616.082	0.0188519
616.160	0.0187904
616.238	0.0188564
616.317	0.0189385
616.395	0.0187672
616.473	0.0186589
616.551	0.0186872
616.629	0.0188012
616.707	0.0187645
616.785	0.0188203
616.863	0.0189019
616.942	0.0188116
617.020	0.0188065
617.098	0.0188101
617.176	0.0188081
617.254	0.0187246
617.332	0.0188577
617.410	0.0188227
617.488	0.0187054
617.567	0.0189693
617.645	0.0189026
617.723	0.0187585
617.801	0.0188239
617.879	0.0188632
617.957	0.0190194
618.035	0.0188761
618.113	0.0188584
618.192	0.0188843
618.270	0.0189428
618.348	0.0188731
618.426	0.0188748
618.504	0.0188282
618.582	0.0188432
618.660	0.0188933
618.738	0.0188159
618.817	0.0187756
618.895	0.0188858
618.973	0.0187546
619.051	0.0187350
619.129	0.0187732
619.207	0.0189355
619.285	0.0189329
619.363	0.0188085
619.442	0.0187387
619.520	0.0187830
619.598	0.0188151
619.676	0.0188028
619.754	0.0188696
619.832	0.0188798
619.910	0.0188093
619.988	0.0187745
620.067	0.0188203
620.145	0.0187983
620.223	0.0186878
620.301	0.0187077
620.379	0.0187419
620.457	0.0187283
620.535	0.0185999
620.613	0.0187222
620.692	0.0187249
620.770	0.0186612
620.848	0.0189219
620.926	0.0188727
621.004	0.0188020
621.082	0.0187473
621.160	0.0187583
621.238	0.0187910
621.317	0.0188459
621.395	0.0189077
621.473	0.0189080
621.551	0.0189283
621.629	0.0188042
621.707	0.0187267
621.785	0.0188586
621.863	0.0187916
621.942	0.0188073
622.020	0.0189145
622.098	0.0189353
622.176	0.0186810
622.254	0.0189098
622.332	0.0189149
622.410	0.0188289
622.488	0.0188193
622.567	0.0187436
622.645	0.0186781
622.723	0.0187936
622.801	0.0188072
622.879	0.0186885
622.957	0.0188690
623.035	0.0188697
623.113	0.0188073
623.192	0.0189410
623.270	0.0187749
623.348	0.0188747
623.426	0.0188287
623.504	0.0188684
623.582	0.0187943
623.660	0.0188451
623.738	0.0189034
623.817	0.0187947
623.895	0.0188522
623.973	0.0187522
624.051	0.0188483
624.129	0.0188144
624.207	0.0188277
624.285	0.0188241
624.363	0.0189773
624.442	0.0187824
624.520	0.0186903
624.598	0.0188772
624.676	0.0187072
624.754	0.0188467
624.832	0.0188541
624.910	0.0190032
624.988	0.0187411
625.067	0.0188155
625.145	0.0188075
625.223	0.0187944
625.301	0.0187584
625.379	0.0188895
625.457	0.0189735
625.535	0.0188134
625.613	0.0187042
625.692	0.0187531
625.770	0.0188274
625.848	0.0188667
625.926	0.0188179
626.004	0.0188599
626.082	0.0188089
626.160	0.0188494
626.238	0.0188487
626.317	0.0188271
626.395	0.0188703
626.473	0.0187967
626.551	0.0189032
626.629	0.0188448
626.707	0.0190211
626.785	0.0188659
626.863	0.0188234
626.942	0.0189693
627.020	0.0189114
627.098	0.0188322
627.176	0.0188998
627.254	0.0189198
627.332	0.0187946
627.410	0.0189610
627.488	0.0189080
627.567	0.0188788
627.645	0.0187945
627.723	0.0187895
627.801	0.0187731
627.879	0.0188653
627.957	0.0189857
628.035	0.0187396
628.113	0.0187109
628.192	0.0188184
628.270	0.0188948
628.348	0.0189046
628.426	0.0188519
628.504	0.0188574
628.582	0.0188535
628.660	0.0187589
628.738	0.0185873
628.817	0.0187853
628.895	0.0189239
628.973	0.0190061
629.051	0.0189582
629.129	0.0188309
629.207	0.0188248
629.285	0.0188805
629.363	0.0187799
629.442	0.0188679
629.520	0.0188276
629.598	0.0188667
629.676	0.0189700
629.754	0.0188474
629.832	0.0187291
629.910	0.0188681
629.988	0.0188612
630.067	0.0189077
630.145	0.0188336
630.223	0.0188558
630.301	0.0187362
630.379	0.0188469
630.457	0.0188723
630.535	0.0188906
630.613	0.0187186
630.692	0.0188406
630.770	0.0188884
630.848	0.0187041
630.926	0.0189127
631.004	0.0188952
631.082	0.0188380
631.160	0.0188441
631.238	0.0187646
631.317	0.0188071
631.395	0.0187490
631.473	0.0188289
631.551	0.0187401
631.629	0.0189265
631.707	0.0188788
631.785	0.0187421
631.863	0.0188150
631.942	0.0187321
632.020	0.0188199
632.098	0.0188357
632.176	0.0190025
632.254	0.0188347
632.332	0.0188741
632.410	0.0188621
632.488	0.0188591
632.567	0.0188480
632.645	0.0188268
632.723	0.0189278
632.801	0.0187347
632.879	0.0189285
632.957	0.0188529
633.035	0.0188024
633.113	0.0187679
633.192	0.0187634
633.270	0.0187986
633.348	0.0188251
633.426	0.0187551
633.504	0.0187657
633.582	0.0189262
633.660	0.0187510
633.738	0.0188736
633.817	0.0188795
633.895	0.0188931
633.973	0.0189263
634.051	0.0188230
634.129	0.0188731
634.207	0.0187637
634.285	0.0187440
634.363	0.0187637
634.442	0.0188795
634.520	0.0188604
634.598	0.0187632
634.676	0.0188552
634.754	0.0189133
634.832	0.0188617
634.910	0.0187389
634.988	0.0187796
635.067	0.0188432
635.145	0.0187520
635.223	0.0188432
635.301	0.0187789
635.379	0.0187413
635.457	0.0189314
635.535	0.0187412
635.613	0.0188013
635.692	0.0189188
635.770	0.0189151
635.848	0.0188539
635.926	0.0188400
636.004	0.0190096
636.082	0.0189884
636.160	0.0189136
636.238	0.0188313
636.317	0.0187469
636.395	0.0189091
636.473	0.0187942
636.551	0.0188463
636.629	0.0188378
636.707	0.0188120
636.785	0.0188486
636.863	0.0189400
636.942	0.0187654
637.020	0.0188797
637.098	0.0187581
637.176	0.0187600
637.254	0.0189515
637.332	0.0189205
637.410	0.0187315
637.488	0.0187876
637.567	0.0188310
637.645	0.0188391
637.723	0.0189173
637.801	0.0187544
637.879	0.0189120
637.957	0.0189406
638.035	0.0188644
638.113	0.0187891
638.192	0.0189515
638.270	0.0188706
638.348	0.0187692
638.426	0.0187753
638.504	0.0188046
638.582	0.0188884
638.660	0.0187924
638.738	0.0189215
638.817	0.0187556
638.895	0.0188779
638.973	0.0190068
639.051	0.0187722
639.129	0.0188599
639.207	0.0188849
639.285	0.0188081
639.363	0.0187749
639.442	0.0187234
639.520	0.0188003
639.598	0.0187548
639.676	0.0188445
639.754	0.0187148
639.832	0.0188166
639.910	0.0188158
639.988	0.0188538
640.067	0.0188759
640.145	0.0187969
640.223	0.0187790
640.301	0.0188629
640.379	0.0187341
640.457	0.0188134
640.535	0.0187456
640.613	0.0188681
640.692	0.0186980
640.770	0.0189278
640.848	0.0187576
640.926	0.0188508
641.004	0.0188883
641.082	0.0187334
641.160	0.0189193
641.238	0.0188000
641.317	0.0187559
641.395	0.0189862
641.473	0.0186525
641.551	0.0188169
641.629	0.0188293
641.707	0.0187521
641.785	0.0188582
641.863	0.0189201
641.942	0.0187809
642.020	0.0187531
642.098	0.0188289
642.176	0.0188497
642.254	0.0186919
642.332	0.0188026
642.410	0.0187828
642.488	0.0188863
642.567	0.0188026
642.645	0.0187505
642.723	0.0187493
642.801	0.0187258
642.879	0.0186215
642.957	0.0186987
643.035	0.0187085
643.113	0.0188969
643.192	0.0188131
643.270	0.0187456
643.348	0.0189214
643.426	0.0187624
643.504	0.0186331
643.582	0.0187815
643.660	0.0188171
643.738	0.0188508
643.817	0.0186631
643.895	0.0188874
643.973	0.0188458
644.051	0.0187537
644.129	0.0188079
644.207	0.0187722
644.285	0.0186829
644.363	0.0187657
644.442	0.0187935
644.520	0.0187668
644.598	0.0186951
644.676	0.0187108
644.754	0.0188305
644.832	0.0189085
644.910	0.0188779
644.988	0.0188620
645.067	0.0188837
645.145	0.0189977
645.223	0.0189284
645.301	0.0188596
645.379	0.0189619
645.457	0.0188876
645.535	0.0188737
645.613	0.0189594
645.692	0.0187667
645.770	0.0187543
645.848	0.0188479
645.926	0.0186935
646.004	0.0186291
646.082	0.0186390
646.160	0.0187791
646.238	0.0188516
646.317	0.0185934
646.395	0.0185904
646.473	0.0186896
646.551	0.0186776
646.629	0.0188081
646.707	0.0187804
646.785	0.0189377
646.863	0.0190016
646.942	0.0189129
647.020	0.0189629
647.098	0.0188367
647.176	0.0189062
647.254	0.0191131
647.332	0.0188858
647.410	0.0187360
647.488	0.0188209
647.567	0.0188929
647.645	0.0186713
647.723	0.0187379
647.801	0.0187967
647.879	0.0186677
647.957	0.0186810
648.035	0.0186896
648.113	0.0186773
648.192	0.0186193
648.270	0.0187341
648.348	0.0186729
648.426	0.0186529
648.504	0.0187006
648.582	0.0189346
648.660	0.0188358
648.738	0.0188245
648.817	0.0187492
648.895	0.0188425
648.973	0.0189863
649.051	0.0189117
649.129	0.0188740
649.207	0.0189042
649.285	0.0188445
649.363	0.0188683
649.442	0.0188722
649.520	0.0187894
649.598	0.0187407
649.676	0.0187468
649.754	0.0188129
649.832	0.0187206
649.910	0.0186381
649.988	0.0188338
650.067	0.0187023
650.145	0.0187814
650.223	0.0186573
650.301	0.0186707
650.379	0.0187116
650.457	0.0187779
650.535	0.0186743
650.613	0.0187740
650.692	0.0188122
650.770	0.0188265
650.848	0.0188720
650.926	0.0189066
651.004	0.0189242
651.082	0.0189837
651.160	0.0189001
651.238	0.0190894
651.317	0.0190543
651.395	0.0189787
651.473	0.0189039
651.551	0.0189054
651.629	0.0188621
651.707	0.0188591
651.785	0.0188393
651.863	0.0186614
651.942	0.0187363
652.020	0.0186639
652.098	0.0186562
652.176	0.0186112
652.254	0.0187010
652.332	0.0187922
652.410	0.0186514
652.488	0.0187103
652.567	0.0186530
652.645	0.0188478
652.723	0.0189857
652.801	0.0188748
652.879	0.0191003
652.957	0.0190278
653.035	0.0189899
653.113	0.0189858
653.192	0.0190784
653.270	0.0188637
653.348	0.0188571
653.426	0.0188629
653.504	0.0186957
653.582	0.0186192
653.660	0.0188534
653.738	0.0186252
653.817	0.0185264
653.895	0.0186498
653.973	0.0186480
654.051	0.0185072
654.129	0.0186944
654.207	0.0188370
654.285	0.0186543
654.363	0.0187334
654.442	0.0187283
654.520	0.0188072
654.598	0.0188078
654.676	0.0189359
654.754	0.0189731
654.832	0.0188502
654.910	0.0190070
654.988	0.0190543
655.067	0.0190681
655.145	0.0190001
655.223	0.0189552
655.301	0.0188870
655.379	0.0189399
655.457	0.0188553
655.535	0.0186452
655.613	0.0187543
655.692	0.0188976
655.770	0.0187778
655.848	0.0188196
655.926	0.0185996
656.004	0.0188083
656.082	0.0189007
656.160	0.0188912
656.238	0.0188154
656.317	0.0188228
656.395	0.0188873
656.473	0.0189172
656.551	0.0188256
656.629	0.0188847
656.707	0.0188225
656.785	0.0188397
656.863	0.0188863
656.942	0.0189590
657.020	0.0189446
657.098	0.0189907
657.176	0.0189362
657.254	0.0190376
657.332	0.0190940
657.410	0.0190237
657.488	0.0190023
657.567	0.0188744
657.645	0.0189542
657.723	0.0189710
657.801	0.0189292
657.879	0.0189288
657.957	0.0189644
658.035	0.0189244
658.113	0.0187678
658.192	0.0187237
658.270	0.0190202
658.348	0.0187919
658.426	0.0188314
658.504	0.0187735
658.582	0.0189037
658.660	0.0188233
658.738	0.0188809
658.817	0.0189573
658.895	0.0189530
658.973	0.0187067
659.051	0.0187181
659.129	0.0187822
659.207	0.0189196
659.285	0.0189767
659.363	0.0188598
659.442	0.0188678
659.520	0.0187912
659.598	0.0188132
659.676	0.0187492
659.754	0.0188151
659.832	0.0188098
659.910	0.0187916
659.988	0.0189527
660.067	0.0189906
660.145	0.0188195
660.223	0.0188499
660.301	0.0189597
660.379	0.0189512
660.457	0.0187546
660.535	0.0189070
660.613	0.0189883
660.692	0.0187394
660.770	0.0186856
660.848	0.0188448
660.926	0.0187383
661.004	0.0187569
661.082	0.0187201
661.160	0.0186330
661.238	0.0187105
661.317	0.0185678
661.395	0.0187354
661.473	0.0186949
661.551	0.0188026
661.629	0.0187624
661.707	0.0188225
661.785	0.0189106
661.863	0.0189836
661.942	0.0190643
662.020	0.0190817
662.098	0.0191871
662.176	0.0191865
662.254	0.0189941
662.332	0.0190675
662.410	0.0189931
662.488	0.0189445
662.567	0.0190356
662.645	0.0189680
662.723	0.0187547
662.801	0.0187946
662.879	0.0189292
662.957	0.0186996
663.035	0.0186089
663.113	0.0186078
663.192	0.0185762
663.270	0.0185737
663.348	0.0185144
663.426	0.0185062
663.504	0.0186310
663.582	0.0187307
663.660	0.0187954
663.738	0.0188140
663.817	0.0188645
663.895	0.0188313
663.973	0.0189325
664.051	0.0192176
664.129	0.0191280
664.207	0.0190582
664.285	0.0190660
664.363	0.0189866
664.442	0.0191267
664.520	0.0189803
664.598	0.0189152
664.676	0.0189870
664.754	0.0187495
664.832	0.0185502
664.910	0.0188444
664.988	0.0187122
665.067	0.0184643
665.145	0.0185484
665.223	0.0185181
665.301	0.0185358
665.379	0.0185775
665.457	0.0186822
665.535	0.0185143
665.613	0.0185661
665.692	0.0186873
665.770	0.0186941
665.848	0.0187676
665.926	0.0189109
666.004	0.0190005
666.082	0.0190273
666.160	0.0189788
666.238	0.0188765
666.317	0.0192020
666.395	0.0191724
666.473	0.0190890
666.551	0.0191430
666.629	0.0190874
666.707	0.0189664
666.785	0.0188791
666.863	0.0189675
666.942	0.0188589
667.020	0.0187576
667.098	0.0186710
667.176	0.0185559
667.254	0.0184931
667.332	0.0185662
667.410	0.0186543
667.488	0.0185007
667.567	0.0185268
667.645	0.0184932
667.723	0.0185854
667.801	0.0188651
667.879	0.0187772
667.957	0.0189665
668.035	0.0189071
668.113	0.0188969
668.192	0.0189875
668.270	0.0190322
668.348	0.0191688
668.426	0.0192246
668.504	0.0190108
668.582	0.0188801
668.660	0.0189380
668.738	0.0188049
668.817	0.0188479
668.895	0.0188316
668.973	0.0188100
669.051	0.0187965
669.129	0.0187369
669.207	0.0186226
669.285	0.0187258
669.363	0.0187277
669.442	0.0186481
669.520	0.0185943
669.598	0.0186405
669.676	0.0187595
669.754	0.0187519
669.832	0.0187388
669.910	0.0187467
669.988	0.0187608
670.067	0.0187918
670.145	0.0187491
670.223	0.0188054
670.301	0.0187177
670.379	0.0187418
670.457	0.0188280
670.535	0.0187556
670.613	0.0188354
670.692	0.0188585
670.770	0.0188620
670.848	0.0188866
670.926	0.0188803
671.004	0.0188678
671.082	0.0188395
671.160	0.0189249
671.238	0.0189587
671.317	0.0188944
671.395	0.0189439
671.473	0.0189816
671.551	0.0189296
671.629	0.0189982
671.707	0.0187995
671.785	0.0188956
671.863	0.0189008
671.942	0.0187324
672.020	0.0188062
672.098	0.0188475
672.176	0.0188589
672.254	0.0187426
672.332	0.0186970
672.410	0.0187749
672.488	0.0186853
672.567	0.0188006
672.645	0.0185545
672.723	0.0186004
672.801	0.0186649
672.879	0.0186871
672.957	0.0187596
673.035	0.0185845
673.113	0.0186736
673.192	0.0186617
673.270	0.0187464
673.348	0.0187933
673.426	0.0188820
673.504	0.0187895
673.582	0.0188264
673.660	0.0188152
673.738	0.0188692
673.817	0.0189264
673.895	0.0189444
673.973	0.0188090
674.051	0.0187823
674.129	0.0190728
674.207	0.0190325
674.285	0.0188033
674.363	0.0188475
674.442	0.0187746
674.520	0.0186540
674.598	0.0186717
674.676	0.0186796
674.754	0.0186599
674.832	0.0185265
674.910	0.0185562
674.988	0.0184355
675.067	0.0186605
675.145	0.0185768
675.223	0.0186578
675.301	0.0187206
675.379	0.0186628
675.457	0.0186416
675.535	0.0189726
675.613	0.0189518
675.692	0.0189472
675.770	0.0190949
675.848	0.0190224
675.926	0.0191286
676.004	0.0190867
676.082	0.0191252
676.160	0.0191140
676.238	0.0191467
676.317	0.0193079
676.395	0.0192278
676.473	0.0191107
676.551	0.0190563
676.629	0.0190124
676.707	0.0190421
676.785	0.0190114
676.863	0.0189011
676.942	0.0187711
677.020	0.0188439
677.098	0.0186350
677.176	0.0187923
677.254	0.0185650
677.332	0.0183009
677.410	0.0183148
677.488	0.0183875
677.567	0.0184109
677.645	0.0183675
677.723	0.0184393
677.801	0.0184982
677.879	0.0185689
677.957	0.0185590
678.035	0.0186728
678.113	0.0186032
678.192	0.0187978
678.270	0.0188542
678.348	0.0189964
678.426	0.0189281
678.504	0.0190053
678.582	0.0190486
678.660	0.0190575
678.738	0.0190617
678.817	0.0191833
678.895	0.0189996
678.973	0.0189690
679.051	0.0189600
679.129	0.0190473
679.207	0.0189253
679.285	0.0187920
679.363	0.0188808
679.442	0.0187309
679.520	0.0186916
679.598	0.0187555
679.676	0.0184147
679.754	0.0184198
679.832	0.0184603
679.910	0.0185398
679.988	0.0183911
680.067	0.0184984
680.145	0.0185172
680.223	0.0187049
680.301	0.0189258
680.379	0.0189597
680.457	0.0192141
680.535	0.0194120
680.613	0.0196474
680.692	0.0196637
680.770	0.0197089
680.848	0.0197538
680.926	0.0196571
681.004	0.0195250
681.082	0.0194818
681.160	0.0192598
681.238	0.0190466
681.317	0.0190400
681.395	0.0186727
681.473	0.0184858
681.551	0.0184179
681.629	0.0181578
681.707	0.0180387
681.785	0.0180302
681.863	0.0178893
681.942	0.0178456
682.020	0.0177280
682.098	0.0177715
682.176	0.0178881
682.254	0.0179594
682.332	0.0179371
682.410	0.0182150
682.488	0.0182946
682.567	0.0184266
682.645	0.0186619
682.723	0.0188663
682.801	0.0192258
682.879	0.0193038
682.957	0.0195685
683.035	0.0197832
683.113	0.0197289
683.192	0.0198787
683.270	0.0199759
683.348	0.0200290
683.426	0.0198721
683.504	0.0197968
683.582	0.0198339
683.660	0.0198071
683.738	0.0195933
683.817	0.0194200
683.895	0.0192384
683.973	0.0192487
684.051	0.0191572
684.129	0.0188683
684.207	0.0188600
684.285	0.0187538
684.363	0.0185552
684.442	0.0185306
684.520	0.0184919
684.598	0.0184160
684.676	0.0182708
684.754	0.0181275
684.832	0.0180698
684.910	0.0179984
684.988	0.0178951
685.067	0.0177206
685.145	0.0176561
685.223	0.0175782
685.301	0.0176817
685.379	0.0175074
685.457	0.0175137
685.535	0.0176083
685.613	0.0176053
685.692	0.0179114
685.770	0.0181050
685.848	0.0184081
685.926	0.0187547
686.004	0.0188364
686.082	0.0191965
686.160	0.0195151
686.238	0.0197433
686.317	0.0199717
686.395	0.0200508
686.473	0.0202256
686.551	0.0202586
686.629	0.0202468
686.707	0.0202771
686.785	0.0202142
686.863	0.0202614
686.942	0.0201099
687.020	0.0200132
687.098	0.0198888
687.176	0.0197344
687.254	0.0196470
687.332	0.0195915
687.410	0.0193774
687.488	0.0191790
687.567	0.0189700
687.645	0.0188007
687.723	0.0184611
687.801	0.0183398
687.879	0.0182066
687.957	0.0178111
688.035	0.0177020
688.113	0.0175017
688.192	0.0171816
688.270	0.0170663
688.348	0.0168672
688.426	0.0166945
688.504	0.0168887
688.582	0.0167670
688.660	0.0168719
688.738	0.0168431
688.817	0.0170741
688.895	0.0174537
688.973	0.0175707
689.051	0.0178373
689.129	0.0180773
689.207	0.0185110
689.285	0.0186025
689.363	0.0189584
689.442	0.0193515
689.520	0.0194913
689.598	0.0199252
689.676	0.0202966
689.754	0.0204475
689.832	0.0208761
689.910	0.0209398
689.988	0.0210554
690.067	0.0212459
690.145	0.0212678
690.223	0.0212614
690.301	0.0213171
690.379	0.0210275
690.457	0.0209500
690.535	0.0208340
690.613	0.0205444
690.692	0.0202243
690.770	0.0199996
690.848	0.0196687
690.926	0.0194435
691.004	0.0191104
691.082	0.0187263
691.160	0.0183243
691.238	0.0180763
691.317	0.0179689
691.395	0.0178900
691.473	0.0174872
691.551	0.0173595
691.629	0.0172314
691.707	0.0172108
691.785	0.0170313
691.863	0.0168356
691.942	0.0169222
692.020	0.0166926
692.098	0.0163776
692.176	0.0163270
692.254	0.0162671
692.332	0.0162193
692.410	0.0162751
692.488	0.0162531
692.567	0.0163076
692.645	0.0165946
692.723	0.0166684
692.801	0.0169460
692.879	0.0173208
692.957	0.0177300
693.035	0.0181814
693.113	0.0185426
693.192	0.0191866
693.270	0.0194650
693.348	0.0199451
693.426	0.0203209
693.504	0.0206806
693.582	0.0211063
693.660	0.0212012
693.738	0.0213886
693.817	0.0217051
693.895	0.0218460
693.973	0.0219633
694.051	0.0217326
694.129	0.0217684
694.207	0.0218760
694.285	0.0215903
694.363	0.0214975
694.442	0.0213622
694.520	0.0212556
694.598	0.0208852
694.676	0.0205839
694.754	0.0203336
694.832	0.0200990
694.910	0.0198470
694.988	0.0194154
695.067	0.0190523
695.145	0.0187363
695.223	0.0183316
695.301	0.0180072
695.379	0.0174136
695.457	0.0173694
695.535	0.0169378
695.613	0.0166133
695.692	0.0164465
695.770	0.0161951
695.848	0.0159511
695.926	0.0159588
696.004	0.0158161
696.082	0.0159789
696.160	0.0159912
696.238	0.0160030
696.317	0.0162125
696.395	0.0165732
696.473	0.0167619
696.551	0.0170232
696.629	0.0172546
696.707	0.0175908
696.785	0.0179095
696.863	0.0183933
696.942	0.0186896
697.020	0.0188185
697.098	0.0192641
697.176	0.0194366
697.254	0.0196704
697.332	0.0196964
697.410	0.0200140
697.488	0.0201997
697.567	0.0203647
697.645	0.0203532
697.723	0.0205235
697.801	0.0206295
697.879	0.0205206
697.957	0.0205865
698.035	0.0206545
698.113	0.0207150
698.192	0.0207628
698.270	0.0207161
698.348	0.0206433
698.426	0.0205567
698.504	0.0203175
698.582	0.0202830
698.660	0.0202077
698.738	0.0200164
698.817	0.0197555
698.895	0.0193680
698.973	0.0190734
699.051	0.0189792
699.129	0.0186008
699.207	0.0183459
699.285	0.0179829
699.363	0.0177056
699.442	0.0172520
699.520	0.0168090
699.598	0.0167648
699.676	0.0163946
699.754	0.0162524
699.832	0.0161017
699.910	0.0160525
699.988	0.0160479
700.067	0.0161479
700.145	0.0165419
700.223	0.0166720
700.301	0.0170491
700.379	0.0175365
700.457	0.0180282
700.535	0.0186264
700.613	0.0190205
700.692	0.0195353
700.770	0.0200052
700.848	0.0203629
700.926	0.0206912
701.004	0.0210087
701.082	0.0211403
701.160	0.0213372
701.238	0.0213106
701.317	0.0213900
701.395	0.0213129
701.473	0.0212159
701.551	0.0212482
701.629	0.0209289
701.707	0.0205963
701.785	0.0203031
701.863	0.0201982
701.942	0.0198893
702.020	0.0195750
702.098	0.0192632
702.176	0.0189882
702.254	0.0185703
702.332	0.0182597
702.410	0.0179021
702.488	0.0176280
702.567	0.0173393
702.645	0.0170640
702.723	0.0169308
702.801	0.0168135
702.879	0.0165760
702.957	0.0166764
703.035	0.0167328
703.113	0.0168633
703.192	0.0169075
703.270	0.0172295
703.348	0.0174429
703.426	0.0176701
703.504	0.0177973
703.582	0.0181790
703.660	0.0183309
703.738	0.0186111
703.817	0.0188608
703.895	0.0190964
703.973	0.0192611
704.051	0.0195556
704.129	0.0195332
704.207	0.0196431
704.285	0.0196272
704.363	0.0195757
704.442	0.0196706
704.520	0.0196127
704.598	0.0194643
704.676	0.0193795
704.754	0.0193400
704.832	0.0190675
704.910	0.0188896
704.988	0.0188684
705.067	0.0186366
705.145	0.0186814
705.223	0.0186676
705.301	0.0184496
705.379	0.0185519
705.457	0.0187226
705.535	0.0188710
705.613	0.0189400
705.692	0.0190450
705.770	0.0192854
705.848	0.0195342
705.926	0.0198220
706.004	0.0198183
706.082	0.0198069
706.160	0.0198060
706.238	0.0197121
706.317	0.0197305
706.395	0.0194310
706.473	0.0194607
706.551	0.0192229
706.629	0.0189936
706.707	0.0185993
706.785	0.0184406
706.863	0.0181171
706.942	0.0180617
707.020	0.0179426
707.098	0.0179750
707.176	0.0180112
707.254	0.0180859
707.332	0.0182278
707.410	0.0185952
707.488	0.0188825
707.567	0.0190833
707.645	0.0192275
707.723	0.0195495
707.801	0.0197448
707.879	0.0199755
707.957	0.0201420
708.035	0.0201888
708.113	0.0204240
708.192	0.0203186
708.270	0.0202760
708.348	0.0203224
708.426	0.0203113
708.504	0.0198682
708.582	0.0196612
708.660	0.0195566
708.738	0.0191727
708.817	0.0187096
708.895	0.0184818
708.973	0.0180276
709.051	0.0176328
709.129	0.0173991
709.207	0.0171032
709.285	0.0168804
709.363	0.0164758
709.442	0.0162286
709.520	0.0160294
709.598	0.0159019
709.676	0.0158174
709.754	0.0156637
709.832	0.0155712
709.910	0.0156530
709.988	0.0156084
710.067	0.0157193
710.145	0.0158362
710.223	0.0160796
710.301	0.0162531
710.379	0.0166438
710.457	0.0169663
710.535	0.0175375
710.613	0.0179225
710.692	0.0184877
710.770	0.0191074
710.848	0.0195397
710.926	0.0199953
711.004	0.0205128
711.082	0.0207815
711.160	0.0211137
711.238	0.0216062
711.317	0.0217078
711.395	0.0217954
711.473	0.0221172
711.551	0.0223848
711.629	0.0222727
711.707	0.0223613
711.785	0.0224291
711.863	0.0224302
711.942	0.0222452
712.020	0.0223116
712.098	0.0221873
712.176	0.0218954
712.254	0.0215952
712.332	0.0212567
712.410	0.0209248
712.488	0.0206646
712.567	0.0201915
712.645	0.0197750
712.723	0.0194553
712.801	0.0192649
712.879	0.0190635
712.957	0.0187695
713.035	0.0185333
713.113	0.0183138
713.192	0.0182272
713.270	0.0181631
713.348	0.0179225
713.426	0.0178796
713.504	0.0177519
713.582	0.0176882
713.660	0.0174333
713.738	0.0172466
713.817	0.0171970
713.895	0.0169940
713.973	0.0170640
714.051	0.0170300
714.129	0.0170776
714.207	0.0172857
714.285	0.0171864
714.363	0.0171702
714.442	0.0174780
714.520	0.0172715
714.598	0.0175208
714.676	0.0175804
714.754	0.0175063
714.832	0.0172172
714.910	0.0172365
714.988	0.0169804
715.067	0.0169959
715.145	0.0168380
715.223	0.0166990
715.301	0.0163580
715.379	0.0164288
715.457	0.0162817
715.535	0.0163194
715.613	0.0163268
715.692	0.0163500
715.770	0.0162820
715.848	0.0164291
715.926	0.0166592
716.004	0.0168991
716.082	0.0170837
716.160	0.0173914
716.238	0.0176936
716.317	0.0181007
716.395	0.0183188
716.473	0.0185751
716.551	0.0190985
716.629	0.0194187
716.707	0.0197623
716.785	0.0202050
716.863	0.0206110
716.942	0.0208955
717.020	0.0213036
717.098	0.0216533
717.176	0.0219904
717.254	0.0222011
717.332	0.0224647
717.410	0.0226289
717.488	0.0228136
717.567	0.0228056
717.645	0.0228651
717.723	0.0226212
717.801	0.0225190
717.879	0.0223945
717.957	0.0221814
718.035	0.0220264
718.113	0.0219465
718.192	0.0216637
718.270	0.0215648
718.348	0.0214154
718.426	0.0211224
718.504	0.0212080
718.582	0.0209101
718.660	0.0207838
718.738	0.0205662
718.817	0.0203068
718.895	0.0201402
718.973	0.0199059
719.051	0.0196355
719.129	0.0194146
719.207	0.0191654
719.285	0.0187933
719.363	0.0183752
719.442	0.0181785
719.520	0.0179578
719.598	0.0177238
719.676	0.0173086
719.754	0.0169148
719.832	0.0167188
719.910	0.0164161
719.988	0.0162349
720.067	0.0158823
720.145	0.0157574
720.223	0.0156757
720.301	0.0155024
720.379	0.0154176
720.457	0.0152785
720.535	0.0151863
720.613	0.0153764
720.692	0.0153219
720.770	0.0153559
720.848	0.0155048
720.926	0.0156541
721.004	0.0160260
721.082	0.0162672
721.160	0.0164719
721.238	0.0165976
721.317	0.0167944
721.395	0.0172569
721.473	0.0176227
721.551	0.0176555
721.629	0.0178803
721.707	0.0180870
721.785	0.0181123
721.863	0.0182233
721.942	0.0182227
722.020	0.0181070
722.098	0.0181598
722.176	0.0181216
722.254	0.0181459
722.332	0.0182108
722.410	0.0181956
722.488	0.0181696
722.567	0.0179448
722.645	0.0182162
722.723	0.0182286
722.801	0.0184401
722.879	0.0186829
722.957	0.0188678
723.035	0.0192389
723.113	0.0194154
723.192	0.0199532
723.270	0.0203773
723.348	0.0207185
723.426	0.0212499
723.504	0.0217625
723.582	0.0222837
723.660	0.0227536
723.738	0.0231040
723.817	0.0234451
723.895	0.0238041
723.973	0.0239220
724.051	0.0239899
724.129	0.0239291
724.207	0.0238177
724.285	0.0236432
724.363	0.0232961
724.442	0.0229396
724.520	0.0224120
724.598	0.0218888
724.676	0.0216721
724.754	0.0212572
724.832	0.0206048
724.910	0.0203414
724.988	0.0198843
725.067	0.0196940
725.145	0.0194592
725.223	0.0190240
725.301	0.0188493
725.379	0.0187872
725.457	0.0185464
725.535	0.0183212
725.613	0.0181765
725.692	0.0181028
725.770	0.0179845
725.848	0.0178161
725.926	0.0178703
726.004	0.0177357
726.082	0.0175737
726.160	0.0175807
726.238	0.0175864
726.317	0.0173309
726.395	0.0174134
726.473	0.0170694
726.551	0.0167538
726.629	0.0165907
726.707	0.0163761
726.785	0.0160168
726.863	0.0155184
726.942	0.0152591
727.020	0.0149693
727.098	0.0145530
727.176	0.0141882
727.254	0.0137408
727.332	0.0137922
727.410	0.0137965
727.488	0.0138435
727.567	0.0140540
727.645	0.0141226
727.723	0.0145311
727.801	0.0152026
727.879	0.0155566
727.957	0.0159692
728.035	0.0166394
728.113	0.0172101
728.192	0.0178032
728.270	0.0183298
728.348	0.0186430
728.426	0.0190047
728.504	0.0191369
728.582	0.0193974
728.660	0.0195386
728.738	0.0195904
728.817	0.0195900
728.895	0.0195412
728.973	0.0196088
729.051	0.0195040
729.129	0.0194836
729.207	0.0194763
729.285	0.0195541
729.363	0.0196864
729.442	0.0196967
729.520	0.0198689
729.598	0.0199034
729.676	0.0200481
729.754	0.0203518
729.832	0.0206630
729.910	0.0208703
729.988	0.0213360
730.067	0.0216928
730.145	0.0221661
730.223	0.0224533
730.301	0.0228040
730.379	0.0233430
730.457	0.0236932
730.535	0.0238791
730.613	0.0242217
730.692	0.0244302
730.770	0.0243468
730.848	0.0240865
730.926	0.0238332
731.004	0.0234338
731.082	0.0229676
731.160	0.0223563
731.238	0.0216908
731.317	0.0212062
731.395	0.0205038
731.473	0.0198946
731.551	0.0193193
731.629	0.0188174
731.707	0.0183271
731.785	0.0178999
731.863	0.0177037
731.942	0.0176472
732.020	0.0176128
732.098	0.0175709
732.176	0.0177769
732.254	0.0179696
732.332	0.0180885
732.410	0.0181324
732.488	0.0184067
732.567	0.0185775
732.645	0.0186196
732.723	0.0186259
732.801	0.0184627
732.879	0.0182767
732.957	0.0179793
733.035	0.0176463
733.113	0.0173526
733.192	0.0169147
733.270	0.0162069
733.348	0.0157023
733.426	0.0153545
733.504	0.0145895
733.582	0.0140514
733.660	0.0134765
733.738	0.0131522
733.817	0.0129455
733.895	0.0125911
733.973	0.0126006
734.051	0.0124892
734.129	0.0127376
734.207	0.0131007
734.285	0.0131950
734.363	0.0137364
734.442	0.0143416
734.520	0.0149625
734.598	0.0156100
734.676	0.0165630
734.754	0.0171079
734.832	0.0178884
734.910	0.0186434
734.988	0.0193203
735.067	0.0199314
735.145	0.0204818
735.223	0.0210025
735.301	0.0212073
735.379	0.0213338
735.457	0.0215244
735.535	0.0215567
735.613	0.0214584
735.692	0.0213266
735.770	0.0213231
735.848	0.0211888
735.926	0.0211205
736.004	0.0209328
736.082	0.0207008
736.160	0.0208221
736.238	0.0208431
736.317	0.0208092
736.395	0.0208557
736.473	0.0211031
736.551	0.0212348
736.629	0.0213815
736.707	0.0216039
736.785	0.0219170
736.863	0.0221864
736.942	0.0225681
737.020	0.0227733
737.098	0.0229729
737.176	0.0229539
737.254	0.0229906
737.332	0.0229486
737.410	0.0228264
737.488	0.0225220
737.567	0.0219895
737.645	0.0217553
737.723	0.0213046
737.801	0.0208569
737.879	0.0202583
737.957	0.0197633
738.035	0.0193920
738.113	0.0190845
738.192	0.0187435
738.270	0.0185086
738.348	0.0183376
738.426	0.0181873
738.504	0.0181237
738.582	0.0181982
738.660	0.0182449
738.738	0.0184142
738.817	0.0185332
738.895	0.0185567
738.973	0.0186188
739.051	0.0187441
739.129	0.0185904
739.207	0.0185894
739.285	0.0185914
739.363	0.0185754
739.442	0.0183894
739.520	0.0181732
739.598	0.0179327
739.676	0.0176654
739.754	0.0173590
739.832	0.0171448
739.910	0.0167545
739.988	0.0163741
740.067	0.0158031
740.145	0.0152544
740.223	0.0150133
740.301	0.0147148
740.379	0.0142523
740.457	0.0140717
740.535	0.0136648
740.613	0.0134340
740.692	0.0133266
740.770	0.0134523
740.848	0.0135557
740.926	0.0136573
741.004	0.0140176
741.082	0.0144740
741.160	0.0150005
741.238	0.0154893
741.317	0.0162618
741.395	0.0167929
741.473	0.0174505
741.551	0.0181109
741.629	0.0187396
741.707	0.0192627
741.785	0.0196546
741.863	0.0201604
741.942	0.0204652
742.020	0.0207163
742.098	0.0207669
742.176	0.0211001
742.254	0.0211330
742.332	0.0211221
742.410	0.0211270
742.488	0.0213024
742.567	0.0212962
742.645	0.0213296
742.723	0.0213683
742.801	0.0214003
742.879	0.0215925
742.957	0.0214445
743.035	0.0216086
743.113	0.0214632
743.192	0.0215587
743.270	0.0214857
743.348	0.0214415
743.426	0.0214498
743.504	0.0214863
743.582	0.0212253
743.660	0.0213411
743.738	0.0210876
743.817	0.0209700
743.895	0.0208302
743.973	0.0207449
744.051	0.0206379
744.129	0.0204278
744.207	0.0202938
744.285	0.0201988
744.363	0.0201886
744.442	0.0200397
744.520	0.0198425
744.598	0.0198601
744.676	0.0197021
744.754	0.0196351
744.832	0.0198423
744.910	0.0200527
744.988	0.0200304
745.067	0.0200743
745.145	0.0199570
745.223	0.0200461
745.301	0.0201660
745.379	0.0201277
745.457	0.0199924
745.535	0.0198509
745.613	0.0197192
745.692	0.0195093
745.770	0.0192462
745.848	0.0188245
745.926	0.0185265
746.004	0.0181989
746.082	0.0179862
746.160	0.0177131
746.238	0.0173506
746.317	0.0169630
746.395	0.0169166
746.473	0.0166547
746.551	0.0163309
746.629	0.0161530
746.707	0.0160683
746.785	0.0159931
746.863	0.0159162
746.942	0.0156506
747.020	0.0154378
747.098	0.0153777
747.176	0.0152659
747.254	0.0151340
747.332	0.0152731
747.410	0.0152423
747.488	0.0150761
747.567	0.0152279
747.645	0.0152137
747.723	0.0154912
747.801	0.0155934
747.879	0.0156770
747.957	0.0159174
748.035	0.0161897
748.113	0.0165524
748.192	0.0168008
748.270	0.0169708
748.348	0.0174780
748.426	0.0178406
748.504	0.0182401
748.582	0.0184472
748.660	0.0185826
748.738	0.0190110
748.817	0.0192005
748.895	0.0194312
748.973	0.0197276
749.051	0.0199895
749.129	0.0202841
749.207	0.0205298
749.285	0.0207933
749.363	0.0209771
749.442	0.0212890
749.520	0.0216158
749.598	0.0216754
749.676	0.0219427
749.754	0.0221642
749.832	0.0221927
749.910	0.0221784
749.988	0.0221545
750.067	0.0220943
750.145	0.0219924
750.223	0.0215691
750.301	0.0213252
750.379	0.0210352
750.457	0.0206704
750.535	0.0203007
750.613	0.0200831
750.692	0.0198132
750.770	0.0195672
750.848	0.0194437
750.926	0.0194025
751.004	0.0192663
751.082	0.0192242
751.160	0.0192249
751.238	0.0194212
751.317	0.0196280
751.395	0.0198074
751.473	0.0198712
751.551	0.0202508
751.629	0.0202072
751.707	0.0203748
751.785	0.0205850
751.863	0.0207362
751.942	0.0207280
752.020	0.0206825
752.098	0.0207145
752.176	0.0204436
752.254	0.0203056
752.332	0.0200836
752.410	0.0198968
752.488	0.0194290
752.567	0.0192501
752.645	0.0187138
752.723	0.0183152
752.801	0.0182713
752.879	0.0179485
752.957	0.0175732
753.035	0.0174138
753.113	0.0171566
753.192	0.0170079
753.270	0.0168784
753.348	0.0168876
753.426	0.0166033
753.504	0.0164515
753.582	0.0164373
753.660	0.0163802
753.738	0.0162888
753.817	0.0162309
753.895	0.0161889
753.973	0.0160072
754.051	0.0159641
754.129	0.0157759
754.207	0.0160446
754.285	0.0158688
754.363	0.0159908
754.442	0.0160626
754.520	0.0161980
754.598	0.0161958
754.676	0.0162199
754.754	0.0167238
754.832	0.0169330
754.910	0.0170740
754.988	0.0173064
755.067	0.0174937
755.145	0.0177597
755.223	0.0179236
755.301	0.0181300
755.379	0.0185305
755.457	0.0184471
755.535	0.0188022
755.613	0.0187350
755.692	0.0187947
755.770	0.0189137
755.848	0.0188934
755.926	0.0190479
756.004	0.0192041
756.082	0.0192847
756.160	0.0193365
756.238	0.0195763
756.317	0.0197968
756.395	0.0199892
756.473	0.0200999
756.551	0.0203571
756.629	0.0204593
756.707	0.0205965
756.785	0.0208317
756.863	0.0209689
756.942	0.0209457
757.020	0.0209258
757.098	0.0209595
757.176	0.0208872
757.254	0.0208809
757.332	0.0207896
757.410	0.0204600
757.488	0.0205103
757.567	0.0204433
757.645	0.0204496
757.723	0.0202936
757.801	0.0202136
757.879	0.0202599
757.957	0.0203482
758.035	0.0204858
758.113	0.0204609
758.192	0.0203609
758.270	0.0203673
758.348	0.0205359
758.426	0.0204841
758.504	0.0204249
758.582	0.0202576
758.660	0.0202170
758.738	0.0199879
758.817	0.0197801
758.895	0.0196113
758.973	0.0194804
759.051	0.0193615
759.129	0.0191261
759.207	0.0190316
759.285	0.0189310
759.363	0.0188216
759.442	0.0187464
759.520	0.0187837
759.598	0.0185587
759.676	0.0186790
759.754	0.0186394
759.832	0.0185085
759.910	0.0185332
759.988	0.0183095
760.067	0.0183717
760.145	0.0181895
760.223	0.0180379
760.301	0.0179278
760.379	0.0177998
760.457	0.0175105
760.535	0.0173662
760.613	0.0172304
760.692	0.0171288
760.770	0.0168967
760.848	0.0167850
760.926	0.0165752
761.004	0.0165992
761.082	0.0165176
761.160	0.0164962
761.238	0.0165942
761.317	0.0164458
761.395	0.0165498
761.473	0.0166158
761.551	0.0166293
761.629	0.0167770
761.707	0.0169550
761.785	0.0171195
761.863	0.0172215
761.942	0.0174777
762.020	0.0175441
762.098	0.0176993
762.176	0.0179032
762.254	0.0179081
762.332	0.0180244
762.410	0.0181477
762.488	0.0182191
762.567	0.0183218
762.645	0.0184559
762.723	0.0184552
762.801	0.0184242
762.879	0.0185732
762.957	0.0186713
763.035	0.0187520
763.113	0.0188358
763.192	0.0188846
763.270	0.0190821
763.348	0.0192709
763.426	0.0192796
763.504	0.0194540
763.582	0.0195856
763.660	0.0196459
763.738	0.0198750
763.817	0.0199739
763.895	0.0199879
763.973	0.0200519
764.051	0.0202364
764.129	0.0202995
764.207	0.0203584
764.285	0.0205972
764.363	0.0208178
764.442	0.0210268
764.520	0.0210229
764.598	0.0211736
764.676	0.0212138
764.754	0.0210901
764.832	0.0211742
764.910	0.0210711
764.988	0.0208036
765.067	0.0206187
765.145	0.0204942
765.223	0.0202487
765.301	0.0199158
765.379	0.0196638
765.457	0.0194408
765.535	0.0194024
765.613	0.0190642
765.692	0.0188358
765.770	0.0189269
765.848	0.0188229
765.926	0.0188448
766.004	0.0189831
766.082	0.0188378
766.160	0.0190791
766.238	0.0191919
766.317	0.0192024
766.395	0.0192945
766.473	0.0194052
766.551	0.0196014
766.629	0.0195130
766.707	0.0195350
766.785	0.0195004
766.863	0.0194711
766.942	0.0192626
767.020	0.0192312
767.098	0.0190843
767.176	0.0187773
767.254	0.0186398
767.332	0.0184161
767.410	0.0181415
767.488	0.0178647
767.567	0.0177296
767.645	0.0175727
767.723	0.0174374
767.801	0.0172038
767.879	0.0169463
767.957	0.0169473
768.035	0.0169332
768.113	0.0170748
768.192	0.0169179
768.270	0.0169452
768.348	0.0170889
768.426	0.0172334
768.504	0.0173048
768.582	0.0173286
768.660	0.0177272
768.738	0.0177115
768.817	0.0178931
768.895	0.0178741
768.973	0.0178174
769.051	0.0179516
769.129	0.0179362
769.207	0.0179478
769.285	0.0177906
769.363	0.0178208
769.442	0.0177105
769.520	0.0176568
769.598	0.0176768
769.676	0.0175727
769.754	0.0175643
769.832	0.0174793
769.910	0.0176786
769.988	0.0176652
770.067	0.0177985
770.145	0.0177933
770.223	0.0180176
770.301	0.0182480
770.379	0.0183463
770.457	0.0186240
770.535	0.0189481
770.613	0.0192200
770.692	0.0194449
770.770	0.0196421
770.848	0.0200264
770.926	0.0202560
771.004	0.0204704
771.082	0.0206385
771.160	0.0205683
771.238	0.0205990
771.317	0.0206772
771.395	0.0206936
771.473	0.0206213
771.551	0.0202594
771.629	0.0202863
771.707	0.0199712
771.785	0.0199792
771.863	0.0198129
771.942	0.0195677
772.020	0.0193712
772.098	0.0194467
772.176	0.0193861
772.254	0.0193775
772.332	0.0193925
772.410	0.0192897
772.488	0.0195024
772.567	0.0196828
772.645	0.0197788
772.723	0.0197516
772.801	0.0198844
772.879	0.0200142
772.957	0.0202238
773.035	0.0202646
773.113	0.0203258
773.192	0.0202745
773.270	0.0203352
773.348	0.0202935
773.426	0.0202110
773.504	0.0202248
773.582	0.0199973
773.660	0.0199102
773.738	0.0196481
773.817	0.0194030
773.895	0.0191348
773.973	0.0189386
774.051	0.0186481
774.129	0.0182937
774.207	0.0181800
774.285	0.0180784
774.363	0.0179787
774.442	0.0176675
774.520	0.0175253
774.598	0.0176682
774.676	0.0176659
774.754	0.0177353
774.832	0.0177766
774.910	0.0179608
774.988	0.0181657
775.067	0.0182153
775.145	0.0183957
775.223	0.0184904
775.301	0.0185034
775.379	0.0185913
775.457	0.0184991
775.535	0.0184853
775.613	0.0184306
775.692	0.0183482
775.770	0.0182181
775.848	0.0180055
775.926	0.0178259
776.004	0.0175018
776.082	0.0175530
776.160	0.0173325
776.238	0.0171938
776.317	0.0170944
776.395	0.0170137
776.473	0.0169260
776.551	0.0169545
776.629	0.0170152
776.707	0.0171143
776.785	0.0172202
776.863	0.0173868
776.942	0.0176370
777.020	0.0177142
777.098	0.0181316
777.176	0.0182744
777.254	0.0184829
777.332	0.0187791
777.410	0.0189605
777.488	0.0191185
777.567	0.0191979
777.645	0.0193385
777.723	0.0194897
777.801	0.0194746
777.879	0.0193975
777.957	0.0192680
778.035	0.0192795
778.113	0.0194101
778.192	0.0191618
778.270	0.0190163
778.348	0.0190677
778.426	0.0188230
778.504	0.0188534
778.582	0.0187078
778.660	0.0187308
778.738	0.0187154
778.817	0.0188529
778.895	0.0190075
778.973	0.0191842
779.051	0.0193185
779.129	0.0195049
779.207	0.0197315
779.285	0.0199918
779.363	0.0202116
779.442	0.0205640
779.520	0.0204169
779.598	0.0207308
779.676	0.0209189
779.754	0.0210149
779.832	0.0209324
779.910	0.0207914
779.988	0.0208083
780.067	0.0206828
780.145	0.0206646
780.223	0.0204531
780.301	0.0203367
780.379	0.0201331
780.457	0.0199862
780.535	0.0198228
780.613	0.0196344
780.692	0.0194431
780.770	0.0191680
780.848	0.0190693
780.926	0.0189607
781.004	0.0188011
781.082	0.0185053
781.160	0.0186034
781.238	0.0186967
781.317	0.0186106
781.395	0.0185212
781.473	0.0184587
781.551	0.0185303
781.629	0.0186156
781.707	0.0187057
781.785	0.0186874
781.863	0.0187317
781.942	0.0188606
782.020	0.0188848
782.098	0.0188017
782.176	0.0186504
782.254	0.0185773
782.332	0.0185576
782.410	0.0184639
782.488	0.0182922
782.567	0.0181693
782.645	0.0180020
782.723	0.0178345
782.801	0.0178238
782.879	0.0176167
782.957	0.0174936
783.035	0.0173672
783.113	0.0173522
783.192	0.0174261
783.270	0.0173354
783.348	0.0172037
783.426	0.0174715
783.504	0.0175910
783.582	0.0177089
783.660	0.0179520
783.738	0.0179998
783.817	0.0179861
783.895	0.0180199
783.973	0.0183179
784.051	0.0183310
784.129	0.0184097
784.207	0.0183679
784.285	0.0184266
784.363	0.0184500
784.442	0.0184947
784.520	0.0184793
784.598	0.0183056
784.676	0.0183666
784.754	0.0181849
784.832	0.0181790
784.910	0.0180186
784.988	0.0180613
785.067	0.0181023
785.145	0.0181558
785.223	0.0181415
785.301	0.0182344
785.379	0.0182642
785.457	0.0183021
785.535	0.0184865
785.613	0.0185340
785.692	0.0188683
785.770	0.0190947
785.848	0.0192577
785.926	0.0196098
786.004	0.0197417
786.082	0.0198405
786.160	0.0199638
786.238	0.0201415
786.317	0.0202502
786.395	0.0203208
786.473	0.0203085
786.551	0.0204197
786.629	0.0202457
786.707	0.0201236
786.785	0.0200821
786.863	0.0201443
786.942	0.0199266
787.020	0.0199260
787.098	0.0199158
787.176	0.0198137
787.254	0.0196641
787.332	0.0195573
787.410	0.0195638
787.488	0.0193910
787.567	0.0194707
787.645	0.0195580
787.723	0.0195628
787.801	0.0195853
787.879	0.0196904
787.957	0.0195660
788.035	0.0195263
788.113	0.0195475
788.192	0.0195625
788.270	0.0195158
788.348	0.0192052
788.426	0.0194215
788.504	0.0193213
788.582	0.0191663
788.660	0.0191538
788.738	0.0190101
788.817	0.0187186
788.895	0.0187293
788.973	0.0185904
789.051	0.0184261
789.129	0.0183606
789.207	0.0182483
789.285	0.0180605
789.363	0.0180573
789.442	0.0181020
789.520	0.0178158
789.598	0.0177399
789.676	0.0178761
789.754	0.0179109
789.832	0.0178779
789.910	0.0178558
789.988	0.0178828
790.067	0.0176733
790.145	0.0178495
790.223	0.0179658
790.301	0.0180199
790.379	0.0180342
790.457	0.0180433
790.535	0.0182627
790.613	0.0184278
790.692	0.0184483
790.770	0.0185944
790.848	0.0186761
790.926	0.0187606
791.004	0.0187614
791.082	0.0188361
791.160	0.0188695
791.238	0.0188364
791.317	0.0187355
791.395	0.0188158
791.473	0.0187300
791.551	0.0187610
791.629	0.0184670
791.707	0.0184280
791.785	0.0182652
791.863	0.0182068
791.942	0.0180964
792.020	0.0180219
792.098	0.0179977
792.176	0.0179189
792.254	0.0178741
792.332	0.0179082
792.410	0.0180749
792.488	0.0180283
792.567	0.0180677
792.645	0.0180350
792.723	0.0183389
792.801	0.0183728
792.879	0.0184506
792.957	0.0185203
793.035	0.0187368
793.113	0.0189086
793.192	0.0189201
793.270	0.0189843
793.348	0.0189951
793.426	0.0190054
793.504	0.0190929
793.582	0.0191640
793.660	0.0192092
793.738	0.0193957
793.817	0.0193367
793.895	0.0193772
793.973	0.0193696
794.051	0.0194891
794.129	0.0193536
794.207	0.0194639
794.285	0.0195763
794.363	0.0197294
794.442	0.0197507
794.520	0.0197468
794.598	0.0199469
794.676	0.0200220
794.754	0.0201181
794.832	0.0201592
794.910	0.0201375
794.988	0.0200941
795.067	0.0199834
795.145	0.0199636
795.223	0.0198793
795.301	0.0198206
795.379	0.0197227
795.457	0.0196609
795.535	0.0195544
795.613	0.0194204
795.692	0.0193051
795.770	0.0191975
795.848	0.0189674
795.926	0.0188904
796.004	0.0187936
796.082	0.0187875
796.160	0.0187772
796.238	0.0186230
796.317	0.0186310
796.395	0.0186530
796.473	0.0187521
796.551	0.0185182
796.629	0.0185890
796.707	0.0185849
796.785	0.0184920
796.863	0.0184315
796.942	0.0183511
797.020	0.0182919
797.098	0.0183601
797.176	0.0181307
797.254	0.0182923
797.332	0.0183649
797.410	0.0183541
797.488	0.0183669
797.567	0.0184048
797.645	0.0184147
797.723	0.0184207
797.801	0.0184142
797.879	0.0186206
797.957	0.0184573
798.035	0.0186210
798.113	0.0185589
798.192	0.0186161
798.270	0.0186977
798.348	0.0185763
798.426	0.0185065
798.504	0.0185548
798.582	0.0184562
798.660	0.0185855
798.738	0.0184682
798.817	0.0185305
798.895	0.0184309
798.973	0.0184178
799.051	0.0183442
799.129	0.0181716
799.207	0.0184030
799.285	0.0183982
799.363	0.0183716
799.442	0.0182797
799.520	0.0182059
799.598	0.0182708
799.676	0.0182674
799.754	0.0184055
799.832	0.0183662
799.910	0.0183385
799.988	0.0183549
800.067	0.0185377
800.145	0.0183996
800.223	0.0185283
800.301	0.0185495
800.379	0.0185588
800.457	0.0185045
800.535	0.0184774
800.613	0.0184232
800.692	0.0183431
800.770	0.0184168
800.848	0.0184389
800.926	0.0187189
801.004	0.0187027
801.082	0.0185931
801.160	0.0186433
801.238	0.0188435
801.317	0.0189188
801.395	0.0189408
801.473	0.0191871
801.551	0.0192290
801.629	0.0193792
801.707	0.0196710
801.785	0.0198156
801.863	0.0198580
801.942	0.0198872
802.020	0.0199805
802.098	0.0202643
802.176	0.0201782
802.254	0.0200754
802.332	0.0201035
802.410	0.0199861
802.488	0.0198032
802.567	0.0198290
802.645	0.0197984
802.723	0.0196325
802.801	0.0194626
802.879	0.0193415
802.957	0.0192137
803.035	0.0192677
803.113	0.0190114
803.192	0.0189984
803.270	0.0189082
803.348	0.0188297
803.426	0.0188899
803.504	0.0188268
803.582	0.0189130
803.660	0.0189314
803.738	0.0191191
803.817	0.0190498
803.895	0.0191720
803.973	0.0192512
804.051	0.0191662
804.129	0.0192107
804.207	0.0192810
804.285	0.0190748
804.363	0.0190990
804.442	0.0190372
804.520	0.0188807
804.598	0.0188583
804.676	0.0188560
804.754	0.0186982
804.832	0.0184475
804.910	0.0185416
804.988	0.0184046
805.067	0.0181861
805.145	0.0180132
805.223	0.0181937
805.301	0.0180440
805.379	0.0178484
805.457	0.0178049
805.535	0.0178643
805.613	0.0177336
805.692	0.0177568
805.770	0.0178867
805.848	0.0179135
805.926	0.0179767
806.004	0.0180488
806.082	0.0180145
806.160	0.0182515
806.238	0.0183037
806.317	0.0183262
806.395	0.0182452
806.473	0.0184635
806.551	0.0184797
806.629	0.0185099
806.707	0.0185066
806.785	0.0185371
806.863	0.0184746
806.942	0.0185548
807.020	0.0185219
807.098	0.0184488
807.176	0.0184664
807.254	0.0184634
807.332	0.0183817
807.410	0.0185141
807.488	0.0184770
807.567	0.0184740
807.645	0.0184966
807.723	0.0186169
807.801	0.0187067
807.879	0.0188274
807.957	0.0191085
808.035	0.0190216
808.113	0.0190923
808.192	0.0193897
808.270	0.0194364
808.348	0.0194111
808.426	0.0194339
808.504	0.0195708
808.582	0.0196790
808.660	0.0197724
808.738	0.0196896
808.817	0.0196661
808.895	0.0195725
808.973	0.0196362
809.051	0.0196247
809.129	0.0193978
809.207	0.0194072
809.285	0.0192149
809.363	0.0192028
809.442	0.0190482
809.520	0.0188603
809.598	0.0187067
809.676	0.0187375
809.754	0.0187236
809.832	0.0188201
809.910	0.0188683
809.988	0.0188087
810.067	0.0189112
810.145	0.0189741
810.223	0.0190551
810.301	0.0190371
810.379	0.0191004
810.457	0.0191117
810.535	0.0191873
810.613	0.0191743
810.692	0.0192099
810.770	0.0190160
810.848	0.0190480
810.926	0.0190531
811.004	0.0189045
811.082	0.0188484
811.160	0.0187707
811.238	0.0186353
811.317	0.0185271
811.395	0.0185834
811.473	0.0184084
811.551	0.0183581
811.629	0.0184058
811.707	0.0183749
811.785	0.0183094
811.863	0.0183561
811.942	0.0184298
812.020	0.0184257
812.098	0.0185278
812.176	0.0187942
812.254	0.0187268
812.332	0.0187292
812.410	0.0187276
812.488	0.0189027
812.567	0.0188630
812.645	0.0190068
812.723	0.0190561
812.801	0.0188949
812.879	0.0189232
812.957	0.0189188
813.035	0.0187675
813.113	0.0189536
813.192	0.0189435
813.270	0.0187589
813.348	0.0188276
813.426	0.0187310
813.504	0.0185340
813.582	0.0187072
813.660	0.0186004
813.738	0.0185878
813.817	0.0186646
813.895	0.0186623
813.973	0.0188302
814.051	0.0188448
814.129	0.0188849
814.207	0.0188813
814.285	0.0190068
814.363	0.0192046
814.442	0.0191495
814.520	0.0191074
814.598	0.0191626
814.676	0.0192592
814.754	0.0191153
814.832	0.0190916
814.910	0.0190070
814.988	0.0190467
815.067	0.0190096
815.145	0.0189256
815.223	0.0189898
815.301	0.0188342
815.379	0.0188367
815.457	0.0186706
815.535	0.0186054
815.613	0.0184827
815.692	0.0183755
815.770	0.0182882
815.848	0.0183025
815.926	0.0182429
816.004	0.0182658
816.082	0.0182551
816.160	0.0182369
816.238	0.0182996
816.317	0.0183630
816.395	0.0181973
816.473	0.0182242
816.551	0.0182339
816.629	0.0182908
816.707	0.0184258
816.785	0.0184465
816.863	0.0186443
816.942	0.0186370
817.020	0.0186317
817.098	0.0187933
817.176	0.0187815
817.254	0.0187582
817.332	0.0188268
817.410	0.0189658
817.488	0.0190342
817.567	0.0190441
817.645	0.0189832
817.723	0.0190415
817.801	0.0191137
817.879	0.0190074
817.957	0.0190625
818.035	0.0190869
818.113	0.0190421
818.192	0.0190918
818.270	0.0190547
818.348	0.0188779
818.426	0.0188348
818.504	0.0188454
818.582	0.0189871
818.660	0.0190651
818.738	0.0188992
818.817	0.0189497
818.895	0.0190845
818.973	0.0190940
819.051	0.0192645
819.129	0.0193191
819.207	0.0194043
819.285	0.0194227
819.363	0.0195312
819.442	0.0195546
819.520	0.0196677
819.598	0.0195734
819.676	0.0195264
819.754	0.0195979
819.832	0.0195979
819.910	0.0196066
819.988	0.0195038
820.067	0.0194897
820.145	0.0194794
820.223	0.0193808
820.301	0.0191628
820.379	0.0193568
820.457	0.0193195
820.535	0.0191941
820.613	0.0191245
820.692	0.0190328
820.770	0.0188221
820.848	0.0188396
820.926	0.0187960
821.004	0.0188085
821.082	0.0187467
821.160	0.0186002
821.238	0.0185827
821.317	0.0186223
821.395	0.0186163
821.473	0.0185923
821.551	0.0184656
821.629	0.0185495
821.707	0.0185204
821.785	0.0184296
821.863	0.0183770
821.942	0.0184884
822.020	0.0183638
822.098	0.0184053
822.176	0.0183542
822.254	0.0182751
822.332	0.0184548
822.410	0.0183192
822.488	0.0181491
822.567	0.0181062
822.645	0.0180985
822.723	0.0182392
822.801	0.0181607
822.879	0.0180692
822.957	0.0180878
823.035	0.0180034
823.113	0.0180198
823.192	0.0182853
823.270	0.0181252
823.348	0.0181873
823.426	0.0180912
823.504	0.0182101
823.582	0.0181985
823.660	0.0182690
823.738	0.0181756
823.817	0.0182231
823.895	0.0183776
823.973	0.0183524
824.051	0.0183273
824.129	0.0183450
824.207	0.0184673
824.285	0.0185397
824.363	0.0183990
824.442	0.0186484
824.520	0.0186731
824.598	0.0187273
824.676	0.0188728
824.754	0.0188171
824.832	0.0189199
824.910	0.0190374
824.988	0.0191000
825.067	0.0191109
825.145	0.0191809
825.223	0.0193092
825.301	0.0194092
825.379	0.0193712
825.457	0.0194080
825.535	0.0195319
825.613	0.0194294
825.692	0.0195619
825.770	0.0196041
825.848	0.0195763
825.926	0.0195856
826.004	0.0195495
826.082	0.0196235
826.160	0.0194547
826.238	0.0195846
826.317	0.0196353
826.395	0.0195953
826.473	0.0195518
826.551	0.0195637
826.629	0.0193729
826.707	0.0194743
826.785	0.0195244
826.863	0.0193762
826.942	0.0196587
827.020	0.0194498
827.098	0.0193948
827.176	0.0192206
827.254	0.0192387
827.332	0.0193307
827.410	0.0191840
827.488	0.0192217
827.567	0.0192036
827.645	0.0190893
827.723	0.0191423
827.801	0.0191115
827.879	0.0190993
827.957	0.0191633
828.035	0.0189892
828.113	0.0190223
828.192	0.0189575
828.270	0.0189769
828.348	0.0188813
828.426	0.0187504
828.504	0.0187547
828.582	0.0186048
828.660	0.0185110
828.738	0.0184290
828.817	0.0182925
828.895	0.0182614
828.973	0.0181245
829.051	0.0180738
829.129	0.0180287
829.207	0.0178976
829.285	0.0177948
829.363	0.0176936
829.442	0.0177325
829.520	0.0177291
829.598	0.0176608
829.676	0.0177613
829.754	0.0177695
829.832	0.0179090
829.910	0.0178513
829.988	0.0176720
830.067	0.0180235
830.145	0.0179034
830.223	0.0180142
830.301	0.0180101
830.379	0.0179784
830.457	0.0180862
830.535	0.0182037
830.613	0.0183029
830.692	0.0182782
830.770	0.0183212
830.848	0.0184028
830.926	0.0184641
831.004	0.0185750
831.082	0.0186258
831.160	0.0187069
831.238	0.0188091
831.317	0.0188243
831.395	0.0188062
831.473	0.0188520
831.551	0.0188775
831.629	0.0187454
831.707	0.0189710
831.785	0.0188795
831.863	0.0190366
831.942	0.0189868
832.020	0.0189471
832.098	0.0190018
832.176	0.0190034
832.254	0.0191545
832.332	0.0191113
832.410	0.0191578
832.488	0.0193043
832.567	0.0193104
832.645	0.0193895
832.723	0.0194772
832.801	0.0194017
832.879	0.0195980
832.957	0.0193425
833.035	0.0196274
833.113	0.0196209
833.192	0.0195495
833.270	0.0196929
833.348	0.0198533
833.426	0.0197981
833.504	0.0196954
833.582	0.0197751
833.660	0.0197807
833.738	0.0196744
833.817	0.0196784
833.895	0.0195463
833.973	0.0194198
834.051	0.0195131
834.129	0.0192799
834.207	0.0193215
834.285	0.0192162
834.363	0.0191846
834.442	0.0191122
834.520	0.0191351
834.598	0.0190453
834.676	0.0190321
834.754	0.0190035
834.832	0.0188481
834.910	0.0189232
834.988	0.0189583
835.067	0.0188964
835.145	0.0189467
835.223	0.0189098
835.301	0.0187248
835.379	0.0189109
835.457	0.0187492
835.535	0.0187889
835.613	0.0187045
835.692	0.0186824
835.770	0.0186574
835.848	0.0184934
835.926	0.0184321
836.004	0.0183585
836.082	0.0182785
836.160	0.0184550
836.238	0.0182690
836.317	0.0181094
836.395	0.0178691
836.473	0.0181313
836.551	0.0179280
836.629	0.0179194
836.707	0.0179043
836.785	0.0179156
836.863	0.0179482
836.942	0.0177654
837.020	0.0177541
837.098	0.0179844
837.176	0.0178823
837.254	0.0181774
837.332	0.0181373
837.410	0.0181764
837.488	0.0183457
837.567	0.0184130
837.645	0.0184820
837.723	0.0185789
837.801	0.0186520
837.879	0.0185783
837.957	0.0188155
838.035	0.0189395
838.113	0.0189969
838.192	0.0188033
838.270	0.0189846
838.348	0.0190901
838.426	0.0190781
838.504	0.0189687
838.582	0.0189413
838.660	0.0189420
838.738	0.0189621
838.817	0.0189208
838.895	0.0189653
838.973	0.0189424
839.051	0.0190066
839.129	0.0189820
839.207	0.0190665
839.285	0.0188565
839.363	0.0189944
839.442	0.0190615
839.520	0.0189848
839.598	0.0191223
839.676	0.0191202
839.754	0.0191525
839.832	0.0192777
839.910	0.0192990
839.988	0.0193551
840.067	0.0193262
840.145	0.0194828
840.223	0.0193543
840.301	0.0195084
840.379	0.0195429
840.457	0.0195261
840.535	0.0194270
840.613	0.0194141
840.692	0.0195073
840.770	0.0195532
840.848	0.0193001
840.926	0.0193781
841.004	0.0192941
841.082	0.0193191
841.160	0.0192884
841.238	0.0193010
841.317	0.0192703
841.395	0.0192686
841.473	0.0191610
841.551	0.0191714
841.629	0.0190883
841.707	0.0191325
841.785	0.0190270
841.863	0.0190019
841.942	0.0189437
842.020	0.0188831
842.098	0.0187614
842.176	0.0188310
842.254	0.0187616
842.332	0.0186185
842.410	0.0185490
842.488	0.0186330
842.567	0.0184646
842.645	0.0183935
842.723	0.0183148
842.801	0.0184638
842.879	0.0182745
842.957	0.0182964
843.035	0.0182966
843.113	0.0182632
843.192	0.0183543
843.270	0.0183132
843.348	0.0182836
843.426	0.0184082
843.504	0.0184041
843.582	0.0182487
843.660	0.0183547
843.738	0.0182886
843.817	0.0183710
843.895	0.0184332
843.973	0.0185349
844.051	0.0184726
844.129	0.0185293
844.207	0.0184755
844.285	0.0184978
844.363	0.0186254
844.442	0.0185221
844.520	0.0184608
844.598	0.0186251
844.676	0.0186948
844.754	0.0187057
844.832	0.0185455
844.910	0.0186507
844.988	0.0186187
845.067	0.0185428
845.145	0.0186881
845.223	0.0185868
845.301	0.0186551
845.379	0.0186546
845.457	0.0186561
845.535	0.0188074
845.613	0.0188921
845.692	0.0187891
845.770	0.0189291
845.848	0.0188405
845.926	0.0188368
846.004	0.0189800
846.082	0.0189851
846.160	0.0189958
846.238	0.0190462
846.317	0.0191036
846.395	0.0191394
846.473	0.0191195
846.551	0.0190811
846.629	0.0190133
846.707	0.0190862
846.785	0.0191080
846.863	0.0189960
846.942	0.0190933
847.020	0.0189771
847.098	0.0188604
847.176	0.0190237
847.254	0.0190244
847.332	0.0187834
847.410	0.0189552
847.488	0.0188425
847.567	0.0188089
847.645	0.0188371
847.723	0.0188554
847.801	0.0187312
847.879	0.0188264
847.957	0.0189274
848.035	0.0188459
848.113	0.0189718
848.192	0.0191241
848.270	0.0189795
848.348	0.0189932
848.426	0.0190044
848.504	0.0189314
848.582	0.0191121
848.660	0.0190927
848.738	0.0191733
848.817	0.0190184
848.895	0.0191065
848.973	0.0189156
849.051	0.0190575
849.129	0.0189753
849.207	0.0191414
849.285	0.0190521
849.363	0.0189098
849.442	0.0188663
849.520	0.0187679
849.598	0.0187918
849.676	0.0187254
849.754	0.0187587
849.832	0.0187413
849.910	0.0187156
849.988	0.0185891
850.067	0.0185984
850.145	0.0186983
850.223	0.0185545
850.301	0.0183674
850.379	0.0185374
850.457	0.0185670
850.535	0.0185168
850.613	0.0185826
850.692	0.0184820
850.770	0.0184814
850.848	0.0184859
850.926	0.0186407
851.004	0.0186070
851.082	0.0186707
851.160	0.0185548
851.238	0.0186327
851.317	0.0187264
851.395	0.0188104
851.473	0.0188091
851.551	0.0186611
851.629	0.0187701
851.707	0.0187103
851.785	0.0186964
851.863	0.0186250
851.942	0.0186140
852.020	0.0187798
852.098	0.0185915
852.176	0.0186300
852.254	0.0185913
852.332	0.0185173
852.410	0.0186433
852.488	0.0186043
852.567	0.0185818
852.645	0.0185620
852.723	0.0184550
852.801	0.0185367
852.879	0.0186854
852.957	0.0186825
853.035	0.0187064
853.113	0.0187797
853.192	0.0189592
853.270	0.0188609
853.348	0.0189005
853.426	0.0190202
853.504	0.0191475
853.582	0.0189825
853.660	0.0189983
853.738	0.0190429
853.817	0.0189791
853.895	0.0191100
853.973	0.0189600
854.051	0.0190409
854.129	0.0190318
854.207	0.0188133
854.285	0.0190266
854.363	0.0189394
854.442	0.0188861
854.520	0.0189317
854.598	0.0190121
854.676	0.0190589
854.754	0.0190105
854.832	0.0188855
854.910	0.0190562
854.988	0.0188387
855.067	0.0189531
855.145	0.0190720
855.223	0.0190221
855.301	0.0188737
855.379	0.0189385
855.457	0.0189962
855.535	0.0189104
855.613	0.0188779
855.692	0.0189101
855.770	0.0189024
855.848	0.0188132
855.926	0.0187626
856.004	0.0189140
856.082	0.0187547
856.160	0.0186909
856.238	0.0187068
856.317	0.0188500
856.395	0.0186653
856.473	0.0187246
856.551	0.0187695
856.629	0.0188282
856.707	0.0189184
856.785	0.0188374
856.863	0.0188097
856.942	0.0188672
857.020	0.0189660
857.098	0.0189246
857.176	0.0188007
857.254	0.0188374
857.332	0.0191351
857.410	0.0189545
857.488	0.0189436
857.567	0.0187393
857.645	0.0188383
857.723	0.0187468
857.801	0.0187687
857.879	0.0186465
857.957	0.0187220
858.035	0.0186395
858.113	0.0186436
858.192	0.0185513
858.270	0.0185002
858.348	0.0185287
858.426	0.0185768
858.504	0.0185885
858.582	0.0185025
858.660	0.0184663
858.738	0.0185603
858.817	0.0185001
858.895	0.0186225
858.973	0.0186145
859.051	0.0187202
859.129	0.0185989
859.207	0.0187468
859.285	0.0186417
859.363	0.0187635
859.442	0.0188565
859.520	0.0188919
859.598	0.0189210
859.676	0.0190769
859.754	0.0189749
859.832	0.0189441
859.910	0.0189599
859.988	0.0189996
860.067	0.0191550
860.145	0.0190177
860.223	0.0189806
860.301	0.0189192
860.379	0.0189977
860.457	0.0190524
860.535	0.0189755
860.613	0.0189085
860.692	0.0191074
860.770	0.0190558
860.848	0.0190434
860.926	0.0190759
861.004	0.0188961
861.082	0.0191000
861.160	0.0192439
861.238	0.0191234
861.317	0.0191188
861.395	0.0189224
861.473	0.0190027
861.551	0.0190640
861.629	0.0189859
861.707	0.0189857
861.785	0.0190967
861.863	0.0189619
861.942	0.0189195
862.020	0.0188921
862.098	0.0188783
862.176	0.0189390
862.254	0.0189558
862.332	0.0187916
862.410	0.0187917
862.488	0.0187649
862.567	0.0187002
862.645	0.0187900
862.723	0.0186646
862.801	0.0186934
862.879	0.0186279
862.957	0.0184949
863.035	0.0185854
863.113	0.0186658
863.192	0.0186480
863.270	0.0185246
863.348	0.0185283
863.426	0.0187511
863.504	0.0188083
863.582	0.0187592
863.660	0.0187778
863.738	0.0187163
863.817	0.0188190
863.895	0.0187938
863.973	0.0188194
864.051	0.0188483
864.129	0.0187772
864.207	0.0187326
864.285	0.0187951
864.363	0.0187296
864.442	0.0186793
864.520	0.0187505
864.598	0.0187097
864.676	0.0186868
864.754	0.0185265
864.832	0.0187208
864.910	0.0186033
864.988	0.0187054
865.067	0.0187329
865.145	0.0188585
865.223	0.0187486
865.301	0.0186313
865.379	0.0187643
865.457	0.0187035
865.535	0.0186663
865.613	0.0186392
865.692	0.0187370
865.770	0.0186824
865.848	0.0187267
865.926	0.0188785
866.004	0.0187555
866.082	0.0187380
866.160	0.0187233
866.238	0.0189392
866.317	0.0188014
866.395	0.0187967
866.473	0.0188847
866.551	0.0187852
866.629	0.0186810
866.707	0.0188078
866.785	0.0188058
866.863	0.0189130
866.942	0.0188377
867.020	0.0189148
867.098	0.0189221
867.176	0.0188954
867.254	0.0189896
867.332	0.0189880
867.410	0.0188658
867.488	0.0189536
867.567	0.0190311
867.645	0.0191440
867.723	0.0191653
867.801	0.0190135
867.879	0.0191035
867.957	0.0191824
868.035	0.0191006
868.113	0.0190814
868.192	0.0190816
868.270	0.0190655
868.348	0.0191318
868.426	0.0190305
868.504	0.0189720
868.582	0.0189189
868.660	0.0188862
868.738	0.0188514
868.817	0.0189389
868.895	0.0189024
868.973	0.0187651
869.051	0.0189162
869.129	0.0187864
869.207	0.0187199
869.285	0.0186236
869.363	0.0186481
869.442	0.0185596
869.520	0.0186147
869.598	0.0186291
869.676	0.0186583
869.754	0.0186423
869.832	0.0188078
869.910	0.0187116
869.988	0.0186797
870.067	0.0186626
870.145	0.0186791
870.223	0.0186084
870.301	0.0188527
870.379	0.0187289
870.457	0.0185441
870.535	0.0187116
870.613	0.0186712
870.692	0.0187546
870.770	0.0186607
870.848	0.0186765
870.926	0.0185902
871.004	0.0187139
871.082	0.0186774
871.160	0.0184605
871.238	0.0185687
871.317	0.0186732
871.395	0.0185813
871.473	0.0186427
871.551	0.0185782
871.629	0.0187212
871.707	0.0187262
871.785	0.0186120
871.863	0.0186753
871.942	0.0186968
872.020	0.0188224
872.098	0.0188358
872.176	0.0188814
872.254	0.0188309
872.332	0.0189462
872.410	0.0189975
872.488	0.0188911
872.567	0.0189926
872.645	0.0189821
872.723	0.0188482
872.801	0.0187698
872.879	0.0188894
872.957	0.0189763
873.035	0.0189295
873.113	0.0188660
873.192	0.0189139
873.270	0.0188274
873.348	0.0189767
873.426	0.0188293
873.504	0.0187846
873.582	0.0187222
873.660	0.0190462
873.738	0.0188528
873.817	0.0187897
873.895	0.0189030
873.973	0.0189922
874.051	0.0191601
874.129	0.0189127
874.207	0.0189565
874.285	0.0191505
874.363	0.0191741
874.442	0.0191873
874.520	0.0192316
874.598	0.0191570
874.676	0.0191891
874.754	0.0189477
874.832	0.0192370
874.910	0.0191846
874.988	0.0190357
875.067	0.0191296
875.145	0.0189992
875.223	0.0190128
875.301	0.0189873
875.379	0.0188220
875.457	0.0188677
875.535	0.0188740
875.613	0.0188219
875.692	0.0188948
875.770	0.0187018
875.848	0.0186285
875.926	0.0186226
876.004	0.0186054
876.082	0.0185908
876.160	0.0186868
876.238	0.0186483
876.317	0.0185358
876.395	0.0184774
876.473	0.0185664
876.551	0.0186627
876.629	0.0185246
876.707	0.0185686
876.785	0.0185798
876.863	0.0186691
876.942	0.0187045
877.020	0.0186343
877.098	0.0187034
877.176	0.0187172
877.254	0.0186985
877.332	0.0187508
877.410	0.0187367
877.488	0.0186786
877.567	0.0188696
877.645	0.0189056
877.723	0.0187900
877.801	0.0188152
877.879	0.0187405
877.957	0.0187949
878.035	0.0188155
878.113	0.0187189
878.192	0.0188093
878.270	0.0187924
878.348	0.0187645
878.426	0.0188330
878.504	0.0186115
878.582	0.0186205
878.660	0.0186764
878.738	0.0186158
878.817	0.0188166
878.895	0.0187418
878.973	0.0187419
879.051	0.0189697
879.129	0.0188261
879.207	0.0188230
879.285	0.0188951
879.363	0.0189645
879.442	0.0190089
879.520	0.0189294
879.598	0.0187193
879.676	0.0189735
879.754	0.0188990
879.832	0.0189352
879.910	0.0187723
879.988	0.0188207
880.067	0.0188168
880.145	0.0188389
880.223	0.0188269
880.301	0.0187876
880.379	0.0188157
880.457	0.0187804
880.535	0.0189570
880.613	0.0189459
880.692	0.0189870
880.770	0.0189911
880.848	0.0190429
880.926	0.0190108
881.004	0.0191174
881.082	0.0189937
881.160	0.0189436
881.238	0.0191368
881.317	0.0191216
881.395	0.0190372
881.473	0.0190374
881.551	0.0192579
881.629	0.0190923
881.707	0.0191088
881.785	0.0191182
881.863	0.0189939
881.942	0.0190832
882.020	0.0190919
882.098	0.0190949
882.176	0.0188551
882.254	0.0189323
882.332	0.0190262
882.410	0.0188453
882.488	0.0189024
882.567	0.0186665
882.645	0.0188050
882.723	0.0187563
882.801	0.0187144
882.879	0.0185552
882.957	0.0185592
883.035	0.0186536
883.113	0.0184609
883.192	0.0185747
883.270	0.0185313
883.348	0.0186134
883.426	0.0185793
883.504	0.0186366
883.582	0.0187515
883.660	0.0187367
883.738	0.0187781
883.817	0.0185805
883.895	0.0187180
883.973	0.0186365
884.051	0.0185897
884.129	0.0188175
884.207	0.0188365
884.285	0.0186404
884.363	0.0188403
884.442	0.0187142
884.520	0.0188418
884.598	0.0187651
884.676	0.0189560
884.754	0.0189725
884.832	0.0189087
884.910	0.0189683
884.988	0.0189117
885.067	0.0191299
885.145	0.0190936
885.223	0.0189999
885.301	0.0189368
885.379	0.0191799
885.457	0.0191376
885.535	0.0190433
885.613	0.0190106
885.692	0.0189934
885.770	0.0190891
885.848	0.0190075
885.926	0.0189685
886.004	0.0189866
886.082	0.0189511
886.160	0.0188392
886.238	0.0189246
886.317	0.0188560
886.395	0.0187772
886.473	0.0189573
886.551	0.0189522
886.629	0.0187735
886.707	0.0187868
886.785	0.0188107
886.863	0.0188370
886.942	0.0187843
887.020	0.0185996
887.098	0.0186330
887.176	0.0187105
887.254	0.0185248
887.332	0.0184998
887.410	0.0186492
887.488	0.0185755
887.567	0.0185867
887.645	0.0186034
887.723	0.0187243
887.801	0.0188484
887.879	0.0188551
887.957	0.0187347
888.035	0.0188404
888.113	0.0189112
888.192	0.0188943
888.270	0.0189451
888.348	0.0188102
888.426	0.0189048
888.504	0.0190430
888.582	0.0189171
888.660	0.0188406
888.738	0.0188585
888.817	0.0189921
888.895	0.0189113
888.973	0.0190128
889.051	0.0188242
889.129	0.0187992
889.207	0.0187868
889.285	0.0187140
889.363	0.0189062
889.442	0.0189484
889.520	0.0189236
889.598	0.0188806
889.676	0.0188090
889.754	0.0187613
889.832	0.0189470
889.910	0.0188589
889.988	0.0187863
890.067	0.0186230
890.145	0.0186475
890.223	0.0187617
890.301	0.0187511
890.379	0.0187247
890.457	0.0187302
890.535	0.0187184
890.613	0.0188223
890.692	0.0188480
890.770	0.0185635
890.848	0.0186711
890.926	0.0186629
891.004	0.0187059
891.082	0.0187081
891.160	0.0187727
891.238	0.0187685
891.317	0.0186989
891.395	0.0186646
891.473	0.0188489
891.551	0.0189059
891.629	0.0188020
891.707	0.0187723
891.785	0.0187984
891.863	0.0189998
891.942	0.0188409
892.020	0.0189036
892.098	0.0189349
892.176	0.0189815
892.254	0.0188927
892.332	0.0188577
892.410	0.0188651
892.488	0.0189138
892.567	0.0190368
892.645	0.0188011
892.723	0.0189113
892.801	0.0190211
892.879	0.0188667
892.957	0.0189242
893.035	0.0188796
893.113	0.0187227
893.192	0.0189029
893.270	0.0188542
893.348	0.0188378
893.426	0.0190063
893.504	0.0188477
893.582	0.0187453
893.660	0.0187879
893.738	0.0189422
893.817	0.0187952
893.895	0.0187772
893.973	0.0188485
894.051	0.0187541
894.129	0.0187450
894.207	0.0189657
894.285	0.0188075
894.363	0.0187860
894.442	0.0187513
894.520	0.0188331
894.598	0.0187209
894.676	0.0188305
894.754	0.0187875
894.832	0.0187395
894.910	0.0188043
894.988	0.0187128
895.067	0.0186814
895.145	0.0188245
895.223	0.0188860
895.301	0.0187675
895.379	0.0188041
895.457	0.0186780
895.535	0.0187792
895.613	0.0187401
895.692	0.0188992
895.770	0.0188793
895.848	0.0189455
895.926	0.0189582
896.004	0.0188671
896.082	0.0188549
896.160	0.0187016
896.238	0.0188777
896.317	0.0188126
896.395	0.0188415
896.473	0.0189613
896.551	0.0188210
896.629	0.0187850
896.707	0.0188205
896.785	0.0187887
896.863	0.0187282
896.942	0.0187746
897.020	0.0185744
897.098	0.0186531
897.176	0.0188461
897.254	0.0187710
897.332	0.0186517
897.410	0.0187574
897.488	0.0186703
897.567	0.0187540
897.645	0.0187093
897.723	0.0186752
897.801	0.0186410
897.879	0.0187893
897.957	0.0186812
898.035	0.0186965
898.113	0.0188137
898.192	0.0187529
898.270	0.0187324
898.348	0.0186432
898.426	0.0186900
898.504	0.0189554
898.582	0.0187183
898.660	0.0187818
898.738	0.0188095
898.817	0.0188870
898.895	0.0190382
898.973	0.0190018
899.051	0.0189802
899.129	0.0190050
899.207	0.0190730
899.285	0.0189407
899.363	0.0191230
899.442	0.0191084
899.520	0.0192338
899.598	0.0190763
899.676	0.0190099
899.754	0.0190868
899.832	0.0190736
899.910	0.0189094
899.988	0.0191724
900.067	0.0189533
900.145	0.0189151
900.223	0.0189649
900.301	0.0189146
900.379	0.0188329
900.457	0.0188879
900.535	0.0187014
900.613	0.0186865
900.692	0.0186850
900.770	0.0187778
900.848	0.0186684
900.926	0.0187952
901.004	0.0186266
901.082	0.0186127
901.160	0.0187812
901.238	0.0186504
901.317	0.0187844
901.395	0.0187758
901.473	0.0185206
901.551	0.0185340
901.629	0.0186087
901.707	0.0185979
901.785	0.0186858
901.863	0.0185982
901.942	0.0185071
902.020	0.0186577
902.098	0.0185973
902.176	0.0187157
902.254	0.0188174
902.332	0.0187444
902.410	0.0188775
902.488	0.0189310
902.567	0.0189680
902.645	0.0189904
902.723	0.0188346
902.801	0.0188954
902.879	0.0191187
902.957	0.0189864
903.035	0.0189954
903.113	0.0189983
903.192	0.0190326
903.270	0.0190571
903.348	0.0189380
903.426	0.0189088
903.504	0.0189803
903.582	0.0190620
903.660	0.0190070
903.738	0.0189491
903.817	0.0189022
903.895	0.0188177
903.973	0.0188509
904.051	0.0187887
904.129	0.0187254
904.207	0.0187132
904.285	0.0186957
904.363	0.0186642
904.442	0.0185835
904.520	0.0184591
904.598	0.0186533
904.676	0.0185732
904.754	0.0188100
904.832	0.0186105
904.910	0.0186016
904.988	0.0187862
905.067	0.0187888
905.145	0.0188325
905.223	0.0189238
905.301	0.0188976
905.379	0.0190232
905.457	0.0189803
905.535	0.0190123
905.613	0.0191863
905.692	0.0190739
905.770	0.0190903
905.848	0.0190560
905.926	0.0190616
906.004	0.0190699
906.082	0.0190231
906.160	0.0191812
906.238	0.0189999
906.317	0.0189734
906.395	0.0189355
906.473	0.0188377
906.551	0.0189611
906.629	0.0188281
906.707	0.0187621
906.785	0.0188152
906.863	0.0187678
906.942	0.0186803
907.020	0.0187581
907.098	0.0185770
907.176	0.0186344
907.254	0.0185777
907.332	0.0185645
907.410	0.0186044
907.488	0.0185715
907.567	0.0186966
907.645	0.0185966
907.723	0.0185174
907.801	0.0186468
907.879	0.0187714
907.957	0.0186672
908.035	0.0188872
908.113	0.0187339
908.192	0.0188412
908.270	0.0189239
908.348	0.0190519
908.426	0.0189877
908.504	0.0189570
908.582	0.0188954
908.660	0.0190673
908.738	0.0190850
908.817	0.0190328
908.895	0.0190251
908.973	0.0190543
909.051	0.0190435
909.129	0.0189497
909.207	0.0189156
909.285	0.0189266
909.363	0.0187877
909.442	0.0188132
909.520	0.0187663
909.598	0.0189223
909.676	0.0188055
909.754	0.0188055
909.832	0.0186597
909.910	0.0186350
909.988	0.0187056
910.067	0.0186615
910.145	0.0186333
910.223	0.0186631
910.301	0.0186239
910.379	0.0186664
910.457	0.0186917
910.535	0.0187975
910.613	0.0187615
910.692	0.0189040
910.770	0.0188534
910.848	0.0187888
910.926	0.0187788
911.004	0.0187525
911.082	0.0188692
911.160	0.0188339
911.238	0.0188530
911.317	0.0189297
911.395	0.0188210
911.473	0.0188432
911.551	0.0188123
911.629	0.0189634
911.707	0.0187652
911.785	0.0188297
911.863	0.0187804
911.942	0.0188197
912.020	0.0189526
912.098	0.0188288
912.176	0.0188958
912.254	0.0187999
912.332	0.0187411
912.410	0.0188271
912.488	0.0188400
912.567	0.0187608
912.645	0.0188457
912.723	0.0186616
912.801	0.0186823
912.879	0.0188254
912.957	0.0188976
913.035	0.0189069
913.113	0.0188898
913.192	0.0188027
913.270	0.0187737
913.348	0.0187886
913.426	0.0188200
913.504	0.0187381
913.582	0.0186842
913.660	0.0186797
913.738	0.0185799
913.817	0.0185664
913.895	0.0186865
913.973	0.0184720
914.051	0.0184052
914.129	0.0184846
914.207	0.0185326
914.285	0.0185715
914.363	0.0185185
914.442	0.0185744
914.520	0.0185575
914.598	0.0185973
914.676	0.0187339
914.754	0.0188529
914.832	0.0188510
914.910	0.0187185
914.988	0.0188262
915.067	0.0190444
915.145	0.0189944
915.223	0.0190704
915.301	0.0191331
915.379	0.0191663
915.457	0.0192074
915.535	0.0191780
915.613	0.0193181
915.692	0.0193707
915.770	0.0192780
915.848	0.0194788
915.926	0.0193927
916.004	0.0191358
916.082	0.0193004
916.160	0.0191882
916.238	0.0191370
916.317	0.0190748
916.395	0.0189048
916.473	0.0189128
916.551	0.0187191
916.629	0.0189481
916.707	0.0187654
916.785	0.0185727
916.863	0.0186568
916.942	0.0187870
917.020	0.0187700
917.098	0.0186858
917.176	0.0185712
917.254	0.0186805
917.332	0.0187313
917.410	0.0186705
917.488	0.0189067
917.567	0.0188326
917.645	0.0187317
917.723	0.0189061
917.801	0.0187953
917.879	0.0187393
917.957	0.0188419
918.035	0.0188109
918.113	0.0187832
918.192	0.0188528
918.270	0.0187543
918.348	0.0186692
918.426	0.0187126
918.504	0.0187021
918.582	0.0186309
918.660	0.0185505
918.738	0.0185558
918.817	0.0185025
918.895	0.0184635
918.973	0.0184893
919.051	0.0186137
919.129	0.0185667
919.207	0.0185040
919.285	0.0185744
919.363	0.0186240
919.442	0.0186427
919.520	0.0187708
919.598	0.0186650
919.676	0.0188475
919.754	0.0189148
919.832	0.0188905
919.910	0.0189816
