06/01/2022	21:50:48	Ver.	4.1	UNKNOWN
Optical Delay	599.988409	Delta X		0.078125	Sweeps	1	Scan Rate	0/0
Coordinates	Axis 1	NaN	Axis 2	NaN	Axis 3	NaN	Axis 4	NaN	Axis 5	NaN	Axis 6	0.000000
TX Power	0.000000	RX Power	0.000000

599.988	0.0191453
600.067	0.0192363
600.145	0.0190185
600.223	0.0192232
600.301	0.0191405
600.379	0.0190961
600.457	0.0190215
600.535	0.0190562
600.613	0.0191674
600.692	0.0190874
600.770	0.0191037
600.848	0.0191103
600.926	0.0190367
601.004	0.0189952
601.082	0.0190380
601.160	0.0192223
601.238	0.0190928
601.317	0.0190604
601.395	0.0190987
601.473	0.0191804
601.551	0.0190452
601.629	0.0189443
601.707	0.0191578
601.785	0.0191403
601.863	0.0191687
601.942	0.0191730
602.020	0.0190627
602.098	0.0190890
602.176	0.0190451
602.254	0.0191162
602.332	0.0190534
602.410	0.0191109
602.488	0.0191336
602.567	0.0191119
602.645	0.0190499
602.723	0.0190571
602.801	0.0190596
602.879	0.0191154
602.957	0.0191280
603.035	0.0190643
603.113	0.0190932
603.192	0.0190912
603.270	0.0190921
603.348	0.0191134
603.426	0.0192918
603.504	0.0192039
603.582	0.0190685
603.660	0.0191110
603.738	0.0191216
603.817	0.0190830
603.895	0.0191814
603.973	0.0191760
604.051	0.0191679
604.129	0.0190665
604.207	0.0191656
604.285	0.0191025
604.363	0.0189745
604.442	0.0191609
604.520	0.0190174
604.598	0.0190198
604.676	0.0192062
604.754	0.0191798
604.832	0.0191030
604.910	0.0191763
604.988	0.0189984
605.067	0.0191450
605.145	0.0191679
605.223	0.0189841
605.301	0.0190850
605.379	0.0189771
605.457	0.0190269
605.535	0.0190851
605.613	0.0190159
605.692	0.0191267
605.770	0.0191933
605.848	0.0190797
605.926	0.0191621
606.004	0.0191340
606.082	0.0189829
606.160	0.0192412
606.238	0.0190297
606.317	0.0191782
606.395	0.0190612
606.473	0.0190521
606.551	0.0191246
606.629	0.0191114
606.707	0.0191558
606.785	0.0191030
606.863	0.0191195
606.942	0.0190629
607.020	0.0190100
607.098	0.0190540
607.176	0.0190372
607.254	0.0190312
607.332	0.0191657
607.410	0.0190676
607.488	0.0190602
607.567	0.0191721
607.645	0.0192400
607.723	0.0191615
607.801	0.0191059
607.879	0.0191940
607.957	0.0190929
608.035	0.0189986
608.113	0.0191312
608.192	0.0191580
608.270	0.0190728
608.348	0.0189812
608.426	0.0190173
608.504	0.0191884
608.582	0.0191508
608.660	0.0191725
608.738	0.0191084
608.817	0.0191433
608.895	0.0191076
608.973	0.0190453
609.051	0.0188976
609.129	0.0189963
609.207	0.0191288
609.285	0.0191247
609.363	0.0189970
609.442	0.0191223
609.520	0.0191275
609.598	0.0191326
609.676	0.0191663
609.754	0.0191360
609.832	0.0190821
609.910	0.0191678
609.988	0.0190960
610.067	0.0190276
610.145	0.0191386
610.223	0.0191205
610.301	0.0191765
610.379	0.0191089
610.457	0.0192800
610.535	0.0191663
610.613	0.0192063
610.692	0.0191673
610.770	0.0191730
610.848	0.0189644
610.926	0.0193106
611.004	0.0192410
611.082	0.0191733
611.160	0.0190308
611.238	0.0191481
611.317	0.0190479
611.395	0.0190585
611.473	0.0191454
611.551	0.0191518
611.629	0.0191274
611.707	0.0191000
611.785	0.0190517
611.863	0.0191841
611.942	0.0191290
612.020	0.0190817
612.098	0.0190369
612.176	0.0191473
612.254	0.0190784
612.332	0.0190451
612.410	0.0190839
612.488	0.0191914
612.567	0.0190741
612.645	0.0190886
612.723	0.0191138
612.801	0.0192123
612.879	0.0191778
612.957	0.0191702
613.035	0.0190984
613.113	0.0191018
613.192	0.0191425
613.270	0.0190367
613.348	0.0190711
613.426	0.0190981
613.504	0.0189461
613.582	0.0192282
613.660	0.0191254
613.738	0.0190047
613.817	0.0190610
613.895	0.0190798
613.973	0.0190659
614.051	0.0192024
614.129	0.0190984
614.207	0.0191075
614.285	0.0191449
614.363	0.0191312
614.442	0.0190536
614.520	0.0190661
614.598	0.0191354
614.676	0.0191225
614.754	0.0190464
614.832	0.0191122
614.910	0.0191180
614.988	0.0191734
615.067	0.0191207
615.145	0.0190658
615.223	0.0190753
615.301	0.0192237
615.379	0.0191766
615.457	0.0190686
615.535	0.0190850
615.613	0.0191793
615.692	0.0190827
615.770	0.0190985
615.848	0.0190795
615.926	0.0191292
616.004	0.0192423
616.082	0.0191258
616.160	0.0191833
616.238	0.0190739
616.317	0.0189765
616.395	0.0190989
616.473	0.0191398
616.551	0.0191376
616.629	0.0191796
616.707	0.0190585
616.785	0.0191465
616.863	0.0191019
616.942	0.0191674
617.020	0.0191299
617.098	0.0190383
617.176	0.0190534
617.254	0.0191985
617.332	0.0192214
617.410	0.0190195
617.488	0.0190286
617.567	0.0191382
617.645	0.0191731
617.723	0.0191245
617.801	0.0192333
617.879	0.0191480
617.957	0.0189824
618.035	0.0190336
618.113	0.0191108
618.192	0.0192233
618.270	0.0190993
618.348	0.0191133
618.426	0.0191757
618.504	0.0191395
618.582	0.0192347
618.660	0.0189651
618.738	0.0190066
618.817	0.0191430
618.895	0.0191261
618.973	0.0191901
619.051	0.0190868
619.129	0.0189964
619.207	0.0191002
619.285	0.0192487
619.363	0.0191595
619.442	0.0191467
619.520	0.0191512
619.598	0.0190722
619.676	0.0190321
619.754	0.0190801
619.832	0.0191737
619.910	0.0190240
619.988	0.0192259
620.067	0.0191447
620.145	0.0191479
620.223	0.0191222
620.301	0.0191960
620.379	0.0190619
620.457	0.0190515
620.535	0.0191250
620.613	0.0191824
620.692	0.0190852
620.770	0.0190619
620.848	0.0190012
620.926	0.0191786
621.004	0.0192345
621.082	0.0192004
621.160	0.0190675
621.238	0.0190046
621.317	0.0192474
621.395	0.0191035
621.473	0.0191583
621.551	0.0192075
621.629	0.0190407
621.707	0.0191928
621.785	0.0192487
621.863	0.0192699
621.942	0.0191374
622.020	0.0191598
622.098	0.0191341
622.176	0.0192189
622.254	0.0192901
622.332	0.0191564
622.410	0.0191335
622.488	0.0190269
622.567	0.0191707
622.645	0.0190681
622.723	0.0191017
622.801	0.0191042
622.879	0.0190575
622.957	0.0190840
623.035	0.0192434
623.113	0.0191857
623.192	0.0191354
623.270	0.0191827
623.348	0.0191508
623.426	0.0190836
623.504	0.0190633
623.582	0.0190128
623.660	0.0190282
623.738	0.0190865
623.817	0.0190771
623.895	0.0190809
623.973	0.0189407
624.051	0.0190607
624.129	0.0191724
624.207	0.0190665
624.285	0.0190974
624.363	0.0191725
624.442	0.0191088
624.520	0.0192149
624.598	0.0190087
624.676	0.0190868
624.754	0.0192462
624.832	0.0191145
624.910	0.0190399
624.988	0.0191528
625.067	0.0190536
625.145	0.0191380
625.223	0.0191277
625.301	0.0189792
625.379	0.0190083
625.457	0.0191009
625.535	0.0190750
625.613	0.0191678
625.692	0.0190917
625.770	0.0191492
625.848	0.0190208
625.926	0.0190966
626.004	0.0191396
626.082	0.0190954
626.160	0.0191399
626.238	0.0191529
626.317	0.0190025
626.395	0.0190762
626.473	0.0191782
626.551	0.0191019
626.629	0.0192551
626.707	0.0191447
626.785	0.0189317
626.863	0.0190762
626.942	0.0191431
627.020	0.0192009
627.098	0.0192740
627.176	0.0191875
627.254	0.0191624
627.332	0.0191918
627.410	0.0191405
627.488	0.0190755
627.567	0.0190472
627.645	0.0191448
627.723	0.0190696
627.801	0.0190005
627.879	0.0191615
627.957	0.0190083
628.035	0.0190458
628.113	0.0190259
628.192	0.0190823
628.270	0.0192403
628.348	0.0191170
628.426	0.0191927
628.504	0.0191718
628.582	0.0191327
628.660	0.0191625
628.738	0.0192116
628.817	0.0191060
628.895	0.0191420
628.973	0.0191138
629.051	0.0191444
629.129	0.0191981
629.207	0.0191286
629.285	0.0190867
629.363	0.0191010
629.442	0.0190056
629.520	0.0191262
629.598	0.0190793
629.676	0.0192341
629.754	0.0190736
629.832	0.0191154
629.910	0.0189652
629.988	0.0191993
630.067	0.0193317
630.145	0.0191101
630.223	0.0192169
630.301	0.0191823
630.379	0.0190784
630.457	0.0190398
630.535	0.0191170
630.613	0.0191403
630.692	0.0190587
630.770	0.0192564
630.848	0.0191103
630.926	0.0191548
631.004	0.0191067
631.082	0.0189774
631.160	0.0190653
631.238	0.0190793
631.317	0.0191605
631.395	0.0190816
631.473	0.0192445
631.551	0.0191349
631.629	0.0191080
631.707	0.0191531
631.785	0.0191278
631.863	0.0190989
631.942	0.0191741
632.020	0.0191072
632.098	0.0192420
632.176	0.0192013
632.254	0.0192018
632.332	0.0191382
632.410	0.0191597
632.488	0.0191772
632.567	0.0192864
632.645	0.0191251
632.723	0.0191376
632.801	0.0190157
632.879	0.0192175
632.957	0.0192973
633.035	0.0190497
633.113	0.0190509
633.192	0.0191293
633.270	0.0191163
633.348	0.0188727
633.426	0.0190841
633.504	0.0191846
633.582	0.0189771
633.660	0.0190403
633.738	0.0192007
633.817	0.0190820
633.895	0.0191290
633.973	0.0192051
634.051	0.0191911
634.129	0.0191825
634.207	0.0190899
634.285	0.0190957
634.363	0.0191904
634.442	0.0192223
634.520	0.0192130
634.598	0.0191142
634.676	0.0190697
634.754	0.0190250
634.832	0.0191137
634.910	0.0191682
634.988	0.0190199
635.067	0.0190690
635.145	0.0190781
635.223	0.0190675
635.301	0.0190545
635.379	0.0190279
635.457	0.0191469
635.535	0.0190724
635.613	0.0190204
635.692	0.0190291
635.770	0.0191148
635.848	0.0191633
635.926	0.0190965
636.004	0.0192175
636.082	0.0190408
636.160	0.0190681
636.238	0.0191948
636.317	0.0191801
636.395	0.0191791
636.473	0.0190210
636.551	0.0190199
636.629	0.0191146
636.707	0.0190076
636.785	0.0192499
636.863	0.0189455
636.942	0.0190472
637.020	0.0190308
637.098	0.0190935
637.176	0.0191490
637.254	0.0190931
637.332	0.0191270
637.410	0.0191019
637.488	0.0190913
637.567	0.0191994
637.645	0.0191521
637.723	0.0191083
637.801	0.0191776
637.879	0.0190915
637.957	0.0190828
638.035	0.0191983
638.113	0.0190419
638.192	0.0190802
638.270	0.0190594
638.348	0.0189884
638.426	0.0190845
638.504	0.0191727
638.582	0.0191413
638.660	0.0191228
638.738	0.0192574
638.817	0.0192045
638.895	0.0192910
638.973	0.0190986
639.051	0.0190680
639.129	0.0190249
639.207	0.0193527
639.285	0.0191915
639.363	0.0189822
639.442	0.0190778
639.520	0.0192747
639.598	0.0191442
639.676	0.0190518
639.754	0.0189870
639.832	0.0190765
639.910	0.0190040
639.988	0.0191337
640.067	0.0190695
640.145	0.0190244
640.223	0.0191578
640.301	0.0191227
640.379	0.0190941
640.457	0.0191075
640.535	0.0189761
640.613	0.0190825
640.692	0.0191216
640.770	0.0191459
640.848	0.0189957
640.926	0.0191331
641.004	0.0191688
641.082	0.0189989
641.160	0.0189381
641.238	0.0191635
641.317	0.0191070
641.395	0.0190907
641.473	0.0189502
641.551	0.0191766
641.629	0.0190016
641.707	0.0190804
641.785	0.0191376
641.863	0.0192130
641.942	0.0192183
642.020	0.0190084
642.098	0.0191714
642.176	0.0191054
642.254	0.0191473
642.332	0.0191663
642.410	0.0192001
642.488	0.0192445
642.567	0.0191830
642.645	0.0192759
642.723	0.0190852
642.801	0.0191470
642.879	0.0190494
642.957	0.0190677
643.035	0.0192442
643.113	0.0190827
643.192	0.0190004
643.270	0.0191992
643.348	0.0189610
643.426	0.0190978
643.504	0.0191000
643.582	0.0190757
643.660	0.0191383
643.738	0.0191566
643.817	0.0193276
643.895	0.0192183
643.973	0.0191929
644.051	0.0191826
644.129	0.0192980
644.207	0.0193201
644.285	0.0192204
644.363	0.0191879
644.442	0.0191525
644.520	0.0190080
644.598	0.0191145
644.676	0.0191360
644.754	0.0191090
644.832	0.0189996
644.910	0.0190305
644.988	0.0190025
645.067	0.0190386
645.145	0.0190838
645.223	0.0190105
645.301	0.0190621
645.379	0.0190474
645.457	0.0190100
645.535	0.0192052
645.613	0.0192986
645.692	0.0192172
645.770	0.0192308
645.848	0.0193171
645.926	0.0192384
646.004	0.0192361
646.082	0.0191265
646.160	0.0191814
646.238	0.0191617
646.317	0.0190601
646.395	0.0191207
646.473	0.0190472
646.551	0.0190215
646.629	0.0188664
646.707	0.0189442
646.785	0.0189446
646.863	0.0189794
646.942	0.0189340
647.020	0.0189645
647.098	0.0190021
647.176	0.0190129
647.254	0.0190091
647.332	0.0190614
647.410	0.0191107
647.488	0.0190161
647.567	0.0190909
647.645	0.0191227
647.723	0.0190688
647.801	0.0190881
647.879	0.0192216
647.957	0.0190759
648.035	0.0190988
648.113	0.0191549
648.192	0.0190616
648.270	0.0191748
648.348	0.0191125
648.426	0.0191153
648.504	0.0190769
648.582	0.0190475
648.660	0.0191618
648.738	0.0190266
648.817	0.0190916
648.895	0.0191072
648.973	0.0190851
649.051	0.0189647
649.129	0.0190298
649.207	0.0190526
649.285	0.0191296
649.363	0.0190363
649.442	0.0190064
649.520	0.0189272
649.598	0.0190904
649.676	0.0190783
649.754	0.0191692
649.832	0.0192125
649.910	0.0192776
649.988	0.0192042
650.067	0.0192190
650.145	0.0192218
650.223	0.0191924
650.301	0.0192846
650.379	0.0192122
650.457	0.0192176
650.535	0.0191805
650.613	0.0190734
650.692	0.0190238
650.770	0.0190421
650.848	0.0189361
650.926	0.0188651
651.004	0.0189164
651.082	0.0189306
651.160	0.0189809
651.238	0.0191064
651.317	0.0190565
651.395	0.0190830
651.473	0.0192625
651.551	0.0191674
651.629	0.0193076
651.707	0.0194676
651.785	0.0194825
651.863	0.0193340
651.942	0.0194266
652.020	0.0193819
652.098	0.0193162
652.176	0.0191755
652.254	0.0191988
652.332	0.0191677
652.410	0.0190020
652.488	0.0189184
652.567	0.0190753
652.645	0.0189024
652.723	0.0189622
652.801	0.0189639
652.879	0.0189322
652.957	0.0189427
653.035	0.0190791
653.113	0.0191074
653.192	0.0191255
653.270	0.0190767
653.348	0.0190294
653.426	0.0192808
653.504	0.0191340
653.582	0.0191022
653.660	0.0194557
653.738	0.0193947
653.817	0.0192696
653.895	0.0191782
653.973	0.0192284
654.051	0.0192057
654.129	0.0191732
654.207	0.0191247
654.285	0.0192150
654.363	0.0192110
654.442	0.0189722
654.520	0.0190202
654.598	0.0190572
654.676	0.0189232
654.754	0.0191187
654.832	0.0191033
654.910	0.0189996
654.988	0.0189858
655.067	0.0192547
655.145	0.0191250
655.223	0.0191071
655.301	0.0193469
655.379	0.0191708
655.457	0.0191142
655.535	0.0191310
655.613	0.0192313
655.692	0.0191828
655.770	0.0192680
655.848	0.0192253
655.926	0.0191766
656.004	0.0191424
656.082	0.0192036
656.160	0.0191943
656.238	0.0192539
656.317	0.0193845
656.395	0.0192825
656.473	0.0191848
656.551	0.0191219
656.629	0.0191631
656.707	0.0191085
656.785	0.0191106
656.863	0.0190810
656.942	0.0191413
657.020	0.0190726
657.098	0.0190148
657.176	0.0190672
657.254	0.0191074
657.332	0.0191947
657.410	0.0191597
657.488	0.0190809
657.567	0.0191585
657.645	0.0190512
657.723	0.0192337
657.801	0.0190762
657.879	0.0190523
657.957	0.0192143
658.035	0.0190814
658.113	0.0192090
658.192	0.0192487
658.270	0.0191473
658.348	0.0193062
658.426	0.0192926
658.504	0.0192475
658.582	0.0191695
658.660	0.0192703
658.738	0.0191067
658.817	0.0191204
658.895	0.0193269
658.973	0.0192175
659.051	0.0191238
659.129	0.0191000
659.207	0.0191874
659.285	0.0191306
659.363	0.0192127
659.442	0.0191007
659.520	0.0191776
659.598	0.0190355
659.676	0.0189803
659.754	0.0191471
659.832	0.0189898
659.910	0.0189481
659.988	0.0189880
660.067	0.0190263
660.145	0.0190891
660.223	0.0189867
660.301	0.0189248
660.379	0.0191533
660.457	0.0190581
660.535	0.0190608
660.613	0.0191581
660.692	0.0192150
660.770	0.0192777
660.848	0.0192116
660.926	0.0194183
661.004	0.0193301
661.082	0.0192107
661.160	0.0193233
661.238	0.0192995
661.317	0.0192420
661.395	0.0190537
661.473	0.0190688
661.551	0.0191019
661.629	0.0191113
661.707	0.0190164
661.785	0.0188493
661.863	0.0187898
661.942	0.0190152
662.020	0.0188348
662.098	0.0189018
662.176	0.0189086
662.254	0.0188909
662.332	0.0189864
662.410	0.0189001
662.488	0.0189752
662.567	0.0190649
662.645	0.0191738
662.723	0.0193349
662.801	0.0192994
662.879	0.0194196
662.957	0.0193639
663.035	0.0194585
663.113	0.0193632
663.192	0.0194932
663.270	0.0193919
663.348	0.0192492
663.426	0.0190102
663.504	0.0190492
663.582	0.0190855
663.660	0.0189696
663.738	0.0189035
663.817	0.0189742
663.895	0.0189079
663.973	0.0187211
664.051	0.0187682
664.129	0.0187813
664.207	0.0189026
664.285	0.0188102
664.363	0.0187447
664.442	0.0187941
664.520	0.0188838
664.598	0.0188976
664.676	0.0191766
664.754	0.0192280
664.832	0.0191669
664.910	0.0192584
664.988	0.0192528
665.067	0.0193737
665.145	0.0194766
665.223	0.0193449
665.301	0.0193550
665.379	0.0193369
665.457	0.0194356
665.535	0.0193248
665.613	0.0192126
665.692	0.0190724
665.770	0.0190048
665.848	0.0190775
665.926	0.0189460
666.004	0.0189789
666.082	0.0187206
666.160	0.0188342
666.238	0.0188797
666.317	0.0187402
666.395	0.0188541
666.473	0.0188920
666.551	0.0190292
666.629	0.0191137
666.707	0.0191026
666.785	0.0191856
666.863	0.0191814
666.942	0.0193474
667.020	0.0192540
667.098	0.0193868
667.176	0.0194180
667.254	0.0194736
667.332	0.0193705
667.410	0.0192613
667.488	0.0193512
667.567	0.0192948
667.645	0.0192300
667.723	0.0191529
667.801	0.0189592
667.879	0.0190733
667.957	0.0191121
668.035	0.0190840
668.113	0.0189646
668.192	0.0189269
668.270	0.0190108
668.348	0.0189649
668.426	0.0190994
668.504	0.0190645
668.582	0.0189294
668.660	0.0191394
668.738	0.0192497
668.817	0.0191003
668.895	0.0190475
668.973	0.0190916
669.051	0.0191247
669.129	0.0190483
669.207	0.0189417
669.285	0.0190730
669.363	0.0189405
669.442	0.0191599
669.520	0.0190466
669.598	0.0190372
669.676	0.0191284
669.754	0.0190965
669.832	0.0191422
669.910	0.0191750
669.988	0.0190829
670.067	0.0190611
670.145	0.0192175
670.223	0.0192322
670.301	0.0192524
670.379	0.0193150
670.457	0.0192926
670.535	0.0191612
670.613	0.0192586
670.692	0.0191702
670.770	0.0191220
670.848	0.0191657
670.926	0.0191129
671.004	0.0190741
671.082	0.0191022
671.160	0.0192184
671.238	0.0190791
671.317	0.0189791
671.395	0.0189020
671.473	0.0189938
671.551	0.0189651
671.629	0.0190229
671.707	0.0190775
671.785	0.0190092
671.863	0.0189507
671.942	0.0189281
672.020	0.0190882
672.098	0.0191386
672.176	0.0191904
672.254	0.0192107
672.332	0.0192406
672.410	0.0192425
672.488	0.0192576
672.567	0.0193109
672.645	0.0192116
672.723	0.0192564
672.801	0.0191439
672.879	0.0191058
672.957	0.0191756
673.035	0.0190762
673.113	0.0189225
673.192	0.0188871
673.270	0.0188462
673.348	0.0188337
673.426	0.0187777
673.504	0.0186986
673.582	0.0189322
673.660	0.0188744
673.738	0.0188392
673.817	0.0191238
673.895	0.0191222
673.973	0.0191127
674.051	0.0191910
674.129	0.0191528
674.207	0.0191802
674.285	0.0193729
674.363	0.0193474
674.442	0.0192607
674.520	0.0192614
674.598	0.0193898
674.676	0.0193151
674.754	0.0191222
674.832	0.0190465
674.910	0.0191245
674.988	0.0191588
675.067	0.0191254
675.145	0.0191531
675.223	0.0190555
675.301	0.0190565
675.379	0.0188160
675.457	0.0189656
675.535	0.0190306
675.613	0.0189835
675.692	0.0190430
675.770	0.0189238
675.848	0.0190420
675.926	0.0191200
676.004	0.0190989
676.082	0.0192970
676.160	0.0192221
676.238	0.0193275
676.317	0.0194125
676.395	0.0193667
676.473	0.0195110
676.551	0.0194683
676.629	0.0195523
676.707	0.0195836
676.785	0.0195079
676.863	0.0192809
676.942	0.0193815
677.020	0.0190606
677.098	0.0188482
677.176	0.0190364
677.254	0.0186595
677.332	0.0185749
677.410	0.0186771
677.488	0.0185507
677.567	0.0184361
677.645	0.0183601
677.723	0.0185279
677.801	0.0185405
677.879	0.0186178
677.957	0.0189015
678.035	0.0188860
678.113	0.0189396
678.192	0.0191809
678.270	0.0193844
678.348	0.0193836
678.426	0.0195528
678.504	0.0195310
678.582	0.0196133
678.660	0.0195104
678.738	0.0196842
678.817	0.0196144
678.895	0.0195747
678.973	0.0194762
679.051	0.0194421
679.129	0.0194897
679.207	0.0192529
679.285	0.0190538
679.363	0.0191872
679.442	0.0189118
679.520	0.0188648
679.598	0.0188441
679.676	0.0185844
679.754	0.0184331
679.832	0.0184645
679.910	0.0185983
679.988	0.0185772
680.067	0.0186767
680.145	0.0189246
680.223	0.0190188
680.301	0.0191485
680.379	0.0194590
680.457	0.0196673
680.535	0.0197778
680.613	0.0200439
680.692	0.0200504
680.770	0.0200685
680.848	0.0199901
680.926	0.0199304
681.004	0.0200786
681.082	0.0197858
681.160	0.0194938
681.238	0.0192888
681.317	0.0192060
681.395	0.0189227
681.473	0.0185988
681.551	0.0184723
681.629	0.0182724
681.707	0.0181189
681.785	0.0181123
681.863	0.0180081
681.942	0.0179288
682.020	0.0179014
682.098	0.0181194
682.176	0.0181570
682.254	0.0182561
682.332	0.0185723
682.410	0.0187138
682.488	0.0187650
682.567	0.0189687
682.645	0.0195116
682.723	0.0195767
682.801	0.0197594
682.879	0.0198409
682.957	0.0201188
683.035	0.0200729
683.113	0.0202335
683.192	0.0202909
683.270	0.0203382
683.348	0.0202711
683.426	0.0201834
683.504	0.0201574
683.582	0.0200735
683.660	0.0199366
683.738	0.0197435
683.817	0.0196321
683.895	0.0194213
683.973	0.0190752
684.051	0.0190737
684.129	0.0188744
684.207	0.0186035
684.285	0.0184077
684.363	0.0185905
684.442	0.0183799
684.520	0.0183726
684.598	0.0182304
684.676	0.0181728
684.754	0.0182561
684.832	0.0181127
684.910	0.0180896
684.988	0.0180563
685.067	0.0180611
685.145	0.0179565
685.223	0.0180396
685.301	0.0179919
685.379	0.0181254
685.457	0.0182526
685.535	0.0183379
685.613	0.0185045
685.692	0.0185757
685.770	0.0188440
685.848	0.0192107
685.926	0.0193849
686.004	0.0196285
686.082	0.0198325
686.160	0.0201472
686.238	0.0202376
686.317	0.0202891
686.395	0.0206322
686.473	0.0206067
686.551	0.0205984
686.629	0.0206661
686.707	0.0204598
686.785	0.0205395
686.863	0.0203687
686.942	0.0201836
687.020	0.0202010
687.098	0.0200512
687.176	0.0197914
687.254	0.0196703
687.332	0.0195164
687.410	0.0193517
687.488	0.0191709
687.567	0.0191033
687.645	0.0188103
687.723	0.0185995
687.801	0.0184026
687.879	0.0181791
687.957	0.0180051
688.035	0.0176832
688.113	0.0174770
688.192	0.0174900
688.270	0.0171723
688.348	0.0169676
688.426	0.0170431
688.504	0.0171363
688.582	0.0171873
688.660	0.0173022
688.738	0.0173835
688.817	0.0176031
688.895	0.0178651
688.973	0.0181334
689.051	0.0183391
689.129	0.0187771
689.207	0.0190928
689.285	0.0193691
689.363	0.0196901
689.442	0.0200315
689.520	0.0203672
689.598	0.0204056
689.676	0.0208953
689.754	0.0213360
689.832	0.0213100
689.910	0.0215888
689.988	0.0216717
690.067	0.0214232
690.145	0.0215448
690.223	0.0215138
690.301	0.0214199
690.379	0.0211080
690.457	0.0210732
690.535	0.0209283
690.613	0.0205682
690.692	0.0203053
690.770	0.0199652
690.848	0.0196365
690.926	0.0192488
691.004	0.0188947
691.082	0.0187378
691.160	0.0183167
691.238	0.0181627
691.317	0.0179335
691.395	0.0178141
691.473	0.0177536
691.551	0.0176986
691.629	0.0175406
691.707	0.0175281
691.785	0.0174144
691.863	0.0173038
691.942	0.0171159
692.020	0.0171082
692.098	0.0169284
692.176	0.0167100
692.254	0.0165750
692.332	0.0164707
692.410	0.0165766
692.488	0.0164764
692.567	0.0165776
692.645	0.0165811
692.723	0.0170419
692.801	0.0173981
692.879	0.0178308
692.957	0.0182872
693.035	0.0188609
693.113	0.0192828
693.192	0.0199258
693.270	0.0204803
693.348	0.0209722
693.426	0.0213471
693.504	0.0216325
693.582	0.0219865
693.660	0.0221377
693.738	0.0224330
693.817	0.0225535
693.895	0.0225625
693.973	0.0224390
694.051	0.0224532
694.129	0.0221864
694.207	0.0220300
694.285	0.0221056
694.363	0.0217478
694.442	0.0215736
694.520	0.0212522
694.598	0.0208530
694.676	0.0206097
694.754	0.0203166
694.832	0.0199480
694.910	0.0196175
694.988	0.0193240
695.067	0.0189003
695.145	0.0185626
695.223	0.0182756
695.301	0.0179460
695.379	0.0174363
695.457	0.0174164
695.535	0.0172116
695.613	0.0167480
695.692	0.0164011
695.770	0.0163302
695.848	0.0161951
695.926	0.0160114
696.004	0.0161470
696.082	0.0161267
696.160	0.0160667
696.238	0.0161770
696.317	0.0164051
696.395	0.0165536
696.473	0.0169040
696.551	0.0169345
696.629	0.0174843
696.707	0.0177058
696.785	0.0180223
696.863	0.0183472
696.942	0.0188262
697.020	0.0190548
697.098	0.0193168
697.176	0.0197968
697.254	0.0202271
697.332	0.0203806
697.410	0.0206326
697.488	0.0207541
697.567	0.0210503
697.645	0.0213727
697.723	0.0213074
697.801	0.0214375
697.879	0.0215778
697.957	0.0214066
698.035	0.0213396
698.113	0.0213316
698.192	0.0214458
698.270	0.0213384
698.348	0.0212850
698.426	0.0210683
698.504	0.0210927
698.582	0.0210403
698.660	0.0208644
698.738	0.0207925
698.817	0.0204706
698.895	0.0201767
698.973	0.0198245
699.051	0.0194765
699.129	0.0188983
699.207	0.0184642
699.285	0.0181381
699.363	0.0176608
699.442	0.0171376
699.520	0.0168764
699.598	0.0164619
699.676	0.0162965
699.754	0.0161527
699.832	0.0162090
699.910	0.0161266
699.988	0.0162601
700.067	0.0164777
700.145	0.0168096
700.223	0.0170922
700.301	0.0173940
700.379	0.0178407
700.457	0.0182642
700.535	0.0188251
700.613	0.0190193
700.692	0.0197160
700.770	0.0200238
700.848	0.0203008
700.926	0.0206049
701.004	0.0209356
701.082	0.0210890
701.160	0.0212464
701.238	0.0214206
701.317	0.0213551
701.395	0.0215287
701.473	0.0214455
701.551	0.0212789
701.629	0.0212990
701.707	0.0212196
701.785	0.0209036
701.863	0.0207763
701.942	0.0206511
702.020	0.0204079
702.098	0.0200002
702.176	0.0196844
702.254	0.0194721
702.332	0.0189487
702.410	0.0185773
702.488	0.0181414
702.567	0.0177271
702.645	0.0174143
702.723	0.0171507
702.801	0.0168233
702.879	0.0169137
702.957	0.0168822
703.035	0.0167979
703.113	0.0169968
703.192	0.0173159
703.270	0.0174467
703.348	0.0178481
703.426	0.0181678
703.504	0.0183879
703.582	0.0186990
703.660	0.0189951
703.738	0.0191472
703.817	0.0193846
703.895	0.0194273
703.973	0.0196677
704.051	0.0196947
704.129	0.0197935
704.207	0.0197359
704.285	0.0197935
704.363	0.0199174
704.442	0.0199686
704.520	0.0199828
704.598	0.0198244
704.676	0.0198814
704.754	0.0198418
704.832	0.0196526
704.910	0.0195898
704.988	0.0195405
705.067	0.0192661
705.145	0.0190744
705.223	0.0191819
705.301	0.0190222
705.379	0.0190263
705.457	0.0190799
705.535	0.0191624
705.613	0.0191698
705.692	0.0193890
705.770	0.0195658
705.848	0.0196973
705.926	0.0198532
706.004	0.0199358
706.082	0.0198634
706.160	0.0200403
706.238	0.0197973
706.317	0.0196675
706.395	0.0194718
706.473	0.0194238
706.551	0.0190907
706.629	0.0188836
706.707	0.0187727
706.785	0.0186883
706.863	0.0185912
706.942	0.0185999
707.020	0.0184684
707.098	0.0186977
707.176	0.0186768
707.254	0.0187763
707.332	0.0187863
707.410	0.0188743
707.488	0.0188785
707.567	0.0190260
707.645	0.0190574
707.723	0.0193852
707.801	0.0194697
707.879	0.0195439
707.957	0.0196735
708.035	0.0197296
708.113	0.0199730
708.192	0.0200316
708.270	0.0199302
708.348	0.0201208
708.426	0.0201276
708.504	0.0200468
708.582	0.0197800
708.660	0.0198560
708.738	0.0195880
708.817	0.0193507
708.895	0.0191467
708.973	0.0189516
709.051	0.0187942
709.129	0.0185309
709.207	0.0182076
709.285	0.0179699
709.363	0.0176903
709.442	0.0171886
709.520	0.0171064
709.598	0.0167859
709.676	0.0165661
709.754	0.0162125
709.832	0.0162274
709.910	0.0161174
709.988	0.0160496
710.067	0.0161806
710.145	0.0163966
710.223	0.0166827
710.301	0.0169227
710.379	0.0174408
710.457	0.0176914
710.535	0.0182046
710.613	0.0187263
710.692	0.0191361
710.770	0.0195189
710.848	0.0199509
710.926	0.0203216
711.004	0.0209090
711.082	0.0211334
711.160	0.0212326
711.238	0.0215290
711.317	0.0218179
711.395	0.0219512
711.473	0.0220699
711.551	0.0223539
711.629	0.0224020
711.707	0.0224413
711.785	0.0226192
711.863	0.0225364
711.942	0.0221021
712.020	0.0220276
712.098	0.0218661
712.176	0.0214561
712.254	0.0211214
712.332	0.0207573
712.410	0.0203294
712.488	0.0199455
712.567	0.0195295
712.645	0.0192092
712.723	0.0188692
712.801	0.0187911
712.879	0.0186405
712.957	0.0185198
713.035	0.0185118
713.113	0.0184589
713.192	0.0184717
713.270	0.0184718
713.348	0.0183843
713.426	0.0183591
713.504	0.0183167
713.582	0.0183142
713.660	0.0183070
713.738	0.0182481
713.817	0.0180759
713.895	0.0179053
713.973	0.0181361
714.051	0.0179748
714.129	0.0179807
714.207	0.0178004
714.285	0.0177424
714.363	0.0178686
714.442	0.0177529
714.520	0.0176334
714.598	0.0176416
714.676	0.0173549
714.754	0.0173998
714.832	0.0172262
714.910	0.0170518
714.988	0.0169010
715.067	0.0167863
715.145	0.0167280
715.223	0.0166235
715.301	0.0165343
715.379	0.0164471
715.457	0.0166676
715.535	0.0167384
715.613	0.0167165
715.692	0.0168565
715.770	0.0171277
715.848	0.0174329
715.926	0.0175921
716.004	0.0177547
716.082	0.0182360
716.160	0.0185865
716.238	0.0188919
716.317	0.0190862
716.395	0.0195216
716.473	0.0198433
716.551	0.0200286
716.629	0.0203316
716.707	0.0207883
716.785	0.0212048
716.863	0.0215941
716.942	0.0218102
717.020	0.0221255
717.098	0.0223988
717.176	0.0226362
717.254	0.0228697
717.332	0.0229745
717.410	0.0228052
717.488	0.0228896
717.567	0.0226539
717.645	0.0225789
717.723	0.0222110
717.801	0.0221059
717.879	0.0218948
717.957	0.0216632
718.035	0.0214891
718.113	0.0211233
718.192	0.0208844
718.270	0.0210016
718.348	0.0208472
718.426	0.0208572
718.504	0.0207202
718.582	0.0206658
718.660	0.0206781
718.738	0.0205174
718.817	0.0203732
718.895	0.0202699
718.973	0.0200248
719.051	0.0197801
719.129	0.0195880
719.207	0.0190890
719.285	0.0187037
719.363	0.0181815
719.442	0.0177919
719.520	0.0173438
719.598	0.0170109
719.676	0.0166576
719.754	0.0162917
719.832	0.0160758
719.910	0.0158907
719.988	0.0157100
720.067	0.0156236
720.145	0.0157085
720.223	0.0157544
720.301	0.0157626
720.379	0.0160883
720.457	0.0163042
720.535	0.0162794
720.613	0.0165084
720.692	0.0167017
720.770	0.0169718
720.848	0.0172432
720.926	0.0173510
721.004	0.0174189
721.082	0.0175178
721.160	0.0177124
721.238	0.0177903
721.317	0.0180447
721.395	0.0180548
721.473	0.0180296
721.551	0.0181498
721.629	0.0181278
721.707	0.0180927
721.785	0.0182986
721.863	0.0182751
721.942	0.0182442
722.020	0.0183981
722.098	0.0184566
722.176	0.0184721
722.254	0.0184660
722.332	0.0186415
722.410	0.0187601
722.488	0.0188554
722.567	0.0189342
722.645	0.0190912
722.723	0.0193923
722.801	0.0195733
722.879	0.0197290
722.957	0.0197877
723.035	0.0202239
723.113	0.0204971
723.192	0.0209406
723.270	0.0212321
723.348	0.0215786
723.426	0.0220673
723.504	0.0224057
723.582	0.0228135
723.660	0.0231885
723.738	0.0232903
723.817	0.0234544
723.895	0.0236069
723.973	0.0236230
724.051	0.0235336
724.129	0.0234827
724.207	0.0231310
724.285	0.0228294
724.363	0.0226209
724.442	0.0221058
724.520	0.0217683
724.598	0.0215553
724.676	0.0210005
724.754	0.0207558
724.832	0.0204409
724.910	0.0201236
724.988	0.0197688
725.067	0.0196947
725.145	0.0196241
725.223	0.0194666
725.301	0.0193098
725.379	0.0193121
725.457	0.0191341
725.535	0.0190936
725.613	0.0189381
725.692	0.0184954
725.770	0.0184510
725.848	0.0181879
725.926	0.0180728
726.004	0.0179070
726.082	0.0175615
726.160	0.0173617
726.238	0.0171140
726.317	0.0167277
726.395	0.0165245
726.473	0.0161160
726.551	0.0158030
726.629	0.0155120
726.707	0.0153458
726.785	0.0150717
726.863	0.0147554
726.942	0.0147044
727.020	0.0144859
727.098	0.0143446
727.176	0.0144702
727.254	0.0146496
727.332	0.0148061
727.410	0.0151872
727.488	0.0156281
727.567	0.0159483
727.645	0.0163486
727.723	0.0169551
727.801	0.0174818
727.879	0.0180139
727.957	0.0184379
728.035	0.0189410
728.113	0.0191300
728.192	0.0193885
728.270	0.0195519
728.348	0.0197141
728.426	0.0195886
728.504	0.0195855
728.582	0.0195132
728.660	0.0194248
728.738	0.0194996
728.817	0.0195032
728.895	0.0193634
728.973	0.0192384
729.051	0.0194069
729.129	0.0194663
729.207	0.0196191
729.285	0.0197208
729.363	0.0198837
729.442	0.0201625
729.520	0.0203706
729.598	0.0206095
729.676	0.0209004
729.754	0.0212784
729.832	0.0214823
729.910	0.0216785
729.988	0.0220628
730.067	0.0224642
730.145	0.0228271
730.223	0.0230315
730.301	0.0233481
730.379	0.0234940
730.457	0.0238841
730.535	0.0239319
730.613	0.0239568
730.692	0.0239127
730.770	0.0237554
730.848	0.0234452
730.926	0.0231567
731.004	0.0224859
731.082	0.0220506
731.160	0.0216238
731.238	0.0209147
731.317	0.0204486
731.395	0.0198850
731.473	0.0195164
731.551	0.0191040
731.629	0.0186832
731.707	0.0184594
731.785	0.0183770
731.863	0.0182127
731.942	0.0181380
732.020	0.0181808
732.098	0.0182611
732.176	0.0184205
732.254	0.0184611
732.332	0.0186100
732.410	0.0186905
732.488	0.0188405
732.567	0.0186288
732.645	0.0186917
732.723	0.0185231
732.801	0.0182496
732.879	0.0179880
732.957	0.0175820
733.035	0.0171577
733.113	0.0166447
733.192	0.0161488
733.270	0.0156721
733.348	0.0152016
733.426	0.0145746
733.504	0.0140878
733.582	0.0137054
733.660	0.0133440
733.738	0.0131981
733.817	0.0131873
733.895	0.0131935
733.973	0.0132388
734.051	0.0135104
734.129	0.0138690
734.207	0.0142610
734.285	0.0149529
734.363	0.0156119
734.442	0.0161257
734.520	0.0168114
734.598	0.0177366
734.676	0.0183963
734.754	0.0191077
734.832	0.0195030
734.910	0.0200936
734.988	0.0204748
735.067	0.0210474
735.145	0.0213374
735.223	0.0214438
735.301	0.0217245
735.379	0.0216930
735.457	0.0216290
735.535	0.0215970
735.613	0.0213667
735.692	0.0212086
735.770	0.0209546
735.848	0.0209348
735.926	0.0207363
736.004	0.0206204
736.082	0.0204353
736.160	0.0204337
736.238	0.0205815
736.317	0.0207281
736.395	0.0209638
736.473	0.0211078
736.551	0.0214179
736.629	0.0217179
736.707	0.0219740
736.785	0.0222968
736.863	0.0227867
736.942	0.0230254
737.020	0.0232174
737.098	0.0233797
737.176	0.0234747
737.254	0.0232886
737.332	0.0231219
737.410	0.0228817
737.488	0.0226381
737.567	0.0222878
737.645	0.0217598
737.723	0.0212203
737.801	0.0207909
737.879	0.0201434
737.957	0.0198618
738.035	0.0194344
738.113	0.0188100
738.192	0.0186749
738.270	0.0186433
738.348	0.0183731
738.426	0.0184167
738.504	0.0183339
738.582	0.0183004
738.660	0.0184640
738.738	0.0184422
738.817	0.0184839
738.895	0.0185340
738.973	0.0185542
739.051	0.0186342
739.129	0.0186522
739.207	0.0187349
739.285	0.0186742
739.363	0.0185365
739.442	0.0183729
739.520	0.0182334
739.598	0.0179305
739.676	0.0177285
739.754	0.0174192
739.832	0.0170174
739.910	0.0167081
739.988	0.0161662
740.067	0.0156260
740.145	0.0153763
740.223	0.0149660
740.301	0.0143359
740.379	0.0139958
740.457	0.0136810
740.535	0.0135300
740.613	0.0135074
740.692	0.0134547
740.770	0.0137673
740.848	0.0141541
740.926	0.0145053
741.004	0.0149380
741.082	0.0155743
741.160	0.0161334
741.238	0.0168828
741.317	0.0176341
741.395	0.0183974
741.473	0.0190720
741.551	0.0198197
741.629	0.0203317
741.707	0.0208556
741.785	0.0210685
741.863	0.0212775
741.942	0.0216245
742.020	0.0216068
742.098	0.0216249
742.176	0.0216079
742.254	0.0215708
742.332	0.0213395
742.410	0.0212456
742.488	0.0210831
742.567	0.0211915
742.645	0.0211522
742.723	0.0211472
742.801	0.0213845
742.879	0.0212283
742.957	0.0212160
743.035	0.0211658
743.113	0.0213196
743.192	0.0213037
743.270	0.0213405
743.348	0.0215648
743.426	0.0214026
743.504	0.0215417
743.582	0.0214720
743.660	0.0215298
743.738	0.0216007
743.817	0.0215466
743.895	0.0212096
743.973	0.0212076
744.051	0.0210804
744.129	0.0209801
744.207	0.0207118
744.285	0.0206023
744.363	0.0203762
744.442	0.0204218
744.520	0.0202293
744.598	0.0201769
744.676	0.0200702
744.754	0.0201658
744.832	0.0200894
744.910	0.0201926
744.988	0.0203202
745.067	0.0203219
745.145	0.0203247
745.223	0.0202695
745.301	0.0201881
745.379	0.0201138
745.457	0.0199077
745.535	0.0195840
745.613	0.0195603
745.692	0.0192314
745.770	0.0188411
745.848	0.0187289
745.926	0.0185181
746.004	0.0180564
746.082	0.0177802
746.160	0.0176344
746.238	0.0175051
746.317	0.0170748
746.395	0.0168766
746.473	0.0169080
746.551	0.0167171
746.629	0.0165327
746.707	0.0163792
746.785	0.0160936
746.863	0.0158723
746.942	0.0157181
747.020	0.0155316
747.098	0.0153806
747.176	0.0153561
747.254	0.0151559
747.332	0.0151859
747.410	0.0152385
747.488	0.0151886
747.567	0.0151524
747.645	0.0155176
747.723	0.0158398
747.801	0.0160263
747.879	0.0163438
747.957	0.0166155
748.035	0.0170020
748.113	0.0174516
748.192	0.0177834
748.270	0.0181892
748.348	0.0184352
748.426	0.0188254
748.504	0.0191870
748.582	0.0193738
748.660	0.0195596
748.738	0.0197309
748.817	0.0199950
748.895	0.0201771
748.973	0.0204057
749.051	0.0204288
749.129	0.0206274
749.207	0.0209226
749.285	0.0210574
749.363	0.0213248
749.442	0.0215861
749.520	0.0219083
749.598	0.0219987
749.676	0.0221487
749.754	0.0221206
749.832	0.0223062
749.910	0.0223256
749.988	0.0220867
750.067	0.0220481
750.145	0.0218015
750.223	0.0216144
750.301	0.0213079
750.379	0.0209378
750.457	0.0207535
750.535	0.0205880
750.613	0.0201402
750.692	0.0198876
750.770	0.0198103
750.848	0.0197520
750.926	0.0196022
751.004	0.0196040
751.082	0.0195557
751.160	0.0196598
751.238	0.0196165
751.317	0.0198389
751.395	0.0202110
751.473	0.0202572
751.551	0.0204076
751.629	0.0205050
751.707	0.0208515
751.785	0.0210090
751.863	0.0211636
751.942	0.0212557
752.020	0.0209893
752.098	0.0209348
752.176	0.0210172
752.254	0.0205717
752.332	0.0203567
752.410	0.0200505
752.488	0.0196941
752.567	0.0193690
752.645	0.0190254
752.723	0.0186143
752.801	0.0183186
752.879	0.0180251
752.957	0.0177577
753.035	0.0175590
753.113	0.0174385
753.192	0.0170926
753.270	0.0169453
753.348	0.0168556
753.426	0.0166438
753.504	0.0165443
753.582	0.0163905
753.660	0.0163920
753.738	0.0163530
753.817	0.0161904
753.895	0.0162090
753.973	0.0159927
754.051	0.0160051
754.129	0.0160832
754.207	0.0159917
754.285	0.0160851
754.363	0.0162663
754.442	0.0164655
754.520	0.0165445
754.598	0.0167434
754.676	0.0168600
754.754	0.0168936
754.832	0.0173405
754.910	0.0175929
754.988	0.0178163
755.067	0.0181282
755.145	0.0182736
755.223	0.0184163
755.301	0.0186214
755.379	0.0187944
755.457	0.0189394
755.535	0.0190405
755.613	0.0191218
755.692	0.0192581
755.770	0.0192068
755.848	0.0196114
755.926	0.0196872
756.004	0.0196468
756.082	0.0199546
756.160	0.0204209
756.238	0.0203016
756.317	0.0204456
756.395	0.0208142
756.473	0.0208726
756.551	0.0211156
756.629	0.0212690
756.707	0.0212677
756.785	0.0213557
756.863	0.0213829
756.942	0.0213689
757.020	0.0212700
757.098	0.0212032
757.176	0.0210302
757.254	0.0208372
757.332	0.0206467
757.410	0.0207262
757.488	0.0205008
757.567	0.0202514
757.645	0.0204037
757.723	0.0201164
757.801	0.0200892
757.879	0.0202294
757.957	0.0203609
758.035	0.0204372
758.113	0.0205737
758.192	0.0204192
758.270	0.0206573
758.348	0.0207133
758.426	0.0207713
758.504	0.0208286
758.582	0.0208858
758.660	0.0207325
758.738	0.0206249
758.817	0.0204883
758.895	0.0203704
758.973	0.0201737
759.051	0.0199483
759.129	0.0197648
759.207	0.0195798
759.285	0.0194448
759.363	0.0192484
759.442	0.0190702
759.520	0.0189674
759.598	0.0188939
759.676	0.0186335
759.754	0.0184941
759.832	0.0185214
759.910	0.0183009
759.988	0.0181976
760.067	0.0181696
760.145	0.0180341
760.223	0.0177961
760.301	0.0176933
760.379	0.0177872
760.457	0.0175490
760.535	0.0173120
760.613	0.0171117
760.692	0.0171191
760.770	0.0171543
760.848	0.0169744
760.926	0.0168747
761.004	0.0168209
761.082	0.0166583
761.160	0.0168029
761.238	0.0168915
761.317	0.0167076
761.395	0.0167439
761.473	0.0170543
761.551	0.0170255
761.629	0.0171462
761.707	0.0173495
761.785	0.0174880
761.863	0.0176666
761.942	0.0177605
762.020	0.0179412
762.098	0.0179334
762.176	0.0181607
762.254	0.0181537
762.332	0.0182143
762.410	0.0185560
762.488	0.0185598
762.567	0.0186825
762.645	0.0187730
762.723	0.0187939
762.801	0.0190372
762.879	0.0190929
762.957	0.0191363
763.035	0.0193633
763.113	0.0194429
763.192	0.0196399
763.270	0.0198003
763.348	0.0200862
763.426	0.0202119
763.504	0.0201844
763.582	0.0202164
763.660	0.0203765
763.738	0.0203520
763.817	0.0203969
763.895	0.0205556
763.973	0.0207486
764.051	0.0207859
764.129	0.0208060
764.207	0.0209888
764.285	0.0211928
764.363	0.0212698
764.442	0.0212854
764.520	0.0213429
764.598	0.0212714
764.676	0.0212249
764.754	0.0213471
764.832	0.0211590
764.910	0.0208759
764.988	0.0206795
765.067	0.0206087
765.145	0.0204039
765.223	0.0201940
765.301	0.0199622
765.379	0.0199319
765.457	0.0196590
765.535	0.0194108
765.613	0.0194154
765.692	0.0192999
765.770	0.0192449
765.848	0.0192483
765.926	0.0195650
766.004	0.0194464
766.082	0.0195914
766.160	0.0195492
766.238	0.0196268
766.317	0.0199512
766.395	0.0198404
766.473	0.0198700
766.551	0.0198428
766.629	0.0198104
766.707	0.0198348
766.785	0.0196712
766.863	0.0194640
766.942	0.0195101
767.020	0.0192141
767.098	0.0189814
767.176	0.0186294
767.254	0.0185313
767.332	0.0182666
767.410	0.0179952
767.488	0.0178845
767.567	0.0175937
767.645	0.0173791
767.723	0.0173930
767.801	0.0172701
767.879	0.0173513
767.957	0.0172514
768.035	0.0172546
768.113	0.0172816
768.192	0.0174164
768.270	0.0174068
768.348	0.0176163
768.426	0.0177721
768.504	0.0176666
768.582	0.0177525
768.660	0.0179574
768.738	0.0177521
768.817	0.0177794
768.895	0.0179540
768.973	0.0179658
769.051	0.0179863
769.129	0.0179298
769.207	0.0178880
769.285	0.0179472
769.363	0.0179649
769.442	0.0178009
769.520	0.0180252
769.598	0.0180315
769.676	0.0181223
769.754	0.0181045
769.832	0.0181226
769.910	0.0182149
769.988	0.0184741
770.067	0.0185461
770.145	0.0187617
770.223	0.0188179
770.301	0.0188739
770.379	0.0190656
770.457	0.0192971
770.535	0.0196284
770.613	0.0199023
770.692	0.0199716
770.770	0.0202052
770.848	0.0205096
770.926	0.0206910
771.004	0.0208152
771.082	0.0207989
771.160	0.0210117
771.238	0.0210049
771.317	0.0211371
771.395	0.0209754
771.473	0.0209927
771.551	0.0207765
771.629	0.0206802
771.707	0.0205927
771.785	0.0203826
771.863	0.0203373
771.942	0.0201736
772.020	0.0200414
772.098	0.0200665
772.176	0.0199067
772.254	0.0201152
772.332	0.0199185
772.410	0.0200400
772.488	0.0199050
772.567	0.0199254
772.645	0.0200236
772.723	0.0201512
772.801	0.0201439
772.879	0.0203512
772.957	0.0203819
773.035	0.0204514
773.113	0.0204650
773.192	0.0203701
773.270	0.0204462
773.348	0.0203997
773.426	0.0202604
773.504	0.0201135
773.582	0.0199704
773.660	0.0197499
773.738	0.0195169
773.817	0.0193651
773.895	0.0190682
773.973	0.0189428
774.051	0.0186725
774.129	0.0184263
774.207	0.0181609
774.285	0.0180056
774.363	0.0178512
774.442	0.0178659
774.520	0.0179877
774.598	0.0180006
774.676	0.0179467
774.754	0.0180347
774.832	0.0182227
774.910	0.0182422
774.988	0.0184470
775.067	0.0185215
775.145	0.0187278
775.223	0.0187220
775.301	0.0187089
775.379	0.0187197
775.457	0.0187025
775.535	0.0185643
775.613	0.0184295
775.692	0.0182085
775.770	0.0180618
775.848	0.0179853
775.926	0.0177872
776.004	0.0176314
776.082	0.0174728
776.160	0.0173246
776.238	0.0171967
776.317	0.0172917
776.395	0.0172723
776.473	0.0172910
776.551	0.0171593
776.629	0.0175137
776.707	0.0176081
776.785	0.0178780
776.863	0.0180427
776.942	0.0181596
777.020	0.0183234
777.098	0.0187333
777.176	0.0188596
777.254	0.0191388
777.332	0.0192155
777.410	0.0195757
777.488	0.0195600
777.567	0.0197903
777.645	0.0198908
777.723	0.0199670
777.801	0.0201013
777.879	0.0200551
777.957	0.0198673
778.035	0.0199613
778.113	0.0197208
778.192	0.0195722
778.270	0.0196571
778.348	0.0195741
778.426	0.0194188
778.504	0.0193122
778.582	0.0192291
778.660	0.0192330
778.738	0.0192737
778.817	0.0194514
778.895	0.0194185
778.973	0.0196042
779.051	0.0198475
779.129	0.0199116
779.207	0.0203269
779.285	0.0205084
779.363	0.0206700
779.442	0.0207867
779.520	0.0208408
779.598	0.0210957
779.676	0.0211118
779.754	0.0210627
779.832	0.0211764
779.910	0.0212079
779.988	0.0211269
780.067	0.0210318
780.145	0.0208440
780.223	0.0207084
780.301	0.0205530
780.379	0.0203150
780.457	0.0201324
780.535	0.0199080
780.613	0.0195698
780.692	0.0193993
780.770	0.0192941
780.848	0.0190014
780.926	0.0188673
781.004	0.0187799
781.082	0.0185686
781.160	0.0185186
781.238	0.0184971
781.317	0.0185987
781.395	0.0187169
781.473	0.0186753
781.551	0.0187447
781.629	0.0189237
781.707	0.0189122
781.785	0.0189808
781.863	0.0190410
781.942	0.0191058
782.020	0.0191180
782.098	0.0190588
782.176	0.0190470
782.254	0.0191082
782.332	0.0189885
782.410	0.0186618
782.488	0.0185118
782.567	0.0183087
782.645	0.0179805
782.723	0.0178241
782.801	0.0176884
782.879	0.0175346
782.957	0.0174301
783.035	0.0174017
783.113	0.0174649
783.192	0.0174278
783.270	0.0174487
783.348	0.0175262
783.426	0.0177225
783.504	0.0177603
783.582	0.0180250
783.660	0.0181434
783.738	0.0183102
783.817	0.0184344
783.895	0.0186362
783.973	0.0186382
784.051	0.0188180
784.129	0.0189666
784.207	0.0188329
784.285	0.0189233
784.363	0.0189464
784.442	0.0189632
784.520	0.0188730
784.598	0.0187930
784.676	0.0186852
784.754	0.0186198
784.832	0.0186183
784.910	0.0185971
784.988	0.0184500
785.067	0.0183761
785.145	0.0184659
785.223	0.0185827
785.301	0.0185333
785.379	0.0187537
785.457	0.0189291
785.535	0.0188940
785.613	0.0192410
785.692	0.0195609
785.770	0.0198003
785.848	0.0198055
785.926	0.0201965
786.004	0.0202347
786.082	0.0204748
786.160	0.0205822
786.238	0.0206420
786.317	0.0207204
786.395	0.0206641
786.473	0.0207585
786.551	0.0207790
786.629	0.0206998
786.707	0.0205470
786.785	0.0205582
786.863	0.0203577
786.942	0.0202753
787.020	0.0202615
787.098	0.0200842
787.176	0.0200801
787.254	0.0199554
787.332	0.0200222
787.410	0.0198990
787.488	0.0199261
787.567	0.0197618
787.645	0.0197727
787.723	0.0198471
787.801	0.0198682
787.879	0.0199342
787.957	0.0198415
788.035	0.0200327
788.113	0.0197847
788.192	0.0198910
788.270	0.0198355
788.348	0.0197942
788.426	0.0196936
788.504	0.0196753
788.582	0.0194823
788.660	0.0193340
788.738	0.0192928
788.817	0.0191736
788.895	0.0189646
788.973	0.0187466
789.051	0.0185494
789.129	0.0185468
789.207	0.0184764
789.285	0.0181912
789.363	0.0179118
789.442	0.0180011
789.520	0.0178526
789.598	0.0180222
789.676	0.0179362
789.754	0.0178490
789.832	0.0179795
789.910	0.0180244
789.988	0.0179648
790.067	0.0181448
790.145	0.0182660
790.223	0.0182684
790.301	0.0184505
790.379	0.0185995
790.457	0.0188528
790.535	0.0188556
790.613	0.0189119
790.692	0.0189563
790.770	0.0190347
790.848	0.0190357
790.926	0.0191356
791.004	0.0193005
791.082	0.0192424
791.160	0.0190152
791.238	0.0190025
791.317	0.0188834
791.395	0.0187805
791.473	0.0187235
791.551	0.0185487
791.629	0.0184844
791.707	0.0184900
791.785	0.0185397
791.863	0.0184074
791.942	0.0183821
792.020	0.0182731
792.098	0.0182851
792.176	0.0184718
792.254	0.0185388
792.332	0.0185473
792.410	0.0185042
792.488	0.0185343
792.567	0.0186966
792.645	0.0187589
792.723	0.0190421
792.801	0.0191007
792.879	0.0190334
792.957	0.0191613
793.035	0.0191571
793.113	0.0192062
793.192	0.0193649
793.270	0.0194022
793.348	0.0194977
793.426	0.0194936
793.504	0.0194970
793.582	0.0197026
793.660	0.0195524
793.738	0.0196534
793.817	0.0197315
793.895	0.0196705
793.973	0.0198624
794.051	0.0199320
794.129	0.0200803
794.207	0.0199490
794.285	0.0202158
794.363	0.0202318
794.442	0.0203166
794.520	0.0203466
794.598	0.0203520
794.676	0.0204441
794.754	0.0204909
794.832	0.0205185
794.910	0.0205054
794.988	0.0204120
795.067	0.0202609
795.145	0.0203433
795.223	0.0202427
795.301	0.0201909
795.379	0.0199438
795.457	0.0196156
795.535	0.0197252
795.613	0.0196471
795.692	0.0194191
795.770	0.0193037
795.848	0.0192228
795.926	0.0191135
796.004	0.0190666
796.082	0.0191150
796.160	0.0190773
796.238	0.0190854
796.317	0.0192161
796.395	0.0191145
796.473	0.0189277
796.551	0.0189118
796.629	0.0189719
796.707	0.0189104
796.785	0.0188309
796.863	0.0187096
796.942	0.0184799
797.020	0.0185586
797.098	0.0186421
797.176	0.0186641
797.254	0.0185494
797.332	0.0184413
797.410	0.0184982
797.488	0.0185413
797.567	0.0184330
797.645	0.0185970
797.723	0.0187090
797.801	0.0186450
797.879	0.0188953
797.957	0.0188683
798.035	0.0189155
798.113	0.0189738
798.192	0.0190078
798.270	0.0190144
798.348	0.0189738
798.426	0.0189791
798.504	0.0189259
798.582	0.0187311
798.660	0.0187647
798.738	0.0187789
798.817	0.0187772
798.895	0.0186858
798.973	0.0187370
799.051	0.0186798
799.129	0.0186794
799.207	0.0186046
799.285	0.0185571
799.363	0.0184241
799.442	0.0185030
799.520	0.0185544
799.598	0.0185857
799.676	0.0185285
799.754	0.0185995
799.832	0.0186714
799.910	0.0187061
799.988	0.0187774
800.067	0.0188479
800.145	0.0188895
800.223	0.0189187
800.301	0.0189525
800.379	0.0189960
800.457	0.0190061
800.535	0.0191799
800.613	0.0189426
800.692	0.0189581
800.770	0.0190366
800.848	0.0189677
800.926	0.0190606
801.004	0.0192228
801.082	0.0192367
801.160	0.0192973
801.238	0.0194375
801.317	0.0195480
801.395	0.0196505
801.473	0.0196745
801.551	0.0198854
801.629	0.0200725
801.707	0.0201031
801.785	0.0203300
801.863	0.0203410
801.942	0.0203909
802.020	0.0203789
802.098	0.0204115
802.176	0.0204829
802.254	0.0204192
802.332	0.0203292
802.410	0.0201370
802.488	0.0201474
802.567	0.0200588
802.645	0.0198402
802.723	0.0198812
802.801	0.0196633
802.879	0.0196568
802.957	0.0195892
803.035	0.0194582
803.113	0.0193511
803.192	0.0194177
803.270	0.0194746
803.348	0.0192836
803.426	0.0192537
803.504	0.0191260
803.582	0.0195236
803.660	0.0193723
803.738	0.0194313
803.817	0.0193265
803.895	0.0192723
803.973	0.0194890
804.051	0.0193193
804.129	0.0192884
804.207	0.0193229
804.285	0.0192204
804.363	0.0192573
804.442	0.0190538
804.520	0.0189841
804.598	0.0188609
804.676	0.0188018
804.754	0.0188187
804.832	0.0187124
804.910	0.0185616
804.988	0.0186124
805.067	0.0184783
805.145	0.0184682
805.223	0.0183849
805.301	0.0183952
805.379	0.0181636
805.457	0.0181496
805.535	0.0182873
805.613	0.0183637
805.692	0.0183599
805.770	0.0183309
805.848	0.0184788
805.926	0.0185108
806.004	0.0185297
806.082	0.0185593
806.160	0.0186609
806.238	0.0187553
806.317	0.0186683
806.395	0.0187688
806.473	0.0187616
806.551	0.0188292
806.629	0.0188816
806.707	0.0188387
806.785	0.0190319
806.863	0.0188744
806.942	0.0188520
807.020	0.0187585
807.098	0.0188463
807.176	0.0189944
807.254	0.0189877
807.332	0.0186821
807.410	0.0188641
807.488	0.0190462
807.567	0.0190392
807.645	0.0189558
807.723	0.0190923
807.801	0.0192048
807.879	0.0192399
807.957	0.0193578
808.035	0.0195720
808.113	0.0196558
808.192	0.0195824
808.270	0.0197511
808.348	0.0197326
808.426	0.0199922
808.504	0.0200581
808.582	0.0199011
808.660	0.0199430
808.738	0.0199927
808.817	0.0198986
808.895	0.0197941
808.973	0.0198643
809.051	0.0197906
809.129	0.0198547
809.207	0.0197258
809.285	0.0195645
809.363	0.0194630
809.442	0.0194672
809.520	0.0193792
809.598	0.0192981
809.676	0.0193477
809.754	0.0192325
809.832	0.0193404
809.910	0.0193626
809.988	0.0192929
810.067	0.0193912
810.145	0.0193049
810.223	0.0194764
810.301	0.0193928
810.379	0.0192825
810.457	0.0195469
810.535	0.0195053
810.613	0.0194992
810.692	0.0194253
810.770	0.0192622
810.848	0.0193862
810.926	0.0193224
811.004	0.0193015
811.082	0.0192822
811.160	0.0189978
811.238	0.0189513
811.317	0.0190412
811.395	0.0188811
811.473	0.0189090
811.551	0.0188551
811.629	0.0187836
811.707	0.0188055
811.785	0.0187160
811.863	0.0188455
811.942	0.0188258
812.020	0.0188358
812.098	0.0188546
812.176	0.0189573
812.254	0.0188838
812.332	0.0188419
812.410	0.0190004
812.488	0.0190141
812.567	0.0189882
812.645	0.0191476
812.723	0.0190193
812.801	0.0190909
812.879	0.0192647
812.957	0.0192535
813.035	0.0189767
813.113	0.0190563
813.192	0.0191296
813.270	0.0190657
813.348	0.0190076
813.426	0.0191108
813.504	0.0191054
813.582	0.0190974
813.660	0.0192262
813.738	0.0191552
813.817	0.0191666
813.895	0.0192786
813.973	0.0192330
814.051	0.0193724
814.129	0.0193096
814.207	0.0193356
814.285	0.0194447
814.363	0.0194417
814.442	0.0195303
814.520	0.0194293
814.598	0.0192522
814.676	0.0193384
814.754	0.0193874
814.832	0.0192922
814.910	0.0193765
814.988	0.0192609
815.067	0.0191281
815.145	0.0192290
815.223	0.0191595
815.301	0.0190182
815.379	0.0190553
815.457	0.0189050
815.535	0.0187655
815.613	0.0187978
815.692	0.0187860
815.770	0.0185535
815.848	0.0186045
815.926	0.0185784
816.004	0.0185103
816.082	0.0184528
816.160	0.0185041
816.238	0.0185661
816.317	0.0185271
816.395	0.0187241
816.473	0.0186181
816.551	0.0186789
816.629	0.0187855
816.707	0.0188334
816.785	0.0189748
816.863	0.0190236
816.942	0.0191065
817.020	0.0190783
817.098	0.0192345
817.176	0.0192181
817.254	0.0193974
817.332	0.0193844
817.410	0.0194908
817.488	0.0195467
817.567	0.0196026
817.645	0.0195387
817.723	0.0195591
817.801	0.0195229
817.879	0.0193960
817.957	0.0191831
818.035	0.0193127
818.113	0.0193533
818.192	0.0193006
818.270	0.0191742
818.348	0.0190771
818.426	0.0190804
818.504	0.0191866
818.582	0.0191445
818.660	0.0192522
818.738	0.0192601
818.817	0.0192558
818.895	0.0193471
818.973	0.0196805
819.051	0.0198102
819.129	0.0198965
819.207	0.0197784
819.285	0.0199011
819.363	0.0199368
819.442	0.0200860
819.520	0.0201221
819.598	0.0200180
819.676	0.0199921
819.754	0.0200788
819.832	0.0198458
819.910	0.0198000
819.988	0.0197452
820.067	0.0196323
820.145	0.0195608
820.223	0.0194675
820.301	0.0194849
820.379	0.0191766
820.457	0.0191443
820.535	0.0191218
820.613	0.0190508
820.692	0.0190424
820.770	0.0188865
820.848	0.0187270
820.926	0.0189659
821.004	0.0188534
821.082	0.0187988
821.160	0.0188780
821.238	0.0189576
821.317	0.0187355
821.395	0.0188463
821.473	0.0189708
821.551	0.0188659
821.629	0.0189317
821.707	0.0189333
821.785	0.0187938
821.863	0.0188068
821.942	0.0186665
822.020	0.0186140
822.098	0.0187551
822.176	0.0187579
822.254	0.0185532
822.332	0.0184450
822.410	0.0184655
822.488	0.0183931
822.567	0.0184454
822.645	0.0183729
822.723	0.0183267
822.801	0.0182853
822.879	0.0183727
822.957	0.0182938
823.035	0.0182017
823.113	0.0183464
823.192	0.0182482
823.270	0.0183038
823.348	0.0184119
823.426	0.0184570
823.504	0.0184917
823.582	0.0186115
823.660	0.0186700
823.738	0.0186288
823.817	0.0187845
823.895	0.0188314
823.973	0.0189102
824.051	0.0189924
824.129	0.0190245
824.207	0.0189193
824.285	0.0190633
824.363	0.0192496
824.442	0.0193477
824.520	0.0192431
824.598	0.0191837
824.676	0.0194147
824.754	0.0193103
824.832	0.0193347
824.910	0.0195602
824.988	0.0195316
825.067	0.0195322
825.145	0.0195531
825.223	0.0196665
825.301	0.0197379
825.379	0.0197066
825.457	0.0197490
825.535	0.0197112
825.613	0.0197549
825.692	0.0198454
825.770	0.0198555
825.848	0.0198183
825.926	0.0198404
826.004	0.0199298
826.082	0.0199960
826.160	0.0199195
826.238	0.0198215
826.317	0.0196999
826.395	0.0199833
826.473	0.0200005
826.551	0.0199091
826.629	0.0196596
826.707	0.0197035
826.785	0.0197674
826.863	0.0196864
826.942	0.0196207
827.020	0.0196523
827.098	0.0196252
827.176	0.0195535
827.254	0.0195566
827.332	0.0193642
827.410	0.0193411
827.488	0.0195203
827.567	0.0194019
827.645	0.0194176
827.723	0.0194772
827.801	0.0193301
827.879	0.0193231
827.957	0.0192970
828.035	0.0191473
828.113	0.0193777
828.192	0.0191962
828.270	0.0192233
828.348	0.0191483
828.426	0.0190053
828.504	0.0188388
828.582	0.0188260
828.660	0.0187762
828.738	0.0185468
828.817	0.0185269
828.895	0.0184994
828.973	0.0183983
829.051	0.0183046
829.129	0.0183475
829.207	0.0182186
829.285	0.0182059
829.363	0.0180511
829.442	0.0181718
829.520	0.0181000
829.598	0.0181512
829.676	0.0181238
829.754	0.0181641
829.832	0.0182243
829.910	0.0183071
829.988	0.0181882
830.067	0.0181904
830.145	0.0182763
830.223	0.0183102
830.301	0.0184714
830.379	0.0187564
830.457	0.0185538
830.535	0.0187571
830.613	0.0186903
830.692	0.0187896
830.770	0.0189723
830.848	0.0190561
830.926	0.0190334
831.004	0.0190411
831.082	0.0190515
831.160	0.0190969
831.238	0.0190197
831.317	0.0190414
831.395	0.0191329
831.473	0.0191503
831.551	0.0192440
831.629	0.0192875
831.707	0.0193417
831.785	0.0191802
831.863	0.0192973
831.942	0.0193238
832.020	0.0192896
832.098	0.0192793
832.176	0.0193480
832.254	0.0192985
832.332	0.0196389
832.410	0.0196705
832.488	0.0196473
832.567	0.0197665
832.645	0.0198544
832.723	0.0197694
832.801	0.0199081
832.879	0.0200482
832.957	0.0199358
833.035	0.0200157
833.113	0.0200624
833.192	0.0200711
833.270	0.0199972
833.348	0.0201092
833.426	0.0199804
833.504	0.0200327
833.582	0.0199515
833.660	0.0198209
833.738	0.0198234
833.817	0.0196500
833.895	0.0196629
833.973	0.0195358
834.051	0.0194186
834.129	0.0193295
834.207	0.0193318
834.285	0.0193675
834.363	0.0193414
834.442	0.0193539
834.520	0.0193601
834.598	0.0193143
834.676	0.0194962
834.754	0.0194804
834.832	0.0193372
834.910	0.0193089
834.988	0.0191631
835.067	0.0192828
835.145	0.0193324
835.223	0.0193565
835.301	0.0193269
835.379	0.0192487
835.457	0.0190857
835.535	0.0190543
835.613	0.0191252
835.692	0.0188274
835.770	0.0186641
835.848	0.0187610
835.926	0.0186436
836.004	0.0186341
836.082	0.0183903
836.160	0.0183044
836.238	0.0182679
836.317	0.0182325
836.395	0.0181947
836.473	0.0181590
836.551	0.0180732
836.629	0.0181190
836.707	0.0181440
836.785	0.0182310
836.863	0.0181094
836.942	0.0183067
837.020	0.0183887
837.098	0.0184428
837.176	0.0185428
837.254	0.0186000
837.332	0.0186013
837.410	0.0188371
837.488	0.0189472
837.567	0.0189831
837.645	0.0189922
837.723	0.0190900
837.801	0.0190884
837.879	0.0191739
837.957	0.0191465
838.035	0.0190712
838.113	0.0190746
838.192	0.0191962
838.270	0.0191414
838.348	0.0189982
838.426	0.0190363
838.504	0.0191634
838.582	0.0192365
838.660	0.0191282
838.738	0.0192183
838.817	0.0192128
838.895	0.0190800
838.973	0.0190226
839.051	0.0191772
839.129	0.0191270
839.207	0.0192090
839.285	0.0192014
839.363	0.0193748
839.442	0.0193716
839.520	0.0194572
839.598	0.0195201
839.676	0.0194648
839.754	0.0195812
839.832	0.0196347
839.910	0.0197178
839.988	0.0197092
840.067	0.0198025
840.145	0.0197871
840.223	0.0197720
840.301	0.0197969
840.379	0.0197658
840.457	0.0197860
840.535	0.0197955
840.613	0.0198293
840.692	0.0197218
840.770	0.0197884
840.848	0.0197398
840.926	0.0197152
841.004	0.0196951
841.082	0.0197092
841.160	0.0197115
841.238	0.0196711
841.317	0.0196376
841.395	0.0196120
841.473	0.0195918
841.551	0.0196402
841.629	0.0195285
841.707	0.0194302
841.785	0.0194718
841.863	0.0192789
841.942	0.0192962
842.020	0.0192441
842.098	0.0191472
842.176	0.0190665
842.254	0.0189223
842.332	0.0187952
842.410	0.0187572
842.488	0.0188442
842.567	0.0187917
842.645	0.0188158
842.723	0.0186332
842.801	0.0186325
842.879	0.0186937
842.957	0.0186526
843.035	0.0186681
843.113	0.0187009
843.192	0.0185199
843.270	0.0186432
843.348	0.0186613
843.426	0.0186655
843.504	0.0186562
843.582	0.0187409
843.660	0.0186989
843.738	0.0186819
843.817	0.0188165
843.895	0.0186307
843.973	0.0188234
844.051	0.0189326
844.129	0.0188802
844.207	0.0188873
844.285	0.0189707
844.363	0.0187649
844.442	0.0187820
844.520	0.0188155
844.598	0.0188655
844.676	0.0187349
844.754	0.0187957
844.832	0.0187433
844.910	0.0187810
844.988	0.0188390
845.067	0.0188248
845.145	0.0188457
845.223	0.0188873
845.301	0.0189770
845.379	0.0190742
845.457	0.0190343
845.535	0.0190153
845.613	0.0190733
845.692	0.0192037
845.770	0.0192043
845.848	0.0191756
845.926	0.0192427
846.004	0.0192973
846.082	0.0193295
846.160	0.0193353
846.238	0.0194357
846.317	0.0195071
846.395	0.0194787
846.473	0.0195071
846.551	0.0194870
846.629	0.0194919
846.707	0.0194185
846.785	0.0195075
846.863	0.0193810
846.942	0.0193213
847.020	0.0194223
847.098	0.0193172
847.176	0.0193549
847.254	0.0193060
847.332	0.0193590
847.410	0.0193510
847.488	0.0193227
847.567	0.0191887
847.645	0.0192304
847.723	0.0192692
847.801	0.0193330
847.879	0.0193170
847.957	0.0192798
848.035	0.0194099
848.113	0.0193370
848.192	0.0192508
848.270	0.0194001
848.348	0.0194406
848.426	0.0194673
848.504	0.0195159
848.582	0.0193588
848.660	0.0194484
848.738	0.0194403
848.817	0.0194619
848.895	0.0194384
848.973	0.0193620
849.051	0.0194539
849.129	0.0194604
849.207	0.0193476
849.285	0.0193401
849.363	0.0192919
849.442	0.0191641
849.520	0.0192805
849.598	0.0190331
849.676	0.0190617
849.754	0.0189761
849.832	0.0188861
849.910	0.0189311
849.988	0.0188973
850.067	0.0187817
850.145	0.0186860
850.223	0.0188789
850.301	0.0189019
850.379	0.0188590
850.457	0.0186826
850.535	0.0187867
850.613	0.0188225
850.692	0.0188870
850.770	0.0188450
850.848	0.0190030
850.926	0.0189896
851.004	0.0191989
851.082	0.0190489
851.160	0.0190385
851.238	0.0191885
851.317	0.0189562
851.395	0.0191383
851.473	0.0191965
851.551	0.0190617
851.629	0.0191032
851.707	0.0190614
851.785	0.0190018
851.863	0.0189530
851.942	0.0190401
852.020	0.0190431
852.098	0.0189646
852.176	0.0189139
852.254	0.0189013
852.332	0.0189337
852.410	0.0189616
852.488	0.0188769
852.567	0.0190706
852.645	0.0189594
852.723	0.0191173
852.801	0.0190030
852.879	0.0190915
852.957	0.0191779
853.035	0.0191582
853.113	0.0192763
853.192	0.0192104
853.270	0.0192859
853.348	0.0193747
853.426	0.0193242
853.504	0.0192466
853.582	0.0193237
853.660	0.0193221
853.738	0.0193845
853.817	0.0194285
853.895	0.0194857
853.973	0.0193717
854.051	0.0192948
854.129	0.0193999
854.207	0.0194225
854.285	0.0192870
854.363	0.0192597
854.442	0.0192759
854.520	0.0193153
854.598	0.0193307
854.676	0.0194071
854.754	0.0193050
854.832	0.0191206
854.910	0.0193663
854.988	0.0194810
855.067	0.0192566
855.145	0.0193288
855.223	0.0193197
855.301	0.0192625
855.379	0.0192501
855.457	0.0191037
855.535	0.0191635
855.613	0.0192593
855.692	0.0191726
855.770	0.0190115
855.848	0.0190849
855.926	0.0189868
856.004	0.0190919
856.082	0.0192228
856.160	0.0191552
856.238	0.0191818
856.317	0.0191014
856.395	0.0191959
856.473	0.0192236
856.551	0.0191225
856.629	0.0193544
856.707	0.0193914
856.785	0.0191956
856.863	0.0193654
856.942	0.0194743
857.020	0.0192262
857.098	0.0192083
857.176	0.0191969
857.254	0.0191597
857.332	0.0193137
857.410	0.0191653
857.488	0.0190163
857.567	0.0192564
857.645	0.0191776
857.723	0.0191179
857.801	0.0190611
857.879	0.0189159
857.957	0.0188722
858.035	0.0189061
858.113	0.0189498
858.192	0.0188199
858.270	0.0189617
858.348	0.0188148
858.426	0.0189721
858.504	0.0189947
858.582	0.0188203
858.660	0.0188232
858.738	0.0190182
858.817	0.0188410
858.895	0.0188542
858.973	0.0190711
859.051	0.0191072
859.129	0.0189561
859.207	0.0189708
859.285	0.0190224
859.363	0.0191098
859.442	0.0191792
859.520	0.0191168
859.598	0.0190502
859.676	0.0192210
859.754	0.0191574
859.832	0.0193295
859.910	0.0192326
859.988	0.0193057
860.067	0.0193203
860.145	0.0192550
860.223	0.0192403
860.301	0.0191712
860.379	0.0192955
860.457	0.0194492
860.535	0.0193803
860.613	0.0192442
860.692	0.0192790
860.770	0.0193329
860.848	0.0192185
860.926	0.0195444
861.004	0.0193330
861.082	0.0194269
861.160	0.0194576
861.238	0.0194775
861.317	0.0194475
861.395	0.0193709
861.473	0.0193658
861.551	0.0194901
861.629	0.0192248
861.707	0.0192545
861.785	0.0191589
861.863	0.0191878
861.942	0.0191087
862.020	0.0192323
862.098	0.0191344
862.176	0.0191294
862.254	0.0190123
862.332	0.0191148
862.410	0.0189252
862.488	0.0190569
862.567	0.0191189
862.645	0.0190247
862.723	0.0190968
862.801	0.0188689
862.879	0.0190001
862.957	0.0189534
863.035	0.0190489
863.113	0.0191539
863.192	0.0190736
863.270	0.0190788
863.348	0.0190829
863.426	0.0190336
863.504	0.0189257
863.582	0.0191276
863.660	0.0191216
863.738	0.0191657
863.817	0.0192023
863.895	0.0190675
863.973	0.0191093
864.051	0.0191318
864.129	0.0192280
864.207	0.0192243
864.285	0.0189738
864.363	0.0191551
864.442	0.0193232
864.520	0.0192441
864.598	0.0190623
864.676	0.0191628
864.754	0.0189944
864.832	0.0190921
864.910	0.0190224
864.988	0.0190217
865.067	0.0191274
865.145	0.0190569
865.223	0.0191821
865.301	0.0190680
865.379	0.0190892
865.457	0.0190929
865.535	0.0191617
865.613	0.0191595
865.692	0.0190457
865.770	0.0192370
865.848	0.0191957
865.926	0.0191531
866.004	0.0190910
866.082	0.0192825
866.160	0.0191246
866.238	0.0190846
866.317	0.0191435
866.395	0.0191346
866.473	0.0191699
866.551	0.0191286
866.629	0.0190541
866.707	0.0191050
866.785	0.0191125
866.863	0.0192017
866.942	0.0190970
867.020	0.0191711
867.098	0.0193880
867.176	0.0193437
867.254	0.0194280
867.332	0.0192730
867.410	0.0195601
867.488	0.0194525
867.567	0.0193353
867.645	0.0193921
867.723	0.0194095
867.801	0.0194368
867.879	0.0193331
867.957	0.0194005
868.035	0.0194536
868.113	0.0194475
868.192	0.0194367
868.270	0.0193288
868.348	0.0195747
868.426	0.0193226
868.504	0.0191843
868.582	0.0192368
868.660	0.0192707
868.738	0.0190729
868.817	0.0191714
868.895	0.0191737
868.973	0.0189673
869.051	0.0188958
869.129	0.0190179
869.207	0.0189429
869.285	0.0189748
869.363	0.0189205
869.442	0.0191026
869.520	0.0189384
869.598	0.0189507
869.676	0.0190684
869.754	0.0190498
869.832	0.0191010
869.910	0.0191244
869.988	0.0191097
870.067	0.0189921
870.145	0.0190865
870.223	0.0189945
870.301	0.0191618
870.379	0.0192142
870.457	0.0190713
870.535	0.0190828
870.613	0.0190530
870.692	0.0192089
870.770	0.0191505
870.848	0.0188970
870.926	0.0189822
871.004	0.0189694
871.082	0.0189310
871.160	0.0190549
871.238	0.0189520
871.317	0.0187978
871.395	0.0188979
871.473	0.0188743
871.551	0.0187936
871.629	0.0189218
871.707	0.0189978
871.785	0.0190691
871.863	0.0190787
871.942	0.0190170
872.020	0.0190968
872.098	0.0191676
872.176	0.0192032
872.254	0.0192210
872.332	0.0192876
872.410	0.0193632
872.488	0.0193439
872.567	0.0194329
872.645	0.0192491
872.723	0.0192298
872.801	0.0191688
872.879	0.0192302
872.957	0.0191336
873.035	0.0192132
873.113	0.0191794
873.192	0.0191975
873.270	0.0190730
873.348	0.0192051
873.426	0.0191270
873.504	0.0192196
873.582	0.0191505
873.660	0.0192552
873.738	0.0192007
873.817	0.0193564
873.895	0.0192873
873.973	0.0192504
874.051	0.0192668
874.129	0.0192453
874.207	0.0193882
874.285	0.0194229
874.363	0.0194993
874.442	0.0194422
874.520	0.0193571
874.598	0.0195041
874.676	0.0195414
874.754	0.0195175
874.832	0.0194533
874.910	0.0195525
874.988	0.0192744
875.067	0.0193927
875.145	0.0193670
875.223	0.0192439
875.301	0.0193264
875.379	0.0192190
875.457	0.0191284
875.535	0.0189222
875.613	0.0191764
875.692	0.0190608
875.770	0.0188972
875.848	0.0187993
875.926	0.0188808
876.004	0.0189403
876.082	0.0188412
876.160	0.0189124
876.238	0.0187896
876.317	0.0187994
876.395	0.0188898
876.473	0.0189715
876.551	0.0188914
876.629	0.0189211
876.707	0.0189058
876.785	0.0190305
876.863	0.0189386
876.942	0.0189362
877.020	0.0190525
877.098	0.0191573
877.176	0.0191128
877.254	0.0190514
877.332	0.0191305
877.410	0.0191852
877.488	0.0191760
877.567	0.0191736
877.645	0.0190179
877.723	0.0191226
877.801	0.0189945
877.879	0.0192175
877.957	0.0192253
878.035	0.0192130
878.113	0.0191502
878.192	0.0189349
878.270	0.0191720
878.348	0.0190406
878.426	0.0189719
878.504	0.0191613
878.582	0.0191002
878.660	0.0190112
878.738	0.0190950
878.817	0.0191936
878.895	0.0190727
878.973	0.0191938
879.051	0.0191507
879.129	0.0193372
879.207	0.0192467
879.285	0.0192468
879.363	0.0191840
879.442	0.0191765
879.520	0.0192181
879.598	0.0193212
879.676	0.0191422
879.754	0.0189268
879.832	0.0190189
879.910	0.0189204
879.988	0.0190263
880.067	0.0189606
880.145	0.0189123
880.223	0.0189642
880.301	0.0190398
880.379	0.0190635
880.457	0.0190990
880.535	0.0191263
880.613	0.0192894
880.692	0.0193272
880.770	0.0192793
880.848	0.0193478
880.926	0.0193883
881.004	0.0192929
881.082	0.0193716
881.160	0.0194110
881.238	0.0194681
881.317	0.0195400
881.395	0.0193089
881.473	0.0193240
881.551	0.0194320
881.629	0.0194617
881.707	0.0194041
881.785	0.0194119
881.863	0.0193828
881.942	0.0193655
882.020	0.0193745
882.098	0.0191837
882.176	0.0192858
882.254	0.0192194
882.332	0.0191834
882.410	0.0190872
882.488	0.0190959
882.567	0.0191782
882.645	0.0190481
882.723	0.0189708
882.801	0.0189188
882.879	0.0189534
882.957	0.0189445
883.035	0.0189953
883.113	0.0188934
883.192	0.0189433
883.270	0.0189812
883.348	0.0190776
883.426	0.0187936
883.504	0.0188365
883.582	0.0188527
883.660	0.0190344
883.738	0.0189372
883.817	0.0189400
883.895	0.0189266
883.973	0.0188409
884.051	0.0189048
884.129	0.0189926
884.207	0.0188990
884.285	0.0190049
884.363	0.0190961
884.442	0.0189912
884.520	0.0191357
884.598	0.0192445
884.676	0.0192085
884.754	0.0192736
884.832	0.0194070
884.910	0.0193148
884.988	0.0194145
885.067	0.0193679
885.145	0.0193925
885.223	0.0194845
885.301	0.0194635
885.379	0.0192499
885.457	0.0192301
885.535	0.0193833
885.613	0.0193072
885.692	0.0193442
885.770	0.0194054
885.848	0.0191225
885.926	0.0193121
886.004	0.0192793
886.082	0.0191963
886.160	0.0191245
886.238	0.0191650
886.317	0.0190897
886.395	0.0191544
886.473	0.0191409
886.551	0.0190836
886.629	0.0191223
886.707	0.0190836
886.785	0.0189294
886.863	0.0190144
886.942	0.0190316
887.020	0.0189865
887.098	0.0189571
887.176	0.0188679
887.254	0.0189198
887.332	0.0188718
887.410	0.0190392
887.488	0.0188379
887.567	0.0189046
887.645	0.0190746
887.723	0.0190349
887.801	0.0190920
887.879	0.0190536
887.957	0.0192032
888.035	0.0190791
888.113	0.0190226
888.192	0.0191941
888.270	0.0192494
888.348	0.0192780
888.426	0.0191846
888.504	0.0193590
888.582	0.0194050
888.660	0.0191868
888.738	0.0193519
888.817	0.0192747
888.895	0.0192765
888.973	0.0193469
889.051	0.0191988
889.129	0.0192096
889.207	0.0192207
889.285	0.0191147
889.363	0.0191736
889.442	0.0191532
889.520	0.0189290
889.598	0.0190752
889.676	0.0191308
889.754	0.0191202
889.832	0.0190369
889.910	0.0189214
889.988	0.0190573
890.067	0.0190875
890.145	0.0190141
890.223	0.0189919
890.301	0.0191772
890.379	0.0190199
890.457	0.0191602
890.535	0.0191774
890.613	0.0191850
890.692	0.0190603
890.770	0.0190546
890.848	0.0190768
890.926	0.0190131
891.004	0.0191576
891.082	0.0191103
891.160	0.0190685
891.238	0.0191338
891.317	0.0191267
891.395	0.0190364
891.473	0.0192016
891.551	0.0189958
891.629	0.0190156
891.707	0.0191425
891.785	0.0190686
891.863	0.0190380
891.942	0.0191599
892.020	0.0192730
892.098	0.0192358
892.176	0.0192147
892.254	0.0191334
892.332	0.0190990
892.410	0.0192424
892.488	0.0192395
892.567	0.0193886
892.645	0.0191324
892.723	0.0192539
892.801	0.0193870
892.879	0.0192610
892.957	0.0192862
893.035	0.0193101
893.113	0.0192629
893.192	0.0192296
893.270	0.0192200
893.348	0.0192332
893.426	0.0190491
893.504	0.0190794
893.582	0.0190369
893.660	0.0190821
893.738	0.0190750
893.817	0.0190324
893.895	0.0189947
893.973	0.0189452
894.051	0.0189631
894.129	0.0190116
894.207	0.0191005
894.285	0.0192319
894.363	0.0190881
894.442	0.0191216
894.520	0.0190320
894.598	0.0191505
894.676	0.0190823
894.754	0.0191058
894.832	0.0190564
894.910	0.0190887
894.988	0.0192171
895.067	0.0192493
895.145	0.0192551
895.223	0.0193166
895.301	0.0192522
895.379	0.0192146
895.457	0.0192833
895.535	0.0190930
895.613	0.0191920
895.692	0.0192774
895.770	0.0190485
895.848	0.0191301
895.926	0.0191035
896.004	0.0191241
896.082	0.0190395
896.160	0.0191846
896.238	0.0191582
896.317	0.0191019
896.395	0.0192001
896.473	0.0190427
896.551	0.0190083
896.629	0.0190022
896.707	0.0190517
896.785	0.0190157
896.863	0.0189328
896.942	0.0189794
897.020	0.0189937
897.098	0.0190301
897.176	0.0189629
897.254	0.0190298
897.332	0.0189315
897.410	0.0189749
897.488	0.0190970
897.567	0.0192999
897.645	0.0190803
897.723	0.0190490
897.801	0.0191486
897.879	0.0193003
897.957	0.0191344
898.035	0.0190716
898.113	0.0191412
898.192	0.0192480
898.270	0.0192221
898.348	0.0190963
898.426	0.0192052
898.504	0.0191578
898.582	0.0192818
898.660	0.0192621
898.738	0.0193204
898.817	0.0193076
898.895	0.0193314
898.973	0.0193806
899.051	0.0193629
899.129	0.0193581
899.207	0.0193713
899.285	0.0193279
899.363	0.0193851
899.442	0.0194981
899.520	0.0195236
899.598	0.0195366
899.676	0.0195203
899.754	0.0194697
899.832	0.0192528
899.910	0.0194341
899.988	0.0194475
900.067	0.0192587
900.145	0.0193436
900.223	0.0193025
900.301	0.0193153
900.379	0.0191642
900.457	0.0191840
900.535	0.0192162
900.613	0.0189558
900.692	0.0188161
900.770	0.0190658
900.848	0.0189841
900.926	0.0188606
901.004	0.0190416
901.082	0.0188449
901.160	0.0189465
901.238	0.0189564
901.317	0.0188036
901.395	0.0189520
901.473	0.0188622
901.551	0.0188797
901.629	0.0190195
901.707	0.0188224
901.785	0.0189512
901.863	0.0190112
901.942	0.0190675
902.020	0.0190608
902.098	0.0189410
902.176	0.0191911
902.254	0.0192016
902.332	0.0191735
902.410	0.0192188
902.488	0.0193202
902.567	0.0193130
902.645	0.0192031
902.723	0.0191845
902.801	0.0192733
902.879	0.0193636
902.957	0.0192000
903.035	0.0192226
903.113	0.0192340
903.192	0.0192549
903.270	0.0192488
903.348	0.0192805
903.426	0.0192670
903.504	0.0192374
903.582	0.0192574
903.660	0.0191127
903.738	0.0191199
903.817	0.0190422
903.895	0.0190366
903.973	0.0189597
904.051	0.0189146
904.129	0.0190470
904.207	0.0189208
904.285	0.0188521
904.363	0.0187796
904.442	0.0188886
904.520	0.0188356
904.598	0.0189400
904.676	0.0190887
904.754	0.0191332
904.832	0.0191142
904.910	0.0190770
904.988	0.0192558
905.067	0.0190724
905.145	0.0191032
905.223	0.0192691
905.301	0.0192228
905.379	0.0192336
905.457	0.0192657
905.535	0.0191980
905.613	0.0192805
905.692	0.0193068
905.770	0.0192948
905.848	0.0192294
905.926	0.0193703
906.004	0.0192927
906.082	0.0192014
906.160	0.0192799
906.238	0.0192943
906.317	0.0191487
906.395	0.0191878
906.473	0.0192016
906.551	0.0191766
906.629	0.0191293
906.707	0.0190280
906.785	0.0189284
906.863	0.0189124
906.942	0.0189105
907.020	0.0188329
907.098	0.0187920
907.176	0.0189123
907.254	0.0189280
907.332	0.0189175
907.410	0.0188573
907.488	0.0189123
907.567	0.0189758
907.645	0.0188785
907.723	0.0188992
907.801	0.0191426
907.879	0.0190874
907.957	0.0190106
908.035	0.0191452
908.113	0.0191673
908.192	0.0192756
908.270	0.0193259
908.348	0.0193726
908.426	0.0193804
908.504	0.0193479
908.582	0.0192695
908.660	0.0194883
908.738	0.0194193
908.817	0.0194852
908.895	0.0191981
908.973	0.0193246
909.051	0.0193613
909.129	0.0192531
909.207	0.0192473
909.285	0.0191199
909.363	0.0190500
909.442	0.0191615
909.520	0.0191349
909.598	0.0190381
909.676	0.0189917
909.754	0.0189101
909.832	0.0189313
909.910	0.0189455
909.988	0.0188235
910.067	0.0188966
910.145	0.0189733
910.223	0.0188778
910.301	0.0189625
910.379	0.0190638
910.457	0.0188584
910.535	0.0191074
910.613	0.0191827
910.692	0.0190830
910.770	0.0191238
910.848	0.0192377
910.926	0.0192172
911.004	0.0192722
911.082	0.0192821
911.160	0.0191823
911.238	0.0191287
911.317	0.0191533
911.395	0.0192576
911.473	0.0193495
911.551	0.0192003
911.629	0.0192960
911.707	0.0192326
911.785	0.0192693
911.863	0.0191853
911.942	0.0192154
912.020	0.0191135
912.098	0.0190464
912.176	0.0189835
912.254	0.0190295
912.332	0.0190006
912.410	0.0188109
912.488	0.0189914
912.567	0.0190929
912.645	0.0188898
912.723	0.0188722
912.801	0.0190062
912.879	0.0190641
912.957	0.0189729
913.035	0.0189362
913.113	0.0190380
913.192	0.0190009
913.270	0.0190641
913.348	0.0191228
913.426	0.0190446
913.504	0.0190826
913.582	0.0190526
913.660	0.0191722
913.738	0.0190755
913.817	0.0188339
913.895	0.0190556
913.973	0.0189093
914.051	0.0189208
914.129	0.0189949
914.207	0.0188584
914.285	0.0188805
914.363	0.0189287
914.442	0.0189625
914.520	0.0189230
914.598	0.0189140
914.676	0.0189724
914.754	0.0190755
914.832	0.0192206
914.910	0.0191758
914.988	0.0192513
915.067	0.0193210
915.145	0.0193510
915.223	0.0195338
915.301	0.0195270
915.379	0.0195238
915.457	0.0196191
915.535	0.0196331
915.613	0.0196204
915.692	0.0194626
915.770	0.0195867
915.848	0.0196126
915.926	0.0193861
916.004	0.0194662
916.082	0.0193790
916.160	0.0193231
916.238	0.0192776
916.317	0.0192444
916.395	0.0191209
916.473	0.0190857
916.551	0.0190296
916.629	0.0190227
916.707	0.0188942
916.785	0.0188728
916.863	0.0190230
916.942	0.0187879
917.020	0.0189564
917.098	0.0190338
917.176	0.0191206
917.254	0.0189159
917.332	0.0190218
917.410	0.0191895
917.488	0.0190937
917.567	0.0191232
917.645	0.0192046
917.723	0.0191570
917.801	0.0190873
917.879	0.0191881
917.957	0.0191680
918.035	0.0190791
918.113	0.0191068
918.192	0.0189696
918.270	0.0191151
918.348	0.0190272
918.426	0.0189708
918.504	0.0188358
918.582	0.0189639
918.660	0.0188334
918.738	0.0187590
918.817	0.0187955
918.895	0.0188115
918.973	0.0187848
919.051	0.0189189
919.129	0.0189580
919.207	0.0188381
919.285	0.0188585
919.363	0.0190870
919.442	0.0190672
919.520	0.0190115
919.598	0.0191299
919.676	0.0191200
919.754	0.0191826
919.832	0.0192097
919.910	0.0191896
