06/01/2022	21:51:53	Ver.	4.1	UNKNOWN
Optical Delay	599.988409	Delta X		0.078125	Sweeps	1	Scan Rate	0/0
Coordinates	Axis 1	NaN	Axis 2	NaN	Axis 3	NaN	Axis 4	NaN	Axis 5	NaN	Axis 6	0.000000
TX Power	0.000000	RX Power	0.000000

599.988	0.0182475
600.067	0.0182991
600.145	0.0182893
600.223	0.0183144
600.301	0.0182783
600.379	0.0182447
600.457	0.0182323
600.535	0.0182015
600.613	0.0183544
600.692	0.0182857
600.770	0.0181804
600.848	0.0183485
600.926	0.0181756
601.004	0.0182458
601.082	0.0183199
601.160	0.0182811
601.238	0.0182380
601.317	0.0181682
601.395	0.0183719
601.473	0.0183916
601.551	0.0182593
601.629	0.0182114
601.707	0.0181848
601.785	0.0183540
601.863	0.0183382
601.942	0.0182825
602.020	0.0183057
602.098	0.0182575
602.176	0.0182130
602.254	0.0181977
602.332	0.0182831
602.410	0.0182300
602.488	0.0181933
602.567	0.0183232
602.645	0.0182572
602.723	0.0180406
602.801	0.0182781
602.879	0.0182367
602.957	0.0181735
603.035	0.0181834
603.113	0.0182577
603.192	0.0182839
603.270	0.0181493
603.348	0.0182743
603.426	0.0182783
603.504	0.0182629
603.582	0.0183230
603.660	0.0183400
603.738	0.0182002
603.817	0.0182501
603.895	0.0182817
603.973	0.0183021
604.051	0.0182904
604.129	0.0182185
604.207	0.0182771
604.285	0.0182500
604.363	0.0182117
604.442	0.0182239
604.520	0.0181658
604.598	0.0181884
604.676	0.0182497
604.754	0.0182098
604.832	0.0184167
604.910	0.0182124
604.988	0.0182798
605.067	0.0182667
605.145	0.0182594
605.223	0.0182142
605.301	0.0182155
605.379	0.0182127
605.457	0.0183334
605.535	0.0181931
605.613	0.0182389
605.692	0.0182756
605.770	0.0181996
605.848	0.0181948
605.926	0.0182777
606.004	0.0183048
606.082	0.0182769
606.160	0.0182372
606.238	0.0182858
606.317	0.0182395
606.395	0.0182079
606.473	0.0183216
606.551	0.0181976
606.629	0.0180803
606.707	0.0182216
606.785	0.0183703
606.863	0.0181096
606.942	0.0183389
607.020	0.0182108
607.098	0.0181729
607.176	0.0182307
607.254	0.0183112
607.332	0.0182629
607.410	0.0180347
607.488	0.0181396
607.567	0.0182614
607.645	0.0182082
607.723	0.0182056
607.801	0.0181318
607.879	0.0182592
607.957	0.0181413
608.035	0.0183237
608.113	0.0182846
608.192	0.0182367
608.270	0.0181656
608.348	0.0182231
608.426	0.0182044
608.504	0.0183070
608.582	0.0181754
608.660	0.0182549
608.738	0.0182140
608.817	0.0182822
608.895	0.0183658
608.973	0.0182821
609.051	0.0183201
609.129	0.0182054
609.207	0.0181587
609.285	0.0181991
609.363	0.0182693
609.442	0.0182230
609.520	0.0184009
609.598	0.0182022
609.676	0.0184061
609.754	0.0181973
609.832	0.0181835
609.910	0.0183171
609.988	0.0181977
610.067	0.0182903
610.145	0.0182232
610.223	0.0182238
610.301	0.0181293
610.379	0.0183431
610.457	0.0181207
610.535	0.0181601
610.613	0.0182395
610.692	0.0183079
610.770	0.0182096
610.848	0.0182338
610.926	0.0181985
611.004	0.0182517
611.082	0.0182334
611.160	0.0181171
611.238	0.0182581
611.317	0.0182306
611.395	0.0182139
611.473	0.0181425
611.551	0.0182419
611.629	0.0183662
611.707	0.0183947
611.785	0.0182906
611.863	0.0181956
611.942	0.0181293
612.020	0.0182279
612.098	0.0180676
612.176	0.0181835
612.254	0.0182917
612.332	0.0181602
612.410	0.0183152
612.488	0.0183651
612.567	0.0180963
612.645	0.0181052
612.723	0.0182292
612.801	0.0181583
612.879	0.0182582
612.957	0.0180753
613.035	0.0183031
613.113	0.0181567
613.192	0.0182199
613.270	0.0182362
613.348	0.0182092
613.426	0.0181519
613.504	0.0182887
613.582	0.0183102
613.660	0.0183298
613.738	0.0182932
613.817	0.0182306
613.895	0.0182389
613.973	0.0183779
614.051	0.0183359
614.129	0.0182571
614.207	0.0182780
614.285	0.0181374
614.363	0.0183241
614.442	0.0182584
614.520	0.0183959
614.598	0.0183256
614.676	0.0182533
614.754	0.0183209
614.832	0.0182952
614.910	0.0182608
614.988	0.0183723
615.067	0.0181570
615.145	0.0182417
615.223	0.0182088
615.301	0.0182629
615.379	0.0182236
615.457	0.0182043
615.535	0.0184273
615.613	0.0183033
615.692	0.0181874
615.770	0.0182987
615.848	0.0182790
615.926	0.0182426
616.004	0.0181239
616.082	0.0182048
616.160	0.0183234
616.238	0.0182043
616.317	0.0182664
616.395	0.0184562
616.473	0.0183293
616.551	0.0183171
616.629	0.0182380
616.707	0.0181592
616.785	0.0184190
616.863	0.0182059
616.942	0.0182863
617.020	0.0183276
617.098	0.0182343
617.176	0.0183185
617.254	0.0182380
617.332	0.0182121
617.410	0.0182280
617.488	0.0183327
617.567	0.0183804
617.645	0.0183102
617.723	0.0183100
617.801	0.0182796
617.879	0.0183548
617.957	0.0183286
618.035	0.0182433
618.113	0.0183484
618.192	0.0183607
618.270	0.0181892
618.348	0.0183955
618.426	0.0184398
618.504	0.0182128
618.582	0.0181669
618.660	0.0183266
618.738	0.0183839
618.817	0.0183257
618.895	0.0183681
618.973	0.0183504
619.051	0.0182297
619.129	0.0181059
619.207	0.0184472
619.285	0.0182860
619.363	0.0182820
619.442	0.0183025
619.520	0.0183331
619.598	0.0183616
619.676	0.0181785
619.754	0.0182742
619.832	0.0182227
619.910	0.0182182
619.988	0.0182200
620.067	0.0183188
620.145	0.0182770
620.223	0.0183030
620.301	0.0183348
620.379	0.0182541
620.457	0.0182719
620.535	0.0183559
620.613	0.0181805
620.692	0.0183127
620.770	0.0183305
620.848	0.0182117
620.926	0.0182154
621.004	0.0182411
621.082	0.0182381
621.160	0.0181524
621.238	0.0181751
621.317	0.0181866
621.395	0.0182502
621.473	0.0182530
621.551	0.0181664
621.629	0.0182439
621.707	0.0182446
621.785	0.0182722
621.863	0.0181724
621.942	0.0183070
622.020	0.0182306
622.098	0.0183307
622.176	0.0182426
622.254	0.0182662
622.332	0.0182504
622.410	0.0182836
622.488	0.0183008
622.567	0.0181165
622.645	0.0182279
622.723	0.0182191
622.801	0.0182758
622.879	0.0182690
622.957	0.0182858
623.035	0.0182653
623.113	0.0182473
623.192	0.0183420
623.270	0.0182640
623.348	0.0181052
623.426	0.0182790
623.504	0.0182012
623.582	0.0182037
623.660	0.0182512
623.738	0.0182649
623.817	0.0182885
623.895	0.0183199
623.973	0.0182947
624.051	0.0183231
624.129	0.0181597
624.207	0.0182217
624.285	0.0182820
624.363	0.0182624
624.442	0.0182827
624.520	0.0180651
624.598	0.0182354
624.676	0.0182166
624.754	0.0182610
624.832	0.0183038
624.910	0.0182925
624.988	0.0182371
625.067	0.0182584
625.145	0.0182069
625.223	0.0182403
625.301	0.0182948
625.379	0.0182647
625.457	0.0183622
625.535	0.0182773
625.613	0.0182346
625.692	0.0182132
625.770	0.0183304
625.848	0.0182805
625.926	0.0183357
626.004	0.0182615
626.082	0.0182707
626.160	0.0181590
626.238	0.0183540
626.317	0.0183276
626.395	0.0181776
626.473	0.0182598
626.551	0.0182384
626.629	0.0182152
626.707	0.0182362
626.785	0.0182494
626.863	0.0180874
626.942	0.0183107
627.020	0.0183103
627.098	0.0182722
627.176	0.0182301
627.254	0.0183655
627.332	0.0182343
627.410	0.0183120
627.488	0.0182454
627.567	0.0181902
627.645	0.0180978
627.723	0.0182832
627.801	0.0183881
627.879	0.0181081
627.957	0.0182642
628.035	0.0180402
628.113	0.0181878
628.192	0.0181686
628.270	0.0182130
628.348	0.0182077
628.426	0.0181564
628.504	0.0182346
628.582	0.0182439
628.660	0.0183285
628.738	0.0183124
628.817	0.0182501
628.895	0.0182300
628.973	0.0182435
629.051	0.0182689
629.129	0.0182476
629.207	0.0182715
629.285	0.0182259
629.363	0.0183701
629.442	0.0183408
629.520	0.0182083
629.598	0.0182623
629.676	0.0182811
629.754	0.0182391
629.832	0.0181939
629.910	0.0182146
629.988	0.0181918
630.067	0.0182136
630.145	0.0182563
630.223	0.0182236
630.301	0.0182615
630.379	0.0181627
630.457	0.0181828
630.535	0.0181523
630.613	0.0182327
630.692	0.0183558
630.770	0.0182805
630.848	0.0183060
630.926	0.0181218
631.004	0.0183301
631.082	0.0183063
631.160	0.0182082
631.238	0.0182800
631.317	0.0183301
631.395	0.0182114
631.473	0.0182531
631.551	0.0183557
631.629	0.0182225
631.707	0.0183337
631.785	0.0184023
631.863	0.0181516
631.942	0.0181513
632.020	0.0184031
632.098	0.0181899
632.176	0.0182456
632.254	0.0183725
632.332	0.0182484
632.410	0.0182793
632.488	0.0183201
632.567	0.0183641
632.645	0.0182383
632.723	0.0181281
632.801	0.0183733
632.879	0.0181548
632.957	0.0182127
633.035	0.0182259
633.113	0.0183378
633.192	0.0182029
633.270	0.0182616
633.348	0.0182532
633.426	0.0181940
633.504	0.0182969
633.582	0.0182294
633.660	0.0182035
633.738	0.0183087
633.817	0.0181299
633.895	0.0181918
633.973	0.0183514
634.051	0.0182360
634.129	0.0182571
634.207	0.0182047
634.285	0.0183042
634.363	0.0182276
634.442	0.0182197
634.520	0.0182631
634.598	0.0182015
634.676	0.0183082
634.754	0.0182304
634.832	0.0182153
634.910	0.0182369
634.988	0.0182591
635.067	0.0182506
635.145	0.0182466
635.223	0.0183077
635.301	0.0182738
635.379	0.0182461
635.457	0.0184911
635.535	0.0183102
635.613	0.0184204
635.692	0.0182806
635.770	0.0181578
635.848	0.0182978
635.926	0.0182953
636.004	0.0181470
636.082	0.0182356
636.160	0.0182606
636.238	0.0183209
636.317	0.0182213
636.395	0.0182298
636.473	0.0182906
636.551	0.0183381
636.629	0.0183551
636.707	0.0184644
636.785	0.0183048
636.863	0.0183504
636.942	0.0182932
637.020	0.0182607
637.098	0.0182799
637.176	0.0183714
637.254	0.0182739
637.332	0.0182619
637.410	0.0182001
637.488	0.0182712
637.567	0.0181590
637.645	0.0182713
637.723	0.0182064
637.801	0.0181734
637.879	0.0182099
637.957	0.0182800
638.035	0.0183533
638.113	0.0181721
638.192	0.0182538
638.270	0.0182288
638.348	0.0183418
638.426	0.0184582
638.504	0.0184795
638.582	0.0183420
638.660	0.0183473
638.738	0.0183283
638.817	0.0184711
638.895	0.0185641
638.973	0.0184348
639.051	0.0182269
639.129	0.0184114
639.207	0.0182877
639.285	0.0182871
639.363	0.0182748
639.442	0.0180618
639.520	0.0181255
639.598	0.0180691
639.676	0.0181712
639.754	0.0181773
639.832	0.0182198
639.910	0.0181394
639.988	0.0182767
640.067	0.0181857
640.145	0.0182303
640.223	0.0184507
640.301	0.0183276
640.379	0.0181644
640.457	0.0183521
640.535	0.0184390
640.613	0.0184840
640.692	0.0184229
640.770	0.0183746
640.848	0.0182426
640.926	0.0183820
641.004	0.0182753
641.082	0.0182240
641.160	0.0182242
641.238	0.0181831
641.317	0.0180453
641.395	0.0180770
641.473	0.0182751
641.551	0.0181972
641.629	0.0183040
641.707	0.0182743
641.785	0.0181706
641.863	0.0181446
641.942	0.0181763
642.020	0.0182647
642.098	0.0181273
642.176	0.0182064
642.254	0.0183312
642.332	0.0182339
642.410	0.0182685
642.488	0.0182929
642.567	0.0183764
642.645	0.0183104
642.723	0.0182985
642.801	0.0184465
642.879	0.0183137
642.957	0.0183132
643.035	0.0183043
643.113	0.0181873
643.192	0.0181102
643.270	0.0181895
643.348	0.0180978
643.426	0.0182573
643.504	0.0180629
643.582	0.0180627
643.660	0.0182204
643.738	0.0181138
643.817	0.0182494
643.895	0.0182826
643.973	0.0181705
644.051	0.0181530
644.129	0.0182085
644.207	0.0182175
644.285	0.0181289
644.363	0.0182411
644.442	0.0181873
644.520	0.0182203
644.598	0.0183280
644.676	0.0183031
644.754	0.0184184
644.832	0.0184721
644.910	0.0182882
644.988	0.0183376
645.067	0.0183079
645.145	0.0183707
645.223	0.0182811
645.301	0.0181554
645.379	0.0180636
645.457	0.0180829
645.535	0.0181024
645.613	0.0179876
645.692	0.0179832
645.770	0.0180904
645.848	0.0179845
645.926	0.0181396
646.004	0.0180676
646.082	0.0180597
646.160	0.0181567
646.238	0.0182447
646.317	0.0184151
646.395	0.0184272
646.473	0.0184389
646.551	0.0183914
646.629	0.0183916
646.707	0.0183755
646.785	0.0183485
646.863	0.0181855
646.942	0.0181675
647.020	0.0180905
647.098	0.0180570
647.176	0.0180931
647.254	0.0180772
647.332	0.0180817
647.410	0.0180864
647.488	0.0180796
647.567	0.0180430
647.645	0.0181329
647.723	0.0181688
647.801	0.0182078
647.879	0.0181899
647.957	0.0181854
648.035	0.0182101
648.113	0.0182607
648.192	0.0183050
648.270	0.0182971
648.348	0.0183516
648.426	0.0183769
648.504	0.0183926
648.582	0.0184418
648.660	0.0183675
648.738	0.0184315
648.817	0.0183591
648.895	0.0183324
648.973	0.0183358
649.051	0.0181393
649.129	0.0181126
649.207	0.0181683
649.285	0.0181132
649.363	0.0181363
649.442	0.0181534
649.520	0.0182332
649.598	0.0181973
649.676	0.0182643
649.754	0.0181696
649.832	0.0181791
649.910	0.0182115
649.988	0.0182706
650.067	0.0183660
650.145	0.0183450
650.223	0.0181978
650.301	0.0181762
650.379	0.0182664
650.457	0.0181789
650.535	0.0182119
650.613	0.0183743
650.692	0.0183918
650.770	0.0183116
650.848	0.0183649
650.926	0.0182907
651.004	0.0184644
651.082	0.0184080
651.160	0.0182663
651.238	0.0183149
651.317	0.0183041
651.395	0.0182726
651.473	0.0182946
651.551	0.0181103
651.629	0.0180991
651.707	0.0182125
651.785	0.0182156
651.863	0.0181738
651.942	0.0182390
652.020	0.0182098
652.098	0.0182760
652.176	0.0183032
652.254	0.0181800
652.332	0.0182655
652.410	0.0182633
652.488	0.0181245
652.567	0.0180956
652.645	0.0183199
652.723	0.0182422
652.801	0.0182292
652.879	0.0183444
652.957	0.0182430
653.035	0.0183139
653.113	0.0182124
653.192	0.0183111
653.270	0.0183414
653.348	0.0183007
653.426	0.0182442
653.504	0.0183054
653.582	0.0182867
653.660	0.0181717
653.738	0.0182217
653.817	0.0183954
653.895	0.0181762
653.973	0.0181667
654.051	0.0183125
654.129	0.0182703
654.207	0.0181542
654.285	0.0182930
654.363	0.0182021
654.442	0.0181805
654.520	0.0182025
654.598	0.0181618
654.676	0.0181696
654.754	0.0181370
654.832	0.0179914
654.910	0.0180347
654.988	0.0182712
655.067	0.0180818
655.145	0.0181979
655.223	0.0182410
655.301	0.0182935
655.379	0.0183122
655.457	0.0182546
655.535	0.0184067
655.613	0.0182283
655.692	0.0185088
655.770	0.0185307
655.848	0.0185101
655.926	0.0183681
656.004	0.0185298
656.082	0.0184814
656.160	0.0182736
656.238	0.0183010
656.317	0.0182220
656.395	0.0180714
656.473	0.0179942
656.551	0.0181779
656.629	0.0181448
656.707	0.0180059
656.785	0.0179810
656.863	0.0180013
656.942	0.0180323
657.020	0.0181280
657.098	0.0180840
657.176	0.0181797
657.254	0.0182340
657.332	0.0183794
657.410	0.0182867
657.488	0.0183462
657.567	0.0185319
657.645	0.0186162
657.723	0.0184929
657.801	0.0185268
657.879	0.0186699
657.957	0.0184708
658.035	0.0183402
658.113	0.0183411
658.192	0.0183975
658.270	0.0183191
658.348	0.0181762
658.426	0.0181693
658.504	0.0179140
658.582	0.0181024
658.660	0.0181117
658.738	0.0178774
658.817	0.0178448
658.895	0.0180037
658.973	0.0180857
659.051	0.0180506
659.129	0.0179542
659.207	0.0181104
659.285	0.0182920
659.363	0.0182378
659.442	0.0182516
659.520	0.0184483
659.598	0.0185014
659.676	0.0183510
659.754	0.0184000
659.832	0.0185342
659.910	0.0185742
659.988	0.0184444
660.067	0.0185760
660.145	0.0185143
660.223	0.0184905
660.301	0.0184047
660.379	0.0183153
660.457	0.0181386
660.535	0.0181036
660.613	0.0180970
660.692	0.0181062
660.770	0.0178709
660.848	0.0178444
660.926	0.0178023
661.004	0.0178069
661.082	0.0178728
661.160	0.0179266
661.238	0.0180653
661.317	0.0180784
661.395	0.0182557
661.473	0.0183663
661.551	0.0183533
661.629	0.0184541
661.707	0.0184628
661.785	0.0186111
661.863	0.0187791
661.942	0.0187486
662.020	0.0186129
662.098	0.0185855
662.176	0.0184063
662.254	0.0184557
662.332	0.0184954
662.410	0.0183813
662.488	0.0183759
662.567	0.0184152
662.645	0.0182606
662.723	0.0180705
662.801	0.0181367
662.879	0.0181303
662.957	0.0181957
663.035	0.0180841
663.113	0.0180096
663.192	0.0180655
663.270	0.0182280
663.348	0.0182228
663.426	0.0182636
663.504	0.0182362
663.582	0.0182391
663.660	0.0182877
663.738	0.0183030
663.817	0.0181751
663.895	0.0181992
663.973	0.0182975
664.051	0.0182989
664.129	0.0183120
664.207	0.0181310
664.285	0.0182478
664.363	0.0181269
664.442	0.0183363
664.520	0.0182432
664.598	0.0183405
664.676	0.0182438
664.754	0.0183266
664.832	0.0183022
664.910	0.0183313
664.988	0.0184540
665.067	0.0183578
665.145	0.0184530
665.223	0.0182487
665.301	0.0185049
665.379	0.0182895
665.457	0.0182216
665.535	0.0184164
665.613	0.0183177
665.692	0.0181770
665.770	0.0183577
665.848	0.0181352
665.926	0.0181518
666.004	0.0181071
666.082	0.0180332
666.160	0.0179858
666.238	0.0180682
666.317	0.0181040
666.395	0.0179282
666.473	0.0180702
666.551	0.0180598
666.629	0.0180637
666.707	0.0179997
666.785	0.0181097
666.863	0.0181477
666.942	0.0182460
667.020	0.0182982
667.098	0.0182897
667.176	0.0182832
667.254	0.0183672
667.332	0.0183390
667.410	0.0183671
667.488	0.0184246
667.567	0.0182448
667.645	0.0183046
667.723	0.0182253
667.801	0.0182360
667.879	0.0181116
667.957	0.0182181
668.035	0.0180626
668.113	0.0181275
668.192	0.0180283
668.270	0.0181300
668.348	0.0180333
668.426	0.0180673
668.504	0.0180548
668.582	0.0180582
668.660	0.0181725
668.738	0.0181260
668.817	0.0182108
668.895	0.0183057
668.973	0.0183276
669.051	0.0182671
669.129	0.0181924
669.207	0.0183060
669.285	0.0183849
669.363	0.0184429
669.442	0.0184560
669.520	0.0184292
669.598	0.0183803
669.676	0.0182276
669.754	0.0182946
669.832	0.0182448
669.910	0.0181283
669.988	0.0181756
670.067	0.0181951
670.145	0.0180448
670.223	0.0181090
670.301	0.0179192
670.379	0.0180582
670.457	0.0178787
670.535	0.0179936
670.613	0.0180609
670.692	0.0179880
670.770	0.0181528
670.848	0.0181905
670.926	0.0183064
671.004	0.0182419
671.082	0.0183614
671.160	0.0184042
671.238	0.0183411
671.317	0.0185085
671.395	0.0184774
671.473	0.0183736
671.551	0.0185519
671.629	0.0183574
671.707	0.0183950
671.785	0.0184240
671.863	0.0182787
671.942	0.0182330
672.020	0.0183040
672.098	0.0181205
672.176	0.0181922
672.254	0.0181395
672.332	0.0182549
672.410	0.0180952
672.488	0.0181039
672.567	0.0180442
672.645	0.0182185
672.723	0.0182843
672.801	0.0185014
672.879	0.0183466
672.957	0.0183858
673.035	0.0183789
673.113	0.0184004
673.192	0.0183642
673.270	0.0183559
673.348	0.0183395
673.426	0.0184121
673.504	0.0182017
673.582	0.0183109
673.660	0.0183355
673.738	0.0182466
673.817	0.0181104
673.895	0.0180955
673.973	0.0182621
674.051	0.0181068
674.129	0.0180200
674.207	0.0180834
674.285	0.0181188
674.363	0.0181419
674.442	0.0180179
674.520	0.0179641
674.598	0.0180795
674.676	0.0182425
674.754	0.0183414
674.832	0.0182586
674.910	0.0182323
674.988	0.0182309
675.067	0.0182838
675.145	0.0183617
675.223	0.0183616
675.301	0.0184690
675.379	0.0184657
675.457	0.0186185
675.535	0.0185375
675.613	0.0184763
675.692	0.0185434
675.770	0.0184177
675.848	0.0184306
675.926	0.0183119
676.004	0.0181428
676.082	0.0181638
676.160	0.0181583
676.238	0.0178544
676.317	0.0177216
676.395	0.0177708
676.473	0.0176284
676.551	0.0177174
676.629	0.0175554
676.707	0.0175890
676.785	0.0177021
676.863	0.0177579
676.942	0.0178053
677.020	0.0180452
677.098	0.0181880
677.176	0.0183118
677.254	0.0186295
677.332	0.0186131
677.410	0.0187276
677.488	0.0188957
677.567	0.0190749
677.645	0.0190542
677.723	0.0190135
677.801	0.0189216
677.879	0.0189794
677.957	0.0189014
678.035	0.0187895
678.113	0.0186892
678.192	0.0184654
678.270	0.0185264
678.348	0.0185060
678.426	0.0182019
678.504	0.0179394
678.582	0.0179993
678.660	0.0180160
678.738	0.0178030
678.817	0.0177324
678.895	0.0176239
678.973	0.0175419
679.051	0.0174860
679.129	0.0175591
679.207	0.0175199
679.285	0.0175964
679.363	0.0175494
679.442	0.0178470
679.520	0.0179130
679.598	0.0180254
679.676	0.0183468
679.754	0.0185764
679.832	0.0186868
679.910	0.0188417
679.988	0.0190998
680.067	0.0191063
680.145	0.0190472
680.223	0.0191316
680.301	0.0191626
680.379	0.0193665
680.457	0.0191686
680.535	0.0190625
680.613	0.0187762
680.692	0.0187544
680.770	0.0184678
680.848	0.0182350
680.926	0.0181243
681.004	0.0176951
681.082	0.0177126
681.160	0.0174467
681.238	0.0173582
681.317	0.0172052
681.395	0.0169595
681.473	0.0170586
681.551	0.0171622
681.629	0.0171579
681.707	0.0171169
681.785	0.0172576
681.863	0.0176254
681.942	0.0177062
682.020	0.0178028
682.098	0.0179430
682.176	0.0183662
682.254	0.0185509
682.332	0.0186168
682.410	0.0188614
682.488	0.0192467
682.567	0.0193301
682.645	0.0193794
682.723	0.0195312
682.801	0.0196993
682.879	0.0197945
682.957	0.0197525
683.035	0.0198285
683.113	0.0197065
683.192	0.0194114
683.270	0.0194072
683.348	0.0192631
683.426	0.0189797
683.504	0.0186498
683.582	0.0183396
683.660	0.0179771
683.738	0.0176281
683.817	0.0173747
683.895	0.0171128
683.973	0.0168453
684.051	0.0167241
684.129	0.0166611
684.207	0.0166474
684.285	0.0166562
684.363	0.0166210
684.442	0.0167654
684.520	0.0167561
684.598	0.0168832
684.676	0.0170697
684.754	0.0172902
684.832	0.0174833
684.910	0.0175957
684.988	0.0180936
685.067	0.0181541
685.145	0.0183844
685.223	0.0187069
685.301	0.0189001
685.379	0.0190389
685.457	0.0191291
685.535	0.0193433
685.613	0.0193743
685.692	0.0195836
685.770	0.0195599
685.848	0.0195838
685.926	0.0195230
686.004	0.0196528
686.082	0.0197859
686.160	0.0195364
686.238	0.0195762
686.317	0.0193683
686.395	0.0193319
686.473	0.0194122
686.551	0.0191313
686.629	0.0188709
686.707	0.0187774
686.785	0.0184951
686.863	0.0184738
686.942	0.0182076
687.020	0.0180019
687.098	0.0178036
687.176	0.0177846
687.254	0.0175188
687.332	0.0174545
687.410	0.0172728
687.488	0.0171373
687.567	0.0170344
687.645	0.0170267
687.723	0.0169050
687.801	0.0168808
687.879	0.0170354
687.957	0.0170139
688.035	0.0170611
688.113	0.0171730
688.192	0.0171218
688.270	0.0170057
688.348	0.0170943
688.426	0.0170998
688.504	0.0171001
688.582	0.0171230
688.660	0.0171326
688.738	0.0171998
688.817	0.0172998
688.895	0.0175430
688.973	0.0177408
689.051	0.0179876
689.129	0.0182933
689.207	0.0184602
689.285	0.0188105
689.363	0.0191269
689.442	0.0194180
689.520	0.0198635
689.598	0.0201430
689.676	0.0203165
689.754	0.0204392
689.832	0.0204912
689.910	0.0206821
689.988	0.0208016
690.067	0.0206493
690.145	0.0207597
690.223	0.0206252
690.301	0.0204818
690.379	0.0202809
690.457	0.0201794
690.535	0.0198831
690.613	0.0194476
690.692	0.0191962
690.770	0.0188866
690.848	0.0184379
690.926	0.0179648
691.004	0.0176176
691.082	0.0172858
691.160	0.0168449
691.238	0.0164057
691.317	0.0160566
691.395	0.0155783
691.473	0.0154637
691.551	0.0150832
691.629	0.0149486
691.707	0.0148120
691.785	0.0146566
691.863	0.0146832
691.942	0.0146202
692.020	0.0146998
692.098	0.0149818
692.176	0.0153691
692.254	0.0156573
692.332	0.0161442
692.410	0.0168135
692.488	0.0172121
692.567	0.0180111
692.645	0.0185668
692.723	0.0191469
692.801	0.0195414
692.879	0.0201184
692.957	0.0206296
693.035	0.0208289
693.113	0.0212197
693.192	0.0213463
693.270	0.0214009
693.348	0.0213863
693.426	0.0214787
693.504	0.0213668
693.582	0.0211150
693.660	0.0210451
693.738	0.0210038
693.817	0.0207939
693.895	0.0206644
693.973	0.0203914
694.051	0.0203254
694.129	0.0201388
694.207	0.0200556
694.285	0.0197968
694.363	0.0195868
694.442	0.0193461
694.520	0.0189809
694.598	0.0188252
694.676	0.0184975
694.754	0.0181032
694.832	0.0179463
694.910	0.0177087
694.988	0.0172755
695.067	0.0170057
695.145	0.0167680
695.223	0.0164722
695.301	0.0163538
695.379	0.0161855
695.457	0.0160855
695.535	0.0157475
695.613	0.0154735
695.692	0.0155206
695.770	0.0152989
695.848	0.0152041
695.926	0.0151584
696.004	0.0151481
696.082	0.0151633
696.160	0.0151760
696.238	0.0151578
696.317	0.0153034
696.395	0.0153996
696.473	0.0159164
696.551	0.0161200
696.629	0.0164412
696.707	0.0168961
696.785	0.0171545
696.863	0.0178301
696.942	0.0182674
697.020	0.0185666
697.098	0.0189992
697.176	0.0196267
697.254	0.0200838
697.332	0.0203405
697.410	0.0207095
697.488	0.0210365
697.567	0.0212436
697.645	0.0213512
697.723	0.0216589
697.801	0.0216884
697.879	0.0216229
697.957	0.0216980
698.035	0.0216151
698.113	0.0213963
698.192	0.0215993
698.270	0.0213463
698.348	0.0211325
698.426	0.0211988
698.504	0.0208929
698.582	0.0205760
698.660	0.0202357
698.738	0.0200800
698.817	0.0195709
698.895	0.0192965
698.973	0.0186588
699.051	0.0181898
699.129	0.0179434
699.207	0.0173879
699.285	0.0170035
699.363	0.0166801
699.442	0.0161725
699.520	0.0157025
699.598	0.0154079
699.676	0.0151580
699.754	0.0147026
699.832	0.0146785
699.910	0.0147565
699.988	0.0146217
700.067	0.0147803
700.145	0.0147663
700.223	0.0150512
700.301	0.0154439
700.379	0.0157474
700.457	0.0159656
700.535	0.0163861
700.613	0.0166879
700.692	0.0171116
700.770	0.0174485
700.848	0.0177823
700.926	0.0180776
701.004	0.0181785
701.082	0.0185902
701.160	0.0188658
701.238	0.0191875
701.317	0.0194227
701.395	0.0196611
701.473	0.0197733
701.551	0.0200659
701.629	0.0201691
701.707	0.0201798
701.785	0.0202806
701.863	0.0200043
701.942	0.0199906
702.020	0.0200916
702.098	0.0198078
702.176	0.0196281
702.254	0.0196161
702.332	0.0193200
702.410	0.0192645
702.488	0.0190462
702.567	0.0191457
702.645	0.0189423
702.723	0.0188364
702.801	0.0188789
702.879	0.0189362
702.957	0.0187057
703.035	0.0187171
703.113	0.0185957
703.192	0.0185525
703.270	0.0184100
703.348	0.0182943
703.426	0.0182109
703.504	0.0180395
703.582	0.0179507
703.660	0.0179494
703.738	0.0176677
703.817	0.0177063
703.895	0.0175610
703.973	0.0173915
704.051	0.0173911
704.129	0.0173942
704.207	0.0172124
704.285	0.0172381
704.363	0.0171637
704.442	0.0171566
704.520	0.0169317
704.598	0.0169396
704.676	0.0168750
704.754	0.0169227
704.832	0.0170087
704.910	0.0170228
704.988	0.0169545
705.067	0.0169991
705.145	0.0171719
705.223	0.0174324
705.301	0.0176691
705.379	0.0180549
705.457	0.0183478
705.535	0.0185548
705.613	0.0189793
705.692	0.0194205
705.770	0.0197276
705.848	0.0198341
705.926	0.0199640
706.004	0.0199776
706.082	0.0200016
706.160	0.0199416
706.238	0.0199447
706.317	0.0198631
706.395	0.0195082
706.473	0.0193305
706.551	0.0191341
706.629	0.0189089
706.707	0.0185621
706.785	0.0181759
706.863	0.0179633
706.942	0.0177129
707.020	0.0173957
707.098	0.0170379
707.176	0.0168658
707.254	0.0166504
707.332	0.0165325
707.410	0.0167200
707.488	0.0166694
707.567	0.0168313
707.645	0.0169806
707.723	0.0171654
707.801	0.0174898
707.879	0.0177328
707.957	0.0180000
708.035	0.0184446
708.113	0.0185488
708.192	0.0188242
708.270	0.0190083
708.348	0.0191472
708.426	0.0189774
708.504	0.0190170
708.582	0.0191608
708.660	0.0191504
708.738	0.0191462
708.817	0.0192400
708.895	0.0192013
708.973	0.0190882
709.051	0.0189517
709.129	0.0189271
709.207	0.0186080
709.285	0.0184397
709.363	0.0181839
709.442	0.0180157
709.520	0.0177567
709.598	0.0175121
709.676	0.0172324
709.754	0.0170306
709.832	0.0167879
709.910	0.0167631
709.988	0.0166162
710.067	0.0166985
710.145	0.0166496
710.223	0.0167073
710.301	0.0169010
710.379	0.0172965
710.457	0.0172900
710.535	0.0175565
710.613	0.0179234
710.692	0.0181573
710.770	0.0184421
710.848	0.0186689
710.926	0.0191402
711.004	0.0193521
711.082	0.0195440
711.160	0.0197759
711.238	0.0200552
711.317	0.0200999
711.395	0.0203106
711.473	0.0201999
711.551	0.0203041
711.629	0.0200426
711.707	0.0197546
711.785	0.0196541
711.863	0.0194781
711.942	0.0191138
712.020	0.0188316
712.098	0.0185463
712.176	0.0181933
712.254	0.0178690
712.332	0.0176914
712.410	0.0176308
712.488	0.0174267
712.567	0.0172361
712.645	0.0173246
712.723	0.0174606
712.801	0.0175504
712.879	0.0177434
712.957	0.0177800
713.035	0.0179285
713.113	0.0181513
713.192	0.0182465
713.270	0.0182056
713.348	0.0184746
713.426	0.0184752
713.504	0.0185453
713.582	0.0184626
713.660	0.0183477
713.738	0.0184599
713.817	0.0181725
713.895	0.0182013
713.973	0.0183317
714.051	0.0180578
714.129	0.0179437
714.207	0.0178262
714.285	0.0176818
714.363	0.0177156
714.442	0.0174369
714.520	0.0172505
714.598	0.0171998
714.676	0.0169991
714.754	0.0169420
714.832	0.0167862
714.910	0.0167564
714.988	0.0166050
715.067	0.0166264
715.145	0.0165533
715.223	0.0167205
715.301	0.0166999
715.379	0.0167479
715.457	0.0170438
715.535	0.0172260
715.613	0.0174318
715.692	0.0175497
715.770	0.0178303
715.848	0.0180458
715.926	0.0184991
716.004	0.0187420
716.082	0.0189555
716.160	0.0191401
716.238	0.0194839
716.317	0.0197499
716.395	0.0198818
716.473	0.0199608
716.551	0.0199946
716.629	0.0201357
716.707	0.0201605
716.785	0.0202485
716.863	0.0202174
716.942	0.0201466
717.020	0.0199133
717.098	0.0199135
717.176	0.0198762
717.254	0.0197251
717.332	0.0195721
717.410	0.0195766
717.488	0.0196082
717.567	0.0193698
717.645	0.0194872
717.723	0.0194417
717.801	0.0193231
717.879	0.0193665
717.957	0.0193946
718.035	0.0193301
718.113	0.0194426
718.192	0.0190658
718.270	0.0189334
718.348	0.0187639
718.426	0.0186819
718.504	0.0184325
718.582	0.0181689
718.660	0.0179514
718.738	0.0177304
718.817	0.0175147
718.895	0.0174170
718.973	0.0173071
719.051	0.0171767
719.129	0.0170415
719.207	0.0168337
719.285	0.0169482
719.363	0.0167923
719.442	0.0166537
719.520	0.0166249
719.598	0.0167445
719.676	0.0166206
719.754	0.0165860
719.832	0.0165909
719.910	0.0167108
719.988	0.0168382
720.067	0.0169189
720.145	0.0170644
720.223	0.0169946
720.301	0.0170104
720.379	0.0170518
720.457	0.0170620
720.535	0.0169707
720.613	0.0170631
720.692	0.0169529
720.770	0.0168869
720.848	0.0167787
720.926	0.0166047
721.004	0.0167036
721.082	0.0167789
721.160	0.0167284
721.238	0.0167793
721.317	0.0169640
721.395	0.0170612
721.473	0.0171664
721.551	0.0175941
721.629	0.0176550
721.707	0.0179373
721.785	0.0183239
721.863	0.0186562
721.942	0.0188725
722.020	0.0191701
722.098	0.0192977
722.176	0.0195200
722.254	0.0196560
722.332	0.0197193
722.410	0.0198033
722.488	0.0197821
722.567	0.0199341
722.645	0.0198708
722.723	0.0197810
722.801	0.0198990
722.879	0.0199630
722.957	0.0200114
723.035	0.0200551
723.113	0.0202035
723.192	0.0203333
723.270	0.0203636
723.348	0.0206001
723.426	0.0207481
723.504	0.0206770
723.582	0.0208536
723.660	0.0207612
723.738	0.0207525
723.817	0.0205554
723.895	0.0205666
723.973	0.0198710
724.051	0.0199550
724.129	0.0196351
724.207	0.0192878
724.285	0.0189905
724.363	0.0186787
724.442	0.0185400
724.520	0.0182964
724.598	0.0181731
724.676	0.0180234
724.754	0.0178524
724.832	0.0178745
724.910	0.0180540
724.988	0.0179250
725.067	0.0180014
725.145	0.0179017
725.223	0.0177701
725.301	0.0176762
725.379	0.0175461
725.457	0.0172696
725.535	0.0170264
725.613	0.0166349
725.692	0.0163313
725.770	0.0157752
725.848	0.0154881
725.926	0.0153264
726.004	0.0150177
726.082	0.0147590
726.160	0.0145010
726.238	0.0146510
726.317	0.0145486
726.395	0.0147574
726.473	0.0148727
726.551	0.0152840
726.629	0.0155804
726.707	0.0159405
726.785	0.0163626
726.863	0.0167047
726.942	0.0170583
727.020	0.0173545
727.098	0.0177308
727.176	0.0181073
727.254	0.0184547
727.332	0.0184707
727.410	0.0185771
727.488	0.0188685
727.567	0.0189639
727.645	0.0189455
727.723	0.0187093
727.801	0.0188668
727.879	0.0188850
727.957	0.0187572
728.035	0.0185479
728.113	0.0184084
728.192	0.0182076
728.270	0.0181712
728.348	0.0180897
728.426	0.0180764
728.504	0.0180247
728.582	0.0180789
728.660	0.0181953
728.738	0.0182228
728.817	0.0186614
728.895	0.0187614
728.973	0.0191425
729.051	0.0195213
729.129	0.0197637
729.207	0.0201301
729.285	0.0204121
729.363	0.0207383
729.442	0.0210191
729.520	0.0209370
729.598	0.0210989
729.676	0.0212154
729.754	0.0209730
729.832	0.0210506
729.910	0.0208665
729.988	0.0206522
730.067	0.0206252
730.145	0.0205360
730.223	0.0204381
730.301	0.0201958
730.379	0.0199706
730.457	0.0197887
730.535	0.0197232
730.613	0.0196635
730.692	0.0194845
730.770	0.0193511
730.848	0.0192402
730.926	0.0192681
731.004	0.0190779
731.082	0.0188693
731.160	0.0186846
731.238	0.0184721
731.317	0.0183928
731.395	0.0182310
731.473	0.0182986
731.551	0.0181818
731.629	0.0180099
731.707	0.0179250
731.785	0.0176940
731.863	0.0175527
731.942	0.0174837
732.020	0.0174256
732.098	0.0171337
732.176	0.0169765
732.254	0.0167973
732.332	0.0166248
732.410	0.0163180
732.488	0.0159891
732.567	0.0155508
732.645	0.0151933
732.723	0.0147841
732.801	0.0144185
732.879	0.0141424
732.957	0.0138054
733.035	0.0136736
733.113	0.0135948
733.192	0.0135590
733.270	0.0136564
733.348	0.0139191
733.426	0.0142212
733.504	0.0147238
733.582	0.0152788
733.660	0.0157965
733.738	0.0165565
733.817	0.0171324
733.895	0.0176788
733.973	0.0183757
734.051	0.0189252
734.129	0.0194569
734.207	0.0198536
734.285	0.0200937
734.363	0.0202869
734.442	0.0201810
734.520	0.0202825
734.598	0.0201675
734.676	0.0200750
734.754	0.0198837
734.832	0.0196996
734.910	0.0194378
734.988	0.0193058
735.067	0.0190597
735.145	0.0188795
735.223	0.0188293
735.301	0.0186537
735.379	0.0186328
735.457	0.0186927
735.535	0.0187949
735.613	0.0187795
735.692	0.0188564
735.770	0.0189825
735.848	0.0192307
735.926	0.0194212
736.004	0.0196916
736.082	0.0199390
736.160	0.0200968
736.238	0.0205246
736.317	0.0208630
736.395	0.0208804
736.473	0.0210561
736.551	0.0212059
736.629	0.0212637
736.707	0.0212555
736.785	0.0213226
736.863	0.0212083
736.942	0.0209892
737.020	0.0208344
737.098	0.0205233
737.176	0.0202032
737.254	0.0199525
737.332	0.0196707
737.410	0.0194572
737.488	0.0191433
737.567	0.0189490
737.645	0.0184946
737.723	0.0181924
737.801	0.0178408
737.879	0.0177277
737.957	0.0175703
738.035	0.0174299
738.113	0.0174573
738.192	0.0174087
738.270	0.0173058
738.348	0.0176563
738.426	0.0176798
738.504	0.0177823
738.582	0.0180386
738.660	0.0182193
738.738	0.0181309
738.817	0.0184030
738.895	0.0183700
738.973	0.0180815
739.051	0.0178958
739.129	0.0176287
739.207	0.0174129
739.285	0.0170705
739.363	0.0165979
739.442	0.0160689
739.520	0.0156417
739.598	0.0151734
739.676	0.0145908
739.754	0.0141688
739.832	0.0138025
739.910	0.0133790
739.988	0.0132897
740.067	0.0131212
740.145	0.0131054
740.223	0.0131628
740.301	0.0134583
740.379	0.0139816
740.457	0.0144219
740.535	0.0149889
740.613	0.0156517
740.692	0.0163734
740.770	0.0171477
740.848	0.0177903
740.926	0.0185332
741.004	0.0191213
741.082	0.0196973
741.160	0.0200129
741.238	0.0203242
741.317	0.0206463
741.395	0.0207328
741.473	0.0208254
741.551	0.0208022
741.629	0.0206860
741.707	0.0205376
741.785	0.0201891
741.863	0.0200304
741.942	0.0196864
742.020	0.0196515
742.098	0.0193032
742.176	0.0191648
742.254	0.0190212
742.332	0.0188552
742.410	0.0188909
742.488	0.0188450
742.567	0.0187040
742.645	0.0189170
742.723	0.0190830
742.801	0.0192139
742.879	0.0192641
742.957	0.0194396
743.035	0.0196328
743.113	0.0199478
743.192	0.0199757
743.270	0.0202150
743.348	0.0204716
743.426	0.0207100
743.504	0.0206767
743.582	0.0207313
743.660	0.0208930
743.738	0.0208252
743.817	0.0207054
743.895	0.0207454
743.973	0.0206487
744.051	0.0204959
744.129	0.0203731
744.207	0.0201591
744.285	0.0200838
744.363	0.0199134
744.442	0.0194966
744.520	0.0195609
744.598	0.0190830
744.676	0.0188475
744.754	0.0187112
744.832	0.0184063
744.910	0.0182983
744.988	0.0181712
745.067	0.0179183
745.145	0.0178902
745.223	0.0177245
745.301	0.0176070
745.379	0.0175296
745.457	0.0176447
745.535	0.0175755
745.613	0.0176133
745.692	0.0176836
745.770	0.0177159
745.848	0.0175674
745.926	0.0174225
746.004	0.0173375
746.082	0.0171680
746.160	0.0168073
746.238	0.0166035
746.317	0.0163352
746.395	0.0159266
746.473	0.0154477
746.551	0.0150822
746.629	0.0147008
746.707	0.0143274
746.785	0.0139317
746.863	0.0136494
746.942	0.0136727
747.020	0.0135577
747.098	0.0134985
747.176	0.0136406
747.254	0.0139052
747.332	0.0142737
747.410	0.0147562
747.488	0.0151077
747.567	0.0158651
747.645	0.0164712
747.723	0.0171583
747.801	0.0177842
747.879	0.0183590
747.957	0.0188772
748.035	0.0193775
748.113	0.0197014
748.192	0.0200613
748.270	0.0203033
748.348	0.0204113
748.426	0.0204964
748.504	0.0205460
748.582	0.0205232
748.660	0.0204135
748.738	0.0201785
748.817	0.0201315
748.895	0.0200199
748.973	0.0199065
749.051	0.0197404
749.129	0.0196304
749.207	0.0193653
749.285	0.0194878
749.363	0.0193890
749.442	0.0194152
749.520	0.0193732
749.598	0.0193771
749.676	0.0195258
749.754	0.0195342
749.832	0.0194347
749.910	0.0197891
749.988	0.0197179
750.067	0.0198026
750.145	0.0197941
750.223	0.0199763
750.301	0.0200833
750.379	0.0201412
750.457	0.0202567
750.535	0.0201056
750.613	0.0200487
750.692	0.0200385
750.770	0.0200407
750.848	0.0199435
750.926	0.0199049
751.004	0.0199847
751.082	0.0199619
751.160	0.0198199
751.238	0.0199050
751.317	0.0197361
751.395	0.0195864
751.473	0.0194871
751.551	0.0193751
751.629	0.0192773
751.707	0.0191861
751.785	0.0190089
751.863	0.0188216
751.942	0.0187018
752.020	0.0187239
752.098	0.0185448
752.176	0.0184679
752.254	0.0182851
752.332	0.0184267
752.410	0.0181653
752.488	0.0179430
752.567	0.0180524
752.645	0.0179852
752.723	0.0176805
752.801	0.0175289
752.879	0.0172367
752.957	0.0169205
753.035	0.0166967
753.113	0.0163627
753.192	0.0161868
753.270	0.0159692
753.348	0.0156019
753.426	0.0153303
753.504	0.0149911
753.582	0.0148994
753.660	0.0147273
753.738	0.0144312
753.817	0.0143443
753.895	0.0142812
753.973	0.0142864
754.051	0.0143549
754.129	0.0145967
754.207	0.0146940
754.285	0.0150330
754.363	0.0153943
754.442	0.0156895
754.520	0.0161786
754.598	0.0164466
754.676	0.0169196
754.754	0.0173442
754.832	0.0177632
754.910	0.0181335
754.988	0.0185284
755.067	0.0188009
755.145	0.0190218
755.223	0.0191903
755.301	0.0194315
755.379	0.0192044
755.457	0.0195036
755.535	0.0197382
755.613	0.0198388
755.692	0.0197807
755.770	0.0199446
755.848	0.0198628
755.926	0.0198426
756.004	0.0198330
756.082	0.0200144
756.160	0.0199451
756.238	0.0198378
756.317	0.0196120
756.395	0.0197384
756.473	0.0196801
756.551	0.0194476
756.629	0.0192912
756.707	0.0192723
756.785	0.0193224
756.863	0.0192568
756.942	0.0193536
757.020	0.0191537
757.098	0.0193638
757.176	0.0194304
757.254	0.0195247
757.332	0.0194576
757.410	0.0194856
757.488	0.0196136
757.567	0.0196175
757.645	0.0195596
757.723	0.0197871
757.801	0.0197964
757.879	0.0197594
757.957	0.0197451
758.035	0.0197688
758.113	0.0197968
758.192	0.0199582
758.270	0.0198824
758.348	0.0199272
758.426	0.0198190
758.504	0.0198479
758.582	0.0198872
758.660	0.0197797
758.738	0.0196220
758.817	0.0196177
758.895	0.0194862
758.973	0.0192561
759.051	0.0191206
759.129	0.0189404
759.207	0.0187467
759.285	0.0185052
759.363	0.0184824
759.442	0.0183171
759.520	0.0180824
759.598	0.0177888
759.676	0.0176741
759.754	0.0174280
759.832	0.0171773
759.910	0.0169002
759.988	0.0166637
760.067	0.0165093
760.145	0.0162545
760.223	0.0161256
760.301	0.0158371
760.379	0.0156216
760.457	0.0156467
760.535	0.0155548
760.613	0.0154991
760.692	0.0154359
760.770	0.0152814
760.848	0.0151991
760.926	0.0152304
761.004	0.0153428
761.082	0.0154175
761.160	0.0154765
761.238	0.0155141
761.317	0.0156731
761.395	0.0158895
761.473	0.0160517
761.551	0.0162823
761.629	0.0164960
761.707	0.0168404
761.785	0.0169646
761.863	0.0173388
761.942	0.0176260
762.020	0.0177360
762.098	0.0178243
762.176	0.0180038
762.254	0.0181983
762.332	0.0183728
762.410	0.0185683
762.488	0.0186974
762.567	0.0186784
762.645	0.0187080
762.723	0.0189325
762.801	0.0191309
762.879	0.0192250
762.957	0.0192973
763.035	0.0195020
763.113	0.0195615
763.192	0.0197623
763.270	0.0199352
763.348	0.0199348
763.426	0.0200226
763.504	0.0198068
763.582	0.0201025
763.660	0.0199994
763.738	0.0199592
763.817	0.0199161
763.895	0.0198759
763.973	0.0197509
764.051	0.0196896
764.129	0.0196313
764.207	0.0195583
764.285	0.0193613
764.363	0.0192387
764.442	0.0192252
764.520	0.0191974
764.598	0.0191102
764.676	0.0191485
764.754	0.0190316
764.832	0.0189594
764.910	0.0190756
764.988	0.0192248
765.067	0.0191402
765.145	0.0194499
765.223	0.0194748
765.301	0.0195872
765.379	0.0195882
765.457	0.0196518
765.535	0.0199229
765.613	0.0197690
765.692	0.0198653
765.770	0.0198147
765.848	0.0198136
765.926	0.0197670
766.004	0.0196143
766.082	0.0194974
766.160	0.0196517
766.238	0.0193349
766.317	0.0191470
766.395	0.0188869
766.473	0.0187780
766.551	0.0185368
766.629	0.0182149
766.707	0.0181368
766.785	0.0179948
766.863	0.0175532
766.942	0.0171735
767.020	0.0170177
767.098	0.0168247
767.176	0.0166059
767.254	0.0163545
767.332	0.0164365
767.410	0.0161904
767.488	0.0160696
767.567	0.0160744
767.645	0.0160237
767.723	0.0159602
767.801	0.0159755
767.879	0.0160358
767.957	0.0159438
768.035	0.0159963
768.113	0.0161250
768.192	0.0160239
768.270	0.0161143
768.348	0.0161909
768.426	0.0161940
768.504	0.0161652
768.582	0.0163039
768.660	0.0163750
768.738	0.0163554
768.817	0.0163123
768.895	0.0164880
768.973	0.0166766
769.051	0.0167951
769.129	0.0170458
769.207	0.0169998
769.285	0.0175137
769.363	0.0176248
769.442	0.0178482
769.520	0.0179809
769.598	0.0181737
769.676	0.0185461
769.754	0.0185293
769.832	0.0186915
769.910	0.0187119
769.988	0.0189790
770.067	0.0190482
770.145	0.0191196
770.223	0.0191620
770.301	0.0191539
770.379	0.0191445
770.457	0.0191756
770.535	0.0192513
770.613	0.0194574
770.692	0.0193861
770.770	0.0193009
770.848	0.0195317
770.926	0.0196921
771.004	0.0196720
771.082	0.0198574
771.160	0.0196390
771.238	0.0199512
771.317	0.0200016
771.395	0.0198844
771.473	0.0200511
771.551	0.0198969
771.629	0.0197447
771.707	0.0197607
771.785	0.0198390
771.863	0.0198344
771.942	0.0196150
772.020	0.0197631
772.098	0.0197472
772.176	0.0195541
772.254	0.0194619
772.332	0.0194193
772.410	0.0193973
772.488	0.0193141
772.567	0.0193224
772.645	0.0191500
772.723	0.0191238
772.801	0.0190699
772.879	0.0190448
772.957	0.0190455
773.035	0.0189690
773.113	0.0189294
773.192	0.0188323
773.270	0.0189567
773.348	0.0188225
773.426	0.0187371
773.504	0.0187082
773.582	0.0186380
773.660	0.0184184
773.738	0.0182035
773.817	0.0182457
773.895	0.0178521
773.973	0.0176182
774.051	0.0175085
774.129	0.0172420
774.207	0.0172377
774.285	0.0170177
774.363	0.0168143
774.442	0.0168293
774.520	0.0169229
774.598	0.0168731
774.676	0.0167332
774.754	0.0167451
774.832	0.0167883
774.910	0.0168080
774.988	0.0166300
775.067	0.0165160
775.145	0.0165147
775.223	0.0166174
775.301	0.0164355
775.379	0.0163692
775.457	0.0162656
775.535	0.0163338
775.613	0.0161601
775.692	0.0163609
775.770	0.0163248
775.848	0.0163516
775.926	0.0165095
776.004	0.0165430
776.082	0.0166953
776.160	0.0168123
776.238	0.0170670
776.317	0.0172141
776.395	0.0174134
776.473	0.0175903
776.551	0.0177972
776.629	0.0180123
776.707	0.0181424
776.785	0.0182850
776.863	0.0183968
776.942	0.0184782
777.020	0.0186119
777.098	0.0186467
777.176	0.0186909
777.254	0.0187489
777.332	0.0186594
777.410	0.0185809
777.488	0.0186712
777.567	0.0186689
777.645	0.0187755
777.723	0.0187901
777.801	0.0187947
777.879	0.0188998
777.957	0.0189858
778.035	0.0189703
778.113	0.0191029
778.192	0.0192130
778.270	0.0192513
778.348	0.0193523
778.426	0.0193932
778.504	0.0195131
778.582	0.0196681
778.660	0.0195935
778.738	0.0197031
778.817	0.0197827
778.895	0.0198103
778.973	0.0198428
779.051	0.0200599
779.129	0.0199686
779.207	0.0199982
779.285	0.0199291
779.363	0.0199435
779.442	0.0199265
779.520	0.0198814
779.598	0.0197286
779.676	0.0196532
779.754	0.0195024
779.832	0.0193354
779.910	0.0191925
779.988	0.0190639
780.067	0.0189922
780.145	0.0186909
780.223	0.0185912
780.301	0.0185607
780.379	0.0185611
780.457	0.0183429
780.535	0.0183950
780.613	0.0181629
780.692	0.0182301
780.770	0.0182767
780.848	0.0181428
780.926	0.0181069
781.004	0.0182006
781.082	0.0180493
781.160	0.0180743
781.238	0.0179760
781.317	0.0177715
781.395	0.0179595
781.473	0.0178211
781.551	0.0177491
781.629	0.0178526
781.707	0.0177850
781.785	0.0177541
781.863	0.0175597
781.942	0.0172930
782.020	0.0173255
782.098	0.0171275
782.176	0.0170649
782.254	0.0169465
782.332	0.0168742
782.410	0.0167484
782.488	0.0165427
782.567	0.0164686
782.645	0.0164452
782.723	0.0165895
782.801	0.0165345
782.879	0.0166403
782.957	0.0166837
783.035	0.0169487
783.113	0.0170229
783.192	0.0171733
783.270	0.0172103
783.348	0.0173769
783.426	0.0176925
783.504	0.0175471
783.582	0.0176068
783.660	0.0176746
783.738	0.0177216
783.817	0.0177150
783.895	0.0175285
783.973	0.0176531
784.051	0.0175722
784.129	0.0175925
784.207	0.0174529
784.285	0.0176318
784.363	0.0177024
784.442	0.0179285
784.520	0.0178119
784.598	0.0178507
784.676	0.0179921
784.754	0.0180162
784.832	0.0182979
784.910	0.0184186
784.988	0.0183424
785.067	0.0184014
785.145	0.0186327
785.223	0.0187328
785.301	0.0189009
785.379	0.0190231
785.457	0.0191487
785.535	0.0191434
785.613	0.0192842
785.692	0.0193975
785.770	0.0196432
785.848	0.0197567
785.926	0.0197651
786.004	0.0198750
786.082	0.0198912
786.160	0.0200008
786.238	0.0199940
786.317	0.0201483
786.395	0.0200185
786.473	0.0201234
786.551	0.0199319
786.629	0.0198980
786.707	0.0198936
786.785	0.0197443
786.863	0.0197294
786.942	0.0196332
787.020	0.0194781
787.098	0.0192680
787.176	0.0191118
787.254	0.0191328
787.332	0.0189309
787.410	0.0188783
787.488	0.0186983
787.567	0.0186874
787.645	0.0185802
787.723	0.0185120
787.801	0.0183582
787.879	0.0184270
787.957	0.0183562
788.035	0.0184712
788.113	0.0183721
788.192	0.0183884
788.270	0.0183221
788.348	0.0182890
788.426	0.0182928
788.504	0.0182700
788.582	0.0182226
788.660	0.0180036
788.738	0.0178506
788.817	0.0178699
788.895	0.0176496
788.973	0.0175333
789.051	0.0175265
789.129	0.0172426
789.207	0.0171454
789.285	0.0170011
789.363	0.0169826
789.442	0.0168326
789.520	0.0167846
789.598	0.0169119
789.676	0.0169244
789.754	0.0167940
789.832	0.0169735
789.910	0.0171230
789.988	0.0172400
790.067	0.0173730
790.145	0.0176099
790.223	0.0174818
790.301	0.0176889
790.379	0.0179224
790.457	0.0178503
790.535	0.0179928
790.613	0.0179668
790.692	0.0178913
790.770	0.0180048
790.848	0.0178806
790.926	0.0179279
791.004	0.0178911
791.082	0.0178105
791.160	0.0178506
791.238	0.0174839
791.317	0.0174680
791.395	0.0174761
791.473	0.0174690
791.551	0.0172291
791.629	0.0171706
791.707	0.0172243
791.785	0.0173583
791.863	0.0172668
791.942	0.0174138
792.020	0.0175161
792.098	0.0175809
792.176	0.0176907
792.254	0.0176834
792.332	0.0179429
792.410	0.0180185
792.488	0.0181908
792.567	0.0185282
792.645	0.0186486
792.723	0.0186656
792.801	0.0188112
792.879	0.0190845
792.957	0.0191895
793.035	0.0192963
793.113	0.0194259
793.192	0.0194836
793.270	0.0195393
793.348	0.0194783
793.426	0.0196614
793.504	0.0196181
793.582	0.0195103
793.660	0.0195252
793.738	0.0194694
793.817	0.0195167
793.895	0.0196170
793.973	0.0193002
794.051	0.0193553
794.129	0.0194904
794.207	0.0193256
794.285	0.0194151
794.363	0.0194360
794.442	0.0194660
794.520	0.0193706
794.598	0.0194166
794.676	0.0195289
794.754	0.0194999
794.832	0.0196484
794.910	0.0196391
794.988	0.0195592
795.067	0.0195824
795.145	0.0194355
795.223	0.0193979
795.301	0.0193530
795.379	0.0191804
795.457	0.0190063
795.535	0.0188660
795.613	0.0187048
795.692	0.0184074
795.770	0.0182405
795.848	0.0181049
795.926	0.0179556
796.004	0.0175659
796.082	0.0174341
796.160	0.0173376
796.238	0.0172414
796.317	0.0169888
796.395	0.0169358
796.473	0.0168836
796.551	0.0167653
796.629	0.0167973
796.707	0.0168497
796.785	0.0168072
796.863	0.0170789
796.942	0.0172009
797.020	0.0173348
797.098	0.0173930
797.176	0.0174904
797.254	0.0175131
797.332	0.0177544
797.410	0.0176464
797.488	0.0176761
797.567	0.0177183
797.645	0.0178291
797.723	0.0177465
797.801	0.0175217
797.879	0.0173919
797.957	0.0174258
798.035	0.0173873
798.113	0.0172578
798.192	0.0172887
798.270	0.0172205
798.348	0.0171829
798.426	0.0172430
798.504	0.0173373
798.582	0.0173928
798.660	0.0174185
798.738	0.0174470
798.817	0.0175008
798.895	0.0178559
798.973	0.0180110
799.051	0.0180386
799.129	0.0180608
799.207	0.0182644
799.285	0.0183211
799.363	0.0185509
799.442	0.0185121
799.520	0.0185730
799.598	0.0186359
799.676	0.0185727
799.754	0.0186124
799.832	0.0187916
799.910	0.0186781
799.988	0.0187258
800.067	0.0186295
800.145	0.0185925
800.223	0.0186746
800.301	0.0186771
800.379	0.0187484
800.457	0.0186028
800.535	0.0185571
800.613	0.0187109
800.692	0.0185860
800.770	0.0185827
800.848	0.0187627
800.926	0.0187506
801.004	0.0186259
801.082	0.0188030
801.160	0.0188413
801.238	0.0189036
801.317	0.0190121
801.395	0.0189777
801.473	0.0190086
801.551	0.0191312
801.629	0.0191058
801.707	0.0190517
801.785	0.0192431
801.863	0.0191807
801.942	0.0192039
802.020	0.0190537
802.098	0.0191677
802.176	0.0191083
802.254	0.0190502
802.332	0.0190574
802.410	0.0190626
802.488	0.0189274
802.567	0.0189572
802.645	0.0189530
802.723	0.0189263
802.801	0.0187062
802.879	0.0186372
802.957	0.0187079
803.035	0.0184807
803.113	0.0184344
803.192	0.0184065
803.270	0.0184124
803.348	0.0181454
803.426	0.0180568
803.504	0.0181081
803.582	0.0181916
803.660	0.0179050
803.738	0.0178192
803.817	0.0179247
803.895	0.0177626
803.973	0.0178596
804.051	0.0177505
804.129	0.0178477
804.207	0.0177817
804.285	0.0176638
804.363	0.0176509
804.442	0.0174447
804.520	0.0176236
804.598	0.0175896
804.676	0.0174145
804.754	0.0175238
804.832	0.0175461
804.910	0.0175328
804.988	0.0174484
805.067	0.0173563
805.145	0.0173312
805.223	0.0173378
805.301	0.0173287
805.379	0.0175347
805.457	0.0174781
805.535	0.0174509
805.613	0.0173775
805.692	0.0175090
805.770	0.0175990
805.848	0.0176544
805.926	0.0176126
806.004	0.0176617
806.082	0.0178848
806.160	0.0178301
806.238	0.0177903
806.317	0.0178181
806.395	0.0179053
806.473	0.0178994
806.551	0.0177109
806.629	0.0176497
806.707	0.0177724
806.785	0.0177481
806.863	0.0179211
806.942	0.0179604
807.020	0.0179272
807.098	0.0179977
807.176	0.0181762
807.254	0.0182659
807.332	0.0184057
807.410	0.0183942
807.488	0.0184756
807.567	0.0186294
807.645	0.0188152
807.723	0.0187483
807.801	0.0188495
807.879	0.0188721
807.957	0.0190358
808.035	0.0189458
808.113	0.0190635
808.192	0.0189849
808.270	0.0190683
808.348	0.0190087
808.426	0.0190737
808.504	0.0190705
808.582	0.0190441
808.660	0.0189535
808.738	0.0190417
808.817	0.0189934
808.895	0.0190160
808.973	0.0189642
809.051	0.0187917
809.129	0.0187887
809.207	0.0187918
809.285	0.0187184
809.363	0.0185661
809.442	0.0186054
809.520	0.0186312
809.598	0.0185764
809.676	0.0185762
809.754	0.0185621
809.832	0.0185037
809.910	0.0185074
809.988	0.0184151
810.067	0.0186897
810.145	0.0185925
810.223	0.0185082
810.301	0.0185387
810.379	0.0183269
810.457	0.0185583
810.535	0.0184618
810.613	0.0184216
810.692	0.0184727
810.770	0.0183239
810.848	0.0183045
810.926	0.0184010
811.004	0.0181512
811.082	0.0181470
811.160	0.0181428
811.238	0.0179977
811.317	0.0178426
811.395	0.0179665
811.473	0.0178085
811.551	0.0178470
811.629	0.0177551
811.707	0.0177551
811.785	0.0177686
811.863	0.0176841
811.942	0.0175584
812.020	0.0176377
812.098	0.0176528
812.176	0.0178117
812.254	0.0177274
812.332	0.0177378
812.410	0.0177398
812.488	0.0177744
812.567	0.0178231
812.645	0.0178809
812.723	0.0178867
812.801	0.0179559
812.879	0.0180726
812.957	0.0181289
813.035	0.0181702
813.113	0.0181982
813.192	0.0183241
813.270	0.0182121
813.348	0.0183071
813.426	0.0179371
813.504	0.0181822
813.582	0.0182216
813.660	0.0181509
813.738	0.0180730
813.817	0.0181264
813.895	0.0180482
813.973	0.0179549
814.051	0.0180104
814.129	0.0180643
814.207	0.0181078
814.285	0.0179236
814.363	0.0179856
814.442	0.0180714
814.520	0.0179660
814.598	0.0180447
814.676	0.0180988
814.754	0.0181023
814.832	0.0180731
814.910	0.0181947
814.988	0.0181212
815.067	0.0182304
815.145	0.0183312
815.223	0.0182592
815.301	0.0181736
815.379	0.0183826
815.457	0.0181697
815.535	0.0182298
815.613	0.0182400
815.692	0.0183051
815.770	0.0183856
815.848	0.0183274
815.926	0.0182430
816.004	0.0182167
816.082	0.0183497
816.160	0.0184306
816.238	0.0185686
816.317	0.0185516
816.395	0.0185928
816.473	0.0185093
816.551	0.0184840
816.629	0.0185436
816.707	0.0186157
816.785	0.0187247
816.863	0.0186648
816.942	0.0186245
817.020	0.0185022
817.098	0.0185809
817.176	0.0186670
817.254	0.0186137
817.332	0.0184202
817.410	0.0183945
817.488	0.0183759
817.567	0.0183539
817.645	0.0183470
817.723	0.0182788
817.801	0.0183121
817.879	0.0182628
817.957	0.0182155
818.035	0.0182191
818.113	0.0184003
818.192	0.0183596
818.270	0.0185555
818.348	0.0186261
818.426	0.0185315
818.504	0.0184464
818.582	0.0188342
818.660	0.0187402
818.738	0.0187654
818.817	0.0187109
818.895	0.0187128
818.973	0.0187592
819.051	0.0186824
819.129	0.0186558
819.207	0.0186875
819.285	0.0184650
819.363	0.0183960
819.442	0.0184293
819.520	0.0183584
819.598	0.0181949
819.676	0.0180996
819.754	0.0181583
819.832	0.0181871
819.910	0.0180093
819.988	0.0179019
820.067	0.0178510
820.145	0.0178425
820.223	0.0179246
820.301	0.0179856
820.379	0.0178842
820.457	0.0179140
820.535	0.0179662
820.613	0.0178578
820.692	0.0179941
820.770	0.0179462
820.848	0.0179299
820.926	0.0178550
821.004	0.0179916
821.082	0.0180743
821.160	0.0179885
821.238	0.0179269
821.317	0.0179218
821.395	0.0179205
821.473	0.0180151
821.551	0.0179929
821.629	0.0179378
821.707	0.0177896
821.785	0.0176467
821.863	0.0176112
821.942	0.0173866
822.020	0.0174258
822.098	0.0174706
822.176	0.0174738
822.254	0.0173404
822.332	0.0172284
822.410	0.0173331
822.488	0.0174561
822.567	0.0174499
822.645	0.0175037
822.723	0.0176158
822.801	0.0177024
822.879	0.0178942
822.957	0.0179026
823.035	0.0179713
823.113	0.0180114
823.192	0.0183051
823.270	0.0182590
823.348	0.0182855
823.426	0.0184432
823.504	0.0186343
823.582	0.0184882
823.660	0.0186185
823.738	0.0187392
823.817	0.0187251
823.895	0.0187762
823.973	0.0188116
824.051	0.0187827
824.129	0.0187566
824.207	0.0189578
824.285	0.0187682
824.363	0.0187080
824.442	0.0187037
824.520	0.0186418
824.598	0.0187809
824.676	0.0188101
824.754	0.0187498
824.832	0.0186547
824.910	0.0187598
824.988	0.0189034
825.067	0.0186752
825.145	0.0187292
825.223	0.0186739
825.301	0.0188358
825.379	0.0187611
825.457	0.0188734
825.535	0.0188332
825.613	0.0185768
825.692	0.0187627
825.770	0.0187344
825.848	0.0188122
825.926	0.0187920
826.004	0.0187031
826.082	0.0187975
826.160	0.0186784
826.238	0.0185869
826.317	0.0185851
826.395	0.0186417
826.473	0.0186516
826.551	0.0186597
826.629	0.0186120
826.707	0.0185298
826.785	0.0185644
826.863	0.0184914
826.942	0.0183388
827.020	0.0184432
827.098	0.0183969
827.176	0.0183128
827.254	0.0183167
827.332	0.0183150
827.410	0.0181483
827.488	0.0181574
827.567	0.0181223
827.645	0.0180959
827.723	0.0179504
827.801	0.0180956
827.879	0.0180679
827.957	0.0179753
828.035	0.0179054
828.113	0.0178260
828.192	0.0179874
828.270	0.0178232
828.348	0.0177570
828.426	0.0178541
828.504	0.0177042
828.582	0.0176591
828.660	0.0176508
828.738	0.0176017
828.817	0.0174994
828.895	0.0174801
828.973	0.0174182
829.051	0.0172910
829.129	0.0173221
829.207	0.0174491
829.285	0.0173745
829.363	0.0175047
829.442	0.0175896
829.520	0.0174072
829.598	0.0172820
829.676	0.0175098
829.754	0.0176021
829.832	0.0177229
829.910	0.0176212
829.988	0.0178301
830.067	0.0179768
830.145	0.0180255
830.223	0.0181820
830.301	0.0182789
830.379	0.0182092
830.457	0.0183707
830.535	0.0183815
830.613	0.0184245
830.692	0.0183885
830.770	0.0183551
830.848	0.0183973
830.926	0.0185236
831.004	0.0183414
831.082	0.0184353
831.160	0.0185428
831.238	0.0184532
831.317	0.0183920
831.395	0.0184930
831.473	0.0184791
831.551	0.0185041
831.629	0.0184405
831.707	0.0185649
831.785	0.0187473
831.863	0.0187656
831.942	0.0187616
832.020	0.0187954
832.098	0.0187765
832.176	0.0189620
832.254	0.0188798
832.332	0.0187926
832.410	0.0188090
832.488	0.0187621
832.567	0.0188020
832.645	0.0187386
832.723	0.0188667
832.801	0.0186634
832.879	0.0186024
832.957	0.0184998
833.035	0.0184832
833.113	0.0184274
833.192	0.0184695
833.270	0.0183003
833.348	0.0182415
833.426	0.0183332
833.504	0.0184039
833.582	0.0182961
833.660	0.0182991
833.738	0.0186092
833.817	0.0184419
833.895	0.0184712
833.973	0.0184869
834.051	0.0186605
834.129	0.0185742
834.207	0.0186015
834.285	0.0185942
834.363	0.0186050
834.442	0.0186919
834.520	0.0186080
834.598	0.0185229
834.676	0.0187663
834.754	0.0185802
834.832	0.0184363
834.910	0.0182639
834.988	0.0183389
835.067	0.0181601
835.145	0.0180906
835.223	0.0180746
835.301	0.0178422
835.379	0.0177830
835.457	0.0176418
835.535	0.0177560
835.613	0.0177467
835.692	0.0176262
835.770	0.0175462
835.848	0.0173798
835.926	0.0175062
836.004	0.0175485
836.082	0.0173927
836.160	0.0174834
836.238	0.0174902
836.317	0.0174077
836.395	0.0174965
836.473	0.0177324
836.551	0.0178139
836.629	0.0178513
836.707	0.0177629
836.785	0.0179890
836.863	0.0179744
836.942	0.0180722
837.020	0.0182000
837.098	0.0180630
837.176	0.0181351
837.254	0.0183066
837.332	0.0182884
837.410	0.0181203
837.488	0.0182211
837.567	0.0182239
837.645	0.0183033
837.723	0.0180820
837.801	0.0180403
837.879	0.0180035
837.957	0.0181014
838.035	0.0179264
838.113	0.0179251
838.192	0.0179383
838.270	0.0180344
838.348	0.0178559
838.426	0.0179466
838.504	0.0179704
838.582	0.0181481
838.660	0.0181025
838.738	0.0181100
838.817	0.0182784
838.895	0.0182130
838.973	0.0184079
839.051	0.0185334
839.129	0.0184457
839.207	0.0186138
839.285	0.0187069
839.363	0.0187799
839.442	0.0187321
839.520	0.0189455
839.598	0.0189478
839.676	0.0189917
839.754	0.0189550
839.832	0.0189570
839.910	0.0188783
839.988	0.0189959
840.067	0.0189015
840.145	0.0189407
840.223	0.0188666
840.301	0.0188004
840.379	0.0187867
840.457	0.0186388
840.535	0.0185530
840.613	0.0186665
840.692	0.0186163
840.770	0.0185490
840.848	0.0184552
840.926	0.0184695
841.004	0.0185268
841.082	0.0184976
841.160	0.0186221
841.238	0.0184302
841.317	0.0184173
841.395	0.0184273
841.473	0.0183556
841.551	0.0184809
841.629	0.0183414
841.707	0.0182494
841.785	0.0180925
841.863	0.0182750
841.942	0.0182045
842.020	0.0181692
842.098	0.0181579
842.176	0.0180759
842.254	0.0180792
842.332	0.0180614
842.410	0.0181014
842.488	0.0179961
842.567	0.0180346
842.645	0.0179160
842.723	0.0179051
842.801	0.0176976
842.879	0.0176559
842.957	0.0176606
843.035	0.0176965
843.113	0.0175021
843.192	0.0176897
843.270	0.0175935
843.348	0.0176476
843.426	0.0177422
843.504	0.0178597
843.582	0.0177631
843.660	0.0178958
843.738	0.0179790
843.817	0.0179617
843.895	0.0181076
843.973	0.0180407
844.051	0.0180687
844.129	0.0181474
844.207	0.0181850
844.285	0.0180223
844.363	0.0180305
844.442	0.0180705
844.520	0.0181936
844.598	0.0182540
844.676	0.0182117
844.754	0.0180877
844.832	0.0182818
844.910	0.0181713
844.988	0.0181591
845.067	0.0181735
845.145	0.0181578
845.223	0.0180024
845.301	0.0182316
845.379	0.0182603
845.457	0.0183817
845.535	0.0183270
845.613	0.0181119
845.692	0.0182965
845.770	0.0183804
845.848	0.0182838
845.926	0.0182628
846.004	0.0182996
846.082	0.0183466
846.160	0.0183368
846.238	0.0185123
846.317	0.0185265
846.395	0.0183781
846.473	0.0183458
846.551	0.0185422
846.629	0.0184798
846.707	0.0182925
846.785	0.0184599
846.863	0.0183047
846.942	0.0184125
847.020	0.0183014
847.098	0.0183646
847.176	0.0182669
847.254	0.0183549
847.332	0.0183493
847.410	0.0183031
847.488	0.0184775
847.567	0.0182989
847.645	0.0185065
847.723	0.0186056
847.801	0.0184624
847.879	0.0184628
847.957	0.0184455
848.035	0.0186213
848.113	0.0186707
848.192	0.0185101
848.270	0.0186608
848.348	0.0185793
848.426	0.0185712
848.504	0.0184825
848.582	0.0185509
848.660	0.0185588
848.738	0.0185787
848.817	0.0185175
848.895	0.0184249
848.973	0.0181842
849.051	0.0183138
849.129	0.0182842
849.207	0.0181080
849.285	0.0180868
849.363	0.0179523
849.442	0.0179939
849.520	0.0179025
849.598	0.0180122
849.676	0.0180187
849.754	0.0178716
849.832	0.0178979
849.910	0.0180268
849.988	0.0179535
850.067	0.0179610
850.145	0.0179559
850.223	0.0177287
850.301	0.0179377
850.379	0.0180423
850.457	0.0180008
850.535	0.0179865
850.613	0.0181920
850.692	0.0181672
850.770	0.0181981
850.848	0.0182598
850.926	0.0181251
851.004	0.0183619
851.082	0.0182552
851.160	0.0182766
851.238	0.0182915
851.317	0.0182120
851.395	0.0180853
851.473	0.0181038
851.551	0.0182506
851.629	0.0180881
851.707	0.0180967
851.785	0.0181584
851.863	0.0180591
851.942	0.0180550
852.020	0.0182150
852.098	0.0179890
852.176	0.0182150
852.254	0.0181313
852.332	0.0181316
852.410	0.0182347
852.488	0.0182689
852.567	0.0182142
852.645	0.0182882
852.723	0.0182955
852.801	0.0183662
852.879	0.0183584
852.957	0.0183679
853.035	0.0184089
853.113	0.0184622
853.192	0.0183498
853.270	0.0185143
853.348	0.0183989
853.426	0.0184394
853.504	0.0184048
853.582	0.0183752
853.660	0.0182976
853.738	0.0183680
853.817	0.0181723
853.895	0.0183023
853.973	0.0183506
854.051	0.0182732
854.129	0.0181905
854.207	0.0183331
854.285	0.0181339
854.363	0.0182102
854.442	0.0181960
854.520	0.0182591
854.598	0.0182935
854.676	0.0182269
854.754	0.0182819
854.832	0.0182391
854.910	0.0182307
854.988	0.0182938
855.067	0.0183195
855.145	0.0184787
855.223	0.0184695
855.301	0.0184612
855.379	0.0183796
855.457	0.0184689
855.535	0.0185187
855.613	0.0185027
855.692	0.0184914
855.770	0.0183936
855.848	0.0183485
855.926	0.0185000
856.004	0.0183664
856.082	0.0183021
856.160	0.0183897
856.238	0.0184260
856.317	0.0182561
856.395	0.0183115
856.473	0.0182116
856.551	0.0180623
856.629	0.0179574
856.707	0.0180173
856.785	0.0179827
856.863	0.0181654
856.942	0.0180936
857.020	0.0181599
857.098	0.0182305
857.176	0.0183051
857.254	0.0183599
857.332	0.0181046
857.410	0.0181528
857.488	0.0182248
857.567	0.0182552
857.645	0.0182475
857.723	0.0183086
857.801	0.0182334
857.879	0.0182977
857.957	0.0182587
858.035	0.0183917
858.113	0.0183292
858.192	0.0182243
858.270	0.0182722
858.348	0.0181927
858.426	0.0183483
858.504	0.0183083
858.582	0.0180946
858.660	0.0181782
858.738	0.0183072
858.817	0.0181432
858.895	0.0181950
858.973	0.0181107
859.051	0.0181704
859.129	0.0183105
859.207	0.0183971
859.285	0.0182347
859.363	0.0181926
859.442	0.0183585
859.520	0.0185052
859.598	0.0183137
859.676	0.0184565
859.754	0.0184466
859.832	0.0185290
859.910	0.0185880
859.988	0.0185452
860.067	0.0185017
860.145	0.0184431
860.223	0.0184252
860.301	0.0184895
860.379	0.0184825
860.457	0.0183050
860.535	0.0183408
860.613	0.0183095
860.692	0.0183356
860.770	0.0182492
860.848	0.0182452
860.926	0.0182231
861.004	0.0182839
861.082	0.0181114
861.160	0.0180516
861.238	0.0182166
861.317	0.0180914
861.395	0.0182924
861.473	0.0181448
861.551	0.0181110
861.629	0.0181445
861.707	0.0181166
861.785	0.0179345
861.863	0.0180101
861.942	0.0179924
862.020	0.0181816
862.098	0.0181059
862.176	0.0179826
862.254	0.0180364
862.332	0.0180576
862.410	0.0180589
862.488	0.0180383
862.567	0.0181559
862.645	0.0180338
862.723	0.0180672
862.801	0.0181752
862.879	0.0181693
862.957	0.0182128
863.035	0.0180483
863.113	0.0181380
863.192	0.0181229
863.270	0.0182257
863.348	0.0183357
863.426	0.0183168
863.504	0.0183237
863.582	0.0182583
863.660	0.0182003
863.738	0.0181586
863.817	0.0182735
863.895	0.0181776
863.973	0.0183410
864.051	0.0181383
864.129	0.0182359
864.207	0.0183999
864.285	0.0183459
864.363	0.0183534
864.442	0.0183379
864.520	0.0183315
864.598	0.0182029
864.676	0.0183517
864.754	0.0181223
864.832	0.0182461
864.910	0.0182215
864.988	0.0181546
865.067	0.0182654
865.145	0.0182980
865.223	0.0181004
865.301	0.0181137
865.379	0.0180619
865.457	0.0180294
865.535	0.0181361
865.613	0.0180514
865.692	0.0182735
865.770	0.0181639
865.848	0.0182378
865.926	0.0182137
866.004	0.0183023
866.082	0.0186033
866.160	0.0184729
866.238	0.0185168
866.317	0.0184550
866.395	0.0185914
866.473	0.0186951
866.551	0.0186388
866.629	0.0187125
866.707	0.0185844
866.785	0.0186109
866.863	0.0186498
866.942	0.0185001
867.020	0.0185595
867.098	0.0185487
867.176	0.0183888
867.254	0.0183530
867.332	0.0183175
867.410	0.0183511
867.488	0.0184338
867.567	0.0181963
867.645	0.0181689
867.723	0.0182336
867.801	0.0181348
867.879	0.0181452
867.957	0.0181229
868.035	0.0179523
868.113	0.0179845
868.192	0.0179924
868.270	0.0180664
868.348	0.0180448
868.426	0.0180296
868.504	0.0179142
868.582	0.0180334
868.660	0.0179729
868.738	0.0179884
868.817	0.0181032
868.895	0.0181232
868.973	0.0181715
869.051	0.0181327
869.129	0.0181040
869.207	0.0180115
869.285	0.0180766
869.363	0.0181095
869.442	0.0179536
869.520	0.0181146
869.598	0.0182073
869.676	0.0180508
869.754	0.0179888
869.832	0.0179884
869.910	0.0180061
869.988	0.0181013
870.067	0.0180648
870.145	0.0180537
870.223	0.0180547
870.301	0.0181210
870.379	0.0179356
870.457	0.0179091
870.535	0.0181527
870.613	0.0180518
870.692	0.0181236
870.770	0.0180975
870.848	0.0179965
870.926	0.0181637
871.004	0.0183310
871.082	0.0182436
871.160	0.0182333
871.238	0.0182442
871.317	0.0183609
871.395	0.0184215
871.473	0.0184211
871.551	0.0185773
871.629	0.0186596
871.707	0.0185468
871.785	0.0186594
871.863	0.0185725
871.942	0.0185497
872.020	0.0185110
872.098	0.0185352
872.176	0.0184193
872.254	0.0184962
872.332	0.0184090
872.410	0.0183842
872.488	0.0182730
872.567	0.0182639
872.645	0.0181121
872.723	0.0182267
872.801	0.0182262
872.879	0.0181171
872.957	0.0182672
873.035	0.0183417
873.113	0.0182519
873.192	0.0182004
873.270	0.0183424
873.348	0.0182475
873.426	0.0183054
873.504	0.0183475
873.582	0.0184570
873.660	0.0185318
873.738	0.0187569
873.817	0.0186433
873.895	0.0185963
873.973	0.0186543
874.051	0.0188176
874.129	0.0186912
874.207	0.0185995
874.285	0.0187215
874.363	0.0186835
874.442	0.0187284
874.520	0.0186331
874.598	0.0186932
874.676	0.0184473
874.754	0.0184741
874.832	0.0185075
874.910	0.0183919
874.988	0.0182809
875.067	0.0182671
875.145	0.0181301
875.223	0.0179554
875.301	0.0178860
875.379	0.0178734
875.457	0.0177805
875.535	0.0177916
875.613	0.0178442
875.692	0.0178815
875.770	0.0177747
875.848	0.0178432
875.926	0.0177541
876.004	0.0178179
876.082	0.0179200
876.160	0.0180312
876.238	0.0181431
876.317	0.0181354
876.395	0.0181139
876.473	0.0181657
876.551	0.0182485
876.629	0.0182154
876.707	0.0182738
876.785	0.0182079
876.863	0.0183250
876.942	0.0182858
877.020	0.0183180
877.098	0.0182988
877.176	0.0183091
877.254	0.0182228
877.332	0.0183542
877.410	0.0183305
877.488	0.0182915
877.567	0.0183517
877.645	0.0183231
877.723	0.0184035
877.801	0.0184186
877.879	0.0183293
877.957	0.0182349
878.035	0.0183469
878.113	0.0183477
878.192	0.0183100
878.270	0.0184064
878.348	0.0183477
878.426	0.0182689
878.504	0.0182578
878.582	0.0182318
878.660	0.0183525
878.738	0.0183474
878.817	0.0181093
878.895	0.0182111
878.973	0.0182192
879.051	0.0182443
879.129	0.0182921
879.207	0.0182055
879.285	0.0182566
879.363	0.0182185
879.442	0.0182514
879.520	0.0182674
879.598	0.0182917
879.676	0.0182057
879.754	0.0182635
879.832	0.0183938
879.910	0.0183812
879.988	0.0181678
880.067	0.0182063
880.145	0.0182365
880.223	0.0181788
880.301	0.0183324
880.379	0.0184581
880.457	0.0183288
880.535	0.0183530
880.613	0.0183776
880.692	0.0184125
880.770	0.0184143
880.848	0.0183694
880.926	0.0185303
881.004	0.0185253
881.082	0.0185862
881.160	0.0185557
881.238	0.0185483
881.317	0.0185497
881.395	0.0186324
881.473	0.0185523
881.551	0.0184633
881.629	0.0185480
881.707	0.0185014
881.785	0.0185906
881.863	0.0184687
881.942	0.0184483
882.020	0.0184447
882.098	0.0183150
882.176	0.0183078
882.254	0.0182525
882.332	0.0182898
882.410	0.0181181
882.488	0.0181228
882.567	0.0181621
882.645	0.0181722
882.723	0.0179876
882.801	0.0180361
882.879	0.0179991
882.957	0.0178918
883.035	0.0181267
883.113	0.0180434
883.192	0.0180189
883.270	0.0180226
883.348	0.0181247
883.426	0.0180033
883.504	0.0181165
883.582	0.0179730
883.660	0.0179477
883.738	0.0180260
883.817	0.0180456
883.895	0.0180935
883.973	0.0182031
884.051	0.0182775
884.129	0.0182026
884.207	0.0181356
884.285	0.0182430
884.363	0.0183226
884.442	0.0183739
884.520	0.0183478
884.598	0.0183611
884.676	0.0183620
884.754	0.0184649
884.832	0.0183804
884.910	0.0184454
884.988	0.0183098
885.067	0.0184756
885.145	0.0185915
885.223	0.0185747
885.301	0.0185452
885.379	0.0184509
885.457	0.0185534
885.535	0.0186684
885.613	0.0183765
885.692	0.0184439
885.770	0.0184948
885.848	0.0183997
885.926	0.0184138
886.004	0.0183670
886.082	0.0181886
886.160	0.0182818
886.238	0.0181221
886.317	0.0179891
886.395	0.0178801
886.473	0.0179523
886.551	0.0179790
886.629	0.0178320
886.707	0.0178112
886.785	0.0178838
886.863	0.0178834
886.942	0.0178116
887.020	0.0178199
887.098	0.0181188
887.176	0.0180795
887.254	0.0181065
887.332	0.0182517
887.410	0.0182074
887.488	0.0182404
887.567	0.0181955
887.645	0.0182653
887.723	0.0183584
887.801	0.0183443
887.879	0.0183315
887.957	0.0185117
888.035	0.0183707
888.113	0.0182786
888.192	0.0183353
888.270	0.0183173
888.348	0.0183181
888.426	0.0183244
888.504	0.0182667
888.582	0.0181821
888.660	0.0182813
888.738	0.0183744
888.817	0.0182198
888.895	0.0183353
888.973	0.0183698
889.051	0.0181551
889.129	0.0182600
889.207	0.0182149
889.285	0.0181558
889.363	0.0181758
889.442	0.0181400
889.520	0.0182547
889.598	0.0181458
889.676	0.0182378
889.754	0.0182269
889.832	0.0184159
889.910	0.0183332
889.988	0.0183360
890.067	0.0184137
890.145	0.0182930
890.223	0.0184750
890.301	0.0185219
890.379	0.0184093
890.457	0.0184013
890.535	0.0182475
890.613	0.0182901
890.692	0.0183572
890.770	0.0182784
890.848	0.0181271
890.926	0.0181375
891.004	0.0180959
891.082	0.0181353
891.160	0.0181815
891.238	0.0181588
891.317	0.0180419
891.395	0.0180975
891.473	0.0180199
891.551	0.0180354
891.629	0.0179289
891.707	0.0180948
891.785	0.0179839
891.863	0.0181040
891.942	0.0180853
892.020	0.0182433
892.098	0.0181512
892.176	0.0183846
892.254	0.0182149
892.332	0.0182568
892.410	0.0183255
892.488	0.0182608
892.567	0.0183836
892.645	0.0182030
892.723	0.0181384
892.801	0.0182750
892.879	0.0182513
892.957	0.0182452
893.035	0.0182516
893.113	0.0182137
893.192	0.0181707
893.270	0.0181660
893.348	0.0181905
893.426	0.0182570
893.504	0.0181576
893.582	0.0180853
893.660	0.0180933
893.738	0.0181548
893.817	0.0181181
893.895	0.0181065
893.973	0.0180873
894.051	0.0182824
894.129	0.0182584
894.207	0.0181586
894.285	0.0184815
894.363	0.0184403
894.442	0.0185579
894.520	0.0184001
894.598	0.0183693
894.676	0.0183795
894.754	0.0184384
894.832	0.0183578
894.910	0.0183186
894.988	0.0184027
895.067	0.0184474
895.145	0.0184492
895.223	0.0182879
895.301	0.0182738
895.379	0.0182832
895.457	0.0182518
895.535	0.0181908
895.613	0.0182235
895.692	0.0182136
895.770	0.0181129
895.848	0.0183179
895.926	0.0181963
896.004	0.0182140
896.082	0.0180041
896.160	0.0181838
896.238	0.0182240
896.317	0.0179771
896.395	0.0179641
896.473	0.0181682
896.551	0.0181110
896.629	0.0179988
896.707	0.0180862
896.785	0.0181594
896.863	0.0181488
896.942	0.0181535
897.020	0.0181655
897.098	0.0182355
897.176	0.0182473
897.254	0.0183383
897.332	0.0183704
897.410	0.0182972
897.488	0.0184164
897.567	0.0184309
897.645	0.0185362
897.723	0.0184398
897.801	0.0183592
897.879	0.0184600
897.957	0.0186317
898.035	0.0184305
898.113	0.0183824
898.192	0.0184612
898.270	0.0183614
898.348	0.0184301
898.426	0.0185168
898.504	0.0184380
898.582	0.0183375
898.660	0.0184397
898.738	0.0184250
898.817	0.0186900
898.895	0.0184885
898.973	0.0184034
899.051	0.0184495
899.129	0.0184933
899.207	0.0184798
899.285	0.0185326
899.363	0.0183845
899.442	0.0184248
899.520	0.0183946
899.598	0.0182909
899.676	0.0183824
899.754	0.0181508
899.832	0.0182727
899.910	0.0181792
899.988	0.0180840
900.067	0.0180669
900.145	0.0180281
900.223	0.0182085
900.301	0.0180939
900.379	0.0180885
900.457	0.0180128
900.535	0.0180458
900.613	0.0179616
900.692	0.0179971
900.770	0.0180408
900.848	0.0181089
900.926	0.0180811
901.004	0.0181809
901.082	0.0180809
901.160	0.0182326
901.238	0.0182175
901.317	0.0180127
901.395	0.0179655
901.473	0.0181437
901.551	0.0180544
901.629	0.0183444
901.707	0.0182242
901.785	0.0182707
901.863	0.0182214
901.942	0.0182854
902.020	0.0184103
902.098	0.0184215
902.176	0.0183142
902.254	0.0183745
902.332	0.0182233
902.410	0.0183058
902.488	0.0183427
902.567	0.0182610
902.645	0.0183119
902.723	0.0183004
902.801	0.0182336
902.879	0.0183337
902.957	0.0183414
903.035	0.0182863
903.113	0.0182013
903.192	0.0183229
903.270	0.0182839
903.348	0.0181385
903.426	0.0182944
903.504	0.0183578
903.582	0.0181342
903.660	0.0181678
903.738	0.0182274
903.817	0.0182991
903.895	0.0182920
903.973	0.0182401
904.051	0.0182207
904.129	0.0182715
904.207	0.0182555
904.285	0.0181682
904.363	0.0183660
904.442	0.0183862
904.520	0.0182964
904.598	0.0183331
904.676	0.0183852
904.754	0.0184391
904.832	0.0184456
904.910	0.0184068
904.988	0.0183991
905.067	0.0184169
905.145	0.0184399
905.223	0.0183703
905.301	0.0185697
905.379	0.0183189
905.457	0.0183623
905.535	0.0183830
905.613	0.0182013
905.692	0.0182913
905.770	0.0183629
905.848	0.0182823
905.926	0.0183098
906.004	0.0182686
906.082	0.0181435
906.160	0.0182617
906.238	0.0183086
906.317	0.0183243
906.395	0.0183547
906.473	0.0183092
906.551	0.0182677
906.629	0.0182818
906.707	0.0182540
906.785	0.0182010
906.863	0.0181804
906.942	0.0182204
907.020	0.0181713
907.098	0.0180708
907.176	0.0182030
907.254	0.0180867
907.332	0.0181359
907.410	0.0181576
907.488	0.0181936
907.567	0.0181425
907.645	0.0182944
907.723	0.0181839
907.801	0.0182143
907.879	0.0182232
907.957	0.0182121
908.035	0.0182352
908.113	0.0183350
908.192	0.0182890
908.270	0.0183681
908.348	0.0183126
908.426	0.0182663
908.504	0.0183303
908.582	0.0182009
908.660	0.0183542
908.738	0.0182625
908.817	0.0183372
908.895	0.0182685
908.973	0.0182680
909.051	0.0183477
909.129	0.0182330
909.207	0.0183860
909.285	0.0184497
909.363	0.0182421
909.442	0.0183182
909.520	0.0182352
909.598	0.0184409
909.676	0.0182894
909.754	0.0183427
909.832	0.0183215
909.910	0.0183648
909.988	0.0182624
910.067	0.0183408
910.145	0.0182183
910.223	0.0182458
910.301	0.0181821
910.379	0.0181400
910.457	0.0180549
910.535	0.0180148
910.613	0.0181650
910.692	0.0181699
910.770	0.0180826
910.848	0.0181023
910.926	0.0181604
911.004	0.0182173
911.082	0.0182275
911.160	0.0181207
911.238	0.0181753
911.317	0.0183485
911.395	0.0182198
911.473	0.0182649
911.551	0.0184602
911.629	0.0182374
911.707	0.0183047
911.785	0.0183727
911.863	0.0183309
911.942	0.0183813
912.020	0.0184106
912.098	0.0181837
912.176	0.0181741
912.254	0.0183070
912.332	0.0182524
912.410	0.0183162
912.488	0.0182851
912.567	0.0181761
912.645	0.0182500
912.723	0.0180912
912.801	0.0181007
912.879	0.0180536
912.957	0.0182275
913.035	0.0180823
913.113	0.0181337
913.192	0.0180851
913.270	0.0180482
913.348	0.0181284
913.426	0.0179976
913.504	0.0181571
913.582	0.0181941
913.660	0.0181572
913.738	0.0181084
913.817	0.0183108
913.895	0.0182426
913.973	0.0182636
914.051	0.0183225
914.129	0.0183112
914.207	0.0183727
914.285	0.0183209
914.363	0.0182807
914.442	0.0183993
914.520	0.0184612
914.598	0.0184867
914.676	0.0184623
914.754	0.0185452
914.832	0.0183772
914.910	0.0184924
914.988	0.0185462
915.067	0.0185522
915.145	0.0184893
915.223	0.0186806
915.301	0.0185284
915.379	0.0185652
915.457	0.0186253
915.535	0.0185167
915.613	0.0185061
915.692	0.0184945
915.770	0.0185193
915.848	0.0183726
915.926	0.0184038
916.004	0.0182571
916.082	0.0183107
916.160	0.0183723
916.238	0.0182704
916.317	0.0182668
916.395	0.0184071
916.473	0.0181264
916.551	0.0182242
916.629	0.0183754
916.707	0.0184189
916.785	0.0183311
916.863	0.0182156
916.942	0.0181911
917.020	0.0182911
917.098	0.0181561
917.176	0.0183020
917.254	0.0182737
917.332	0.0183002
917.410	0.0181239
917.488	0.0180036
917.567	0.0180059
917.645	0.0181017
917.723	0.0180349
917.801	0.0179127
917.879	0.0180033
917.957	0.0178708
918.035	0.0179128
918.113	0.0178650
918.192	0.0179787
918.270	0.0178889
918.348	0.0179691
918.426	0.0178574
918.504	0.0181553
918.582	0.0180732
918.660	0.0180676
918.738	0.0181321
918.817	0.0183824
918.895	0.0182781
918.973	0.0182804
919.051	0.0181879
919.129	0.0184302
919.207	0.0184066
919.285	0.0183749
919.363	0.0182263
919.442	0.0183291
919.520	0.0181677
919.598	0.0182722
919.676	0.0181588
919.754	0.0181785
919.832	0.0181723
919.910	0.0179641
