06/01/2022	21:52:13	Ver.	4.1	UNKNOWN
Optical Delay	599.988409	Delta X		0.078125	Sweeps	1	Scan Rate	0/0
Coordinates	Axis 1	NaN	Axis 2	NaN	Axis 3	NaN	Axis 4	NaN	Axis 5	NaN	Axis 6	0.000000
TX Power	0.000000	RX Power	0.000000

599.988	0.0180131
600.067	0.0178795
600.145	0.0179681
600.223	0.0181236
600.301	0.0178192
600.379	0.0178519
600.457	0.0180460
600.535	0.0180067
600.613	0.0179386
600.692	0.0180499
600.770	0.0179539
600.848	0.0181322
600.926	0.0180090
601.004	0.0181233
601.082	0.0179897
601.160	0.0179291
601.238	0.0179452
601.317	0.0179749
601.395	0.0180736
601.473	0.0180014
601.551	0.0179561
601.629	0.0179955
601.707	0.0181169
601.785	0.0179570
601.863	0.0179972
601.942	0.0180341
602.020	0.0179591
602.098	0.0181142
602.176	0.0179224
602.254	0.0179218
602.332	0.0181455
602.410	0.0180399
602.488	0.0179596
602.567	0.0178394
602.645	0.0179781
602.723	0.0180404
602.801	0.0179879
602.879	0.0179180
602.957	0.0180263
603.035	0.0178996
603.113	0.0179128
603.192	0.0179900
603.270	0.0180309
603.348	0.0180212
603.426	0.0180117
603.504	0.0179446
603.582	0.0180097
603.660	0.0180585
603.738	0.0179708
603.817	0.0179986
603.895	0.0179091
603.973	0.0179742
604.051	0.0178562
604.129	0.0180238
604.207	0.0180946
604.285	0.0179651
604.363	0.0180080
604.442	0.0179395
604.520	0.0180220
604.598	0.0180915
604.676	0.0179987
604.754	0.0178621
604.832	0.0180360
604.910	0.0179398
604.988	0.0179095
605.067	0.0181024
605.145	0.0179160
605.223	0.0179514
605.301	0.0180374
605.379	0.0179243
605.457	0.0180435
605.535	0.0179977
605.613	0.0179939
605.692	0.0180576
605.770	0.0181019
605.848	0.0181167
605.926	0.0179353
606.004	0.0179642
606.082	0.0180614
606.160	0.0180130
606.238	0.0179967
606.317	0.0179936
606.395	0.0181159
606.473	0.0180457
606.551	0.0180334
606.629	0.0180563
606.707	0.0179919
606.785	0.0180873
606.863	0.0180225
606.942	0.0180066
607.020	0.0180624
607.098	0.0181007
607.176	0.0179895
607.254	0.0180585
607.332	0.0180108
607.410	0.0179369
607.488	0.0180657
607.567	0.0181330
607.645	0.0181426
607.723	0.0180759
607.801	0.0179773
607.879	0.0179722
607.957	0.0180616
608.035	0.0179254
608.113	0.0179790
608.192	0.0179948
608.270	0.0180848
608.348	0.0180743
608.426	0.0180834
608.504	0.0179300
608.582	0.0180389
608.660	0.0180523
608.738	0.0180178
608.817	0.0179511
608.895	0.0179607
608.973	0.0181258
609.051	0.0179692
609.129	0.0179130
609.207	0.0180708
609.285	0.0181071
609.363	0.0179611
609.442	0.0179823
609.520	0.0179067
609.598	0.0179750
609.676	0.0179656
609.754	0.0180244
609.832	0.0178720
609.910	0.0179351
609.988	0.0180756
610.067	0.0179881
610.145	0.0180641
610.223	0.0181099
610.301	0.0181168
610.379	0.0180893
610.457	0.0181158
610.535	0.0180461
610.613	0.0180464
610.692	0.0180636
610.770	0.0179772
610.848	0.0181183
610.926	0.0182555
611.004	0.0180527
611.082	0.0181720
611.160	0.0180413
611.238	0.0180524
611.317	0.0179461
611.395	0.0180936
611.473	0.0180858
611.551	0.0180706
611.629	0.0181135
611.707	0.0180927
611.785	0.0179993
611.863	0.0179491
611.942	0.0180386
612.020	0.0181372
612.098	0.0181915
612.176	0.0181001
612.254	0.0181445
612.332	0.0180247
612.410	0.0179754
612.488	0.0179731
612.567	0.0179730
612.645	0.0179972
612.723	0.0180407
612.801	0.0180078
612.879	0.0179751
612.957	0.0180567
613.035	0.0180515
613.113	0.0179322
613.192	0.0179951
613.270	0.0181094
613.348	0.0179712
613.426	0.0181327
613.504	0.0179668
613.582	0.0180522
613.660	0.0180566
613.738	0.0181100
613.817	0.0180157
613.895	0.0180558
613.973	0.0181053
614.051	0.0180828
614.129	0.0180160
614.207	0.0179707
614.285	0.0180885
614.363	0.0181592
614.442	0.0180761
614.520	0.0182816
614.598	0.0180224
614.676	0.0180532
614.754	0.0181045
614.832	0.0181152
614.910	0.0179559
614.988	0.0179749
615.067	0.0180840
615.145	0.0180672
615.223	0.0181108
615.301	0.0180154
615.379	0.0179137
615.457	0.0180450
615.535	0.0180032
615.613	0.0180085
615.692	0.0180263
615.770	0.0179542
615.848	0.0180642
615.926	0.0179494
616.004	0.0180238
616.082	0.0179137
616.160	0.0181027
616.238	0.0180750
616.317	0.0179611
616.395	0.0180208
616.473	0.0180038
616.551	0.0180687
616.629	0.0178413
616.707	0.0179541
616.785	0.0180827
616.863	0.0179244
616.942	0.0179659
617.020	0.0181189
617.098	0.0179420
617.176	0.0179596
617.254	0.0180305
617.332	0.0180728
617.410	0.0180317
617.488	0.0180804
617.567	0.0180811
617.645	0.0180401
617.723	0.0180650
617.801	0.0180183
617.879	0.0180566
617.957	0.0180863
618.035	0.0180042
618.113	0.0181136
618.192	0.0181336
618.270	0.0179892
618.348	0.0180750
618.426	0.0181984
618.504	0.0181092
618.582	0.0180690
618.660	0.0179282
618.738	0.0181175
618.817	0.0180499
618.895	0.0179858
618.973	0.0180499
619.051	0.0181402
619.129	0.0180708
619.207	0.0179916
619.285	0.0179953
619.363	0.0179807
619.442	0.0179140
619.520	0.0180080
619.598	0.0179325
619.676	0.0180414
619.754	0.0180357
619.832	0.0180713
619.910	0.0181220
619.988	0.0178743
620.067	0.0178949
620.145	0.0180250
620.223	0.0179619
620.301	0.0180467
620.379	0.0179382
620.457	0.0179356
620.535	0.0180108
620.613	0.0179835
620.692	0.0179696
620.770	0.0178902
620.848	0.0180310
620.926	0.0179919
621.004	0.0180964
621.082	0.0179386
621.160	0.0179261
621.238	0.0179679
621.317	0.0179956
621.395	0.0181361
621.473	0.0180891
621.551	0.0179319
621.629	0.0178079
621.707	0.0180756
621.785	0.0179037
621.863	0.0180039
621.942	0.0180531
622.020	0.0179157
622.098	0.0179656
622.176	0.0180499
622.254	0.0179720
622.332	0.0180064
622.410	0.0180327
622.488	0.0179807
622.567	0.0178735
622.645	0.0181133
622.723	0.0179504
622.801	0.0179887
622.879	0.0179851
622.957	0.0179910
623.035	0.0180317
623.113	0.0180630
623.192	0.0180345
623.270	0.0180930
623.348	0.0180690
623.426	0.0180437
623.504	0.0181405
623.582	0.0179913
623.660	0.0180477
623.738	0.0179723
623.817	0.0180951
623.895	0.0178593
623.973	0.0180383
624.051	0.0180460
624.129	0.0180949
624.207	0.0180487
624.285	0.0179786
624.363	0.0178104
624.442	0.0179759
624.520	0.0180077
624.598	0.0181177
624.676	0.0181300
624.754	0.0178872
624.832	0.0180339
624.910	0.0179909
624.988	0.0180743
625.067	0.0180293
625.145	0.0178890
625.223	0.0179719
625.301	0.0180241
625.379	0.0180999
625.457	0.0179578
625.535	0.0180511
625.613	0.0180431
625.692	0.0180151
625.770	0.0181473
625.848	0.0179964
625.926	0.0180222
626.004	0.0180142
626.082	0.0180345
626.160	0.0180331
626.238	0.0180148
626.317	0.0179805
626.395	0.0180634
626.473	0.0180201
626.551	0.0179496
626.629	0.0180080
626.707	0.0181761
626.785	0.0180308
626.863	0.0179664
626.942	0.0179503
627.020	0.0180283
627.098	0.0180646
627.176	0.0180948
627.254	0.0181014
627.332	0.0180611
627.410	0.0180470
627.488	0.0181053
627.567	0.0180553
627.645	0.0179915
627.723	0.0180112
627.801	0.0180868
627.879	0.0179435
627.957	0.0179208
628.035	0.0179739
628.113	0.0179785
628.192	0.0178809
628.270	0.0180906
628.348	0.0179882
628.426	0.0181144
628.504	0.0179790
628.582	0.0181288
628.660	0.0179716
628.738	0.0180536
628.817	0.0179655
628.895	0.0179507
628.973	0.0179252
629.051	0.0179438
629.129	0.0180137
629.207	0.0181023
629.285	0.0181014
629.363	0.0180795
629.442	0.0179950
629.520	0.0181707
629.598	0.0180569
629.676	0.0179277
629.754	0.0180909
629.832	0.0178920
629.910	0.0181636
629.988	0.0180783
630.067	0.0180588
630.145	0.0180125
630.223	0.0179988
630.301	0.0180070
630.379	0.0180330
630.457	0.0180196
630.535	0.0179385
630.613	0.0180421
630.692	0.0180318
630.770	0.0179613
630.848	0.0181080
630.926	0.0180162
631.004	0.0180875
631.082	0.0180862
631.160	0.0179916
631.238	0.0179716
631.317	0.0180523
631.395	0.0180602
631.473	0.0180877
631.551	0.0181435
631.629	0.0180511
631.707	0.0180553
631.785	0.0180936
631.863	0.0180594
631.942	0.0181996
632.020	0.0181025
632.098	0.0180084
632.176	0.0180904
632.254	0.0180926
632.332	0.0179862
632.410	0.0180339
632.488	0.0180252
632.567	0.0180190
632.645	0.0180061
632.723	0.0179060
632.801	0.0180915
632.879	0.0181207
632.957	0.0181081
633.035	0.0181186
633.113	0.0180143
633.192	0.0179787
633.270	0.0180559
633.348	0.0181221
633.426	0.0179788
633.504	0.0180172
633.582	0.0181022
633.660	0.0180029
633.738	0.0181142
633.817	0.0179980
633.895	0.0180145
633.973	0.0180521
634.051	0.0179861
634.129	0.0179361
634.207	0.0179478
634.285	0.0180308
634.363	0.0181179
634.442	0.0181036
634.520	0.0180345
634.598	0.0180695
634.676	0.0179571
634.754	0.0181076
634.832	0.0179491
634.910	0.0180574
634.988	0.0180832
635.067	0.0181679
635.145	0.0180157
635.223	0.0180332
635.301	0.0180434
635.379	0.0180174
635.457	0.0179772
635.535	0.0180175
635.613	0.0181036
635.692	0.0180597
635.770	0.0181671
635.848	0.0181908
635.926	0.0181985
636.004	0.0179816
636.082	0.0180989
636.160	0.0179529
636.238	0.0179124
636.317	0.0180179
636.395	0.0180901
636.473	0.0179465
636.551	0.0178645
636.629	0.0180132
636.707	0.0180367
636.785	0.0181013
636.863	0.0179002
636.942	0.0181051
637.020	0.0180482
637.098	0.0180243
637.176	0.0180422
637.254	0.0181928
637.332	0.0182317
637.410	0.0181384
637.488	0.0181233
637.567	0.0180549
637.645	0.0181162
637.723	0.0181784
637.801	0.0180219
637.879	0.0180838
637.957	0.0179827
638.035	0.0180718
638.113	0.0180163
638.192	0.0180122
638.270	0.0180041
638.348	0.0179367
638.426	0.0179404
638.504	0.0178261
638.582	0.0179308
638.660	0.0178788
638.738	0.0178452
638.817	0.0179376
638.895	0.0179945
638.973	0.0179790
639.051	0.0180950
639.129	0.0181236
639.207	0.0180616
639.285	0.0183044
639.363	0.0180343
639.442	0.0180455
639.520	0.0181138
639.598	0.0181940
639.676	0.0181284
639.754	0.0179652
639.832	0.0179128
639.910	0.0179771
639.988	0.0179910
640.067	0.0178339
640.145	0.0178433
640.223	0.0177808
640.301	0.0178249
640.379	0.0179926
640.457	0.0179942
640.535	0.0178703
640.613	0.0179297
640.692	0.0179801
640.770	0.0179596
640.848	0.0180669
640.926	0.0179569
641.004	0.0180238
641.082	0.0179408
641.160	0.0180817
641.238	0.0180739
641.317	0.0180561
641.395	0.0180805
641.473	0.0179231
641.551	0.0180789
641.629	0.0179743
641.707	0.0180627
641.785	0.0180151
641.863	0.0179025
641.942	0.0179823
642.020	0.0180421
642.098	0.0179454
642.176	0.0180130
642.254	0.0179007
642.332	0.0179095
642.410	0.0179005
642.488	0.0179607
642.567	0.0179175
642.645	0.0178907
642.723	0.0180608
642.801	0.0180135
642.879	0.0179140
642.957	0.0180025
643.035	0.0178739
643.113	0.0180436
643.192	0.0179683
643.270	0.0180305
643.348	0.0180717
643.426	0.0179890
643.504	0.0179926
643.582	0.0181143
643.660	0.0181004
643.738	0.0181215
643.817	0.0180582
643.895	0.0181052
643.973	0.0180589
644.051	0.0179292
644.129	0.0178368
644.207	0.0177883
644.285	0.0178043
644.363	0.0177844
644.442	0.0176716
644.520	0.0176904
644.598	0.0177514
644.676	0.0178436
644.754	0.0178700
644.832	0.0180501
644.910	0.0179115
644.988	0.0179830
645.067	0.0181325
645.145	0.0181074
645.223	0.0179830
645.301	0.0182331
645.379	0.0181088
645.457	0.0180473
645.535	0.0180937
645.613	0.0180873
645.692	0.0179255
645.770	0.0178384
645.848	0.0179065
645.926	0.0178264
646.004	0.0177944
646.082	0.0178347
646.160	0.0177738
646.238	0.0179272
646.317	0.0177172
646.395	0.0178871
646.473	0.0178266
646.551	0.0178339
646.629	0.0179929
646.707	0.0179376
646.785	0.0179486
646.863	0.0180899
646.942	0.0179109
647.020	0.0180581
647.098	0.0181120
647.176	0.0181724
647.254	0.0181837
647.332	0.0180562
647.410	0.0180278
647.488	0.0180701
647.567	0.0180425
647.645	0.0180988
647.723	0.0180865
647.801	0.0179424
647.879	0.0180098
647.957	0.0179200
648.035	0.0178556
648.113	0.0180119
648.192	0.0180319
648.270	0.0179015
648.348	0.0178570
648.426	0.0180020
648.504	0.0180599
648.582	0.0179220
648.660	0.0180276
648.738	0.0178578
648.817	0.0179941
648.895	0.0180219
648.973	0.0180271
649.051	0.0180727
649.129	0.0180202
649.207	0.0181059
649.285	0.0180785
649.363	0.0181098
649.442	0.0180954
649.520	0.0182049
649.598	0.0181960
649.676	0.0183228
649.754	0.0181837
649.832	0.0181067
649.910	0.0180618
649.988	0.0180501
650.067	0.0181167
650.145	0.0180795
650.223	0.0180767
650.301	0.0178841
650.379	0.0178390
650.457	0.0180102
650.535	0.0179956
650.613	0.0180118
650.692	0.0180264
650.770	0.0179720
650.848	0.0181446
650.926	0.0180988
651.004	0.0181580
651.082	0.0178998
651.160	0.0180923
651.238	0.0179720
651.317	0.0180336
651.395	0.0181185
651.473	0.0179057
651.551	0.0180463
651.629	0.0181039
651.707	0.0180751
651.785	0.0180718
651.863	0.0179578
651.942	0.0179594
652.020	0.0181010
652.098	0.0180251
652.176	0.0181227
652.254	0.0179551
652.332	0.0180852
652.410	0.0180605
652.488	0.0180991
652.567	0.0180006
652.645	0.0179939
652.723	0.0180874
652.801	0.0180602
652.879	0.0180726
652.957	0.0180495
653.035	0.0180352
653.113	0.0179345
653.192	0.0178144
653.270	0.0178710
653.348	0.0179218
653.426	0.0179204
653.504	0.0179712
653.582	0.0178004
653.660	0.0177489
653.738	0.0178883
653.817	0.0180963
653.895	0.0179698
653.973	0.0179713
654.051	0.0179898
654.129	0.0180787
654.207	0.0181458
654.285	0.0181440
654.363	0.0182056
654.442	0.0181816
654.520	0.0182205
654.598	0.0181685
654.676	0.0182336
654.754	0.0181383
654.832	0.0182406
654.910	0.0181235
654.988	0.0180030
655.067	0.0180788
655.145	0.0178596
655.223	0.0179649
655.301	0.0177872
655.379	0.0175947
655.457	0.0176864
655.535	0.0176058
655.613	0.0175787
655.692	0.0176387
655.770	0.0178231
655.848	0.0177823
655.926	0.0179905
656.004	0.0178111
656.082	0.0181070
656.160	0.0180225
656.238	0.0179932
656.317	0.0182182
656.395	0.0183150
656.473	0.0184206
656.551	0.0183699
656.629	0.0183195
656.707	0.0182767
656.785	0.0182946
656.863	0.0183438
656.942	0.0182000
657.020	0.0180888
657.098	0.0179543
657.176	0.0179105
657.254	0.0178063
657.332	0.0177464
657.410	0.0178225
657.488	0.0176985
657.567	0.0178319
657.645	0.0176624
657.723	0.0175327
657.801	0.0177422
657.879	0.0176729
657.957	0.0177773
658.035	0.0179042
658.113	0.0180439
658.192	0.0180807
658.270	0.0180866
658.348	0.0181111
658.426	0.0182462
658.504	0.0182928
658.582	0.0184127
658.660	0.0183695
658.738	0.0182878
658.817	0.0182311
658.895	0.0183846
658.973	0.0183829
659.051	0.0183176
659.129	0.0182764
659.207	0.0180300
659.285	0.0179359
659.363	0.0179881
659.442	0.0179079
659.520	0.0176593
659.598	0.0178555
659.676	0.0176600
659.754	0.0176714
659.832	0.0176859
659.910	0.0176971
659.988	0.0177512
660.067	0.0178354
660.145	0.0179731
660.223	0.0179404
660.301	0.0180302
660.379	0.0181621
660.457	0.0182609
660.535	0.0181102
660.613	0.0183752
660.692	0.0182796
660.770	0.0182471
660.848	0.0183009
660.926	0.0182524
661.004	0.0180988
661.082	0.0180299
661.160	0.0181120
661.238	0.0180871
661.317	0.0180507
661.395	0.0179908
661.473	0.0179571
661.551	0.0180074
661.629	0.0180608
661.707	0.0180344
661.785	0.0179796
661.863	0.0179291
661.942	0.0179312
662.020	0.0180631
662.098	0.0180647
662.176	0.0181337
662.254	0.0180369
662.332	0.0180033
662.410	0.0180559
662.488	0.0181005
662.567	0.0179601
662.645	0.0180235
662.723	0.0177947
662.801	0.0179466
662.879	0.0179726
662.957	0.0179241
663.035	0.0179265
663.113	0.0178567
663.192	0.0178497
663.270	0.0180120
663.348	0.0179787
663.426	0.0179784
663.504	0.0179911
663.582	0.0181605
663.660	0.0180874
663.738	0.0179717
663.817	0.0180331
663.895	0.0181508
663.973	0.0181234
664.051	0.0179358
664.129	0.0180076
664.207	0.0180360
664.285	0.0180686
664.363	0.0181184
664.442	0.0181641
664.520	0.0180396
664.598	0.0180150
664.676	0.0180013
664.754	0.0179628
664.832	0.0178689
664.910	0.0179826
664.988	0.0178990
665.067	0.0177235
665.145	0.0179329
665.223	0.0179925
665.301	0.0178188
665.379	0.0178352
665.457	0.0180930
665.535	0.0178466
665.613	0.0179341
665.692	0.0180032
665.770	0.0181499
665.848	0.0181679
665.926	0.0181042
666.004	0.0180599
666.082	0.0181778
666.160	0.0183037
666.238	0.0181761
666.317	0.0180604
666.395	0.0181214
666.473	0.0179455
666.551	0.0178571
666.629	0.0177493
666.707	0.0178360
666.785	0.0177403
666.863	0.0177783
666.942	0.0177686
667.020	0.0177877
667.098	0.0178123
667.176	0.0177798
667.254	0.0177362
667.332	0.0177247
667.410	0.0179502
667.488	0.0180177
667.567	0.0179250
667.645	0.0179359
667.723	0.0180293
667.801	0.0182704
667.879	0.0182418
667.957	0.0181843
668.035	0.0183398
668.113	0.0183350
668.192	0.0182033
668.270	0.0183478
668.348	0.0183437
668.426	0.0181757
668.504	0.0182220
668.582	0.0181944
668.660	0.0180035
668.738	0.0180412
668.817	0.0180635
668.895	0.0179177
668.973	0.0177733
669.051	0.0175291
669.129	0.0175919
669.207	0.0175913
669.285	0.0177049
669.363	0.0176604
669.442	0.0177869
669.520	0.0177584
669.598	0.0180235
669.676	0.0179388
669.754	0.0178914
669.832	0.0180647
669.910	0.0182773
669.988	0.0181439
670.067	0.0181394
670.145	0.0182341
670.223	0.0182224
670.301	0.0181474
670.379	0.0182522
670.457	0.0181115
670.535	0.0181892
670.613	0.0181181
670.692	0.0179887
670.770	0.0180158
670.848	0.0179477
670.926	0.0180197
671.004	0.0180293
671.082	0.0179184
671.160	0.0177842
671.238	0.0179007
671.317	0.0179063
671.395	0.0179742
671.473	0.0178532
671.551	0.0178883
671.629	0.0178677
671.707	0.0180035
671.785	0.0178664
671.863	0.0179832
671.942	0.0179913
672.020	0.0180574
672.098	0.0180171
672.176	0.0181480
672.254	0.0181767
672.332	0.0183388
672.410	0.0182784
672.488	0.0181818
672.567	0.0183467
672.645	0.0182904
672.723	0.0182790
672.801	0.0182580
672.879	0.0182626
672.957	0.0182203
673.035	0.0181184
673.113	0.0180299
673.192	0.0178306
673.270	0.0177953
673.348	0.0178132
673.426	0.0176807
673.504	0.0177959
673.582	0.0175404
673.660	0.0175780
673.738	0.0176417
673.817	0.0175123
673.895	0.0177571
673.973	0.0178680
674.051	0.0178938
674.129	0.0178860
674.207	0.0179534
674.285	0.0179810
674.363	0.0181721
674.442	0.0181442
674.520	0.0181564
674.598	0.0182970
674.676	0.0183742
674.754	0.0181897
674.832	0.0182108
674.910	0.0182899
674.988	0.0182901
675.067	0.0182263
675.145	0.0180573
675.223	0.0180092
675.301	0.0180602
675.379	0.0179050
675.457	0.0178757
675.535	0.0181136
675.613	0.0179763
675.692	0.0179922
675.770	0.0177417
675.848	0.0179357
675.926	0.0178628
676.004	0.0178726
676.082	0.0178899
676.160	0.0176352
676.238	0.0177077
676.317	0.0175152
676.395	0.0176317
676.473	0.0175207
676.551	0.0174719
676.629	0.0173896
676.707	0.0175021
676.785	0.0177180
676.863	0.0177076
676.942	0.0179778
677.020	0.0181646
677.098	0.0180713
677.176	0.0182356
677.254	0.0184348
677.332	0.0184304
677.410	0.0186820
677.488	0.0187667
677.567	0.0187724
677.645	0.0186842
677.723	0.0188148
677.801	0.0186933
677.879	0.0187401
677.957	0.0185712
678.035	0.0186582
678.113	0.0183667
678.192	0.0183047
678.270	0.0182072
678.348	0.0180539
678.426	0.0179131
678.504	0.0179181
678.582	0.0176842
678.660	0.0176663
678.738	0.0176535
678.817	0.0174202
678.895	0.0174529
678.973	0.0173511
679.051	0.0172717
679.129	0.0172810
679.207	0.0173124
679.285	0.0173642
679.363	0.0174940
679.442	0.0176752
679.520	0.0176208
679.598	0.0178419
679.676	0.0180341
679.754	0.0182040
679.832	0.0185128
679.910	0.0185637
679.988	0.0187480
680.067	0.0188212
680.145	0.0190982
680.223	0.0190439
680.301	0.0190267
680.379	0.0190504
680.457	0.0190272
680.535	0.0187991
680.613	0.0186671
680.692	0.0184670
680.770	0.0184338
680.848	0.0181537
680.926	0.0178473
681.004	0.0177356
681.082	0.0175729
681.160	0.0172862
681.238	0.0170589
681.317	0.0169680
681.395	0.0168481
681.473	0.0166525
681.551	0.0167805
681.629	0.0167615
681.707	0.0167744
681.785	0.0168187
681.863	0.0170683
681.942	0.0172079
682.020	0.0174835
682.098	0.0174925
682.176	0.0177982
682.254	0.0181819
682.332	0.0183208
682.410	0.0185780
682.488	0.0189176
682.567	0.0190295
682.645	0.0192889
682.723	0.0193560
682.801	0.0195981
682.879	0.0197373
682.957	0.0197620
683.035	0.0197610
683.113	0.0196854
683.192	0.0196657
683.270	0.0194985
683.348	0.0191130
683.426	0.0188683
683.504	0.0184633
683.582	0.0182717
683.660	0.0179191
683.738	0.0174582
683.817	0.0172201
683.895	0.0168433
683.973	0.0166167
684.051	0.0165016
684.129	0.0160972
684.207	0.0160771
684.285	0.0160109
684.363	0.0161919
684.442	0.0159103
684.520	0.0161731
684.598	0.0162354
684.676	0.0165498
684.754	0.0167811
684.832	0.0170248
684.910	0.0172632
684.988	0.0175734
685.067	0.0179288
685.145	0.0184035
685.223	0.0185780
685.301	0.0187886
685.379	0.0190907
685.457	0.0192634
685.535	0.0193078
685.613	0.0195021
685.692	0.0194569
685.770	0.0193535
685.848	0.0195266
685.926	0.0195348
686.004	0.0195193
686.082	0.0194070
686.160	0.0193716
686.238	0.0193061
686.317	0.0191975
686.395	0.0189778
686.473	0.0189974
686.551	0.0188729
686.629	0.0187053
686.707	0.0184651
686.785	0.0182914
686.863	0.0181970
686.942	0.0179195
687.020	0.0178493
687.098	0.0176072
687.176	0.0175144
687.254	0.0174698
687.332	0.0171560
687.410	0.0170286
687.488	0.0169372
687.567	0.0168255
687.645	0.0166923
687.723	0.0167060
687.801	0.0166826
687.879	0.0166532
687.957	0.0165927
688.035	0.0167832
688.113	0.0167676
688.192	0.0169440
688.270	0.0168797
688.348	0.0170326
688.426	0.0170735
688.504	0.0170890
688.582	0.0171075
688.660	0.0171719
688.738	0.0173472
688.817	0.0173404
688.895	0.0175776
688.973	0.0175429
689.051	0.0176855
689.129	0.0179983
689.207	0.0183023
689.285	0.0185547
689.363	0.0186842
689.442	0.0189119
689.520	0.0192655
689.598	0.0195588
689.676	0.0198434
689.754	0.0199780
689.832	0.0202219
689.910	0.0203806
689.988	0.0203629
690.067	0.0204298
690.145	0.0203645
690.223	0.0202382
690.301	0.0200370
690.379	0.0200494
690.457	0.0198746
690.535	0.0196819
690.613	0.0194659
690.692	0.0191983
690.770	0.0188573
690.848	0.0185985
690.926	0.0182408
691.004	0.0179848
691.082	0.0174683
691.160	0.0172077
691.238	0.0168694
691.317	0.0166158
691.395	0.0162549
691.473	0.0158167
691.551	0.0153925
691.629	0.0152912
691.707	0.0149188
691.785	0.0146436
691.863	0.0144759
691.942	0.0143342
692.020	0.0143591
692.098	0.0144250
692.176	0.0145578
692.254	0.0147430
692.332	0.0152564
692.410	0.0156738
692.488	0.0161565
692.567	0.0168411
692.645	0.0173309
692.723	0.0180377
692.801	0.0188426
692.879	0.0194193
692.957	0.0198156
693.035	0.0204558
693.113	0.0210336
693.192	0.0212520
693.270	0.0214008
693.348	0.0214311
693.426	0.0215681
693.504	0.0215185
693.582	0.0214156
693.660	0.0213188
693.738	0.0211255
693.817	0.0208706
693.895	0.0207734
693.973	0.0204523
694.051	0.0202776
694.129	0.0197971
694.207	0.0194930
694.285	0.0192149
694.363	0.0190118
694.442	0.0187646
694.520	0.0184628
694.598	0.0181394
694.676	0.0179662
694.754	0.0177682
694.832	0.0175241
694.910	0.0173427
694.988	0.0171104
695.067	0.0169340
695.145	0.0167607
695.223	0.0164963
695.301	0.0163941
695.379	0.0163386
695.457	0.0160773
695.535	0.0160863
695.613	0.0159896
695.692	0.0157824
695.770	0.0156851
695.848	0.0155047
695.926	0.0155122
696.004	0.0153481
696.082	0.0153317
696.160	0.0152444
696.238	0.0151556
696.317	0.0151283
696.395	0.0150859
696.473	0.0152739
696.551	0.0153863
696.629	0.0156166
696.707	0.0159241
696.785	0.0160632
696.863	0.0166139
696.942	0.0170445
697.020	0.0174345
697.098	0.0180320
697.176	0.0183331
697.254	0.0190405
697.332	0.0194960
697.410	0.0198915
697.488	0.0205231
697.567	0.0208976
697.645	0.0211265
697.723	0.0215159
697.801	0.0216327
697.879	0.0218326
697.957	0.0219492
698.035	0.0219443
698.113	0.0218963
698.192	0.0219968
698.270	0.0217724
698.348	0.0215836
698.426	0.0213053
698.504	0.0210541
698.582	0.0208782
698.660	0.0204959
698.738	0.0201569
698.817	0.0198855
698.895	0.0194839
698.973	0.0188500
699.051	0.0184923
699.129	0.0181916
699.207	0.0175787
699.285	0.0172394
699.363	0.0167558
699.442	0.0162476
699.520	0.0159268
699.598	0.0155270
699.676	0.0152222
699.754	0.0150341
699.832	0.0147581
699.910	0.0146557
699.988	0.0145267
700.067	0.0144873
700.145	0.0145701
700.223	0.0145811
700.301	0.0147324
700.379	0.0149562
700.457	0.0151543
700.535	0.0155656
700.613	0.0157964
700.692	0.0161506
700.770	0.0162953
700.848	0.0166500
700.926	0.0168185
701.004	0.0172294
701.082	0.0176732
701.160	0.0178345
701.238	0.0181384
701.317	0.0184384
701.395	0.0186031
701.473	0.0188701
701.551	0.0190041
701.629	0.0191596
701.707	0.0193715
701.785	0.0195596
701.863	0.0197121
701.942	0.0197752
702.020	0.0197990
702.098	0.0200292
702.176	0.0200385
702.254	0.0199706
702.332	0.0200214
702.410	0.0200470
702.488	0.0200459
702.567	0.0199634
702.645	0.0198730
702.723	0.0197872
702.801	0.0197211
702.879	0.0195962
702.957	0.0193360
703.035	0.0192576
703.113	0.0191753
703.192	0.0189799
703.270	0.0188943
703.348	0.0187183
703.426	0.0185758
703.504	0.0183307
703.582	0.0182620
703.660	0.0179739
703.738	0.0179115
703.817	0.0176618
703.895	0.0174471
703.973	0.0172360
704.051	0.0170687
704.129	0.0170068
704.207	0.0167866
704.285	0.0164882
704.363	0.0163040
704.442	0.0162231
704.520	0.0161372
704.598	0.0161248
704.676	0.0159164
704.754	0.0158957
704.832	0.0158083
704.910	0.0158457
704.988	0.0161222
705.067	0.0162218
705.145	0.0164202
705.223	0.0167140
705.301	0.0170159
705.379	0.0173816
705.457	0.0175909
705.535	0.0180081
705.613	0.0184241
705.692	0.0187830
705.770	0.0190469
705.848	0.0194307
705.926	0.0195564
706.004	0.0199068
706.082	0.0199287
706.160	0.0200133
706.238	0.0200626
706.317	0.0198746
706.395	0.0197449
706.473	0.0195579
706.551	0.0195552
706.629	0.0194353
706.707	0.0192265
706.785	0.0190115
706.863	0.0186549
706.942	0.0183408
707.020	0.0178413
707.098	0.0176434
707.176	0.0173946
707.254	0.0171218
707.332	0.0168430
707.410	0.0166345
707.488	0.0165274
707.567	0.0166895
707.645	0.0162871
707.723	0.0165839
707.801	0.0165757
707.879	0.0166797
707.957	0.0170721
708.035	0.0172158
708.113	0.0176292
708.192	0.0179764
708.270	0.0182079
708.348	0.0185121
708.426	0.0188740
708.504	0.0189516
708.582	0.0191454
708.660	0.0191671
708.738	0.0192194
708.817	0.0191985
708.895	0.0191189
708.973	0.0191274
709.051	0.0189474
709.129	0.0188982
709.207	0.0188203
709.285	0.0185752
709.363	0.0183183
709.442	0.0180527
709.520	0.0177171
709.598	0.0176102
709.676	0.0174572
709.754	0.0171149
709.832	0.0168830
709.910	0.0165812
709.988	0.0166035
710.067	0.0165795
710.145	0.0164887
710.223	0.0163845
710.301	0.0164815
710.379	0.0166961
710.457	0.0169016
710.535	0.0170924
710.613	0.0173613
710.692	0.0177155
710.770	0.0180547
710.848	0.0183952
710.926	0.0186083
711.004	0.0190494
711.082	0.0192596
711.160	0.0194701
711.238	0.0197671
711.317	0.0196952
711.395	0.0198282
711.473	0.0197100
711.551	0.0197134
711.629	0.0197141
711.707	0.0193362
711.785	0.0191650
711.863	0.0188094
711.942	0.0186231
712.020	0.0183175
712.098	0.0181651
712.176	0.0179622
712.254	0.0175805
712.332	0.0174960
712.410	0.0173773
712.488	0.0172258
712.567	0.0171961
712.645	0.0170927
712.723	0.0171956
712.801	0.0171848
712.879	0.0174992
712.957	0.0177611
713.035	0.0176866
713.113	0.0179433
713.192	0.0182144
713.270	0.0183185
713.348	0.0185651
713.426	0.0185378
713.504	0.0185094
713.582	0.0184064
713.660	0.0183978
713.738	0.0183405
713.817	0.0182683
713.895	0.0181524
713.973	0.0178975
714.051	0.0178252
714.129	0.0178107
714.207	0.0178196
714.285	0.0177975
714.363	0.0177808
714.442	0.0176515
714.520	0.0176919
714.598	0.0176429
714.676	0.0175014
714.754	0.0174618
714.832	0.0172543
714.910	0.0171204
714.988	0.0169611
715.067	0.0169746
715.145	0.0166425
715.223	0.0167874
715.301	0.0166120
715.379	0.0167659
715.457	0.0166241
715.535	0.0168003
715.613	0.0169466
715.692	0.0171552
715.770	0.0173371
715.848	0.0175852
715.926	0.0177200
716.004	0.0177901
716.082	0.0180534
716.160	0.0183248
716.238	0.0185219
716.317	0.0188046
716.395	0.0190215
716.473	0.0192415
716.551	0.0193313
716.629	0.0196275
716.707	0.0197565
716.785	0.0197374
716.863	0.0197962
716.942	0.0198476
717.020	0.0198531
717.098	0.0196370
717.176	0.0194626
717.254	0.0194897
717.332	0.0194189
717.410	0.0191112
717.488	0.0192474
717.567	0.0192218
717.645	0.0190353
717.723	0.0189915
717.801	0.0190006
717.879	0.0188504
717.957	0.0189362
718.035	0.0189796
718.113	0.0188925
718.192	0.0189430
718.270	0.0186143
718.348	0.0184351
718.426	0.0182056
718.504	0.0181851
718.582	0.0178655
718.660	0.0177072
718.738	0.0174580
718.817	0.0172289
718.895	0.0171880
718.973	0.0169236
719.051	0.0168837
719.129	0.0169238
719.207	0.0168288
719.285	0.0168887
719.363	0.0168596
719.442	0.0168307
719.520	0.0169250
719.598	0.0169289
719.676	0.0170951
719.754	0.0172335
719.832	0.0173987
719.910	0.0173212
719.988	0.0173444
720.067	0.0173827
720.145	0.0173605
720.223	0.0174629
720.301	0.0175387
720.379	0.0170673
720.457	0.0171949
720.535	0.0168784
720.613	0.0168991
720.692	0.0166107
720.770	0.0165067
720.848	0.0163593
720.926	0.0162016
721.004	0.0160639
721.082	0.0161322
721.160	0.0162174
721.238	0.0162114
721.317	0.0163842
721.395	0.0165426
721.473	0.0167339
721.551	0.0170480
721.629	0.0174586
721.707	0.0176081
721.785	0.0179980
721.863	0.0182874
721.942	0.0187008
722.020	0.0190886
722.098	0.0193781
722.176	0.0194894
722.254	0.0198033
722.332	0.0197495
722.410	0.0198568
722.488	0.0198565
722.567	0.0198917
722.645	0.0197565
722.723	0.0197692
722.801	0.0195232
722.879	0.0196144
722.957	0.0195795
723.035	0.0195149
723.113	0.0196583
723.192	0.0196656
723.270	0.0198202
723.348	0.0198351
723.426	0.0199376
723.504	0.0200674
723.582	0.0200158
723.660	0.0203411
723.738	0.0201069
723.817	0.0199588
723.895	0.0199471
723.973	0.0197758
724.051	0.0197589
724.129	0.0193690
724.207	0.0192850
724.285	0.0189656
724.363	0.0188869
724.442	0.0183456
724.520	0.0181555
724.598	0.0181518
724.676	0.0179306
724.754	0.0177399
724.832	0.0177042
724.910	0.0176289
724.988	0.0173647
725.067	0.0174864
725.145	0.0175925
725.223	0.0174168
725.301	0.0172651
725.379	0.0172170
725.457	0.0169585
725.535	0.0167573
725.613	0.0164252
725.692	0.0162605
725.770	0.0158749
725.848	0.0156045
725.926	0.0152975
726.004	0.0150205
726.082	0.0148219
726.160	0.0147963
726.238	0.0147578
726.317	0.0147030
726.395	0.0150104
726.473	0.0151329
726.551	0.0152468
726.629	0.0156153
726.707	0.0159142
726.785	0.0162848
726.863	0.0167953
726.942	0.0171560
727.020	0.0174967
727.098	0.0179138
727.176	0.0182053
727.254	0.0182373
727.332	0.0184851
727.410	0.0187398
727.488	0.0187682
727.567	0.0185585
727.645	0.0185155
727.723	0.0185681
727.801	0.0184456
727.879	0.0183633
727.957	0.0182026
728.035	0.0181358
728.113	0.0180145
728.192	0.0178432
728.270	0.0178527
728.348	0.0178501
728.426	0.0176894
728.504	0.0179114
728.582	0.0179931
728.660	0.0179855
728.738	0.0182360
728.817	0.0185367
728.895	0.0187531
728.973	0.0190083
729.051	0.0194722
729.129	0.0198585
729.207	0.0200314
729.285	0.0203116
729.363	0.0206475
729.442	0.0207458
729.520	0.0209361
729.598	0.0207346
729.676	0.0208065
729.754	0.0207560
729.832	0.0205462
729.910	0.0203809
729.988	0.0201891
730.067	0.0198142
730.145	0.0195306
730.223	0.0196711
730.301	0.0194946
730.379	0.0191103
730.457	0.0190398
730.535	0.0189346
730.613	0.0189194
730.692	0.0188315
730.770	0.0188013
730.848	0.0187386
730.926	0.0186853
731.004	0.0186245
731.082	0.0185625
731.160	0.0185461
731.238	0.0184903
731.317	0.0184140
731.395	0.0183144
731.473	0.0181689
731.551	0.0181673
731.629	0.0179696
731.707	0.0178874
731.785	0.0176740
731.863	0.0176114
731.942	0.0172395
732.020	0.0169835
732.098	0.0167623
732.176	0.0165571
732.254	0.0163339
732.332	0.0159344
732.410	0.0156001
732.488	0.0154099
732.567	0.0151801
732.645	0.0149982
732.723	0.0145633
732.801	0.0142854
732.879	0.0142156
732.957	0.0140856
733.035	0.0138997
733.113	0.0140035
733.192	0.0140893
733.270	0.0142378
733.348	0.0144701
733.426	0.0148335
733.504	0.0152578
733.582	0.0157056
733.660	0.0162405
733.738	0.0168124
733.817	0.0172865
733.895	0.0180132
733.973	0.0182948
734.051	0.0186927
734.129	0.0192638
734.207	0.0195612
734.285	0.0195088
734.363	0.0199158
734.442	0.0199276
734.520	0.0198857
734.598	0.0198531
734.676	0.0195895
734.754	0.0195383
734.832	0.0192824
734.910	0.0190517
734.988	0.0188451
735.067	0.0186250
735.145	0.0187064
735.223	0.0184849
735.301	0.0184194
735.379	0.0183744
735.457	0.0184625
735.535	0.0183091
735.613	0.0184254
735.692	0.0184365
735.770	0.0186528
735.848	0.0188538
735.926	0.0190193
736.004	0.0193323
736.082	0.0196557
736.160	0.0199700
736.238	0.0201370
736.317	0.0203983
736.395	0.0204224
736.473	0.0205814
736.551	0.0207157
736.629	0.0207925
736.707	0.0206017
736.785	0.0205848
736.863	0.0205753
736.942	0.0203268
737.020	0.0200480
737.098	0.0199728
737.176	0.0195541
737.254	0.0193968
737.332	0.0190889
737.410	0.0189014
737.488	0.0187428
737.567	0.0184743
737.645	0.0181380
737.723	0.0180405
737.801	0.0179189
737.879	0.0176199
737.957	0.0174248
738.035	0.0174875
738.113	0.0173791
738.192	0.0174173
738.270	0.0173519
738.348	0.0174667
738.426	0.0176157
738.504	0.0175470
738.582	0.0176260
738.660	0.0177737
738.738	0.0177699
738.817	0.0178628
738.895	0.0176958
738.973	0.0176997
739.051	0.0176518
739.129	0.0172820
739.207	0.0171071
739.285	0.0167197
739.363	0.0163612
739.442	0.0159962
739.520	0.0155907
739.598	0.0150374
739.676	0.0146983
739.754	0.0142775
739.832	0.0138514
739.910	0.0134959
739.988	0.0134561
740.067	0.0134323
740.145	0.0135501
740.223	0.0138075
740.301	0.0139545
740.379	0.0144305
740.457	0.0148843
740.535	0.0153955
740.613	0.0159669
740.692	0.0167538
740.770	0.0174407
740.848	0.0179158
740.926	0.0185110
741.004	0.0190713
741.082	0.0195016
741.160	0.0199738
741.238	0.0201476
741.317	0.0202975
741.395	0.0205006
741.473	0.0205455
741.551	0.0204473
741.629	0.0202894
741.707	0.0200828
741.785	0.0198674
741.863	0.0197164
741.942	0.0194478
742.020	0.0192493
742.098	0.0191026
742.176	0.0190739
742.254	0.0187582
742.332	0.0186814
742.410	0.0185133
742.488	0.0183337
742.567	0.0184251
742.645	0.0183277
742.723	0.0184906
742.801	0.0186152
742.879	0.0185461
742.957	0.0189229
743.035	0.0190794
743.113	0.0192792
743.192	0.0196259
743.270	0.0197084
743.348	0.0200759
743.426	0.0203662
743.504	0.0204781
743.582	0.0206460
743.660	0.0205897
743.738	0.0205838
743.817	0.0207174
743.895	0.0206361
743.973	0.0203963
744.051	0.0204077
744.129	0.0201686
744.207	0.0200189
744.285	0.0197966
744.363	0.0195451
744.442	0.0193423
744.520	0.0190494
744.598	0.0187206
744.676	0.0184251
744.754	0.0183710
744.832	0.0181979
744.910	0.0178244
744.988	0.0177370
745.067	0.0177330
745.145	0.0176901
745.223	0.0176321
745.301	0.0175784
745.379	0.0176744
745.457	0.0175449
745.535	0.0176180
745.613	0.0179213
745.692	0.0178790
745.770	0.0177059
745.848	0.0177389
745.926	0.0175397
746.004	0.0172599
746.082	0.0171840
746.160	0.0168267
746.238	0.0165779
746.317	0.0162096
746.395	0.0157874
746.473	0.0154034
746.551	0.0149960
746.629	0.0143848
746.707	0.0140465
746.785	0.0137294
746.863	0.0134464
746.942	0.0132111
747.020	0.0131588
747.098	0.0131273
747.176	0.0132994
747.254	0.0135274
747.332	0.0139886
747.410	0.0142580
747.488	0.0148494
747.567	0.0155128
747.645	0.0162447
747.723	0.0168169
747.801	0.0175529
747.879	0.0182849
747.957	0.0188532
748.035	0.0194800
748.113	0.0198357
748.192	0.0201747
748.270	0.0203686
748.348	0.0205339
748.426	0.0205600
748.504	0.0205213
748.582	0.0203973
748.660	0.0201714
748.738	0.0200123
748.817	0.0197313
748.895	0.0195878
748.973	0.0194847
749.051	0.0193134
749.129	0.0188920
749.207	0.0188863
749.285	0.0188775
749.363	0.0189103
749.442	0.0187627
749.520	0.0188654
749.598	0.0189069
749.676	0.0190353
749.754	0.0189843
749.832	0.0191789
749.910	0.0193391
749.988	0.0194431
750.067	0.0195190
750.145	0.0195953
750.223	0.0197863
750.301	0.0199945
750.379	0.0199976
750.457	0.0198946
750.535	0.0199735
750.613	0.0198991
750.692	0.0199961
750.770	0.0198665
750.848	0.0198736
750.926	0.0197913
751.004	0.0198793
751.082	0.0197413
751.160	0.0195058
751.238	0.0196345
751.317	0.0194396
751.395	0.0193318
751.473	0.0192008
751.551	0.0189925
751.629	0.0187824
751.707	0.0186371
751.785	0.0184908
751.863	0.0185667
751.942	0.0182436
752.020	0.0181568
752.098	0.0180515
752.176	0.0179121
752.254	0.0181213
752.332	0.0180479
752.410	0.0179089
752.488	0.0178870
752.567	0.0177492
752.645	0.0176801
752.723	0.0177019
752.801	0.0174799
752.879	0.0172450
752.957	0.0170746
753.035	0.0168221
753.113	0.0165672
753.192	0.0162411
753.270	0.0158949
753.348	0.0154654
753.426	0.0152939
753.504	0.0149480
753.582	0.0146433
753.660	0.0143372
753.738	0.0141784
753.817	0.0140158
753.895	0.0139404
753.973	0.0138968
754.051	0.0140033
754.129	0.0142612
754.207	0.0143561
754.285	0.0145614
754.363	0.0149297
754.442	0.0153603
754.520	0.0155954
754.598	0.0160476
754.676	0.0165865
754.754	0.0172469
754.832	0.0174059
754.910	0.0180457
754.988	0.0183076
755.067	0.0187634
755.145	0.0190976
755.223	0.0191575
755.301	0.0192886
755.379	0.0195914
755.457	0.0196852
755.535	0.0197561
755.613	0.0197884
755.692	0.0198576
755.770	0.0197301
755.848	0.0197563
755.926	0.0196500
756.004	0.0196618
756.082	0.0195714
756.160	0.0194525
756.238	0.0192085
756.317	0.0191024
756.395	0.0189469
756.473	0.0188669
756.551	0.0188039
756.629	0.0187283
756.707	0.0186565
756.785	0.0186934
756.863	0.0186587
756.942	0.0187079
757.020	0.0187943
757.098	0.0189369
757.176	0.0190680
757.254	0.0190571
757.332	0.0191034
757.410	0.0191753
757.488	0.0193104
757.567	0.0194064
757.645	0.0195348
757.723	0.0196303
757.801	0.0196912
757.879	0.0196184
757.957	0.0197836
758.035	0.0197349
758.113	0.0196861
758.192	0.0197241
758.270	0.0197624
758.348	0.0197983
758.426	0.0196933
758.504	0.0197409
758.582	0.0195367
758.660	0.0194783
758.738	0.0193034
758.817	0.0191277
758.895	0.0190977
758.973	0.0190717
759.051	0.0188854
759.129	0.0187382
759.207	0.0185000
759.285	0.0184600
759.363	0.0183350
759.442	0.0183069
759.520	0.0179864
759.598	0.0178557
759.676	0.0175980
759.754	0.0175080
759.832	0.0173469
759.910	0.0168819
759.988	0.0166975
760.067	0.0164703
760.145	0.0163213
760.223	0.0158392
760.301	0.0157063
760.379	0.0154778
760.457	0.0154152
760.535	0.0152569
760.613	0.0151309
760.692	0.0149663
760.770	0.0149277
760.848	0.0148994
760.926	0.0148987
761.004	0.0149259
761.082	0.0149325
761.160	0.0151711
761.238	0.0150925
761.317	0.0151327
761.395	0.0154513
761.473	0.0156567
761.551	0.0158605
761.629	0.0160479
761.707	0.0162840
761.785	0.0166019
761.863	0.0169009
761.942	0.0171750
762.020	0.0173442
762.098	0.0176628
762.176	0.0179237
762.254	0.0179829
762.332	0.0180283
762.410	0.0182974
762.488	0.0184921
762.567	0.0187019
762.645	0.0187904
762.723	0.0188970
762.801	0.0190727
762.879	0.0192120
762.957	0.0194748
763.035	0.0195676
763.113	0.0196126
763.192	0.0197990
763.270	0.0198972
763.348	0.0197662
763.426	0.0197650
763.504	0.0197523
763.582	0.0198433
763.660	0.0197002
763.738	0.0196024
763.817	0.0194514
763.895	0.0194231
763.973	0.0194115
764.051	0.0194989
764.129	0.0192118
764.207	0.0191099
764.285	0.0191032
764.363	0.0190247
764.442	0.0188792
764.520	0.0187376
764.598	0.0187492
764.676	0.0186779
764.754	0.0187632
764.832	0.0188439
764.910	0.0188581
764.988	0.0189329
765.067	0.0190680
765.145	0.0190446
765.223	0.0191564
765.301	0.0194546
765.379	0.0194673
765.457	0.0195584
765.535	0.0194064
765.613	0.0195872
765.692	0.0196159
765.770	0.0196549
765.848	0.0196406
765.926	0.0194711
766.004	0.0195105
766.082	0.0194547
766.160	0.0193375
766.238	0.0190276
766.317	0.0189117
766.395	0.0189149
766.473	0.0187487
766.551	0.0184885
766.629	0.0182619
766.707	0.0180257
766.785	0.0177094
766.863	0.0176694
766.942	0.0172955
767.020	0.0171062
767.098	0.0168110
767.176	0.0165788
767.254	0.0165537
767.332	0.0162453
767.410	0.0162353
767.488	0.0160229
767.567	0.0157945
767.645	0.0156332
767.723	0.0155872
767.801	0.0154786
767.879	0.0156278
767.957	0.0154881
768.035	0.0155342
768.113	0.0154787
768.192	0.0155070
768.270	0.0156155
768.348	0.0157014
768.426	0.0156657
768.504	0.0158411
768.582	0.0158426
768.660	0.0159207
768.738	0.0161482
768.817	0.0161546
768.895	0.0164318
768.973	0.0165972
769.051	0.0168014
769.129	0.0169846
769.207	0.0172327
769.285	0.0172731
769.363	0.0175126
769.442	0.0175986
769.520	0.0178829
769.598	0.0178949
769.676	0.0181557
769.754	0.0183179
769.832	0.0183883
769.910	0.0185382
769.988	0.0185532
770.067	0.0187653
770.145	0.0188128
770.223	0.0186964
770.301	0.0188615
770.379	0.0189369
770.457	0.0190255
770.535	0.0190432
770.613	0.0190613
770.692	0.0192174
770.770	0.0192550
770.848	0.0193864
770.926	0.0193884
771.004	0.0194621
771.082	0.0195168
771.160	0.0196044
771.238	0.0196647
771.317	0.0196099
771.395	0.0195927
771.473	0.0196008
771.551	0.0197768
771.629	0.0195127
771.707	0.0193742
771.785	0.0195036
771.863	0.0194173
771.942	0.0193954
772.020	0.0192204
772.098	0.0192307
772.176	0.0192500
772.254	0.0192319
772.332	0.0191699
772.410	0.0190057
772.488	0.0190368
772.567	0.0190600
772.645	0.0190073
772.723	0.0190260
772.801	0.0190669
772.879	0.0190292
772.957	0.0190643
773.035	0.0190857
773.113	0.0190275
773.192	0.0190577
773.270	0.0191396
773.348	0.0189204
773.426	0.0188865
773.504	0.0187927
773.582	0.0187611
773.660	0.0185633
773.738	0.0183417
773.817	0.0183209
773.895	0.0178823
773.973	0.0177292
774.051	0.0173514
774.129	0.0172079
774.207	0.0169164
774.285	0.0167176
774.363	0.0165962
774.442	0.0163902
774.520	0.0162592
774.598	0.0162907
774.676	0.0162843
774.754	0.0162588
774.832	0.0160595
774.910	0.0161578
774.988	0.0162138
775.067	0.0160992
775.145	0.0160488
775.223	0.0161120
775.301	0.0160935
775.379	0.0160558
775.457	0.0161032
775.535	0.0159414
775.613	0.0159548
775.692	0.0158661
775.770	0.0160087
775.848	0.0160188
775.926	0.0161110
776.004	0.0162183
776.082	0.0163622
776.160	0.0164548
776.238	0.0166418
776.317	0.0168784
776.395	0.0170733
776.473	0.0174365
776.551	0.0175804
776.629	0.0176756
776.707	0.0178445
776.785	0.0180569
776.863	0.0182478
776.942	0.0181847
777.020	0.0184216
777.098	0.0183553
777.176	0.0184762
777.254	0.0185365
777.332	0.0187697
777.410	0.0184807
777.488	0.0183398
777.567	0.0184277
777.645	0.0183664
777.723	0.0184548
777.801	0.0183710
777.879	0.0184811
777.957	0.0185967
778.035	0.0187640
778.113	0.0187599
778.192	0.0188174
778.270	0.0188792
778.348	0.0190373
778.426	0.0192596
778.504	0.0194241
778.582	0.0193235
778.660	0.0194991
778.738	0.0195878
778.817	0.0196754
778.895	0.0197538
778.973	0.0196589
779.051	0.0198238
779.129	0.0197994
779.207	0.0197841
779.285	0.0196491
779.363	0.0196004
779.442	0.0194365
779.520	0.0194566
779.598	0.0194754
779.676	0.0192846
779.754	0.0190329
779.832	0.0189216
779.910	0.0189706
779.988	0.0188823
780.067	0.0188830
780.145	0.0187112
780.223	0.0186359
780.301	0.0186560
780.379	0.0185255
780.457	0.0183743
780.535	0.0182863
780.613	0.0183674
780.692	0.0181463
780.770	0.0181953
780.848	0.0181340
780.926	0.0181612
781.004	0.0179205
781.082	0.0179578
781.160	0.0177628
781.238	0.0177085
781.317	0.0176257
781.395	0.0175694
781.473	0.0174052
781.551	0.0174138
781.629	0.0172254
781.707	0.0173112
781.785	0.0171743
781.863	0.0170473
781.942	0.0169981
782.020	0.0168549
782.098	0.0169463
782.176	0.0167148
782.254	0.0165893
782.332	0.0164666
782.410	0.0164169
782.488	0.0164613
782.567	0.0164445
782.645	0.0163898
782.723	0.0163303
782.801	0.0163953
782.879	0.0164743
782.957	0.0164346
783.035	0.0167615
783.113	0.0169100
783.192	0.0167856
783.270	0.0168514
783.348	0.0172053
783.426	0.0172189
783.504	0.0171834
783.582	0.0173648
783.660	0.0175822
783.738	0.0173867
783.817	0.0172446
783.895	0.0173856
783.973	0.0173358
784.051	0.0173810
784.129	0.0173099
784.207	0.0172476
784.285	0.0173038
784.363	0.0172892
784.442	0.0173760
784.520	0.0174670
784.598	0.0175542
784.676	0.0176811
784.754	0.0176486
784.832	0.0177389
784.910	0.0180756
784.988	0.0181445
785.067	0.0182539
785.145	0.0184191
785.223	0.0186415
785.301	0.0186934
785.379	0.0190323
785.457	0.0190012
785.535	0.0190352
785.613	0.0190628
785.692	0.0193908
785.770	0.0194067
785.848	0.0193871
785.926	0.0196346
786.004	0.0196622
786.082	0.0198096
786.160	0.0197344
786.238	0.0196873
786.317	0.0198204
786.395	0.0197043
786.473	0.0197491
786.551	0.0197867
786.629	0.0196726
786.707	0.0196008
786.785	0.0194490
786.863	0.0192158
786.942	0.0191190
787.020	0.0191235
787.098	0.0191107
787.176	0.0188776
787.254	0.0188395
787.332	0.0187229
787.410	0.0186605
787.488	0.0187179
787.567	0.0185747
787.645	0.0185023
787.723	0.0183909
787.801	0.0184035
787.879	0.0183402
787.957	0.0183503
788.035	0.0182094
788.113	0.0182993
788.192	0.0183479
788.270	0.0181022
788.348	0.0180425
788.426	0.0180051
788.504	0.0179246
788.582	0.0178368
788.660	0.0176936
788.738	0.0176342
788.817	0.0174533
788.895	0.0173973
788.973	0.0171922
789.051	0.0172295
789.129	0.0170634
789.207	0.0169715
789.285	0.0167319
789.363	0.0168320
789.442	0.0165904
789.520	0.0166532
789.598	0.0166086
789.676	0.0166750
789.754	0.0167993
789.832	0.0168209
789.910	0.0169486
789.988	0.0170141
790.067	0.0171095
790.145	0.0171755
790.223	0.0172225
790.301	0.0174157
790.379	0.0175472
790.457	0.0176124
790.535	0.0174866
790.613	0.0176392
790.692	0.0176323
790.770	0.0177348
790.848	0.0176084
790.926	0.0175285
791.004	0.0173127
791.082	0.0173869
791.160	0.0174133
791.238	0.0173068
791.317	0.0172549
791.395	0.0170860
791.473	0.0171405
791.551	0.0170996
791.629	0.0169507
791.707	0.0171246
791.785	0.0169700
791.863	0.0170554
791.942	0.0172715
792.020	0.0173990
792.098	0.0175810
792.176	0.0175027
792.254	0.0174305
792.332	0.0177225
792.410	0.0178625
792.488	0.0179297
792.567	0.0180257
792.645	0.0182600
792.723	0.0183937
792.801	0.0184750
792.879	0.0186470
792.957	0.0187907
793.035	0.0189577
793.113	0.0191312
793.192	0.0191046
793.270	0.0193313
793.348	0.0194466
793.426	0.0193228
793.504	0.0193797
793.582	0.0195084
793.660	0.0194677
793.738	0.0193938
793.817	0.0194061
793.895	0.0193226
793.973	0.0192580
794.051	0.0193677
794.129	0.0193198
794.207	0.0192492
794.285	0.0191425
794.363	0.0192075
794.442	0.0192877
794.520	0.0191851
794.598	0.0193151
794.676	0.0193392
794.754	0.0192371
794.832	0.0193080
794.910	0.0191711
794.988	0.0194019
795.067	0.0191889
795.145	0.0193331
795.223	0.0192230
795.301	0.0188127
795.379	0.0188939
795.457	0.0187878
795.535	0.0186397
795.613	0.0185001
795.692	0.0182340
795.770	0.0180814
795.848	0.0177988
795.926	0.0175512
796.004	0.0174507
796.082	0.0171581
796.160	0.0170510
796.238	0.0167638
796.317	0.0167419
796.395	0.0167126
796.473	0.0166966
796.551	0.0164722
796.629	0.0165443
796.707	0.0165545
796.785	0.0166573
796.863	0.0166869
796.942	0.0167527
797.020	0.0168960
797.098	0.0169758
797.176	0.0169797
797.254	0.0172793
797.332	0.0172449
797.410	0.0171722
797.488	0.0172729
797.567	0.0173378
797.645	0.0171880
797.723	0.0173526
797.801	0.0172082
797.879	0.0170746
797.957	0.0169939
798.035	0.0170765
798.113	0.0170343
798.192	0.0168902
798.270	0.0169189
798.348	0.0170231
798.426	0.0170684
798.504	0.0170718
798.582	0.0171346
798.660	0.0172670
798.738	0.0173477
798.817	0.0172707
798.895	0.0175276
798.973	0.0176050
799.051	0.0177987
799.129	0.0178752
799.207	0.0180167
799.285	0.0180671
799.363	0.0181207
799.442	0.0181889
799.520	0.0183841
799.598	0.0184095
799.676	0.0183349
799.754	0.0185538
799.832	0.0185471
799.910	0.0185764
799.988	0.0187020
800.067	0.0187248
800.145	0.0187764
800.223	0.0187743
800.301	0.0187123
800.379	0.0186452
800.457	0.0186266
800.535	0.0187740
800.613	0.0186779
800.692	0.0185802
800.770	0.0186623
800.848	0.0186411
800.926	0.0185835
801.004	0.0185138
801.082	0.0184539
801.160	0.0185531
801.238	0.0185875
801.317	0.0185304
801.395	0.0186299
801.473	0.0187176
801.551	0.0186765
801.629	0.0186451
801.707	0.0187180
801.785	0.0187608
801.863	0.0188348
801.942	0.0188492
802.020	0.0189974
802.098	0.0191791
802.176	0.0190661
802.254	0.0191042
802.332	0.0190544
802.410	0.0190321
802.488	0.0188602
802.567	0.0189367
802.645	0.0189294
802.723	0.0187254
802.801	0.0186769
802.879	0.0185211
802.957	0.0184418
803.035	0.0183374
803.113	0.0181878
803.192	0.0179489
803.270	0.0178299
803.348	0.0177381
803.426	0.0176884
803.504	0.0175723
803.582	0.0176346
803.660	0.0174538
803.738	0.0173708
803.817	0.0175075
803.895	0.0174695
803.973	0.0173908
804.051	0.0174160
804.129	0.0175681
804.207	0.0176408
804.285	0.0175772
804.363	0.0176579
804.442	0.0177933
804.520	0.0177245
804.598	0.0173941
804.676	0.0175139
804.754	0.0173826
804.832	0.0174502
804.910	0.0174022
804.988	0.0172350
805.067	0.0172115
805.145	0.0171070
805.223	0.0170036
805.301	0.0170762
805.379	0.0170807
805.457	0.0170583
805.535	0.0171218
805.613	0.0170466
805.692	0.0172069
805.770	0.0172889
805.848	0.0172907
805.926	0.0174381
806.004	0.0172824
806.082	0.0174029
806.160	0.0174482
806.238	0.0175259
806.317	0.0174351
806.395	0.0175616
806.473	0.0176469
806.551	0.0177926
806.629	0.0176777
806.707	0.0177213
806.785	0.0178124
806.863	0.0177573
806.942	0.0179496
807.020	0.0179317
807.098	0.0179210
807.176	0.0180326
807.254	0.0183114
807.332	0.0182072
807.410	0.0181059
807.488	0.0183370
807.567	0.0183041
807.645	0.0183871
807.723	0.0182201
807.801	0.0184528
807.879	0.0184101
807.957	0.0185016
808.035	0.0187267
808.113	0.0185023
808.192	0.0185225
808.270	0.0186040
808.348	0.0186901
808.426	0.0187545
808.504	0.0188753
808.582	0.0187999
808.660	0.0188493
808.738	0.0188371
808.817	0.0187386
808.895	0.0189690
808.973	0.0188657
809.051	0.0188414
809.129	0.0187483
809.207	0.0186561
809.285	0.0186393
809.363	0.0185692
809.442	0.0184921
809.520	0.0185217
809.598	0.0185049
809.676	0.0183205
809.754	0.0182893
809.832	0.0183053
809.910	0.0183923
809.988	0.0182919
810.067	0.0182497
810.145	0.0182124
810.223	0.0182959
810.301	0.0183346
810.379	0.0183363
810.457	0.0183076
810.535	0.0182130
810.613	0.0183345
810.692	0.0184637
810.770	0.0181887
810.848	0.0182174
810.926	0.0181952
811.004	0.0181077
811.082	0.0180470
811.160	0.0180206
811.238	0.0178487
811.317	0.0178014
811.395	0.0177007
811.473	0.0176431
811.551	0.0175537
811.629	0.0174623
811.707	0.0172673
811.785	0.0172717
811.863	0.0173212
811.942	0.0170593
812.020	0.0171404
812.098	0.0170792
812.176	0.0171974
812.254	0.0170956
812.332	0.0171769
812.410	0.0173963
812.488	0.0175708
812.567	0.0174597
812.645	0.0174823
812.723	0.0175713
812.801	0.0175319
812.879	0.0176746
812.957	0.0178363
813.035	0.0179222
813.113	0.0178967
813.192	0.0179757
813.270	0.0178873
813.348	0.0177812
813.426	0.0179538
813.504	0.0178629
813.582	0.0178740
813.660	0.0179064
813.738	0.0177740
813.817	0.0177014
813.895	0.0176038
813.973	0.0175350
814.051	0.0176672
814.129	0.0176943
814.207	0.0175446
814.285	0.0175904
814.363	0.0176997
814.442	0.0178056
814.520	0.0177817
814.598	0.0177377
814.676	0.0177487
814.754	0.0177559
814.832	0.0178645
814.910	0.0179455
814.988	0.0179813
815.067	0.0181863
815.145	0.0182380
815.223	0.0180477
815.301	0.0182423
815.379	0.0181052
815.457	0.0181620
815.535	0.0181499
815.613	0.0182063
815.692	0.0182139
815.770	0.0184007
815.848	0.0183791
815.926	0.0184341
816.004	0.0182798
816.082	0.0183362
816.160	0.0184298
816.238	0.0184638
816.317	0.0184885
816.395	0.0183353
816.473	0.0183343
816.551	0.0184780
816.629	0.0185475
816.707	0.0183772
816.785	0.0182353
816.863	0.0182301
816.942	0.0182778
817.020	0.0180976
817.098	0.0181048
817.176	0.0181636
817.254	0.0181558
817.332	0.0180308
817.410	0.0180679
817.488	0.0181882
817.567	0.0182607
817.645	0.0182002
817.723	0.0182376
817.801	0.0181506
817.879	0.0181617
817.957	0.0182014
818.035	0.0182381
818.113	0.0183697
818.192	0.0183237
818.270	0.0182713
818.348	0.0182420
818.426	0.0184431
818.504	0.0184695
818.582	0.0184628
818.660	0.0182888
818.738	0.0183585
818.817	0.0181126
818.895	0.0182343
818.973	0.0181889
819.051	0.0182346
819.129	0.0180865
819.207	0.0179593
819.285	0.0179749
819.363	0.0180236
819.442	0.0180220
819.520	0.0178525
819.598	0.0179515
819.676	0.0178695
819.754	0.0179182
819.832	0.0179227
819.910	0.0178187
819.988	0.0178239
820.067	0.0177853
820.145	0.0177016
820.223	0.0177522
820.301	0.0177802
820.379	0.0177415
820.457	0.0176966
820.535	0.0177071
820.613	0.0177517
820.692	0.0177401
820.770	0.0176627
820.848	0.0178027
820.926	0.0176052
821.004	0.0177107
821.082	0.0175613
821.160	0.0176498
821.238	0.0176680
821.317	0.0177136
821.395	0.0175330
821.473	0.0177509
821.551	0.0175565
821.629	0.0174792
821.707	0.0176200
821.785	0.0174903
821.863	0.0174969
821.942	0.0172879
822.020	0.0174594
822.098	0.0173417
822.176	0.0174111
822.254	0.0172355
822.332	0.0172790
822.410	0.0173209
822.488	0.0172317
822.567	0.0173853
822.645	0.0173772
822.723	0.0175459
822.801	0.0175946
822.879	0.0176306
822.957	0.0176398
823.035	0.0178362
823.113	0.0178368
823.192	0.0178513
823.270	0.0181289
823.348	0.0181236
823.426	0.0182195
823.504	0.0183072
823.582	0.0183327
823.660	0.0185258
823.738	0.0184206
823.817	0.0184271
823.895	0.0185614
823.973	0.0185765
824.051	0.0186825
824.129	0.0186209
824.207	0.0186317
824.285	0.0186279
824.363	0.0185873
824.442	0.0186093
824.520	0.0185035
824.598	0.0185000
824.676	0.0186252
824.754	0.0186500
824.832	0.0185712
824.910	0.0186112
824.988	0.0185078
825.067	0.0186112
825.145	0.0186207
825.223	0.0185561
825.301	0.0185992
825.379	0.0185567
825.457	0.0185435
825.535	0.0185841
825.613	0.0185079
825.692	0.0184180
825.770	0.0185226
825.848	0.0184450
825.926	0.0185622
826.004	0.0184560
826.082	0.0184924
826.160	0.0184280
826.238	0.0183348
826.317	0.0184523
826.395	0.0184161
826.473	0.0184573
826.551	0.0183860
826.629	0.0182345
826.707	0.0182616
826.785	0.0183237
826.863	0.0180968
826.942	0.0181721
827.020	0.0180593
827.098	0.0178923
827.176	0.0177666
827.254	0.0179193
827.332	0.0178151
827.410	0.0176237
827.488	0.0175890
827.567	0.0175955
827.645	0.0176590
827.723	0.0175217
827.801	0.0175368
827.879	0.0174411
827.957	0.0175528
828.035	0.0174870
828.113	0.0175607
828.192	0.0176980
828.270	0.0175124
828.348	0.0176151
828.426	0.0175586
828.504	0.0175541
828.582	0.0174293
828.660	0.0174636
828.738	0.0174499
828.817	0.0174370
828.895	0.0173412
828.973	0.0172585
829.051	0.0173911
829.129	0.0171602
829.207	0.0171555
829.285	0.0170778
829.363	0.0170866
829.442	0.0171995
829.520	0.0172527
829.598	0.0170975
829.676	0.0173395
829.754	0.0172314
829.832	0.0172189
829.910	0.0174992
829.988	0.0176496
830.067	0.0176688
830.145	0.0177149
830.223	0.0177489
830.301	0.0179149
830.379	0.0180534
830.457	0.0179671
830.535	0.0180513
830.613	0.0182523
830.692	0.0182645
830.770	0.0181972
830.848	0.0182732
830.926	0.0181928
831.004	0.0183037
831.082	0.0184270
831.160	0.0184242
831.238	0.0184339
831.317	0.0182051
831.395	0.0182909
831.473	0.0183727
831.551	0.0183945
831.629	0.0185507
831.707	0.0183775
831.785	0.0184814
831.863	0.0183848
831.942	0.0185425
832.020	0.0185506
832.098	0.0186756
832.176	0.0187644
832.254	0.0186239
832.332	0.0187960
832.410	0.0186834
832.488	0.0185474
832.567	0.0186567
832.645	0.0185215
832.723	0.0185661
832.801	0.0185251
832.879	0.0183840
832.957	0.0183704
833.035	0.0183048
833.113	0.0181708
833.192	0.0181000
833.270	0.0181739
833.348	0.0180331
833.426	0.0180413
833.504	0.0181072
833.582	0.0180617
833.660	0.0179019
833.738	0.0179021
833.817	0.0181250
833.895	0.0182195
833.973	0.0180538
834.051	0.0179655
834.129	0.0180812
834.207	0.0181523
834.285	0.0182148
834.363	0.0182868
834.442	0.0182516
834.520	0.0180957
834.598	0.0181783
834.676	0.0181853
834.754	0.0182085
834.832	0.0181525
834.910	0.0180732
834.988	0.0178395
835.067	0.0179066
835.145	0.0179452
835.223	0.0179620
835.301	0.0177011
835.379	0.0174451
835.457	0.0173839
835.535	0.0173821
835.613	0.0173327
835.692	0.0173666
835.770	0.0172046
835.848	0.0172166
835.926	0.0171417
836.004	0.0172507
836.082	0.0170917
836.160	0.0170458
836.238	0.0172359
836.317	0.0172718
836.395	0.0172736
836.473	0.0174229
836.551	0.0174271
836.629	0.0174689
836.707	0.0175680
836.785	0.0177789
836.863	0.0177408
836.942	0.0178516
837.020	0.0178115
837.098	0.0178943
837.176	0.0179340
837.254	0.0179283
837.332	0.0179723
837.410	0.0178992
837.488	0.0178609
837.567	0.0179339
837.645	0.0179423
837.723	0.0178554
837.801	0.0176683
837.879	0.0177200
837.957	0.0177258
838.035	0.0175388
838.113	0.0176047
838.192	0.0177619
838.270	0.0176807
838.348	0.0176937
838.426	0.0176956
838.504	0.0175971
838.582	0.0176967
838.660	0.0179903
838.738	0.0179305
838.817	0.0179014
838.895	0.0180638
838.973	0.0181252
839.051	0.0181725
839.129	0.0183296
839.207	0.0184367
839.285	0.0185345
839.363	0.0185715
839.442	0.0186787
839.520	0.0187357
839.598	0.0187823
839.676	0.0187829
839.754	0.0186949
839.832	0.0188310
839.910	0.0188339
839.988	0.0187034
840.067	0.0187930
840.145	0.0186567
840.223	0.0185921
840.301	0.0185907
840.379	0.0185158
840.457	0.0184923
840.535	0.0184964
840.613	0.0184391
840.692	0.0183833
840.770	0.0182596
840.848	0.0182546
840.926	0.0182880
841.004	0.0182870
841.082	0.0181815
841.160	0.0182265
841.238	0.0182043
841.317	0.0181728
841.395	0.0179899
841.473	0.0182153
841.551	0.0181921
841.629	0.0179807
841.707	0.0179869
841.785	0.0179807
841.863	0.0181396
841.942	0.0180412
842.020	0.0179122
842.098	0.0178181
842.176	0.0179936
842.254	0.0179303
842.332	0.0178616
842.410	0.0176601
842.488	0.0176658
842.567	0.0175661
842.645	0.0175872
842.723	0.0176054
842.801	0.0175166
842.879	0.0174348
842.957	0.0172175
843.035	0.0171650
843.113	0.0172646
843.192	0.0171760
843.270	0.0172251
843.348	0.0172652
843.426	0.0174665
843.504	0.0173108
843.582	0.0175325
843.660	0.0174700
843.738	0.0177135
843.817	0.0178197
843.895	0.0177843
843.973	0.0179488
844.051	0.0178602
844.129	0.0181367
844.207	0.0180399
844.285	0.0180741
844.363	0.0179836
844.442	0.0181850
844.520	0.0180585
844.598	0.0180914
844.676	0.0180733
844.754	0.0181609
844.832	0.0180408
844.910	0.0180476
844.988	0.0178160
845.067	0.0178168
845.145	0.0179212
845.223	0.0178164
845.301	0.0179697
845.379	0.0177860
845.457	0.0179076
845.535	0.0179567
845.613	0.0178996
845.692	0.0178403
845.770	0.0179490
845.848	0.0180745
845.926	0.0181158
846.004	0.0181488
846.082	0.0182672
846.160	0.0181273
846.238	0.0183755
846.317	0.0182527
846.395	0.0184212
846.473	0.0183444
846.551	0.0183170
846.629	0.0182590
846.707	0.0182356
846.785	0.0183569
846.863	0.0183334
846.942	0.0182413
847.020	0.0182145
847.098	0.0181385
847.176	0.0181658
847.254	0.0180206
847.332	0.0181480
847.410	0.0180400
847.488	0.0180726
847.567	0.0180400
847.645	0.0181563
847.723	0.0182326
847.801	0.0183014
847.879	0.0183678
847.957	0.0183350
848.035	0.0182804
848.113	0.0182152
848.192	0.0184547
848.270	0.0184436
848.348	0.0184419
848.426	0.0185332
848.504	0.0183000
848.582	0.0183842
848.660	0.0182825
848.738	0.0182909
848.817	0.0182859
848.895	0.0181641
848.973	0.0179823
849.051	0.0179332
849.129	0.0180146
849.207	0.0178923
849.285	0.0179572
849.363	0.0178696
849.442	0.0176264
849.520	0.0175723
849.598	0.0178025
849.676	0.0177348
849.754	0.0177204
849.832	0.0176250
849.910	0.0176145
849.988	0.0177781
850.067	0.0177264
850.145	0.0176717
850.223	0.0177097
850.301	0.0177775
850.379	0.0177457
850.457	0.0178249
850.535	0.0179359
850.613	0.0179094
850.692	0.0178146
850.770	0.0179269
850.848	0.0180350
850.926	0.0179923
851.004	0.0178778
851.082	0.0178355
851.160	0.0179297
851.238	0.0180735
851.317	0.0179811
851.395	0.0179302
851.473	0.0179667
851.551	0.0179160
851.629	0.0179014
851.707	0.0177758
851.785	0.0178762
851.863	0.0179524
851.942	0.0179762
852.020	0.0179572
852.098	0.0180201
852.176	0.0180147
852.254	0.0181232
852.332	0.0178733
852.410	0.0180235
852.488	0.0180622
852.567	0.0181180
852.645	0.0180606
852.723	0.0181832
852.801	0.0180378
852.879	0.0180611
852.957	0.0181323
853.035	0.0182480
853.113	0.0181496
853.192	0.0181149
853.270	0.0181838
853.348	0.0183471
853.426	0.0181388
853.504	0.0182626
853.582	0.0181440
853.660	0.0181427
853.738	0.0179288
853.817	0.0179153
853.895	0.0180228
853.973	0.0180450
854.051	0.0180298
854.129	0.0179181
854.207	0.0179388
854.285	0.0179971
854.363	0.0179614
854.442	0.0179601
854.520	0.0179557
854.598	0.0179668
854.676	0.0181114
854.754	0.0180766
854.832	0.0181204
854.910	0.0181649
854.988	0.0183051
855.067	0.0181821
855.145	0.0181226
855.223	0.0182685
855.301	0.0182639
855.379	0.0182241
855.457	0.0182473
855.535	0.0183193
855.613	0.0182786
855.692	0.0181213
855.770	0.0181390
855.848	0.0180795
855.926	0.0180023
856.004	0.0179660
856.082	0.0180166
856.160	0.0179184
856.238	0.0178648
856.317	0.0177247
856.395	0.0178884
856.473	0.0177957
856.551	0.0177602
856.629	0.0178414
856.707	0.0178635
856.785	0.0178596
856.863	0.0177711
856.942	0.0177548
857.020	0.0176504
857.098	0.0179083
857.176	0.0178108
857.254	0.0178728
857.332	0.0178647
857.410	0.0179124
857.488	0.0180489
857.567	0.0180469
857.645	0.0179543
857.723	0.0181097
857.801	0.0180482
857.879	0.0180595
857.957	0.0180753
858.035	0.0179702
858.113	0.0179458
858.192	0.0180368
858.270	0.0180950
858.348	0.0179096
858.426	0.0178311
858.504	0.0179610
858.582	0.0178674
858.660	0.0178143
858.738	0.0179756
858.817	0.0178855
858.895	0.0178487
858.973	0.0179607
859.051	0.0179595
859.129	0.0177296
859.207	0.0179993
859.285	0.0179997
859.363	0.0179133
859.442	0.0179055
859.520	0.0181534
859.598	0.0181757
859.676	0.0180733
859.754	0.0182491
859.832	0.0183479
859.910	0.0182029
859.988	0.0181921
860.067	0.0182397
860.145	0.0181474
860.223	0.0181577
860.301	0.0181830
860.379	0.0181495
860.457	0.0180737
860.535	0.0180504
860.613	0.0180348
860.692	0.0179391
860.770	0.0178887
860.848	0.0178869
860.926	0.0179768
861.004	0.0178377
861.082	0.0179115
861.160	0.0178791
861.238	0.0178351
861.317	0.0178321
861.395	0.0178909
861.473	0.0177751
861.551	0.0178403
861.629	0.0179582
861.707	0.0177221
861.785	0.0179591
861.863	0.0179417
861.942	0.0177688
862.020	0.0178329
862.098	0.0178864
862.176	0.0178217
862.254	0.0179247
862.332	0.0177995
862.410	0.0178971
862.488	0.0179500
862.567	0.0178915
862.645	0.0177536
862.723	0.0178642
862.801	0.0178952
862.879	0.0178284
862.957	0.0178384
863.035	0.0180585
863.113	0.0179522
863.192	0.0177735
863.270	0.0179041
863.348	0.0180125
863.426	0.0179761
863.504	0.0178819
863.582	0.0178640
863.660	0.0178838
863.738	0.0179645
863.817	0.0179376
863.895	0.0179119
863.973	0.0179954
864.051	0.0180531
864.129	0.0179366
864.207	0.0179392
864.285	0.0179500
864.363	0.0180080
864.442	0.0181622
864.520	0.0181541
864.598	0.0181219
864.676	0.0180569
864.754	0.0180443
864.832	0.0180466
864.910	0.0179426
864.988	0.0179331
865.067	0.0179472
865.145	0.0180283
865.223	0.0179282
865.301	0.0178011
865.379	0.0180157
865.457	0.0179310
865.535	0.0179665
865.613	0.0180067
865.692	0.0181573
865.770	0.0181699
865.848	0.0180009
865.926	0.0181520
866.004	0.0181213
866.082	0.0182655
866.160	0.0182925
866.238	0.0181705
866.317	0.0182777
866.395	0.0184068
866.473	0.0183848
866.551	0.0182246
866.629	0.0182277
866.707	0.0184228
866.785	0.0183923
866.863	0.0184171
866.942	0.0183456
867.020	0.0183674
867.098	0.0183007
867.176	0.0182283
867.254	0.0181693
867.332	0.0182158
867.410	0.0180636
867.488	0.0180015
867.567	0.0180899
867.645	0.0180067
867.723	0.0179688
867.801	0.0178903
867.879	0.0178862
867.957	0.0180030
868.035	0.0178970
868.113	0.0178663
868.192	0.0178204
868.270	0.0177312
868.348	0.0178285
868.426	0.0178877
868.504	0.0179223
868.582	0.0178996
868.660	0.0179122
868.738	0.0178944
868.817	0.0180882
868.895	0.0180218
868.973	0.0180855
869.051	0.0179947
869.129	0.0180334
869.207	0.0179102
869.285	0.0180197
869.363	0.0178956
869.442	0.0179328
869.520	0.0178762
869.598	0.0179749
869.676	0.0178216
869.754	0.0179640
869.832	0.0179156
869.910	0.0178148
869.988	0.0177958
870.067	0.0177995
870.145	0.0178736
870.223	0.0177625
870.301	0.0178204
870.379	0.0177318
870.457	0.0176713
870.535	0.0177483
870.613	0.0178008
870.692	0.0179076
870.770	0.0179273
870.848	0.0178342
870.926	0.0178207
871.004	0.0178890
871.082	0.0179838
871.160	0.0181486
871.238	0.0179181
871.317	0.0180929
871.395	0.0181659
871.473	0.0182374
871.551	0.0182912
871.629	0.0181657
871.707	0.0182320
871.785	0.0181307
871.863	0.0182822
871.942	0.0183207
872.020	0.0181936
872.098	0.0181844
872.176	0.0182480
872.254	0.0182082
872.332	0.0180041
872.410	0.0180161
872.488	0.0181800
872.567	0.0180084
872.645	0.0179919
872.723	0.0179300
872.801	0.0179831
872.879	0.0179777
872.957	0.0178442
873.035	0.0179691
873.113	0.0179443
873.192	0.0180505
873.270	0.0180640
873.348	0.0180356
873.426	0.0181900
873.504	0.0182212
873.582	0.0183670
873.660	0.0182600
873.738	0.0182787
873.817	0.0184457
873.895	0.0184003
873.973	0.0184892
874.051	0.0185773
874.129	0.0184564
874.207	0.0186159
874.285	0.0186966
874.363	0.0184029
874.442	0.0183924
874.520	0.0184465
874.598	0.0185551
874.676	0.0184073
874.754	0.0183395
874.832	0.0181628
874.910	0.0182240
874.988	0.0180940
875.067	0.0179986
875.145	0.0179536
875.223	0.0178609
875.301	0.0178038
875.379	0.0178027
875.457	0.0176473
875.535	0.0174898
875.613	0.0176504
875.692	0.0174234
875.770	0.0174922
875.848	0.0176441
875.926	0.0175301
876.004	0.0176179
876.082	0.0177647
876.160	0.0175847
876.238	0.0176965
876.317	0.0178280
876.395	0.0179658
876.473	0.0180033
876.551	0.0179271
876.629	0.0181319
876.707	0.0180302
876.785	0.0180560
876.863	0.0179578
876.942	0.0179741
877.020	0.0179887
877.098	0.0180721
877.176	0.0181293
877.254	0.0180952
877.332	0.0179581
877.410	0.0180850
877.488	0.0180367
877.567	0.0179594
877.645	0.0178252
877.723	0.0179362
877.801	0.0180497
877.879	0.0180717
877.957	0.0178499
878.035	0.0178723
878.113	0.0179449
878.192	0.0179469
878.270	0.0178996
878.348	0.0180722
878.426	0.0180431
878.504	0.0180085
878.582	0.0179508
878.660	0.0180713
878.738	0.0180875
878.817	0.0179935
878.895	0.0179408
878.973	0.0180875
879.051	0.0179532
879.129	0.0180020
879.207	0.0179186
879.285	0.0178931
879.363	0.0178798
879.442	0.0180170
879.520	0.0177802
879.598	0.0177731
879.676	0.0179718
879.754	0.0180319
879.832	0.0180846
879.910	0.0179057
879.988	0.0180759
880.067	0.0180232
880.145	0.0180877
880.223	0.0182427
880.301	0.0180812
880.379	0.0181145
880.457	0.0180281
880.535	0.0182198
880.613	0.0182236
880.692	0.0181370
880.770	0.0180563
880.848	0.0181009
880.926	0.0182233
881.004	0.0181200
881.082	0.0180959
881.160	0.0182067
881.238	0.0183260
881.317	0.0183092
881.395	0.0182830
881.473	0.0182447
881.551	0.0183141
881.629	0.0183080
881.707	0.0183983
881.785	0.0181875
881.863	0.0183022
881.942	0.0182422
882.020	0.0182323
882.098	0.0182022
882.176	0.0182183
882.254	0.0180131
882.332	0.0180821
882.410	0.0181394
882.488	0.0180097
882.567	0.0179078
882.645	0.0180022
882.723	0.0179621
882.801	0.0177350
882.879	0.0176711
882.957	0.0178085
883.035	0.0178204
883.113	0.0177613
883.192	0.0177984
883.270	0.0177190
883.348	0.0177644
883.426	0.0178274
883.504	0.0176092
883.582	0.0176996
883.660	0.0178218
883.738	0.0177641
883.817	0.0176029
883.895	0.0177061
883.973	0.0177904
884.051	0.0178452
884.129	0.0178362
884.207	0.0178384
884.285	0.0178974
884.363	0.0179523
884.442	0.0180840
884.520	0.0178936
884.598	0.0180523
884.676	0.0180088
884.754	0.0180942
884.832	0.0181815
884.910	0.0180814
884.988	0.0181645
885.067	0.0182556
885.145	0.0180546
885.223	0.0179778
885.301	0.0182404
885.379	0.0180957
885.457	0.0182005
885.535	0.0180413
885.613	0.0182025
885.692	0.0181277
885.770	0.0180844
885.848	0.0180237
885.926	0.0180754
886.004	0.0179589
886.082	0.0179717
886.160	0.0180013
886.238	0.0179043
886.317	0.0178622
886.395	0.0177360
886.473	0.0177632
886.551	0.0177122
886.629	0.0177842
886.707	0.0178082
886.785	0.0175569
886.863	0.0177454
886.942	0.0176249
887.020	0.0176728
887.098	0.0176265
887.176	0.0177526
887.254	0.0177247
887.332	0.0178090
887.410	0.0179546
887.488	0.0178751
887.567	0.0179064
887.645	0.0180602
887.723	0.0181296
887.801	0.0181079
887.879	0.0181042
887.957	0.0179793
888.035	0.0182449
888.113	0.0182164
888.192	0.0180796
888.270	0.0179978
888.348	0.0181958
888.426	0.0183158
888.504	0.0180849
888.582	0.0180865
888.660	0.0182030
888.738	0.0181126
888.817	0.0181406
888.895	0.0180738
888.973	0.0181292
889.051	0.0180950
889.129	0.0180783
889.207	0.0179344
889.285	0.0178354
889.363	0.0179832
889.442	0.0179202
889.520	0.0179496
889.598	0.0180046
889.676	0.0180139
889.754	0.0180776
889.832	0.0180663
889.910	0.0180824
889.988	0.0181047
890.067	0.0181141
890.145	0.0180296
890.223	0.0181030
890.301	0.0182406
890.379	0.0181862
890.457	0.0181464
890.535	0.0181325
890.613	0.0180444
890.692	0.0180908
890.770	0.0179822
890.848	0.0180156
890.926	0.0179928
891.004	0.0178761
891.082	0.0178939
891.160	0.0180115
891.238	0.0179322
891.317	0.0177621
891.395	0.0178066
891.473	0.0177953
891.551	0.0177357
891.629	0.0177711
891.707	0.0177879
891.785	0.0178205
891.863	0.0178056
891.942	0.0179287
892.020	0.0178168
892.098	0.0177942
892.176	0.0177883
892.254	0.0178157
892.332	0.0179327
892.410	0.0179363
892.488	0.0179676
892.567	0.0180368
892.645	0.0180627
892.723	0.0181387
892.801	0.0179479
892.879	0.0178952
892.957	0.0178793
893.035	0.0180285
893.113	0.0178695
893.192	0.0178403
893.270	0.0178510
893.348	0.0179025
893.426	0.0178482
893.504	0.0179475
893.582	0.0178759
893.660	0.0179131
893.738	0.0179408
893.817	0.0178361
893.895	0.0179955
893.973	0.0180327
894.051	0.0180518
894.129	0.0179312
894.207	0.0179476
894.285	0.0180730
894.363	0.0181390
894.442	0.0180008
894.520	0.0179914
894.598	0.0181221
894.676	0.0181266
894.754	0.0181062
894.832	0.0180870
894.910	0.0180143
894.988	0.0181583
895.067	0.0182208
895.145	0.0180358
895.223	0.0180892
895.301	0.0181513
895.379	0.0180484
895.457	0.0180482
895.535	0.0181258
895.613	0.0180844
895.692	0.0179938
895.770	0.0179968
895.848	0.0180411
895.926	0.0180894
896.004	0.0179979
896.082	0.0179568
896.160	0.0181605
896.238	0.0179570
896.317	0.0179137
896.395	0.0180420
896.473	0.0179570
896.551	0.0179044
896.629	0.0179437
896.707	0.0178133
896.785	0.0179021
896.863	0.0179559
896.942	0.0178554
897.020	0.0178981
897.098	0.0178636
897.176	0.0179221
897.254	0.0179143
897.332	0.0179642
897.410	0.0180447
897.488	0.0181404
897.567	0.0180811
897.645	0.0180980
897.723	0.0182095
897.801	0.0180640
897.879	0.0183540
897.957	0.0182035
898.035	0.0181501
898.113	0.0180728
898.192	0.0181474
898.270	0.0183101
898.348	0.0181637
898.426	0.0180556
898.504	0.0180764
898.582	0.0181112
898.660	0.0182001
898.738	0.0180362
898.817	0.0181181
898.895	0.0181793
898.973	0.0180746
899.051	0.0181779
899.129	0.0182202
899.207	0.0181191
899.285	0.0179494
899.363	0.0180557
899.442	0.0181515
899.520	0.0179279
899.598	0.0180813
899.676	0.0179831
899.754	0.0179614
899.832	0.0179858
899.910	0.0179751
899.988	0.0179765
900.067	0.0178846
900.145	0.0179861
900.223	0.0179543
900.301	0.0179359
900.379	0.0179243
900.457	0.0178766
900.535	0.0177673
900.613	0.0177792
900.692	0.0177959
900.770	0.0178841
900.848	0.0178160
900.926	0.0178404
901.004	0.0177242
901.082	0.0178830
901.160	0.0178700
901.238	0.0178323
901.317	0.0178043
901.395	0.0179077
901.473	0.0177660
901.551	0.0178359
901.629	0.0179457
901.707	0.0179499
901.785	0.0178706
901.863	0.0179463
901.942	0.0179942
902.020	0.0178750
902.098	0.0178973
902.176	0.0179933
902.254	0.0179606
902.332	0.0181439
902.410	0.0181586
902.488	0.0181802
902.567	0.0180843
902.645	0.0180400
902.723	0.0180849
902.801	0.0181413
902.879	0.0180922
902.957	0.0181313
903.035	0.0181477
903.113	0.0179356
903.192	0.0179932
903.270	0.0180788
903.348	0.0180446
903.426	0.0180236
903.504	0.0181057
903.582	0.0178886
903.660	0.0178703
903.738	0.0179892
903.817	0.0179765
903.895	0.0180059
903.973	0.0179985
904.051	0.0179805
904.129	0.0179958
904.207	0.0179508
904.285	0.0181066
904.363	0.0180431
904.442	0.0180707
904.520	0.0180626
904.598	0.0181325
904.676	0.0181994
904.754	0.0180896
904.832	0.0181409
904.910	0.0181097
904.988	0.0180415
905.067	0.0181105
905.145	0.0181219
905.223	0.0180922
905.301	0.0181725
905.379	0.0181083
905.457	0.0180872
905.535	0.0180064
905.613	0.0179106
905.692	0.0179503
905.770	0.0179161
905.848	0.0180083
905.926	0.0179272
906.004	0.0179842
906.082	0.0179599
906.160	0.0179275
906.238	0.0180072
906.317	0.0179342
906.395	0.0180291
906.473	0.0180922
906.551	0.0181041
906.629	0.0180319
906.707	0.0181397
906.785	0.0179723
906.863	0.0181557
906.942	0.0180856
907.020	0.0179587
907.098	0.0180794
907.176	0.0181165
907.254	0.0180164
907.332	0.0179318
907.410	0.0180163
907.488	0.0179253
907.567	0.0180315
907.645	0.0180449
907.723	0.0179696
907.801	0.0179523
907.879	0.0178880
907.957	0.0179000
908.035	0.0179978
908.113	0.0179668
908.192	0.0179324
908.270	0.0179025
908.348	0.0179790
908.426	0.0178447
908.504	0.0178660
908.582	0.0179671
908.660	0.0178965
908.738	0.0181002
908.817	0.0178875
908.895	0.0179767
908.973	0.0180365
909.051	0.0178490
909.129	0.0179446
909.207	0.0180026
909.285	0.0179003
909.363	0.0179625
909.442	0.0179970
909.520	0.0180090
909.598	0.0180384
909.676	0.0181024
909.754	0.0180551
909.832	0.0180430
909.910	0.0178536
909.988	0.0179749
910.067	0.0178519
910.145	0.0179522
910.223	0.0178157
910.301	0.0177788
910.379	0.0177663
910.457	0.0177748
910.535	0.0176576
910.613	0.0177108
910.692	0.0178391
910.770	0.0178595
910.848	0.0179076
910.926	0.0178434
911.004	0.0178979
911.082	0.0179360
911.160	0.0180077
911.238	0.0179465
911.317	0.0179916
911.395	0.0181108
911.473	0.0181225
911.551	0.0181961
911.629	0.0180579
911.707	0.0180606
911.785	0.0181232
911.863	0.0180012
911.942	0.0181362
912.020	0.0181033
912.098	0.0182051
912.176	0.0181928
912.254	0.0180555
912.332	0.0181789
912.410	0.0181725
912.488	0.0179576
912.567	0.0178629
912.645	0.0179353
912.723	0.0179293
912.801	0.0177719
912.879	0.0177879
912.957	0.0178990
913.035	0.0177378
913.113	0.0178560
913.192	0.0180056
913.270	0.0179234
913.348	0.0177040
913.426	0.0178629
913.504	0.0179704
913.582	0.0178556
913.660	0.0178381
913.738	0.0179335
913.817	0.0180181
913.895	0.0180715
913.973	0.0179654
914.051	0.0178648
914.129	0.0180102
914.207	0.0181847
914.285	0.0180919
914.363	0.0180930
914.442	0.0181593
914.520	0.0180888
914.598	0.0180420
914.676	0.0180211
914.754	0.0180296
914.832	0.0180039
914.910	0.0182281
914.988	0.0182221
915.067	0.0180869
915.145	0.0182696
915.223	0.0183248
915.301	0.0182399
915.379	0.0181899
915.457	0.0182297
915.535	0.0182312
915.613	0.0183427
915.692	0.0183067
915.770	0.0182131
915.848	0.0181793
915.926	0.0181177
916.004	0.0181361
916.082	0.0178722
916.160	0.0178676
916.238	0.0179375
916.317	0.0181180
916.395	0.0179552
916.473	0.0178020
916.551	0.0179559
916.629	0.0178544
916.707	0.0179557
916.785	0.0179915
916.863	0.0179110
916.942	0.0179153
917.020	0.0178039
917.098	0.0179755
917.176	0.0179070
917.254	0.0178752
917.332	0.0178339
917.410	0.0178912
917.488	0.0178413
917.567	0.0177308
917.645	0.0178195
917.723	0.0178204
917.801	0.0177289
917.879	0.0176232
917.957	0.0177796
918.035	0.0176614
918.113	0.0178262
918.192	0.0177983
918.270	0.0176501
918.348	0.0177625
918.426	0.0179684
918.504	0.0179097
918.582	0.0177435
918.660	0.0179257
918.738	0.0179910
918.817	0.0180218
918.895	0.0178199
918.973	0.0179504
919.051	0.0179690
919.129	0.0178841
919.207	0.0181394
919.285	0.0180551
919.363	0.0180038
919.442	0.0181220
919.520	0.0180745
919.598	0.0180037
919.676	0.0181204
919.754	0.0179947
919.832	0.0180351
919.910	0.0179722
