06/01/2022	21:52:43	Ver.	4.1	UNKNOWN
Optical Delay	599.988409	Delta X		0.078125	Sweeps	1	Scan Rate	0/0
Coordinates	Axis 1	NaN	Axis 2	NaN	Axis 3	NaN	Axis 4	NaN	Axis 5	NaN	Axis 6	0.000000
TX Power	0.000000	RX Power	0.000000

599.988	0.0178255
600.067	0.0178709
600.145	0.0178585
600.223	0.0177740
600.301	0.0178481
600.379	0.0178587
600.457	0.0178014
600.535	0.0178491
600.613	0.0177671
600.692	0.0178946
600.770	0.0179201
600.848	0.0179779
600.926	0.0178625
601.004	0.0178523
601.082	0.0178006
601.160	0.0179778
601.238	0.0178689
601.317	0.0178355
601.395	0.0179227
601.473	0.0178830
601.551	0.0177895
601.629	0.0178060
601.707	0.0179379
601.785	0.0178301
601.863	0.0179658
601.942	0.0178412
602.020	0.0177935
602.098	0.0178786
602.176	0.0178644
602.254	0.0178111
602.332	0.0178086
602.410	0.0179140
602.488	0.0179372
602.567	0.0179144
602.645	0.0179457
602.723	0.0177882
602.801	0.0178848
602.879	0.0180016
602.957	0.0179532
603.035	0.0179006
603.113	0.0178680
603.192	0.0179292
603.270	0.0179417
603.348	0.0179152
603.426	0.0178156
603.504	0.0179044
603.582	0.0178733
603.660	0.0179745
603.738	0.0179106
603.817	0.0178098
603.895	0.0178292
603.973	0.0178740
604.051	0.0178776
604.129	0.0179343
604.207	0.0178519
604.285	0.0179569
604.363	0.0179254
604.442	0.0178203
604.520	0.0179814
604.598	0.0178622
604.676	0.0178549
604.754	0.0178059
604.832	0.0178731
604.910	0.0179434
604.988	0.0180334
605.067	0.0179591
605.145	0.0178963
605.223	0.0179088
605.301	0.0178704
605.379	0.0177064
605.457	0.0178519
605.535	0.0180213
605.613	0.0179756
605.692	0.0179566
605.770	0.0178591
605.848	0.0177538
605.926	0.0179942
606.004	0.0179823
606.082	0.0177866
606.160	0.0179061
606.238	0.0178634
606.317	0.0178690
606.395	0.0179178
606.473	0.0179405
606.551	0.0178611
606.629	0.0179956
606.707	0.0178641
606.785	0.0179729
606.863	0.0178867
606.942	0.0178175
607.020	0.0179503
607.098	0.0179457
607.176	0.0178564
607.254	0.0178790
607.332	0.0179128
607.410	0.0178860
607.488	0.0178341
607.567	0.0178044
607.645	0.0178403
607.723	0.0178036
607.801	0.0178310
607.879	0.0178962
607.957	0.0177460
608.035	0.0178900
608.113	0.0179195
608.192	0.0178885
608.270	0.0178757
608.348	0.0178509
608.426	0.0178239
608.504	0.0178573
608.582	0.0179208
608.660	0.0177434
608.738	0.0178584
608.817	0.0177892
608.895	0.0177527
608.973	0.0180004
609.051	0.0178164
609.129	0.0178407
609.207	0.0177113
609.285	0.0179104
609.363	0.0178172
609.442	0.0178013
609.520	0.0178284
609.598	0.0177993
609.676	0.0178306
609.754	0.0178838
609.832	0.0180771
609.910	0.0178542
609.988	0.0179597
610.067	0.0178470
610.145	0.0177619
610.223	0.0178708
610.301	0.0178355
610.379	0.0178458
610.457	0.0178996
610.535	0.0180267
610.613	0.0179282
610.692	0.0178471
610.770	0.0178861
610.848	0.0178515
610.926	0.0179279
611.004	0.0178444
611.082	0.0179579
611.160	0.0179952
611.238	0.0178384
611.317	0.0177885
611.395	0.0179646
611.473	0.0179051
611.551	0.0179825
611.629	0.0179282
611.707	0.0177946
611.785	0.0178664
611.863	0.0178610
611.942	0.0177030
612.020	0.0178874
612.098	0.0177713
612.176	0.0180230
612.254	0.0178139
612.332	0.0177232
612.410	0.0178848
612.488	0.0177934
612.567	0.0177790
612.645	0.0177499
612.723	0.0177625
612.801	0.0178820
612.879	0.0177785
612.957	0.0177470
613.035	0.0176640
613.113	0.0178189
613.192	0.0177404
613.270	0.0178884
613.348	0.0178474
613.426	0.0177608
613.504	0.0178479
613.582	0.0179759
613.660	0.0178378
613.738	0.0177837
613.817	0.0179335
613.895	0.0178358
613.973	0.0178294
614.051	0.0178788
614.129	0.0178967
614.207	0.0179634
614.285	0.0177851
614.363	0.0180019
614.442	0.0179412
614.520	0.0177266
614.598	0.0177497
614.676	0.0178100
614.754	0.0177725
614.832	0.0178574
614.910	0.0178722
614.988	0.0178798
615.067	0.0178980
615.145	0.0179072
615.223	0.0178509
615.301	0.0178076
615.379	0.0178250
615.457	0.0180447
615.535	0.0178432
615.613	0.0178657
615.692	0.0178873
615.770	0.0177305
615.848	0.0179155
615.926	0.0178365
616.004	0.0177786
616.082	0.0179043
616.160	0.0177850
616.238	0.0178689
616.317	0.0179726
616.395	0.0177521
616.473	0.0178383
616.551	0.0179239
616.629	0.0178524
616.707	0.0178512
616.785	0.0179639
616.863	0.0177353
616.942	0.0178211
617.020	0.0179047
617.098	0.0178316
617.176	0.0177810
617.254	0.0178899
617.332	0.0177668
617.410	0.0178841
617.488	0.0177748
617.567	0.0178799
617.645	0.0179478
617.723	0.0177397
617.801	0.0178930
617.879	0.0177847
617.957	0.0177255
618.035	0.0179185
618.113	0.0179002
618.192	0.0178801
618.270	0.0178744
618.348	0.0178119
618.426	0.0178010
618.504	0.0179870
618.582	0.0177734
618.660	0.0177440
618.738	0.0178514
618.817	0.0179792
618.895	0.0179827
618.973	0.0178894
619.051	0.0178630
619.129	0.0178313
619.207	0.0178944
619.285	0.0179361
619.363	0.0178780
619.442	0.0178724
619.520	0.0179398
619.598	0.0178513
619.676	0.0178656
619.754	0.0178648
619.832	0.0180133
619.910	0.0179158
619.988	0.0178431
620.067	0.0178240
620.145	0.0178539
620.223	0.0178436
620.301	0.0178760
620.379	0.0177931
620.457	0.0179298
620.535	0.0178660
620.613	0.0178158
620.692	0.0178986
620.770	0.0177585
620.848	0.0177895
620.926	0.0178687
621.004	0.0177657
621.082	0.0179144
621.160	0.0178466
621.238	0.0179196
621.317	0.0177300
621.395	0.0179137
621.473	0.0180383
621.551	0.0179094
621.629	0.0179439
621.707	0.0179095
621.785	0.0179412
621.863	0.0179147
621.942	0.0178897
622.020	0.0178722
622.098	0.0180334
622.176	0.0178784
622.254	0.0178968
622.332	0.0178474
622.410	0.0178911
622.488	0.0179612
622.567	0.0179305
622.645	0.0178290
622.723	0.0178648
622.801	0.0177715
622.879	0.0179907
622.957	0.0179206
623.035	0.0177937
623.113	0.0179465
623.192	0.0179786
623.270	0.0178312
623.348	0.0179068
623.426	0.0177692
623.504	0.0180376
623.582	0.0178750
623.660	0.0178375
623.738	0.0178371
623.817	0.0178678
623.895	0.0178094
623.973	0.0178887
624.051	0.0178254
624.129	0.0177347
624.207	0.0178233
624.285	0.0178002
624.363	0.0179729
624.442	0.0178815
624.520	0.0178767
624.598	0.0179935
624.676	0.0178001
624.754	0.0177350
624.832	0.0178999
624.910	0.0177865
624.988	0.0177105
625.067	0.0176871
625.145	0.0179392
625.223	0.0179174
625.301	0.0179062
625.379	0.0177823
625.457	0.0178104
625.535	0.0179064
625.613	0.0178012
625.692	0.0178617
625.770	0.0178304
625.848	0.0178154
625.926	0.0179030
626.004	0.0178566
626.082	0.0180070
626.160	0.0179898
626.238	0.0179100
626.317	0.0178430
626.395	0.0178129
626.473	0.0178069
626.551	0.0178127
626.629	0.0178601
626.707	0.0178773
626.785	0.0181677
626.863	0.0177734
626.942	0.0179095
627.020	0.0179555
627.098	0.0178561
627.176	0.0177853
627.254	0.0178919
627.332	0.0179656
627.410	0.0178813
627.488	0.0178008
627.567	0.0178387
627.645	0.0179012
627.723	0.0178019
627.801	0.0178234
627.879	0.0178455
627.957	0.0179245
628.035	0.0179148
628.113	0.0178237
628.192	0.0177977
628.270	0.0179243
628.348	0.0177902
628.426	0.0178812
628.504	0.0177583
628.582	0.0178876
628.660	0.0178518
628.738	0.0178506
628.817	0.0180482
628.895	0.0179391
628.973	0.0178593
629.051	0.0178916
629.129	0.0179193
629.207	0.0179747
629.285	0.0178130
629.363	0.0179029
629.442	0.0178152
629.520	0.0177449
629.598	0.0179816
629.676	0.0177745
629.754	0.0178086
629.832	0.0178772
629.910	0.0178839
629.988	0.0178177
630.067	0.0179607
630.145	0.0177854
630.223	0.0179252
630.301	0.0177710
630.379	0.0177844
630.457	0.0179203
630.535	0.0179012
630.613	0.0179774
630.692	0.0179453
630.770	0.0178442
630.848	0.0177052
630.926	0.0177000
631.004	0.0177873
631.082	0.0179797
631.160	0.0177840
631.238	0.0178352
631.317	0.0179575
631.395	0.0179733
631.473	0.0179471
631.551	0.0176929
631.629	0.0177643
631.707	0.0179073
631.785	0.0179421
631.863	0.0179978
631.942	0.0178329
632.020	0.0178997
632.098	0.0178860
632.176	0.0179050
632.254	0.0178505
632.332	0.0178221
632.410	0.0178022
632.488	0.0178329
632.567	0.0177400
632.645	0.0177169
632.723	0.0178403
632.801	0.0178484
632.879	0.0177782
632.957	0.0177853
633.035	0.0179763
633.113	0.0178214
633.192	0.0177670
633.270	0.0178150
633.348	0.0178421
633.426	0.0177896
633.504	0.0177807
633.582	0.0178888
633.660	0.0179273
633.738	0.0178254
633.817	0.0178954
633.895	0.0179738
633.973	0.0177489
634.051	0.0176830
634.129	0.0178548
634.207	0.0177906
634.285	0.0178388
634.363	0.0178986
634.442	0.0178639
634.520	0.0178796
634.598	0.0178120
634.676	0.0179282
634.754	0.0180450
634.832	0.0178606
634.910	0.0178788
634.988	0.0179097
635.067	0.0179484
635.145	0.0180384
635.223	0.0180890
635.301	0.0179591
635.379	0.0178761
635.457	0.0179053
635.535	0.0179694
635.613	0.0177751
635.692	0.0177905
635.770	0.0178533
635.848	0.0178561
635.926	0.0178207
636.004	0.0177721
636.082	0.0177117
636.160	0.0177667
636.238	0.0176431
636.317	0.0178262
636.395	0.0177077
636.473	0.0176352
636.551	0.0177363
636.629	0.0180812
636.707	0.0179200
636.785	0.0178609
636.863	0.0179054
636.942	0.0179848
637.020	0.0180442
637.098	0.0180220
637.176	0.0180462
637.254	0.0179854
637.332	0.0178353
637.410	0.0177878
637.488	0.0179060
637.567	0.0178459
637.645	0.0178144
637.723	0.0176729
637.801	0.0177235
637.879	0.0178228
637.957	0.0177680
638.035	0.0177865
638.113	0.0177534
638.192	0.0177622
638.270	0.0179333
638.348	0.0178344
638.426	0.0176156
638.504	0.0178427
638.582	0.0177895
638.660	0.0178067
638.738	0.0177122
638.817	0.0178533
638.895	0.0178967
638.973	0.0178700
639.051	0.0178320
639.129	0.0179314
639.207	0.0179525
639.285	0.0179324
639.363	0.0178956
639.442	0.0178040
639.520	0.0178965
639.598	0.0179191
639.676	0.0177718
639.754	0.0177900
639.832	0.0178221
639.910	0.0177718
639.988	0.0178310
640.067	0.0176823
640.145	0.0176865
640.223	0.0177895
640.301	0.0176540
640.379	0.0177425
640.457	0.0179185
640.535	0.0178506
640.613	0.0178298
640.692	0.0179047
640.770	0.0178141
640.848	0.0177813
640.926	0.0178032
641.004	0.0178824
641.082	0.0179675
641.160	0.0179974
641.238	0.0179335
641.317	0.0179781
641.395	0.0178704
641.473	0.0180244
641.551	0.0178239
641.629	0.0177816
641.707	0.0178239
641.785	0.0174641
641.863	0.0176638
641.942	0.0175903
642.020	0.0175228
642.098	0.0175069
642.176	0.0175481
642.254	0.0175745
642.332	0.0176656
642.410	0.0177484
642.488	0.0177522
642.567	0.0177757
642.645	0.0179756
642.723	0.0179746
642.801	0.0181532
642.879	0.0179519
642.957	0.0180350
643.035	0.0180182
643.113	0.0179902
643.192	0.0179272
643.270	0.0179474
643.348	0.0178511
643.426	0.0178297
643.504	0.0177245
643.582	0.0177964
643.660	0.0176511
643.738	0.0177161
643.817	0.0176737
643.895	0.0177675
643.973	0.0177307
644.051	0.0177545
644.129	0.0177280
644.207	0.0177979
644.285	0.0177286
644.363	0.0178655
644.442	0.0180148
644.520	0.0180019
644.598	0.0180151
644.676	0.0179663
644.754	0.0179311
644.832	0.0180946
644.910	0.0180624
644.988	0.0181178
645.067	0.0179915
645.145	0.0179091
645.223	0.0178371
645.301	0.0178333
645.379	0.0179622
645.457	0.0179087
645.535	0.0178228
645.613	0.0177694
645.692	0.0177940
645.770	0.0178571
645.848	0.0177229
645.926	0.0177966
646.004	0.0178121
646.082	0.0178268
646.160	0.0177737
646.238	0.0178373
646.317	0.0178802
646.395	0.0180224
646.473	0.0178449
646.551	0.0179259
646.629	0.0179082
646.707	0.0178555
646.785	0.0178618
646.863	0.0179837
646.942	0.0178261
647.020	0.0178814
647.098	0.0180894
647.176	0.0179323
647.254	0.0179824
647.332	0.0181362
647.410	0.0180371
647.488	0.0179414
647.567	0.0178340
647.645	0.0178265
647.723	0.0178222
647.801	0.0178184
647.879	0.0180408
647.957	0.0177683
648.035	0.0178329
648.113	0.0178710
648.192	0.0179634
648.270	0.0178920
648.348	0.0177781
648.426	0.0178409
648.504	0.0179530
648.582	0.0177748
648.660	0.0178963
648.738	0.0178001
648.817	0.0178246
648.895	0.0177445
648.973	0.0178197
649.051	0.0177576
649.129	0.0178827
649.207	0.0178159
649.285	0.0178120
649.363	0.0178721
649.442	0.0177557
649.520	0.0179930
649.598	0.0180878
649.676	0.0179076
649.754	0.0178111
649.832	0.0178278
649.910	0.0180985
649.988	0.0178132
650.067	0.0178895
650.145	0.0180192
650.223	0.0178189
650.301	0.0179390
650.379	0.0178837
650.457	0.0178792
650.535	0.0179034
650.613	0.0179575
650.692	0.0177472
650.770	0.0177886
650.848	0.0177857
650.926	0.0177020
651.004	0.0176932
651.082	0.0177613
651.160	0.0178097
651.238	0.0177584
651.317	0.0177460
651.395	0.0177721
651.473	0.0178098
651.551	0.0178094
651.629	0.0178661
651.707	0.0179237
651.785	0.0180366
651.863	0.0181162
651.942	0.0180589
652.020	0.0180275
652.098	0.0180797
652.176	0.0180746
652.254	0.0179989
652.332	0.0179396
652.410	0.0179684
652.488	0.0180062
652.567	0.0178976
652.645	0.0178539
652.723	0.0178252
652.801	0.0178152
652.879	0.0176289
652.957	0.0176769
653.035	0.0176727
653.113	0.0176766
653.192	0.0175943
653.270	0.0174757
653.348	0.0176035
653.426	0.0176205
653.504	0.0176650
653.582	0.0177371
653.660	0.0178680
653.738	0.0179594
653.817	0.0179433
653.895	0.0179539
653.973	0.0181151
654.051	0.0181454
654.129	0.0181280
654.207	0.0181285
654.285	0.0182186
654.363	0.0181329
654.442	0.0180629
654.520	0.0181103
654.598	0.0180874
654.676	0.0179921
654.754	0.0177185
654.832	0.0177570
654.910	0.0176662
654.988	0.0175366
655.067	0.0176119
655.145	0.0174450
655.223	0.0176156
655.301	0.0175864
655.379	0.0175019
655.457	0.0174602
655.535	0.0176086
655.613	0.0178060
655.692	0.0177949
655.770	0.0177542
655.848	0.0178201
655.926	0.0180291
656.004	0.0180018
656.082	0.0180987
656.160	0.0180993
656.238	0.0181017
656.317	0.0182587
656.395	0.0182928
656.473	0.0180984
656.551	0.0181534
656.629	0.0181037
656.707	0.0180451
656.785	0.0180642
656.863	0.0180070
656.942	0.0179788
657.020	0.0177095
657.098	0.0175760
657.176	0.0174766
657.254	0.0176972
657.332	0.0176092
657.410	0.0175499
657.488	0.0174658
657.567	0.0176273
657.645	0.0176902
657.723	0.0176309
657.801	0.0177198
657.879	0.0178991
657.957	0.0178656
658.035	0.0178210
658.113	0.0181570
658.192	0.0181341
658.270	0.0180214
658.348	0.0180061
658.426	0.0180987
658.504	0.0180340
658.582	0.0179477
658.660	0.0177705
658.738	0.0177662
658.817	0.0178834
658.895	0.0178445
658.973	0.0177590
659.051	0.0177429
659.129	0.0177711
659.207	0.0176402
659.285	0.0175909
659.363	0.0177948
659.442	0.0176994
659.520	0.0176950
659.598	0.0178069
659.676	0.0177722
659.754	0.0177778
659.832	0.0179028
659.910	0.0179080
659.988	0.0179755
660.067	0.0178956
660.145	0.0177921
660.223	0.0178448
660.301	0.0180075
660.379	0.0178478
660.457	0.0178510
660.535	0.0177976
660.613	0.0178265
660.692	0.0178724
660.770	0.0179344
660.848	0.0179892
660.926	0.0179420
661.004	0.0177831
661.082	0.0179229
661.160	0.0178763
661.238	0.0178590
661.317	0.0179108
661.395	0.0178810
661.473	0.0178325
661.551	0.0178175
661.629	0.0179610
661.707	0.0179958
661.785	0.0178380
661.863	0.0177509
661.942	0.0179709
662.020	0.0178238
662.098	0.0177871
662.176	0.0177914
662.254	0.0177853
662.332	0.0176354
662.410	0.0176910
662.488	0.0178117
662.567	0.0176559
662.645	0.0176687
662.723	0.0176998
662.801	0.0176583
662.879	0.0177789
662.957	0.0178018
663.035	0.0178341
663.113	0.0177557
663.192	0.0179276
663.270	0.0181018
663.348	0.0181725
663.426	0.0180827
663.504	0.0180688
663.582	0.0182230
663.660	0.0182454
663.738	0.0181498
663.817	0.0181763
663.895	0.0180284
663.973	0.0179379
664.051	0.0179932
664.129	0.0179241
664.207	0.0177463
664.285	0.0176891
664.363	0.0177146
664.442	0.0176090
664.520	0.0176353
664.598	0.0175532
664.676	0.0174873
664.754	0.0176849
664.832	0.0175293
664.910	0.0176006
664.988	0.0176555
665.067	0.0176538
665.145	0.0177449
665.223	0.0177249
665.301	0.0179834
665.379	0.0178724
665.457	0.0180861
665.535	0.0180714
665.613	0.0180524
665.692	0.0179710
665.770	0.0181297
665.848	0.0181101
665.926	0.0180014
666.004	0.0180784
666.082	0.0179456
666.160	0.0180920
666.238	0.0180041
666.317	0.0178915
666.395	0.0178377
666.473	0.0178647
666.551	0.0176906
666.629	0.0177068
666.707	0.0176498
666.785	0.0174831
666.863	0.0175916
666.942	0.0175005
667.020	0.0175737
667.098	0.0177876
667.176	0.0177252
667.254	0.0176830
667.332	0.0179556
667.410	0.0178535
667.488	0.0179083
667.567	0.0180560
667.645	0.0179379
667.723	0.0181197
667.801	0.0181638
667.879	0.0180441
667.957	0.0179512
668.035	0.0180359
668.113	0.0180108
668.192	0.0180037
668.270	0.0178482
668.348	0.0179530
668.426	0.0178573
668.504	0.0176842
668.582	0.0177257
668.660	0.0176054
668.738	0.0176514
668.817	0.0176376
668.895	0.0176051
668.973	0.0175578
669.051	0.0177077
669.129	0.0177547
669.207	0.0176628
669.285	0.0176875
669.363	0.0178163
669.442	0.0177271
669.520	0.0177204
669.598	0.0179520
669.676	0.0179340
669.754	0.0178667
669.832	0.0180106
669.910	0.0179369
669.988	0.0180270
670.067	0.0180338
670.145	0.0181097
670.223	0.0179907
670.301	0.0180769
670.379	0.0182413
670.457	0.0180914
670.535	0.0181893
670.613	0.0178912
670.692	0.0180353
670.770	0.0180405
670.848	0.0177682
670.926	0.0178394
671.004	0.0178447
671.082	0.0177129
671.160	0.0176462
671.238	0.0176142
671.317	0.0178290
671.395	0.0177890
671.473	0.0178288
671.551	0.0178537
671.629	0.0178745
671.707	0.0178899
671.785	0.0180536
671.863	0.0180866
671.942	0.0180910
672.020	0.0180253
672.098	0.0181598
672.176	0.0180943
672.254	0.0181503
672.332	0.0181019
672.410	0.0179396
672.488	0.0179014
672.567	0.0180510
672.645	0.0178240
672.723	0.0177689
672.801	0.0177530
672.879	0.0176354
672.957	0.0176125
673.035	0.0176490
673.113	0.0176534
673.192	0.0176990
673.270	0.0176842
673.348	0.0176909
673.426	0.0176750
673.504	0.0176936
673.582	0.0178094
673.660	0.0178003
673.738	0.0178230
673.817	0.0179539
673.895	0.0179373
673.973	0.0180189
674.051	0.0180659
674.129	0.0181009
674.207	0.0181171
674.285	0.0180613
674.363	0.0181197
674.442	0.0180103
674.520	0.0181347
674.598	0.0181866
674.676	0.0180766
674.754	0.0178802
674.832	0.0178719
674.910	0.0177877
674.988	0.0176647
675.067	0.0177549
675.145	0.0176859
675.223	0.0176823
675.301	0.0175882
675.379	0.0176134
675.457	0.0174975
675.535	0.0175889
675.613	0.0177089
675.692	0.0175401
675.770	0.0175394
675.848	0.0174352
675.926	0.0175305
676.004	0.0173911
676.082	0.0175242
676.160	0.0175137
676.238	0.0176067
676.317	0.0177747
676.395	0.0177853
676.473	0.0179114
676.551	0.0179451
676.629	0.0183176
676.707	0.0184373
676.785	0.0184794
676.863	0.0185645
676.942	0.0185869
677.020	0.0187660
677.098	0.0189265
677.176	0.0187659
677.254	0.0186076
677.332	0.0186571
677.410	0.0184850
677.488	0.0182734
677.567	0.0183164
677.645	0.0180546
677.723	0.0179032
677.801	0.0178281
677.879	0.0177050
677.957	0.0175902
678.035	0.0174532
678.113	0.0174498
678.192	0.0172211
678.270	0.0172658
678.348	0.0171772
678.426	0.0171546
678.504	0.0169534
678.582	0.0169396
678.660	0.0171026
678.738	0.0172733
678.817	0.0173340
678.895	0.0172555
678.973	0.0174511
679.051	0.0174107
679.129	0.0175880
679.207	0.0177428
679.285	0.0180500
679.363	0.0182724
679.442	0.0182298
679.520	0.0184009
679.598	0.0185891
679.676	0.0186858
679.754	0.0188116
679.832	0.0188699
679.910	0.0190604
679.988	0.0189891
680.067	0.0188779
680.145	0.0187597
680.223	0.0185832
680.301	0.0185030
680.379	0.0183155
680.457	0.0180462
680.535	0.0177035
680.613	0.0175059
680.692	0.0172982
680.770	0.0170617
680.848	0.0169179
680.926	0.0168092
681.004	0.0165591
681.082	0.0165182
681.160	0.0165190
681.238	0.0164077
681.317	0.0163617
681.395	0.0165979
681.473	0.0168851
681.551	0.0168316
681.629	0.0170878
681.707	0.0174577
681.785	0.0175727
681.863	0.0178400
681.942	0.0180252
682.020	0.0181956
682.098	0.0186147
682.176	0.0187382
682.254	0.0190706
682.332	0.0193176
682.410	0.0194727
682.488	0.0196587
682.567	0.0196165
682.645	0.0197803
682.723	0.0196075
682.801	0.0196429
682.879	0.0193516
682.957	0.0191863
683.035	0.0187860
683.113	0.0184514
683.192	0.0182582
683.270	0.0175996
683.348	0.0173831
683.426	0.0171294
683.504	0.0168813
683.582	0.0164811
683.660	0.0162154
683.738	0.0160334
683.817	0.0159085
683.895	0.0156708
683.973	0.0157642
684.051	0.0157977
684.129	0.0157632
684.207	0.0159055
684.285	0.0160361
684.363	0.0162360
684.442	0.0166739
684.520	0.0169663
684.598	0.0171243
684.676	0.0175832
684.754	0.0180135
684.832	0.0182019
684.910	0.0185091
684.988	0.0188580
685.067	0.0191288
685.145	0.0193484
685.223	0.0195978
685.301	0.0197805
685.379	0.0196170
685.457	0.0196281
685.535	0.0196861
685.613	0.0196864
685.692	0.0195208
685.770	0.0193831
685.848	0.0192472
685.926	0.0191451
686.004	0.0188542
686.082	0.0187236
686.160	0.0186215
686.238	0.0184801
686.317	0.0183296
686.395	0.0180252
686.473	0.0178466
686.551	0.0176424
686.629	0.0175450
686.707	0.0173808
686.785	0.0171057
686.863	0.0170530
686.942	0.0169482
687.020	0.0167970
687.098	0.0166822
687.176	0.0165530
687.254	0.0164237
687.332	0.0163111
687.410	0.0163482
687.488	0.0163850
687.567	0.0164046
687.645	0.0162932
687.723	0.0162953
687.801	0.0164830
687.879	0.0165411
687.957	0.0166357
688.035	0.0167386
688.113	0.0167924
688.192	0.0170100
688.270	0.0171812
688.348	0.0173315
688.426	0.0175513
688.504	0.0178255
688.582	0.0179518
688.660	0.0180116
688.738	0.0183327
688.817	0.0185642
688.895	0.0186080
688.973	0.0187750
689.051	0.0189182
689.129	0.0190368
689.207	0.0191756
689.285	0.0192622
689.363	0.0195454
689.442	0.0195934
689.520	0.0197729
689.598	0.0198888
689.676	0.0198730
689.754	0.0198307
689.832	0.0198051
689.910	0.0197814
689.988	0.0197733
690.067	0.0195139
690.145	0.0194255
690.223	0.0192656
690.301	0.0189144
690.379	0.0185319
690.457	0.0185199
690.535	0.0184027
690.613	0.0179157
690.692	0.0177108
690.770	0.0173594
690.848	0.0172199
690.926	0.0169229
691.004	0.0165342
691.082	0.0163717
691.160	0.0160570
691.238	0.0157212
691.317	0.0153767
691.395	0.0151961
691.473	0.0150923
691.551	0.0149554
691.629	0.0148660
691.707	0.0146555
691.785	0.0145119
691.863	0.0146198
691.942	0.0148909
692.020	0.0150563
692.098	0.0151731
692.176	0.0157481
692.254	0.0162017
692.332	0.0167410
692.410	0.0173466
692.488	0.0180128
692.567	0.0186415
692.645	0.0192792
692.723	0.0199509
692.801	0.0204176
692.879	0.0206921
692.957	0.0212094
693.035	0.0213448
693.113	0.0214369
693.192	0.0215057
693.270	0.0215218
693.348	0.0212715
693.426	0.0211112
693.504	0.0208649
693.582	0.0205225
693.660	0.0202730
693.738	0.0199243
693.817	0.0196355
693.895	0.0194667
693.973	0.0190742
694.051	0.0188082
694.129	0.0183514
694.207	0.0182870
694.285	0.0180855
694.363	0.0177404
694.442	0.0174912
694.520	0.0173303
694.598	0.0172806
694.676	0.0169489
694.754	0.0168226
694.832	0.0167682
694.910	0.0165396
694.988	0.0164486
695.067	0.0163348
695.145	0.0162193
695.223	0.0159351
695.301	0.0159697
695.379	0.0155658
695.457	0.0154562
695.535	0.0153502
695.613	0.0152814
695.692	0.0151616
695.770	0.0151261
695.848	0.0151808
695.926	0.0151946
696.004	0.0151489
696.082	0.0151301
696.160	0.0152037
696.238	0.0154630
696.317	0.0155048
696.395	0.0158510
696.473	0.0160958
696.551	0.0163842
696.629	0.0165784
696.707	0.0169939
696.785	0.0174847
696.863	0.0180035
696.942	0.0186102
697.020	0.0188914
697.098	0.0194028
697.176	0.0200236
697.254	0.0202789
697.332	0.0209552
697.410	0.0212022
697.488	0.0214964
697.567	0.0217303
697.645	0.0217949
697.723	0.0219630
697.801	0.0219553
697.879	0.0219644
697.957	0.0217003
698.035	0.0217584
698.113	0.0214799
698.192	0.0212553
698.270	0.0208648
698.348	0.0205664
698.426	0.0201939
698.504	0.0195944
698.582	0.0193382
698.660	0.0188611
698.738	0.0182395
698.817	0.0180415
698.895	0.0174429
698.973	0.0170708
699.051	0.0167361
699.129	0.0161159
699.207	0.0158731
699.285	0.0154937
699.363	0.0152362
699.442	0.0150356
699.520	0.0147121
699.598	0.0145123
699.676	0.0143620
699.754	0.0143218
699.832	0.0143655
699.910	0.0144934
699.988	0.0145386
700.067	0.0147611
700.145	0.0149323
700.223	0.0150445
700.301	0.0153042
700.379	0.0158015
700.457	0.0159944
700.535	0.0160007
700.613	0.0163026
700.692	0.0166544
700.770	0.0168523
700.848	0.0169700
700.926	0.0172265
701.004	0.0173635
701.082	0.0176428
701.160	0.0179435
701.238	0.0180687
701.317	0.0182832
701.395	0.0187463
701.473	0.0188363
701.551	0.0190957
701.629	0.0192542
701.707	0.0197044
701.785	0.0199313
701.863	0.0199542
701.942	0.0202238
702.020	0.0202883
702.098	0.0205949
702.176	0.0206288
702.254	0.0206716
702.332	0.0205605
702.410	0.0207094
702.488	0.0205981
702.567	0.0204758
702.645	0.0202866
702.723	0.0202024
702.801	0.0201010
702.879	0.0199060
702.957	0.0195403
703.035	0.0192598
703.113	0.0192088
703.192	0.0189843
703.270	0.0186127
703.348	0.0182735
703.426	0.0180683
703.504	0.0176662
703.582	0.0174474
703.660	0.0172041
703.738	0.0168542
703.817	0.0163764
703.895	0.0163187
703.973	0.0158376
704.051	0.0156520
704.129	0.0153816
704.207	0.0150225
704.285	0.0151092
704.363	0.0149758
704.442	0.0149428
704.520	0.0149373
704.598	0.0148491
704.676	0.0149900
704.754	0.0152152
704.832	0.0155695
704.910	0.0158028
704.988	0.0162591
705.067	0.0165961
705.145	0.0170514
705.223	0.0174816
705.301	0.0179527
705.379	0.0183919
705.457	0.0189423
705.535	0.0191476
705.613	0.0193389
705.692	0.0195777
705.770	0.0196508
705.848	0.0199368
705.926	0.0199523
706.004	0.0197010
706.082	0.0196167
706.160	0.0196226
706.238	0.0194746
706.317	0.0192855
706.395	0.0190237
706.473	0.0189957
706.551	0.0186243
706.629	0.0184378
706.707	0.0181123
706.785	0.0177766
706.863	0.0174609
706.942	0.0173052
707.020	0.0170836
707.098	0.0168561
707.176	0.0167195
707.254	0.0166199
707.332	0.0167352
707.410	0.0169192
707.488	0.0170511
707.567	0.0170665
707.645	0.0173602
707.723	0.0174665
707.801	0.0177321
707.879	0.0180250
707.957	0.0182642
708.035	0.0185674
708.113	0.0185950
708.192	0.0185788
708.270	0.0186839
708.348	0.0188712
708.426	0.0190070
708.504	0.0189130
708.582	0.0187217
708.660	0.0187668
708.738	0.0187802
708.817	0.0185929
708.895	0.0185504
708.973	0.0183002
709.051	0.0181992
709.129	0.0180294
709.207	0.0178484
709.285	0.0176833
709.363	0.0174422
709.442	0.0172749
709.520	0.0167666
709.598	0.0168099
709.676	0.0166109
709.754	0.0164619
709.832	0.0164270
709.910	0.0165139
709.988	0.0164218
710.067	0.0163709
710.145	0.0165242
710.223	0.0165076
710.301	0.0168939
710.379	0.0169806
710.457	0.0172162
710.535	0.0174335
710.613	0.0177726
710.692	0.0181079
710.770	0.0182449
710.848	0.0185743
710.926	0.0186507
711.004	0.0190522
711.082	0.0191095
711.160	0.0191596
711.238	0.0191923
711.317	0.0189249
711.395	0.0190401
711.473	0.0188808
711.551	0.0188763
711.629	0.0186781
711.707	0.0184627
711.785	0.0182795
711.863	0.0181412
711.942	0.0179529
712.020	0.0178237
712.098	0.0178041
712.176	0.0176435
712.254	0.0176189
712.332	0.0175050
712.410	0.0174471
712.488	0.0173943
712.567	0.0175079
712.645	0.0176036
712.723	0.0176038
712.801	0.0177193
712.879	0.0177684
712.957	0.0176857
713.035	0.0179792
713.113	0.0180133
713.192	0.0179556
713.270	0.0180038
713.348	0.0180782
713.426	0.0181314
713.504	0.0180009
713.582	0.0180441
713.660	0.0180918
713.738	0.0179651
713.817	0.0179233
713.895	0.0179676
713.973	0.0177921
714.051	0.0178406
714.129	0.0176922
714.207	0.0177286
714.285	0.0176052
714.363	0.0174821
714.442	0.0172341
714.520	0.0170676
714.598	0.0170490
714.676	0.0169804
714.754	0.0168353
714.832	0.0165484
714.910	0.0167513
714.988	0.0166280
715.067	0.0167256
715.145	0.0166845
715.223	0.0167468
715.301	0.0169256
715.379	0.0172732
715.457	0.0173719
715.535	0.0174303
715.613	0.0176395
715.692	0.0178449
715.770	0.0179889
715.848	0.0182296
715.926	0.0183184
716.004	0.0183762
716.082	0.0185161
716.160	0.0185630
716.238	0.0186423
716.317	0.0188988
716.395	0.0188751
716.473	0.0188531
716.551	0.0188235
716.629	0.0188545
716.707	0.0189663
716.785	0.0191666
716.863	0.0191701
716.942	0.0192109
717.020	0.0193833
717.098	0.0193201
717.176	0.0194135
717.254	0.0194247
717.332	0.0193265
717.410	0.0191399
717.488	0.0190044
717.567	0.0187402
717.645	0.0185947
717.723	0.0184243
717.801	0.0181396
717.879	0.0179104
717.957	0.0174911
718.035	0.0173281
718.113	0.0170250
718.192	0.0170444
718.270	0.0167458
718.348	0.0166321
718.426	0.0167125
718.504	0.0165707
718.582	0.0166080
718.660	0.0166233
718.738	0.0167363
718.817	0.0168927
718.895	0.0169669
718.973	0.0171202
719.051	0.0171245
719.129	0.0174122
719.207	0.0175247
719.285	0.0177014
719.363	0.0177147
719.442	0.0178732
719.520	0.0180120
719.598	0.0180376
719.676	0.0180559
719.754	0.0181821
719.832	0.0180898
719.910	0.0179227
719.988	0.0178963
720.067	0.0178159
720.145	0.0175359
720.223	0.0172761
720.301	0.0171714
720.379	0.0168663
720.457	0.0166154
720.535	0.0164763
720.613	0.0161716
720.692	0.0161812
720.770	0.0160699
720.848	0.0158684
720.926	0.0160091
721.004	0.0162472
721.082	0.0164117
721.160	0.0164362
721.238	0.0167815
721.317	0.0170940
721.395	0.0174165
721.473	0.0177071
721.551	0.0180403
721.629	0.0182814
721.707	0.0184093
721.785	0.0187088
721.863	0.0189861
721.942	0.0190268
722.020	0.0191662
722.098	0.0191405
722.176	0.0191732
722.254	0.0192570
722.332	0.0192301
722.410	0.0192115
722.488	0.0193575
722.567	0.0191911
722.645	0.0191451
722.723	0.0191664
722.801	0.0192300
722.879	0.0192890
722.957	0.0192345
723.035	0.0193542
723.113	0.0192839
723.192	0.0192797
723.270	0.0193530
723.348	0.0194166
723.426	0.0194927
723.504	0.0194804
723.582	0.0192384
723.660	0.0191982
723.738	0.0191449
723.817	0.0189422
723.895	0.0187241
723.973	0.0185017
724.051	0.0184795
724.129	0.0182795
724.207	0.0180781
724.285	0.0179517
724.363	0.0181326
724.442	0.0179893
724.520	0.0177292
724.598	0.0174590
724.676	0.0174657
724.754	0.0172720
724.832	0.0170643
724.910	0.0169406
724.988	0.0167898
725.067	0.0166042
725.145	0.0165227
725.223	0.0162737
725.301	0.0159187
725.379	0.0158614
725.457	0.0158076
725.535	0.0155299
725.613	0.0155994
725.692	0.0154140
725.770	0.0154901
725.848	0.0155807
725.926	0.0154615
726.004	0.0156098
726.082	0.0158621
726.160	0.0158651
726.238	0.0160039
726.317	0.0161822
726.395	0.0164515
726.473	0.0166208
726.551	0.0168957
726.629	0.0169830
726.707	0.0174334
726.785	0.0174468
726.863	0.0176205
726.942	0.0177811
727.020	0.0179030
727.098	0.0179220
727.176	0.0181528
727.254	0.0182575
727.332	0.0183204
727.410	0.0181211
727.488	0.0182555
727.567	0.0181792
727.645	0.0181510
727.723	0.0181480
727.801	0.0180008
727.879	0.0182655
727.957	0.0179700
728.035	0.0180922
728.113	0.0181358
728.192	0.0181927
728.270	0.0182697
728.348	0.0182614
728.426	0.0186189
728.504	0.0187343
728.582	0.0189021
728.660	0.0191799
728.738	0.0194186
728.817	0.0195840
728.895	0.0198157
728.973	0.0199445
729.051	0.0200745
729.129	0.0199769
729.207	0.0200961
729.285	0.0199567
729.363	0.0198710
729.442	0.0198703
729.520	0.0196490
729.598	0.0195592
729.676	0.0192880
729.754	0.0191991
729.832	0.0191518
729.910	0.0189137
729.988	0.0188741
730.067	0.0187126
730.145	0.0185347
730.223	0.0185777
730.301	0.0183739
730.379	0.0183051
730.457	0.0182336
730.535	0.0181128
730.613	0.0180463
730.692	0.0179977
730.770	0.0179203
730.848	0.0176409
730.926	0.0177075
731.004	0.0176163
731.082	0.0175236
731.160	0.0175443
731.238	0.0174220
731.317	0.0172330
731.395	0.0171387
731.473	0.0171565
731.551	0.0169430
731.629	0.0168674
731.707	0.0166575
731.785	0.0166121
731.863	0.0164763
731.942	0.0162506
732.020	0.0158664
732.098	0.0158495
732.176	0.0155634
732.254	0.0155603
732.332	0.0152619
732.410	0.0151079
732.488	0.0150078
732.567	0.0148260
732.645	0.0148243
732.723	0.0149380
732.801	0.0149473
732.879	0.0150752
732.957	0.0153056
733.035	0.0155795
733.113	0.0157630
733.192	0.0162037
733.270	0.0165475
733.348	0.0169326
733.426	0.0173772
733.504	0.0176881
733.582	0.0180267
733.660	0.0184219
733.738	0.0187468
733.817	0.0190096
733.895	0.0190313
733.973	0.0191837
734.051	0.0192816
734.129	0.0193214
734.207	0.0193023
734.285	0.0192197
734.363	0.0191505
734.442	0.0189892
734.520	0.0186604
734.598	0.0185856
734.676	0.0185830
734.754	0.0184377
734.832	0.0182948
734.910	0.0182156
734.988	0.0181532
735.067	0.0181770
735.145	0.0183361
735.223	0.0184490
735.301	0.0186926
735.379	0.0188966
735.457	0.0188283
735.535	0.0192948
735.613	0.0194336
735.692	0.0196901
735.770	0.0198184
735.848	0.0200977
735.926	0.0201155
736.004	0.0201283
736.082	0.0201357
736.160	0.0199532
736.238	0.0199468
736.317	0.0199188
736.395	0.0196338
736.473	0.0194325
736.551	0.0191825
736.629	0.0188934
736.707	0.0186421
736.785	0.0187026
736.863	0.0184579
736.942	0.0182716
737.020	0.0181512
737.098	0.0183244
737.176	0.0182460
737.254	0.0181792
737.332	0.0181763
737.410	0.0181432
737.488	0.0181190
737.567	0.0179967
737.645	0.0178474
737.723	0.0178814
737.801	0.0178081
737.879	0.0177670
737.957	0.0177338
738.035	0.0174442
738.113	0.0173362
738.192	0.0174377
738.270	0.0171551
738.348	0.0170210
738.426	0.0169904
738.504	0.0168484
738.582	0.0166769
738.660	0.0165617
738.738	0.0164453
738.817	0.0162440
738.895	0.0159944
738.973	0.0158932
739.051	0.0156956
739.129	0.0153481
739.207	0.0151836
739.285	0.0149389
739.363	0.0146551
739.442	0.0143384
739.520	0.0145178
739.598	0.0145641
739.676	0.0145039
739.754	0.0147088
739.832	0.0148258
739.910	0.0151177
739.988	0.0154193
740.067	0.0158517
740.145	0.0161549
740.223	0.0167099
740.301	0.0172311
740.379	0.0176643
740.457	0.0182068
740.535	0.0185674
740.613	0.0188873
740.692	0.0191187
740.770	0.0191844
740.848	0.0195168
740.926	0.0197321
741.004	0.0198977
741.082	0.0196844
741.160	0.0196670
741.238	0.0195520
741.317	0.0195347
741.395	0.0192597
741.473	0.0191028
741.551	0.0190312
741.629	0.0188628
741.707	0.0188067
741.785	0.0186417
741.863	0.0185368
741.942	0.0182304
742.020	0.0182712
742.098	0.0182087
742.176	0.0181992
742.254	0.0180341
742.332	0.0181634
742.410	0.0181613
742.488	0.0184665
742.567	0.0185325
742.645	0.0186231
742.723	0.0189722
742.801	0.0190961
742.879	0.0194387
742.957	0.0195768
743.035	0.0198309
743.113	0.0200488
743.192	0.0199976
743.270	0.0201009
743.348	0.0202536
743.426	0.0200974
743.504	0.0199112
743.582	0.0198402
743.660	0.0197448
743.738	0.0195136
743.817	0.0192471
743.895	0.0189481
743.973	0.0187651
744.051	0.0186449
744.129	0.0184191
744.207	0.0181345
744.285	0.0179015
744.363	0.0177923
744.442	0.0176679
744.520	0.0175346
744.598	0.0173083
744.676	0.0174072
744.754	0.0173446
744.832	0.0173432
744.910	0.0173001
744.988	0.0174728
745.067	0.0176890
745.145	0.0177061
745.223	0.0177165
745.301	0.0177394
745.379	0.0176608
745.457	0.0178094
745.535	0.0174151
745.613	0.0174088
745.692	0.0171995
745.770	0.0170413
745.848	0.0167273
745.926	0.0164216
746.004	0.0158713
746.082	0.0154052
746.160	0.0150996
746.238	0.0146745
746.317	0.0142613
746.395	0.0139831
746.473	0.0136822
746.551	0.0132954
746.629	0.0131067
746.707	0.0132623
746.785	0.0133378
746.863	0.0136412
746.942	0.0138594
747.020	0.0144452
747.098	0.0148448
747.176	0.0153596
747.254	0.0161467
747.332	0.0167738
747.410	0.0173608
747.488	0.0180058
747.567	0.0186744
747.645	0.0192683
747.723	0.0197958
747.801	0.0201792
747.879	0.0204148
747.957	0.0205988
748.035	0.0207095
748.113	0.0205782
748.192	0.0205497
748.270	0.0202770
748.348	0.0200485
748.426	0.0196922
748.504	0.0193664
748.582	0.0189854
748.660	0.0186930
748.738	0.0183570
748.817	0.0182195
748.895	0.0180713
748.973	0.0180585
749.051	0.0179156
749.129	0.0178537
749.207	0.0179346
749.285	0.0180070
749.363	0.0181910
749.442	0.0183700
749.520	0.0184338
749.598	0.0187177
749.676	0.0188570
749.754	0.0191777
749.832	0.0193397
749.910	0.0195327
749.988	0.0195352
750.067	0.0197257
750.145	0.0198448
750.223	0.0198700
750.301	0.0198401
750.379	0.0198770
750.457	0.0197944
750.535	0.0196697
750.613	0.0197197
750.692	0.0195728
750.770	0.0193104
750.848	0.0192298
750.926	0.0192451
751.004	0.0190125
751.082	0.0189652
751.160	0.0187289
751.238	0.0186034
751.317	0.0185697
751.395	0.0182929
751.473	0.0181647
751.551	0.0180491
751.629	0.0178806
751.707	0.0177141
751.785	0.0177450
751.863	0.0175770
751.942	0.0176762
752.020	0.0176032
752.098	0.0175401
752.176	0.0175411
752.254	0.0174594
752.332	0.0174574
752.410	0.0175198
752.488	0.0173795
752.567	0.0172256
752.645	0.0171021
752.723	0.0168896
752.801	0.0167863
752.879	0.0164834
752.957	0.0163094
753.035	0.0159906
753.113	0.0155138
753.192	0.0151792
753.270	0.0149110
753.348	0.0146355
753.426	0.0142235
753.504	0.0139488
753.582	0.0137522
753.660	0.0137097
753.738	0.0136147
753.817	0.0137193
753.895	0.0138507
753.973	0.0139860
754.051	0.0143674
754.129	0.0148055
754.207	0.0152277
754.285	0.0157875
754.363	0.0164234
754.442	0.0168713
754.520	0.0175647
754.598	0.0179960
754.676	0.0185845
754.754	0.0190112
754.832	0.0194922
754.910	0.0196770
754.988	0.0199139
755.067	0.0200668
755.145	0.0202084
755.223	0.0203038
755.301	0.0202021
755.379	0.0201135
755.457	0.0200970
755.535	0.0199461
755.613	0.0197037
755.692	0.0194098
755.770	0.0192947
755.848	0.0189996
755.926	0.0188101
756.004	0.0186106
756.082	0.0183688
756.160	0.0181303
756.238	0.0179652
756.317	0.0180425
756.395	0.0181402
756.473	0.0180968
756.551	0.0182455
756.629	0.0183553
756.707	0.0185075
756.785	0.0186438
756.863	0.0187199
756.942	0.0188598
757.020	0.0190329
757.098	0.0190254
757.176	0.0192764
757.254	0.0194401
757.332	0.0195538
757.410	0.0197491
757.488	0.0199022
757.567	0.0199162
757.645	0.0198849
757.723	0.0199097
757.801	0.0199735
757.879	0.0198192
757.957	0.0196307
758.035	0.0195990
758.113	0.0193667
758.192	0.0193842
758.270	0.0191551
758.348	0.0189690
758.426	0.0186299
758.504	0.0185159
758.582	0.0183848
758.660	0.0181333
758.738	0.0181129
758.817	0.0180682
758.895	0.0179004
758.973	0.0179374
759.051	0.0178275
759.129	0.0178162
759.207	0.0177560
759.285	0.0177061
759.363	0.0174274
759.442	0.0174136
759.520	0.0172494
759.598	0.0169962
759.676	0.0166921
759.754	0.0166320
759.832	0.0163240
759.910	0.0161723
759.988	0.0159509
760.067	0.0157618
760.145	0.0155033
760.223	0.0153471
760.301	0.0150941
760.379	0.0148051
760.457	0.0148240
760.535	0.0146690
760.613	0.0145763
760.692	0.0144653
760.770	0.0145651
760.848	0.0146175
760.926	0.0146507
761.004	0.0148355
761.082	0.0150014
761.160	0.0152077
761.238	0.0154785
761.317	0.0157423
761.395	0.0162589
761.473	0.0165384
761.551	0.0168373
761.629	0.0171516
761.707	0.0174561
761.785	0.0177597
761.863	0.0179758
761.942	0.0181018
762.020	0.0183565
762.098	0.0186388
762.176	0.0187672
762.254	0.0188179
762.332	0.0190007
762.410	0.0192358
762.488	0.0191800
762.567	0.0193065
762.645	0.0193697
762.723	0.0194669
762.801	0.0193105
762.879	0.0194177
762.957	0.0194527
763.035	0.0194406
763.113	0.0192173
763.192	0.0194055
763.270	0.0193594
763.348	0.0191658
763.426	0.0191317
763.504	0.0191058
763.582	0.0188033
763.660	0.0187992
763.738	0.0187534
763.817	0.0187387
763.895	0.0185833
763.973	0.0186760
764.051	0.0188009
764.129	0.0185424
764.207	0.0185576
764.285	0.0186163
764.363	0.0185742
764.442	0.0186315
764.520	0.0187105
764.598	0.0188000
764.676	0.0188415
764.754	0.0190223
764.832	0.0190556
764.910	0.0190926
764.988	0.0192894
765.067	0.0192432
765.145	0.0193156
765.223	0.0193245
765.301	0.0194063
765.379	0.0194135
765.457	0.0193469
765.535	0.0191775
765.613	0.0192565
765.692	0.0190941
765.770	0.0190531
765.848	0.0189021
765.926	0.0187774
766.004	0.0187327
766.082	0.0186758
766.160	0.0184841
766.238	0.0181429
766.317	0.0180715
766.395	0.0179770
766.473	0.0178342
766.551	0.0174837
766.629	0.0173598
766.707	0.0172958
766.785	0.0168220
766.863	0.0165493
766.942	0.0163361
767.020	0.0160088
767.098	0.0160620
767.176	0.0157140
767.254	0.0153855
767.332	0.0154822
767.410	0.0153317
767.488	0.0152283
767.567	0.0151196
767.645	0.0151906
767.723	0.0149606
767.801	0.0148886
767.879	0.0149612
767.957	0.0151547
768.035	0.0151734
768.113	0.0152788
768.192	0.0156275
768.270	0.0158311
768.348	0.0156770
768.426	0.0162508
768.504	0.0163621
768.582	0.0164484
768.660	0.0167101
768.738	0.0168771
768.817	0.0172617
768.895	0.0173228
768.973	0.0173777
769.051	0.0175153
769.129	0.0176466
769.207	0.0178835
769.285	0.0177989
769.363	0.0179226
769.442	0.0180288
769.520	0.0181406
769.598	0.0182775
769.676	0.0183505
769.754	0.0185006
769.832	0.0184586
769.910	0.0185005
769.988	0.0186382
770.067	0.0187182
770.145	0.0188903
770.223	0.0190414
770.301	0.0189728
770.379	0.0191126
770.457	0.0192655
770.535	0.0192776
770.613	0.0192852
770.692	0.0194773
770.770	0.0193628
770.848	0.0193490
770.926	0.0193320
771.004	0.0192808
771.082	0.0192646
771.160	0.0192448
771.238	0.0190993
771.317	0.0190343
771.395	0.0190321
771.473	0.0188165
771.551	0.0187238
771.629	0.0187257
771.707	0.0189082
771.785	0.0189851
771.863	0.0189192
771.942	0.0188297
772.020	0.0187757
772.098	0.0188836
772.176	0.0192318
772.254	0.0192168
772.332	0.0190949
772.410	0.0191051
772.488	0.0192036
772.567	0.0192300
772.645	0.0192793
772.723	0.0191300
772.801	0.0190899
772.879	0.0189714
772.957	0.0189439
773.035	0.0189964
773.113	0.0187840
773.192	0.0187405
773.270	0.0185946
773.348	0.0184826
773.426	0.0183459
773.504	0.0180118
773.582	0.0178883
773.660	0.0176452
773.738	0.0174693
773.817	0.0172087
773.895	0.0169733
773.973	0.0168567
774.051	0.0166547
774.129	0.0164342
774.207	0.0162444
774.285	0.0161514
774.363	0.0160107
774.442	0.0158985
774.520	0.0156990
774.598	0.0157370
774.676	0.0156218
774.754	0.0154965
774.832	0.0156485
774.910	0.0154539
774.988	0.0154758
775.067	0.0155944
775.145	0.0156150
775.223	0.0155776
775.301	0.0155894
775.379	0.0156152
775.457	0.0158210
775.535	0.0158900
775.613	0.0158703
775.692	0.0160427
775.770	0.0162904
775.848	0.0164595
775.926	0.0166129
776.004	0.0168343
776.082	0.0170922
776.160	0.0172112
776.238	0.0173383
776.317	0.0174468
776.395	0.0176128
776.473	0.0178522
776.551	0.0179559
776.629	0.0182475
776.707	0.0182401
776.785	0.0181485
776.863	0.0181339
776.942	0.0183247
777.020	0.0183889
777.098	0.0182511
777.176	0.0183855
777.254	0.0184697
777.332	0.0184462
777.410	0.0185110
777.488	0.0186099
777.567	0.0183713
777.645	0.0185674
777.723	0.0187228
777.801	0.0188261
777.879	0.0188485
777.957	0.0188400
778.035	0.0189593
778.113	0.0189799
778.192	0.0190232
778.270	0.0192361
778.348	0.0193293
778.426	0.0193941
778.504	0.0193111
778.582	0.0194090
778.660	0.0194289
778.738	0.0192979
778.817	0.0192343
778.895	0.0192947
778.973	0.0194493
779.051	0.0193443
779.129	0.0192104
779.207	0.0190462
779.285	0.0189801
779.363	0.0189651
779.442	0.0188277
779.520	0.0189048
779.598	0.0189165
779.676	0.0187163
779.754	0.0188086
779.832	0.0186593
779.910	0.0186998
779.988	0.0186920
780.067	0.0188757
780.145	0.0188126
780.223	0.0185355
780.301	0.0184754
780.379	0.0183952
780.457	0.0183085
780.535	0.0181657
780.613	0.0181769
780.692	0.0179489
780.770	0.0178634
780.848	0.0177748
780.926	0.0175282
781.004	0.0174561
781.082	0.0173473
781.160	0.0172456
781.238	0.0170513
781.317	0.0169319
781.395	0.0167295
781.473	0.0166611
781.551	0.0166609
781.629	0.0165472
781.707	0.0165105
781.785	0.0163428
781.863	0.0161578
781.942	0.0161118
782.020	0.0164010
782.098	0.0162140
782.176	0.0161617
782.254	0.0161414
782.332	0.0160430
782.410	0.0161136
782.488	0.0161991
782.567	0.0160819
782.645	0.0162817
782.723	0.0164021
782.801	0.0165358
782.879	0.0166032
782.957	0.0166563
783.035	0.0166129
783.113	0.0167916
783.192	0.0170405
783.270	0.0169791
783.348	0.0169777
783.426	0.0170210
783.504	0.0170994
783.582	0.0170459
783.660	0.0170237
783.738	0.0172326
783.817	0.0173317
783.895	0.0173721
783.973	0.0173428
784.051	0.0173632
784.129	0.0174259
784.207	0.0176283
784.285	0.0175880
784.363	0.0175204
784.442	0.0177713
784.520	0.0178634
784.598	0.0179739
784.676	0.0180701
784.754	0.0182216
784.832	0.0183903
784.910	0.0185350
784.988	0.0187518
785.067	0.0188375
785.145	0.0188837
785.223	0.0189752
785.301	0.0191403
785.379	0.0192960
785.457	0.0192935
785.535	0.0193324
785.613	0.0195226
785.692	0.0195942
785.770	0.0196010
785.848	0.0196694
785.926	0.0196622
786.004	0.0197028
786.082	0.0195626
786.160	0.0195798
786.238	0.0194736
786.317	0.0193923
786.395	0.0192879
786.473	0.0190704
786.551	0.0189232
786.629	0.0191332
786.707	0.0187851
786.785	0.0186018
786.863	0.0185046
786.942	0.0184076
787.020	0.0183585
787.098	0.0181792
787.176	0.0182240
787.254	0.0182845
787.332	0.0182182
787.410	0.0183773
787.488	0.0183097
787.567	0.0182565
787.645	0.0180803
787.723	0.0182559
787.801	0.0179094
787.879	0.0179551
787.957	0.0180518
788.035	0.0178451
788.113	0.0178228
788.192	0.0178689
788.270	0.0176226
788.348	0.0175127
788.426	0.0174406
788.504	0.0173716
788.582	0.0171613
788.660	0.0170953
788.738	0.0169511
788.817	0.0169670
788.895	0.0167738
788.973	0.0169361
789.051	0.0166454
789.129	0.0165759
789.207	0.0165946
789.285	0.0165772
789.363	0.0166006
789.442	0.0166158
789.520	0.0166642
789.598	0.0167765
789.676	0.0168276
789.754	0.0167695
789.832	0.0168922
789.910	0.0170436
789.988	0.0171259
790.067	0.0171116
790.145	0.0172256
790.223	0.0172633
790.301	0.0171913
790.379	0.0171862
790.457	0.0173098
790.535	0.0175633
790.613	0.0173862
790.692	0.0172137
790.770	0.0171360
790.848	0.0171987
790.926	0.0171368
791.004	0.0171699
791.082	0.0170446
791.160	0.0169464
791.238	0.0169896
791.317	0.0171230
791.395	0.0170069
791.473	0.0170930
791.551	0.0170667
791.629	0.0172016
791.707	0.0172549
791.785	0.0173663
791.863	0.0175466
791.942	0.0177017
792.020	0.0176956
792.098	0.0177886
792.176	0.0179449
792.254	0.0182056
792.332	0.0181831
792.410	0.0185187
792.488	0.0185705
792.567	0.0186086
792.645	0.0187492
792.723	0.0188037
792.801	0.0189004
792.879	0.0189610
792.957	0.0191396
793.035	0.0190291
793.113	0.0192093
793.192	0.0192333
793.270	0.0192180
793.348	0.0193771
793.426	0.0192677
793.504	0.0192273
793.582	0.0193826
793.660	0.0192532
793.738	0.0192487
793.817	0.0191692
793.895	0.0191917
793.973	0.0191560
794.051	0.0191002
794.129	0.0190129
794.207	0.0190437
794.285	0.0191733
794.363	0.0190981
794.442	0.0190244
794.520	0.0191416
794.598	0.0190532
794.676	0.0190398
794.754	0.0189144
794.832	0.0189722
794.910	0.0188741
794.988	0.0187325
795.067	0.0185925
795.145	0.0185909
795.223	0.0183232
795.301	0.0181953
795.379	0.0179333
795.457	0.0178305
795.535	0.0177240
795.613	0.0174472
795.692	0.0171625
795.770	0.0170174
795.848	0.0169901
795.926	0.0167592
796.004	0.0166681
796.082	0.0166970
796.160	0.0163992
796.238	0.0164209
796.317	0.0164127
796.395	0.0164350
796.473	0.0165101
796.551	0.0166225
796.629	0.0165704
796.707	0.0166679
796.785	0.0167278
796.863	0.0166254
796.942	0.0169013
797.020	0.0168226
797.098	0.0167704
797.176	0.0168164
797.254	0.0168557
797.332	0.0168951
797.410	0.0167866
797.488	0.0168237
797.567	0.0167486
797.645	0.0167666
797.723	0.0167763
797.801	0.0167500
797.879	0.0168118
797.957	0.0169520
798.035	0.0168789
798.113	0.0168414
798.192	0.0170924
798.270	0.0171449
798.348	0.0171774
798.426	0.0173730
798.504	0.0173817
798.582	0.0175070
798.660	0.0174864
798.738	0.0176965
798.817	0.0178359
798.895	0.0178506
798.973	0.0179021
799.051	0.0179479
799.129	0.0181490
799.207	0.0181354
799.285	0.0182694
799.363	0.0184027
799.442	0.0183344
799.520	0.0184408
799.598	0.0185718
799.676	0.0185594
799.754	0.0185623
799.832	0.0186298
799.910	0.0185582
799.988	0.0187251
800.067	0.0186891
800.145	0.0186250
800.223	0.0187391
800.301	0.0186654
800.379	0.0185169
800.457	0.0183777
800.535	0.0183447
800.613	0.0183884
800.692	0.0183353
800.770	0.0182287
800.848	0.0180397
800.926	0.0180556
801.004	0.0181291
801.082	0.0181544
801.160	0.0182453
801.238	0.0181631
801.317	0.0182505
801.395	0.0185943
801.473	0.0185208
801.551	0.0184313
801.629	0.0186304
801.707	0.0187144
801.785	0.0187362
801.863	0.0189697
801.942	0.0190045
802.020	0.0188643
802.098	0.0188963
802.176	0.0188819
802.254	0.0189280
802.332	0.0187742
802.410	0.0186850
802.488	0.0184791
802.567	0.0183363
802.645	0.0183264
802.723	0.0179107
802.801	0.0178751
802.879	0.0176901
802.957	0.0174652
803.035	0.0173523
803.113	0.0173533
803.192	0.0172942
803.270	0.0171875
803.348	0.0171193
803.426	0.0172779
803.504	0.0171503
803.582	0.0172971
803.660	0.0172734
803.738	0.0174017
803.817	0.0174757
803.895	0.0174407
803.973	0.0174801
804.051	0.0174078
804.129	0.0175454
804.207	0.0175105
804.285	0.0174587
804.363	0.0173248
804.442	0.0173338
804.520	0.0172152
804.598	0.0170618
804.676	0.0171284
804.754	0.0170586
804.832	0.0169707
804.910	0.0168407
804.988	0.0168395
805.067	0.0168237
805.145	0.0168456
805.223	0.0167648
805.301	0.0167043
805.379	0.0167060
805.457	0.0169457
805.535	0.0168235
805.613	0.0168837
805.692	0.0170211
805.770	0.0170536
805.848	0.0170341
805.926	0.0172386
806.004	0.0173055
806.082	0.0173043
806.160	0.0173387
806.238	0.0174382
806.317	0.0175475
806.395	0.0176057
806.473	0.0177512
806.551	0.0177730
806.629	0.0178178
806.707	0.0179073
806.785	0.0177837
806.863	0.0180564
806.942	0.0180280
807.020	0.0180735
807.098	0.0182498
807.176	0.0182658
807.254	0.0183378
807.332	0.0181373
807.410	0.0183756
807.488	0.0185503
807.567	0.0183678
807.645	0.0184884
807.723	0.0184908
807.801	0.0185095
807.879	0.0185446
807.957	0.0184310
808.035	0.0185609
808.113	0.0185487
808.192	0.0185403
808.270	0.0185695
808.348	0.0185174
808.426	0.0186444
808.504	0.0185723
808.582	0.0187076
808.660	0.0187103
808.738	0.0186527
808.817	0.0184612
808.895	0.0185201
808.973	0.0185051
809.051	0.0185589
809.129	0.0185799
809.207	0.0185401
809.285	0.0183935
809.363	0.0183386
809.442	0.0183710
809.520	0.0183784
809.598	0.0184061
809.676	0.0183593
809.754	0.0181870
809.832	0.0180747
809.910	0.0181823
809.988	0.0181443
810.067	0.0179915
810.145	0.0179505
810.223	0.0179738
810.301	0.0178528
810.379	0.0177475
810.457	0.0177533
810.535	0.0176659
810.613	0.0177029
810.692	0.0175749
810.770	0.0175492
810.848	0.0175222
810.926	0.0176197
811.004	0.0174780
811.082	0.0174725
811.160	0.0174515
811.238	0.0173313
811.317	0.0171791
811.395	0.0172973
811.473	0.0172131
811.551	0.0171497
811.629	0.0171464
811.707	0.0171590
811.785	0.0170850
811.863	0.0171361
811.942	0.0171047
812.020	0.0171268
812.098	0.0171022
812.176	0.0171909
812.254	0.0173069
812.332	0.0170892
812.410	0.0173309
812.488	0.0174605
812.567	0.0173923
812.645	0.0174624
812.723	0.0175293
812.801	0.0176288
812.879	0.0176035
812.957	0.0176005
813.035	0.0176544
813.113	0.0174767
813.192	0.0175855
813.270	0.0176864
813.348	0.0176047
813.426	0.0175488
813.504	0.0175648
813.582	0.0175329
813.660	0.0175964
813.738	0.0176342
813.817	0.0175810
813.895	0.0175255
813.973	0.0176028
814.051	0.0176677
814.129	0.0176283
814.207	0.0177020
814.285	0.0176484
814.363	0.0177740
814.442	0.0177181
814.520	0.0178232
814.598	0.0179096
814.676	0.0178119
814.754	0.0179115
814.832	0.0179759
814.910	0.0180917
814.988	0.0179679
815.067	0.0182331
815.145	0.0182398
815.223	0.0182763
815.301	0.0183617
815.379	0.0182277
815.457	0.0182358
815.535	0.0183247
815.613	0.0184138
815.692	0.0183533
815.770	0.0184379
815.848	0.0184975
815.926	0.0184430
816.004	0.0183976
816.082	0.0184269
816.160	0.0182141
816.238	0.0183260
816.317	0.0182510
816.395	0.0179630
816.473	0.0180358
816.551	0.0179733
816.629	0.0178867
816.707	0.0179932
816.785	0.0178185
816.863	0.0179507
816.942	0.0180605
817.020	0.0178627
817.098	0.0179234
817.176	0.0180098
817.254	0.0181509
817.332	0.0181611
817.410	0.0182457
817.488	0.0182826
817.567	0.0183301
817.645	0.0184811
817.723	0.0183974
817.801	0.0183639
817.879	0.0183934
817.957	0.0183311
818.035	0.0184040
818.113	0.0183585
818.192	0.0184084
818.270	0.0180428
818.348	0.0180456
818.426	0.0180453
818.504	0.0179408
818.582	0.0180082
818.660	0.0178097
818.738	0.0178129
818.817	0.0177077
818.895	0.0177407
818.973	0.0176362
819.051	0.0174563
819.129	0.0175162
819.207	0.0176250
819.285	0.0175544
819.363	0.0175576
819.442	0.0175196
819.520	0.0176343
819.598	0.0176361
819.676	0.0175826
819.754	0.0176038
819.832	0.0177350
819.910	0.0177847
819.988	0.0176773
820.067	0.0175742
820.145	0.0176495
820.223	0.0175073
820.301	0.0176627
820.379	0.0175851
820.457	0.0175128
820.535	0.0175080
820.613	0.0175365
820.692	0.0175805
820.770	0.0173504
820.848	0.0174116
820.926	0.0174477
821.004	0.0173552
821.082	0.0173970
821.160	0.0173655
821.238	0.0173865
821.317	0.0172860
821.395	0.0173862
821.473	0.0172441
821.551	0.0171989
821.629	0.0172937
821.707	0.0173701
821.785	0.0172910
821.863	0.0173287
821.942	0.0172415
822.020	0.0172482
822.098	0.0173572
822.176	0.0174396
822.254	0.0174915
822.332	0.0175290
822.410	0.0176148
822.488	0.0176874
822.567	0.0178146
822.645	0.0178115
822.723	0.0180243
822.801	0.0180202
822.879	0.0181164
822.957	0.0181541
823.035	0.0181573
823.113	0.0180267
823.192	0.0181495
823.270	0.0183810
823.348	0.0182475
823.426	0.0182401
823.504	0.0183876
823.582	0.0182543
823.660	0.0182227
823.738	0.0182919
823.817	0.0183858
823.895	0.0183823
823.973	0.0183601
824.051	0.0183545
824.129	0.0182980
824.207	0.0183060
824.285	0.0182887
824.363	0.0183328
824.442	0.0182814
824.520	0.0183890
824.598	0.0184363
824.676	0.0183759
824.754	0.0184628
824.832	0.0183918
824.910	0.0184442
824.988	0.0183894
825.067	0.0183472
825.145	0.0184097
825.223	0.0182772
825.301	0.0184830
825.379	0.0182526
825.457	0.0182993
825.535	0.0181831
825.613	0.0183604
825.692	0.0183804
825.770	0.0181947
825.848	0.0181561
825.926	0.0181757
826.004	0.0180971
826.082	0.0181861
826.160	0.0181727
826.238	0.0180811
826.317	0.0177720
826.395	0.0178809
826.473	0.0180281
826.551	0.0177724
826.629	0.0177230
826.707	0.0177038
826.785	0.0176094
826.863	0.0175275
826.942	0.0174867
827.020	0.0172666
827.098	0.0174156
827.176	0.0173490
827.254	0.0171661
827.332	0.0172783
827.410	0.0171892
827.488	0.0171998
827.567	0.0172693
827.645	0.0171944
827.723	0.0172963
827.801	0.0171976
827.879	0.0174824
827.957	0.0174274
828.035	0.0175041
828.113	0.0173500
828.192	0.0173615
828.270	0.0174647
828.348	0.0174445
828.426	0.0173554
828.504	0.0173589
828.582	0.0173250
828.660	0.0171709
828.738	0.0173078
828.817	0.0173486
828.895	0.0171871
828.973	0.0171912
829.051	0.0172614
829.129	0.0172057
829.207	0.0171629
829.285	0.0172911
829.363	0.0173433
829.442	0.0172809
829.520	0.0174419
829.598	0.0174650
829.676	0.0175361
829.754	0.0175039
829.832	0.0177013
829.910	0.0176361
829.988	0.0177128
830.067	0.0179032
830.145	0.0178870
830.223	0.0180544
830.301	0.0181705
830.379	0.0181062
830.457	0.0182153
830.535	0.0183903
830.613	0.0183044
830.692	0.0183061
830.770	0.0183106
830.848	0.0184290
830.926	0.0184021
831.004	0.0183607
831.082	0.0185186
831.160	0.0183154
831.238	0.0182712
831.317	0.0183256
831.395	0.0184130
831.473	0.0183848
831.551	0.0183184
831.629	0.0183951
831.707	0.0183075
831.785	0.0183197
831.863	0.0185825
831.942	0.0184814
832.020	0.0184860
832.098	0.0184089
832.176	0.0185098
832.254	0.0184377
832.332	0.0182410
832.410	0.0182434
832.488	0.0181554
832.567	0.0181629
832.645	0.0181120
832.723	0.0181496
832.801	0.0180985
832.879	0.0180370
832.957	0.0180402
833.035	0.0180042
833.113	0.0178586
833.192	0.0179465
833.270	0.0178546
833.348	0.0178786
833.426	0.0178833
833.504	0.0179375
833.582	0.0179411
833.660	0.0179723
833.738	0.0179684
833.817	0.0179959
833.895	0.0178812
833.973	0.0178368
834.051	0.0178989
834.129	0.0179288
834.207	0.0178347
834.285	0.0177996
834.363	0.0177208
834.442	0.0176999
834.520	0.0176022
834.598	0.0176420
834.676	0.0176620
834.754	0.0175328
834.832	0.0174677
834.910	0.0175002
834.988	0.0175392
835.067	0.0175375
835.145	0.0175160
835.223	0.0171870
835.301	0.0173903
835.379	0.0173223
835.457	0.0174191
835.535	0.0173938
835.613	0.0174104
835.692	0.0173273
835.770	0.0172009
835.848	0.0172443
835.926	0.0173575
836.004	0.0172860
836.082	0.0173642
836.160	0.0174375
836.238	0.0175036
836.317	0.0175629
836.395	0.0176152
836.473	0.0176553
836.551	0.0176742
836.629	0.0178551
836.707	0.0177028
836.785	0.0176901
836.863	0.0178679
836.942	0.0178921
837.020	0.0178850
837.098	0.0177583
837.176	0.0177187
837.254	0.0177402
837.332	0.0177743
837.410	0.0175527
837.488	0.0175879
837.567	0.0176465
837.645	0.0176915
837.723	0.0175363
837.801	0.0175359
837.879	0.0177009
837.957	0.0176147
838.035	0.0175935
838.113	0.0176945
838.192	0.0176689
838.270	0.0176955
838.348	0.0177740
838.426	0.0178830
838.504	0.0179172
838.582	0.0179140
838.660	0.0181540
838.738	0.0182409
838.817	0.0182674
838.895	0.0182700
838.973	0.0184052
839.051	0.0185799
839.129	0.0185207
839.207	0.0185651
839.285	0.0186063
839.363	0.0185218
839.442	0.0186153
839.520	0.0185767
839.598	0.0185347
839.676	0.0183692
839.754	0.0184309
839.832	0.0184203
839.910	0.0184120
839.988	0.0184448
840.067	0.0183672
840.145	0.0181218
840.223	0.0181564
840.301	0.0183358
840.379	0.0182481
840.457	0.0180672
840.535	0.0179565
840.613	0.0180843
840.692	0.0179491
840.770	0.0179266
840.848	0.0179691
840.926	0.0180779
841.004	0.0180700
841.082	0.0179140
841.160	0.0180438
841.238	0.0179959
841.317	0.0180371
841.395	0.0180096
841.473	0.0179743
841.551	0.0180547
841.629	0.0178918
841.707	0.0178844
841.785	0.0178694
841.863	0.0176676
841.942	0.0176441
842.020	0.0175780
842.098	0.0175923
842.176	0.0175523
842.254	0.0174290
842.332	0.0173602
842.410	0.0172774
842.488	0.0171037
842.567	0.0172103
842.645	0.0171338
842.723	0.0171510
842.801	0.0170622
842.879	0.0170707
842.957	0.0171021
843.035	0.0171559
843.113	0.0172758
843.192	0.0172433
843.270	0.0173680
843.348	0.0173799
843.426	0.0176450
843.504	0.0177296
843.582	0.0176407
843.660	0.0177389
843.738	0.0180555
843.817	0.0179091
843.895	0.0180650
843.973	0.0180390
844.051	0.0180956
844.129	0.0181263
844.207	0.0178585
844.285	0.0180135
844.363	0.0179404
844.442	0.0178293
844.520	0.0177731
844.598	0.0177610
844.676	0.0177631
844.754	0.0175719
844.832	0.0177144
844.910	0.0176659
844.988	0.0174644
845.067	0.0175116
845.145	0.0176417
845.223	0.0176647
845.301	0.0177221
845.379	0.0178133
845.457	0.0178132
845.535	0.0178571
845.613	0.0179755
845.692	0.0180155
845.770	0.0180763
845.848	0.0180797
845.926	0.0180576
846.004	0.0182058
846.082	0.0182127
846.160	0.0180682
846.238	0.0181312
846.317	0.0182124
846.395	0.0181359
846.473	0.0181804
846.551	0.0181635
846.629	0.0179984
846.707	0.0180563
846.785	0.0181544
846.863	0.0181231
846.942	0.0179845
847.020	0.0181627
847.098	0.0178928
847.176	0.0179720
847.254	0.0179446
847.332	0.0180193
847.410	0.0180392
847.488	0.0181001
847.567	0.0180606
847.645	0.0181283
847.723	0.0182420
847.801	0.0181203
847.879	0.0180994
847.957	0.0181142
848.035	0.0180892
848.113	0.0181151
848.192	0.0180914
848.270	0.0181709
848.348	0.0180959
848.426	0.0180630
848.504	0.0180309
848.582	0.0179617
848.660	0.0179472
848.738	0.0179773
848.817	0.0179762
848.895	0.0177831
848.973	0.0177630
849.051	0.0176653
849.129	0.0176417
849.207	0.0177448
849.285	0.0175739
849.363	0.0174741
849.442	0.0176440
849.520	0.0175764
849.598	0.0174423
849.676	0.0175266
849.754	0.0174648
849.832	0.0173502
849.910	0.0175181
849.988	0.0173620
850.067	0.0174638
850.145	0.0174728
850.223	0.0175542
850.301	0.0176629
850.379	0.0175518
850.457	0.0174921
850.535	0.0175938
850.613	0.0176881
850.692	0.0177237
850.770	0.0176364
850.848	0.0178709
850.926	0.0177222
851.004	0.0178250
851.082	0.0177792
851.160	0.0179223
851.238	0.0177595
851.317	0.0177703
851.395	0.0178087
851.473	0.0179439
851.551	0.0178465
851.629	0.0177242
851.707	0.0177746
851.785	0.0177393
851.863	0.0178764
851.942	0.0179086
852.020	0.0179424
852.098	0.0178706
852.176	0.0177834
852.254	0.0180434
852.332	0.0178777
852.410	0.0178860
852.488	0.0180402
852.567	0.0180881
852.645	0.0179871
852.723	0.0179619
852.801	0.0179942
852.879	0.0180518
852.957	0.0179885
853.035	0.0178636
853.113	0.0178361
853.192	0.0179223
853.270	0.0180128
853.348	0.0177074
853.426	0.0178346
853.504	0.0178828
853.582	0.0178257
853.660	0.0177468
853.738	0.0178737
853.817	0.0178020
853.895	0.0178039
853.973	0.0176973
854.051	0.0177493
854.129	0.0179594
854.207	0.0179592
854.285	0.0178738
854.363	0.0179486
854.442	0.0180228
854.520	0.0180289
854.598	0.0181427
854.676	0.0180722
854.754	0.0182286
854.832	0.0180997
854.910	0.0181333
854.988	0.0180839
855.067	0.0181420
855.145	0.0181281
855.223	0.0181599
855.301	0.0180498
855.379	0.0181055
855.457	0.0181046
855.535	0.0179890
855.613	0.0178659
855.692	0.0178537
855.770	0.0176694
855.848	0.0177448
855.926	0.0178049
856.004	0.0176337
856.082	0.0176031
856.160	0.0176025
856.238	0.0175890
856.317	0.0176111
856.395	0.0176342
856.473	0.0176064
856.551	0.0176595
856.629	0.0175590
856.707	0.0176707
856.785	0.0175813
856.863	0.0177744
856.942	0.0177280
857.020	0.0176668
857.098	0.0176305
857.176	0.0177991
857.254	0.0178373
857.332	0.0178524
857.410	0.0178233
857.488	0.0177792
857.567	0.0177941
857.645	0.0178857
857.723	0.0179257
857.801	0.0177686
857.879	0.0177865
857.957	0.0179749
858.035	0.0179064
858.113	0.0178411
858.192	0.0177240
858.270	0.0177833
858.348	0.0177500
858.426	0.0177939
858.504	0.0176254
858.582	0.0176683
858.660	0.0177891
858.738	0.0176810
858.817	0.0177964
858.895	0.0177719
858.973	0.0179942
859.051	0.0179348
859.129	0.0178373
859.207	0.0179948
859.285	0.0178927
859.363	0.0179604
859.442	0.0180131
859.520	0.0179694
859.598	0.0180451
859.676	0.0180920
859.754	0.0180476
859.832	0.0181358
859.910	0.0180975
859.988	0.0180615
860.067	0.0179886
860.145	0.0179840
860.223	0.0180334
860.301	0.0180535
860.379	0.0178245
860.457	0.0177303
860.535	0.0179799
860.613	0.0179366
860.692	0.0176688
860.770	0.0179061
860.848	0.0177352
860.926	0.0177292
861.004	0.0177105
861.082	0.0177204
861.160	0.0176863
861.238	0.0177282
861.317	0.0176825
861.395	0.0177882
861.473	0.0175765
861.551	0.0177912
861.629	0.0178350
861.707	0.0177957
861.785	0.0178577
861.863	0.0179225
861.942	0.0178671
862.020	0.0179684
862.098	0.0178556
862.176	0.0178368
862.254	0.0180004
862.332	0.0178563
862.410	0.0178812
862.488	0.0179018
862.567	0.0177980
862.645	0.0178491
862.723	0.0178190
862.801	0.0178337
862.879	0.0177834
862.957	0.0177824
863.035	0.0177171
863.113	0.0177400
863.192	0.0177170
863.270	0.0176557
863.348	0.0178514
863.426	0.0177579
863.504	0.0178006
863.582	0.0176655
863.660	0.0177283
863.738	0.0178378
863.817	0.0177323
863.895	0.0177832
863.973	0.0178058
864.051	0.0179475
864.129	0.0177364
864.207	0.0178796
864.285	0.0178426
864.363	0.0177398
864.442	0.0178678
864.520	0.0178535
864.598	0.0177500
864.676	0.0178542
864.754	0.0179197
864.832	0.0176955
864.910	0.0177281
864.988	0.0178494
865.067	0.0179233
865.145	0.0178445
865.223	0.0177992
865.301	0.0177778
865.379	0.0179052
865.457	0.0179693
865.535	0.0178913
865.613	0.0179636
865.692	0.0178517
865.770	0.0180709
865.848	0.0180933
865.926	0.0182195
866.004	0.0182365
866.082	0.0182082
866.160	0.0182217
866.238	0.0181417
866.317	0.0182749
866.395	0.0182829
866.473	0.0181786
866.551	0.0181742
866.629	0.0181390
866.707	0.0180785
866.785	0.0181219
866.863	0.0180865
866.942	0.0179572
867.020	0.0179098
867.098	0.0178012
867.176	0.0178048
867.254	0.0178970
867.332	0.0178481
867.410	0.0176853
867.488	0.0177680
867.567	0.0176549
867.645	0.0177209
867.723	0.0176209
867.801	0.0178063
867.879	0.0177507
867.957	0.0176149
868.035	0.0177296
868.113	0.0177705
868.192	0.0177695
868.270	0.0177414
868.348	0.0178217
868.426	0.0177429
868.504	0.0178340
868.582	0.0177917
868.660	0.0178884
868.738	0.0178394
868.817	0.0179078
868.895	0.0178277
868.973	0.0177879
869.051	0.0177682
869.129	0.0177560
869.207	0.0176028
869.285	0.0177132
869.363	0.0176601
869.442	0.0176980
869.520	0.0176791
869.598	0.0176904
869.676	0.0176369
869.754	0.0175749
869.832	0.0175793
869.910	0.0176476
869.988	0.0174743
870.067	0.0177940
870.145	0.0177145
870.223	0.0177219
870.301	0.0177771
870.379	0.0175795
870.457	0.0176346
870.535	0.0177529
870.613	0.0177837
870.692	0.0177702
870.770	0.0179153
870.848	0.0178889
870.926	0.0178611
871.004	0.0178710
871.082	0.0178668
871.160	0.0178767
871.238	0.0177856
871.317	0.0179207
871.395	0.0180373
871.473	0.0179287
871.551	0.0179066
871.629	0.0178902
871.707	0.0178540
871.785	0.0178775
871.863	0.0178096
871.942	0.0178754
872.020	0.0176031
872.098	0.0176585
872.176	0.0177004
872.254	0.0177098
872.332	0.0175204
872.410	0.0177069
872.488	0.0176782
872.567	0.0177490
872.645	0.0176994
872.723	0.0178075
872.801	0.0176900
872.879	0.0178493
872.957	0.0177942
873.035	0.0179608
873.113	0.0180209
873.192	0.0180222
873.270	0.0182593
873.348	0.0183196
873.426	0.0182706
873.504	0.0183380
873.582	0.0183591
873.660	0.0184475
873.738	0.0185973
873.817	0.0184648
873.895	0.0185029
873.973	0.0185604
874.051	0.0184774
874.129	0.0184471
874.207	0.0183715
874.285	0.0182411
874.363	0.0182085
874.442	0.0180175
874.520	0.0181004
874.598	0.0179533
874.676	0.0177567
874.754	0.0179086
874.832	0.0177465
874.910	0.0175948
874.988	0.0175150
875.067	0.0174165
875.145	0.0174009
875.223	0.0174606
875.301	0.0173322
875.379	0.0172350
875.457	0.0174337
875.535	0.0175471
875.613	0.0175353
875.692	0.0174906
875.770	0.0174332
875.848	0.0175666
875.926	0.0177338
876.004	0.0175676
876.082	0.0177046
876.160	0.0176868
876.238	0.0177493
876.317	0.0179182
876.395	0.0178416
876.473	0.0178306
876.551	0.0178571
876.629	0.0178415
876.707	0.0178257
876.785	0.0178323
876.863	0.0178781
876.942	0.0178895
877.020	0.0177070
877.098	0.0178764
877.176	0.0177329
877.254	0.0178726
877.332	0.0178816
877.410	0.0177857
877.488	0.0178514
877.567	0.0177206
877.645	0.0177178
877.723	0.0177561
877.801	0.0177446
877.879	0.0178244
877.957	0.0177945
878.035	0.0178344
878.113	0.0178413
878.192	0.0176916
878.270	0.0177056
878.348	0.0178355
878.426	0.0178098
878.504	0.0177734
878.582	0.0177771
878.660	0.0177544
878.738	0.0177296
878.817	0.0176173
878.895	0.0176997
878.973	0.0178121
879.051	0.0176260
879.129	0.0176077
879.207	0.0177737
879.285	0.0177350
879.363	0.0177215
879.442	0.0177396
879.520	0.0178267
879.598	0.0177837
879.676	0.0178841
879.754	0.0179617
879.832	0.0177974
879.910	0.0179487
879.988	0.0179417
880.067	0.0179180
880.145	0.0179172
880.223	0.0179117
880.301	0.0180950
880.379	0.0179156
880.457	0.0179520
880.535	0.0180507
880.613	0.0179665
880.692	0.0180615
880.770	0.0180629
880.848	0.0181509
880.926	0.0180469
881.004	0.0179166
881.082	0.0181254
881.160	0.0181989
881.238	0.0181323
881.317	0.0181808
881.395	0.0182775
881.473	0.0181981
881.551	0.0181598
881.629	0.0181968
881.707	0.0182143
881.785	0.0181510
881.863	0.0182182
881.942	0.0180084
882.020	0.0180678
882.098	0.0181387
882.176	0.0179725
882.254	0.0177542
882.332	0.0178092
882.410	0.0178345
882.488	0.0178086
882.567	0.0177563
882.645	0.0176229
882.723	0.0177113
882.801	0.0177156
882.879	0.0177291
882.957	0.0176205
883.035	0.0176588
883.113	0.0175092
883.192	0.0175622
883.270	0.0175448
883.348	0.0175688
883.426	0.0175747
883.504	0.0175112
883.582	0.0175504
883.660	0.0176308
883.738	0.0178223
883.817	0.0176015
883.895	0.0177071
883.973	0.0177792
884.051	0.0177008
884.129	0.0177939
884.207	0.0178344
884.285	0.0178458
884.363	0.0178587
884.442	0.0179726
884.520	0.0178607
884.598	0.0179731
884.676	0.0178164
884.754	0.0179352
884.832	0.0179566
884.910	0.0178815
884.988	0.0180156
885.067	0.0179107
885.145	0.0179943
885.223	0.0178060
885.301	0.0178345
885.379	0.0176869
885.457	0.0177885
885.535	0.0179089
885.613	0.0179546
885.692	0.0177191
885.770	0.0176150
885.848	0.0178081
885.926	0.0177805
886.004	0.0175742
886.082	0.0175814
886.160	0.0178236
886.238	0.0175424
886.317	0.0174459
886.395	0.0175755
886.473	0.0176366
886.551	0.0175448
886.629	0.0175069
886.707	0.0175928
886.785	0.0175558
886.863	0.0176583
886.942	0.0177867
887.020	0.0176674
887.098	0.0176395
887.176	0.0178739
887.254	0.0178993
887.332	0.0178484
887.410	0.0178176
887.488	0.0178002
887.567	0.0179379
887.645	0.0179998
887.723	0.0179809
887.801	0.0178348
887.879	0.0181476
887.957	0.0180790
888.035	0.0178829
888.113	0.0179780
888.192	0.0179768
888.270	0.0180812
888.348	0.0180293
888.426	0.0180980
888.504	0.0180059
888.582	0.0179691
888.660	0.0180751
888.738	0.0180627
888.817	0.0179846
888.895	0.0180038
888.973	0.0180457
889.051	0.0180023
889.129	0.0179029
889.207	0.0179343
889.285	0.0179688
889.363	0.0180429
889.442	0.0179356
889.520	0.0179878
889.598	0.0179465
889.676	0.0179253
889.754	0.0178928
889.832	0.0179551
889.910	0.0179661
889.988	0.0180826
890.067	0.0180194
890.145	0.0180469
890.223	0.0180399
890.301	0.0180095
890.379	0.0178455
890.457	0.0179533
890.535	0.0180284
890.613	0.0179624
890.692	0.0179060
890.770	0.0179704
890.848	0.0178259
890.926	0.0177913
891.004	0.0177359
891.082	0.0177737
891.160	0.0177203
891.238	0.0176640
891.317	0.0176623
891.395	0.0175745
891.473	0.0177196
891.551	0.0178326
891.629	0.0176160
891.707	0.0175601
891.785	0.0178621
891.863	0.0178606
891.942	0.0178508
892.020	0.0178895
892.098	0.0177934
892.176	0.0178627
892.254	0.0176464
892.332	0.0176390
892.410	0.0178611
892.488	0.0178861
892.567	0.0175953
892.645	0.0177366
892.723	0.0176634
892.801	0.0175780
892.879	0.0176852
892.957	0.0176423
893.035	0.0176411
893.113	0.0177418
893.192	0.0176215
893.270	0.0177965
893.348	0.0177635
893.426	0.0176713
893.504	0.0177328
893.582	0.0179295
893.660	0.0178095
893.738	0.0179452
893.817	0.0180759
893.895	0.0179907
893.973	0.0178885
894.051	0.0179184
894.129	0.0180602
894.207	0.0181113
894.285	0.0180451
894.363	0.0179432
894.442	0.0180835
894.520	0.0181187
894.598	0.0179910
894.676	0.0179105
894.754	0.0180161
894.832	0.0179846
894.910	0.0178806
894.988	0.0179784
895.067	0.0180507
895.145	0.0179500
895.223	0.0180569
895.301	0.0178955
895.379	0.0178822
895.457	0.0179568
895.535	0.0179958
895.613	0.0179436
895.692	0.0179845
895.770	0.0179051
895.848	0.0178584
895.926	0.0179082
896.004	0.0178671
896.082	0.0177641
896.160	0.0177694
896.238	0.0178410
896.317	0.0177875
896.395	0.0177994
896.473	0.0178300
896.551	0.0178758
896.629	0.0178256
896.707	0.0178611
896.785	0.0178265
896.863	0.0177779
896.942	0.0177958
897.020	0.0178289
897.098	0.0180370
897.176	0.0179175
897.254	0.0180355
897.332	0.0178944
897.410	0.0180717
897.488	0.0181335
897.567	0.0180328
897.645	0.0179427
897.723	0.0180495
897.801	0.0180178
897.879	0.0179590
897.957	0.0178913
898.035	0.0179351
898.113	0.0179866
898.192	0.0178601
898.270	0.0180109
898.348	0.0179111
898.426	0.0179558
898.504	0.0178403
898.582	0.0178834
898.660	0.0179924
898.738	0.0179074
898.817	0.0178376
898.895	0.0180109
898.973	0.0179396
899.051	0.0178982
899.129	0.0179102
899.207	0.0179024
899.285	0.0180150
899.363	0.0179992
899.442	0.0179196
899.520	0.0179121
899.598	0.0178442
899.676	0.0178399
899.754	0.0177401
899.832	0.0177513
899.910	0.0176180
899.988	0.0177821
900.067	0.0178703
900.145	0.0177094
900.223	0.0175890
900.301	0.0177428
900.379	0.0175313
900.457	0.0175018
900.535	0.0176617
900.613	0.0175810
900.692	0.0175383
900.770	0.0175430
900.848	0.0177182
900.926	0.0175412
901.004	0.0175169
901.082	0.0174049
901.160	0.0175027
901.238	0.0176867
901.317	0.0176634
901.395	0.0177704
901.473	0.0175823
901.551	0.0175583
901.629	0.0176484
901.707	0.0177164
901.785	0.0179815
901.863	0.0176871
901.942	0.0177756
902.020	0.0177856
902.098	0.0178300
902.176	0.0179613
902.254	0.0179664
902.332	0.0178487
902.410	0.0178476
902.488	0.0179317
902.567	0.0179639
902.645	0.0179950
902.723	0.0180189
902.801	0.0180376
902.879	0.0179884
902.957	0.0179935
903.035	0.0179009
903.113	0.0180023
903.192	0.0180012
903.270	0.0178383
903.348	0.0179051
903.426	0.0178510
903.504	0.0179466
903.582	0.0179580
903.660	0.0178458
903.738	0.0179314
903.817	0.0180519
903.895	0.0179518
903.973	0.0180489
904.051	0.0179176
904.129	0.0179627
904.207	0.0180123
904.285	0.0179879
904.363	0.0180264
904.442	0.0181306
904.520	0.0180611
904.598	0.0179374
904.676	0.0180334
904.754	0.0180673
904.832	0.0178690
904.910	0.0179065
904.988	0.0178265
905.067	0.0179084
905.145	0.0179005
905.223	0.0177619
905.301	0.0177016
905.379	0.0179323
905.457	0.0176913
905.535	0.0176788
905.613	0.0177200
905.692	0.0178321
905.770	0.0176858
905.848	0.0176414
905.926	0.0177395
906.004	0.0177834
906.082	0.0178911
906.160	0.0178867
906.238	0.0178471
906.317	0.0178902
906.395	0.0179250
906.473	0.0177521
906.551	0.0178640
906.629	0.0178741
906.707	0.0179091
906.785	0.0179562
906.863	0.0179623
906.942	0.0177323
907.020	0.0180048
907.098	0.0178588
907.176	0.0177518
907.254	0.0178458
907.332	0.0176585
907.410	0.0177486
907.488	0.0178051
907.567	0.0177721
907.645	0.0178104
907.723	0.0178267
907.801	0.0177010
907.879	0.0179049
907.957	0.0179721
908.035	0.0178612
908.113	0.0179131
908.192	0.0177832
908.270	0.0177431
908.348	0.0178075
908.426	0.0177267
908.504	0.0178020
908.582	0.0179211
908.660	0.0178341
908.738	0.0177431
908.817	0.0178741
908.895	0.0177811
908.973	0.0178759
909.051	0.0177662
909.129	0.0178500
909.207	0.0176313
909.285	0.0178450
909.363	0.0176137
909.442	0.0175967
909.520	0.0176080
909.598	0.0177914
909.676	0.0175959
909.754	0.0176548
909.832	0.0176189
909.910	0.0176133
909.988	0.0175874
910.067	0.0176234
910.145	0.0177287
910.223	0.0176424
910.301	0.0175296
910.379	0.0177171
910.457	0.0177386
910.535	0.0178197
910.613	0.0177769
910.692	0.0179169
910.770	0.0178366
910.848	0.0179180
910.926	0.0179964
911.004	0.0178946
911.082	0.0180714
911.160	0.0180479
911.238	0.0179982
911.317	0.0180820
911.395	0.0181074
911.473	0.0180821
911.551	0.0181645
911.629	0.0180632
911.707	0.0179840
911.785	0.0180333
911.863	0.0180446
911.942	0.0181529
912.020	0.0180532
912.098	0.0178575
912.176	0.0178581
912.254	0.0179080
912.332	0.0178019
912.410	0.0178752
912.488	0.0177415
912.567	0.0177592
912.645	0.0178447
912.723	0.0176183
912.801	0.0175954
912.879	0.0177763
912.957	0.0177692
913.035	0.0178650
913.113	0.0177775
913.192	0.0176381
913.270	0.0177186
913.348	0.0178693
913.426	0.0178338
913.504	0.0178753
913.582	0.0178005
913.660	0.0177194
913.738	0.0178229
913.817	0.0178751
913.895	0.0177980
913.973	0.0179545
914.051	0.0180160
914.129	0.0180463
914.207	0.0177684
914.285	0.0178899
914.363	0.0179922
914.442	0.0180257
914.520	0.0179949
914.598	0.0179892
914.676	0.0180539
914.754	0.0180788
914.832	0.0180594
914.910	0.0179462
914.988	0.0181079
915.067	0.0181859
915.145	0.0180444
915.223	0.0180521
915.301	0.0181098
915.379	0.0182295
915.457	0.0181255
915.535	0.0179308
915.613	0.0179906
915.692	0.0179201
915.770	0.0179732
915.848	0.0179402
915.926	0.0178008
916.004	0.0179099
916.082	0.0178601
916.160	0.0178637
916.238	0.0179308
916.317	0.0176872
916.395	0.0176836
916.473	0.0177116
916.551	0.0178346
916.629	0.0175549
916.707	0.0176651
916.785	0.0175581
916.863	0.0176084
916.942	0.0175592
917.020	0.0176501
917.098	0.0177216
917.176	0.0175731
917.254	0.0175202
917.332	0.0175990
917.410	0.0176649
917.488	0.0177416
917.567	0.0175742
917.645	0.0177470
917.723	0.0177972
917.801	0.0177243
917.879	0.0176789
917.957	0.0176717
918.035	0.0179311
918.113	0.0177731
918.192	0.0178416
918.270	0.0178662
918.348	0.0178954
918.426	0.0178306
918.504	0.0179595
918.582	0.0178253
918.660	0.0179316
918.738	0.0178852
918.817	0.0180132
918.895	0.0179237
918.973	0.0179226
919.051	0.0177943
919.129	0.0179435
919.207	0.0179280
919.285	0.0178223
919.363	0.0179121
919.442	0.0179632
919.520	0.0179723
919.598	0.0178992
919.676	0.0179395
919.754	0.0178414
919.832	0.0179523
919.910	0.0180169
