06/01/2022	21:54:28	Ver.	4.1	UNKNOWN
Optical Delay	599.988409	Delta X		0.078125	Sweeps	1	Scan Rate	0/0
Coordinates	Axis 1	NaN	Axis 2	NaN	Axis 3	NaN	Axis 4	NaN	Axis 5	NaN	Axis 6	0.000000
TX Power	0.000000	RX Power	0.000000

599.988	0.0181287
600.067	0.0181945
600.145	0.0180860
600.223	0.0181907
600.301	0.0181033
600.379	0.0181411
600.457	0.0181940
600.535	0.0181790
600.613	0.0180751
600.692	0.0181120
600.770	0.0181573
600.848	0.0180387
600.926	0.0181136
601.004	0.0181663
601.082	0.0181657
601.160	0.0179872
601.238	0.0180923
601.317	0.0181262
601.395	0.0181463
601.473	0.0181264
601.551	0.0180235
601.629	0.0182554
601.707	0.0181186
601.785	0.0180598
601.863	0.0179327
601.942	0.0179444
602.020	0.0180372
602.098	0.0181573
602.176	0.0181271
602.254	0.0182262
602.332	0.0180830
602.410	0.0180812
602.488	0.0180644
602.567	0.0179979
602.645	0.0180291
602.723	0.0181319
602.801	0.0181796
602.879	0.0182049
602.957	0.0180575
603.035	0.0181189
603.113	0.0182492
603.192	0.0181234
603.270	0.0181976
603.348	0.0180311
603.426	0.0181937
603.504	0.0181521
603.582	0.0181789
603.660	0.0181062
603.738	0.0181734
603.817	0.0182008
603.895	0.0181631
603.973	0.0180801
604.051	0.0181763
604.129	0.0182585
604.207	0.0182562
604.285	0.0181382
604.363	0.0181018
604.442	0.0181088
604.520	0.0181416
604.598	0.0181680
604.676	0.0180032
604.754	0.0181131
604.832	0.0182056
604.910	0.0182312
604.988	0.0180536
605.067	0.0180157
605.145	0.0181619
605.223	0.0181641
605.301	0.0179751
605.379	0.0180364
605.457	0.0181186
605.535	0.0181636
605.613	0.0181138
605.692	0.0181175
605.770	0.0180691
605.848	0.0182559
605.926	0.0181339
606.004	0.0182795
606.082	0.0180934
606.160	0.0181164
606.238	0.0180473
606.317	0.0181274
606.395	0.0183587
606.473	0.0182009
606.551	0.0182399
606.629	0.0183211
606.707	0.0181846
606.785	0.0181065
606.863	0.0181654
606.942	0.0181566
607.020	0.0182794
607.098	0.0182639
607.176	0.0181757
607.254	0.0182289
607.332	0.0181200
607.410	0.0181342
607.488	0.0181171
607.567	0.0182465
607.645	0.0181158
607.723	0.0180523
607.801	0.0181535
607.879	0.0182198
607.957	0.0181492
608.035	0.0181064
608.113	0.0179972
608.192	0.0182043
608.270	0.0181231
608.348	0.0182203
608.426	0.0182231
608.504	0.0181084
608.582	0.0182468
608.660	0.0181342
608.738	0.0181286
608.817	0.0181782
608.895	0.0182098
608.973	0.0180834
609.051	0.0180302
609.129	0.0179948
609.207	0.0181377
609.285	0.0182138
609.363	0.0180119
609.442	0.0181026
609.520	0.0181901
609.598	0.0180875
609.676	0.0182014
609.754	0.0182057
609.832	0.0181161
609.910	0.0179362
609.988	0.0180383
610.067	0.0181480
610.145	0.0180685
610.223	0.0180867
610.301	0.0182408
610.379	0.0182000
610.457	0.0180710
610.535	0.0180626
610.613	0.0180103
610.692	0.0181631
610.770	0.0179962
610.848	0.0180205
610.926	0.0180532
611.004	0.0181384
611.082	0.0182331
611.160	0.0181569
611.238	0.0181274
611.317	0.0179164
611.395	0.0181647
611.473	0.0181431
611.551	0.0181767
611.629	0.0181022
611.707	0.0181904
611.785	0.0181886
611.863	0.0180032
611.942	0.0180343
612.020	0.0181754
612.098	0.0181938
612.176	0.0182265
612.254	0.0180533
612.332	0.0181892
612.410	0.0180676
612.488	0.0181162
612.567	0.0181199
612.645	0.0180213
612.723	0.0181420
612.801	0.0180156
612.879	0.0179683
612.957	0.0180774
613.035	0.0181793
613.113	0.0181610
613.192	0.0181829
613.270	0.0181046
613.348	0.0181815
613.426	0.0180972
613.504	0.0180423
613.582	0.0181649
613.660	0.0182003
613.738	0.0181303
613.817	0.0181209
613.895	0.0181092
613.973	0.0182274
614.051	0.0181350
614.129	0.0181712
614.207	0.0180763
614.285	0.0182133
614.363	0.0182050
614.442	0.0181479
614.520	0.0181826
614.598	0.0181235
614.676	0.0180859
614.754	0.0182059
614.832	0.0181979
614.910	0.0181491
614.988	0.0180540
615.067	0.0181460
615.145	0.0181358
615.223	0.0181821
615.301	0.0182800
615.379	0.0182230
615.457	0.0182320
615.535	0.0180110
615.613	0.0181199
615.692	0.0180991
615.770	0.0182687
615.848	0.0180920
615.926	0.0181216
616.004	0.0179099
616.082	0.0179755
616.160	0.0181322
616.238	0.0180133
616.317	0.0180866
616.395	0.0179890
616.473	0.0181641
616.551	0.0179957
616.629	0.0181357
616.707	0.0179997
616.785	0.0180460
616.863	0.0181770
616.942	0.0182256
617.020	0.0180774
617.098	0.0179749
617.176	0.0179761
617.254	0.0181268
617.332	0.0182368
617.410	0.0180172
617.488	0.0180531
617.567	0.0180877
617.645	0.0180958
617.723	0.0181139
617.801	0.0180704
617.879	0.0181404
617.957	0.0179767
618.035	0.0180560
618.113	0.0181345
618.192	0.0180229
618.270	0.0180043
618.348	0.0181385
618.426	0.0181209
618.504	0.0180484
618.582	0.0181544
618.660	0.0181194
618.738	0.0181517
618.817	0.0182458
618.895	0.0181525
618.973	0.0181194
619.051	0.0181335
619.129	0.0182152
619.207	0.0181026
619.285	0.0181820
619.363	0.0183118
619.442	0.0181972
619.520	0.0180858
619.598	0.0180215
619.676	0.0180424
619.754	0.0182343
619.832	0.0182451
619.910	0.0180311
619.988	0.0182064
620.067	0.0180226
620.145	0.0181725
620.223	0.0181528
620.301	0.0180378
620.379	0.0182754
620.457	0.0181905
620.535	0.0182504
620.613	0.0182766
620.692	0.0179382
620.770	0.0181551
620.848	0.0182230
620.926	0.0182767
621.004	0.0180525
621.082	0.0181020
621.160	0.0181573
621.238	0.0180605
621.317	0.0182694
621.395	0.0182360
621.473	0.0180794
621.551	0.0181580
621.629	0.0182101
621.707	0.0181268
621.785	0.0180033
621.863	0.0180735
621.942	0.0181821
622.020	0.0179861
622.098	0.0180123
622.176	0.0182406
622.254	0.0181960
622.332	0.0180544
622.410	0.0181612
622.488	0.0182049
622.567	0.0182520
622.645	0.0181753
622.723	0.0182472
622.801	0.0181799
622.879	0.0181801
622.957	0.0180804
623.035	0.0182578
623.113	0.0181220
623.192	0.0182152
623.270	0.0181732
623.348	0.0182625
623.426	0.0179947
623.504	0.0181689
623.582	0.0183260
623.660	0.0181322
623.738	0.0181889
623.817	0.0180559
623.895	0.0182227
623.973	0.0181631
624.051	0.0181600
624.129	0.0182076
624.207	0.0181371
624.285	0.0180903
624.363	0.0182127
624.442	0.0181394
624.520	0.0181756
624.598	0.0182256
624.676	0.0183067
624.754	0.0183089
624.832	0.0181442
624.910	0.0182088
624.988	0.0182325
625.067	0.0181547
625.145	0.0181881
625.223	0.0183162
625.301	0.0181551
625.379	0.0182372
625.457	0.0183195
625.535	0.0181979
625.613	0.0182159
625.692	0.0181078
625.770	0.0180207
625.848	0.0180582
625.926	0.0181748
626.004	0.0180556
626.082	0.0180473
626.160	0.0181122
626.238	0.0181124
626.317	0.0181567
626.395	0.0181973
626.473	0.0182193
626.551	0.0181362
626.629	0.0182331
626.707	0.0181490
626.785	0.0182475
626.863	0.0182187
626.942	0.0183199
627.020	0.0183559
627.098	0.0183840
627.176	0.0182838
627.254	0.0182787
627.332	0.0181452
627.410	0.0182522
627.488	0.0180919
627.567	0.0181505
627.645	0.0181840
627.723	0.0182901
627.801	0.0181319
627.879	0.0181202
627.957	0.0179663
628.035	0.0180313
628.113	0.0179420
628.192	0.0179505
628.270	0.0181036
628.348	0.0179897
628.426	0.0181882
628.504	0.0182818
628.582	0.0181259
628.660	0.0182706
628.738	0.0183250
628.817	0.0183142
628.895	0.0182446
628.973	0.0181882
629.051	0.0182749
629.129	0.0182212
629.207	0.0181088
629.285	0.0181349
629.363	0.0180229
629.442	0.0180723
629.520	0.0179889
629.598	0.0180303
629.676	0.0180345
629.754	0.0180844
629.832	0.0181183
629.910	0.0181193
629.988	0.0180944
630.067	0.0182556
630.145	0.0180841
630.223	0.0181850
630.301	0.0180291
630.379	0.0180722
630.457	0.0181455
630.535	0.0182500
630.613	0.0181535
630.692	0.0181860
630.770	0.0180773
630.848	0.0182513
630.926	0.0180985
631.004	0.0179709
631.082	0.0180544
631.160	0.0181754
631.238	0.0182159
631.317	0.0181358
631.395	0.0180007
631.473	0.0179455
631.551	0.0181046
631.629	0.0180906
631.707	0.0180872
631.785	0.0181026
631.863	0.0180263
631.942	0.0180786
632.020	0.0179688
632.098	0.0180949
632.176	0.0179548
632.254	0.0179038
632.332	0.0182808
632.410	0.0180476
632.488	0.0180261
632.567	0.0181038
632.645	0.0180772
632.723	0.0181843
632.801	0.0182365
632.879	0.0181310
632.957	0.0181164
633.035	0.0182188
633.113	0.0181915
633.192	0.0182867
633.270	0.0182643
633.348	0.0182851
633.426	0.0181415
633.504	0.0180841
633.582	0.0180394
633.660	0.0180791
633.738	0.0179906
633.817	0.0178188
633.895	0.0177872
633.973	0.0181284
634.051	0.0178278
634.129	0.0178967
634.207	0.0179637
634.285	0.0180219
634.363	0.0181335
634.442	0.0181075
634.520	0.0181514
634.598	0.0183663
634.676	0.0182776
634.754	0.0183147
634.832	0.0181835
634.910	0.0183176
634.988	0.0182835
635.067	0.0182064
635.145	0.0182596
635.223	0.0181056
635.301	0.0180637
635.379	0.0181408
635.457	0.0180318
635.535	0.0180869
635.613	0.0179994
635.692	0.0178658
635.770	0.0178968
635.848	0.0180368
635.926	0.0180654
636.004	0.0181276
636.082	0.0180388
636.160	0.0179805
636.238	0.0181724
636.317	0.0180772
636.395	0.0181631
636.473	0.0181859
636.551	0.0182340
636.629	0.0182868
636.707	0.0182582
636.785	0.0182748
636.863	0.0182986
636.942	0.0181544
637.020	0.0183246
637.098	0.0182130
637.176	0.0180904
637.254	0.0180425
637.332	0.0181059
637.410	0.0180342
637.488	0.0181123
637.567	0.0181180
637.645	0.0179693
637.723	0.0178755
637.801	0.0180344
637.879	0.0180504
637.957	0.0181464
638.035	0.0181749
638.113	0.0181210
638.192	0.0181586
638.270	0.0181184
638.348	0.0181012
638.426	0.0181390
638.504	0.0181033
638.582	0.0181502
638.660	0.0180434
638.738	0.0181660
638.817	0.0181908
638.895	0.0180659
638.973	0.0182467
639.051	0.0182509
639.129	0.0183183
639.207	0.0182647
639.285	0.0181297
639.363	0.0182857
639.442	0.0181512
639.520	0.0182006
639.598	0.0181492
639.676	0.0179977
639.754	0.0179031
639.832	0.0180580
639.910	0.0180727
639.988	0.0181126
640.067	0.0179861
640.145	0.0180183
640.223	0.0181046
640.301	0.0180441
640.379	0.0181190
640.457	0.0182125
640.535	0.0181360
640.613	0.0182458
640.692	0.0180868
640.770	0.0180897
640.848	0.0181438
640.926	0.0182578
641.004	0.0181309
641.082	0.0180387
641.160	0.0181679
641.238	0.0182868
641.317	0.0181991
641.395	0.0182923
641.473	0.0180849
641.551	0.0181436
641.629	0.0181598
641.707	0.0181317
641.785	0.0179685
641.863	0.0180507
641.942	0.0181177
642.020	0.0180565
642.098	0.0181314
642.176	0.0181672
642.254	0.0180072
642.332	0.0180653
642.410	0.0180937
642.488	0.0181049
642.567	0.0179458
642.645	0.0180502
642.723	0.0180431
642.801	0.0181118
642.879	0.0180737
642.957	0.0180569
643.035	0.0181981
643.113	0.0182069
643.192	0.0181433
643.270	0.0181014
643.348	0.0181160
643.426	0.0180524
643.504	0.0181805
643.582	0.0182733
643.660	0.0181545
643.738	0.0181353
643.817	0.0182800
643.895	0.0182267
643.973	0.0182646
644.051	0.0181713
644.129	0.0182982
644.207	0.0183048
644.285	0.0181334
644.363	0.0182141
644.442	0.0182278
644.520	0.0181924
644.598	0.0181023
644.676	0.0181148
644.754	0.0180840
644.832	0.0179980
644.910	0.0178874
644.988	0.0179556
645.067	0.0179961
645.145	0.0178098
645.223	0.0179623
645.301	0.0178455
645.379	0.0178692
645.457	0.0179858
645.535	0.0180398
645.613	0.0180795
645.692	0.0182429
645.770	0.0183043
645.848	0.0183670
645.926	0.0183579
646.004	0.0182725
646.082	0.0183780
646.160	0.0183691
646.238	0.0183154
646.317	0.0183720
646.395	0.0181960
646.473	0.0182526
646.551	0.0181026
646.629	0.0179227
646.707	0.0179783
646.785	0.0179268
646.863	0.0178410
646.942	0.0177618
647.020	0.0176971
647.098	0.0178069
647.176	0.0179031
647.254	0.0178681
647.332	0.0177312
647.410	0.0179652
647.488	0.0180151
647.567	0.0181083
647.645	0.0182035
647.723	0.0180962
647.801	0.0180386
647.879	0.0182615
647.957	0.0182611
648.035	0.0183260
648.113	0.0183724
648.192	0.0183054
648.270	0.0182879
648.348	0.0183178
648.426	0.0183675
648.504	0.0182967
648.582	0.0183852
648.660	0.0182357
648.738	0.0180196
648.817	0.0180886
648.895	0.0179720
648.973	0.0179058
649.051	0.0178748
649.129	0.0177651
649.207	0.0178412
649.285	0.0178506
649.363	0.0178484
649.442	0.0178249
649.520	0.0178172
649.598	0.0181094
649.676	0.0181151
649.754	0.0182404
649.832	0.0181483
649.910	0.0182784
649.988	0.0183472
650.067	0.0183832
650.145	0.0184434
650.223	0.0184162
650.301	0.0183257
650.379	0.0183784
650.457	0.0182645
650.535	0.0183270
650.613	0.0181982
650.692	0.0181101
650.770	0.0180754
650.848	0.0182296
650.926	0.0180241
651.004	0.0179426
651.082	0.0178915
651.160	0.0179492
651.238	0.0180284
651.317	0.0180545
651.395	0.0179758
651.473	0.0178350
651.551	0.0181550
651.629	0.0182537
651.707	0.0181602
651.785	0.0181184
651.863	0.0182572
651.942	0.0181947
652.020	0.0182195
652.098	0.0181629
652.176	0.0181573
652.254	0.0180735
652.332	0.0180634
652.410	0.0181611
652.488	0.0181261
652.567	0.0180934
652.645	0.0180402
652.723	0.0182086
652.801	0.0181475
652.879	0.0180634
652.957	0.0181279
653.035	0.0182534
653.113	0.0180180
653.192	0.0181238
653.270	0.0180891
653.348	0.0181238
653.426	0.0181038
653.504	0.0180879
653.582	0.0180996
653.660	0.0181372
653.738	0.0181395
653.817	0.0182757
653.895	0.0181505
653.973	0.0181498
654.051	0.0181408
654.129	0.0180753
654.207	0.0180216
654.285	0.0179777
654.363	0.0180054
654.442	0.0180115
654.520	0.0179514
654.598	0.0179520
654.676	0.0179790
654.754	0.0180701
654.832	0.0180700
654.910	0.0180914
654.988	0.0181699
655.067	0.0181553
655.145	0.0182219
655.223	0.0182176
655.301	0.0182893
655.379	0.0182285
655.457	0.0183339
655.535	0.0182897
655.613	0.0183908
655.692	0.0183640
655.770	0.0182641
655.848	0.0182804
655.926	0.0181668
656.004	0.0181900
656.082	0.0180920
656.160	0.0180402
656.238	0.0179506
656.317	0.0180960
656.395	0.0179453
656.473	0.0178429
656.551	0.0180547
656.629	0.0179671
656.707	0.0179886
656.785	0.0180257
656.863	0.0180734
656.942	0.0181160
657.020	0.0181870
657.098	0.0182429
657.176	0.0181549
657.254	0.0181818
657.332	0.0182582
657.410	0.0183170
657.488	0.0184280
657.567	0.0182358
657.645	0.0181571
657.723	0.0182954
657.801	0.0183271
657.879	0.0181753
657.957	0.0182723
658.035	0.0182045
658.113	0.0181367
658.192	0.0178853
658.270	0.0179909
658.348	0.0179977
658.426	0.0178275
658.504	0.0177183
658.582	0.0176538
658.660	0.0178041
658.738	0.0179737
658.817	0.0179288
658.895	0.0177003
658.973	0.0177957
659.051	0.0179543
659.129	0.0180592
659.207	0.0182332
659.285	0.0182637
659.363	0.0184041
659.442	0.0183669
659.520	0.0184587
659.598	0.0184042
659.676	0.0185124
659.754	0.0185368
659.832	0.0184041
659.910	0.0183359
659.988	0.0184312
660.067	0.0183115
660.145	0.0181739
660.223	0.0181796
660.301	0.0181346
660.379	0.0180409
660.457	0.0179650
660.535	0.0180151
660.613	0.0179637
660.692	0.0179606
660.770	0.0178410
660.848	0.0178419
660.926	0.0178074
661.004	0.0178633
661.082	0.0179678
661.160	0.0180448
661.238	0.0180424
661.317	0.0179613
661.395	0.0180545
661.473	0.0180057
661.551	0.0181474
661.629	0.0181707
661.707	0.0181332
661.785	0.0182089
661.863	0.0181232
661.942	0.0182565
662.020	0.0181509
662.098	0.0180815
662.176	0.0182172
662.254	0.0183258
662.332	0.0180666
662.410	0.0181657
662.488	0.0181743
662.567	0.0180186
662.645	0.0180380
662.723	0.0180177
662.801	0.0180532
662.879	0.0178653
662.957	0.0180264
663.035	0.0180956
663.113	0.0180029
663.192	0.0179598
663.270	0.0179951
663.348	0.0180538
663.426	0.0181731
663.504	0.0182150
663.582	0.0182521
663.660	0.0183105
663.738	0.0182173
663.817	0.0181519
663.895	0.0182504
663.973	0.0184246
664.051	0.0183288
664.129	0.0183112
664.207	0.0183550
664.285	0.0181808
664.363	0.0181153
664.442	0.0181937
664.520	0.0180350
664.598	0.0179996
664.676	0.0180132
664.754	0.0180159
664.832	0.0180925
664.910	0.0179546
664.988	0.0179249
665.067	0.0179440
665.145	0.0179675
665.223	0.0179491
665.301	0.0180174
665.379	0.0180906
665.457	0.0179911
665.535	0.0180061
665.613	0.0180344
665.692	0.0180587
665.770	0.0181070
665.848	0.0181335
665.926	0.0181535
666.004	0.0181383
666.082	0.0181383
666.160	0.0181275
666.238	0.0181053
666.317	0.0182059
666.395	0.0182433
666.473	0.0180875
666.551	0.0181000
666.629	0.0181774
666.707	0.0180870
666.785	0.0181009
666.863	0.0181255
666.942	0.0181541
667.020	0.0180090
667.098	0.0180448
667.176	0.0181889
667.254	0.0182069
667.332	0.0180499
667.410	0.0182151
667.488	0.0181898
667.567	0.0181394
667.645	0.0182819
667.723	0.0181929
667.801	0.0181819
667.879	0.0182240
667.957	0.0182042
668.035	0.0182631
668.113	0.0183255
668.192	0.0181532
668.270	0.0182530
668.348	0.0181133
668.426	0.0180166
668.504	0.0181822
668.582	0.0181179
668.660	0.0181596
668.738	0.0180784
668.817	0.0180570
668.895	0.0181557
668.973	0.0180991
669.051	0.0180138
669.129	0.0179572
669.207	0.0180296
669.285	0.0180043
669.363	0.0179991
669.442	0.0180395
669.520	0.0179339
669.598	0.0179684
669.676	0.0179781
669.754	0.0179398
669.832	0.0179813
669.910	0.0180185
669.988	0.0180137
670.067	0.0182351
670.145	0.0180244
670.223	0.0180667
670.301	0.0181322
670.379	0.0181421
670.457	0.0181561
670.535	0.0182632
670.613	0.0181909
670.692	0.0184224
670.770	0.0183558
670.848	0.0183323
670.926	0.0182556
671.004	0.0182008
671.082	0.0181832
671.160	0.0181640
671.238	0.0181849
671.317	0.0181641
671.395	0.0181762
671.473	0.0180763
671.551	0.0180002
671.629	0.0179355
671.707	0.0180977
671.785	0.0178864
671.863	0.0179843
671.942	0.0180966
672.020	0.0179202
672.098	0.0180518
672.176	0.0180046
672.254	0.0180540
672.332	0.0178934
672.410	0.0180486
672.488	0.0180192
672.567	0.0180632
672.645	0.0180850
672.723	0.0181516
672.801	0.0181269
672.879	0.0181344
672.957	0.0181104
673.035	0.0181345
673.113	0.0182787
673.192	0.0182365
673.270	0.0183814
673.348	0.0182497
673.426	0.0183711
673.504	0.0184878
673.582	0.0182480
673.660	0.0181300
673.738	0.0182664
673.817	0.0181413
673.895	0.0180791
673.973	0.0181388
674.051	0.0181406
674.129	0.0178523
674.207	0.0178485
674.285	0.0179543
674.363	0.0180518
674.442	0.0177845
674.520	0.0178785
674.598	0.0178986
674.676	0.0180845
674.754	0.0178661
674.832	0.0179100
674.910	0.0179018
674.988	0.0180948
675.067	0.0181328
675.145	0.0180524
675.223	0.0180007
675.301	0.0180955
675.379	0.0181456
675.457	0.0181611
675.535	0.0182348
675.613	0.0180714
675.692	0.0180268
675.770	0.0182159
675.848	0.0181203
675.926	0.0181637
676.004	0.0183366
676.082	0.0181605
676.160	0.0182645
676.238	0.0184132
676.317	0.0183645
676.395	0.0185292
676.473	0.0184670
676.551	0.0185064
676.629	0.0185947
676.707	0.0185379
676.785	0.0183327
676.863	0.0181796
676.942	0.0182014
677.020	0.0180638
677.098	0.0178725
677.176	0.0178635
677.254	0.0177075
677.332	0.0175945
677.410	0.0174794
677.488	0.0174222
677.567	0.0173967
677.645	0.0174133
677.723	0.0173737
677.801	0.0171560
677.879	0.0172521
677.957	0.0175018
678.035	0.0173645
678.113	0.0174754
678.192	0.0175124
678.270	0.0176783
678.348	0.0177563
678.426	0.0180048
678.504	0.0182301
678.582	0.0181799
678.660	0.0185884
678.738	0.0186780
678.817	0.0188222
678.895	0.0188832
678.973	0.0191015
679.051	0.0193993
679.129	0.0194443
679.207	0.0194129
679.285	0.0193835
679.363	0.0194679
679.442	0.0195004
679.520	0.0194456
679.598	0.0192790
679.676	0.0191029
679.754	0.0189890
679.832	0.0187738
679.910	0.0184423
679.988	0.0182514
680.067	0.0178886
680.145	0.0175631
680.223	0.0174079
680.301	0.0173164
680.379	0.0168877
680.457	0.0168364
680.535	0.0167952
680.613	0.0165793
680.692	0.0164843
680.770	0.0165780
680.848	0.0165817
680.926	0.0165212
681.004	0.0166373
681.082	0.0166462
681.160	0.0168058
681.238	0.0170633
681.317	0.0171689
681.395	0.0175024
681.473	0.0176955
681.551	0.0179915
681.629	0.0181754
681.707	0.0184208
681.785	0.0187880
681.863	0.0192670
681.942	0.0193920
682.020	0.0196687
682.098	0.0199466
682.176	0.0200777
682.254	0.0203075
682.332	0.0203648
682.410	0.0202902
682.488	0.0201319
682.567	0.0201157
682.645	0.0199161
682.723	0.0196740
682.801	0.0194389
682.879	0.0191673
682.957	0.0190589
683.035	0.0185685
683.113	0.0181696
683.192	0.0178307
683.270	0.0173920
683.348	0.0171611
683.426	0.0169241
683.504	0.0164571
683.582	0.0161693
683.660	0.0159282
683.738	0.0157543
683.817	0.0156336
683.895	0.0152630
683.973	0.0152655
684.051	0.0153675
684.129	0.0154275
684.207	0.0156980
684.285	0.0158523
684.363	0.0163014
684.442	0.0166060
684.520	0.0170250
684.598	0.0175234
684.676	0.0179805
684.754	0.0184064
684.832	0.0190141
684.910	0.0194782
684.988	0.0198664
685.067	0.0202710
685.145	0.0206206
685.223	0.0209509
685.301	0.0209975
685.379	0.0211369
685.457	0.0212002
685.535	0.0213382
685.613	0.0212856
685.692	0.0209745
685.770	0.0206940
685.848	0.0206442
685.926	0.0202066
686.004	0.0199458
686.082	0.0195413
686.160	0.0190724
686.238	0.0186353
686.317	0.0179719
686.395	0.0174901
686.473	0.0170447
686.551	0.0165957
686.629	0.0160435
686.707	0.0155955
686.785	0.0153355
686.863	0.0151493
686.942	0.0149232
687.020	0.0149609
687.098	0.0148118
687.176	0.0150693
687.254	0.0150689
687.332	0.0154033
687.410	0.0157254
687.488	0.0159959
687.567	0.0163470
687.645	0.0169180
687.723	0.0171565
687.801	0.0177351
687.879	0.0181167
687.957	0.0183276
688.035	0.0186884
688.113	0.0189651
688.192	0.0193950
688.270	0.0195422
688.348	0.0197636
688.426	0.0199837
688.504	0.0200449
688.582	0.0201765
688.660	0.0202490
688.738	0.0200370
688.817	0.0200194
688.895	0.0201004
688.973	0.0198352
689.051	0.0196875
689.129	0.0195058
689.207	0.0192480
689.285	0.0189758
689.363	0.0187376
689.442	0.0185819
689.520	0.0186098
689.598	0.0182692
689.676	0.0181257
689.754	0.0180670
689.832	0.0179817
689.910	0.0177070
689.988	0.0176452
690.067	0.0178360
690.145	0.0178340
690.223	0.0177098
690.301	0.0178367
690.379	0.0177075
690.457	0.0177898
690.535	0.0175874
690.613	0.0176097
690.692	0.0175415
690.770	0.0176199
690.848	0.0173741
690.926	0.0172403
691.004	0.0172115
691.082	0.0169920
691.160	0.0169643
691.238	0.0168165
691.317	0.0168967
691.395	0.0167751
691.473	0.0166712
691.551	0.0166347
691.629	0.0168604
691.707	0.0170647
691.785	0.0169577
691.863	0.0171049
691.942	0.0173611
692.020	0.0172451
692.098	0.0172994
692.176	0.0174040
692.254	0.0175620
692.332	0.0176517
692.410	0.0177629
692.488	0.0179695
692.567	0.0181627
692.645	0.0183955
692.723	0.0185192
692.801	0.0187192
692.879	0.0189895
692.957	0.0192795
693.035	0.0194431
693.113	0.0195566
693.192	0.0196127
693.270	0.0197516
693.348	0.0199550
693.426	0.0198138
693.504	0.0198086
693.582	0.0199297
693.660	0.0196506
693.738	0.0197112
693.817	0.0194228
693.895	0.0195324
693.973	0.0195496
694.051	0.0194527
694.129	0.0192586
694.207	0.0192216
694.285	0.0191488
694.363	0.0190382
694.442	0.0188663
694.520	0.0187817
694.598	0.0185815
694.676	0.0184613
694.754	0.0182274
694.832	0.0181210
694.910	0.0179517
694.988	0.0177589
695.067	0.0173629
695.145	0.0171445
695.223	0.0170052
695.301	0.0167774
695.379	0.0164915
695.457	0.0162415
695.535	0.0160046
695.613	0.0158922
695.692	0.0157640
695.770	0.0157478
695.848	0.0157163
695.926	0.0156413
696.004	0.0158054
696.082	0.0155960
696.160	0.0157304
696.238	0.0158791
696.317	0.0157976
696.395	0.0159287
696.473	0.0162283
696.551	0.0164317
696.629	0.0166300
696.707	0.0169455
696.785	0.0170927
696.863	0.0173634
696.942	0.0178391
697.020	0.0181816
697.098	0.0186316
697.176	0.0190614
697.254	0.0194529
697.332	0.0199039
697.410	0.0205663
697.488	0.0207830
697.567	0.0211678
697.645	0.0214690
697.723	0.0218066
697.801	0.0219385
697.879	0.0219682
697.957	0.0218622
698.035	0.0218059
698.113	0.0216596
698.192	0.0214626
698.270	0.0211790
698.348	0.0209044
698.426	0.0205173
698.504	0.0200478
698.582	0.0196289
698.660	0.0193746
698.738	0.0188583
698.817	0.0185913
698.895	0.0181962
698.973	0.0177640
699.051	0.0174616
699.129	0.0172788
699.207	0.0170448
699.285	0.0166874
699.363	0.0163454
699.442	0.0160357
699.520	0.0158880
699.598	0.0159667
699.676	0.0159730
699.754	0.0157221
699.832	0.0155600
699.910	0.0156689
699.988	0.0157458
700.067	0.0157883
700.145	0.0157904
700.223	0.0159151
700.301	0.0161501
700.379	0.0160292
700.457	0.0162853
700.535	0.0162691
700.613	0.0163258
700.692	0.0163002
700.770	0.0164944
700.848	0.0165680
700.926	0.0163935
701.004	0.0167026
701.082	0.0167203
701.160	0.0168258
701.238	0.0170554
701.317	0.0171712
701.395	0.0174418
701.473	0.0178168
701.551	0.0181528
701.629	0.0186023
701.707	0.0189736
701.785	0.0192441
701.863	0.0198160
701.942	0.0200723
702.020	0.0203993
702.098	0.0205608
702.176	0.0209058
702.254	0.0212178
702.332	0.0211528
702.410	0.0213014
702.488	0.0212638
702.567	0.0212057
702.645	0.0210625
702.723	0.0209985
702.801	0.0209585
702.879	0.0208356
702.957	0.0206284
703.035	0.0203363
703.113	0.0202332
703.192	0.0200945
703.270	0.0198605
703.348	0.0195283
703.426	0.0192986
703.504	0.0191962
703.582	0.0187583
703.660	0.0183326
703.738	0.0180960
703.817	0.0177865
703.895	0.0175103
703.973	0.0173177
704.051	0.0168217
704.129	0.0165719
704.207	0.0163670
704.285	0.0162297
704.363	0.0159106
704.442	0.0157663
704.520	0.0156674
704.598	0.0155926
704.676	0.0153235
704.754	0.0152452
704.832	0.0153368
704.910	0.0152068
704.988	0.0152838
705.067	0.0154442
705.145	0.0154684
705.223	0.0157494
705.301	0.0158793
705.379	0.0161295
705.457	0.0165138
705.535	0.0166935
705.613	0.0171231
705.692	0.0174653
705.770	0.0177439
705.848	0.0180734
705.926	0.0183405
706.004	0.0183857
706.082	0.0185020
706.160	0.0186470
706.238	0.0188298
706.317	0.0189759
706.395	0.0189756
706.473	0.0189464
706.551	0.0189619
706.629	0.0188561
706.707	0.0189949
706.785	0.0190639
706.863	0.0188905
706.942	0.0189510
707.020	0.0190657
707.098	0.0189806
707.176	0.0189912
707.254	0.0191108
707.332	0.0190120
707.410	0.0190567
707.488	0.0190430
707.567	0.0190292
707.645	0.0191109
707.723	0.0189549
707.801	0.0190401
707.879	0.0190471
707.957	0.0191085
708.035	0.0193014
708.113	0.0192654
708.192	0.0192218
708.270	0.0191164
708.348	0.0192706
708.426	0.0191801
708.504	0.0190958
708.582	0.0192773
708.660	0.0191935
708.738	0.0191375
708.817	0.0191748
708.895	0.0190079
708.973	0.0190063
709.051	0.0191749
709.129	0.0190301
709.207	0.0187177
709.285	0.0185384
709.363	0.0186224
709.442	0.0182922
709.520	0.0180260
709.598	0.0177127
709.676	0.0174830
709.754	0.0173644
709.832	0.0170690
709.910	0.0167831
709.988	0.0164542
710.067	0.0162917
710.145	0.0162508
710.223	0.0161469
710.301	0.0160912
710.379	0.0160556
710.457	0.0160207
710.535	0.0159737
710.613	0.0159983
710.692	0.0161754
710.770	0.0162374
710.848	0.0164539
710.926	0.0165130
711.004	0.0165488
711.082	0.0165466
711.160	0.0169008
711.238	0.0169360
711.317	0.0170947
711.395	0.0172228
711.473	0.0173591
711.551	0.0176037
711.629	0.0178561
711.707	0.0179239
711.785	0.0181401
711.863	0.0183691
711.942	0.0184484
712.020	0.0186265
712.098	0.0187716
712.176	0.0189453
712.254	0.0190525
712.332	0.0192308
712.410	0.0192144
712.488	0.0193798
712.567	0.0193839
712.645	0.0192969
712.723	0.0192747
712.801	0.0193275
712.879	0.0192966
712.957	0.0193269
713.035	0.0191115
713.113	0.0191038
713.192	0.0190356
713.270	0.0191080
713.348	0.0191043
713.426	0.0189137
713.504	0.0188998
713.582	0.0189426
713.660	0.0190244
713.738	0.0191126
713.817	0.0191341
713.895	0.0190630
713.973	0.0191540
714.051	0.0189657
714.129	0.0189786
714.207	0.0189576
714.285	0.0187608
714.363	0.0188137
714.442	0.0184287
714.520	0.0183204
714.598	0.0181912
714.676	0.0180225
714.754	0.0176418
714.832	0.0174870
714.910	0.0172945
714.988	0.0171290
715.067	0.0170547
715.145	0.0169106
715.223	0.0167565
715.301	0.0167698
715.379	0.0167345
715.457	0.0167382
715.535	0.0168503
715.613	0.0169437
715.692	0.0169978
715.770	0.0170874
715.848	0.0170782
715.926	0.0173162
716.004	0.0173237
716.082	0.0175071
716.160	0.0175711
716.238	0.0175996
716.317	0.0177209
716.395	0.0175779
716.473	0.0177942
716.551	0.0179070
716.629	0.0180731
716.707	0.0180693
716.785	0.0181145
716.863	0.0182500
716.942	0.0183142
717.020	0.0184013
717.098	0.0186998
717.176	0.0186113
717.254	0.0187595
717.332	0.0189086
717.410	0.0189017
717.488	0.0189215
717.567	0.0190952
717.645	0.0188175
717.723	0.0189816
717.801	0.0190568
717.879	0.0189988
717.957	0.0189321
718.035	0.0188725
718.113	0.0187650
718.192	0.0187983
718.270	0.0188279
718.348	0.0186169
718.426	0.0185252
718.504	0.0184430
718.582	0.0181940
718.660	0.0182729
718.738	0.0180678
718.817	0.0176966
718.895	0.0177168
718.973	0.0176062
719.051	0.0174197
719.129	0.0173443
719.207	0.0172613
719.285	0.0173296
719.363	0.0173526
719.442	0.0173356
719.520	0.0174094
719.598	0.0175458
719.676	0.0177458
719.754	0.0179758
719.832	0.0181349
719.910	0.0181960
719.988	0.0184449
720.067	0.0186253
720.145	0.0186459
720.223	0.0185786
720.301	0.0186377
720.379	0.0186547
720.457	0.0186456
720.535	0.0184045
720.613	0.0183556
720.692	0.0182064
720.770	0.0181017
720.848	0.0178424
720.926	0.0176760
721.004	0.0177687
721.082	0.0175222
721.160	0.0175286
721.238	0.0174759
721.317	0.0176544
721.395	0.0175539
721.473	0.0176471
721.551	0.0175013
721.629	0.0175704
721.707	0.0176194
721.785	0.0178181
721.863	0.0178291
721.942	0.0180218
722.020	0.0181965
722.098	0.0181939
722.176	0.0183531
722.254	0.0183555
722.332	0.0183114
722.410	0.0185085
722.488	0.0184606
722.567	0.0185362
722.645	0.0186031
722.723	0.0185162
722.801	0.0186066
722.879	0.0184589
722.957	0.0183558
723.035	0.0184669
723.113	0.0184597
723.192	0.0184541
723.270	0.0183717
723.348	0.0184875
723.426	0.0185530
723.504	0.0186256
723.582	0.0186979
723.660	0.0188202
723.738	0.0185584
723.817	0.0186820
723.895	0.0187796
723.973	0.0186960
724.051	0.0186490
724.129	0.0185296
724.207	0.0185625
724.285	0.0182583
724.363	0.0182682
724.442	0.0180110
724.520	0.0178599
724.598	0.0178039
724.676	0.0176532
724.754	0.0174253
724.832	0.0173199
724.910	0.0171646
724.988	0.0169830
725.067	0.0168562
725.145	0.0168192
725.223	0.0168163
725.301	0.0167294
725.379	0.0169281
725.457	0.0171745
725.535	0.0172070
725.613	0.0174734
725.692	0.0176022
725.770	0.0178341
725.848	0.0180540
725.926	0.0184057
726.004	0.0184486
726.082	0.0185477
726.160	0.0185686
726.238	0.0185712
726.317	0.0186024
726.395	0.0186747
726.473	0.0185400
726.551	0.0185366
726.629	0.0182757
726.707	0.0182423
726.785	0.0181635
726.863	0.0178427
726.942	0.0178919
727.020	0.0179032
727.098	0.0178173
727.176	0.0178445
727.254	0.0178593
727.332	0.0177464
727.410	0.0177684
727.488	0.0178407
727.567	0.0179961
727.645	0.0180019
727.723	0.0179193
727.801	0.0180121
727.879	0.0179921
727.957	0.0181063
728.035	0.0180535
728.113	0.0182229
728.192	0.0180692
728.270	0.0181855
728.348	0.0180111
728.426	0.0181676
728.504	0.0181532
728.582	0.0181889
728.660	0.0181458
728.738	0.0181321
728.817	0.0183257
728.895	0.0183516
728.973	0.0185765
729.051	0.0185841
729.129	0.0187839
729.207	0.0188599
729.285	0.0189560
729.363	0.0189751
729.442	0.0190532
729.520	0.0190972
729.598	0.0191294
729.676	0.0190554
729.754	0.0189150
729.832	0.0189412
729.910	0.0189365
729.988	0.0187305
730.067	0.0186921
730.145	0.0186299
730.223	0.0185877
730.301	0.0184385
730.379	0.0184119
730.457	0.0181528
730.535	0.0183150
730.613	0.0182207
730.692	0.0181073
730.770	0.0181155
730.848	0.0179684
730.926	0.0178965
731.004	0.0177515
731.082	0.0177234
731.160	0.0177958
731.238	0.0177730
731.317	0.0177426
731.395	0.0176611
731.473	0.0175916
731.551	0.0175198
731.629	0.0174630
731.707	0.0174834
731.785	0.0173547
731.863	0.0173673
731.942	0.0173322
732.020	0.0171760
732.098	0.0171970
732.176	0.0171021
732.254	0.0171883
732.332	0.0170799
732.410	0.0169320
732.488	0.0169212
732.567	0.0171342
732.645	0.0170651
732.723	0.0171170
732.801	0.0170805
732.879	0.0171555
732.957	0.0173054
733.035	0.0173695
733.113	0.0175005
733.192	0.0174392
733.270	0.0175683
733.348	0.0178291
733.426	0.0179385
733.504	0.0179240
733.582	0.0179466
733.660	0.0180730
733.738	0.0182014
733.817	0.0182367
733.895	0.0184071
733.973	0.0186206
734.051	0.0185535
734.129	0.0186681
734.207	0.0186385
734.285	0.0187075
734.363	0.0188164
734.442	0.0187586
734.520	0.0188336
734.598	0.0189925
734.676	0.0189983
734.754	0.0192534
734.832	0.0191811
734.910	0.0191041
734.988	0.0190973
735.067	0.0191417
735.145	0.0190808
735.223	0.0191656
735.301	0.0191930
735.379	0.0191573
735.457	0.0191837
735.535	0.0192012
735.613	0.0190645
735.692	0.0189314
735.770	0.0189020
735.848	0.0187534
735.926	0.0187364
736.004	0.0186540
736.082	0.0186002
736.160	0.0184760
736.238	0.0184180
736.317	0.0183253
736.395	0.0183866
736.473	0.0184718
736.551	0.0182984
736.629	0.0183252
736.707	0.0183358
736.785	0.0184692
736.863	0.0184122
736.942	0.0184686
737.020	0.0184103
737.098	0.0184797
737.176	0.0183664
737.254	0.0183081
737.332	0.0182378
737.410	0.0181876
737.488	0.0181856
737.567	0.0177492
737.645	0.0177306
737.723	0.0177600
737.801	0.0173226
737.879	0.0173044
737.957	0.0171047
738.035	0.0169630
738.113	0.0168353
738.192	0.0166563
738.270	0.0166041
738.348	0.0166054
738.426	0.0165318
738.504	0.0165527
738.582	0.0164346
738.660	0.0166927
738.738	0.0167095
738.817	0.0166720
738.895	0.0166849
738.973	0.0166887
739.051	0.0169433
739.129	0.0170647
739.207	0.0170645
739.285	0.0171272
739.363	0.0172537
739.442	0.0173145
739.520	0.0174981
739.598	0.0176741
739.676	0.0177432
739.754	0.0179166
739.832	0.0180650
739.910	0.0181211
739.988	0.0182548
740.067	0.0182439
740.145	0.0182887
740.223	0.0182840
740.301	0.0183762
740.379	0.0183797
740.457	0.0182418
740.535	0.0183823
740.613	0.0185280
740.692	0.0183092
740.770	0.0185412
740.848	0.0186243
740.926	0.0185413
741.004	0.0186849
741.082	0.0189368
741.160	0.0189318
741.238	0.0191435
741.317	0.0191931
741.395	0.0191071
741.473	0.0193040
741.551	0.0193711
741.629	0.0192990
741.707	0.0192610
741.785	0.0191563
741.863	0.0190997
741.942	0.0192038
742.020	0.0192749
742.098	0.0190331
742.176	0.0189485
742.254	0.0190038
742.332	0.0190215
742.410	0.0189798
742.488	0.0188406
742.567	0.0187653
742.645	0.0188264
742.723	0.0187638
742.801	0.0186893
742.879	0.0185915
742.957	0.0185556
743.035	0.0184969
743.113	0.0184532
743.192	0.0183353
743.270	0.0182410
743.348	0.0180593
743.426	0.0178006
743.504	0.0177126
743.582	0.0177337
743.660	0.0176116
743.738	0.0175217
743.817	0.0175564
743.895	0.0174276
743.973	0.0173093
744.051	0.0175077
744.129	0.0175201
744.207	0.0175900
744.285	0.0175761
744.363	0.0177847
744.442	0.0178207
744.520	0.0178343
744.598	0.0178579
744.676	0.0180128
744.754	0.0179409
744.832	0.0179977
744.910	0.0180217
744.988	0.0180608
745.067	0.0179105
745.145	0.0178118
745.223	0.0176472
745.301	0.0174267
745.379	0.0173727
745.457	0.0171809
745.535	0.0170036
745.613	0.0170061
745.692	0.0169054
745.770	0.0166290
745.848	0.0166134
745.926	0.0165658
746.004	0.0165456
746.082	0.0166444
746.160	0.0167100
746.238	0.0166913
746.317	0.0168626
746.395	0.0170219
746.473	0.0172881
746.551	0.0173105
746.629	0.0173788
746.707	0.0176512
746.785	0.0178077
746.863	0.0179356
746.942	0.0180894
747.020	0.0181393
747.098	0.0183322
747.176	0.0185337
747.254	0.0185477
747.332	0.0185656
747.410	0.0186908
747.488	0.0186696
747.567	0.0186326
747.645	0.0185600
747.723	0.0186375
747.801	0.0186774
747.879	0.0186990
747.957	0.0185630
748.035	0.0185914
748.113	0.0186540
748.192	0.0186397
748.270	0.0186586
748.348	0.0185024
748.426	0.0185201
748.504	0.0185177
748.582	0.0185788
748.660	0.0184757
748.738	0.0184180
748.817	0.0183414
748.895	0.0184878
748.973	0.0184225
749.051	0.0184554
749.129	0.0184577
749.207	0.0185413
749.285	0.0186523
749.363	0.0187550
749.442	0.0189349
749.520	0.0188608
749.598	0.0189667
749.676	0.0191871
749.754	0.0193015
749.832	0.0193924
749.910	0.0193699
749.988	0.0195277
750.067	0.0194127
750.145	0.0194239
750.223	0.0195099
750.301	0.0194896
750.379	0.0192103
750.457	0.0191390
750.535	0.0188507
750.613	0.0186755
750.692	0.0185607
750.770	0.0182051
750.848	0.0180190
750.926	0.0177339
751.004	0.0174631
751.082	0.0173212
751.160	0.0171310
751.238	0.0170461
751.317	0.0167617
751.395	0.0169566
751.473	0.0170547
751.551	0.0169122
751.629	0.0171838
751.707	0.0172065
751.785	0.0173115
751.863	0.0174179
751.942	0.0176613
752.020	0.0176317
752.098	0.0177853
752.176	0.0178593
752.254	0.0178936
752.332	0.0178052
752.410	0.0177303
752.488	0.0177563
752.567	0.0176342
752.645	0.0175275
752.723	0.0175029
752.801	0.0172847
752.879	0.0169439
752.957	0.0168696
753.035	0.0166848
753.113	0.0165478
753.192	0.0162956
753.270	0.0164069
753.348	0.0163052
753.426	0.0162318
753.504	0.0163388
753.582	0.0164072
753.660	0.0165266
753.738	0.0167454
753.817	0.0170258
753.895	0.0171090
753.973	0.0172494
754.051	0.0176440
754.129	0.0180094
754.207	0.0182545
754.285	0.0184637
754.363	0.0187407
754.442	0.0190433
754.520	0.0193439
754.598	0.0194637
754.676	0.0195564
754.754	0.0196450
754.832	0.0195867
754.910	0.0195228
754.988	0.0196082
755.067	0.0195159
755.145	0.0193252
755.223	0.0190532
755.301	0.0188724
755.379	0.0188280
755.457	0.0185098
755.535	0.0183891
755.613	0.0181199
755.692	0.0181110
755.770	0.0181386
755.848	0.0180363
755.926	0.0179859
756.004	0.0179345
756.082	0.0179330
756.160	0.0179953
756.238	0.0179259
756.317	0.0180064
756.395	0.0181580
756.473	0.0182966
756.551	0.0184057
756.629	0.0184386
756.707	0.0185394
756.785	0.0185748
756.863	0.0187926
756.942	0.0188747
757.020	0.0190049
757.098	0.0190917
757.176	0.0192564
757.254	0.0193143
757.332	0.0191932
757.410	0.0194354
757.488	0.0194431
757.567	0.0194744
757.645	0.0195455
757.723	0.0196019
757.801	0.0195394
757.879	0.0194157
757.957	0.0195066
758.035	0.0194617
758.113	0.0192275
758.192	0.0190193
758.270	0.0188213
758.348	0.0187192
758.426	0.0186015
758.504	0.0184486
758.582	0.0180991
758.660	0.0180408
758.738	0.0178185
758.817	0.0176146
758.895	0.0174479
758.973	0.0172607
759.051	0.0172059
759.129	0.0170535
759.207	0.0169553
759.285	0.0168840
759.363	0.0167850
759.442	0.0168085
759.520	0.0167658
759.598	0.0168104
759.676	0.0166412
759.754	0.0167517
759.832	0.0166433
759.910	0.0167722
759.988	0.0167578
760.067	0.0167278
760.145	0.0167453
760.223	0.0166803
760.301	0.0166216
760.379	0.0166669
760.457	0.0166140
760.535	0.0164140
760.613	0.0165039
760.692	0.0164715
760.770	0.0165686
760.848	0.0165363
760.926	0.0164500
761.004	0.0165309
761.082	0.0166296
761.160	0.0167540
761.238	0.0168426
761.317	0.0170813
761.395	0.0173768
761.473	0.0176501
761.551	0.0179978
761.629	0.0182101
761.707	0.0184627
761.785	0.0189014
761.863	0.0191778
761.942	0.0195641
762.020	0.0198263
762.098	0.0200679
762.176	0.0201529
762.254	0.0201863
762.332	0.0202146
762.410	0.0201819
762.488	0.0199120
762.567	0.0197896
762.645	0.0197746
762.723	0.0195081
762.801	0.0193114
762.879	0.0190046
762.957	0.0189387
763.035	0.0185967
763.113	0.0184779
763.192	0.0183953
763.270	0.0182513
763.348	0.0181180
763.426	0.0178844
763.504	0.0177824
763.582	0.0179933
763.660	0.0178904
763.738	0.0178956
763.817	0.0179198
763.895	0.0180136
763.973	0.0182980
764.051	0.0184383
764.129	0.0185733
764.207	0.0186749
764.285	0.0188186
764.363	0.0190877
764.442	0.0193887
764.520	0.0194160
764.598	0.0194659
764.676	0.0196579
764.754	0.0198368
764.832	0.0197152
764.910	0.0196554
764.988	0.0196274
765.067	0.0194819
765.145	0.0192870
765.223	0.0190926
765.301	0.0189194
765.379	0.0186814
765.457	0.0184962
765.535	0.0184366
765.613	0.0184638
765.692	0.0182738
765.770	0.0181017
765.848	0.0179999
765.926	0.0179324
766.004	0.0179203
766.082	0.0178808
766.160	0.0178411
766.238	0.0178105
766.317	0.0177679
766.395	0.0177231
766.473	0.0176358
766.551	0.0176108
766.629	0.0174324
766.707	0.0173039
766.785	0.0171104
766.863	0.0171896
766.942	0.0169825
767.020	0.0166063
767.098	0.0164501
767.176	0.0163522
767.254	0.0163120
767.332	0.0161731
767.410	0.0159868
767.488	0.0160764
767.567	0.0159588
767.645	0.0158978
767.723	0.0159695
767.801	0.0159219
767.879	0.0160616
767.957	0.0160786
768.035	0.0161933
768.113	0.0163729
768.192	0.0163560
768.270	0.0164989
768.348	0.0166773
768.426	0.0169732
768.504	0.0171026
768.582	0.0173386
768.660	0.0174476
768.738	0.0177636
768.817	0.0180032
768.895	0.0181705
768.973	0.0184587
769.051	0.0186451
769.129	0.0189742
769.207	0.0193303
769.285	0.0194154
769.363	0.0195974
769.442	0.0198714
769.520	0.0199815
769.598	0.0199667
769.676	0.0199237
769.754	0.0200996
769.832	0.0198965
769.910	0.0195949
769.988	0.0194718
770.067	0.0192614
770.145	0.0187862
770.223	0.0187166
770.301	0.0185254
770.379	0.0183414
770.457	0.0180917
770.535	0.0180298
770.613	0.0178543
770.692	0.0178479
770.770	0.0178721
770.848	0.0178531
770.926	0.0180198
771.004	0.0180467
771.082	0.0180727
771.160	0.0183158
771.238	0.0185526
771.317	0.0186384
771.395	0.0188147
771.473	0.0189204
771.551	0.0190517
771.629	0.0192632
771.707	0.0193628
771.785	0.0193839
771.863	0.0193793
771.942	0.0193707
772.020	0.0195760
772.098	0.0195213
772.176	0.0195055
772.254	0.0193787
772.332	0.0193136
772.410	0.0191676
772.488	0.0191123
772.567	0.0188255
772.645	0.0188293
772.723	0.0187292
772.801	0.0186961
772.879	0.0187370
772.957	0.0186021
773.035	0.0185471
773.113	0.0185069
773.192	0.0184382
773.270	0.0183486
773.348	0.0185510
773.426	0.0183943
773.504	0.0183708
773.582	0.0181205
773.660	0.0181678
773.738	0.0181013
773.817	0.0179999
773.895	0.0178133
773.973	0.0175261
774.051	0.0174281
774.129	0.0171970
774.207	0.0170964
774.285	0.0169158
774.363	0.0168174
774.442	0.0166259
774.520	0.0165986
774.598	0.0163354
774.676	0.0161564
774.754	0.0163050
774.832	0.0161353
774.910	0.0159743
774.988	0.0160066
775.067	0.0159211
775.145	0.0157598
775.223	0.0158495
775.301	0.0159650
775.379	0.0160680
775.457	0.0160516
775.535	0.0160777
775.613	0.0162089
775.692	0.0164466
775.770	0.0167305
775.848	0.0167725
775.926	0.0169012
776.004	0.0171544
776.082	0.0174487
776.160	0.0178601
776.238	0.0178336
776.317	0.0180316
776.395	0.0183387
776.473	0.0185968
776.551	0.0190666
776.629	0.0192571
776.707	0.0193453
776.785	0.0194998
776.863	0.0194344
776.942	0.0196989
777.020	0.0197440
777.098	0.0197352
777.176	0.0196548
777.254	0.0195334
777.332	0.0194232
777.410	0.0193686
777.488	0.0192337
777.567	0.0189836
777.645	0.0190057
777.723	0.0187704
777.801	0.0185924
777.879	0.0184028
777.957	0.0183811
778.035	0.0183272
778.113	0.0183057
778.192	0.0182406
778.270	0.0182986
778.348	0.0183416
778.426	0.0184478
778.504	0.0184663
778.582	0.0184524
778.660	0.0185918
778.738	0.0187748
778.817	0.0189091
778.895	0.0189091
778.973	0.0191519
779.051	0.0193414
779.129	0.0194211
779.207	0.0196144
779.285	0.0197398
779.363	0.0196693
779.442	0.0197272
779.520	0.0197165
779.598	0.0198314
779.676	0.0197427
779.754	0.0195634
779.832	0.0195223
779.910	0.0193503
779.988	0.0190944
780.067	0.0189621
780.145	0.0189120
780.223	0.0187053
780.301	0.0185632
780.379	0.0182964
780.457	0.0183263
780.535	0.0182163
780.613	0.0181322
780.692	0.0179417
780.770	0.0181154
780.848	0.0179350
780.926	0.0180674
781.004	0.0179440
781.082	0.0177299
781.160	0.0178030
781.238	0.0178654
781.317	0.0178568
781.395	0.0176478
781.473	0.0175568
781.551	0.0174038
781.629	0.0174092
781.707	0.0171229
781.785	0.0172749
781.863	0.0170883
781.942	0.0170913
782.020	0.0168768
782.098	0.0166344
782.176	0.0165992
782.254	0.0164517
782.332	0.0162773
782.410	0.0161974
782.488	0.0161586
782.567	0.0161347
782.645	0.0160545
782.723	0.0162854
782.801	0.0163557
782.879	0.0162645
782.957	0.0163228
783.035	0.0166856
783.113	0.0167504
783.192	0.0167767
783.270	0.0168059
783.348	0.0171056
783.426	0.0171761
783.504	0.0173647
783.582	0.0176065
783.660	0.0175667
783.738	0.0176386
783.817	0.0178999
783.895	0.0179732
783.973	0.0181869
784.051	0.0183636
784.129	0.0185030
784.207	0.0185844
784.285	0.0186854
784.363	0.0188445
784.442	0.0188332
784.520	0.0189221
784.598	0.0190225
784.676	0.0191007
784.754	0.0189413
784.832	0.0192158
784.910	0.0194176
784.988	0.0191548
785.067	0.0191357
785.145	0.0192348
785.223	0.0193607
785.301	0.0191988
785.379	0.0192702
785.457	0.0194141
785.535	0.0192738
785.613	0.0193640
785.692	0.0192216
785.770	0.0190215
785.848	0.0191248
785.926	0.0191544
786.004	0.0191341
786.082	0.0191008
786.160	0.0190029
786.238	0.0190903
786.317	0.0189278
786.395	0.0190317
786.473	0.0190135
786.551	0.0190621
786.629	0.0190427
786.707	0.0191293
786.785	0.0191623
786.863	0.0189119
786.942	0.0190283
787.020	0.0190839
787.098	0.0189372
787.176	0.0188612
787.254	0.0189307
787.332	0.0187970
787.410	0.0186391
787.488	0.0185542
787.567	0.0185074
787.645	0.0185474
787.723	0.0184505
787.801	0.0183585
787.879	0.0184689
787.957	0.0181342
788.035	0.0182455
788.113	0.0182090
788.192	0.0182320
788.270	0.0182288
788.348	0.0181509
788.426	0.0181460
788.504	0.0180152
788.582	0.0179453
788.660	0.0178592
788.738	0.0175988
788.817	0.0174532
788.895	0.0174149
788.973	0.0173032
789.051	0.0173557
789.129	0.0173073
789.207	0.0169175
789.285	0.0169598
789.363	0.0169418
789.442	0.0166196
789.520	0.0166871
789.598	0.0165826
789.676	0.0164745
789.754	0.0164770
789.832	0.0165320
789.910	0.0164364
789.988	0.0163419
790.067	0.0165611
790.145	0.0167049
790.223	0.0167870
790.301	0.0167897
790.379	0.0168938
790.457	0.0168842
790.535	0.0170135
790.613	0.0171622
790.692	0.0172997
790.770	0.0174323
790.848	0.0174782
790.926	0.0176542
791.004	0.0176538
791.082	0.0176515
791.160	0.0178443
791.238	0.0178869
791.317	0.0179354
791.395	0.0180240
791.473	0.0181345
791.551	0.0182051
791.629	0.0182170
791.707	0.0182248
791.785	0.0182846
791.863	0.0184441
791.942	0.0186527
792.020	0.0186547
792.098	0.0183574
792.176	0.0185722
792.254	0.0186334
792.332	0.0185350
792.410	0.0186376
792.488	0.0186330
792.567	0.0186880
792.645	0.0186409
792.723	0.0187216
792.801	0.0187022
792.879	0.0187387
792.957	0.0187807
793.035	0.0189150
793.113	0.0189294
793.192	0.0189950
793.270	0.0189149
793.348	0.0189447
793.426	0.0189797
793.504	0.0190623
793.582	0.0190964
793.660	0.0190829
793.738	0.0194314
793.817	0.0193694
793.895	0.0193339
793.973	0.0193385
794.051	0.0193583
794.129	0.0194248
794.207	0.0194707
794.285	0.0195905
794.363	0.0195493
794.442	0.0194387
794.520	0.0193302
794.598	0.0193159
794.676	0.0192754
794.754	0.0191887
794.832	0.0191673
794.910	0.0191835
794.988	0.0189677
795.067	0.0189680
795.145	0.0188575
795.223	0.0187550
795.301	0.0187203
795.379	0.0185100
795.457	0.0184541
795.535	0.0185234
795.613	0.0183765
795.692	0.0182092
795.770	0.0181313
795.848	0.0179182
795.926	0.0178963
796.004	0.0177576
796.082	0.0176598
796.160	0.0174039
796.238	0.0174200
796.317	0.0172457
796.395	0.0169769
796.473	0.0168930
796.551	0.0167728
796.629	0.0166535
796.707	0.0167022
796.785	0.0165054
796.863	0.0163865
796.942	0.0163565
797.020	0.0163647
797.098	0.0162826
797.176	0.0162486
797.254	0.0161639
797.332	0.0162811
797.410	0.0164008
797.488	0.0163801
797.567	0.0165416
797.645	0.0165446
797.723	0.0167149
797.801	0.0169283
797.879	0.0169473
797.957	0.0170962
798.035	0.0171897
798.113	0.0173459
798.192	0.0175432
798.270	0.0175298
798.348	0.0176405
798.426	0.0178082
798.504	0.0177135
798.582	0.0178322
798.660	0.0179543
798.738	0.0182074
798.817	0.0182626
798.895	0.0182965
798.973	0.0184714
799.051	0.0186303
799.129	0.0187455
799.207	0.0186517
799.285	0.0188230
799.363	0.0190176
799.442	0.0190090
799.520	0.0190740
799.598	0.0191444
799.676	0.0190357
799.754	0.0190039
799.832	0.0191018
799.910	0.0189581
799.988	0.0190025
800.067	0.0189833
800.145	0.0190984
800.223	0.0189445
800.301	0.0188900
800.379	0.0188198
800.457	0.0187154
800.535	0.0188625
800.613	0.0187911
800.692	0.0188116
800.770	0.0188276
800.848	0.0186340
800.926	0.0187346
801.004	0.0186275
801.082	0.0186359
801.160	0.0186808
801.238	0.0187678
801.317	0.0186743
801.395	0.0187036
801.473	0.0187675
801.551	0.0187378
801.629	0.0186283
801.707	0.0186398
801.785	0.0187354
801.863	0.0185886
801.942	0.0185907
802.020	0.0187155
802.098	0.0185276
802.176	0.0185806
802.254	0.0185692
802.332	0.0185989
802.410	0.0186498
802.488	0.0185725
802.567	0.0185386
802.645	0.0183913
802.723	0.0184505
802.801	0.0185110
802.879	0.0185809
802.957	0.0183644
803.035	0.0184132
803.113	0.0184772
803.192	0.0182871
803.270	0.0182993
803.348	0.0182910
803.426	0.0181743
803.504	0.0182176
803.582	0.0181426
803.660	0.0179255
803.738	0.0179700
803.817	0.0178902
803.895	0.0176945
803.973	0.0176657
804.051	0.0175597
804.129	0.0174195
804.207	0.0173090
804.285	0.0174780
804.363	0.0173810
804.442	0.0173246
804.520	0.0170863
804.598	0.0173557
804.676	0.0172498
804.754	0.0171058
804.832	0.0171403
804.910	0.0172247
804.988	0.0171937
805.067	0.0171191
805.145	0.0172579
805.223	0.0171157
805.301	0.0171739
805.379	0.0172032
805.457	0.0172072
805.535	0.0172326
805.613	0.0172084
805.692	0.0174104
805.770	0.0172172
805.848	0.0172342
805.926	0.0173492
806.004	0.0174947
806.082	0.0175801
806.160	0.0174266
806.238	0.0176995
806.317	0.0177865
806.395	0.0177931
806.473	0.0180659
806.551	0.0180610
806.629	0.0181869
806.707	0.0182161
806.785	0.0183075
806.863	0.0182997
806.942	0.0184054
807.020	0.0183517
807.098	0.0183860
807.176	0.0184703
807.254	0.0184344
807.332	0.0184200
807.410	0.0184798
807.488	0.0184135
807.567	0.0184363
807.645	0.0185294
807.723	0.0184367
807.801	0.0183540
807.879	0.0185838
807.957	0.0185339
808.035	0.0184901
808.113	0.0186004
808.192	0.0186097
808.270	0.0188184
808.348	0.0188303
808.426	0.0188989
808.504	0.0187749
808.582	0.0190149
808.660	0.0192863
808.738	0.0191859
808.817	0.0191936
808.895	0.0192184
808.973	0.0192941
809.051	0.0192151
809.129	0.0191842
809.207	0.0193056
809.285	0.0192696
809.363	0.0189854
809.442	0.0189016
809.520	0.0190592
809.598	0.0188765
809.676	0.0186140
809.754	0.0186872
809.832	0.0185931
809.910	0.0187070
809.988	0.0185139
810.067	0.0183904
810.145	0.0183715
810.223	0.0183236
810.301	0.0184337
810.379	0.0183332
810.457	0.0184244
810.535	0.0183083
810.613	0.0183059
810.692	0.0182946
810.770	0.0183021
810.848	0.0180840
810.926	0.0179742
811.004	0.0178933
811.082	0.0178544
811.160	0.0178943
811.238	0.0178249
811.317	0.0177541
811.395	0.0176550
811.473	0.0176147
811.551	0.0175609
811.629	0.0173781
811.707	0.0174400
811.785	0.0173923
811.863	0.0172750
811.942	0.0174321
812.020	0.0172513
812.098	0.0172442
812.176	0.0171441
812.254	0.0171068
812.332	0.0171042
812.410	0.0171204
812.488	0.0170100
812.567	0.0170837
812.645	0.0168948
812.723	0.0170259
812.801	0.0170101
812.879	0.0170427
812.957	0.0169041
813.035	0.0169743
813.113	0.0171004
813.192	0.0171457
813.270	0.0172202
813.348	0.0173370
813.426	0.0174174
813.504	0.0174329
813.582	0.0176356
813.660	0.0176537
813.738	0.0176859
813.817	0.0180733
813.895	0.0180054
813.973	0.0181631
814.051	0.0182314
814.129	0.0183401
814.207	0.0186689
814.285	0.0185577
814.363	0.0187186
814.442	0.0187700
814.520	0.0186682
814.598	0.0188170
814.676	0.0187866
814.754	0.0189145
814.832	0.0189012
814.910	0.0188091
814.988	0.0188021
815.067	0.0186783
815.145	0.0187614
815.223	0.0186839
815.301	0.0187206
815.379	0.0186311
815.457	0.0186052
815.535	0.0184581
815.613	0.0184187
815.692	0.0184468
815.770	0.0185516
815.848	0.0185342
815.926	0.0185437
816.004	0.0185857
816.082	0.0186987
816.160	0.0185707
816.238	0.0185891
816.317	0.0186917
816.395	0.0188898
816.473	0.0188140
816.551	0.0187809
816.629	0.0187775
816.707	0.0187737
816.785	0.0188374
816.863	0.0189185
816.942	0.0185583
817.020	0.0186732
817.098	0.0186646
817.176	0.0184939
817.254	0.0184808
817.332	0.0184169
817.410	0.0183035
817.488	0.0181180
817.567	0.0183366
817.645	0.0182046
817.723	0.0181621
817.801	0.0182819
817.879	0.0181484
817.957	0.0181538
818.035	0.0181010
818.113	0.0182115
818.192	0.0181893
818.270	0.0181573
818.348	0.0181705
818.426	0.0179669
818.504	0.0178960
818.582	0.0179403
818.660	0.0179559
818.738	0.0181194
818.817	0.0178352
818.895	0.0179387
818.973	0.0179748
819.051	0.0178233
819.129	0.0178658
819.207	0.0177898
819.285	0.0177950
819.363	0.0177312
819.442	0.0175942
819.520	0.0176235
819.598	0.0176186
819.676	0.0175317
819.754	0.0174335
819.832	0.0174829
819.910	0.0174952
819.988	0.0175343
820.067	0.0176097
820.145	0.0173830
820.223	0.0173198
820.301	0.0175203
820.379	0.0174607
820.457	0.0174623
820.535	0.0174808
820.613	0.0175899
820.692	0.0174384
820.770	0.0174191
820.848	0.0174435
820.926	0.0174432
821.004	0.0176421
821.082	0.0176102
821.160	0.0175501
821.238	0.0174859
821.317	0.0176978
821.395	0.0177850
821.473	0.0178554
821.551	0.0178398
821.629	0.0180313
821.707	0.0182511
821.785	0.0181506
821.863	0.0182843
821.942	0.0184074
822.020	0.0183472
822.098	0.0184862
822.176	0.0185628
822.254	0.0185851
822.332	0.0187157
822.410	0.0186730
822.488	0.0185466
822.567	0.0185713
822.645	0.0184943
822.723	0.0185553
822.801	0.0185543
822.879	0.0185259
822.957	0.0184611
823.035	0.0184319
823.113	0.0183246
823.192	0.0183250
823.270	0.0182941
823.348	0.0183021
823.426	0.0182757
823.504	0.0183205
823.582	0.0183183
823.660	0.0184040
823.738	0.0185250
823.817	0.0185568
823.895	0.0185636
823.973	0.0185350
824.051	0.0186631
824.129	0.0185664
824.207	0.0186576
824.285	0.0186629
824.363	0.0187618
824.442	0.0186573
824.520	0.0187590
824.598	0.0187601
824.676	0.0189899
824.754	0.0189402
824.832	0.0187957
824.910	0.0186665
824.988	0.0187206
825.067	0.0187717
825.145	0.0188480
825.223	0.0187843
825.301	0.0185279
825.379	0.0187098
825.457	0.0184964
825.535	0.0182957
825.613	0.0183994
825.692	0.0182796
825.770	0.0181416
825.848	0.0180920
825.926	0.0180618
826.004	0.0180092
826.082	0.0180409
826.160	0.0179924
826.238	0.0178596
826.317	0.0178957
826.395	0.0179190
826.473	0.0178715
826.551	0.0179224
826.629	0.0176842
826.707	0.0177369
826.785	0.0177255
826.863	0.0177398
826.942	0.0177773
827.020	0.0175898
827.098	0.0176066
827.176	0.0176008
827.254	0.0175039
827.332	0.0175348
827.410	0.0176254
827.488	0.0175061
827.567	0.0174620
827.645	0.0174490
827.723	0.0174542
827.801	0.0175922
827.879	0.0176923
827.957	0.0176046
828.035	0.0174589
828.113	0.0176215
828.192	0.0176450
828.270	0.0176078
828.348	0.0174660
828.426	0.0175922
828.504	0.0176957
828.582	0.0175238
828.660	0.0176511
828.738	0.0176357
828.817	0.0176669
828.895	0.0175685
828.973	0.0177031
829.051	0.0176776
829.129	0.0176721
829.207	0.0179136
829.285	0.0179713
829.363	0.0180972
829.442	0.0180527
829.520	0.0181267
829.598	0.0183511
829.676	0.0183081
829.754	0.0184072
829.832	0.0184949
829.910	0.0185732
829.988	0.0187286
830.067	0.0188073
830.145	0.0187461
830.223	0.0186493
830.301	0.0185851
830.379	0.0188894
830.457	0.0187360
830.535	0.0188152
830.613	0.0187416
830.692	0.0185987
830.770	0.0186067
830.848	0.0185242
830.926	0.0184849
831.004	0.0184319
831.082	0.0182796
831.160	0.0182256
831.238	0.0182114
831.317	0.0181773
831.395	0.0181879
831.473	0.0180007
831.551	0.0180396
831.629	0.0181090
831.707	0.0181750
831.785	0.0182549
831.863	0.0183548
831.942	0.0182784
832.020	0.0183587
832.098	0.0184315
832.176	0.0184967
832.254	0.0186465
832.332	0.0186713
832.410	0.0185176
832.488	0.0186939
832.567	0.0186030
832.645	0.0186434
832.723	0.0186510
832.801	0.0185150
832.879	0.0184309
832.957	0.0184210
833.035	0.0184656
833.113	0.0184319
833.192	0.0182160
833.270	0.0182187
833.348	0.0181946
833.426	0.0180994
833.504	0.0181232
833.582	0.0178779
833.660	0.0178647
833.738	0.0179024
833.817	0.0179383
833.895	0.0177248
833.973	0.0177235
834.051	0.0177389
834.129	0.0177802
834.207	0.0176031
834.285	0.0177170
834.363	0.0177328
834.442	0.0176966
834.520	0.0177508
834.598	0.0177763
834.676	0.0175868
834.754	0.0177058
834.832	0.0177639
834.910	0.0177322
834.988	0.0178931
835.067	0.0177722
835.145	0.0178165
835.223	0.0177841
835.301	0.0178681
835.379	0.0179469
835.457	0.0179132
835.535	0.0180540
835.613	0.0180266
835.692	0.0180586
835.770	0.0178088
835.848	0.0177969
835.926	0.0180437
836.004	0.0178976
836.082	0.0178709
836.160	0.0178150
836.238	0.0178606
836.317	0.0178118
836.395	0.0179435
836.473	0.0178326
836.551	0.0178065
836.629	0.0178406
836.707	0.0178593
836.785	0.0177641
836.863	0.0178064
836.942	0.0179308
837.020	0.0178636
837.098	0.0179680
837.176	0.0180992
837.254	0.0182064
837.332	0.0181821
837.410	0.0183436
837.488	0.0183794
837.567	0.0186108
837.645	0.0185822
837.723	0.0184695
837.801	0.0186267
837.879	0.0185909
837.957	0.0185643
838.035	0.0185383
838.113	0.0184756
838.192	0.0184766
838.270	0.0187021
838.348	0.0184805
838.426	0.0183542
838.504	0.0185194
838.582	0.0183754
838.660	0.0182362
838.738	0.0182417
838.817	0.0181031
838.895	0.0182488
838.973	0.0181338
839.051	0.0180619
839.129	0.0180079
839.207	0.0181274
839.285	0.0180898
839.363	0.0181687
839.442	0.0183038
839.520	0.0181090
839.598	0.0182480
839.676	0.0182477
839.754	0.0182081
839.832	0.0182510
839.910	0.0183044
839.988	0.0183407
840.067	0.0183849
840.145	0.0183521
840.223	0.0184316
840.301	0.0186162
840.379	0.0184530
840.457	0.0184533
840.535	0.0185090
840.613	0.0185813
840.692	0.0185342
840.770	0.0184631
840.848	0.0183840
840.926	0.0185130
841.004	0.0183669
841.082	0.0180991
841.160	0.0182877
841.238	0.0181857
841.317	0.0182076
841.395	0.0182097
841.473	0.0179588
841.551	0.0180693
841.629	0.0179047
841.707	0.0178128
841.785	0.0177363
841.863	0.0176580
841.942	0.0176544
842.020	0.0175734
842.098	0.0175977
842.176	0.0175146
842.254	0.0176219
842.332	0.0175122
842.410	0.0175035
842.488	0.0175176
842.567	0.0175393
842.645	0.0176210
842.723	0.0176746
842.801	0.0177457
842.879	0.0177914
842.957	0.0178341
843.035	0.0178533
843.113	0.0180403
843.192	0.0179855
843.270	0.0178748
843.348	0.0180161
843.426	0.0179977
843.504	0.0180610
843.582	0.0178613
843.660	0.0180167
843.738	0.0180314
843.817	0.0180663
843.895	0.0180558
843.973	0.0179668
844.051	0.0179161
844.129	0.0179690
844.207	0.0179305
844.285	0.0179910
844.363	0.0180607
844.442	0.0180396
844.520	0.0181133
844.598	0.0182478
844.676	0.0181095
844.754	0.0182497
844.832	0.0180973
844.910	0.0182426
844.988	0.0182226
845.067	0.0182942
845.145	0.0184258
845.223	0.0184518
845.301	0.0183683
845.379	0.0183131
845.457	0.0185033
845.535	0.0186328
845.613	0.0185011
845.692	0.0186552
845.770	0.0187074
845.848	0.0186609
845.926	0.0186549
846.004	0.0185095
846.082	0.0185244
846.160	0.0184933
846.238	0.0184637
846.317	0.0185548
846.395	0.0184446
846.473	0.0181564
846.551	0.0181326
846.629	0.0181377
846.707	0.0182138
846.785	0.0181934
846.863	0.0179726
846.942	0.0180292
847.020	0.0180106
847.098	0.0177950
847.176	0.0178221
847.254	0.0179446
847.332	0.0178162
847.410	0.0178392
847.488	0.0179880
847.567	0.0183212
847.645	0.0180355
847.723	0.0179728
847.801	0.0180222
847.879	0.0180866
847.957	0.0179940
848.035	0.0182665
848.113	0.0182647
848.192	0.0182227
848.270	0.0183261
848.348	0.0183819
848.426	0.0183172
848.504	0.0182978
848.582	0.0183485
848.660	0.0183438
848.738	0.0183361
848.817	0.0182590
848.895	0.0182738
848.973	0.0182878
849.051	0.0182169
849.129	0.0180959
849.207	0.0182072
849.285	0.0181196
849.363	0.0180101
849.442	0.0180865
849.520	0.0179730
849.598	0.0179411
849.676	0.0178617
849.754	0.0178599
849.832	0.0179289
849.910	0.0178274
849.988	0.0179452
850.067	0.0179298
850.145	0.0179082
850.223	0.0180760
850.301	0.0179713
850.379	0.0180400
850.457	0.0182380
850.535	0.0180970
850.613	0.0180670
850.692	0.0182808
850.770	0.0181696
850.848	0.0182169
850.926	0.0181790
851.004	0.0181159
851.082	0.0182341
851.160	0.0181477
851.238	0.0182005
851.317	0.0180943
851.395	0.0181379
851.473	0.0182071
851.551	0.0180507
851.629	0.0181492
851.707	0.0181528
851.785	0.0180283
851.863	0.0180968
851.942	0.0180402
852.020	0.0179323
852.098	0.0180821
852.176	0.0179388
852.254	0.0180629
852.332	0.0178780
852.410	0.0180253
852.488	0.0180507
852.567	0.0180540
852.645	0.0180575
852.723	0.0182400
852.801	0.0181594
852.879	0.0180538
852.957	0.0183049
853.035	0.0183956
853.113	0.0181733
853.192	0.0183452
853.270	0.0182679
853.348	0.0184051
853.426	0.0185027
853.504	0.0183389
853.582	0.0182304
853.660	0.0184418
853.738	0.0184282
853.817	0.0184525
853.895	0.0183288
853.973	0.0183546
854.051	0.0183808
854.129	0.0183925
854.207	0.0183784
854.285	0.0183632
854.363	0.0182563
854.442	0.0182169
854.520	0.0182079
854.598	0.0182094
854.676	0.0181413
854.754	0.0182397
854.832	0.0181228
854.910	0.0181046
854.988	0.0180491
855.067	0.0179996
855.145	0.0180927
855.223	0.0180996
855.301	0.0180666
855.379	0.0180744
855.457	0.0181270
855.535	0.0180003
855.613	0.0179457
855.692	0.0181891
855.770	0.0181442
855.848	0.0181902
855.926	0.0181183
856.004	0.0182144
856.082	0.0180452
856.160	0.0181629
856.238	0.0182460
856.317	0.0180888
856.395	0.0178880
856.473	0.0180730
856.551	0.0182738
856.629	0.0181421
856.707	0.0181007
856.785	0.0181799
856.863	0.0181083
856.942	0.0179699
857.020	0.0179472
857.098	0.0180590
857.176	0.0179097
857.254	0.0180984
857.332	0.0181035
857.410	0.0180797
857.488	0.0180856
857.567	0.0180324
857.645	0.0181490
857.723	0.0181680
857.801	0.0182242
857.879	0.0182088
857.957	0.0181828
858.035	0.0183339
858.113	0.0182994
858.192	0.0182940
858.270	0.0184438
858.348	0.0183376
858.426	0.0182513
858.504	0.0183346
858.582	0.0183964
858.660	0.0181454
858.738	0.0181322
858.817	0.0181471
858.895	0.0181906
858.973	0.0180549
859.051	0.0181393
859.129	0.0181081
859.207	0.0181680
859.285	0.0181380
859.363	0.0181300
859.442	0.0180812
859.520	0.0179191
859.598	0.0180959
859.676	0.0180666
859.754	0.0180540
859.832	0.0180065
859.910	0.0180795
859.988	0.0180486
860.067	0.0179157
860.145	0.0179886
860.223	0.0180118
860.301	0.0181168
860.379	0.0180798
860.457	0.0181120
860.535	0.0180798
860.613	0.0181117
860.692	0.0182706
860.770	0.0181954
860.848	0.0181320
860.926	0.0181609
861.004	0.0181868
861.082	0.0181715
861.160	0.0182407
861.238	0.0182655
861.317	0.0183351
861.395	0.0182688
861.473	0.0182055
861.551	0.0182594
861.629	0.0181197
861.707	0.0180865
861.785	0.0181507
861.863	0.0181757
861.942	0.0182397
862.020	0.0182088
862.098	0.0181551
862.176	0.0180648
862.254	0.0180788
862.332	0.0180116
862.410	0.0180053
862.488	0.0179226
862.567	0.0179271
862.645	0.0179593
862.723	0.0179409
862.801	0.0179163
862.879	0.0178669
862.957	0.0177808
863.035	0.0178942
863.113	0.0178773
863.192	0.0179159
863.270	0.0178493
863.348	0.0179430
863.426	0.0179879
863.504	0.0178992
863.582	0.0178812
863.660	0.0178825
863.738	0.0180656
863.817	0.0179163
863.895	0.0178535
863.973	0.0180675
864.051	0.0180099
864.129	0.0180533
864.207	0.0180412
864.285	0.0180581
864.363	0.0180934
864.442	0.0181287
864.520	0.0182920
864.598	0.0181038
864.676	0.0183110
864.754	0.0182410
864.832	0.0182231
864.910	0.0183794
864.988	0.0182764
865.067	0.0183614
865.145	0.0183525
865.223	0.0183633
865.301	0.0183254
865.379	0.0182571
865.457	0.0184130
865.535	0.0183016
865.613	0.0183899
865.692	0.0182683
865.770	0.0182123
865.848	0.0182308
865.926	0.0182728
866.004	0.0183385
866.082	0.0183270
866.160	0.0181017
866.238	0.0180937
866.317	0.0180320
866.395	0.0179858
866.473	0.0180359
866.551	0.0178941
866.629	0.0180098
866.707	0.0180128
866.785	0.0178321
866.863	0.0177896
866.942	0.0179961
867.020	0.0178892
867.098	0.0179571
867.176	0.0178131
867.254	0.0179949
867.332	0.0179512
867.410	0.0179390
867.488	0.0179481
867.567	0.0180143
867.645	0.0179565
867.723	0.0179063
867.801	0.0180427
867.879	0.0180796
867.957	0.0181190
868.035	0.0178831
868.113	0.0180067
868.192	0.0181628
868.270	0.0181356
868.348	0.0181454
868.426	0.0180367
868.504	0.0182583
868.582	0.0182442
868.660	0.0180629
868.738	0.0182133
868.817	0.0182029
868.895	0.0181761
868.973	0.0182362
869.051	0.0183233
869.129	0.0181689
869.207	0.0182783
869.285	0.0182568
869.363	0.0182915
869.442	0.0181602
869.520	0.0181977
869.598	0.0182651
869.676	0.0182135
869.754	0.0181161
869.832	0.0179304
869.910	0.0180436
869.988	0.0180466
870.067	0.0181633
870.145	0.0180024
870.223	0.0179433
870.301	0.0179842
870.379	0.0180329
870.457	0.0179835
870.535	0.0180638
870.613	0.0180167
870.692	0.0179996
870.770	0.0179556
870.848	0.0179160
870.926	0.0180351
871.004	0.0180219
871.082	0.0177790
871.160	0.0178011
871.238	0.0178116
871.317	0.0177850
871.395	0.0177071
871.473	0.0177612
871.551	0.0178760
871.629	0.0177074
871.707	0.0176166
871.785	0.0178484
871.863	0.0178432
871.942	0.0178040
872.020	0.0179301
872.098	0.0179768
872.176	0.0180208
872.254	0.0180501
872.332	0.0181236
872.410	0.0181743
872.488	0.0182982
872.567	0.0182539
872.645	0.0184236
872.723	0.0183903
872.801	0.0184013
872.879	0.0185296
872.957	0.0186343
873.035	0.0185233
873.113	0.0184639
873.192	0.0186774
873.270	0.0186576
873.348	0.0186320
873.426	0.0186047
873.504	0.0185760
873.582	0.0185054
873.660	0.0185156
873.738	0.0184731
873.817	0.0184187
873.895	0.0183310
873.973	0.0184154
874.051	0.0184328
874.129	0.0182719
874.207	0.0182645
874.285	0.0181995
874.363	0.0182336
874.442	0.0182108
874.520	0.0180372
874.598	0.0180302
874.676	0.0180824
874.754	0.0180253
874.832	0.0179851
874.910	0.0178681
874.988	0.0178972
875.067	0.0179211
875.145	0.0178229
875.223	0.0177876
875.301	0.0178938
875.379	0.0177883
875.457	0.0178139
875.535	0.0179064
875.613	0.0180511
875.692	0.0178014
875.770	0.0178026
875.848	0.0178572
875.926	0.0180538
876.004	0.0181306
876.082	0.0179780
876.160	0.0180154
876.238	0.0182519
876.317	0.0182040
876.395	0.0181568
876.473	0.0181689
876.551	0.0181827
876.629	0.0183249
876.707	0.0183842
876.785	0.0182386
876.863	0.0184485
876.942	0.0182462
877.020	0.0183613
877.098	0.0183846
877.176	0.0182700
877.254	0.0183089
877.332	0.0182867
877.410	0.0183000
877.488	0.0182767
877.567	0.0182870
877.645	0.0182565
877.723	0.0181434
877.801	0.0180513
877.879	0.0181239
877.957	0.0180135
878.035	0.0180220
878.113	0.0180071
878.192	0.0181010
878.270	0.0178652
878.348	0.0179173
878.426	0.0178867
878.504	0.0179346
878.582	0.0177855
878.660	0.0177515
878.738	0.0178486
878.817	0.0177866
878.895	0.0180563
878.973	0.0178321
879.051	0.0179620
879.129	0.0179299
879.207	0.0179636
879.285	0.0179472
879.363	0.0181793
879.442	0.0181573
879.520	0.0181899
879.598	0.0181533
879.676	0.0182632
879.754	0.0182533
879.832	0.0182393
879.910	0.0183223
879.988	0.0181668
880.067	0.0184172
880.145	0.0184171
880.223	0.0184533
880.301	0.0184651
880.379	0.0183739
880.457	0.0182885
880.535	0.0183155
880.613	0.0183125
880.692	0.0185425
880.770	0.0185248
880.848	0.0184137
880.926	0.0183557
881.004	0.0183910
881.082	0.0183803
881.160	0.0184235
881.238	0.0184691
881.317	0.0183979
881.395	0.0183566
881.473	0.0183646
881.551	0.0182681
881.629	0.0181986
881.707	0.0183408
881.785	0.0181610
881.863	0.0180978
881.942	0.0180959
882.020	0.0182143
882.098	0.0182983
882.176	0.0179285
882.254	0.0179789
882.332	0.0180151
882.410	0.0180106
882.488	0.0180232
882.567	0.0180737
882.645	0.0179395
882.723	0.0179527
882.801	0.0179856
882.879	0.0179427
882.957	0.0180570
883.035	0.0179483
883.113	0.0180403
883.192	0.0181609
883.270	0.0181295
883.348	0.0180739
883.426	0.0180623
883.504	0.0181013
883.582	0.0180195
883.660	0.0181493
883.738	0.0181281
883.817	0.0181789
883.895	0.0182768
883.973	0.0182253
884.051	0.0181835
884.129	0.0181269
884.207	0.0180810
884.285	0.0180809
884.363	0.0180951
884.442	0.0181229
884.520	0.0181660
884.598	0.0182679
884.676	0.0182621
884.754	0.0181939
884.832	0.0181712
884.910	0.0182086
884.988	0.0181563
885.067	0.0180344
885.145	0.0181657
885.223	0.0180740
885.301	0.0182494
885.379	0.0182049
885.457	0.0181268
885.535	0.0180500
885.613	0.0179085
885.692	0.0181078
885.770	0.0180289
885.848	0.0179378
885.926	0.0180280
886.004	0.0179384
886.082	0.0178762
886.160	0.0178629
886.238	0.0179015
886.317	0.0179229
886.395	0.0180122
886.473	0.0178989
886.551	0.0179038
886.629	0.0179646
886.707	0.0178389
886.785	0.0180467
886.863	0.0179050
886.942	0.0181122
887.020	0.0179730
887.098	0.0179818
887.176	0.0181165
887.254	0.0180622
887.332	0.0181134
887.410	0.0181721
887.488	0.0180777
887.567	0.0181108
887.645	0.0182418
887.723	0.0182378
887.801	0.0182029
887.879	0.0183738
887.957	0.0182141
888.035	0.0180311
888.113	0.0180402
888.192	0.0183431
888.270	0.0183224
888.348	0.0182828
888.426	0.0183097
888.504	0.0181943
888.582	0.0180877
888.660	0.0182313
888.738	0.0183257
888.817	0.0183318
888.895	0.0182711
888.973	0.0182829
889.051	0.0183479
889.129	0.0183907
889.207	0.0183438
889.285	0.0183450
889.363	0.0184625
889.442	0.0184531
889.520	0.0184338
889.598	0.0183673
889.676	0.0182436
889.754	0.0183647
889.832	0.0183119
889.910	0.0182173
889.988	0.0182533
890.067	0.0181676
890.145	0.0181902
890.223	0.0181830
890.301	0.0179657
890.379	0.0179232
890.457	0.0180975
890.535	0.0181417
890.613	0.0179167
890.692	0.0179671
890.770	0.0180403
890.848	0.0179618
890.926	0.0179473
891.004	0.0179600
891.082	0.0179576
891.160	0.0178953
891.238	0.0179082
891.317	0.0178589
891.395	0.0180543
891.473	0.0179328
891.551	0.0179360
891.629	0.0180410
891.707	0.0179049
891.785	0.0180527
891.863	0.0180263
891.942	0.0180365
892.020	0.0179733
892.098	0.0181799
892.176	0.0180461
892.254	0.0179355
892.332	0.0178806
892.410	0.0180286
892.488	0.0179635
892.567	0.0179432
892.645	0.0179456
892.723	0.0178656
892.801	0.0179765
892.879	0.0180728
892.957	0.0177978
893.035	0.0177559
893.113	0.0179983
893.192	0.0179307
893.270	0.0178461
893.348	0.0179233
893.426	0.0179549
893.504	0.0179255
893.582	0.0179073
893.660	0.0178487
893.738	0.0180685
893.817	0.0178857
893.895	0.0178100
893.973	0.0179765
894.051	0.0180380
894.129	0.0180690
894.207	0.0179587
894.285	0.0178336
894.363	0.0179736
894.442	0.0180737
894.520	0.0180010
894.598	0.0180007
894.676	0.0180726
894.754	0.0180494
894.832	0.0180758
894.910	0.0182236
894.988	0.0181512
895.067	0.0182505
895.145	0.0182754
895.223	0.0181905
895.301	0.0180694
895.379	0.0182021
895.457	0.0182098
895.535	0.0181882
895.613	0.0183838
895.692	0.0183231
895.770	0.0183163
895.848	0.0182176
895.926	0.0180959
896.004	0.0183307
896.082	0.0182640
896.160	0.0182651
896.238	0.0181979
896.317	0.0181921
896.395	0.0181965
896.473	0.0182555
896.551	0.0181770
896.629	0.0182013
896.707	0.0181432
896.785	0.0181822
896.863	0.0181735
896.942	0.0181340
897.020	0.0180657
897.098	0.0180990
897.176	0.0180441
897.254	0.0180652
897.332	0.0179461
897.410	0.0180215
897.488	0.0180743
897.567	0.0180754
897.645	0.0179855
897.723	0.0179105
897.801	0.0180362
897.879	0.0180738
897.957	0.0180147
898.035	0.0180326
898.113	0.0179247
898.192	0.0180696
898.270	0.0180495
898.348	0.0180370
898.426	0.0180671
898.504	0.0180127
898.582	0.0180693
898.660	0.0180878
898.738	0.0181964
898.817	0.0181528
898.895	0.0181310
898.973	0.0182067
899.051	0.0182740
899.129	0.0182302
899.207	0.0183031
899.285	0.0182362
899.363	0.0182850
899.442	0.0182448
899.520	0.0182246
899.598	0.0182771
899.676	0.0182265
899.754	0.0180447
899.832	0.0180625
899.910	0.0181445
899.988	0.0180278
900.067	0.0179122
900.145	0.0180556
900.223	0.0180642
900.301	0.0180143
900.379	0.0180351
900.457	0.0180803
900.535	0.0180119
900.613	0.0178906
900.692	0.0178259
900.770	0.0179153
900.848	0.0179949
900.926	0.0180431
901.004	0.0179215
901.082	0.0178879
901.160	0.0179944
901.238	0.0178819
901.317	0.0180109
901.395	0.0179439
901.473	0.0177774
901.551	0.0179587
901.629	0.0178295
901.707	0.0178831
901.785	0.0179439
901.863	0.0179896
901.942	0.0179470
902.020	0.0180096
902.098	0.0180015
902.176	0.0181245
902.254	0.0180567
902.332	0.0182201
902.410	0.0182785
902.488	0.0181937
902.567	0.0180817
902.645	0.0181110
902.723	0.0182260
902.801	0.0182781
902.879	0.0181963
902.957	0.0183264
903.035	0.0181735
903.113	0.0181081
903.192	0.0181396
903.270	0.0182037
903.348	0.0182014
903.426	0.0183348
903.504	0.0184706
903.582	0.0184751
903.660	0.0183685
903.738	0.0182713
903.817	0.0183868
903.895	0.0182511
903.973	0.0181190
904.051	0.0183071
904.129	0.0183949
904.207	0.0182671
904.285	0.0182508
904.363	0.0181374
904.442	0.0183168
904.520	0.0181796
904.598	0.0181284
904.676	0.0181290
904.754	0.0182135
904.832	0.0181252
904.910	0.0183710
904.988	0.0182729
905.067	0.0182188
905.145	0.0181644
905.223	0.0182694
905.301	0.0183374
905.379	0.0183696
905.457	0.0182742
905.535	0.0184485
905.613	0.0182964
905.692	0.0183694
905.770	0.0182442
905.848	0.0182698
905.926	0.0183970
906.004	0.0181973
906.082	0.0183585
906.160	0.0181832
906.238	0.0183507
906.317	0.0182321
906.395	0.0183329
906.473	0.0181626
906.551	0.0182542
906.629	0.0182766
906.707	0.0182161
906.785	0.0180492
906.863	0.0180212
906.942	0.0181438
907.020	0.0181638
907.098	0.0179526
907.176	0.0180647
907.254	0.0181681
907.332	0.0179682
907.410	0.0178999
907.488	0.0180248
907.567	0.0181287
907.645	0.0181211
907.723	0.0179852
907.801	0.0179612
907.879	0.0181166
907.957	0.0179917
908.035	0.0179051
908.113	0.0179987
908.192	0.0180901
908.270	0.0180948
908.348	0.0178496
908.426	0.0178791
908.504	0.0179411
908.582	0.0179827
908.660	0.0179588
908.738	0.0179703
908.817	0.0178835
908.895	0.0179372
908.973	0.0180945
909.051	0.0179029
909.129	0.0180555
909.207	0.0180254
909.285	0.0180737
909.363	0.0180638
909.442	0.0179053
909.520	0.0179230
909.598	0.0180448
909.676	0.0181548
909.754	0.0178662
909.832	0.0179453
909.910	0.0182362
909.988	0.0180695
910.067	0.0180067
910.145	0.0180737
910.223	0.0181250
910.301	0.0181931
910.379	0.0181197
910.457	0.0180672
910.535	0.0181789
910.613	0.0181091
910.692	0.0182397
910.770	0.0182182
910.848	0.0181242
910.926	0.0181190
911.004	0.0181596
911.082	0.0181660
911.160	0.0182411
911.238	0.0181960
911.317	0.0183085
911.395	0.0182748
911.473	0.0182570
911.551	0.0183436
911.629	0.0183851
911.707	0.0183007
911.785	0.0183130
911.863	0.0183500
911.942	0.0183498
912.020	0.0183131
912.098	0.0183311
912.176	0.0183729
912.254	0.0181528
912.332	0.0181183
912.410	0.0181192
912.488	0.0181824
912.567	0.0181244
912.645	0.0181607
912.723	0.0180904
912.801	0.0180194
912.879	0.0179753
912.957	0.0179924
913.035	0.0179710
913.113	0.0179742
913.192	0.0180930
913.270	0.0181570
913.348	0.0182010
913.426	0.0181837
913.504	0.0182240
913.582	0.0182184
913.660	0.0180230
913.738	0.0182155
913.817	0.0182053
913.895	0.0182132
913.973	0.0182332
914.051	0.0181041
914.129	0.0182031
914.207	0.0182111
914.285	0.0181213
914.363	0.0180849
914.442	0.0181529
914.520	0.0180428
914.598	0.0180278
914.676	0.0179723
914.754	0.0179466
914.832	0.0180237
914.910	0.0180203
914.988	0.0180469
915.067	0.0181020
915.145	0.0180746
915.223	0.0181525
915.301	0.0182035
915.379	0.0181531
915.457	0.0182162
915.535	0.0182230
915.613	0.0182352
915.692	0.0183292
915.770	0.0182842
915.848	0.0181820
915.926	0.0179925
916.004	0.0180963
916.082	0.0181499
916.160	0.0180178
916.238	0.0178937
916.317	0.0180135
916.395	0.0180656
916.473	0.0178959
916.551	0.0178252
916.629	0.0178635
916.707	0.0177699
916.785	0.0178410
916.863	0.0178571
916.942	0.0178678
917.020	0.0176820
917.098	0.0176545
917.176	0.0179247
917.254	0.0179829
917.332	0.0178517
917.410	0.0179520
917.488	0.0180257
917.567	0.0180476
917.645	0.0179076
917.723	0.0180109
917.801	0.0181191
917.879	0.0180477
917.957	0.0180869
918.035	0.0181389
918.113	0.0181201
918.192	0.0181715
918.270	0.0181227
918.348	0.0181579
918.426	0.0180254
918.504	0.0180476
918.582	0.0182883
918.660	0.0181249
918.738	0.0181714
918.817	0.0180999
918.895	0.0181584
918.973	0.0181873
919.051	0.0180674
919.129	0.0180028
919.207	0.0181178
919.285	0.0182122
919.363	0.0181235
919.442	0.0180136
919.520	0.0180119
919.598	0.0180424
919.676	0.0179655
919.754	0.0181349
919.832	0.0179397
919.910	0.0180906
