06/01/2022	21:56:03	Ver.	4.1	UNKNOWN
Optical Delay	599.988409	Delta X		0.078125	Sweeps	1	Scan Rate	0/0
Coordinates	Axis 1	NaN	Axis 2	NaN	Axis 3	NaN	Axis 4	NaN	Axis 5	NaN	Axis 6	0.000000
TX Power	0.000000	RX Power	0.000000

599.988	0.0179279
600.067	0.0179136
600.145	0.0180241
600.223	0.0179398
600.301	0.0179612
600.379	0.0179092
600.457	0.0178828
600.535	0.0179301
600.613	0.0179308
600.692	0.0179085
600.770	0.0180387
600.848	0.0181156
600.926	0.0179353
601.004	0.0178428
601.082	0.0179760
601.160	0.0178922
601.238	0.0178017
601.317	0.0179919
601.395	0.0179285
601.473	0.0179986
601.551	0.0180329
601.629	0.0178479
601.707	0.0179201
601.785	0.0179056
601.863	0.0179408
601.942	0.0179327
602.020	0.0179248
602.098	0.0179421
602.176	0.0178523
602.254	0.0179220
602.332	0.0180510
602.410	0.0178963
602.488	0.0179658
602.567	0.0179427
602.645	0.0178425
602.723	0.0178582
602.801	0.0179019
602.879	0.0178701
602.957	0.0180123
603.035	0.0179663
603.113	0.0178915
603.192	0.0179476
603.270	0.0179296
603.348	0.0180299
603.426	0.0179221
603.504	0.0178944
603.582	0.0178051
603.660	0.0179430
603.738	0.0178970
603.817	0.0179871
603.895	0.0178170
603.973	0.0178796
604.051	0.0179195
604.129	0.0179975
604.207	0.0179764
604.285	0.0180196
604.363	0.0179772
604.442	0.0179119
604.520	0.0178323
604.598	0.0179447
604.676	0.0179638
604.754	0.0178769
604.832	0.0179656
604.910	0.0179227
604.988	0.0178764
605.067	0.0178785
605.145	0.0180017
605.223	0.0180108
605.301	0.0179916
605.379	0.0178493
605.457	0.0179097
605.535	0.0180583
605.613	0.0180061
605.692	0.0180042
605.770	0.0178062
605.848	0.0179848
605.926	0.0179792
606.004	0.0178525
606.082	0.0180019
606.160	0.0179743
606.238	0.0177908
606.317	0.0178884
606.395	0.0178261
606.473	0.0179907
606.551	0.0180001
606.629	0.0179363
606.707	0.0180107
606.785	0.0178537
606.863	0.0179738
606.942	0.0179307
607.020	0.0180192
607.098	0.0178350
607.176	0.0179498
607.254	0.0178325
607.332	0.0179234
607.410	0.0178577
607.488	0.0178136
607.567	0.0180586
607.645	0.0179916
607.723	0.0179984
607.801	0.0178120
607.879	0.0180053
607.957	0.0180032
608.035	0.0179928
608.113	0.0180508
608.192	0.0179425
608.270	0.0180414
608.348	0.0178986
608.426	0.0179630
608.504	0.0179451
608.582	0.0179145
608.660	0.0179502
608.738	0.0179858
608.817	0.0178795
608.895	0.0180941
608.973	0.0178109
609.051	0.0179958
609.129	0.0179585
609.207	0.0179543
609.285	0.0179578
609.363	0.0179007
609.442	0.0179559
609.520	0.0179858
609.598	0.0179440
609.676	0.0179537
609.754	0.0180099
609.832	0.0178669
609.910	0.0179012
609.988	0.0179571
610.067	0.0180280
610.145	0.0179684
610.223	0.0178574
610.301	0.0179800
610.379	0.0180228
610.457	0.0179836
610.535	0.0178963
610.613	0.0179521
610.692	0.0179597
610.770	0.0179079
610.848	0.0179892
610.926	0.0178574
611.004	0.0178643
611.082	0.0179008
611.160	0.0179482
611.238	0.0179554
611.317	0.0179239
611.395	0.0178130
611.473	0.0179195
611.551	0.0179320
611.629	0.0178305
611.707	0.0179440
611.785	0.0178252
611.863	0.0179759
611.942	0.0179369
612.020	0.0178902
612.098	0.0179306
612.176	0.0179234
612.254	0.0177867
612.332	0.0179027
612.410	0.0178710
612.488	0.0179103
612.567	0.0177785
612.645	0.0179385
612.723	0.0178905
612.801	0.0179482
612.879	0.0179369
612.957	0.0179153
613.035	0.0179278
613.113	0.0178945
613.192	0.0180297
613.270	0.0179715
613.348	0.0180064
613.426	0.0178886
613.504	0.0178625
613.582	0.0177802
613.660	0.0178339
613.738	0.0179126
613.817	0.0179369
613.895	0.0179999
613.973	0.0177648
614.051	0.0178849
614.129	0.0178651
614.207	0.0178560
614.285	0.0180709
614.363	0.0178755
614.442	0.0179399
614.520	0.0179368
614.598	0.0180424
614.676	0.0178620
614.754	0.0177675
614.832	0.0179736
614.910	0.0179482
614.988	0.0178524
615.067	0.0179473
615.145	0.0178584
615.223	0.0179115
615.301	0.0181009
615.379	0.0178649
615.457	0.0180329
615.535	0.0179287
615.613	0.0178719
615.692	0.0178832
615.770	0.0179314
615.848	0.0180344
615.926	0.0179165
616.004	0.0178696
616.082	0.0177914
616.160	0.0179805
616.238	0.0178658
616.317	0.0180415
616.395	0.0179440
616.473	0.0178649
616.551	0.0179092
616.629	0.0178600
616.707	0.0179882
616.785	0.0179741
616.863	0.0179771
616.942	0.0178592
617.020	0.0179063
617.098	0.0180139
617.176	0.0180833
617.254	0.0180920
617.332	0.0180092
617.410	0.0180706
617.488	0.0179877
617.567	0.0179929
617.645	0.0179935
617.723	0.0179359
617.801	0.0179592
617.879	0.0179048
617.957	0.0178869
618.035	0.0179163
618.113	0.0179333
618.192	0.0179910
618.270	0.0178310
618.348	0.0177661
618.426	0.0178576
618.504	0.0179353
618.582	0.0179630
618.660	0.0178706
618.738	0.0179819
618.817	0.0179707
618.895	0.0179063
618.973	0.0178994
619.051	0.0180002
619.129	0.0179484
619.207	0.0179750
619.285	0.0178889
619.363	0.0178759
619.442	0.0179971
619.520	0.0178519
619.598	0.0178362
619.676	0.0178236
619.754	0.0178934
619.832	0.0179483
619.910	0.0178027
619.988	0.0178190
620.067	0.0179430
620.145	0.0179089
620.223	0.0178368
620.301	0.0179181
620.379	0.0179235
620.457	0.0179485
620.535	0.0180372
620.613	0.0178642
620.692	0.0180659
620.770	0.0179987
620.848	0.0180255
620.926	0.0179195
621.004	0.0179945
621.082	0.0179420
621.160	0.0179390
621.238	0.0179225
621.317	0.0178371
621.395	0.0179008
621.473	0.0179453
621.551	0.0177367
621.629	0.0179594
621.707	0.0178841
621.785	0.0177249
621.863	0.0178930
621.942	0.0179092
622.020	0.0178569
622.098	0.0178378
622.176	0.0179262
622.254	0.0178190
622.332	0.0180416
622.410	0.0180312
622.488	0.0181135
622.567	0.0181045
622.645	0.0180576
622.723	0.0180466
622.801	0.0179675
622.879	0.0180055
622.957	0.0179207
623.035	0.0179732
623.113	0.0179661
623.192	0.0177957
623.270	0.0178146
623.348	0.0178660
623.426	0.0178677
623.504	0.0179548
623.582	0.0179773
623.660	0.0178458
623.738	0.0180054
623.817	0.0180613
623.895	0.0178071
623.973	0.0180447
624.051	0.0179268
624.129	0.0179388
624.207	0.0179781
624.285	0.0179527
624.363	0.0178830
624.442	0.0178676
624.520	0.0179083
624.598	0.0178262
624.676	0.0180299
624.754	0.0179412
624.832	0.0179082
624.910	0.0178652
624.988	0.0179479
625.067	0.0179371
625.145	0.0179713
625.223	0.0179863
625.301	0.0178343
625.379	0.0177531
625.457	0.0179592
625.535	0.0178227
625.613	0.0180096
625.692	0.0178852
625.770	0.0178851
625.848	0.0178722
625.926	0.0178233
626.004	0.0178542
626.082	0.0179916
626.160	0.0179805
626.238	0.0179706
626.317	0.0179141
626.395	0.0178751
626.473	0.0178617
626.551	0.0179108
626.629	0.0180020
626.707	0.0180097
626.785	0.0178889
626.863	0.0179537
626.942	0.0180477
627.020	0.0182190
627.098	0.0179005
627.176	0.0180401
627.254	0.0179156
627.332	0.0179070
627.410	0.0180182
627.488	0.0179030
627.567	0.0178595
627.645	0.0178180
627.723	0.0178367
627.801	0.0179509
627.879	0.0180190
627.957	0.0179266
628.035	0.0179154
628.113	0.0180312
628.192	0.0181023
628.270	0.0180534
628.348	0.0179107
628.426	0.0180453
628.504	0.0180950
628.582	0.0179729
628.660	0.0180128
628.738	0.0180024
628.817	0.0179911
628.895	0.0178498
628.973	0.0177827
629.051	0.0178565
629.129	0.0178931
629.207	0.0179930
629.285	0.0178590
629.363	0.0178307
629.442	0.0178146
629.520	0.0179065
629.598	0.0180054
629.676	0.0179681
629.754	0.0178642
629.832	0.0178975
629.910	0.0179111
629.988	0.0180074
630.067	0.0180608
630.145	0.0179807
630.223	0.0179910
630.301	0.0179549
630.379	0.0179785
630.457	0.0179983
630.535	0.0179910
630.613	0.0178532
630.692	0.0180938
630.770	0.0179594
630.848	0.0179147
630.926	0.0178938
631.004	0.0179425
631.082	0.0178368
631.160	0.0178311
631.238	0.0179248
631.317	0.0178978
631.395	0.0178129
631.473	0.0178437
631.551	0.0178285
631.629	0.0179153
631.707	0.0178607
631.785	0.0179389
631.863	0.0179783
631.942	0.0179607
632.020	0.0180450
632.098	0.0179512
632.176	0.0180251
632.254	0.0179203
632.332	0.0178378
632.410	0.0180408
632.488	0.0179557
632.567	0.0179594
632.645	0.0180264
632.723	0.0180853
632.801	0.0179901
632.879	0.0178864
632.957	0.0178178
633.035	0.0180916
633.113	0.0181419
633.192	0.0179501
633.270	0.0180209
633.348	0.0180379
633.426	0.0180958
633.504	0.0180019
633.582	0.0179391
633.660	0.0179211
633.738	0.0180585
633.817	0.0179793
633.895	0.0179226
633.973	0.0177737
634.051	0.0178857
634.129	0.0179147
634.207	0.0179700
634.285	0.0180113
634.363	0.0180250
634.442	0.0179590
634.520	0.0179083
634.598	0.0178600
634.676	0.0179766
634.754	0.0179683
634.832	0.0179610
634.910	0.0180908
634.988	0.0178743
635.067	0.0179160
635.145	0.0180369
635.223	0.0178065
635.301	0.0179070
635.379	0.0179436
635.457	0.0179308
635.535	0.0177664
635.613	0.0180273
635.692	0.0180571
635.770	0.0180627
635.848	0.0179620
635.926	0.0178734
636.004	0.0179337
636.082	0.0180037
636.160	0.0178986
636.238	0.0179437
636.317	0.0180957
636.395	0.0180417
636.473	0.0179166
636.551	0.0179512
636.629	0.0178568
636.707	0.0179430
636.785	0.0178885
636.863	0.0180325
636.942	0.0179736
637.020	0.0179093
637.098	0.0177962
637.176	0.0179430
637.254	0.0179218
637.332	0.0178059
637.410	0.0178865
637.488	0.0180499
637.567	0.0179587
637.645	0.0181351
637.723	0.0178563
637.801	0.0181208
637.879	0.0181728
637.957	0.0179845
638.035	0.0180757
638.113	0.0179686
638.192	0.0179122
638.270	0.0178735
638.348	0.0179638
638.426	0.0178973
638.504	0.0178608
638.582	0.0178519
638.660	0.0179007
638.738	0.0177300
638.817	0.0178596
638.895	0.0178726
638.973	0.0178463
639.051	0.0179861
639.129	0.0178094
639.207	0.0179259
639.285	0.0179326
639.363	0.0178554
639.442	0.0180102
639.520	0.0178793
639.598	0.0180241
639.676	0.0180315
639.754	0.0180334
639.832	0.0181586
639.910	0.0180822
639.988	0.0180045
640.067	0.0180264
640.145	0.0179600
640.223	0.0178622
640.301	0.0180112
640.379	0.0179844
640.457	0.0179012
640.535	0.0178857
640.613	0.0177981
640.692	0.0178925
640.770	0.0178214
640.848	0.0177315
640.926	0.0177106
641.004	0.0177993
641.082	0.0178131
641.160	0.0178298
641.238	0.0179026
641.317	0.0179102
641.395	0.0178600
641.473	0.0178558
641.551	0.0180322
641.629	0.0179700
641.707	0.0180784
641.785	0.0179997
641.863	0.0179948
641.942	0.0180986
642.020	0.0181164
642.098	0.0179991
642.176	0.0180855
642.254	0.0181268
642.332	0.0179124
642.410	0.0179779
642.488	0.0179436
642.567	0.0179959
642.645	0.0179182
642.723	0.0178216
642.801	0.0178225
642.879	0.0178864
642.957	0.0178539
643.035	0.0177874
643.113	0.0177728
643.192	0.0178967
643.270	0.0178473
643.348	0.0178711
643.426	0.0178853
643.504	0.0180293
643.582	0.0178336
643.660	0.0179343
643.738	0.0180359
643.817	0.0181002
643.895	0.0180959
643.973	0.0181338
644.051	0.0179430
644.129	0.0180147
644.207	0.0180888
644.285	0.0180350
644.363	0.0180164
644.442	0.0180148
644.520	0.0178167
644.598	0.0177699
644.676	0.0178764
644.754	0.0180100
644.832	0.0179190
644.910	0.0179137
644.988	0.0178523
645.067	0.0178198
645.145	0.0178834
645.223	0.0178300
645.301	0.0178894
645.379	0.0178084
645.457	0.0179787
645.535	0.0177956
645.613	0.0179305
645.692	0.0179578
645.770	0.0180024
645.848	0.0178891
645.926	0.0179172
646.004	0.0179439
646.082	0.0180253
646.160	0.0179424
646.238	0.0179533
646.317	0.0179080
646.395	0.0178378
646.473	0.0178638
646.551	0.0178878
646.629	0.0179670
646.707	0.0178128
646.785	0.0178024
646.863	0.0179189
646.942	0.0179574
647.020	0.0180444
647.098	0.0178054
647.176	0.0177507
647.254	0.0180188
647.332	0.0178500
647.410	0.0179628
647.488	0.0179851
647.567	0.0179366
647.645	0.0179304
647.723	0.0178645
647.801	0.0179749
647.879	0.0179632
647.957	0.0179009
648.035	0.0179016
648.113	0.0178670
648.192	0.0179089
648.270	0.0178067
648.348	0.0177621
648.426	0.0177698
648.504	0.0178202
648.582	0.0179123
648.660	0.0178088
648.738	0.0178491
648.817	0.0179721
648.895	0.0180293
648.973	0.0180770
649.051	0.0179027
649.129	0.0180362
649.207	0.0180077
649.285	0.0180375
649.363	0.0178928
649.442	0.0179553
649.520	0.0180094
649.598	0.0179716
649.676	0.0178793
649.754	0.0178101
649.832	0.0177305
649.910	0.0178991
649.988	0.0178534
650.067	0.0179001
650.145	0.0177651
650.223	0.0178478
650.301	0.0177988
650.379	0.0176929
650.457	0.0178519
650.535	0.0178644
650.613	0.0179176
650.692	0.0177657
650.770	0.0178381
650.848	0.0179259
650.926	0.0179823
651.004	0.0180715
651.082	0.0179980
651.160	0.0180453
651.238	0.0180217
651.317	0.0180312
651.395	0.0179971
651.473	0.0180183
651.551	0.0181777
651.629	0.0179604
651.707	0.0179122
651.785	0.0180163
651.863	0.0179889
651.942	0.0180841
652.020	0.0178706
652.098	0.0178040
652.176	0.0177597
652.254	0.0177504
652.332	0.0178661
652.410	0.0177749
652.488	0.0176360
652.567	0.0178037
652.645	0.0177905
652.723	0.0178185
652.801	0.0178551
652.879	0.0179103
652.957	0.0179940
653.035	0.0179732
653.113	0.0178416
653.192	0.0181223
653.270	0.0181781
653.348	0.0181798
653.426	0.0181821
653.504	0.0180520
653.582	0.0180888
653.660	0.0181036
653.738	0.0180183
653.817	0.0179850
653.895	0.0180371
653.973	0.0180977
654.051	0.0178626
654.129	0.0178978
654.207	0.0178249
654.285	0.0178363
654.363	0.0179191
654.442	0.0178019
654.520	0.0177472
654.598	0.0178468
654.676	0.0179273
654.754	0.0178055
654.832	0.0178062
654.910	0.0179309
654.988	0.0178625
655.067	0.0178658
655.145	0.0178577
655.223	0.0179280
655.301	0.0179407
655.379	0.0179092
655.457	0.0179166
655.535	0.0180082
655.613	0.0179996
655.692	0.0178694
655.770	0.0179581
655.848	0.0179775
655.926	0.0180264
656.004	0.0180178
656.082	0.0179680
656.160	0.0179087
656.238	0.0178509
656.317	0.0179301
656.395	0.0178928
656.473	0.0179974
656.551	0.0179136
656.629	0.0178810
656.707	0.0179327
656.785	0.0180470
656.863	0.0178793
656.942	0.0179467
657.020	0.0179636
657.098	0.0181303
657.176	0.0181785
657.254	0.0181029
657.332	0.0180862
657.410	0.0181744
657.488	0.0180910
657.567	0.0180510
657.645	0.0181278
657.723	0.0181730
657.801	0.0180634
657.879	0.0180283
657.957	0.0180506
658.035	0.0181235
658.113	0.0179956
658.192	0.0177705
658.270	0.0180405
658.348	0.0179990
658.426	0.0177247
658.504	0.0179517
658.582	0.0178470
658.660	0.0176617
658.738	0.0178487
658.817	0.0179473
658.895	0.0178465
658.973	0.0178578
659.051	0.0179028
659.129	0.0178680
659.207	0.0178334
659.285	0.0179288
659.363	0.0179521
659.442	0.0179655
659.520	0.0180107
659.598	0.0178192
659.676	0.0179553
659.754	0.0180242
659.832	0.0179947
659.910	0.0179218
659.988	0.0180780
660.067	0.0179427
660.145	0.0180932
660.223	0.0181377
660.301	0.0180276
660.379	0.0179065
660.457	0.0180228
660.535	0.0179843
660.613	0.0179784
660.692	0.0179810
660.770	0.0180161
660.848	0.0179713
660.926	0.0180933
661.004	0.0179036
661.082	0.0180272
661.160	0.0179662
661.238	0.0177676
661.317	0.0179121
661.395	0.0179543
661.473	0.0179451
661.551	0.0178980
661.629	0.0179008
661.707	0.0178801
661.785	0.0178778
661.863	0.0178658
661.942	0.0178404
662.020	0.0179262
662.098	0.0178819
662.176	0.0178106
662.254	0.0178764
662.332	0.0178815
662.410	0.0178613
662.488	0.0178802
662.567	0.0178732
662.645	0.0179134
662.723	0.0179174
662.801	0.0178282
662.879	0.0180027
662.957	0.0179585
663.035	0.0179349
663.113	0.0177738
663.192	0.0179559
663.270	0.0178473
663.348	0.0177856
663.426	0.0178207
663.504	0.0179358
663.582	0.0177940
663.660	0.0178170
663.738	0.0179698
663.817	0.0179375
663.895	0.0177621
663.973	0.0179279
664.051	0.0180052
664.129	0.0178630
664.207	0.0179146
664.285	0.0179234
664.363	0.0180415
664.442	0.0180436
664.520	0.0180293
664.598	0.0180965
664.676	0.0179454
664.754	0.0181356
664.832	0.0181249
664.910	0.0179900
664.988	0.0179456
665.067	0.0180865
665.145	0.0181023
665.223	0.0179474
665.301	0.0180666
665.379	0.0180411
665.457	0.0179728
665.535	0.0179675
665.613	0.0179666
665.692	0.0179929
665.770	0.0179268
665.848	0.0178665
665.926	0.0178226
666.004	0.0178596
666.082	0.0177996
666.160	0.0177882
666.238	0.0179279
666.317	0.0178896
666.395	0.0179014
666.473	0.0177246
666.551	0.0178036
666.629	0.0178487
666.707	0.0178928
666.785	0.0177333
666.863	0.0178795
666.942	0.0178155
667.020	0.0178304
667.098	0.0178025
667.176	0.0179073
667.254	0.0179473
667.332	0.0178777
667.410	0.0179376
667.488	0.0179727
667.567	0.0179726
667.645	0.0179028
667.723	0.0179383
667.801	0.0180275
667.879	0.0179623
667.957	0.0179604
668.035	0.0178478
668.113	0.0179668
668.192	0.0178798
668.270	0.0178786
668.348	0.0178764
668.426	0.0179939
668.504	0.0180384
668.582	0.0180753
668.660	0.0178124
668.738	0.0180318
668.817	0.0180201
668.895	0.0180661
668.973	0.0181069
669.051	0.0180260
669.129	0.0180620
669.207	0.0181576
669.285	0.0182475
669.363	0.0181373
669.442	0.0181468
669.520	0.0181282
669.598	0.0181718
669.676	0.0182138
669.754	0.0179790
669.832	0.0180811
669.910	0.0181107
669.988	0.0180202
670.067	0.0180343
670.145	0.0181870
670.223	0.0180257
670.301	0.0180117
670.379	0.0178703
670.457	0.0179433
670.535	0.0179836
670.613	0.0179272
670.692	0.0178317
670.770	0.0178428
670.848	0.0180141
670.926	0.0178326
671.004	0.0177733
671.082	0.0179475
671.160	0.0179303
671.238	0.0178575
671.317	0.0178867
671.395	0.0180406
671.473	0.0179937
671.551	0.0180489
671.629	0.0179671
671.707	0.0179817
671.785	0.0180317
671.863	0.0178225
671.942	0.0180870
672.020	0.0181392
672.098	0.0180590
672.176	0.0180531
672.254	0.0180798
672.332	0.0179831
672.410	0.0181145
672.488	0.0179248
672.567	0.0180891
672.645	0.0179919
672.723	0.0179139
672.801	0.0179498
672.879	0.0180679
672.957	0.0180024
673.035	0.0179047
673.113	0.0177582
673.192	0.0177137
673.270	0.0177371
673.348	0.0177948
673.426	0.0178181
673.504	0.0177190
673.582	0.0177581
673.660	0.0178327
673.738	0.0177757
673.817	0.0178523
673.895	0.0178414
673.973	0.0177622
674.051	0.0180173
674.129	0.0179740
674.207	0.0179803
674.285	0.0180482
674.363	0.0180002
674.442	0.0181512
674.520	0.0182088
674.598	0.0181137
674.676	0.0181046
674.754	0.0181330
674.832	0.0181509
674.910	0.0180997
674.988	0.0181514
675.067	0.0181057
675.145	0.0180767
675.223	0.0180213
675.301	0.0180944
675.379	0.0179961
675.457	0.0179199
675.535	0.0178798
675.613	0.0181561
675.692	0.0180853
675.770	0.0182024
675.848	0.0180467
675.926	0.0180058
676.004	0.0179568
676.082	0.0179276
676.160	0.0180043
676.238	0.0179529
676.317	0.0178195
676.395	0.0177901
676.473	0.0178396
676.551	0.0177849
676.629	0.0176164
676.707	0.0176527
676.785	0.0175806
676.863	0.0175915
676.942	0.0176180
677.020	0.0175647
677.098	0.0175471
677.176	0.0175201
677.254	0.0174685
677.332	0.0176266
677.410	0.0174921
677.488	0.0175224
677.567	0.0176179
677.645	0.0176147
677.723	0.0177310
677.801	0.0180013
677.879	0.0180373
677.957	0.0181940
678.035	0.0183109
678.113	0.0185004
678.192	0.0185810
678.270	0.0187286
678.348	0.0188256
678.426	0.0188803
678.504	0.0189454
678.582	0.0189127
678.660	0.0189851
678.738	0.0190012
678.817	0.0189659
678.895	0.0189555
678.973	0.0187369
679.051	0.0185941
679.129	0.0185163
679.207	0.0182127
679.285	0.0182648
679.363	0.0179231
679.442	0.0174977
679.520	0.0173735
679.598	0.0174588
679.676	0.0171864
679.754	0.0167431
679.832	0.0167509
679.910	0.0166626
679.988	0.0165137
680.067	0.0164276
680.145	0.0163251
680.223	0.0164324
680.301	0.0162849
680.379	0.0164022
680.457	0.0165511
680.535	0.0166815
680.613	0.0167981
680.692	0.0169713
680.770	0.0172765
680.848	0.0173683
680.926	0.0177316
681.004	0.0179947
681.082	0.0183692
681.160	0.0186938
681.238	0.0188362
681.317	0.0190174
681.395	0.0194324
681.473	0.0196268
681.551	0.0198565
681.629	0.0198611
681.707	0.0200341
681.785	0.0201660
681.863	0.0201510
681.942	0.0198944
682.020	0.0199415
682.098	0.0197126
682.176	0.0195138
682.254	0.0192786
682.332	0.0189976
682.410	0.0187176
682.488	0.0183643
682.567	0.0180325
682.645	0.0175951
682.723	0.0172323
682.801	0.0170213
682.879	0.0166462
682.957	0.0163483
683.035	0.0159935
683.113	0.0159210
683.192	0.0157178
683.270	0.0155868
683.348	0.0154392
683.426	0.0155787
683.504	0.0154527
683.582	0.0155735
683.660	0.0155932
683.738	0.0158705
683.817	0.0159479
683.895	0.0162258
683.973	0.0165984
684.051	0.0167658
684.129	0.0170895
684.207	0.0175665
684.285	0.0179310
684.363	0.0183868
684.442	0.0187382
684.520	0.0191906
684.598	0.0195520
684.676	0.0199155
684.754	0.0203835
684.832	0.0206870
684.910	0.0206057
684.988	0.0208620
685.067	0.0208409
685.145	0.0208223
685.223	0.0208653
685.301	0.0205264
685.379	0.0203885
685.457	0.0201199
685.535	0.0198246
685.613	0.0192673
685.692	0.0189510
685.770	0.0184621
685.848	0.0181633
685.926	0.0177351
686.004	0.0172325
686.082	0.0169740
686.160	0.0165781
686.238	0.0161274
686.317	0.0157090
686.395	0.0156087
686.473	0.0153976
686.551	0.0151164
686.629	0.0150058
686.707	0.0151854
686.785	0.0151263
686.863	0.0152043
686.942	0.0152297
687.020	0.0152943
687.098	0.0156718
687.176	0.0158728
687.254	0.0162415
687.332	0.0164999
687.410	0.0168120
687.488	0.0171339
687.567	0.0174995
687.645	0.0177647
687.723	0.0181715
687.801	0.0184135
687.879	0.0188867
687.957	0.0191507
688.035	0.0194245
688.113	0.0196823
688.192	0.0199722
688.270	0.0201191
688.348	0.0201154
688.426	0.0203340
688.504	0.0203059
688.582	0.0204250
688.660	0.0204515
688.738	0.0202611
688.817	0.0200057
688.895	0.0198299
688.973	0.0195986
689.051	0.0193927
689.129	0.0191325
689.207	0.0188680
689.285	0.0186835
689.363	0.0182847
689.442	0.0180575
689.520	0.0177178
689.598	0.0176227
689.676	0.0173991
689.754	0.0172272
689.832	0.0170190
689.910	0.0169917
689.988	0.0167820
690.067	0.0167216
690.145	0.0166671
690.223	0.0166563
690.301	0.0163184
690.379	0.0163152
690.457	0.0161972
690.535	0.0160979
690.613	0.0161070
690.692	0.0162157
690.770	0.0161042
690.848	0.0162018
690.926	0.0162916
691.004	0.0166290
691.082	0.0167399
691.160	0.0170975
691.238	0.0172499
691.317	0.0173858
691.395	0.0176844
691.473	0.0179736
691.551	0.0181314
691.629	0.0183671
691.707	0.0184611
691.785	0.0186033
691.863	0.0186616
691.942	0.0187858
692.020	0.0189146
692.098	0.0190750
692.176	0.0190432
692.254	0.0191443
692.332	0.0190852
692.410	0.0193558
692.488	0.0192879
692.567	0.0191204
692.645	0.0192172
692.723	0.0192754
692.801	0.0192071
692.879	0.0189818
692.957	0.0188954
693.035	0.0186395
693.113	0.0184818
693.192	0.0185245
693.270	0.0182138
693.348	0.0180030
693.426	0.0176847
693.504	0.0175849
693.582	0.0174839
693.660	0.0174972
693.738	0.0174929
693.817	0.0175230
693.895	0.0175777
693.973	0.0176721
694.051	0.0179054
694.129	0.0179459
694.207	0.0179667
694.285	0.0182549
694.363	0.0182964
694.442	0.0183664
694.520	0.0184914
694.598	0.0184490
694.676	0.0184256
694.754	0.0184505
694.832	0.0182507
694.910	0.0181522
694.988	0.0178472
695.067	0.0178335
695.145	0.0177145
695.223	0.0173880
695.301	0.0171809
695.379	0.0172019
695.457	0.0169847
695.535	0.0167908
695.613	0.0166404
695.692	0.0164723
695.770	0.0164815
695.848	0.0162896
695.926	0.0161693
696.004	0.0161749
696.082	0.0161542
696.160	0.0161650
696.238	0.0161672
696.317	0.0161781
696.395	0.0162138
696.473	0.0164165
696.551	0.0164410
696.629	0.0166212
696.707	0.0169936
696.785	0.0171039
696.863	0.0174540
696.942	0.0176938
697.020	0.0182642
697.098	0.0185669
697.176	0.0188144
697.254	0.0192681
697.332	0.0197143
697.410	0.0199334
697.488	0.0201955
697.567	0.0203604
697.645	0.0205907
697.723	0.0206902
697.801	0.0207266
697.879	0.0207894
697.957	0.0207584
698.035	0.0206897
698.113	0.0205018
698.192	0.0205441
698.270	0.0202396
698.348	0.0200272
698.426	0.0198495
698.504	0.0195307
698.582	0.0190854
698.660	0.0188493
698.738	0.0185089
698.817	0.0182792
698.895	0.0177835
698.973	0.0176243
699.051	0.0172276
699.129	0.0168950
699.207	0.0167559
699.285	0.0165475
699.363	0.0162634
699.442	0.0161353
699.520	0.0159803
699.598	0.0157975
699.676	0.0157233
699.754	0.0157209
699.832	0.0156217
699.910	0.0156494
699.988	0.0155362
700.067	0.0155535
700.145	0.0155428
700.223	0.0155331
700.301	0.0157969
700.379	0.0157847
700.457	0.0157546
700.535	0.0160157
700.613	0.0160251
700.692	0.0161465
700.770	0.0163102
700.848	0.0164446
700.926	0.0167946
701.004	0.0168840
701.082	0.0172276
701.160	0.0176210
701.238	0.0178101
701.317	0.0180669
701.395	0.0185991
701.473	0.0188641
701.551	0.0191443
701.629	0.0194936
701.707	0.0195790
701.785	0.0198953
701.863	0.0201316
701.942	0.0203787
702.020	0.0203906
702.098	0.0204063
702.176	0.0204699
702.254	0.0205784
702.332	0.0204264
702.410	0.0203678
702.488	0.0204350
702.567	0.0202007
702.645	0.0199577
702.723	0.0199481
702.801	0.0196098
702.879	0.0195632
702.957	0.0192734
703.035	0.0190525
703.113	0.0188976
703.192	0.0186490
703.270	0.0185651
703.348	0.0183504
703.426	0.0181181
703.504	0.0178978
703.582	0.0177552
703.660	0.0174850
703.738	0.0172820
703.817	0.0172778
703.895	0.0169530
703.973	0.0168180
704.051	0.0165307
704.129	0.0164030
704.207	0.0163349
704.285	0.0160900
704.363	0.0159753
704.442	0.0158284
704.520	0.0158849
704.598	0.0158717
704.676	0.0158823
704.754	0.0159560
704.832	0.0159730
704.910	0.0160358
704.988	0.0160629
705.067	0.0163010
705.145	0.0162893
705.223	0.0165974
705.301	0.0168159
705.379	0.0169061
705.457	0.0169769
705.535	0.0173406
705.613	0.0175292
705.692	0.0176103
705.770	0.0176431
705.848	0.0179585
705.926	0.0179049
706.004	0.0180703
706.082	0.0180883
706.160	0.0182198
706.238	0.0181602
706.317	0.0181062
706.395	0.0183292
706.473	0.0182690
706.551	0.0182954
706.629	0.0184000
706.707	0.0184303
706.785	0.0183476
706.863	0.0185059
706.942	0.0186970
707.020	0.0186095
707.098	0.0187988
707.176	0.0188763
707.254	0.0189404
707.332	0.0189719
707.410	0.0190464
707.488	0.0190413
707.567	0.0193300
707.645	0.0193364
707.723	0.0194535
707.801	0.0195589
707.879	0.0195673
707.957	0.0194470
708.035	0.0192298
708.113	0.0191388
708.192	0.0192437
708.270	0.0191200
708.348	0.0190433
708.426	0.0187683
708.504	0.0186456
708.582	0.0185250
708.660	0.0184268
708.738	0.0182556
708.817	0.0181195
708.895	0.0180775
708.973	0.0179704
709.051	0.0180735
709.129	0.0181367
709.207	0.0178898
709.285	0.0178933
709.363	0.0177566
709.442	0.0178033
709.520	0.0176797
709.598	0.0174595
709.676	0.0173922
709.754	0.0172695
709.832	0.0170698
709.910	0.0167969
709.988	0.0168018
710.067	0.0163822
710.145	0.0163126
710.223	0.0160747
710.301	0.0160743
710.379	0.0160460
710.457	0.0159325
710.535	0.0159058
710.613	0.0157839
710.692	0.0156229
710.770	0.0158690
710.848	0.0161660
710.926	0.0162006
711.004	0.0162753
711.082	0.0166465
711.160	0.0168108
711.238	0.0170957
711.317	0.0173074
711.395	0.0174974
711.473	0.0177139
711.551	0.0177814
711.629	0.0179937
711.707	0.0181530
711.785	0.0182442
711.863	0.0184146
711.942	0.0183637
712.020	0.0183679
712.098	0.0184489
712.176	0.0185190
712.254	0.0184503
712.332	0.0186001
712.410	0.0185567
712.488	0.0185554
712.567	0.0185656
712.645	0.0187195
712.723	0.0189413
712.801	0.0189137
712.879	0.0189670
712.957	0.0191600
713.035	0.0192743
713.113	0.0194238
713.192	0.0194701
713.270	0.0195686
713.348	0.0194201
713.426	0.0195102
713.504	0.0195178
713.582	0.0193040
713.660	0.0192822
713.738	0.0191429
713.817	0.0189914
713.895	0.0189078
713.973	0.0188030
714.051	0.0188086
714.129	0.0185517
714.207	0.0185018
714.285	0.0182205
714.363	0.0182893
714.442	0.0182825
714.520	0.0182771
714.598	0.0180146
714.676	0.0180087
714.754	0.0179658
714.832	0.0180305
714.910	0.0177280
714.988	0.0177457
715.067	0.0175810
715.145	0.0177135
715.223	0.0175051
715.301	0.0175339
715.379	0.0172250
715.457	0.0172634
715.535	0.0170899
715.613	0.0169487
715.692	0.0167445
715.770	0.0165074
715.848	0.0165542
715.926	0.0163163
716.004	0.0162753
716.082	0.0161944
716.160	0.0160077
716.238	0.0159644
716.317	0.0158673
716.395	0.0159847
716.473	0.0160995
716.551	0.0162199
716.629	0.0163633
716.707	0.0164608
716.785	0.0167923
716.863	0.0170422
716.942	0.0172103
717.020	0.0173743
717.098	0.0176205
717.176	0.0177010
717.254	0.0179235
717.332	0.0180267
717.410	0.0182433
717.488	0.0183499
717.567	0.0184039
717.645	0.0184030
717.723	0.0185384
717.801	0.0187033
717.879	0.0187563
717.957	0.0186414
718.035	0.0188187
718.113	0.0187132
718.192	0.0187559
718.270	0.0189420
718.348	0.0189500
718.426	0.0188261
718.504	0.0187989
718.582	0.0186849
718.660	0.0186787
718.738	0.0186007
718.817	0.0184730
718.895	0.0185936
718.973	0.0186675
719.051	0.0186311
719.129	0.0184505
719.207	0.0185636
719.285	0.0184371
719.363	0.0184509
719.442	0.0184741
719.520	0.0185399
719.598	0.0184544
719.676	0.0184653
719.754	0.0185299
719.832	0.0183830
719.910	0.0185358
719.988	0.0184387
720.067	0.0185546
720.145	0.0184398
720.223	0.0184750
720.301	0.0183710
720.379	0.0182322
720.457	0.0181399
720.535	0.0181490
720.613	0.0178737
720.692	0.0177520
720.770	0.0178661
720.848	0.0176151
720.926	0.0174131
721.004	0.0172807
721.082	0.0172206
721.160	0.0172607
721.238	0.0173051
721.317	0.0172489
721.395	0.0172141
721.473	0.0169878
721.551	0.0170487
721.629	0.0170566
721.707	0.0170463
721.785	0.0170166
721.863	0.0168822
721.942	0.0169607
722.020	0.0170618
722.098	0.0169457
722.176	0.0169883
722.254	0.0170560
722.332	0.0170691
722.410	0.0171040
722.488	0.0171918
722.567	0.0170953
722.645	0.0171282
722.723	0.0173545
722.801	0.0173877
722.879	0.0174939
722.957	0.0177682
723.035	0.0177606
723.113	0.0180261
723.192	0.0180812
723.270	0.0183170
723.348	0.0184146
723.426	0.0184692
723.504	0.0185828
723.582	0.0185519
723.660	0.0185468
723.738	0.0187289
723.817	0.0186630
723.895	0.0186008
723.973	0.0185666
724.051	0.0185414
724.129	0.0184900
724.207	0.0183591
724.285	0.0181268
724.363	0.0181809
724.442	0.0181072
724.520	0.0180148
724.598	0.0178828
724.676	0.0179065
724.754	0.0179286
724.832	0.0178627
724.910	0.0179150
724.988	0.0179472
725.067	0.0179688
725.145	0.0178843
725.223	0.0179202
725.301	0.0180930
725.379	0.0181169
725.457	0.0181554
725.535	0.0181839
725.613	0.0181429
725.692	0.0181728
725.770	0.0182451
725.848	0.0182207
725.926	0.0181374
726.004	0.0181364
726.082	0.0180247
726.160	0.0180461
726.238	0.0179995
726.317	0.0179532
726.395	0.0179592
726.473	0.0178696
726.551	0.0176411
726.629	0.0177389
726.707	0.0178088
726.785	0.0175988
726.863	0.0178117
726.942	0.0177457
727.020	0.0176524
727.098	0.0175394
727.176	0.0174893
727.254	0.0175543
727.332	0.0175446
727.410	0.0176995
727.488	0.0178617
727.567	0.0178622
727.645	0.0176681
727.723	0.0176939
727.801	0.0178236
727.879	0.0178095
727.957	0.0177782
728.035	0.0179148
728.113	0.0179745
728.192	0.0179881
728.270	0.0180503
728.348	0.0180219
728.426	0.0181194
728.504	0.0179646
728.582	0.0180564
728.660	0.0181857
728.738	0.0181561
728.817	0.0182045
728.895	0.0181862
728.973	0.0182336
729.051	0.0180630
729.129	0.0181963
729.207	0.0181580
729.285	0.0179520
729.363	0.0178844
729.442	0.0177800
729.520	0.0177675
729.598	0.0176218
729.676	0.0176158
729.754	0.0176747
729.832	0.0175951
729.910	0.0176862
729.988	0.0176220
730.067	0.0176713
730.145	0.0178406
730.223	0.0179043
730.301	0.0179278
730.379	0.0181418
730.457	0.0184039
730.535	0.0184477
730.613	0.0185255
730.692	0.0185695
730.770	0.0184705
730.848	0.0185511
730.926	0.0183834
731.004	0.0183353
731.082	0.0182536
731.160	0.0180791
731.238	0.0180331
731.317	0.0177556
731.395	0.0176340
731.473	0.0175494
731.551	0.0176333
731.629	0.0174898
731.707	0.0173964
731.785	0.0173564
731.863	0.0174038
731.942	0.0174442
732.020	0.0175352
732.098	0.0176305
732.176	0.0175571
732.254	0.0174989
732.332	0.0175733
732.410	0.0176921
732.488	0.0175629
732.567	0.0177419
732.645	0.0177955
732.723	0.0178136
732.801	0.0178472
732.879	0.0178345
732.957	0.0178701
733.035	0.0179693
733.113	0.0179068
733.192	0.0180207
733.270	0.0180511
733.348	0.0180875
733.426	0.0179948
733.504	0.0179718
733.582	0.0179508
733.660	0.0178733
733.738	0.0180225
733.817	0.0179064
733.895	0.0179305
733.973	0.0179267
734.051	0.0180005
734.129	0.0180180
734.207	0.0180501
734.285	0.0179832
734.363	0.0180772
734.442	0.0180985
734.520	0.0180875
734.598	0.0181136
734.676	0.0182305
734.754	0.0182569
734.832	0.0182949
734.910	0.0182203
734.988	0.0182861
735.067	0.0185605
735.145	0.0184126
735.223	0.0183762
735.301	0.0184603
735.379	0.0184118
735.457	0.0182072
735.535	0.0182981
735.613	0.0180935
735.692	0.0181587
735.770	0.0180177
735.848	0.0178793
735.926	0.0179379
736.004	0.0179379
736.082	0.0180486
736.160	0.0179601
736.238	0.0179254
736.317	0.0179188
736.395	0.0181023
736.473	0.0181055
736.551	0.0180792
736.629	0.0181532
736.707	0.0180231
736.785	0.0180843
736.863	0.0180726
736.942	0.0180254
737.020	0.0178308
737.098	0.0178870
737.176	0.0178166
737.254	0.0176692
737.332	0.0175395
737.410	0.0174122
737.488	0.0173783
737.567	0.0175226
737.645	0.0173216
737.723	0.0172789
737.801	0.0174329
737.879	0.0171970
737.957	0.0172999
738.035	0.0173280
738.113	0.0172332
738.192	0.0172939
738.270	0.0173225
738.348	0.0173008
738.426	0.0174102
738.504	0.0173918
738.582	0.0175956
738.660	0.0176794
738.738	0.0176252
738.817	0.0176779
738.895	0.0176564
738.973	0.0175560
739.051	0.0177364
739.129	0.0177451
739.207	0.0178459
739.285	0.0179674
739.363	0.0179729
739.442	0.0178864
739.520	0.0179228
739.598	0.0179412
739.676	0.0179295
739.754	0.0178117
739.832	0.0176997
739.910	0.0176671
739.988	0.0176060
740.067	0.0175190
740.145	0.0174193
740.223	0.0174796
740.301	0.0174448
740.379	0.0174876
740.457	0.0174683
740.535	0.0176522
740.613	0.0176598
740.692	0.0179664
740.770	0.0179262
740.848	0.0180927
740.926	0.0181983
741.004	0.0184015
741.082	0.0185719
741.160	0.0185780
741.238	0.0187354
741.317	0.0186747
741.395	0.0187680
741.473	0.0188736
741.551	0.0188992
741.629	0.0187093
741.707	0.0186891
741.785	0.0187663
741.863	0.0186600
741.942	0.0186620
742.020	0.0184570
742.098	0.0185771
742.176	0.0184932
742.254	0.0184401
742.332	0.0184785
742.410	0.0182323
742.488	0.0182499
742.567	0.0181789
742.645	0.0181327
742.723	0.0180859
742.801	0.0180175
742.879	0.0179866
742.957	0.0179234
743.035	0.0179469
743.113	0.0178513
743.192	0.0179692
743.270	0.0179007
743.348	0.0178242
743.426	0.0178433
743.504	0.0180888
743.582	0.0178542
743.660	0.0178408
743.738	0.0180154
743.817	0.0178607
743.895	0.0176456
743.973	0.0176641
744.051	0.0177493
744.129	0.0176171
744.207	0.0175600
744.285	0.0174229
744.363	0.0172903
744.442	0.0173196
744.520	0.0173152
744.598	0.0171685
744.676	0.0170570
744.754	0.0169956
744.832	0.0168436
744.910	0.0168801
744.988	0.0167862
745.067	0.0168723
745.145	0.0168084
745.223	0.0168745
745.301	0.0170770
745.379	0.0170642
745.457	0.0170316
745.535	0.0171732
745.613	0.0173582
745.692	0.0174325
745.770	0.0175444
745.848	0.0176255
745.926	0.0176054
746.004	0.0177713
746.082	0.0179278
746.160	0.0177081
746.238	0.0178617
746.317	0.0178063
746.395	0.0177705
746.473	0.0176251
746.551	0.0177602
746.629	0.0178048
746.707	0.0176596
746.785	0.0177860
746.863	0.0176131
746.942	0.0176295
747.020	0.0178389
747.098	0.0178467
747.176	0.0179735
747.254	0.0178198
747.332	0.0181289
747.410	0.0182239
747.488	0.0182614
747.567	0.0185374
747.645	0.0186529
747.723	0.0189381
747.801	0.0188028
747.879	0.0188952
747.957	0.0190537
748.035	0.0190305
748.113	0.0190202
748.192	0.0189654
748.270	0.0190318
748.348	0.0189999
748.426	0.0186440
748.504	0.0185294
748.582	0.0184722
748.660	0.0185242
748.738	0.0184351
748.817	0.0184097
748.895	0.0183961
748.973	0.0183549
749.051	0.0185785
749.129	0.0185455
749.207	0.0186008
749.285	0.0185131
749.363	0.0185306
749.442	0.0185896
749.520	0.0185602
749.598	0.0183890
749.676	0.0185459
749.754	0.0185599
749.832	0.0184456
749.910	0.0181423
749.988	0.0180308
750.067	0.0180054
750.145	0.0178677
750.223	0.0175495
750.301	0.0172467
750.379	0.0171180
750.457	0.0169061
750.535	0.0168037
750.613	0.0167923
750.692	0.0166936
750.770	0.0167288
750.848	0.0166518
750.926	0.0167627
751.004	0.0168202
751.082	0.0170200
751.160	0.0171759
751.238	0.0173499
751.317	0.0176228
751.395	0.0176675
751.473	0.0177521
751.551	0.0177694
751.629	0.0180042
751.707	0.0177991
751.785	0.0177728
751.863	0.0178796
751.942	0.0178421
752.020	0.0177428
752.098	0.0174551
752.176	0.0174661
752.254	0.0173658
752.332	0.0171391
752.410	0.0172820
752.488	0.0172384
752.567	0.0170489
752.645	0.0170719
752.723	0.0171839
752.801	0.0172111
752.879	0.0175540
752.957	0.0174760
753.035	0.0175639
753.113	0.0177426
753.192	0.0178795
753.270	0.0179198
753.348	0.0180736
753.426	0.0183022
753.504	0.0185735
753.582	0.0184837
753.660	0.0185928
753.738	0.0184689
753.817	0.0187302
753.895	0.0186984
753.973	0.0185388
754.051	0.0186877
754.129	0.0184446
754.207	0.0184389
754.285	0.0184062
754.363	0.0183758
754.442	0.0182926
754.520	0.0182668
754.598	0.0182519
754.676	0.0182813
754.754	0.0181557
754.832	0.0181075
754.910	0.0181880
754.988	0.0181069
755.067	0.0181491
755.145	0.0180207
755.223	0.0181078
755.301	0.0180977
755.379	0.0180784
755.457	0.0182198
755.535	0.0181340
755.613	0.0182207
755.692	0.0182520
755.770	0.0182451
755.848	0.0182743
755.926	0.0183252
756.004	0.0182388
756.082	0.0183298
756.160	0.0183675
756.238	0.0184167
756.317	0.0183879
756.395	0.0183387
756.473	0.0184557
756.551	0.0183546
756.629	0.0182815
756.707	0.0182925
756.785	0.0184707
756.863	0.0184450
756.942	0.0184201
757.020	0.0183500
757.098	0.0183522
757.176	0.0182586
757.254	0.0182693
757.332	0.0182886
757.410	0.0180894
757.488	0.0179601
757.567	0.0179533
757.645	0.0178953
757.723	0.0177063
757.801	0.0177434
757.879	0.0176766
757.957	0.0174359
758.035	0.0172198
758.113	0.0174171
758.192	0.0174007
758.270	0.0172341
758.348	0.0173059
758.426	0.0172622
758.504	0.0173840
758.582	0.0174399
758.660	0.0174419
758.738	0.0174953
758.817	0.0176254
758.895	0.0174688
758.973	0.0176791
759.051	0.0177728
759.129	0.0176904
759.207	0.0176858
759.285	0.0175057
759.363	0.0174849
759.442	0.0175191
759.520	0.0173646
759.598	0.0173003
759.676	0.0171542
759.754	0.0172697
759.832	0.0171296
759.910	0.0168900
759.988	0.0169341
760.067	0.0170106
760.145	0.0169231
760.223	0.0168403
760.301	0.0170358
760.379	0.0171494
760.457	0.0171402
760.535	0.0172150
760.613	0.0174092
760.692	0.0175163
760.770	0.0177083
760.848	0.0177751
760.926	0.0178648
761.004	0.0182058
761.082	0.0183616
761.160	0.0184285
761.238	0.0185931
761.317	0.0186874
761.395	0.0187350
761.473	0.0188794
761.551	0.0189157
761.629	0.0190360
761.707	0.0188106
761.785	0.0187926
761.863	0.0186446
761.942	0.0184594
762.020	0.0184946
762.098	0.0184084
762.176	0.0182013
762.254	0.0180809
762.332	0.0180690
762.410	0.0181181
762.488	0.0179614
762.567	0.0178568
762.645	0.0178450
762.723	0.0178915
762.801	0.0179599
762.879	0.0179306
762.957	0.0179217
763.035	0.0181075
763.113	0.0180796
763.192	0.0180814
763.270	0.0182609
763.348	0.0182915
763.426	0.0182746
763.504	0.0181544
763.582	0.0182452
763.660	0.0184821
763.738	0.0185079
763.817	0.0184829
763.895	0.0185946
763.973	0.0186849
764.051	0.0187735
764.129	0.0188100
764.207	0.0187875
764.285	0.0187417
764.363	0.0185523
764.442	0.0185388
764.520	0.0185965
764.598	0.0185192
764.676	0.0182637
764.754	0.0183968
764.832	0.0182841
764.910	0.0180283
764.988	0.0180401
765.067	0.0179288
765.145	0.0178333
765.223	0.0177248
765.301	0.0175583
765.379	0.0172949
765.457	0.0173495
765.535	0.0172314
765.613	0.0169735
765.692	0.0169553
765.770	0.0169527
765.848	0.0167948
765.926	0.0168213
766.004	0.0166784
766.082	0.0169592
766.160	0.0169687
766.238	0.0170155
766.317	0.0171008
766.395	0.0173950
766.473	0.0174347
766.551	0.0175127
766.629	0.0176141
766.707	0.0176084
766.785	0.0174648
766.863	0.0176852
766.942	0.0176047
767.020	0.0174948
767.098	0.0174371
767.176	0.0172562
767.254	0.0171807
767.332	0.0171417
767.410	0.0169641
767.488	0.0169228
767.567	0.0167410
767.645	0.0167381
767.723	0.0168842
767.801	0.0168969
767.879	0.0169732
767.957	0.0170291
768.035	0.0172182
768.113	0.0174504
768.192	0.0176031
768.270	0.0178765
768.348	0.0180740
768.426	0.0182857
768.504	0.0185003
768.582	0.0187902
768.660	0.0191338
768.738	0.0191682
768.817	0.0193018
768.895	0.0194517
768.973	0.0193803
769.051	0.0194839
769.129	0.0194811
769.207	0.0192190
769.285	0.0190340
769.363	0.0190363
769.442	0.0186285
769.520	0.0185355
769.598	0.0184200
769.676	0.0182329
769.754	0.0180769
769.832	0.0179544
769.910	0.0177337
769.988	0.0175943
770.067	0.0177082
770.145	0.0175755
770.223	0.0174204
770.301	0.0175679
770.379	0.0176418
770.457	0.0177328
770.535	0.0177866
770.613	0.0178827
770.692	0.0178205
770.770	0.0180536
770.848	0.0181656
770.926	0.0183936
771.004	0.0182722
771.082	0.0184983
771.160	0.0185416
771.238	0.0186620
771.317	0.0185731
771.395	0.0185754
771.473	0.0187848
771.551	0.0189470
771.629	0.0187574
771.707	0.0188891
771.785	0.0190586
771.863	0.0190715
771.942	0.0189130
772.020	0.0187864
772.098	0.0187367
772.176	0.0187760
772.254	0.0186533
772.332	0.0186676
772.410	0.0185440
772.488	0.0183162
772.567	0.0181730
772.645	0.0179893
772.723	0.0179944
772.801	0.0178475
772.879	0.0176266
772.957	0.0174678
773.035	0.0174236
773.113	0.0173176
773.192	0.0171053
773.270	0.0171378
773.348	0.0170750
773.426	0.0169463
773.504	0.0169263
773.582	0.0167764
773.660	0.0168023
773.738	0.0167921
773.817	0.0167106
773.895	0.0167967
773.973	0.0167464
774.051	0.0166061
774.129	0.0168578
774.207	0.0168276
774.285	0.0170284
774.363	0.0169952
774.442	0.0170747
774.520	0.0169535
774.598	0.0171577
774.676	0.0170654
774.754	0.0171721
774.832	0.0172460
774.910	0.0173711
774.988	0.0173474
775.067	0.0172807
775.145	0.0174183
775.223	0.0173835
775.301	0.0173243
775.379	0.0173668
775.457	0.0173958
775.535	0.0175117
775.613	0.0176143
775.692	0.0177631
775.770	0.0177934
775.848	0.0181349
775.926	0.0182549
776.004	0.0182700
776.082	0.0184023
776.160	0.0185188
776.238	0.0188358
776.317	0.0187987
776.395	0.0189379
776.473	0.0190311
776.551	0.0191290
776.629	0.0189799
776.707	0.0191992
776.785	0.0191516
776.863	0.0191790
776.942	0.0189333
777.020	0.0188628
777.098	0.0185953
777.176	0.0184473
777.254	0.0184103
777.332	0.0183109
777.410	0.0181935
777.488	0.0180431
777.567	0.0178783
777.645	0.0178438
777.723	0.0178271
777.801	0.0177908
777.879	0.0176573
777.957	0.0176649
778.035	0.0177251
778.113	0.0178265
778.192	0.0178291
778.270	0.0178094
778.348	0.0178864
778.426	0.0180318
778.504	0.0181796
778.582	0.0181984
778.660	0.0182305
778.738	0.0184666
778.817	0.0186225
778.895	0.0187396
778.973	0.0188820
779.051	0.0190690
779.129	0.0189935
779.207	0.0189548
779.285	0.0190728
779.363	0.0191780
779.442	0.0191351
779.520	0.0189517
779.598	0.0189701
779.676	0.0188281
779.754	0.0187707
779.832	0.0187790
779.910	0.0185142
779.988	0.0183839
780.067	0.0181748
780.145	0.0183366
780.223	0.0180683
780.301	0.0179911
780.379	0.0179153
780.457	0.0177450
780.535	0.0177113
780.613	0.0176268
780.692	0.0174346
780.770	0.0172742
780.848	0.0171880
780.926	0.0171590
781.004	0.0170565
781.082	0.0169484
781.160	0.0169447
781.238	0.0167938
781.317	0.0166589
781.395	0.0165881
781.473	0.0166585
781.551	0.0164626
781.629	0.0165990
781.707	0.0165653
781.785	0.0164980
781.863	0.0165297
781.942	0.0164210
782.020	0.0165948
782.098	0.0166320
782.176	0.0165799
782.254	0.0166564
782.332	0.0166953
782.410	0.0168065
782.488	0.0168788
782.567	0.0169814
782.645	0.0169983
782.723	0.0171103
782.801	0.0171223
782.879	0.0173089
782.957	0.0172653
783.035	0.0173887
783.113	0.0175233
783.192	0.0176649
783.270	0.0176492
783.348	0.0178790
783.426	0.0178807
783.504	0.0181695
783.582	0.0181799
783.660	0.0183372
783.738	0.0185390
783.817	0.0186505
783.895	0.0187816
783.973	0.0187983
784.051	0.0188522
784.129	0.0190491
784.207	0.0189654
784.285	0.0189086
784.363	0.0188084
784.442	0.0187699
784.520	0.0188103
784.598	0.0186131
784.676	0.0185736
784.754	0.0185996
784.832	0.0185442
784.910	0.0182295
784.988	0.0184473
785.067	0.0182492
785.145	0.0183286
785.223	0.0182080
785.301	0.0182555
785.379	0.0182334
785.457	0.0182419
785.535	0.0184008
785.613	0.0184850
785.692	0.0184044
785.770	0.0183988
785.848	0.0185383
785.926	0.0186066
786.004	0.0184965
786.082	0.0186839
786.160	0.0186604
786.238	0.0185641
786.317	0.0187842
786.395	0.0186353
786.473	0.0185049
786.551	0.0185668
786.629	0.0186253
786.707	0.0183655
786.785	0.0184084
786.863	0.0184157
786.942	0.0183168
787.020	0.0183334
787.098	0.0181284
787.176	0.0179018
787.254	0.0180435
787.332	0.0179578
787.410	0.0179646
787.488	0.0179862
787.567	0.0178601
787.645	0.0179981
787.723	0.0179784
787.801	0.0180328
787.879	0.0178698
787.957	0.0179686
788.035	0.0179177
788.113	0.0177737
788.192	0.0177007
788.270	0.0176564
788.348	0.0176311
788.426	0.0173939
788.504	0.0174632
788.582	0.0173701
788.660	0.0171338
788.738	0.0171458
788.817	0.0170203
788.895	0.0168732
788.973	0.0166336
789.051	0.0165694
789.129	0.0166196
789.207	0.0163709
789.285	0.0162667
789.363	0.0162290
789.442	0.0163262
789.520	0.0160616
789.598	0.0160977
789.676	0.0162058
789.754	0.0162624
789.832	0.0163778
789.910	0.0164694
789.988	0.0167109
790.067	0.0167461
790.145	0.0168760
790.223	0.0171388
790.301	0.0173825
790.379	0.0175273
790.457	0.0176677
790.535	0.0178989
790.613	0.0179227
790.692	0.0180672
790.770	0.0182175
790.848	0.0182912
790.926	0.0183853
791.004	0.0184278
791.082	0.0186042
791.160	0.0186230
791.238	0.0186510
791.317	0.0187551
791.395	0.0187734
791.473	0.0186367
791.551	0.0187003
791.629	0.0186774
791.707	0.0186147
791.785	0.0186277
791.863	0.0185349
791.942	0.0184188
792.020	0.0183793
792.098	0.0182918
792.176	0.0181650
792.254	0.0181348
792.332	0.0180056
792.410	0.0179836
792.488	0.0179696
792.567	0.0181094
792.645	0.0178841
792.723	0.0179845
792.801	0.0180772
792.879	0.0180512
792.957	0.0181238
793.035	0.0181701
793.113	0.0182531
793.192	0.0184164
793.270	0.0183523
793.348	0.0185558
793.426	0.0185315
793.504	0.0186889
793.582	0.0188453
793.660	0.0189548
793.738	0.0189127
793.817	0.0190101
793.895	0.0190047
793.973	0.0190181
794.051	0.0190647
794.129	0.0191089
794.207	0.0190742
794.285	0.0189839
794.363	0.0189221
794.442	0.0190524
794.520	0.0187729
794.598	0.0188668
794.676	0.0186587
794.754	0.0186443
794.832	0.0185904
794.910	0.0185056
794.988	0.0185741
795.067	0.0182601
795.145	0.0183745
795.223	0.0181185
795.301	0.0181531
795.379	0.0180598
795.457	0.0180370
795.535	0.0178218
795.613	0.0178671
795.692	0.0178188
795.770	0.0176083
795.848	0.0174427
795.926	0.0174582
796.004	0.0172205
796.082	0.0170112
796.160	0.0169028
796.238	0.0168723
796.317	0.0167969
796.395	0.0166053
796.473	0.0164488
796.551	0.0162664
796.629	0.0162840
796.707	0.0161611
796.785	0.0159678
796.863	0.0160596
796.942	0.0160143
797.020	0.0161145
797.098	0.0159108
797.176	0.0160429
797.254	0.0159754
797.332	0.0161751
797.410	0.0163139
797.488	0.0164511
797.567	0.0166696
797.645	0.0168174
797.723	0.0167960
797.801	0.0171059
797.879	0.0172598
797.957	0.0173251
798.035	0.0175201
798.113	0.0175813
798.192	0.0178620
798.270	0.0179532
798.348	0.0182609
798.426	0.0184753
798.504	0.0183995
798.582	0.0185685
798.660	0.0188029
798.738	0.0187455
798.817	0.0188513
798.895	0.0190051
798.973	0.0189614
799.051	0.0191261
799.129	0.0190909
799.207	0.0189918
799.285	0.0190659
799.363	0.0190450
799.442	0.0190387
799.520	0.0189516
799.598	0.0189474
799.676	0.0188723
799.754	0.0188313
799.832	0.0185833
799.910	0.0186723
799.988	0.0184865
800.067	0.0185390
800.145	0.0184122
800.223	0.0182648
800.301	0.0183434
800.379	0.0182793
800.457	0.0182549
800.535	0.0182951
800.613	0.0182015
800.692	0.0181511
800.770	0.0182790
800.848	0.0181337
800.926	0.0183684
801.004	0.0183227
801.082	0.0183066
801.160	0.0183902
801.238	0.0184035
801.317	0.0184084
801.395	0.0184359
801.473	0.0185191
801.551	0.0184069
801.629	0.0183983
801.707	0.0183601
801.785	0.0183788
801.863	0.0183593
801.942	0.0184515
802.020	0.0183858
802.098	0.0182420
802.176	0.0184011
802.254	0.0182476
802.332	0.0182250
802.410	0.0182132
802.488	0.0181369
802.567	0.0179428
802.645	0.0180412
802.723	0.0180157
802.801	0.0180009
802.879	0.0179944
802.957	0.0177706
803.035	0.0179373
803.113	0.0179776
803.192	0.0177799
803.270	0.0178707
803.348	0.0178790
803.426	0.0178114
803.504	0.0178053
803.582	0.0177335
803.660	0.0174651
803.738	0.0174167
803.817	0.0173229
803.895	0.0172221
803.973	0.0171613
804.051	0.0170583
804.129	0.0171089
804.207	0.0168387
804.285	0.0168510
804.363	0.0168204
804.442	0.0166434
804.520	0.0165595
804.598	0.0165559
804.676	0.0166462
804.754	0.0164851
804.832	0.0165526
804.910	0.0164874
804.988	0.0165160
805.067	0.0166442
805.145	0.0167746
805.223	0.0167336
805.301	0.0169212
805.379	0.0169423
805.457	0.0172499
805.535	0.0172225
805.613	0.0173101
805.692	0.0173731
805.770	0.0176329
805.848	0.0177548
805.926	0.0177280
806.004	0.0178708
806.082	0.0180879
806.160	0.0180265
806.238	0.0179799
806.317	0.0180470
806.395	0.0180880
806.473	0.0182319
806.551	0.0182609
806.629	0.0182229
806.707	0.0182244
806.785	0.0182978
806.863	0.0183295
806.942	0.0182407
807.020	0.0182729
807.098	0.0183066
807.176	0.0182977
807.254	0.0183191
807.332	0.0182940
807.410	0.0182710
807.488	0.0183543
807.567	0.0184266
807.645	0.0184787
807.723	0.0182862
807.801	0.0184267
807.879	0.0184732
807.957	0.0185107
808.035	0.0184993
808.113	0.0185119
808.192	0.0185518
808.270	0.0186018
808.348	0.0185979
808.426	0.0186205
808.504	0.0186382
808.582	0.0187032
808.660	0.0186889
808.738	0.0186172
808.817	0.0188178
808.895	0.0188655
808.973	0.0187984
809.051	0.0188258
809.129	0.0187264
809.207	0.0187666
809.285	0.0187350
809.363	0.0187722
809.442	0.0186724
809.520	0.0185786
809.598	0.0186043
809.676	0.0186079
809.754	0.0184961
809.832	0.0184821
809.910	0.0184900
809.988	0.0185257
810.067	0.0183781
810.145	0.0184195
810.223	0.0182841
810.301	0.0182450
810.379	0.0181934
810.457	0.0180711
810.535	0.0181396
810.613	0.0180368
810.692	0.0179559
810.770	0.0176375
810.848	0.0177999
810.926	0.0176099
811.004	0.0175302
811.082	0.0174438
811.160	0.0173081
811.238	0.0171729
811.317	0.0171471
811.395	0.0170184
811.473	0.0169011
811.551	0.0169482
811.629	0.0168070
811.707	0.0166112
811.785	0.0166386
811.863	0.0166257
811.942	0.0166393
812.020	0.0166127
812.098	0.0164764
812.176	0.0164526
812.254	0.0165552
812.332	0.0166141
812.410	0.0166375
812.488	0.0166353
812.567	0.0166628
812.645	0.0166707
812.723	0.0168887
812.801	0.0168465
812.879	0.0169487
812.957	0.0169745
813.035	0.0169768
813.113	0.0171868
813.192	0.0173653
813.270	0.0173190
813.348	0.0174522
813.426	0.0174924
813.504	0.0175849
813.582	0.0177902
813.660	0.0179546
813.738	0.0180449
813.817	0.0181084
813.895	0.0181050
813.973	0.0181647
814.051	0.0182654
814.129	0.0184245
814.207	0.0183027
814.285	0.0183612
814.363	0.0184346
814.442	0.0184989
814.520	0.0185875
814.598	0.0185847
814.676	0.0185812
814.754	0.0186211
814.832	0.0184298
814.910	0.0184285
814.988	0.0186684
815.067	0.0186314
815.145	0.0186539
815.223	0.0186517
815.301	0.0186054
815.379	0.0187231
815.457	0.0186707
815.535	0.0187217
815.613	0.0185936
815.692	0.0186386
815.770	0.0187146
815.848	0.0187598
815.926	0.0186379
816.004	0.0185834
816.082	0.0185579
816.160	0.0184755
816.238	0.0186984
816.317	0.0186887
816.395	0.0184875
816.473	0.0183458
816.551	0.0183827
816.629	0.0182993
816.707	0.0183379
816.785	0.0183649
816.863	0.0183037
816.942	0.0183045
817.020	0.0181657
817.098	0.0180978
817.176	0.0181017
817.254	0.0181192
817.332	0.0180466
817.410	0.0181754
817.488	0.0180334
817.567	0.0180389
817.645	0.0180789
817.723	0.0179256
817.801	0.0179974
817.879	0.0181476
817.957	0.0179319
818.035	0.0179972
818.113	0.0179790
818.192	0.0177859
818.270	0.0178329
818.348	0.0177003
818.426	0.0177693
818.504	0.0175756
818.582	0.0176208
818.660	0.0175442
818.738	0.0175461
818.817	0.0173964
818.895	0.0173709
818.973	0.0173553
819.051	0.0174921
819.129	0.0172392
819.207	0.0171412
819.285	0.0170586
819.363	0.0171313
819.442	0.0171582
819.520	0.0170097
819.598	0.0170077
819.676	0.0171284
819.754	0.0170767
819.832	0.0170225
819.910	0.0169975
819.988	0.0171084
820.067	0.0171213
820.145	0.0172292
820.223	0.0171835
820.301	0.0172513
820.379	0.0172868
820.457	0.0171523
820.535	0.0172163
820.613	0.0173633
820.692	0.0175314
820.770	0.0176231
820.848	0.0175881
820.926	0.0176788
821.004	0.0179335
821.082	0.0179697
821.160	0.0178903
821.238	0.0181960
821.317	0.0181941
821.395	0.0181925
821.473	0.0184185
821.551	0.0183270
821.629	0.0182951
821.707	0.0183656
821.785	0.0183053
821.863	0.0184331
821.942	0.0182034
822.020	0.0182732
822.098	0.0181303
822.176	0.0180904
822.254	0.0182634
822.332	0.0180978
822.410	0.0181870
822.488	0.0180798
822.567	0.0180893
822.645	0.0180991
822.723	0.0182869
822.801	0.0182379
822.879	0.0183464
822.957	0.0184171
823.035	0.0183643
823.113	0.0183756
823.192	0.0186124
823.270	0.0184013
823.348	0.0185157
823.426	0.0185378
823.504	0.0187422
823.582	0.0186056
823.660	0.0187222
823.738	0.0186482
823.817	0.0185553
823.895	0.0185646
823.973	0.0185396
824.051	0.0184773
824.129	0.0184700
824.207	0.0182578
824.285	0.0183074
824.363	0.0182619
824.442	0.0180947
824.520	0.0182384
824.598	0.0181498
824.676	0.0181008
824.754	0.0181477
824.832	0.0181824
824.910	0.0181785
824.988	0.0180719
825.067	0.0181495
825.145	0.0182255
825.223	0.0182347
825.301	0.0181332
825.379	0.0181436
825.457	0.0183421
825.535	0.0181192
825.613	0.0181185
825.692	0.0181886
825.770	0.0180598
825.848	0.0180653
825.926	0.0179055
826.004	0.0180014
826.082	0.0179123
826.160	0.0178944
826.238	0.0179166
826.317	0.0177305
826.395	0.0177029
826.473	0.0176759
826.551	0.0175422
826.629	0.0175070
826.707	0.0174573
826.785	0.0172221
826.863	0.0174091
826.942	0.0173756
827.020	0.0171951
827.098	0.0171200
827.176	0.0170700
827.254	0.0171763
827.332	0.0171519
827.410	0.0171217
827.488	0.0170973
827.567	0.0171288
827.645	0.0171512
827.723	0.0170913
827.801	0.0170220
827.879	0.0173167
827.957	0.0172973
828.035	0.0172664
828.113	0.0172914
828.192	0.0173580
828.270	0.0175314
828.348	0.0175729
828.426	0.0176369
828.504	0.0176643
828.582	0.0177243
828.660	0.0179988
828.738	0.0179010
828.817	0.0180044
828.895	0.0180525
828.973	0.0181200
829.051	0.0182014
829.129	0.0181960
829.207	0.0182118
829.285	0.0184044
829.363	0.0183834
829.442	0.0182990
829.520	0.0182561
829.598	0.0183480
829.676	0.0183358
829.754	0.0182727
829.832	0.0182071
829.910	0.0181943
829.988	0.0180910
830.067	0.0181476
830.145	0.0180321
830.223	0.0182211
830.301	0.0181707
830.379	0.0181276
830.457	0.0181177
830.535	0.0182698
830.613	0.0183263
830.692	0.0181149
830.770	0.0181969
830.848	0.0182966
830.926	0.0183821
831.004	0.0183215
831.082	0.0185769
831.160	0.0185171
831.238	0.0186497
831.317	0.0185249
831.395	0.0184670
831.473	0.0186232
831.551	0.0184473
831.629	0.0185832
831.707	0.0184352
831.785	0.0183753
831.863	0.0185556
831.942	0.0184278
832.020	0.0182705
832.098	0.0184225
832.176	0.0182583
832.254	0.0182072
832.332	0.0183698
832.410	0.0182829
832.488	0.0183773
832.567	0.0180870
832.645	0.0179567
832.723	0.0180251
832.801	0.0180054
832.879	0.0178959
832.957	0.0179383
833.035	0.0177505
833.113	0.0178151
833.192	0.0177644
833.270	0.0176991
833.348	0.0177592
833.426	0.0176257
833.504	0.0176970
833.582	0.0176546
833.660	0.0176201
833.738	0.0176222
833.817	0.0175279
833.895	0.0174055
833.973	0.0175111
834.051	0.0175016
834.129	0.0176505
834.207	0.0175641
834.285	0.0174904
834.363	0.0175222
834.442	0.0176282
834.520	0.0174987
834.598	0.0174397
834.676	0.0175259
834.754	0.0175155
834.832	0.0175927
834.910	0.0174864
834.988	0.0175981
835.067	0.0174899
835.145	0.0175771
835.223	0.0175709
835.301	0.0176022
835.379	0.0175622
835.457	0.0174828
835.535	0.0175941
835.613	0.0175876
835.692	0.0175043
835.770	0.0174645
835.848	0.0176290
835.926	0.0176697
836.004	0.0177660
836.082	0.0178151
836.160	0.0179050
836.238	0.0178508
836.317	0.0179041
836.395	0.0178753
836.473	0.0180933
836.551	0.0181018
836.629	0.0180525
836.707	0.0181196
836.785	0.0180737
836.863	0.0182094
836.942	0.0183214
837.020	0.0182184
837.098	0.0182976
837.176	0.0183479
837.254	0.0183273
837.332	0.0183684
837.410	0.0183568
837.488	0.0181899
837.567	0.0181367
837.645	0.0180988
837.723	0.0181826
837.801	0.0180555
837.879	0.0179933
837.957	0.0179482
838.035	0.0179321
838.113	0.0180585
838.192	0.0178355
838.270	0.0178901
838.348	0.0179921
838.426	0.0179204
838.504	0.0178234
838.582	0.0179499
838.660	0.0180708
838.738	0.0178671
838.817	0.0179497
838.895	0.0181215
838.973	0.0180959
839.051	0.0179978
839.129	0.0180576
839.207	0.0181084
839.285	0.0181552
839.363	0.0182564
839.442	0.0182656
839.520	0.0183247
839.598	0.0183482
839.676	0.0182004
839.754	0.0182758
839.832	0.0183156
839.910	0.0182557
839.988	0.0183861
840.067	0.0182510
840.145	0.0180753
840.223	0.0183049
840.301	0.0180699
840.379	0.0183065
840.457	0.0181385
840.535	0.0180545
840.613	0.0181133
840.692	0.0181154
840.770	0.0179631
840.848	0.0181272
840.926	0.0179179
841.004	0.0180298
841.082	0.0180311
841.160	0.0179081
841.238	0.0178455
841.317	0.0177643
841.395	0.0177372
841.473	0.0178213
841.551	0.0177388
841.629	0.0176723
841.707	0.0176992
841.785	0.0176936
841.863	0.0177665
841.942	0.0176888
842.020	0.0175992
842.098	0.0175726
842.176	0.0177416
842.254	0.0177101
842.332	0.0174569
842.410	0.0175397
842.488	0.0176523
842.567	0.0174269
842.645	0.0173744
842.723	0.0174326
842.801	0.0173274
842.879	0.0173509
842.957	0.0174803
843.035	0.0172665
843.113	0.0173882
843.192	0.0173171
843.270	0.0173850
843.348	0.0174184
843.426	0.0174274
843.504	0.0173842
843.582	0.0174725
843.660	0.0176072
843.738	0.0177460
843.817	0.0178254
843.895	0.0177375
843.973	0.0178375
844.051	0.0179258
844.129	0.0179330
844.207	0.0180634
844.285	0.0181219
844.363	0.0182870
844.442	0.0182595
844.520	0.0182128
844.598	0.0182237
844.676	0.0182957
844.754	0.0184621
844.832	0.0183870
844.910	0.0183162
844.988	0.0184644
845.067	0.0183891
845.145	0.0183619
845.223	0.0184235
845.301	0.0183849
845.379	0.0184190
845.457	0.0182356
845.535	0.0183368
845.613	0.0182463
845.692	0.0180460
845.770	0.0179850
845.848	0.0181374
845.926	0.0181001
846.004	0.0181222
846.082	0.0179820
846.160	0.0178870
846.238	0.0178700
846.317	0.0178379
846.395	0.0179196
846.473	0.0179478
846.551	0.0179084
846.629	0.0179678
846.707	0.0179605
846.785	0.0178942
846.863	0.0179041
846.942	0.0181163
847.020	0.0180661
847.098	0.0181056
847.176	0.0181664
847.254	0.0181364
847.332	0.0180261
847.410	0.0181015
847.488	0.0182509
847.567	0.0180638
847.645	0.0180543
847.723	0.0182352
847.801	0.0183578
847.879	0.0182165
847.957	0.0180003
848.035	0.0182140
848.113	0.0180854
848.192	0.0180735
848.270	0.0180669
848.348	0.0180070
848.426	0.0181483
848.504	0.0179765
848.582	0.0179230
848.660	0.0178317
848.738	0.0178066
848.817	0.0178667
848.895	0.0178049
848.973	0.0177751
849.051	0.0177996
849.129	0.0178697
849.207	0.0177405
849.285	0.0178198
849.363	0.0177557
849.442	0.0178889
849.520	0.0179414
849.598	0.0179848
849.676	0.0180010
849.754	0.0179354
849.832	0.0178281
849.910	0.0178615
849.988	0.0178600
850.067	0.0180158
850.145	0.0179359
850.223	0.0178790
850.301	0.0179656
850.379	0.0178699
850.457	0.0178271
850.535	0.0177488
850.613	0.0176328
850.692	0.0176831
850.770	0.0177246
850.848	0.0174791
850.926	0.0176671
851.004	0.0175819
851.082	0.0176092
851.160	0.0176572
851.238	0.0176352
851.317	0.0176994
851.395	0.0177840
851.473	0.0177828
851.551	0.0177936
851.629	0.0178488
851.707	0.0178128
851.785	0.0178604
851.863	0.0179520
851.942	0.0181483
852.020	0.0181528
852.098	0.0180692
852.176	0.0183044
852.254	0.0182870
852.332	0.0184552
852.410	0.0183718
852.488	0.0185848
852.567	0.0185724
852.645	0.0183606
852.723	0.0183942
852.801	0.0183807
852.879	0.0183018
852.957	0.0183033
853.035	0.0183916
853.113	0.0182435
853.192	0.0182887
853.270	0.0183098
853.348	0.0179012
853.426	0.0179829
853.504	0.0181319
853.582	0.0180496
853.660	0.0178825
853.738	0.0178693
853.817	0.0178149
853.895	0.0178024
853.973	0.0177958
854.051	0.0177170
854.129	0.0177206
854.207	0.0176618
854.285	0.0177851
854.363	0.0177734
854.442	0.0177408
854.520	0.0178979
854.598	0.0177799
854.676	0.0177757
854.754	0.0178499
854.832	0.0177141
854.910	0.0180576
854.988	0.0180499
855.067	0.0179692
855.145	0.0179453
855.223	0.0180249
855.301	0.0179897
855.379	0.0181300
855.457	0.0179300
855.535	0.0181353
855.613	0.0180350
855.692	0.0180122
855.770	0.0181471
855.848	0.0179926
855.926	0.0181042
856.004	0.0181008
856.082	0.0183028
856.160	0.0179953
856.238	0.0179760
856.317	0.0180067
856.395	0.0179947
856.473	0.0180765
856.551	0.0178894
856.629	0.0178933
856.707	0.0179754
856.785	0.0179077
856.863	0.0180497
856.942	0.0179171
857.020	0.0178817
857.098	0.0179725
857.176	0.0180145
857.254	0.0179987
857.332	0.0179883
857.410	0.0182133
857.488	0.0180678
857.567	0.0180104
857.645	0.0181055
857.723	0.0180533
857.801	0.0179456
857.879	0.0179086
857.957	0.0178707
858.035	0.0179944
858.113	0.0178677
858.192	0.0178900
858.270	0.0177816
858.348	0.0178281
858.426	0.0178008
858.504	0.0177145
858.582	0.0177258
858.660	0.0178734
858.738	0.0176627
858.817	0.0176640
858.895	0.0177327
858.973	0.0177348
859.051	0.0177397
859.129	0.0179055
859.207	0.0178761
859.285	0.0178323
859.363	0.0177808
859.442	0.0178403
859.520	0.0179868
859.598	0.0179838
859.676	0.0179465
859.754	0.0180534
859.832	0.0180251
859.910	0.0181038
859.988	0.0180807
860.067	0.0182097
860.145	0.0182571
860.223	0.0182301
860.301	0.0182639
860.379	0.0181435
860.457	0.0183401
860.535	0.0184532
860.613	0.0182215
860.692	0.0182195
860.770	0.0181928
860.848	0.0182444
860.926	0.0181398
861.004	0.0181068
861.082	0.0181077
861.160	0.0180779
861.238	0.0178262
861.317	0.0179951
861.395	0.0179692
861.473	0.0178538
861.551	0.0178410
861.629	0.0177627
861.707	0.0177103
861.785	0.0177295
861.863	0.0176927
861.942	0.0177225
862.020	0.0177245
862.098	0.0176119
862.176	0.0177341
862.254	0.0176453
862.332	0.0177394
862.410	0.0176816
862.488	0.0175867
862.567	0.0178027
862.645	0.0178927
862.723	0.0177571
862.801	0.0178650
862.879	0.0177679
862.957	0.0178325
863.035	0.0178128
863.113	0.0177895
863.192	0.0178784
863.270	0.0180583
863.348	0.0180113
863.426	0.0180070
863.504	0.0178885
863.582	0.0180502
863.660	0.0180111
863.738	0.0179309
863.817	0.0181339
863.895	0.0182383
863.973	0.0180632
864.051	0.0181393
864.129	0.0180677
864.207	0.0181719
864.285	0.0181039
864.363	0.0180520
864.442	0.0179843
864.520	0.0181201
864.598	0.0181871
864.676	0.0182003
864.754	0.0181361
864.832	0.0181930
864.910	0.0179635
864.988	0.0182046
865.067	0.0180141
865.145	0.0180865
865.223	0.0179980
865.301	0.0180100
865.379	0.0178925
865.457	0.0178995
865.535	0.0178565
865.613	0.0178225
865.692	0.0180785
865.770	0.0179102
865.848	0.0177824
865.926	0.0178664
866.004	0.0179884
866.082	0.0178883
866.160	0.0178616
866.238	0.0178091
866.317	0.0178892
866.395	0.0178233
866.473	0.0177532
866.551	0.0177357
866.629	0.0176311
866.707	0.0176971
866.785	0.0177792
866.863	0.0176735
866.942	0.0176288
867.020	0.0177087
867.098	0.0177601
867.176	0.0176334
867.254	0.0177031
867.332	0.0178099
867.410	0.0178266
867.488	0.0177180
867.567	0.0179261
867.645	0.0179378
867.723	0.0178675
867.801	0.0180262
867.879	0.0181876
867.957	0.0181505
868.035	0.0180294
868.113	0.0182460
868.192	0.0180973
868.270	0.0181003
868.348	0.0182464
868.426	0.0180823
868.504	0.0182793
868.582	0.0181587
868.660	0.0180150
868.738	0.0181211
868.817	0.0181261
868.895	0.0179855
868.973	0.0179893
869.051	0.0179276
869.129	0.0177996
869.207	0.0178990
869.285	0.0178695
869.363	0.0177103
869.442	0.0176568
869.520	0.0177657
869.598	0.0177325
869.676	0.0176077
869.754	0.0177116
869.832	0.0178408
869.910	0.0177052
869.988	0.0177432
870.067	0.0176750
870.145	0.0176883
870.223	0.0175986
870.301	0.0175575
870.379	0.0177656
870.457	0.0177538
870.535	0.0176503
870.613	0.0176472
870.692	0.0175573
870.770	0.0176358
870.848	0.0175965
870.926	0.0175729
871.004	0.0177096
871.082	0.0177059
871.160	0.0176662
871.238	0.0176915
871.317	0.0177839
871.395	0.0177331
871.473	0.0178596
871.551	0.0178293
871.629	0.0178913
871.707	0.0178905
871.785	0.0178199
871.863	0.0180232
871.942	0.0180831
872.020	0.0180550
872.098	0.0181037
872.176	0.0182095
872.254	0.0181685
872.332	0.0182133
872.410	0.0182122
872.488	0.0181965
872.567	0.0181815
872.645	0.0181731
872.723	0.0182501
872.801	0.0180910
872.879	0.0180801
872.957	0.0181046
873.035	0.0182238
873.113	0.0181252
873.192	0.0180856
873.270	0.0180982
873.348	0.0180875
873.426	0.0178992
873.504	0.0179449
873.582	0.0180225
873.660	0.0180097
873.738	0.0178697
873.817	0.0179298
873.895	0.0179115
873.973	0.0179765
874.051	0.0179898
874.129	0.0179941
874.207	0.0179818
874.285	0.0178484
874.363	0.0178707
874.442	0.0179103
874.520	0.0178949
874.598	0.0179105
874.676	0.0178159
874.754	0.0178130
874.832	0.0178855
874.910	0.0176657
874.988	0.0178243
875.067	0.0179050
875.145	0.0178850
875.223	0.0178027
875.301	0.0178855
875.379	0.0178707
875.457	0.0178426
875.535	0.0179539
875.613	0.0181057
875.692	0.0181235
875.770	0.0180318
875.848	0.0181267
875.926	0.0180811
876.004	0.0183041
876.082	0.0181731
876.160	0.0181412
876.238	0.0183443
876.317	0.0183512
876.395	0.0181614
876.473	0.0181246
876.551	0.0181908
876.629	0.0182388
876.707	0.0180936
876.785	0.0181501
876.863	0.0179480
876.942	0.0178549
877.020	0.0178875
877.098	0.0179174
877.176	0.0179606
877.254	0.0177811
877.332	0.0177406
877.410	0.0175816
877.488	0.0176600
877.567	0.0175694
877.645	0.0176094
877.723	0.0176250
877.801	0.0175546
877.879	0.0174745
877.957	0.0175275
878.035	0.0175989
878.113	0.0174181
878.192	0.0174486
878.270	0.0174281
878.348	0.0174207
878.426	0.0175036
878.504	0.0176228
878.582	0.0177470
878.660	0.0175706
878.738	0.0175903
878.817	0.0178799
878.895	0.0179413
878.973	0.0179345
879.051	0.0179482
879.129	0.0180778
879.207	0.0181242
879.285	0.0182072
879.363	0.0181197
879.442	0.0182581
879.520	0.0182312
879.598	0.0184192
879.676	0.0183961
879.754	0.0184726
879.832	0.0185405
879.910	0.0185106
879.988	0.0183536
880.067	0.0182228
880.145	0.0184248
880.223	0.0183149
880.301	0.0182777
880.379	0.0182183
880.457	0.0181833
880.535	0.0181300
880.613	0.0180685
880.692	0.0181007
880.770	0.0181804
880.848	0.0180999
880.926	0.0179653
881.004	0.0179446
881.082	0.0179092
881.160	0.0179671
881.238	0.0178271
881.317	0.0179941
881.395	0.0179374
881.473	0.0178848
881.551	0.0180487
881.629	0.0179640
881.707	0.0179308
881.785	0.0179115
881.863	0.0178937
881.942	0.0178699
882.020	0.0179619
882.098	0.0179280
882.176	0.0179781
882.254	0.0178828
882.332	0.0179268
882.410	0.0180566
882.488	0.0179632
882.567	0.0179519
882.645	0.0179739
882.723	0.0180370
882.801	0.0180154
882.879	0.0181377
882.957	0.0181216
883.035	0.0181155
883.113	0.0180907
883.192	0.0181111
883.270	0.0181303
883.348	0.0181129
883.426	0.0180557
883.504	0.0181205
883.582	0.0179968
883.660	0.0180299
883.738	0.0178900
883.817	0.0179546
883.895	0.0179463
883.973	0.0178056
884.051	0.0178481
884.129	0.0179577
884.207	0.0179606
884.285	0.0178535
884.363	0.0178410
884.442	0.0178361
884.520	0.0178155
884.598	0.0175952
884.676	0.0177489
884.754	0.0178710
884.832	0.0176981
884.910	0.0178277
884.988	0.0177189
885.067	0.0177558
885.145	0.0176424
885.223	0.0176077
885.301	0.0178487
885.379	0.0177594
885.457	0.0176122
885.535	0.0176434
885.613	0.0176265
885.692	0.0177135
885.770	0.0177060
885.848	0.0177030
885.926	0.0176293
886.004	0.0176414
886.082	0.0176596
886.160	0.0176286
886.238	0.0177628
886.317	0.0176249
886.395	0.0176773
886.473	0.0177139
886.551	0.0178099
886.629	0.0177235
886.707	0.0179573
886.785	0.0178405
886.863	0.0179906
886.942	0.0178886
887.020	0.0178695
887.098	0.0179604
887.176	0.0181507
887.254	0.0179111
887.332	0.0179887
887.410	0.0180644
887.488	0.0180787
887.567	0.0181307
887.645	0.0180642
887.723	0.0180350
887.801	0.0180626
887.879	0.0179411
887.957	0.0179280
888.035	0.0181112
888.113	0.0179800
888.192	0.0178970
888.270	0.0180601
888.348	0.0178081
888.426	0.0179627
888.504	0.0179694
888.582	0.0177406
888.660	0.0179559
888.738	0.0180540
888.817	0.0179050
888.895	0.0181483
888.973	0.0180437
889.051	0.0179505
889.129	0.0180973
889.207	0.0180134
889.285	0.0180802
889.363	0.0180119
889.442	0.0182028
889.520	0.0181078
889.598	0.0180559
889.676	0.0181568
889.754	0.0181506
889.832	0.0181441
889.910	0.0180141
889.988	0.0181219
890.067	0.0181564
890.145	0.0181983
890.223	0.0181689
890.301	0.0181593
890.379	0.0180470
890.457	0.0180470
890.535	0.0181674
890.613	0.0181013
890.692	0.0181170
890.770	0.0179922
890.848	0.0180334
890.926	0.0179961
891.004	0.0178928
891.082	0.0178832
891.160	0.0179269
891.238	0.0178596
891.317	0.0178172
891.395	0.0179688
891.473	0.0179578
891.551	0.0178707
891.629	0.0178439
891.707	0.0177052
891.785	0.0177864
891.863	0.0177755
891.942	0.0176807
892.020	0.0177596
892.098	0.0177271
892.176	0.0177316
892.254	0.0176952
892.332	0.0176706
892.410	0.0175853
892.488	0.0176991
892.567	0.0176451
892.645	0.0175906
892.723	0.0176980
892.801	0.0176588
892.879	0.0176474
892.957	0.0176623
893.035	0.0177690
893.113	0.0175920
893.192	0.0176308
893.270	0.0174164
893.348	0.0175958
893.426	0.0176357
893.504	0.0176929
893.582	0.0176691
893.660	0.0177364
893.738	0.0177310
893.817	0.0178223
893.895	0.0177822
893.973	0.0178831
894.051	0.0179590
894.129	0.0177584
894.207	0.0179783
894.285	0.0179252
894.363	0.0179536
894.442	0.0180590
894.520	0.0181229
894.598	0.0180775
894.676	0.0179443
894.754	0.0181640
894.832	0.0180545
894.910	0.0182150
894.988	0.0181780
895.067	0.0181746
895.145	0.0181200
895.223	0.0181366
895.301	0.0180898
895.379	0.0181829
895.457	0.0181510
895.535	0.0180669
895.613	0.0179974
895.692	0.0180952
895.770	0.0180883
895.848	0.0180347
895.926	0.0180784
896.004	0.0181063
896.082	0.0179341
896.160	0.0179230
896.238	0.0179088
896.317	0.0180056
896.395	0.0180394
896.473	0.0179253
896.551	0.0177773
896.629	0.0179807
896.707	0.0179641
896.785	0.0179344
896.863	0.0180157
896.942	0.0180535
897.020	0.0179811
897.098	0.0179375
897.176	0.0180202
897.254	0.0180199
897.332	0.0180038
897.410	0.0181867
897.488	0.0181145
897.567	0.0180738
897.645	0.0180695
897.723	0.0181948
897.801	0.0179948
897.879	0.0181451
897.957	0.0180737
898.035	0.0180061
898.113	0.0181038
898.192	0.0180612
898.270	0.0178515
898.348	0.0179410
898.426	0.0179743
898.504	0.0179688
898.582	0.0179925
898.660	0.0179320
898.738	0.0180244
898.817	0.0180717
898.895	0.0181271
898.973	0.0180599
899.051	0.0181581
899.129	0.0181149
899.207	0.0181155
899.285	0.0181166
899.363	0.0180856
899.442	0.0181612
899.520	0.0181428
899.598	0.0179734
899.676	0.0178931
899.754	0.0178857
899.832	0.0179094
899.910	0.0178406
899.988	0.0177831
900.067	0.0178113
900.145	0.0177274
900.223	0.0177957
900.301	0.0176928
900.379	0.0177703
900.457	0.0176875
900.535	0.0176965
900.613	0.0175565
900.692	0.0178251
900.770	0.0177947
900.848	0.0178378
900.926	0.0178204
901.004	0.0175600
901.082	0.0177458
901.160	0.0177381
901.238	0.0176157
901.317	0.0176637
901.395	0.0177980
901.473	0.0176782
901.551	0.0176833
901.629	0.0176556
901.707	0.0177914
901.785	0.0176945
901.863	0.0177941
901.942	0.0177808
902.020	0.0177140
902.098	0.0178615
902.176	0.0177050
902.254	0.0177765
902.332	0.0177885
902.410	0.0179005
902.488	0.0179420
902.567	0.0180659
902.645	0.0178912
902.723	0.0179324
902.801	0.0179472
902.879	0.0178941
902.957	0.0179826
903.035	0.0180948
903.113	0.0181127
903.192	0.0181258
903.270	0.0179746
903.348	0.0180385
903.426	0.0180867
903.504	0.0182478
903.582	0.0182413
903.660	0.0181445
903.738	0.0181759
903.817	0.0181773
903.895	0.0181984
903.973	0.0181268
904.051	0.0180070
904.129	0.0181185
904.207	0.0180805
904.285	0.0181445
904.363	0.0180050
904.442	0.0180607
904.520	0.0180359
904.598	0.0179638
904.676	0.0179100
904.754	0.0180917
904.832	0.0180087
904.910	0.0180141
904.988	0.0179526
905.067	0.0182895
905.145	0.0180226
905.223	0.0180363
905.301	0.0181355
905.379	0.0179758
905.457	0.0180270
905.535	0.0181091
905.613	0.0179868
905.692	0.0180852
905.770	0.0180743
905.848	0.0180515
905.926	0.0180860
906.004	0.0181001
906.082	0.0179806
906.160	0.0180930
906.238	0.0180508
906.317	0.0179987
906.395	0.0180113
906.473	0.0180261
906.551	0.0182463
906.629	0.0180950
906.707	0.0180531
906.785	0.0180951
906.863	0.0181397
906.942	0.0180096
907.020	0.0180165
907.098	0.0179530
907.176	0.0180965
907.254	0.0180461
907.332	0.0178876
907.410	0.0178279
907.488	0.0178377
907.567	0.0178988
907.645	0.0176495
907.723	0.0177359
907.801	0.0176807
907.879	0.0175873
907.957	0.0175964
908.035	0.0174976
908.113	0.0175885
908.192	0.0175402
908.270	0.0174929
908.348	0.0174483
908.426	0.0173288
908.504	0.0176006
908.582	0.0175479
908.660	0.0175541
908.738	0.0175209
908.817	0.0177361
908.895	0.0175906
908.973	0.0176379
909.051	0.0177316
909.129	0.0177024
909.207	0.0177570
909.285	0.0176838
909.363	0.0177638
909.442	0.0178424
909.520	0.0179314
909.598	0.0178823
909.676	0.0180602
909.754	0.0180011
909.832	0.0179237
909.910	0.0180225
909.988	0.0181380
910.067	0.0179791
910.145	0.0178585
910.223	0.0180032
910.301	0.0181675
910.379	0.0180927
910.457	0.0180244
910.535	0.0180729
910.613	0.0181087
910.692	0.0180306
910.770	0.0180382
910.848	0.0180077
910.926	0.0180714
911.004	0.0181779
911.082	0.0181187
911.160	0.0180495
911.238	0.0181131
911.317	0.0181252
911.395	0.0181215
911.473	0.0180859
911.551	0.0182256
911.629	0.0180753
911.707	0.0180446
911.785	0.0180496
911.863	0.0179885
911.942	0.0180649
912.020	0.0181956
912.098	0.0180553
912.176	0.0178455
912.254	0.0179487
912.332	0.0181195
912.410	0.0179946
912.488	0.0179922
912.567	0.0181152
912.645	0.0179391
912.723	0.0179309
912.801	0.0179733
912.879	0.0180668
912.957	0.0178901
913.035	0.0177777
913.113	0.0179192
913.192	0.0180113
913.270	0.0179319
913.348	0.0180665
913.426	0.0180091
913.504	0.0179362
913.582	0.0178503
913.660	0.0178796
913.738	0.0178932
913.817	0.0178751
913.895	0.0178931
913.973	0.0179147
914.051	0.0178195
914.129	0.0180000
914.207	0.0178011
914.285	0.0179142
914.363	0.0179962
914.442	0.0178736
914.520	0.0178824
914.598	0.0177274
914.676	0.0177876
914.754	0.0179064
914.832	0.0178954
914.910	0.0180293
914.988	0.0179353
915.067	0.0179025
915.145	0.0176839
915.223	0.0178571
915.301	0.0179935
915.379	0.0179401
915.457	0.0179111
915.535	0.0179205
915.613	0.0179757
915.692	0.0178666
915.770	0.0178194
915.848	0.0179784
915.926	0.0178883
916.004	0.0178183
916.082	0.0179614
916.160	0.0177567
916.238	0.0178091
916.317	0.0178685
916.395	0.0179022
916.473	0.0178576
916.551	0.0177733
916.629	0.0179617
916.707	0.0177176
916.785	0.0177394
916.863	0.0178143
916.942	0.0179254
917.020	0.0179700
917.098	0.0178420
917.176	0.0178027
917.254	0.0178731
917.332	0.0179733
917.410	0.0178568
917.488	0.0180103
917.567	0.0180025
917.645	0.0178908
917.723	0.0179385
917.801	0.0179815
917.879	0.0177087
917.957	0.0179569
918.035	0.0181198
918.113	0.0179831
918.192	0.0178123
918.270	0.0178637
918.348	0.0179472
918.426	0.0180046
918.504	0.0179043
918.582	0.0178002
918.660	0.0178905
918.738	0.0179229
918.817	0.0179264
918.895	0.0178297
918.973	0.0178281
919.051	0.0179217
919.129	0.0179733
919.207	0.0179787
919.285	0.0179121
919.363	0.0178315
919.442	0.0179113
919.520	0.0180979
919.598	0.0179059
919.676	0.0179782
919.754	0.0180798
919.832	0.0180533
919.910	0.0180609
