06/01/2022	21:56:23	Ver.	4.1	UNKNOWN
Optical Delay	599.988409	Delta X		0.078125	Sweeps	1	Scan Rate	0/0
Coordinates	Axis 1	NaN	Axis 2	NaN	Axis 3	NaN	Axis 4	NaN	Axis 5	NaN	Axis 6	0.000000
TX Power	0.000000	RX Power	0.000000

599.988	0.0179575
600.067	0.0179682
600.145	0.0178750
600.223	0.0178526
600.301	0.0179224
600.379	0.0179746
600.457	0.0178860
600.535	0.0180724
600.613	0.0180356
600.692	0.0178931
600.770	0.0180316
600.848	0.0178319
600.926	0.0179556
601.004	0.0178191
601.082	0.0179301
601.160	0.0179839
601.238	0.0178192
601.317	0.0179427
601.395	0.0178815
601.473	0.0179043
601.551	0.0178857
601.629	0.0178582
601.707	0.0180332
601.785	0.0180045
601.863	0.0179842
601.942	0.0179990
602.020	0.0179169
602.098	0.0179942
602.176	0.0179861
602.254	0.0178957
602.332	0.0180113
602.410	0.0178977
602.488	0.0179219
602.567	0.0180297
602.645	0.0179314
602.723	0.0179745
602.801	0.0178998
602.879	0.0180160
602.957	0.0179336
603.035	0.0178259
603.113	0.0180196
603.192	0.0179263
603.270	0.0179237
603.348	0.0179139
603.426	0.0178962
603.504	0.0179326
603.582	0.0179478
603.660	0.0179429
603.738	0.0180434
603.817	0.0178827
603.895	0.0180180
603.973	0.0180230
604.051	0.0178251
604.129	0.0179832
604.207	0.0178861
604.285	0.0179100
604.363	0.0179572
604.442	0.0178957
604.520	0.0180182
604.598	0.0179398
604.676	0.0179391
604.754	0.0180309
604.832	0.0179282
604.910	0.0179021
604.988	0.0179008
605.067	0.0178575
605.145	0.0179387
605.223	0.0179196
605.301	0.0179446
605.379	0.0179744
605.457	0.0177972
605.535	0.0178740
605.613	0.0178885
605.692	0.0179480
605.770	0.0179330
605.848	0.0180234
605.926	0.0179240
606.004	0.0178934
606.082	0.0178004
606.160	0.0179733
606.238	0.0179671
606.317	0.0177891
606.395	0.0179663
606.473	0.0180186
606.551	0.0180933
606.629	0.0179675
606.707	0.0178650
606.785	0.0179058
606.863	0.0178991
606.942	0.0178902
607.020	0.0179395
607.098	0.0178625
607.176	0.0179775
607.254	0.0179118
607.332	0.0178597
607.410	0.0179461
607.488	0.0178738
607.567	0.0179728
607.645	0.0179128
607.723	0.0178542
607.801	0.0179212
607.879	0.0179520
607.957	0.0180290
608.035	0.0180138
608.113	0.0178521
608.192	0.0179606
608.270	0.0178805
608.348	0.0179227
608.426	0.0179282
608.504	0.0179858
608.582	0.0178654
608.660	0.0178233
608.738	0.0179781
608.817	0.0178956
608.895	0.0177893
608.973	0.0179790
609.051	0.0180126
609.129	0.0178606
609.207	0.0179220
609.285	0.0179160
609.363	0.0178642
609.442	0.0178603
609.520	0.0179358
609.598	0.0179699
609.676	0.0179326
609.754	0.0178613
609.832	0.0180241
609.910	0.0179327
609.988	0.0179426
610.067	0.0178262
610.145	0.0178400
610.223	0.0177541
610.301	0.0180676
610.379	0.0178990
610.457	0.0178345
610.535	0.0179157
610.613	0.0179513
610.692	0.0179739
610.770	0.0179447
610.848	0.0179984
610.926	0.0177560
611.004	0.0178044
611.082	0.0179534
611.160	0.0179585
611.238	0.0178949
611.317	0.0180042
611.395	0.0180112
611.473	0.0178571
611.551	0.0180184
611.629	0.0179637
611.707	0.0179272
611.785	0.0179000
611.863	0.0179039
611.942	0.0180001
612.020	0.0178008
612.098	0.0178033
612.176	0.0178948
612.254	0.0178952
612.332	0.0180023
612.410	0.0178629
612.488	0.0179411
612.567	0.0179890
612.645	0.0178454
612.723	0.0180033
612.801	0.0178606
612.879	0.0179613
612.957	0.0179401
613.035	0.0180159
613.113	0.0178592
613.192	0.0179095
613.270	0.0178490
613.348	0.0179240
613.426	0.0178284
613.504	0.0178688
613.582	0.0178574
613.660	0.0179153
613.738	0.0179340
613.817	0.0177943
613.895	0.0179335
613.973	0.0178439
614.051	0.0179303
614.129	0.0179739
614.207	0.0177592
614.285	0.0178948
614.363	0.0177415
614.442	0.0178197
614.520	0.0179530
614.598	0.0178033
614.676	0.0178525
614.754	0.0180627
614.832	0.0179379
614.910	0.0178433
614.988	0.0177542
615.067	0.0179331
615.145	0.0178229
615.223	0.0178493
615.301	0.0178335
615.379	0.0178970
615.457	0.0179220
615.535	0.0178198
615.613	0.0178990
615.692	0.0179385
615.770	0.0178278
615.848	0.0179707
615.926	0.0178616
616.004	0.0177563
616.082	0.0180209
616.160	0.0179893
616.238	0.0179272
616.317	0.0178943
616.395	0.0178453
616.473	0.0178634
616.551	0.0178165
616.629	0.0178944
616.707	0.0178866
616.785	0.0177663
616.863	0.0178448
616.942	0.0178436
617.020	0.0178838
617.098	0.0178922
617.176	0.0179115
617.254	0.0177223
617.332	0.0177138
617.410	0.0178326
617.488	0.0178803
617.567	0.0178626
617.645	0.0177166
617.723	0.0178180
617.801	0.0179854
617.879	0.0178529
617.957	0.0179467
618.035	0.0178367
618.113	0.0177303
618.192	0.0179776
618.270	0.0180003
618.348	0.0179572
618.426	0.0178262
618.504	0.0179099
618.582	0.0178823
618.660	0.0179212
618.738	0.0178069
618.817	0.0178313
618.895	0.0178766
618.973	0.0178019
619.051	0.0179982
619.129	0.0179910
619.207	0.0179221
619.285	0.0179214
619.363	0.0180061
619.442	0.0178480
619.520	0.0179875
619.598	0.0179782
619.676	0.0179577
619.754	0.0179656
619.832	0.0179337
619.910	0.0178378
619.988	0.0179256
620.067	0.0178465
620.145	0.0178413
620.223	0.0179360
620.301	0.0178688
620.379	0.0178578
620.457	0.0178711
620.535	0.0178645
620.613	0.0179686
620.692	0.0177417
620.770	0.0178957
620.848	0.0177230
620.926	0.0178598
621.004	0.0178012
621.082	0.0179114
621.160	0.0179000
621.238	0.0177933
621.317	0.0178636
621.395	0.0178958
621.473	0.0179819
621.551	0.0179993
621.629	0.0179416
621.707	0.0179310
621.785	0.0179704
621.863	0.0178208
621.942	0.0178660
622.020	0.0180368
622.098	0.0178548
622.176	0.0178754
622.254	0.0177926
622.332	0.0178021
622.410	0.0178718
622.488	0.0177679
622.567	0.0177432
622.645	0.0177719
622.723	0.0179816
622.801	0.0179086
622.879	0.0178680
622.957	0.0178702
623.035	0.0178558
623.113	0.0177711
623.192	0.0177621
623.270	0.0179714
623.348	0.0177378
623.426	0.0177205
623.504	0.0179370
623.582	0.0178499
623.660	0.0178168
623.738	0.0178531
623.817	0.0179610
623.895	0.0179003
623.973	0.0179662
624.051	0.0178984
624.129	0.0179809
624.207	0.0178273
624.285	0.0178603
624.363	0.0178632
624.442	0.0178896
624.520	0.0178052
624.598	0.0178181
624.676	0.0179871
624.754	0.0179302
624.832	0.0177949
624.910	0.0179497
624.988	0.0178527
625.067	0.0178729
625.145	0.0179227
625.223	0.0178791
625.301	0.0178625
625.379	0.0178537
625.457	0.0178087
625.535	0.0180402
625.613	0.0178547
625.692	0.0179301
625.770	0.0178505
625.848	0.0180024
625.926	0.0180092
626.004	0.0179268
626.082	0.0179506
626.160	0.0180222
626.238	0.0179177
626.317	0.0178214
626.395	0.0177686
626.473	0.0177833
626.551	0.0178384
626.629	0.0177773
626.707	0.0177676
626.785	0.0177258
626.863	0.0177772
626.942	0.0178227
627.020	0.0178105
627.098	0.0178614
627.176	0.0178468
627.254	0.0178587
627.332	0.0179251
627.410	0.0179707
627.488	0.0180740
627.567	0.0181017
627.645	0.0180562
627.723	0.0179845
627.801	0.0179876
627.879	0.0178667
627.957	0.0179710
628.035	0.0179762
628.113	0.0178660
628.192	0.0179456
628.270	0.0178752
628.348	0.0177757
628.426	0.0177666
628.504	0.0178169
628.582	0.0177939
628.660	0.0177494
628.738	0.0178078
628.817	0.0178166
628.895	0.0179030
628.973	0.0178319
629.051	0.0180079
629.129	0.0179111
629.207	0.0177908
629.285	0.0179674
629.363	0.0179050
629.442	0.0180565
629.520	0.0178494
629.598	0.0179663
629.676	0.0178100
629.754	0.0179845
629.832	0.0177817
629.910	0.0179845
629.988	0.0180394
630.067	0.0177822
630.145	0.0179222
630.223	0.0176900
630.301	0.0178754
630.379	0.0178716
630.457	0.0177826
630.535	0.0178548
630.613	0.0179868
630.692	0.0180106
630.770	0.0179922
630.848	0.0177988
630.926	0.0178773
631.004	0.0180278
631.082	0.0179654
631.160	0.0179649
631.238	0.0179127
631.317	0.0179027
631.395	0.0179573
631.473	0.0179649
631.551	0.0179188
631.629	0.0178693
631.707	0.0179385
631.785	0.0180116
631.863	0.0179861
631.942	0.0179293
632.020	0.0179749
632.098	0.0180730
632.176	0.0179724
632.254	0.0179422
632.332	0.0180206
632.410	0.0179673
632.488	0.0177903
632.567	0.0178710
632.645	0.0178151
632.723	0.0178171
632.801	0.0179642
632.879	0.0179826
632.957	0.0179055
633.035	0.0179087
633.113	0.0179613
633.192	0.0181634
633.270	0.0178952
633.348	0.0180022
633.426	0.0180913
633.504	0.0179731
633.582	0.0179449
633.660	0.0180978
633.738	0.0179474
633.817	0.0179874
633.895	0.0178609
633.973	0.0179131
634.051	0.0178891
634.129	0.0179438
634.207	0.0178598
634.285	0.0179836
634.363	0.0177818
634.442	0.0180222
634.520	0.0179100
634.598	0.0179597
634.676	0.0179470
634.754	0.0178395
634.832	0.0178375
634.910	0.0178991
634.988	0.0179575
635.067	0.0179623
635.145	0.0180569
635.223	0.0180073
635.301	0.0180641
635.379	0.0179530
635.457	0.0179043
635.535	0.0180327
635.613	0.0179161
635.692	0.0178668
635.770	0.0179863
635.848	0.0178984
635.926	0.0178252
636.004	0.0178609
636.082	0.0178082
636.160	0.0178351
636.238	0.0179018
636.317	0.0178139
636.395	0.0178454
636.473	0.0179010
636.551	0.0177528
636.629	0.0179246
636.707	0.0179327
636.785	0.0180651
636.863	0.0178829
636.942	0.0179676
637.020	0.0181223
637.098	0.0179727
637.176	0.0179241
637.254	0.0179338
637.332	0.0179892
637.410	0.0178841
637.488	0.0178979
637.567	0.0179645
637.645	0.0178542
637.723	0.0178004
637.801	0.0177939
637.879	0.0179103
637.957	0.0177266
638.035	0.0176360
638.113	0.0178147
638.192	0.0176873
638.270	0.0178319
638.348	0.0178326
638.426	0.0178469
638.504	0.0178075
638.582	0.0179612
638.660	0.0180954
638.738	0.0181863
638.817	0.0180348
638.895	0.0180906
638.973	0.0180418
639.051	0.0178653
639.129	0.0179453
639.207	0.0181664
639.285	0.0179141
639.363	0.0179987
639.442	0.0178765
639.520	0.0177502
639.598	0.0178053
639.676	0.0178893
639.754	0.0178033
639.832	0.0177600
639.910	0.0177393
639.988	0.0177895
640.067	0.0177740
640.145	0.0178054
640.223	0.0178439
640.301	0.0176884
640.379	0.0178233
640.457	0.0178946
640.535	0.0178976
640.613	0.0179319
640.692	0.0179428
640.770	0.0179365
640.848	0.0181364
640.926	0.0180357
641.004	0.0179982
641.082	0.0182956
641.160	0.0179787
641.238	0.0179489
641.317	0.0180097
641.395	0.0180013
641.473	0.0179884
641.551	0.0179758
641.629	0.0179314
641.707	0.0180310
641.785	0.0178232
641.863	0.0178217
641.942	0.0177744
642.020	0.0177809
642.098	0.0177467
642.176	0.0177685
642.254	0.0176317
642.332	0.0176698
642.410	0.0177612
642.488	0.0179223
642.567	0.0180406
642.645	0.0179469
642.723	0.0180069
642.801	0.0179456
642.879	0.0181184
642.957	0.0181721
643.035	0.0180848
643.113	0.0181120
643.192	0.0181320
643.270	0.0180418
643.348	0.0180022
643.426	0.0179869
643.504	0.0179761
643.582	0.0179668
643.660	0.0178397
643.738	0.0177892
643.817	0.0177676
643.895	0.0179010
643.973	0.0179105
644.051	0.0178212
644.129	0.0179374
644.207	0.0178975
644.285	0.0177451
644.363	0.0179807
644.442	0.0179702
644.520	0.0179746
644.598	0.0179710
644.676	0.0179849
644.754	0.0181227
644.832	0.0180873
644.910	0.0180601
644.988	0.0178609
645.067	0.0178339
645.145	0.0179891
645.223	0.0180183
645.301	0.0180073
645.379	0.0179383
645.457	0.0178681
645.535	0.0179996
645.613	0.0179642
645.692	0.0178583
645.770	0.0178986
645.848	0.0179855
645.926	0.0179053
646.004	0.0179208
646.082	0.0179290
646.160	0.0179607
646.238	0.0179444
646.317	0.0180769
646.395	0.0180933
646.473	0.0180080
646.551	0.0179499
646.629	0.0180503
646.707	0.0180894
646.785	0.0179460
646.863	0.0179644
646.942	0.0179156
647.020	0.0178769
647.098	0.0179149
647.176	0.0178033
647.254	0.0178984
647.332	0.0178024
647.410	0.0180165
647.488	0.0179491
647.567	0.0178349
647.645	0.0178901
647.723	0.0177516
647.801	0.0179408
647.879	0.0178521
647.957	0.0180659
648.035	0.0180424
648.113	0.0179265
648.192	0.0182086
648.270	0.0181696
648.348	0.0181291
648.426	0.0181356
648.504	0.0180433
648.582	0.0180676
648.660	0.0180904
648.738	0.0180196
648.817	0.0180200
648.895	0.0178468
648.973	0.0180000
649.051	0.0178882
649.129	0.0179349
649.207	0.0179046
649.285	0.0177802
649.363	0.0178217
649.442	0.0177795
649.520	0.0177905
649.598	0.0179347
649.676	0.0178969
649.754	0.0178520
649.832	0.0179279
649.910	0.0179535
649.988	0.0179623
650.067	0.0179744
650.145	0.0179585
650.223	0.0179722
650.301	0.0181576
650.379	0.0180514
650.457	0.0179944
650.535	0.0181342
650.613	0.0181861
650.692	0.0179842
650.770	0.0180540
650.848	0.0179511
650.926	0.0179388
651.004	0.0178214
651.082	0.0178875
651.160	0.0178809
651.238	0.0178661
651.317	0.0179133
651.395	0.0178592
651.473	0.0178026
651.551	0.0176633
651.629	0.0177213
651.707	0.0178960
651.785	0.0177487
651.863	0.0178985
651.942	0.0179992
652.020	0.0179155
652.098	0.0179590
652.176	0.0179510
652.254	0.0180211
652.332	0.0180315
652.410	0.0180864
652.488	0.0180735
652.567	0.0181083
652.645	0.0181535
652.723	0.0180959
652.801	0.0179659
652.879	0.0179684
652.957	0.0179387
653.035	0.0177898
653.113	0.0180376
653.192	0.0178939
653.270	0.0177672
653.348	0.0177846
653.426	0.0178133
653.504	0.0178812
653.582	0.0176335
653.660	0.0178929
653.738	0.0180145
653.817	0.0177937
653.895	0.0178378
653.973	0.0179799
654.051	0.0179677
654.129	0.0179438
654.207	0.0178717
654.285	0.0181612
654.363	0.0179272
654.442	0.0179289
654.520	0.0181231
654.598	0.0179745
654.676	0.0179639
654.754	0.0179232
654.832	0.0180105
654.910	0.0180264
654.988	0.0177577
655.067	0.0178681
655.145	0.0177297
655.223	0.0178230
655.301	0.0178172
655.379	0.0176944
655.457	0.0177810
655.535	0.0177465
655.613	0.0177817
655.692	0.0176336
655.770	0.0175889
655.848	0.0177277
655.926	0.0177060
656.004	0.0177942
656.082	0.0178653
656.160	0.0178984
656.238	0.0179842
656.317	0.0180769
656.395	0.0179559
656.473	0.0180562
656.551	0.0181454
656.629	0.0180692
656.707	0.0178525
656.785	0.0180183
656.863	0.0181059
656.942	0.0180836
657.020	0.0180878
657.098	0.0180190
657.176	0.0179501
657.254	0.0178709
657.332	0.0178893
657.410	0.0178544
657.488	0.0177211
657.567	0.0178099
657.645	0.0178190
657.723	0.0178545
657.801	0.0176275
657.879	0.0177410
657.957	0.0177446
658.035	0.0178139
658.113	0.0178163
658.192	0.0178526
658.270	0.0178486
658.348	0.0177673
658.426	0.0177208
658.504	0.0178901
658.582	0.0178420
658.660	0.0178735
658.738	0.0178490
658.817	0.0178967
658.895	0.0178260
658.973	0.0178379
659.051	0.0176608
659.129	0.0178360
659.207	0.0180286
659.285	0.0179729
659.363	0.0179996
659.442	0.0181332
659.520	0.0179058
659.598	0.0179360
659.676	0.0179406
659.754	0.0179084
659.832	0.0179696
659.910	0.0179535
659.988	0.0178951
660.067	0.0179401
660.145	0.0178839
660.223	0.0179813
660.301	0.0180055
660.379	0.0180163
660.457	0.0180943
660.535	0.0180313
660.613	0.0180140
660.692	0.0180006
660.770	0.0179370
660.848	0.0178601
660.926	0.0179048
661.004	0.0179413
661.082	0.0180177
661.160	0.0179227
661.238	0.0179382
661.317	0.0178177
661.395	0.0179620
661.473	0.0180429
661.551	0.0178407
661.629	0.0179099
661.707	0.0178590
661.785	0.0178593
661.863	0.0180023
661.942	0.0179465
662.020	0.0179453
662.098	0.0179068
662.176	0.0179269
662.254	0.0179761
662.332	0.0178613
662.410	0.0179855
662.488	0.0179214
662.567	0.0178493
662.645	0.0179468
662.723	0.0180306
662.801	0.0179297
662.879	0.0179139
662.957	0.0178794
663.035	0.0179767
663.113	0.0178597
663.192	0.0180054
663.270	0.0178201
663.348	0.0178880
663.426	0.0179192
663.504	0.0179787
663.582	0.0180474
663.660	0.0179946
663.738	0.0179782
663.817	0.0179512
663.895	0.0180164
663.973	0.0181597
664.051	0.0181217
664.129	0.0179710
664.207	0.0179646
664.285	0.0180387
664.363	0.0180495
664.442	0.0180532
664.520	0.0180888
664.598	0.0180729
664.676	0.0181252
664.754	0.0179940
664.832	0.0180131
664.910	0.0180910
664.988	0.0180891
665.067	0.0180980
665.145	0.0180781
665.223	0.0179396
665.301	0.0180125
665.379	0.0180082
665.457	0.0180603
665.535	0.0180521
665.613	0.0180618
665.692	0.0179684
665.770	0.0180954
665.848	0.0179280
665.926	0.0179610
666.004	0.0180692
666.082	0.0179405
666.160	0.0180036
666.238	0.0179903
666.317	0.0180071
666.395	0.0179214
666.473	0.0179924
666.551	0.0179401
666.629	0.0178431
666.707	0.0179099
666.785	0.0177869
666.863	0.0179881
666.942	0.0179263
667.020	0.0178716
667.098	0.0178076
667.176	0.0179022
667.254	0.0178059
667.332	0.0179310
667.410	0.0179515
667.488	0.0181245
667.567	0.0180059
667.645	0.0181153
667.723	0.0180177
667.801	0.0179350
667.879	0.0179633
667.957	0.0178453
668.035	0.0180578
668.113	0.0180611
668.192	0.0179798
668.270	0.0179035
668.348	0.0180125
668.426	0.0180387
668.504	0.0180345
668.582	0.0179455
668.660	0.0180980
668.738	0.0179405
668.817	0.0179601
668.895	0.0177576
668.973	0.0179604
669.051	0.0179655
669.129	0.0179610
669.207	0.0180314
669.285	0.0181504
669.363	0.0180891
669.442	0.0181028
669.520	0.0180585
669.598	0.0179146
669.676	0.0181828
669.754	0.0178631
669.832	0.0180628
669.910	0.0181493
669.988	0.0180336
670.067	0.0181112
670.145	0.0181860
670.223	0.0179785
670.301	0.0178154
670.379	0.0180283
670.457	0.0179697
670.535	0.0181021
670.613	0.0180081
670.692	0.0179216
670.770	0.0180563
670.848	0.0179240
670.926	0.0178284
671.004	0.0178920
671.082	0.0178969
671.160	0.0179722
671.238	0.0178570
671.317	0.0179982
671.395	0.0178786
671.473	0.0179014
671.551	0.0178763
671.629	0.0179481
671.707	0.0178494
671.785	0.0178342
671.863	0.0177948
671.942	0.0179138
672.020	0.0179578
672.098	0.0178473
672.176	0.0179081
672.254	0.0178484
672.332	0.0177921
672.410	0.0178690
672.488	0.0178506
672.567	0.0178290
672.645	0.0178728
672.723	0.0179462
672.801	0.0178294
672.879	0.0179592
672.957	0.0178839
673.035	0.0178677
673.113	0.0179497
673.192	0.0179221
673.270	0.0178443
673.348	0.0179458
673.426	0.0177868
673.504	0.0177402
673.582	0.0177580
673.660	0.0177867
673.738	0.0177386
673.817	0.0177840
673.895	0.0177273
673.973	0.0178558
674.051	0.0178553
674.129	0.0178056
674.207	0.0179871
674.285	0.0179760
674.363	0.0180254
674.442	0.0180674
674.520	0.0182280
674.598	0.0180959
674.676	0.0182355
674.754	0.0182885
674.832	0.0181904
674.910	0.0181645
674.988	0.0181615
675.067	0.0181963
675.145	0.0181297
675.223	0.0180924
675.301	0.0181390
675.379	0.0179311
675.457	0.0179946
675.535	0.0179241
675.613	0.0178750
675.692	0.0177258
675.770	0.0179620
675.848	0.0180101
675.926	0.0179350
676.004	0.0178165
676.082	0.0178954
676.160	0.0177865
676.238	0.0178699
676.317	0.0178590
676.395	0.0177636
676.473	0.0178653
676.551	0.0178118
676.629	0.0178078
676.707	0.0178407
676.785	0.0177470
676.863	0.0177125
676.942	0.0177562
677.020	0.0176688
677.098	0.0177070
677.176	0.0177290
677.254	0.0176436
677.332	0.0174775
677.410	0.0175162
677.488	0.0174907
677.567	0.0174195
677.645	0.0175323
677.723	0.0175487
677.801	0.0176255
677.879	0.0176156
677.957	0.0175883
678.035	0.0176934
678.113	0.0178510
678.192	0.0179597
678.270	0.0181231
678.348	0.0182841
678.426	0.0183506
678.504	0.0186210
678.582	0.0187035
678.660	0.0188511
678.738	0.0188270
678.817	0.0188918
678.895	0.0191159
678.973	0.0190130
679.051	0.0189796
679.129	0.0187878
679.207	0.0186888
679.285	0.0184823
679.363	0.0186184
679.442	0.0183796
679.520	0.0180803
679.598	0.0178477
679.676	0.0176527
679.754	0.0176661
679.832	0.0172648
679.910	0.0171491
679.988	0.0170502
680.067	0.0167862
680.145	0.0165028
680.223	0.0164853
680.301	0.0164725
680.379	0.0164055
680.457	0.0164803
680.535	0.0163547
680.613	0.0163011
680.692	0.0165430
680.770	0.0165488
680.848	0.0165536
680.926	0.0169228
681.004	0.0171077
681.082	0.0173882
681.160	0.0174063
681.238	0.0177128
681.317	0.0181289
681.395	0.0184875
681.473	0.0184483
681.551	0.0188445
681.629	0.0192770
681.707	0.0194502
681.785	0.0196992
681.863	0.0198348
681.942	0.0198357
682.020	0.0198550
682.098	0.0200446
682.176	0.0200611
682.254	0.0200826
682.332	0.0199571
682.410	0.0198245
682.488	0.0195943
682.567	0.0193916
682.645	0.0192173
682.723	0.0188759
682.801	0.0186328
682.879	0.0181588
682.957	0.0177596
683.035	0.0174451
683.113	0.0172224
683.192	0.0168749
683.270	0.0164426
683.348	0.0162363
683.426	0.0160452
683.504	0.0157933
683.582	0.0156628
683.660	0.0154725
683.738	0.0154420
683.817	0.0155200
683.895	0.0154737
683.973	0.0155697
684.051	0.0157378
684.129	0.0158183
684.207	0.0161021
684.285	0.0164558
684.363	0.0168015
684.442	0.0170463
684.520	0.0174047
684.598	0.0179340
684.676	0.0182976
684.754	0.0186143
684.832	0.0190249
684.910	0.0194588
684.988	0.0197536
685.067	0.0200837
685.145	0.0202634
685.223	0.0205907
685.301	0.0206911
685.379	0.0208435
685.457	0.0209360
685.535	0.0207750
685.613	0.0205875
685.692	0.0205395
685.770	0.0201134
685.848	0.0201123
685.926	0.0196767
686.004	0.0190343
686.082	0.0188101
686.160	0.0184626
686.238	0.0179861
686.317	0.0176506
686.395	0.0172527
686.473	0.0168464
686.551	0.0165216
686.629	0.0163324
686.707	0.0159402
686.785	0.0156141
686.863	0.0154818
686.942	0.0154498
687.020	0.0152174
687.098	0.0153575
687.176	0.0154266
687.254	0.0153839
687.332	0.0154168
687.410	0.0156245
687.488	0.0157571
687.567	0.0160803
687.645	0.0164268
687.723	0.0165462
687.801	0.0167958
687.879	0.0170835
687.957	0.0173257
688.035	0.0177027
688.113	0.0179496
688.192	0.0183531
688.270	0.0186478
688.348	0.0187601
688.426	0.0192651
688.504	0.0196115
688.582	0.0197710
688.660	0.0199663
688.738	0.0199706
688.817	0.0202527
688.895	0.0204236
688.973	0.0204978
689.051	0.0205348
689.129	0.0204559
689.207	0.0204665
689.285	0.0203535
689.363	0.0201340
689.442	0.0196762
689.520	0.0196120
689.598	0.0192736
689.676	0.0189059
689.754	0.0187123
689.832	0.0182567
689.910	0.0178935
689.988	0.0179048
690.067	0.0175282
690.145	0.0172163
690.223	0.0169933
690.301	0.0168420
690.379	0.0167659
690.457	0.0165408
690.535	0.0164201
690.613	0.0161980
690.692	0.0161012
690.770	0.0160691
690.848	0.0159232
690.926	0.0158229
691.004	0.0158423
691.082	0.0159192
691.160	0.0159637
691.238	0.0159213
691.317	0.0161797
691.395	0.0163923
691.473	0.0165177
691.551	0.0166798
691.629	0.0170222
691.707	0.0173786
691.785	0.0175748
691.863	0.0177175
691.942	0.0181306
692.020	0.0183913
692.098	0.0185920
692.176	0.0188442
692.254	0.0190224
692.332	0.0190761
692.410	0.0192131
692.488	0.0193332
692.567	0.0192996
692.645	0.0194619
692.723	0.0193955
692.801	0.0193941
692.879	0.0193135
692.957	0.0190596
693.035	0.0191647
693.113	0.0189984
693.192	0.0188483
693.270	0.0187303
693.348	0.0185902
693.426	0.0185754
693.504	0.0183569
693.582	0.0182953
693.660	0.0181898
693.738	0.0178997
693.817	0.0178828
693.895	0.0175543
693.973	0.0175154
694.051	0.0175181
694.129	0.0173026
694.207	0.0171983
694.285	0.0172864
694.363	0.0172842
694.442	0.0175410
694.520	0.0174597
694.598	0.0176531
694.676	0.0178884
694.754	0.0180209
694.832	0.0181495
694.910	0.0184814
694.988	0.0186992
695.067	0.0185448
695.145	0.0186918
695.223	0.0187321
695.301	0.0185680
695.379	0.0186353
695.457	0.0184532
695.535	0.0182146
695.613	0.0179582
695.692	0.0177720
695.770	0.0174657
695.848	0.0172037
695.926	0.0170157
696.004	0.0167241
696.082	0.0166228
696.160	0.0163750
696.238	0.0161891
696.317	0.0161261
696.395	0.0158925
696.473	0.0158279
696.551	0.0158967
696.629	0.0158662
696.707	0.0160709
696.785	0.0161897
696.863	0.0163379
696.942	0.0164941
697.020	0.0167822
697.098	0.0172285
697.176	0.0173606
697.254	0.0176888
697.332	0.0181318
697.410	0.0183257
697.488	0.0187096
697.567	0.0189754
697.645	0.0193188
697.723	0.0195414
697.801	0.0197359
697.879	0.0200805
697.957	0.0201887
698.035	0.0202947
698.113	0.0204810
698.192	0.0204559
698.270	0.0204610
698.348	0.0206728
698.426	0.0205936
698.504	0.0203019
698.582	0.0201994
698.660	0.0201062
698.738	0.0199534
698.817	0.0196278
698.895	0.0195518
698.973	0.0191782
699.051	0.0188645
699.129	0.0187015
699.207	0.0183051
699.285	0.0178252
699.363	0.0177820
699.442	0.0173963
699.520	0.0170091
699.598	0.0166699
699.676	0.0165398
699.754	0.0162639
699.832	0.0161275
699.910	0.0160787
699.988	0.0158812
700.067	0.0158637
700.145	0.0159539
700.223	0.0157588
700.301	0.0158019
700.379	0.0158188
700.457	0.0159199
700.535	0.0158747
700.613	0.0158779
700.692	0.0161086
700.770	0.0159164
700.848	0.0158726
700.926	0.0162068
701.004	0.0162054
701.082	0.0163196
701.160	0.0163860
701.238	0.0164920
701.317	0.0167200
701.395	0.0166966
701.473	0.0170622
701.551	0.0172650
701.629	0.0174900
701.707	0.0176454
701.785	0.0179031
701.863	0.0182150
701.942	0.0184641
702.020	0.0188332
702.098	0.0190753
702.176	0.0193388
702.254	0.0197336
702.332	0.0198525
702.410	0.0199954
702.488	0.0203598
702.567	0.0206275
702.645	0.0206339
702.723	0.0206308
702.801	0.0209074
702.879	0.0207732
702.957	0.0206870
703.035	0.0204081
703.113	0.0204329
703.192	0.0203474
703.270	0.0200214
703.348	0.0196210
703.426	0.0193925
703.504	0.0190351
703.582	0.0188566
703.660	0.0184961
703.738	0.0182207
703.817	0.0179790
703.895	0.0175787
703.973	0.0174431
704.051	0.0172527
704.129	0.0170726
704.207	0.0168398
704.285	0.0166337
704.363	0.0165808
704.442	0.0165369
704.520	0.0162987
704.598	0.0162815
704.676	0.0161019
704.754	0.0161272
704.832	0.0158718
704.910	0.0159126
704.988	0.0157810
705.067	0.0158743
705.145	0.0159628
705.223	0.0161040
705.301	0.0161885
705.379	0.0163580
705.457	0.0165909
705.535	0.0168279
705.613	0.0169373
705.692	0.0172784
705.770	0.0174729
705.848	0.0177145
705.926	0.0178481
706.004	0.0179451
706.082	0.0179315
706.160	0.0181629
706.238	0.0180885
706.317	0.0181721
706.395	0.0182027
706.473	0.0180960
706.551	0.0179639
706.629	0.0180837
706.707	0.0181460
706.785	0.0180895
706.863	0.0179646
706.942	0.0179213
707.020	0.0180417
707.098	0.0181293
707.176	0.0181857
707.254	0.0183506
707.332	0.0183731
707.410	0.0183913
707.488	0.0184791
707.567	0.0185748
707.645	0.0185267
707.723	0.0187088
707.801	0.0186670
707.879	0.0188445
707.957	0.0188882
708.035	0.0190263
708.113	0.0190796
708.192	0.0190414
708.270	0.0190974
708.348	0.0190272
708.426	0.0191307
708.504	0.0190464
708.582	0.0190386
708.660	0.0190195
708.738	0.0190166
708.817	0.0189948
708.895	0.0188470
708.973	0.0188882
709.051	0.0189793
709.129	0.0186613
709.207	0.0185564
709.285	0.0185562
709.363	0.0183569
709.442	0.0183207
709.520	0.0183411
709.598	0.0181709
709.676	0.0180894
709.754	0.0179281
709.832	0.0177879
709.910	0.0176318
709.988	0.0174933
710.067	0.0174882
710.145	0.0172833
710.223	0.0171333
710.301	0.0169332
710.379	0.0168020
710.457	0.0166865
710.535	0.0165045
710.613	0.0160873
710.692	0.0159617
710.770	0.0160111
710.848	0.0159746
710.926	0.0158688
711.004	0.0158662
711.082	0.0159128
711.160	0.0160171
711.238	0.0161777
711.317	0.0163143
711.395	0.0163639
711.473	0.0167757
711.551	0.0167365
711.629	0.0169048
711.707	0.0172426
711.785	0.0174213
711.863	0.0177069
711.942	0.0176881
712.020	0.0180357
712.098	0.0180739
712.176	0.0180964
712.254	0.0181728
712.332	0.0183102
712.410	0.0183008
712.488	0.0182382
712.567	0.0182549
712.645	0.0182467
712.723	0.0182417
712.801	0.0181657
712.879	0.0184489
712.957	0.0184556
713.035	0.0184872
713.113	0.0186423
713.192	0.0187043
713.270	0.0190000
713.348	0.0191070
713.426	0.0191180
713.504	0.0193625
713.582	0.0195407
713.660	0.0196113
713.738	0.0196441
713.817	0.0196581
713.895	0.0197544
713.973	0.0196854
714.051	0.0194843
714.129	0.0194019
714.207	0.0192664
714.285	0.0190676
714.363	0.0189373
714.442	0.0186936
714.520	0.0186015
714.598	0.0183893
714.676	0.0182907
714.754	0.0180595
714.832	0.0180053
714.910	0.0179084
714.988	0.0179730
715.067	0.0178922
715.145	0.0178944
715.223	0.0178902
715.301	0.0178191
715.379	0.0176567
715.457	0.0177676
715.535	0.0177116
715.613	0.0176163
715.692	0.0176027
715.770	0.0174757
715.848	0.0174232
715.926	0.0172990
716.004	0.0171109
716.082	0.0169225
716.160	0.0166434
716.238	0.0163596
716.317	0.0163771
716.395	0.0162414
716.473	0.0159494
716.551	0.0158686
716.629	0.0159010
716.707	0.0158869
716.785	0.0158996
716.863	0.0158199
716.942	0.0158932
717.020	0.0160106
717.098	0.0162499
717.176	0.0163847
717.254	0.0166609
717.332	0.0168035
717.410	0.0169069
717.488	0.0171529
717.567	0.0173277
717.645	0.0174216
717.723	0.0177801
717.801	0.0178648
717.879	0.0181902
717.957	0.0184235
718.035	0.0184346
718.113	0.0185701
718.192	0.0188807
718.270	0.0188636
718.348	0.0189912
718.426	0.0189915
718.504	0.0188201
718.582	0.0190546
718.660	0.0190889
718.738	0.0188511
718.817	0.0190516
718.895	0.0189767
718.973	0.0188992
719.051	0.0189876
719.129	0.0189207
719.207	0.0187663
719.285	0.0187764
719.363	0.0186870
719.442	0.0185201
719.520	0.0184673
719.598	0.0185838
719.676	0.0184505
719.754	0.0184139
719.832	0.0184567
719.910	0.0184865
719.988	0.0184824
720.067	0.0183601
720.145	0.0183991
720.223	0.0184756
720.301	0.0183928
720.379	0.0183617
720.457	0.0183174
720.535	0.0183727
720.613	0.0184552
720.692	0.0184420
720.770	0.0185902
720.848	0.0185136
720.926	0.0185175
721.004	0.0184480
721.082	0.0183961
721.160	0.0183157
721.238	0.0182800
721.317	0.0183135
721.395	0.0180027
721.473	0.0178302
721.551	0.0175541
721.629	0.0175066
721.707	0.0173818
721.785	0.0171796
721.863	0.0171490
721.942	0.0168790
722.020	0.0170020
722.098	0.0169242
722.176	0.0167500
722.254	0.0165855
722.332	0.0165099
722.410	0.0165405
722.488	0.0165615
722.567	0.0165419
722.645	0.0165793
722.723	0.0164941
722.801	0.0166809
722.879	0.0166518
722.957	0.0166622
723.035	0.0167416
723.113	0.0170245
723.192	0.0171030
723.270	0.0173235
723.348	0.0175459
723.426	0.0175737
723.504	0.0177518
723.582	0.0180460
723.660	0.0180990
723.738	0.0183715
723.817	0.0183858
723.895	0.0187666
723.973	0.0187621
724.051	0.0187399
724.129	0.0189278
724.207	0.0188647
724.285	0.0188363
724.363	0.0185521
724.442	0.0186758
724.520	0.0184387
724.598	0.0184383
724.676	0.0182082
724.754	0.0182368
724.832	0.0180967
724.910	0.0181042
724.988	0.0181071
725.067	0.0179803
725.145	0.0179910
725.223	0.0180853
725.301	0.0180623
725.379	0.0182612
725.457	0.0183417
725.535	0.0182346
725.613	0.0184161
725.692	0.0185018
725.770	0.0185741
725.848	0.0186351
725.926	0.0185516
726.004	0.0187366
726.082	0.0188348
726.160	0.0185297
726.238	0.0187003
726.317	0.0186866
726.395	0.0186257
726.473	0.0185178
726.551	0.0184825
726.629	0.0181455
726.707	0.0181255
726.785	0.0180495
726.863	0.0179366
726.942	0.0176789
727.020	0.0176107
727.098	0.0176455
727.176	0.0176400
727.254	0.0175723
727.332	0.0174166
727.410	0.0175871
727.488	0.0175746
727.567	0.0175115
727.645	0.0174969
727.723	0.0174175
727.801	0.0173833
727.879	0.0175795
727.957	0.0176241
728.035	0.0175244
728.113	0.0173763
728.192	0.0174139
728.270	0.0175083
728.348	0.0174177
728.426	0.0177612
728.504	0.0176055
728.582	0.0177437
728.660	0.0178194
728.738	0.0178686
728.817	0.0179769
728.895	0.0179858
728.973	0.0180665
729.051	0.0181037
729.129	0.0180455
729.207	0.0180564
729.285	0.0181648
729.363	0.0180400
729.442	0.0181297
729.520	0.0179624
729.598	0.0179807
729.676	0.0180581
729.754	0.0179057
729.832	0.0179367
729.910	0.0178742
729.988	0.0175935
730.067	0.0177506
730.145	0.0176830
730.223	0.0177777
730.301	0.0177998
730.379	0.0178713
730.457	0.0178431
730.535	0.0180033
730.613	0.0181396
730.692	0.0182996
730.770	0.0185527
730.848	0.0183782
730.926	0.0185674
731.004	0.0185892
731.082	0.0183553
731.160	0.0183887
731.238	0.0184727
731.317	0.0184738
731.395	0.0183689
731.473	0.0181686
731.551	0.0180513
731.629	0.0178034
731.707	0.0178949
731.785	0.0175571
731.863	0.0176377
731.942	0.0175225
732.020	0.0173256
732.098	0.0172364
732.176	0.0172500
732.254	0.0172536
732.332	0.0172658
732.410	0.0171664
732.488	0.0173375
732.567	0.0173154
732.645	0.0174147
732.723	0.0174525
732.801	0.0175615
732.879	0.0177521
732.957	0.0177695
733.035	0.0178079
733.113	0.0178275
733.192	0.0178268
733.270	0.0179489
733.348	0.0179617
733.426	0.0178638
733.504	0.0179575
733.582	0.0180730
733.660	0.0178621
733.738	0.0179288
733.817	0.0179946
733.895	0.0179119
733.973	0.0179667
734.051	0.0179297
734.129	0.0180163
734.207	0.0179594
734.285	0.0178115
734.363	0.0178506
734.442	0.0178489
734.520	0.0177927
734.598	0.0178201
734.676	0.0178329
734.754	0.0178152
734.832	0.0177843
734.910	0.0179110
734.988	0.0180673
735.067	0.0180274
735.145	0.0181069
735.223	0.0181511
735.301	0.0182991
735.379	0.0181638
735.457	0.0182487
735.535	0.0182542
735.613	0.0182287
735.692	0.0182060
735.770	0.0183037
735.848	0.0180938
735.926	0.0179417
736.004	0.0178139
736.082	0.0178994
736.160	0.0179484
736.238	0.0177886
736.317	0.0178861
736.395	0.0177687
736.473	0.0178777
736.551	0.0178228
736.629	0.0179931
736.707	0.0178667
736.785	0.0178833
736.863	0.0178075
736.942	0.0177793
737.020	0.0179684
737.098	0.0179988
737.176	0.0179047
737.254	0.0178070
737.332	0.0179137
737.410	0.0177721
737.488	0.0177482
737.567	0.0177159
737.645	0.0177943
737.723	0.0176684
737.801	0.0174970
737.879	0.0176582
737.957	0.0176012
738.035	0.0174608
738.113	0.0175494
738.192	0.0174481
738.270	0.0174958
738.348	0.0176780
738.426	0.0177155
738.504	0.0175336
738.582	0.0175856
738.660	0.0177034
738.738	0.0176481
738.817	0.0176327
738.895	0.0177568
738.973	0.0176830
739.051	0.0177490
739.129	0.0176031
739.207	0.0175478
739.285	0.0177272
739.363	0.0177939
739.442	0.0177977
739.520	0.0179133
739.598	0.0179124
739.676	0.0179694
739.754	0.0179266
739.832	0.0180299
739.910	0.0180666
739.988	0.0179678
740.067	0.0177371
740.145	0.0177753
740.223	0.0175925
740.301	0.0175330
740.379	0.0176022
740.457	0.0175951
740.535	0.0174812
740.613	0.0172305
740.692	0.0174545
740.770	0.0174190
740.848	0.0173801
740.926	0.0175616
741.004	0.0177395
741.082	0.0177583
741.160	0.0179648
741.238	0.0180816
741.317	0.0181342
741.395	0.0183959
741.473	0.0184808
741.551	0.0187455
741.629	0.0185309
741.707	0.0186379
741.785	0.0187133
741.863	0.0188258
741.942	0.0185473
742.020	0.0188537
742.098	0.0187893
742.176	0.0184707
742.254	0.0183852
742.332	0.0185058
742.410	0.0183707
742.488	0.0182682
742.567	0.0182830
742.645	0.0182053
742.723	0.0182031
742.801	0.0180488
742.879	0.0178805
742.957	0.0178737
743.035	0.0179444
743.113	0.0179272
743.192	0.0179955
743.270	0.0179409
743.348	0.0179668
743.426	0.0180856
743.504	0.0181149
743.582	0.0181959
743.660	0.0181428
743.738	0.0182383
743.817	0.0182747
743.895	0.0182973
743.973	0.0179709
744.051	0.0180482
744.129	0.0178996
744.207	0.0178786
744.285	0.0178320
744.363	0.0176891
744.442	0.0176022
744.520	0.0175327
744.598	0.0173767
744.676	0.0173261
744.754	0.0173228
744.832	0.0173386
744.910	0.0172508
744.988	0.0172760
745.067	0.0172087
745.145	0.0171775
745.223	0.0171561
745.301	0.0171236
745.379	0.0172873
745.457	0.0173328
745.535	0.0174034
745.613	0.0174361
745.692	0.0174876
745.770	0.0176804
745.848	0.0176913
745.926	0.0177362
746.004	0.0176039
746.082	0.0177411
746.160	0.0178643
746.238	0.0178318
746.317	0.0179497
746.395	0.0179407
746.473	0.0177988
746.551	0.0178452
746.629	0.0179008
746.707	0.0178548
746.785	0.0176880
746.863	0.0179945
746.942	0.0178605
747.020	0.0178345
747.098	0.0178717
747.176	0.0178329
747.254	0.0178419
747.332	0.0175495
747.410	0.0177439
747.488	0.0176799
747.567	0.0179694
747.645	0.0179823
747.723	0.0180277
747.801	0.0181628
747.879	0.0181129
747.957	0.0183868
748.035	0.0184789
748.113	0.0185976
748.192	0.0186436
748.270	0.0186808
748.348	0.0187510
748.426	0.0188188
748.504	0.0188172
748.582	0.0187571
748.660	0.0187230
748.738	0.0185773
748.817	0.0185188
748.895	0.0186053
748.973	0.0185532
749.051	0.0184114
749.129	0.0185275
749.207	0.0184599
749.285	0.0184875
749.363	0.0185016
749.442	0.0187873
749.520	0.0185513
749.598	0.0187183
749.676	0.0187426
749.754	0.0187006
749.832	0.0186979
749.910	0.0186731
749.988	0.0185653
750.067	0.0186362
750.145	0.0181507
750.223	0.0182451
750.301	0.0182816
750.379	0.0178708
750.457	0.0177396
750.535	0.0174657
750.613	0.0174017
750.692	0.0172900
750.770	0.0171693
750.848	0.0168069
750.926	0.0167887
751.004	0.0167861
751.082	0.0168904
751.160	0.0168701
751.238	0.0169022
751.317	0.0170496
751.395	0.0170973
751.473	0.0171754
751.551	0.0173915
751.629	0.0176006
751.707	0.0174369
751.785	0.0177784
751.863	0.0176885
751.942	0.0176797
752.020	0.0177744
752.098	0.0176960
752.176	0.0176781
752.254	0.0178179
752.332	0.0175601
752.410	0.0175026
752.488	0.0175274
752.567	0.0172523
752.645	0.0172005
752.723	0.0172033
752.801	0.0171790
752.879	0.0169784
752.957	0.0171796
753.035	0.0172472
753.113	0.0173695
753.192	0.0173504
753.270	0.0175691
753.348	0.0176555
753.426	0.0178368
753.504	0.0180069
753.582	0.0180686
753.660	0.0181372
753.738	0.0183139
753.817	0.0184042
753.895	0.0185582
753.973	0.0184503
754.051	0.0185312
754.129	0.0184550
754.207	0.0184808
754.285	0.0184357
754.363	0.0183923
754.442	0.0182745
754.520	0.0180779
754.598	0.0181020
754.676	0.0181977
754.754	0.0182726
754.832	0.0181876
754.910	0.0182468
754.988	0.0182099
755.067	0.0182092
755.145	0.0182666
755.223	0.0181736
755.301	0.0182263
755.379	0.0183611
755.457	0.0182920
755.535	0.0182139
755.613	0.0183351
755.692	0.0183732
755.770	0.0184518
755.848	0.0183869
755.926	0.0182550
756.004	0.0182789
756.082	0.0181930
756.160	0.0182545
756.238	0.0180218
756.317	0.0180422
756.395	0.0180118
756.473	0.0179348
756.551	0.0179913
756.629	0.0181087
756.707	0.0180312
756.785	0.0180377
756.863	0.0178597
756.942	0.0179211
757.020	0.0180864
757.098	0.0181596
757.176	0.0182751
757.254	0.0182146
757.332	0.0181312
757.410	0.0183002
757.488	0.0181866
757.567	0.0181868
757.645	0.0182259
757.723	0.0179189
757.801	0.0180421
757.879	0.0179320
757.957	0.0178107
758.035	0.0176711
758.113	0.0174839
758.192	0.0173378
758.270	0.0173637
758.348	0.0173164
758.426	0.0170097
758.504	0.0171117
758.582	0.0170816
758.660	0.0170868
758.738	0.0171354
758.817	0.0172630
758.895	0.0173043
758.973	0.0174448
759.051	0.0176537
759.129	0.0175907
759.207	0.0176384
759.285	0.0176400
759.363	0.0177199
759.442	0.0178288
759.520	0.0178979
759.598	0.0177787
759.676	0.0176257
759.754	0.0174895
759.832	0.0174706
759.910	0.0173340
759.988	0.0172507
760.067	0.0171734
760.145	0.0171755
760.223	0.0170704
760.301	0.0171560
760.379	0.0170073
760.457	0.0170650
760.535	0.0172511
760.613	0.0172655
760.692	0.0173103
760.770	0.0173386
760.848	0.0175732
760.926	0.0177149
761.004	0.0179675
761.082	0.0179891
761.160	0.0181301
761.238	0.0182858
761.317	0.0183340
761.395	0.0185423
761.473	0.0185387
761.551	0.0186311
761.629	0.0187522
761.707	0.0186984
761.785	0.0186727
761.863	0.0185226
761.942	0.0187245
762.020	0.0185184
762.098	0.0183454
762.176	0.0183466
762.254	0.0182039
762.332	0.0181908
762.410	0.0181453
762.488	0.0180947
762.567	0.0180360
762.645	0.0180040
762.723	0.0179385
762.801	0.0180407
762.879	0.0181555
762.957	0.0180981
763.035	0.0180959
763.113	0.0180630
763.192	0.0182251
763.270	0.0183579
763.348	0.0183530
763.426	0.0182552
763.504	0.0182691
763.582	0.0183607
763.660	0.0182861
763.738	0.0182601
763.817	0.0184004
763.895	0.0183707
763.973	0.0184426
764.051	0.0182337
764.129	0.0184624
764.207	0.0183617
764.285	0.0184238
764.363	0.0185426
764.442	0.0185006
764.520	0.0184599
764.598	0.0185292
764.676	0.0183916
764.754	0.0184154
764.832	0.0185548
764.910	0.0182222
764.988	0.0181720
765.067	0.0181795
765.145	0.0181239
765.223	0.0180448
765.301	0.0178257
765.379	0.0179321
765.457	0.0177541
765.535	0.0174873
765.613	0.0175318
765.692	0.0173245
765.770	0.0172102
765.848	0.0171046
765.926	0.0170814
766.004	0.0169771
766.082	0.0169064
766.160	0.0168371
766.238	0.0169514
766.317	0.0170116
766.395	0.0168998
766.473	0.0170242
766.551	0.0171989
766.629	0.0172427
766.707	0.0172726
766.785	0.0173728
766.863	0.0175779
766.942	0.0175738
767.020	0.0175485
767.098	0.0177210
767.176	0.0177945
767.254	0.0178181
767.332	0.0176134
767.410	0.0175240
767.488	0.0177034
767.567	0.0174038
767.645	0.0172598
767.723	0.0172091
767.801	0.0172723
767.879	0.0170918
767.957	0.0171617
768.035	0.0170031
768.113	0.0171731
768.192	0.0171504
768.270	0.0173708
768.348	0.0175337
768.426	0.0176965
768.504	0.0178924
768.582	0.0180376
768.660	0.0183379
768.738	0.0184680
768.817	0.0186893
768.895	0.0189359
768.973	0.0190638
769.051	0.0191912
769.129	0.0193329
769.207	0.0194326
769.285	0.0193064
769.363	0.0193188
769.442	0.0193642
769.520	0.0192011
769.598	0.0190829
769.676	0.0186607
769.754	0.0185090
769.832	0.0184208
769.910	0.0181734
769.988	0.0179393
770.067	0.0177559
770.145	0.0175973
770.223	0.0174448
770.301	0.0173928
770.379	0.0173392
770.457	0.0173578
770.535	0.0173428
770.613	0.0174480
770.692	0.0175566
770.770	0.0176154
770.848	0.0176850
770.926	0.0178664
771.004	0.0180078
771.082	0.0182543
771.160	0.0182254
771.238	0.0183903
771.317	0.0186717
771.395	0.0185616
771.473	0.0185552
771.551	0.0186864
771.629	0.0188165
771.707	0.0187779
771.785	0.0187430
771.863	0.0188042
771.942	0.0187565
772.020	0.0187029
772.098	0.0185691
772.176	0.0187381
772.254	0.0187494
772.332	0.0185587
772.410	0.0185172
772.488	0.0185918
772.567	0.0185015
772.645	0.0182548
772.723	0.0183014
772.801	0.0183760
772.879	0.0182589
772.957	0.0181039
773.035	0.0179688
773.113	0.0178867
773.192	0.0176467
773.270	0.0175945
773.348	0.0173657
773.426	0.0171732
773.504	0.0170988
773.582	0.0170649
773.660	0.0170393
773.738	0.0169521
773.817	0.0168457
773.895	0.0167847
773.973	0.0167764
774.051	0.0167764
774.129	0.0170255
774.207	0.0169403
774.285	0.0168986
774.363	0.0169708
774.442	0.0170146
774.520	0.0171294
774.598	0.0171762
774.676	0.0172146
774.754	0.0172000
774.832	0.0173956
774.910	0.0174802
774.988	0.0174318
775.067	0.0174198
775.145	0.0174240
775.223	0.0171602
775.301	0.0173216
775.379	0.0173480
775.457	0.0174650
775.535	0.0174446
775.613	0.0174316
775.692	0.0174606
775.770	0.0174885
775.848	0.0175503
775.926	0.0177205
776.004	0.0179200
776.082	0.0179634
776.160	0.0181549
776.238	0.0182063
776.317	0.0182719
776.395	0.0184329
776.473	0.0186368
776.551	0.0188213
776.629	0.0189671
776.707	0.0190919
776.785	0.0190650
776.863	0.0190123
776.942	0.0191256
777.020	0.0188526
777.098	0.0189858
777.176	0.0188613
777.254	0.0186873
777.332	0.0185444
777.410	0.0184839
777.488	0.0183488
777.567	0.0180596
777.645	0.0180734
777.723	0.0179045
777.801	0.0176878
777.879	0.0177496
777.957	0.0175948
778.035	0.0176740
778.113	0.0176764
778.192	0.0177003
778.270	0.0176184
778.348	0.0177306
778.426	0.0176897
778.504	0.0178003
778.582	0.0178943
778.660	0.0180312
778.738	0.0181602
778.817	0.0181480
778.895	0.0183961
778.973	0.0184300
779.051	0.0185127
779.129	0.0184711
779.207	0.0187141
779.285	0.0188177
779.363	0.0187536
779.442	0.0189349
779.520	0.0189994
779.598	0.0190868
779.676	0.0191464
779.754	0.0188701
779.832	0.0188282
779.910	0.0190128
779.988	0.0189693
780.067	0.0187693
780.145	0.0186517
780.223	0.0186414
780.301	0.0183828
780.379	0.0182218
780.457	0.0181345
780.535	0.0178864
780.613	0.0177225
780.692	0.0177398
780.770	0.0176049
780.848	0.0174840
780.926	0.0172292
781.004	0.0171849
781.082	0.0169886
781.160	0.0168126
781.238	0.0166319
781.317	0.0166937
781.395	0.0165942
781.473	0.0166456
781.551	0.0166291
781.629	0.0166106
781.707	0.0165950
781.785	0.0164857
781.863	0.0165116
781.942	0.0167774
782.020	0.0167850
782.098	0.0167291
782.176	0.0169093
782.254	0.0169514
782.332	0.0169579
782.410	0.0170079
782.488	0.0170986
782.567	0.0169338
782.645	0.0171104
782.723	0.0173079
782.801	0.0170655
782.879	0.0173384
782.957	0.0174149
783.035	0.0173006
783.113	0.0172106
783.192	0.0172702
783.270	0.0176023
783.348	0.0175179
783.426	0.0174224
783.504	0.0176822
783.582	0.0177847
783.660	0.0178973
783.738	0.0180310
783.817	0.0181915
783.895	0.0182338
783.973	0.0183777
784.051	0.0184595
784.129	0.0186440
784.207	0.0188211
784.285	0.0188541
784.363	0.0189902
784.442	0.0189191
784.520	0.0189433
784.598	0.0189178
784.676	0.0189613
784.754	0.0188619
784.832	0.0186288
784.910	0.0186749
784.988	0.0186389
785.067	0.0184200
785.145	0.0182619
785.223	0.0182357
785.301	0.0181665
785.379	0.0180576
785.457	0.0180475
785.535	0.0179894
785.613	0.0180482
785.692	0.0181496
785.770	0.0179886
785.848	0.0179920
785.926	0.0180669
786.004	0.0182502
786.082	0.0182489
786.160	0.0182699
786.238	0.0183865
786.317	0.0183711
786.395	0.0183974
786.473	0.0186872
786.551	0.0185185
786.629	0.0185977
786.707	0.0187869
786.785	0.0187692
786.863	0.0186940
786.942	0.0187038
787.020	0.0188312
787.098	0.0186838
787.176	0.0185430
787.254	0.0186308
787.332	0.0184846
787.410	0.0182755
787.488	0.0182597
787.567	0.0183427
787.645	0.0182563
787.723	0.0180673
787.801	0.0181619
787.879	0.0179893
787.957	0.0179378
788.035	0.0179971
788.113	0.0178164
788.192	0.0178590
788.270	0.0179725
788.348	0.0179006
788.426	0.0177003
788.504	0.0176714
788.582	0.0176189
788.660	0.0174689
788.738	0.0173279
788.817	0.0174909
788.895	0.0173698
788.973	0.0171864
789.051	0.0171681
789.129	0.0169811
789.207	0.0168770
789.285	0.0166880
789.363	0.0167445
789.442	0.0166248
789.520	0.0166231
789.598	0.0166171
789.676	0.0165160
789.754	0.0164891
789.832	0.0164091
789.910	0.0165607
789.988	0.0164608
790.067	0.0165932
790.145	0.0166692
790.223	0.0168323
790.301	0.0168842
790.379	0.0171189
790.457	0.0171671
790.535	0.0174655
790.613	0.0175999
790.692	0.0178762
790.770	0.0177950
790.848	0.0179674
790.926	0.0181739
791.004	0.0181381
791.082	0.0183517
791.160	0.0184133
791.238	0.0185840
791.317	0.0186110
791.395	0.0185580
791.473	0.0185313
791.551	0.0186974
791.629	0.0186726
791.707	0.0187646
791.785	0.0186228
791.863	0.0186428
791.942	0.0187036
792.020	0.0187019
792.098	0.0186662
792.176	0.0185098
792.254	0.0183532
792.332	0.0185343
792.410	0.0182468
792.488	0.0182253
792.567	0.0181333
792.645	0.0180358
792.723	0.0180054
792.801	0.0179809
792.879	0.0179919
792.957	0.0180417
793.035	0.0179031
793.113	0.0179313
793.192	0.0180537
793.270	0.0182484
793.348	0.0181632
793.426	0.0181469
793.504	0.0183253
793.582	0.0183078
793.660	0.0184703
793.738	0.0184489
793.817	0.0184569
793.895	0.0186335
793.973	0.0187769
794.051	0.0186687
794.129	0.0189567
794.207	0.0188863
794.285	0.0188279
794.363	0.0187803
794.442	0.0188418
794.520	0.0188242
794.598	0.0187856
794.676	0.0187448
794.754	0.0188254
794.832	0.0188171
794.910	0.0187823
794.988	0.0187111
795.067	0.0186273
795.145	0.0186431
795.223	0.0186510
795.301	0.0186034
795.379	0.0185558
795.457	0.0183948
795.535	0.0183250
795.613	0.0182715
795.692	0.0181939
795.770	0.0181561
795.848	0.0181240
795.926	0.0180305
796.004	0.0179362
796.082	0.0178201
796.160	0.0176304
796.238	0.0175751
796.317	0.0173334
796.395	0.0173680
796.473	0.0171337
796.551	0.0168436
796.629	0.0168098
796.707	0.0165894
796.785	0.0164989
796.863	0.0162349
796.942	0.0162655
797.020	0.0159760
797.098	0.0159642
797.176	0.0158931
797.254	0.0158264
797.332	0.0159338
797.410	0.0159609
797.488	0.0159965
797.567	0.0160474
797.645	0.0162540
797.723	0.0163202
797.801	0.0163976
797.879	0.0166479
797.957	0.0168703
798.035	0.0170564
798.113	0.0173180
798.192	0.0173177
798.270	0.0175285
798.348	0.0176728
798.426	0.0177870
798.504	0.0180379
798.582	0.0181299
798.660	0.0183109
798.738	0.0185018
798.817	0.0185133
798.895	0.0185933
798.973	0.0187176
799.051	0.0187000
799.129	0.0187668
799.207	0.0189931
799.285	0.0188235
799.363	0.0187234
799.442	0.0190314
799.520	0.0188870
799.598	0.0188392
799.676	0.0187981
799.754	0.0189165
799.832	0.0187413
799.910	0.0186846
799.988	0.0187009
800.067	0.0187505
800.145	0.0186240
800.223	0.0185175
800.301	0.0183795
800.379	0.0183234
800.457	0.0184531
800.535	0.0182029
800.613	0.0181626
800.692	0.0182229
800.770	0.0181553
800.848	0.0182474
800.926	0.0180514
801.004	0.0179948
801.082	0.0180427
801.160	0.0180504
801.238	0.0182114
801.317	0.0181351
801.395	0.0182592
801.473	0.0182682
801.551	0.0183058
801.629	0.0184249
801.707	0.0184023
801.785	0.0184081
801.863	0.0184046
801.942	0.0184791
802.020	0.0183858
802.098	0.0183102
802.176	0.0183888
802.254	0.0183964
802.332	0.0182549
802.410	0.0181734
802.488	0.0182726
802.567	0.0182376
802.645	0.0182222
802.723	0.0182400
802.801	0.0182040
802.879	0.0181644
802.957	0.0180607
803.035	0.0180489
803.113	0.0181153
803.192	0.0180447
803.270	0.0178724
803.348	0.0179313
803.426	0.0180361
803.504	0.0181339
803.582	0.0179526
803.660	0.0178715
803.738	0.0180384
803.817	0.0178140
803.895	0.0177831
803.973	0.0175954
804.051	0.0176762
804.129	0.0175432
804.207	0.0173825
804.285	0.0173664
804.363	0.0173697
804.442	0.0170455
804.520	0.0169386
804.598	0.0169460
804.676	0.0167390
804.754	0.0167521
804.832	0.0166740
804.910	0.0167342
804.988	0.0164252
805.067	0.0164809
805.145	0.0165395
805.223	0.0163798
805.301	0.0163509
805.379	0.0165968
805.457	0.0167313
805.535	0.0167738
805.613	0.0169418
805.692	0.0168369
805.770	0.0170234
805.848	0.0172721
805.926	0.0172815
806.004	0.0173850
806.082	0.0176399
806.160	0.0177106
806.238	0.0180000
806.317	0.0178675
806.395	0.0179050
806.473	0.0182352
806.551	0.0182087
806.629	0.0183027
806.707	0.0183784
806.785	0.0183736
806.863	0.0183410
806.942	0.0184158
807.020	0.0183739
807.098	0.0182272
807.176	0.0182706
807.254	0.0183325
807.332	0.0182298
807.410	0.0181499
807.488	0.0182822
807.567	0.0181886
807.645	0.0180838
807.723	0.0182343
807.801	0.0182448
807.879	0.0181819
807.957	0.0181778
808.035	0.0181738
808.113	0.0183311
808.192	0.0182124
808.270	0.0181233
808.348	0.0182625
808.426	0.0183347
808.504	0.0185493
808.582	0.0184612
808.660	0.0184050
808.738	0.0185050
808.817	0.0184839
808.895	0.0186421
808.973	0.0187110
809.051	0.0187000
809.129	0.0188170
809.207	0.0187585
809.285	0.0186378
809.363	0.0187065
809.442	0.0187785
809.520	0.0188187
809.598	0.0188184
809.676	0.0187963
809.754	0.0186545
809.832	0.0185887
809.910	0.0185580
809.988	0.0185326
810.067	0.0184448
810.145	0.0184171
810.223	0.0185342
810.301	0.0184645
810.379	0.0184682
810.457	0.0183348
810.535	0.0180854
810.613	0.0182667
810.692	0.0182861
810.770	0.0180782
810.848	0.0181543
810.926	0.0180132
811.004	0.0178975
811.082	0.0179707
811.160	0.0179293
811.238	0.0177607
811.317	0.0176735
811.395	0.0175776
811.473	0.0174919
811.551	0.0173322
811.629	0.0174389
811.707	0.0170940
811.785	0.0170303
811.863	0.0171078
811.942	0.0168708
812.020	0.0168362
812.098	0.0165375
812.176	0.0166782
812.254	0.0165300
812.332	0.0164797
812.410	0.0165000
812.488	0.0166103
812.567	0.0166190
812.645	0.0164694
812.723	0.0164065
812.801	0.0165421
812.879	0.0167115
812.957	0.0164960
813.035	0.0167298
813.113	0.0167957
813.192	0.0168565
813.270	0.0169238
813.348	0.0171047
813.426	0.0171661
813.504	0.0173357
813.582	0.0173123
813.660	0.0174773
813.738	0.0174767
813.817	0.0175723
813.895	0.0178919
813.973	0.0178459
814.051	0.0179263
814.129	0.0181284
814.207	0.0180726
814.285	0.0183546
814.363	0.0182967
814.442	0.0183604
814.520	0.0183868
814.598	0.0185280
814.676	0.0185047
814.754	0.0186200
814.832	0.0187193
814.910	0.0186866
814.988	0.0186292
815.067	0.0185506
815.145	0.0187242
815.223	0.0186214
815.301	0.0187185
815.379	0.0189205
815.457	0.0187479
815.535	0.0187852
815.613	0.0187396
815.692	0.0187541
815.770	0.0186705
815.848	0.0186972
815.926	0.0187631
816.004	0.0186593
816.082	0.0186343
816.160	0.0187799
816.238	0.0186990
816.317	0.0186672
816.395	0.0186455
816.473	0.0185990
816.551	0.0185400
816.629	0.0185769
816.707	0.0185429
816.785	0.0185303
816.863	0.0185896
816.942	0.0185449
817.020	0.0185943
817.098	0.0183864
817.176	0.0183464
817.254	0.0184400
817.332	0.0185011
817.410	0.0183281
817.488	0.0182850
817.567	0.0182921
817.645	0.0182714
817.723	0.0182157
817.801	0.0182730
817.879	0.0180806
817.957	0.0179922
818.035	0.0180139
818.113	0.0180228
818.192	0.0180532
818.270	0.0178960
818.348	0.0179284
818.426	0.0178098
818.504	0.0177336
818.582	0.0176846
818.660	0.0175826
818.738	0.0174731
818.817	0.0175338
818.895	0.0174331
818.973	0.0173444
819.051	0.0174622
819.129	0.0174040
819.207	0.0173544
819.285	0.0170779
819.363	0.0172140
819.442	0.0170884
819.520	0.0170195
819.598	0.0169702
819.676	0.0170776
819.754	0.0170506
819.832	0.0170030
819.910	0.0170375
819.988	0.0170431
820.067	0.0170128
820.145	0.0171298
820.223	0.0172050
820.301	0.0171999
820.379	0.0171961
820.457	0.0171143
820.535	0.0171751
820.613	0.0172437
820.692	0.0172760
820.770	0.0171564
820.848	0.0173756
820.926	0.0174573
821.004	0.0175240
821.082	0.0175568
821.160	0.0175201
821.238	0.0175372
821.317	0.0177487
821.395	0.0178549
821.473	0.0179542
821.551	0.0180257
821.629	0.0180296
821.707	0.0180515
821.785	0.0181915
821.863	0.0181467
821.942	0.0183016
822.020	0.0183468
822.098	0.0182713
822.176	0.0183862
822.254	0.0182872
822.332	0.0181824
822.410	0.0182497
822.488	0.0183605
822.567	0.0183114
822.645	0.0182423
822.723	0.0180831
822.801	0.0181619
822.879	0.0182806
822.957	0.0182308
823.035	0.0183469
823.113	0.0183144
823.192	0.0184096
823.270	0.0184585
823.348	0.0185600
823.426	0.0184753
823.504	0.0185994
823.582	0.0185176
823.660	0.0186816
823.738	0.0186560
823.817	0.0186468
823.895	0.0187334
823.973	0.0187157
824.051	0.0187069
824.129	0.0187267
824.207	0.0184948
824.285	0.0184736
824.363	0.0185539
824.442	0.0185156
824.520	0.0183129
824.598	0.0184504
824.676	0.0183835
824.754	0.0182723
824.832	0.0183202
824.910	0.0182197
824.988	0.0182264
825.067	0.0183064
825.145	0.0181829
825.223	0.0182333
825.301	0.0181386
825.379	0.0181896
825.457	0.0180840
825.535	0.0181464
825.613	0.0180317
825.692	0.0181187
825.770	0.0181341
825.848	0.0180870
825.926	0.0181845
826.004	0.0180535
826.082	0.0178562
826.160	0.0180077
826.238	0.0181042
826.317	0.0179485
826.395	0.0180237
826.473	0.0178902
826.551	0.0178465
826.629	0.0177611
826.707	0.0175729
826.785	0.0175830
826.863	0.0176442
826.942	0.0175750
827.020	0.0173544
827.098	0.0173612
827.176	0.0172668
827.254	0.0171286
827.332	0.0172665
827.410	0.0169972
827.488	0.0170065
827.567	0.0170290
827.645	0.0170793
827.723	0.0171312
827.801	0.0171132
827.879	0.0170089
827.957	0.0170087
828.035	0.0170995
828.113	0.0169665
828.192	0.0170364
828.270	0.0171195
828.348	0.0172026
828.426	0.0172894
828.504	0.0173263
828.582	0.0173080
828.660	0.0174031
828.738	0.0175585
828.817	0.0176485
828.895	0.0177776
828.973	0.0177650
829.051	0.0178468
829.129	0.0179867
829.207	0.0181862
829.285	0.0182206
829.363	0.0181657
829.442	0.0181982
829.520	0.0182294
829.598	0.0181474
829.676	0.0181719
829.754	0.0182374
829.832	0.0181783
829.910	0.0181546
829.988	0.0180959
830.067	0.0180261
830.145	0.0182036
830.223	0.0181178
830.301	0.0180640
830.379	0.0179968
830.457	0.0182102
830.535	0.0181586
830.613	0.0181755
830.692	0.0182043
830.770	0.0181737
830.848	0.0181657
830.926	0.0182151
831.004	0.0185165
831.082	0.0184148
831.160	0.0184140
831.238	0.0184940
831.317	0.0185658
831.395	0.0186110
831.473	0.0184766
831.551	0.0185700
831.629	0.0187232
831.707	0.0186419
831.785	0.0185303
831.863	0.0184783
831.942	0.0185651
832.020	0.0182903
832.098	0.0182859
832.176	0.0184708
832.254	0.0183237
832.332	0.0182552
832.410	0.0181721
832.488	0.0180794
832.567	0.0181709
832.645	0.0182019
832.723	0.0182336
832.801	0.0180258
832.879	0.0180670
832.957	0.0181232
833.035	0.0180768
833.113	0.0179598
833.192	0.0178880
833.270	0.0178343
833.348	0.0177831
833.426	0.0178643
833.504	0.0178553
833.582	0.0178128
833.660	0.0177164
833.738	0.0177960
833.817	0.0175509
833.895	0.0176069
833.973	0.0176138
834.051	0.0175585
834.129	0.0175779
834.207	0.0175924
834.285	0.0174660
834.363	0.0174526
834.442	0.0174577
834.520	0.0175459
834.598	0.0174861
834.676	0.0172950
834.754	0.0173997
834.832	0.0173173
834.910	0.0173151
834.988	0.0171906
835.067	0.0172655
835.145	0.0172275
835.223	0.0173727
835.301	0.0173985
835.379	0.0172096
835.457	0.0171706
835.535	0.0171651
835.613	0.0172945
835.692	0.0173229
835.770	0.0173668
835.848	0.0173196
835.926	0.0173675
836.004	0.0174976
836.082	0.0176002
836.160	0.0175692
836.238	0.0176501
836.317	0.0176498
836.395	0.0176306
836.473	0.0177914
836.551	0.0181135
836.629	0.0179725
836.707	0.0179823
836.785	0.0181435
836.863	0.0181790
836.942	0.0181097
837.020	0.0181725
837.098	0.0182558
837.176	0.0182191
837.254	0.0181750
837.332	0.0183582
837.410	0.0182921
837.488	0.0181515
837.567	0.0182664
837.645	0.0181756
837.723	0.0181380
837.801	0.0181901
837.879	0.0180624
837.957	0.0179871
838.035	0.0180795
838.113	0.0179654
838.192	0.0177705
838.270	0.0179123
838.348	0.0178728
838.426	0.0177706
838.504	0.0177624
838.582	0.0178225
838.660	0.0178648
838.738	0.0179530
838.817	0.0179539
838.895	0.0180730
838.973	0.0180486
839.051	0.0181001
839.129	0.0181302
839.207	0.0181243
839.285	0.0182496
839.363	0.0181053
839.442	0.0181547
839.520	0.0181679
839.598	0.0181801
839.676	0.0182828
839.754	0.0183415
839.832	0.0183778
839.910	0.0184232
839.988	0.0183743
840.067	0.0183946
840.145	0.0183365
840.223	0.0184031
840.301	0.0184053
840.379	0.0183160
840.457	0.0183252
840.535	0.0181747
840.613	0.0183003
840.692	0.0181796
840.770	0.0182188
840.848	0.0180926
840.926	0.0180930
841.004	0.0182034
841.082	0.0181445
841.160	0.0180686
841.238	0.0181925
841.317	0.0180527
841.395	0.0180788
841.473	0.0179917
841.551	0.0180654
841.629	0.0181108
841.707	0.0179931
841.785	0.0175664
841.863	0.0177592
841.942	0.0179586
842.020	0.0177880
842.098	0.0177855
842.176	0.0178500
842.254	0.0178415
842.332	0.0178069
842.410	0.0176268
842.488	0.0178038
842.567	0.0176484
842.645	0.0176090
842.723	0.0175258
842.801	0.0175154
842.879	0.0175618
842.957	0.0175206
843.035	0.0174049
843.113	0.0173907
843.192	0.0172912
843.270	0.0173758
843.348	0.0173393
843.426	0.0172773
843.504	0.0171508
843.582	0.0171741
843.660	0.0172441
843.738	0.0174606
843.817	0.0174313
843.895	0.0174096
843.973	0.0175896
844.051	0.0177226
844.129	0.0177110
844.207	0.0177760
844.285	0.0178740
844.363	0.0179729
844.442	0.0179844
844.520	0.0181152
844.598	0.0182052
844.676	0.0182704
844.754	0.0182402
844.832	0.0183994
844.910	0.0183230
844.988	0.0183096
845.067	0.0183435
845.145	0.0182887
845.223	0.0183978
845.301	0.0184569
845.379	0.0182779
845.457	0.0183712
845.535	0.0183094
845.613	0.0182230
845.692	0.0182005
845.770	0.0184488
845.848	0.0181081
845.926	0.0181712
846.004	0.0180600
846.082	0.0181421
846.160	0.0180524
846.238	0.0179639
846.317	0.0179811
846.395	0.0179388
846.473	0.0179768
846.551	0.0180847
846.629	0.0180470
846.707	0.0181512
846.785	0.0181199
846.863	0.0181043
846.942	0.0180347
847.020	0.0181557
847.098	0.0181377
847.176	0.0180407
847.254	0.0181628
847.332	0.0182784
847.410	0.0181855
847.488	0.0179574
847.567	0.0181458
847.645	0.0182994
847.723	0.0183256
847.801	0.0182619
847.879	0.0182010
847.957	0.0183315
848.035	0.0182030
848.113	0.0181873
848.192	0.0181379
848.270	0.0182719
848.348	0.0180055
848.426	0.0180170
848.504	0.0180996
848.582	0.0180994
848.660	0.0178261
848.738	0.0177964
848.817	0.0177877
848.895	0.0177621
848.973	0.0178639
849.051	0.0178608
849.129	0.0177023
849.207	0.0177338
849.285	0.0178104
849.363	0.0177529
849.442	0.0176833
849.520	0.0176835
849.598	0.0177536
849.676	0.0178187
849.754	0.0177071
849.832	0.0176672
849.910	0.0178242
849.988	0.0178770
850.067	0.0178672
850.145	0.0179167
850.223	0.0179305
850.301	0.0178925
850.379	0.0178948
850.457	0.0177775
850.535	0.0177705
850.613	0.0177574
850.692	0.0176567
850.770	0.0177291
850.848	0.0176934
850.926	0.0176897
851.004	0.0178088
851.082	0.0176743
851.160	0.0175080
851.238	0.0174186
851.317	0.0175475
851.395	0.0176414
851.473	0.0176460
851.551	0.0174995
851.629	0.0177381
851.707	0.0178743
851.785	0.0177965
851.863	0.0178310
851.942	0.0178986
852.020	0.0180176
852.098	0.0179845
852.176	0.0180108
852.254	0.0182620
852.332	0.0181168
852.410	0.0182464
852.488	0.0181136
852.567	0.0182215
852.645	0.0183364
852.723	0.0184790
852.801	0.0183324
852.879	0.0183520
852.957	0.0183973
853.035	0.0182645
853.113	0.0183471
853.192	0.0183150
853.270	0.0182832
853.348	0.0182983
853.426	0.0183382
853.504	0.0180934
853.582	0.0180253
853.660	0.0181143
853.738	0.0180338
853.817	0.0179980
853.895	0.0178351
853.973	0.0177246
854.051	0.0178735
854.129	0.0177286
854.207	0.0177591
854.285	0.0176050
854.363	0.0177153
854.442	0.0178554
854.520	0.0176627
854.598	0.0177000
854.676	0.0177059
854.754	0.0179322
854.832	0.0177701
854.910	0.0177558
854.988	0.0177287
855.067	0.0179353
855.145	0.0179068
855.223	0.0178332
855.301	0.0178746
855.379	0.0180874
855.457	0.0180886
855.535	0.0180563
855.613	0.0181745
855.692	0.0181198
855.770	0.0181647
855.848	0.0180122
855.926	0.0181524
856.004	0.0182940
856.082	0.0181573
856.160	0.0181999
856.238	0.0181847
856.317	0.0181689
856.395	0.0180923
856.473	0.0179973
856.551	0.0180283
856.629	0.0179741
856.707	0.0181532
856.785	0.0180869
856.863	0.0179192
856.942	0.0179942
857.020	0.0179643
857.098	0.0179298
857.176	0.0179739
857.254	0.0180027
857.332	0.0179379
857.410	0.0179739
857.488	0.0179120
857.567	0.0180467
857.645	0.0179117
857.723	0.0180315
857.801	0.0179730
857.879	0.0179092
857.957	0.0179641
858.035	0.0179513
858.113	0.0179662
858.192	0.0177573
858.270	0.0177508
858.348	0.0177834
858.426	0.0177596
858.504	0.0178780
858.582	0.0177802
858.660	0.0177039
858.738	0.0176544
858.817	0.0174780
858.895	0.0174818
858.973	0.0176149
859.051	0.0175684
859.129	0.0176162
859.207	0.0176974
859.285	0.0176759
859.363	0.0174063
859.442	0.0176139
859.520	0.0177062
859.598	0.0176585
859.676	0.0176360
859.754	0.0177307
859.832	0.0178233
859.910	0.0178256
859.988	0.0178197
860.067	0.0178790
860.145	0.0178683
860.223	0.0180902
860.301	0.0181899
860.379	0.0180813
860.457	0.0182831
860.535	0.0181836
860.613	0.0181805
860.692	0.0182899
860.770	0.0182899
860.848	0.0181512
860.926	0.0181556
861.004	0.0182767
861.082	0.0182661
861.160	0.0181081
861.238	0.0180170
861.317	0.0178198
861.395	0.0178506
861.473	0.0178230
861.551	0.0178634
861.629	0.0177347
861.707	0.0177029
861.785	0.0176525
861.863	0.0177560
861.942	0.0175086
862.020	0.0175007
862.098	0.0176523
862.176	0.0175533
862.254	0.0176167
862.332	0.0175056
862.410	0.0177050
862.488	0.0176473
862.567	0.0176199
862.645	0.0175907
862.723	0.0176105
862.801	0.0176521
862.879	0.0178828
862.957	0.0179153
863.035	0.0178156
863.113	0.0177877
863.192	0.0177024
863.270	0.0178305
863.348	0.0179896
863.426	0.0178751
863.504	0.0177209
863.582	0.0178210
863.660	0.0180408
863.738	0.0179626
863.817	0.0179832
863.895	0.0180705
863.973	0.0181685
864.051	0.0180605
864.129	0.0179727
864.207	0.0180039
864.285	0.0180073
864.363	0.0180453
864.442	0.0182276
864.520	0.0180962
864.598	0.0180566
864.676	0.0180955
864.754	0.0181415
864.832	0.0181515
864.910	0.0180574
864.988	0.0179053
865.067	0.0180172
865.145	0.0180644
865.223	0.0179700
865.301	0.0179179
865.379	0.0180251
865.457	0.0179928
865.535	0.0180377
865.613	0.0178947
865.692	0.0179996
865.770	0.0180965
865.848	0.0178989
865.926	0.0178960
866.004	0.0177950
866.082	0.0177838
866.160	0.0178059
866.238	0.0177223
866.317	0.0175507
866.395	0.0177995
866.473	0.0177690
866.551	0.0175901
866.629	0.0176859
866.707	0.0176041
866.785	0.0177081
866.863	0.0177027
866.942	0.0176886
867.020	0.0177188
867.098	0.0176459
867.176	0.0176280
867.254	0.0177668
867.332	0.0176117
867.410	0.0177459
867.488	0.0179033
867.567	0.0177773
867.645	0.0178476
867.723	0.0178537
867.801	0.0177161
867.879	0.0179554
867.957	0.0180232
868.035	0.0181007
868.113	0.0182096
868.192	0.0182163
868.270	0.0180724
868.348	0.0182490
868.426	0.0182957
868.504	0.0183678
868.582	0.0183084
868.660	0.0183707
868.738	0.0182310
868.817	0.0181956
868.895	0.0181586
868.973	0.0181497
869.051	0.0181190
869.129	0.0180251
869.207	0.0179847
869.285	0.0178726
869.363	0.0179209
869.442	0.0178952
869.520	0.0178763
869.598	0.0177572
869.676	0.0178334
869.754	0.0177861
869.832	0.0177763
869.910	0.0178028
869.988	0.0176961
870.067	0.0176779
870.145	0.0177314
870.223	0.0179619
870.301	0.0177929
870.379	0.0178696
870.457	0.0178171
870.535	0.0177947
870.613	0.0177063
870.692	0.0178809
870.770	0.0178868
870.848	0.0178503
870.926	0.0177118
871.004	0.0179559
871.082	0.0177975
871.160	0.0176849
871.238	0.0177326
871.317	0.0178370
871.395	0.0180416
871.473	0.0178812
871.551	0.0179229
871.629	0.0179684
871.707	0.0180426
871.785	0.0179663
871.863	0.0180894
871.942	0.0179987
872.020	0.0181261
872.098	0.0179617
872.176	0.0181103
872.254	0.0181707
872.332	0.0181029
872.410	0.0182337
872.488	0.0181354
872.567	0.0182346
872.645	0.0182518
872.723	0.0181161
872.801	0.0182759
872.879	0.0183537
872.957	0.0183011
873.035	0.0183217
873.113	0.0182040
873.192	0.0181184
873.270	0.0181895
873.348	0.0180816
873.426	0.0180910
873.504	0.0180991
873.582	0.0180029
873.660	0.0181104
873.738	0.0179709
873.817	0.0179855
873.895	0.0178697
873.973	0.0180309
874.051	0.0180424
874.129	0.0178728
874.207	0.0177888
874.285	0.0180605
874.363	0.0179100
874.442	0.0178194
874.520	0.0178728
874.598	0.0177751
874.676	0.0178822
874.754	0.0178381
874.832	0.0179044
874.910	0.0178378
874.988	0.0176848
875.067	0.0176756
875.145	0.0178545
875.223	0.0178293
875.301	0.0178779
875.379	0.0178214
875.457	0.0180331
875.535	0.0178801
875.613	0.0178777
875.692	0.0178817
875.770	0.0178873
875.848	0.0178931
875.926	0.0179632
876.004	0.0179793
876.082	0.0178578
876.160	0.0181003
876.238	0.0180084
876.317	0.0181206
876.395	0.0181544
876.473	0.0181264
876.551	0.0180979
876.629	0.0181842
876.707	0.0181530
876.785	0.0180182
876.863	0.0180688
876.942	0.0182408
877.020	0.0180655
877.098	0.0179085
877.176	0.0180644
877.254	0.0177449
877.332	0.0178442
877.410	0.0178659
877.488	0.0177679
877.567	0.0176505
877.645	0.0177917
877.723	0.0176143
877.801	0.0175851
877.879	0.0176379
877.957	0.0175052
878.035	0.0175237
878.113	0.0175204
878.192	0.0176770
878.270	0.0174457
878.348	0.0174272
878.426	0.0174075
878.504	0.0174288
878.582	0.0174718
878.660	0.0174241
878.738	0.0175318
878.817	0.0173802
878.895	0.0176240
878.973	0.0176601
879.051	0.0175084
879.129	0.0177576
879.207	0.0177240
879.285	0.0177466
879.363	0.0177209
879.442	0.0179197
879.520	0.0180741
879.598	0.0180011
879.676	0.0181001
879.754	0.0181799
879.832	0.0181686
879.910	0.0181879
879.988	0.0181599
880.067	0.0181968
880.145	0.0183893
880.223	0.0183731
880.301	0.0182696
880.379	0.0183659
880.457	0.0183654
880.535	0.0183318
880.613	0.0181374
880.692	0.0180999
880.770	0.0181595
880.848	0.0181401
880.926	0.0180085
881.004	0.0179555
881.082	0.0180185
881.160	0.0179037
881.238	0.0178612
881.317	0.0177929
881.395	0.0178098
881.473	0.0178572
881.551	0.0176940
881.629	0.0177850
881.707	0.0177732
881.785	0.0178262
881.863	0.0176801
881.942	0.0177352
882.020	0.0178451
882.098	0.0177673
882.176	0.0177324
882.254	0.0178674
882.332	0.0176440
882.410	0.0177467
882.488	0.0179320
882.567	0.0178344
882.645	0.0177567
882.723	0.0178462
882.801	0.0177309
882.879	0.0178082
882.957	0.0178733
883.035	0.0178270
883.113	0.0179615
883.192	0.0179279
883.270	0.0179282
883.348	0.0179589
883.426	0.0180390
883.504	0.0179771
883.582	0.0178595
883.660	0.0179298
883.738	0.0180245
883.817	0.0181483
883.895	0.0180299
883.973	0.0179211
884.051	0.0180219
884.129	0.0179282
884.207	0.0179543
884.285	0.0179341
884.363	0.0179157
884.442	0.0178748
884.520	0.0178597
884.598	0.0178674
884.676	0.0177738
884.754	0.0178069
884.832	0.0179128
884.910	0.0177508
884.988	0.0178127
885.067	0.0176880
885.145	0.0177077
885.223	0.0177124
885.301	0.0176161
885.379	0.0175495
885.457	0.0177338
885.535	0.0174493
885.613	0.0175647
885.692	0.0175429
885.770	0.0176009
885.848	0.0174557
885.926	0.0173730
886.004	0.0175094
886.082	0.0174327
886.160	0.0173502
886.238	0.0173907
886.317	0.0176170
886.395	0.0176395
886.473	0.0176117
886.551	0.0176453
886.629	0.0176742
886.707	0.0176985
886.785	0.0177074
886.863	0.0178079
886.942	0.0177736
887.020	0.0179793
887.098	0.0179804
887.176	0.0178873
887.254	0.0179211
887.332	0.0179629
887.410	0.0180877
887.488	0.0180930
887.567	0.0179924
887.645	0.0180688
887.723	0.0180091
887.801	0.0180992
887.879	0.0182121
887.957	0.0180328
888.035	0.0179937
888.113	0.0180563
888.192	0.0180221
888.270	0.0180162
888.348	0.0179657
888.426	0.0179713
888.504	0.0179018
888.582	0.0178439
888.660	0.0179932
888.738	0.0178542
888.817	0.0180376
888.895	0.0179683
888.973	0.0180056
889.051	0.0179828
889.129	0.0178885
889.207	0.0178758
889.285	0.0181688
889.363	0.0180959
889.442	0.0180310
889.520	0.0180684
889.598	0.0181419
889.676	0.0181017
889.754	0.0182449
889.832	0.0182066
889.910	0.0180775
889.988	0.0181759
890.067	0.0182838
890.145	0.0181461
890.223	0.0181496
890.301	0.0183805
890.379	0.0182735
890.457	0.0181973
890.535	0.0181342
890.613	0.0181798
890.692	0.0180762
890.770	0.0182319
890.848	0.0181693
890.926	0.0180833
891.004	0.0180626
891.082	0.0180909
891.160	0.0180102
891.238	0.0181297
891.317	0.0180586
891.395	0.0180550
891.473	0.0179560
891.551	0.0179683
891.629	0.0179925
891.707	0.0181174
891.785	0.0178177
891.863	0.0179797
891.942	0.0179245
892.020	0.0178010
892.098	0.0178278
892.176	0.0178470
892.254	0.0177804
892.332	0.0177341
892.410	0.0177385
892.488	0.0177714
892.567	0.0176799
892.645	0.0177503
892.723	0.0176976
892.801	0.0176556
892.879	0.0176684
892.957	0.0176371
893.035	0.0175311
893.113	0.0176664
893.192	0.0176357
893.270	0.0176409
893.348	0.0177219
893.426	0.0175581
893.504	0.0174953
893.582	0.0176063
893.660	0.0176263
893.738	0.0176851
893.817	0.0174963
893.895	0.0175067
893.973	0.0176481
894.051	0.0176619
894.129	0.0176440
894.207	0.0175606
894.285	0.0176200
894.363	0.0176731
894.442	0.0178213
894.520	0.0177383
894.598	0.0178442
894.676	0.0179538
894.754	0.0179730
894.832	0.0180371
894.910	0.0180479
894.988	0.0180619
895.067	0.0181331
895.145	0.0182793
895.223	0.0182696
895.301	0.0181874
895.379	0.0181469
895.457	0.0181152
895.535	0.0182820
895.613	0.0181120
895.692	0.0180966
895.770	0.0182742
895.848	0.0182502
895.926	0.0181453
896.004	0.0181536
896.082	0.0180107
896.160	0.0179829
896.238	0.0181415
896.317	0.0181108
896.395	0.0179661
896.473	0.0179101
896.551	0.0179948
896.629	0.0178660
896.707	0.0179312
896.785	0.0179287
896.863	0.0178689
896.942	0.0177923
897.020	0.0178397
897.098	0.0179353
897.176	0.0180571
897.254	0.0179773
897.332	0.0179330
897.410	0.0179777
897.488	0.0180116
897.567	0.0179548
897.645	0.0181763
897.723	0.0179539
897.801	0.0180241
897.879	0.0180845
897.957	0.0181001
898.035	0.0180680
898.113	0.0180280
898.192	0.0181226
898.270	0.0181112
898.348	0.0179352
898.426	0.0180589
898.504	0.0181054
898.582	0.0181676
898.660	0.0180920
898.738	0.0180588
898.817	0.0179439
898.895	0.0180493
898.973	0.0180905
899.051	0.0180207
899.129	0.0180756
899.207	0.0181223
899.285	0.0180736
899.363	0.0181441
899.442	0.0181121
899.520	0.0178933
899.598	0.0179709
899.676	0.0180668
899.754	0.0180587
899.832	0.0178765
899.910	0.0178911
899.988	0.0179245
900.067	0.0178200
900.145	0.0178786
900.223	0.0178940
900.301	0.0177289
900.379	0.0178548
900.457	0.0178204
900.535	0.0177981
900.613	0.0178168
900.692	0.0178078
900.770	0.0177860
900.848	0.0178032
900.926	0.0176011
901.004	0.0176958
901.082	0.0176934
901.160	0.0176697
901.238	0.0176836
901.317	0.0177018
901.395	0.0176923
901.473	0.0177081
901.551	0.0176752
901.629	0.0177537
901.707	0.0177374
901.785	0.0177008
901.863	0.0176743
901.942	0.0176710
902.020	0.0177038
902.098	0.0177376
902.176	0.0177161
902.254	0.0176485
902.332	0.0176476
902.410	0.0178607
902.488	0.0176797
902.567	0.0177246
902.645	0.0178452
902.723	0.0177322
902.801	0.0178467
902.879	0.0176231
902.957	0.0177755
903.035	0.0179981
903.113	0.0179478
903.192	0.0179113
903.270	0.0178079
903.348	0.0179972
903.426	0.0180770
903.504	0.0178925
903.582	0.0180047
903.660	0.0180060
903.738	0.0180293
903.817	0.0181843
903.895	0.0181344
903.973	0.0181524
904.051	0.0181372
904.129	0.0181797
904.207	0.0181011
904.285	0.0180706
904.363	0.0180976
904.442	0.0181215
904.520	0.0181330
904.598	0.0180877
904.676	0.0182121
904.754	0.0180756
904.832	0.0181286
904.910	0.0180965
904.988	0.0180063
905.067	0.0179906
905.145	0.0179947
905.223	0.0180552
905.301	0.0181041
905.379	0.0179585
905.457	0.0180591
905.535	0.0180707
905.613	0.0180830
905.692	0.0178835
905.770	0.0180724
905.848	0.0180051
905.926	0.0179895
906.004	0.0181107
906.082	0.0180652
906.160	0.0181135
906.238	0.0180784
906.317	0.0181425
906.395	0.0180293
906.473	0.0181023
906.551	0.0181189
906.629	0.0181555
906.707	0.0181281
906.785	0.0180905
906.863	0.0181690
906.942	0.0180476
907.020	0.0182189
907.098	0.0179873
907.176	0.0181031
907.254	0.0180272
907.332	0.0179678
907.410	0.0180878
907.488	0.0180358
907.567	0.0179807
907.645	0.0178215
907.723	0.0178161
907.801	0.0177765
907.879	0.0177159
907.957	0.0177249
908.035	0.0177438
908.113	0.0175571
908.192	0.0176325
908.270	0.0176689
908.348	0.0175880
908.426	0.0175834
908.504	0.0175941
908.582	0.0176091
908.660	0.0175962
908.738	0.0175597
908.817	0.0175531
908.895	0.0175195
908.973	0.0175351
909.051	0.0175599
909.129	0.0176283
909.207	0.0176242
909.285	0.0176218
909.363	0.0175750
909.442	0.0176411
909.520	0.0175899
909.598	0.0177513
909.676	0.0177689
909.754	0.0177251
909.832	0.0177915
909.910	0.0176981
909.988	0.0177836
910.067	0.0179635
910.145	0.0178625
910.223	0.0178023
910.301	0.0179917
910.379	0.0179696
910.457	0.0179596
910.535	0.0179233
910.613	0.0180124
910.692	0.0181532
910.770	0.0179774
910.848	0.0180137
910.926	0.0181340
911.004	0.0181004
911.082	0.0180826
911.160	0.0181861
911.238	0.0181339
911.317	0.0181374
911.395	0.0180507
911.473	0.0180902
911.551	0.0180374
911.629	0.0182648
911.707	0.0182547
911.785	0.0181312
911.863	0.0182354
911.942	0.0181898
912.020	0.0181668
912.098	0.0183056
912.176	0.0181156
912.254	0.0180969
912.332	0.0181700
912.410	0.0180992
912.488	0.0182716
912.567	0.0180824
912.645	0.0181000
912.723	0.0182154
912.801	0.0180958
912.879	0.0181689
912.957	0.0180444
913.035	0.0180276
913.113	0.0180582
913.192	0.0179987
913.270	0.0179438
913.348	0.0180184
913.426	0.0179228
913.504	0.0179053
913.582	0.0179774
913.660	0.0180058
913.738	0.0178818
913.817	0.0179724
913.895	0.0180604
913.973	0.0179301
914.051	0.0181242
914.129	0.0178956
914.207	0.0179983
914.285	0.0179375
914.363	0.0179706
914.442	0.0178947
914.520	0.0179173
914.598	0.0179755
914.676	0.0178393
914.754	0.0178571
914.832	0.0178690
914.910	0.0178317
914.988	0.0178935
915.067	0.0179673
915.145	0.0179082
915.223	0.0178409
915.301	0.0180142
915.379	0.0181048
915.457	0.0179233
915.535	0.0179649
915.613	0.0179142
915.692	0.0179584
915.770	0.0179070
915.848	0.0178259
915.926	0.0179803
916.004	0.0179023
916.082	0.0179839
916.160	0.0179144
916.238	0.0177712
916.317	0.0178308
916.395	0.0179195
916.473	0.0178461
916.551	0.0179031
916.629	0.0177845
916.707	0.0178918
916.785	0.0178460
916.863	0.0177829
916.942	0.0178365
917.020	0.0178174
917.098	0.0180231
917.176	0.0179061
917.254	0.0180257
917.332	0.0179087
917.410	0.0179338
917.488	0.0180240
917.567	0.0179216
917.645	0.0179736
917.723	0.0179959
917.801	0.0179050
917.879	0.0180144
917.957	0.0179426
918.035	0.0180109
918.113	0.0179659
918.192	0.0179882
918.270	0.0178254
918.348	0.0178321
918.426	0.0177649
918.504	0.0179394
918.582	0.0178951
918.660	0.0179191
918.738	0.0178083
918.817	0.0179985
918.895	0.0177042
918.973	0.0178129
919.051	0.0178444
919.129	0.0178410
919.207	0.0177959
919.285	0.0178959
919.363	0.0177515
919.442	0.0177671
919.520	0.0177573
919.598	0.0176749
919.676	0.0177554
919.754	0.0178616
919.832	0.0177261
919.910	0.0177522
