06/01/2022	21:56:43	Ver.	4.1	UNKNOWN
Optical Delay	599.988409	Delta X		0.078125	Sweeps	1	Scan Rate	0/0
Coordinates	Axis 1	NaN	Axis 2	NaN	Axis 3	NaN	Axis 4	NaN	Axis 5	NaN	Axis 6	0.000000
TX Power	0.000000	RX Power	0.000000

599.988	0.0177613
600.067	0.0176942
600.145	0.0177967
600.223	0.0178379
600.301	0.0176913
600.379	0.0176092
600.457	0.0178193
600.535	0.0177097
600.613	0.0176215
600.692	0.0178339
600.770	0.0177709
600.848	0.0176896
600.926	0.0176627
601.004	0.0177579
601.082	0.0176556
601.160	0.0176020
601.238	0.0178223
601.317	0.0177551
601.395	0.0177786
601.473	0.0177245
601.551	0.0177422
601.629	0.0176888
601.707	0.0177548
601.785	0.0178048
601.863	0.0177567
601.942	0.0178188
602.020	0.0176058
602.098	0.0176162
602.176	0.0177418
602.254	0.0178156
602.332	0.0178416
602.410	0.0177263
602.488	0.0177568
602.567	0.0177016
602.645	0.0177377
602.723	0.0176831
602.801	0.0176840
602.879	0.0177647
602.957	0.0176051
603.035	0.0175844
603.113	0.0176862
603.192	0.0178358
603.270	0.0177718
603.348	0.0179458
603.426	0.0176951
603.504	0.0176649
603.582	0.0177431
603.660	0.0178239
603.738	0.0178514
603.817	0.0175245
603.895	0.0177089
603.973	0.0177377
604.051	0.0177266
604.129	0.0178370
604.207	0.0177401
604.285	0.0176445
604.363	0.0177254
604.442	0.0176711
604.520	0.0178249
604.598	0.0177609
604.676	0.0178628
604.754	0.0176827
604.832	0.0177197
604.910	0.0176929
604.988	0.0177219
605.067	0.0177644
605.145	0.0177487
605.223	0.0177831
605.301	0.0177125
605.379	0.0177957
605.457	0.0175910
605.535	0.0177227
605.613	0.0178036
605.692	0.0177531
605.770	0.0177463
605.848	0.0177113
605.926	0.0177686
606.004	0.0177252
606.082	0.0177671
606.160	0.0177578
606.238	0.0176298
606.317	0.0178329
606.395	0.0178103
606.473	0.0178999
606.551	0.0177928
606.629	0.0176776
606.707	0.0175541
606.785	0.0176345
606.863	0.0177932
606.942	0.0177625
607.020	0.0178177
607.098	0.0177879
607.176	0.0176906
607.254	0.0177708
607.332	0.0175933
607.410	0.0177006
607.488	0.0176511
607.567	0.0177339
607.645	0.0177674
607.723	0.0177052
607.801	0.0175618
607.879	0.0176270
607.957	0.0176881
608.035	0.0175070
608.113	0.0176981
608.192	0.0177918
608.270	0.0176031
608.348	0.0175710
608.426	0.0177097
608.504	0.0176872
608.582	0.0176540
608.660	0.0177599
608.738	0.0177335
608.817	0.0176427
608.895	0.0176176
608.973	0.0177735
609.051	0.0178390
609.129	0.0177670
609.207	0.0176799
609.285	0.0176597
609.363	0.0177686
609.442	0.0177200
609.520	0.0178294
609.598	0.0178699
609.676	0.0177747
609.754	0.0178143
609.832	0.0176406
609.910	0.0178051
609.988	0.0178466
610.067	0.0177816
610.145	0.0178323
610.223	0.0176531
610.301	0.0177425
610.379	0.0177168
610.457	0.0177090
610.535	0.0177175
610.613	0.0177648
610.692	0.0177238
610.770	0.0177258
610.848	0.0178654
610.926	0.0178396
611.004	0.0177686
611.082	0.0176488
611.160	0.0176624
611.238	0.0177959
611.317	0.0177386
611.395	0.0176756
611.473	0.0178833
611.551	0.0177081
611.629	0.0176512
611.707	0.0177852
611.785	0.0176749
611.863	0.0177614
611.942	0.0177311
612.020	0.0176730
612.098	0.0177290
612.176	0.0176593
612.254	0.0177355
612.332	0.0177910
612.410	0.0177497
612.488	0.0177366
612.567	0.0177208
612.645	0.0179074
612.723	0.0176971
612.801	0.0177883
612.879	0.0178568
612.957	0.0176578
613.035	0.0177331
613.113	0.0178975
613.192	0.0177258
613.270	0.0177813
613.348	0.0178188
613.426	0.0176559
613.504	0.0175854
613.582	0.0177757
613.660	0.0176015
613.738	0.0176408
613.817	0.0176894
613.895	0.0176681
613.973	0.0176787
614.051	0.0177139
614.129	0.0176011
614.207	0.0177847
614.285	0.0178133
614.363	0.0176443
614.442	0.0177251
614.520	0.0177602
614.598	0.0176946
614.676	0.0177520
614.754	0.0177086
614.832	0.0176415
614.910	0.0177770
614.988	0.0178316
615.067	0.0177172
615.145	0.0177682
615.223	0.0177859
615.301	0.0177367
615.379	0.0177567
615.457	0.0178510
615.535	0.0177751
615.613	0.0179418
615.692	0.0178773
615.770	0.0176662
615.848	0.0177987
615.926	0.0176736
616.004	0.0177647
616.082	0.0177620
616.160	0.0177517
616.238	0.0177575
616.317	0.0177467
616.395	0.0178343
616.473	0.0178896
616.551	0.0177119
616.629	0.0177110
616.707	0.0176757
616.785	0.0177234
616.863	0.0177974
616.942	0.0178576
617.020	0.0177399
617.098	0.0178055
617.176	0.0177560
617.254	0.0178201
617.332	0.0177985
617.410	0.0176477
617.488	0.0178284
617.567	0.0176431
617.645	0.0177854
617.723	0.0177985
617.801	0.0179032
617.879	0.0177603
617.957	0.0178757
618.035	0.0177486
618.113	0.0177983
618.192	0.0178195
618.270	0.0178029
618.348	0.0177901
618.426	0.0177793
618.504	0.0178147
618.582	0.0178033
618.660	0.0176994
618.738	0.0176745
618.817	0.0177921
618.895	0.0177519
618.973	0.0177853
619.051	0.0178143
619.129	0.0177927
619.207	0.0177499
619.285	0.0178519
619.363	0.0176506
619.442	0.0176881
619.520	0.0178210
619.598	0.0176756
619.676	0.0176288
619.754	0.0177370
619.832	0.0178517
619.910	0.0177448
619.988	0.0176649
620.067	0.0178264
620.145	0.0179118
620.223	0.0180228
620.301	0.0177791
620.379	0.0178281
620.457	0.0177592
620.535	0.0177744
620.613	0.0176322
620.692	0.0176632
620.770	0.0176997
620.848	0.0177354
620.926	0.0176746
621.004	0.0176530
621.082	0.0177623
621.160	0.0177988
621.238	0.0177393
621.317	0.0177567
621.395	0.0176744
621.473	0.0177891
621.551	0.0177064
621.629	0.0177675
621.707	0.0176349
621.785	0.0177821
621.863	0.0176621
621.942	0.0177042
622.020	0.0177065
622.098	0.0177397
622.176	0.0177862
622.254	0.0177003
622.332	0.0177725
622.410	0.0178074
622.488	0.0177944
622.567	0.0176796
622.645	0.0176135
622.723	0.0177812
622.801	0.0178104
622.879	0.0177337
622.957	0.0175828
623.035	0.0176211
623.113	0.0178030
623.192	0.0179111
623.270	0.0178853
623.348	0.0177408
623.426	0.0178074
623.504	0.0177185
623.582	0.0176810
623.660	0.0177600
623.738	0.0177940
623.817	0.0177309
623.895	0.0177720
623.973	0.0176269
624.051	0.0179055
624.129	0.0177209
624.207	0.0178020
624.285	0.0179515
624.363	0.0178603
624.442	0.0178649
624.520	0.0177261
624.598	0.0177875
624.676	0.0176832
624.754	0.0178683
624.832	0.0176958
624.910	0.0176053
624.988	0.0177776
625.067	0.0176537
625.145	0.0176453
625.223	0.0175880
625.301	0.0175586
625.379	0.0176718
625.457	0.0177815
625.535	0.0177436
625.613	0.0177938
625.692	0.0177439
625.770	0.0177187
625.848	0.0178501
625.926	0.0178507
626.004	0.0177728
626.082	0.0178352
626.160	0.0179827
626.238	0.0178723
626.317	0.0177732
626.395	0.0178830
626.473	0.0178060
626.551	0.0177904
626.629	0.0176805
626.707	0.0176265
626.785	0.0177281
626.863	0.0177043
626.942	0.0176250
627.020	0.0176979
627.098	0.0175993
627.176	0.0177530
627.254	0.0178622
627.332	0.0176871
627.410	0.0177320
627.488	0.0177612
627.567	0.0177752
627.645	0.0177274
627.723	0.0178329
627.801	0.0179539
627.879	0.0178055
627.957	0.0178500
628.035	0.0177683
628.113	0.0179003
628.192	0.0180205
628.270	0.0178398
628.348	0.0177177
628.426	0.0177302
628.504	0.0178886
628.582	0.0176112
628.660	0.0176584
628.738	0.0177316
628.817	0.0177993
628.895	0.0176853
628.973	0.0176272
629.051	0.0175583
629.129	0.0177628
629.207	0.0178070
629.285	0.0177113
629.363	0.0176677
629.442	0.0177020
629.520	0.0176936
629.598	0.0176522
629.676	0.0177721
629.754	0.0177962
629.832	0.0177858
629.910	0.0177229
629.988	0.0177280
630.067	0.0177773
630.145	0.0176855
630.223	0.0177436
630.301	0.0177345
630.379	0.0177650
630.457	0.0177364
630.535	0.0177004
630.613	0.0179353
630.692	0.0177101
630.770	0.0177718
630.848	0.0176675
630.926	0.0176698
631.004	0.0175484
631.082	0.0176637
631.160	0.0177264
631.238	0.0176640
631.317	0.0176421
631.395	0.0177612
631.473	0.0176458
631.551	0.0176585
631.629	0.0176421
631.707	0.0178421
631.785	0.0176278
631.863	0.0177345
631.942	0.0176375
632.020	0.0176530
632.098	0.0177860
632.176	0.0177907
632.254	0.0176837
632.332	0.0176631
632.410	0.0177317
632.488	0.0176720
632.567	0.0177246
632.645	0.0176953
632.723	0.0176751
632.801	0.0176635
632.879	0.0176839
632.957	0.0177113
633.035	0.0175043
633.113	0.0177227
633.192	0.0177705
633.270	0.0177045
633.348	0.0177115
633.426	0.0177720
633.504	0.0177441
633.582	0.0177839
633.660	0.0178517
633.738	0.0177425
633.817	0.0177701
633.895	0.0178863
633.973	0.0177979
634.051	0.0176874
634.129	0.0177731
634.207	0.0178116
634.285	0.0176785
634.363	0.0176069
634.442	0.0177167
634.520	0.0177215
634.598	0.0175644
634.676	0.0178123
634.754	0.0178073
634.832	0.0177293
634.910	0.0176661
634.988	0.0177547
635.067	0.0176104
635.145	0.0178191
635.223	0.0179204
635.301	0.0178876
635.379	0.0178887
635.457	0.0178462
635.535	0.0179011
635.613	0.0178017
635.692	0.0178036
635.770	0.0177609
635.848	0.0177399
635.926	0.0177576
636.004	0.0176893
636.082	0.0176557
636.160	0.0175417
636.238	0.0175816
636.317	0.0176369
636.395	0.0176130
636.473	0.0175874
636.551	0.0174779
636.629	0.0177339
636.707	0.0176984
636.785	0.0178148
636.863	0.0177292
636.942	0.0176112
637.020	0.0178699
637.098	0.0178799
637.176	0.0180758
637.254	0.0179600
637.332	0.0178460
637.410	0.0179318
637.488	0.0178862
637.567	0.0177627
637.645	0.0178767
637.723	0.0177340
637.801	0.0178049
637.879	0.0176171
637.957	0.0177558
638.035	0.0176974
638.113	0.0176943
638.192	0.0176199
638.270	0.0177091
638.348	0.0175828
638.426	0.0176765
638.504	0.0175891
638.582	0.0175771
638.660	0.0176948
638.738	0.0176767
638.817	0.0176668
638.895	0.0177715
638.973	0.0177354
639.051	0.0178485
639.129	0.0177857
639.207	0.0178543
639.285	0.0179952
639.363	0.0178265
639.442	0.0179257
639.520	0.0180321
639.598	0.0180219
639.676	0.0179311
639.754	0.0178357
639.832	0.0178808
639.910	0.0177785
639.988	0.0175993
640.067	0.0177873
640.145	0.0176541
640.223	0.0176972
640.301	0.0177119
640.379	0.0177087
640.457	0.0175462
640.535	0.0175353
640.613	0.0176321
640.692	0.0176929
640.770	0.0177470
640.848	0.0178408
640.926	0.0177441
641.004	0.0179582
641.082	0.0179465
641.160	0.0178999
641.238	0.0179171
641.317	0.0180054
641.395	0.0180652
641.473	0.0179195
641.551	0.0179456
641.629	0.0179092
641.707	0.0179758
641.785	0.0178640
641.863	0.0179100
641.942	0.0178803
642.020	0.0177206
642.098	0.0177480
642.176	0.0177805
642.254	0.0176332
642.332	0.0175137
642.410	0.0177633
642.488	0.0175883
642.567	0.0178855
642.645	0.0178610
642.723	0.0178352
642.801	0.0176388
642.879	0.0177616
642.957	0.0178329
643.035	0.0178815
643.113	0.0178172
643.192	0.0178243
643.270	0.0177782
643.348	0.0179067
643.426	0.0177337
643.504	0.0178551
643.582	0.0178854
643.660	0.0177046
643.738	0.0178083
643.817	0.0176802
643.895	0.0176855
643.973	0.0177067
644.051	0.0177479
644.129	0.0177884
644.207	0.0177500
644.285	0.0178213
644.363	0.0177576
644.442	0.0177647
644.520	0.0177695
644.598	0.0176835
644.676	0.0177663
644.754	0.0178533
644.832	0.0179037
644.910	0.0178389
644.988	0.0178030
645.067	0.0177313
645.145	0.0178723
645.223	0.0179259
645.301	0.0177738
645.379	0.0175831
645.457	0.0177670
645.535	0.0177233
645.613	0.0177215
645.692	0.0177236
645.770	0.0177180
645.848	0.0175930
645.926	0.0175529
646.004	0.0176521
646.082	0.0177232
646.160	0.0175917
646.238	0.0177870
646.317	0.0176896
646.395	0.0178718
646.473	0.0178843
646.551	0.0177686
646.629	0.0177099
646.707	0.0179271
646.785	0.0178378
646.863	0.0178989
646.942	0.0179804
647.020	0.0177396
647.098	0.0177087
647.176	0.0178701
647.254	0.0178362
647.332	0.0178004
647.410	0.0176081
647.488	0.0177187
647.567	0.0178635
647.645	0.0177600
647.723	0.0176703
647.801	0.0177096
647.879	0.0177180
647.957	0.0176331
648.035	0.0176257
648.113	0.0175874
648.192	0.0177824
648.270	0.0177567
648.348	0.0177560
648.426	0.0177007
648.504	0.0177282
648.582	0.0178457
648.660	0.0178507
648.738	0.0179124
648.817	0.0178642
648.895	0.0177499
648.973	0.0177577
649.051	0.0178297
649.129	0.0178254
649.207	0.0177494
649.285	0.0177760
649.363	0.0176166
649.442	0.0176341
649.520	0.0176119
649.598	0.0176611
649.676	0.0175256
649.754	0.0175179
649.832	0.0174815
649.910	0.0175925
649.988	0.0175447
650.067	0.0174763
650.145	0.0175438
650.223	0.0176107
650.301	0.0176547
650.379	0.0176858
650.457	0.0176151
650.535	0.0177678
650.613	0.0178003
650.692	0.0179385
650.770	0.0179189
650.848	0.0177854
650.926	0.0178041
651.004	0.0177685
651.082	0.0178882
651.160	0.0176151
651.238	0.0176794
651.317	0.0176289
651.395	0.0176768
651.473	0.0176413
651.551	0.0176915
651.629	0.0175439
651.707	0.0174604
651.785	0.0174940
651.863	0.0177058
651.942	0.0177218
652.020	0.0176143
652.098	0.0177823
652.176	0.0176040
652.254	0.0177048
652.332	0.0177782
652.410	0.0179178
652.488	0.0178307
652.567	0.0178957
652.645	0.0178331
652.723	0.0179773
652.801	0.0178873
652.879	0.0178395
652.957	0.0178903
653.035	0.0179282
653.113	0.0178258
653.192	0.0179948
653.270	0.0178802
653.348	0.0178571
653.426	0.0177779
653.504	0.0178584
653.582	0.0175879
653.660	0.0177420
653.738	0.0177191
653.817	0.0176575
653.895	0.0176071
653.973	0.0175552
654.051	0.0176727
654.129	0.0173925
654.207	0.0174386
654.285	0.0175915
654.363	0.0176005
654.442	0.0176695
654.520	0.0175810
654.598	0.0176135
654.676	0.0177792
654.754	0.0178963
654.832	0.0177768
654.910	0.0178281
654.988	0.0178537
655.067	0.0180386
655.145	0.0178313
655.223	0.0179372
655.301	0.0178752
655.379	0.0179641
655.457	0.0179424
655.535	0.0179438
655.613	0.0180939
655.692	0.0177813
655.770	0.0178653
655.848	0.0178214
655.926	0.0179099
656.004	0.0177305
656.082	0.0177795
656.160	0.0179569
656.238	0.0179398
656.317	0.0179489
656.395	0.0177987
656.473	0.0179340
656.551	0.0178446
656.629	0.0179571
656.707	0.0177702
656.785	0.0178670
656.863	0.0178893
656.942	0.0177810
657.020	0.0179291
657.098	0.0177428
657.176	0.0178336
657.254	0.0179203
657.332	0.0179420
657.410	0.0178439
657.488	0.0176653
657.567	0.0176453
657.645	0.0177399
657.723	0.0176534
657.801	0.0175906
657.879	0.0175652
657.957	0.0177783
658.035	0.0177089
658.113	0.0177498
658.192	0.0177988
658.270	0.0177538
658.348	0.0177531
658.426	0.0178530
658.504	0.0178637
658.582	0.0178455
658.660	0.0177757
658.738	0.0178444
658.817	0.0178732
658.895	0.0179873
658.973	0.0179622
659.051	0.0178037
659.129	0.0179144
659.207	0.0180200
659.285	0.0178851
659.363	0.0177906
659.442	0.0178730
659.520	0.0180683
659.598	0.0179713
659.676	0.0178612
659.754	0.0179399
659.832	0.0179603
659.910	0.0179198
659.988	0.0179762
660.067	0.0179375
660.145	0.0178772
660.223	0.0179045
660.301	0.0179416
660.379	0.0179632
660.457	0.0177425
660.535	0.0178478
660.613	0.0178283
660.692	0.0177722
660.770	0.0177102
660.848	0.0176972
660.926	0.0177398
661.004	0.0177253
661.082	0.0177835
661.160	0.0177676
661.238	0.0176614
661.317	0.0178630
661.395	0.0177354
661.473	0.0176308
661.551	0.0177395
661.629	0.0178069
661.707	0.0178571
661.785	0.0177550
661.863	0.0179158
661.942	0.0178931
662.020	0.0178409
662.098	0.0178582
662.176	0.0177616
662.254	0.0179194
662.332	0.0178611
662.410	0.0177087
662.488	0.0177831
662.567	0.0178637
662.645	0.0177386
662.723	0.0177645
662.801	0.0177763
662.879	0.0178744
662.957	0.0177042
663.035	0.0176788
663.113	0.0178246
663.192	0.0178269
663.270	0.0177113
663.348	0.0177163
663.426	0.0178219
663.504	0.0177943
663.582	0.0179030
663.660	0.0177766
663.738	0.0177513
663.817	0.0177388
663.895	0.0178256
663.973	0.0178083
664.051	0.0179095
664.129	0.0177993
664.207	0.0179166
664.285	0.0177619
664.363	0.0178050
664.442	0.0178005
664.520	0.0179066
664.598	0.0179915
664.676	0.0177699
664.754	0.0178110
664.832	0.0179073
664.910	0.0177166
664.988	0.0176855
665.067	0.0176033
665.145	0.0176073
665.223	0.0175845
665.301	0.0175556
665.379	0.0176923
665.457	0.0175648
665.535	0.0176772
665.613	0.0177259
665.692	0.0174977
665.770	0.0176823
665.848	0.0176424
665.926	0.0176096
666.004	0.0176215
666.082	0.0177932
666.160	0.0177674
666.238	0.0175979
666.317	0.0177689
666.395	0.0177091
666.473	0.0176952
666.551	0.0177329
666.629	0.0178526
666.707	0.0178371
666.785	0.0179220
666.863	0.0177786
666.942	0.0178585
667.020	0.0178943
667.098	0.0177684
667.176	0.0179414
667.254	0.0179071
667.332	0.0177927
667.410	0.0178865
667.488	0.0178822
667.567	0.0178363
667.645	0.0177051
667.723	0.0178056
667.801	0.0177743
667.879	0.0177457
667.957	0.0177189
668.035	0.0177139
668.113	0.0176373
668.192	0.0176291
668.270	0.0177453
668.348	0.0177073
668.426	0.0176493
668.504	0.0176306
668.582	0.0177890
668.660	0.0177621
668.738	0.0177704
668.817	0.0177210
668.895	0.0178366
668.973	0.0178221
669.051	0.0179272
669.129	0.0178857
669.207	0.0180238
669.285	0.0177311
669.363	0.0177268
669.442	0.0177863
669.520	0.0176833
669.598	0.0178416
669.676	0.0177570
669.754	0.0176894
669.832	0.0177822
669.910	0.0177017
669.988	0.0177071
670.067	0.0176637
670.145	0.0176404
670.223	0.0175588
670.301	0.0176781
670.379	0.0175978
670.457	0.0176447
670.535	0.0175584
670.613	0.0175745
670.692	0.0174930
670.770	0.0175647
670.848	0.0173977
670.926	0.0175747
671.004	0.0176669
671.082	0.0175854
671.160	0.0176208
671.238	0.0177608
671.317	0.0175523
671.395	0.0176051
671.473	0.0175451
671.551	0.0176138
671.629	0.0176831
671.707	0.0176414
671.785	0.0176434
671.863	0.0176509
671.942	0.0177332
672.020	0.0177332
672.098	0.0177599
672.176	0.0178333
672.254	0.0176611
672.332	0.0176450
672.410	0.0177637
672.488	0.0176466
672.567	0.0176485
672.645	0.0176448
672.723	0.0176804
672.801	0.0175747
672.879	0.0174554
672.957	0.0177718
673.035	0.0176588
673.113	0.0176192
673.192	0.0175183
673.270	0.0174749
673.348	0.0175009
673.426	0.0175253
673.504	0.0176920
673.582	0.0176233
673.660	0.0176423
673.738	0.0175425
673.817	0.0176833
673.895	0.0176156
673.973	0.0177824
674.051	0.0178445
674.129	0.0180275
674.207	0.0179727
674.285	0.0180558
674.363	0.0179583
674.442	0.0180799
674.520	0.0180952
674.598	0.0181325
674.676	0.0180671
674.754	0.0180394
674.832	0.0180232
674.910	0.0180072
674.988	0.0178838
675.067	0.0179243
675.145	0.0178082
675.223	0.0177157
675.301	0.0177239
675.379	0.0175243
675.457	0.0175562
675.535	0.0175719
675.613	0.0176264
675.692	0.0174483
675.770	0.0174226
675.848	0.0177274
675.926	0.0176257
676.004	0.0175167
676.082	0.0175594
676.160	0.0175876
676.238	0.0175984
676.317	0.0177206
676.395	0.0176984
676.473	0.0176141
676.551	0.0175928
676.629	0.0176646
676.707	0.0177050
676.785	0.0175635
676.863	0.0176629
676.942	0.0175646
677.020	0.0174348
677.098	0.0175579
677.176	0.0174694
677.254	0.0174753
677.332	0.0174834
677.410	0.0173130
677.488	0.0173557
677.567	0.0174194
677.645	0.0174295
677.723	0.0176405
677.801	0.0176817
677.879	0.0177121
677.957	0.0179778
678.035	0.0180946
678.113	0.0180434
678.192	0.0182506
678.270	0.0184957
678.348	0.0185390
678.426	0.0184348
678.504	0.0185844
678.582	0.0187207
678.660	0.0188586
678.738	0.0187659
678.817	0.0186416
678.895	0.0184449
678.973	0.0183447
679.051	0.0183099
679.129	0.0181434
679.207	0.0180042
679.285	0.0177335
679.363	0.0174157
679.442	0.0173288
679.520	0.0170776
679.598	0.0168598
679.676	0.0167797
679.754	0.0167384
679.832	0.0165537
679.910	0.0164542
679.988	0.0162065
680.067	0.0162959
680.145	0.0163120
680.223	0.0161965
680.301	0.0162293
680.379	0.0164668
680.457	0.0165194
680.535	0.0165605
680.613	0.0167583
680.692	0.0168585
680.770	0.0172597
680.848	0.0174858
680.926	0.0177091
681.004	0.0180645
681.082	0.0182572
681.160	0.0186257
681.238	0.0188291
681.317	0.0190930
681.395	0.0193942
681.473	0.0195805
681.551	0.0196036
681.629	0.0197697
681.707	0.0198170
681.785	0.0197453
681.863	0.0199255
681.942	0.0198135
682.020	0.0197463
682.098	0.0194385
682.176	0.0193787
682.254	0.0191080
682.332	0.0187313
682.410	0.0184545
682.488	0.0182577
682.567	0.0178919
682.645	0.0176424
682.723	0.0171989
682.801	0.0169380
682.879	0.0166076
682.957	0.0162375
683.035	0.0159286
683.113	0.0158141
683.192	0.0157169
683.270	0.0154788
683.348	0.0154474
683.426	0.0153290
683.504	0.0153490
683.582	0.0153391
683.660	0.0155506
683.738	0.0156385
683.817	0.0158755
683.895	0.0160057
683.973	0.0163638
684.051	0.0166755
684.129	0.0168192
684.207	0.0170778
684.285	0.0175171
684.363	0.0178827
684.442	0.0181526
684.520	0.0184357
684.598	0.0188766
684.676	0.0193098
684.754	0.0195890
684.832	0.0198557
684.910	0.0200025
684.988	0.0201756
685.067	0.0204549
685.145	0.0204578
685.223	0.0205288
685.301	0.0204549
685.379	0.0204552
685.457	0.0201176
685.535	0.0197957
685.613	0.0197068
685.692	0.0194010
685.770	0.0189390
685.848	0.0184993
685.926	0.0181852
686.004	0.0177776
686.082	0.0171564
686.160	0.0168996
686.238	0.0166729
686.317	0.0163039
686.395	0.0159599
686.473	0.0156489
686.551	0.0153475
686.629	0.0151957
686.707	0.0151044
686.785	0.0152866
686.863	0.0151252
686.942	0.0151269
687.020	0.0152397
687.098	0.0153149
687.176	0.0153846
687.254	0.0156207
687.332	0.0158502
687.410	0.0161253
687.488	0.0164132
687.567	0.0168410
687.645	0.0169347
687.723	0.0173209
687.801	0.0175716
687.879	0.0179509
687.957	0.0180989
688.035	0.0185191
688.113	0.0188717
688.192	0.0190499
688.270	0.0192272
688.348	0.0194564
688.426	0.0197678
688.504	0.0198126
688.582	0.0200571
688.660	0.0202580
688.738	0.0201911
688.817	0.0203446
688.895	0.0204109
688.973	0.0203864
689.051	0.0202647
689.129	0.0200206
689.207	0.0198302
689.285	0.0196133
689.363	0.0192443
689.442	0.0189194
689.520	0.0186151
689.598	0.0183440
689.676	0.0182169
689.754	0.0178047
689.832	0.0174911
689.910	0.0171297
689.988	0.0169447
690.067	0.0167010
690.145	0.0163486
690.223	0.0162312
690.301	0.0158411
690.379	0.0158069
690.457	0.0156344
690.535	0.0155423
690.613	0.0155268
690.692	0.0153538
690.770	0.0154609
690.848	0.0154575
690.926	0.0153712
691.004	0.0156520
691.082	0.0157409
691.160	0.0157982
691.238	0.0161207
691.317	0.0162942
691.395	0.0167036
691.473	0.0171738
691.551	0.0172919
691.629	0.0176266
691.707	0.0180595
691.785	0.0184908
691.863	0.0187042
691.942	0.0188104
692.020	0.0192255
692.098	0.0195131
692.176	0.0195773
692.254	0.0197346
692.332	0.0195364
692.410	0.0194719
692.488	0.0196394
692.567	0.0195069
692.645	0.0194469
692.723	0.0192037
692.801	0.0188577
692.879	0.0186606
692.957	0.0185783
693.035	0.0183219
693.113	0.0180434
693.192	0.0179639
693.270	0.0177513
693.348	0.0177220
693.426	0.0175362
693.504	0.0173656
693.582	0.0173936
693.660	0.0173207
693.738	0.0173240
693.817	0.0171728
693.895	0.0171101
693.973	0.0172334
694.051	0.0171266
694.129	0.0172859
694.207	0.0173757
694.285	0.0174178
694.363	0.0175308
694.442	0.0175506
694.520	0.0176768
694.598	0.0179251
694.676	0.0181372
694.754	0.0181879
694.832	0.0183392
694.910	0.0182867
694.988	0.0183362
695.067	0.0184986
695.145	0.0183919
695.223	0.0185509
695.301	0.0182436
695.379	0.0179442
695.457	0.0177320
695.535	0.0176221
695.613	0.0173587
695.692	0.0169632
695.770	0.0165986
695.848	0.0164973
695.926	0.0160863
696.004	0.0159670
696.082	0.0158431
696.160	0.0156866
696.238	0.0155984
696.317	0.0156851
696.395	0.0156529
696.473	0.0155570
696.551	0.0157124
696.629	0.0161549
696.707	0.0163879
696.785	0.0165930
696.863	0.0170052
696.942	0.0174580
697.020	0.0176270
697.098	0.0179815
697.176	0.0184373
697.254	0.0188373
697.332	0.0191206
697.410	0.0192908
697.488	0.0197005
697.567	0.0197160
697.645	0.0199654
697.723	0.0200539
697.801	0.0201012
697.879	0.0200627
697.957	0.0201232
698.035	0.0200109
698.113	0.0200458
698.192	0.0201206
698.270	0.0198203
698.348	0.0197749
698.426	0.0195403
698.504	0.0193367
698.582	0.0192612
698.660	0.0191037
698.738	0.0186727
698.817	0.0183717
698.895	0.0183232
698.973	0.0180441
699.051	0.0177396
699.129	0.0175391
699.207	0.0170211
699.285	0.0169997
699.363	0.0167270
699.442	0.0164880
699.520	0.0163245
699.598	0.0162930
699.676	0.0161447
699.754	0.0160693
699.832	0.0162291
699.910	0.0161230
699.988	0.0158794
700.067	0.0158147
700.145	0.0159727
700.223	0.0159731
700.301	0.0160090
700.379	0.0159899
700.457	0.0161636
700.535	0.0160108
700.613	0.0159785
700.692	0.0160657
700.770	0.0160217
700.848	0.0161855
700.926	0.0162047
701.004	0.0163755
701.082	0.0166879
701.160	0.0166842
701.238	0.0168773
701.317	0.0170518
701.395	0.0172008
701.473	0.0174089
701.551	0.0175036
701.629	0.0176919
701.707	0.0180252
701.785	0.0182089
701.863	0.0184274
701.942	0.0186832
702.020	0.0189954
702.098	0.0192918
702.176	0.0194081
702.254	0.0196246
702.332	0.0198413
702.410	0.0201386
702.488	0.0201891
702.567	0.0203941
702.645	0.0205681
702.723	0.0205021
702.801	0.0204254
702.879	0.0204251
702.957	0.0203091
703.035	0.0202596
703.113	0.0200163
703.192	0.0197253
703.270	0.0195088
703.348	0.0189456
703.426	0.0186729
703.504	0.0182877
703.582	0.0180140
703.660	0.0174905
703.738	0.0172063
703.817	0.0168949
703.895	0.0167647
703.973	0.0166341
704.051	0.0163326
704.129	0.0161629
704.207	0.0161071
704.285	0.0159932
704.363	0.0156429
704.442	0.0157300
704.520	0.0158009
704.598	0.0157616
704.676	0.0155746
704.754	0.0156137
704.832	0.0155670
704.910	0.0159642
704.988	0.0160552
705.067	0.0160844
705.145	0.0162617
705.223	0.0165618
705.301	0.0167946
705.379	0.0171836
705.457	0.0173331
705.535	0.0176572
705.613	0.0178017
705.692	0.0178567
705.770	0.0180902
705.848	0.0182335
705.926	0.0182674
706.004	0.0183598
706.082	0.0183155
706.160	0.0181639
706.238	0.0181819
706.317	0.0179866
706.395	0.0178793
706.473	0.0177534
706.551	0.0176105
706.629	0.0174074
706.707	0.0174970
706.785	0.0175740
706.863	0.0174741
706.942	0.0175370
707.020	0.0176791
707.098	0.0176770
707.176	0.0177792
707.254	0.0179066
707.332	0.0180486
707.410	0.0179274
707.488	0.0182135
707.567	0.0183510
707.645	0.0183968
707.723	0.0183540
707.801	0.0184473
707.879	0.0186359
707.957	0.0184880
708.035	0.0185030
708.113	0.0185416
708.192	0.0187160
708.270	0.0187482
708.348	0.0187362
708.426	0.0187779
708.504	0.0187763
708.582	0.0188615
708.660	0.0189165
708.738	0.0188754
708.817	0.0187478
708.895	0.0187088
708.973	0.0187521
709.051	0.0186984
709.129	0.0186037
709.207	0.0186166
709.285	0.0182334
709.363	0.0181746
709.442	0.0181146
709.520	0.0180250
709.598	0.0178091
709.676	0.0176923
709.754	0.0173746
709.832	0.0172051
709.910	0.0171019
709.988	0.0168923
710.067	0.0167432
710.145	0.0165739
710.223	0.0163590
710.301	0.0161142
710.379	0.0158880
710.457	0.0156802
710.535	0.0156510
710.613	0.0158379
710.692	0.0157456
710.770	0.0157078
710.848	0.0156612
710.926	0.0157958
711.004	0.0159235
711.082	0.0161183
711.160	0.0163811
711.238	0.0165575
711.317	0.0166637
711.395	0.0169625
711.473	0.0171984
711.551	0.0172013
711.629	0.0175188
711.707	0.0175826
711.785	0.0175475
711.863	0.0176577
711.942	0.0177940
712.020	0.0177876
712.098	0.0179595
712.176	0.0179605
712.254	0.0178907
712.332	0.0179957
712.410	0.0179749
712.488	0.0180200
712.567	0.0181394
712.645	0.0181726
712.723	0.0183165
712.801	0.0184437
712.879	0.0184585
712.957	0.0185646
713.035	0.0187034
713.113	0.0189850
713.192	0.0191079
713.270	0.0193689
713.348	0.0193877
713.426	0.0194486
713.504	0.0195486
713.582	0.0195452
713.660	0.0194774
713.738	0.0194043
713.817	0.0194604
713.895	0.0193457
713.973	0.0191371
714.051	0.0190456
714.129	0.0189281
714.207	0.0187767
714.285	0.0185754
714.363	0.0184042
714.442	0.0183347
714.520	0.0180914
714.598	0.0179486
714.676	0.0178053
714.754	0.0177411
714.832	0.0176317
714.910	0.0176057
714.988	0.0173193
715.067	0.0172427
715.145	0.0173717
715.223	0.0174122
715.301	0.0173507
715.379	0.0172638
715.457	0.0172464
715.535	0.0171384
715.613	0.0171974
715.692	0.0172895
715.770	0.0171478
715.848	0.0170688
715.926	0.0170154
716.004	0.0168464
716.082	0.0168266
716.160	0.0165589
716.238	0.0165256
716.317	0.0163770
716.395	0.0161597
716.473	0.0160228
716.551	0.0160973
716.629	0.0159583
716.707	0.0160717
716.785	0.0160646
716.863	0.0160226
716.942	0.0160003
717.020	0.0163976
717.098	0.0164063
717.176	0.0164074
717.254	0.0169136
717.332	0.0168980
717.410	0.0169730
717.488	0.0172088
717.567	0.0174724
717.645	0.0177615
717.723	0.0177387
717.801	0.0178440
717.879	0.0181098
717.957	0.0181766
718.035	0.0183792
718.113	0.0186551
718.192	0.0185828
718.270	0.0187314
718.348	0.0187199
718.426	0.0187678
718.504	0.0187743
718.582	0.0189144
718.660	0.0188770
718.738	0.0189014
718.817	0.0189476
718.895	0.0189474
718.973	0.0189794
719.051	0.0188242
719.129	0.0187619
719.207	0.0187874
719.285	0.0187538
719.363	0.0188038
719.442	0.0186034
719.520	0.0186224
719.598	0.0185885
719.676	0.0184243
719.754	0.0184954
719.832	0.0184508
719.910	0.0183088
719.988	0.0183949
720.067	0.0184565
720.145	0.0183788
720.223	0.0183737
720.301	0.0183568
720.379	0.0183394
720.457	0.0182897
720.535	0.0181526
720.613	0.0182221
720.692	0.0182690
720.770	0.0180432
720.848	0.0180824
720.926	0.0181268
721.004	0.0179517
721.082	0.0180441
721.160	0.0180663
721.238	0.0179078
721.317	0.0179493
721.395	0.0177517
721.473	0.0177570
721.551	0.0176860
721.629	0.0175478
721.707	0.0173325
721.785	0.0171687
721.863	0.0170517
721.942	0.0168647
722.020	0.0167977
722.098	0.0165702
722.176	0.0165308
722.254	0.0163130
722.332	0.0163766
722.410	0.0163190
722.488	0.0161036
722.567	0.0161368
722.645	0.0160833
722.723	0.0160738
722.801	0.0160806
722.879	0.0161599
722.957	0.0163373
723.035	0.0164790
723.113	0.0167332
723.192	0.0168147
723.270	0.0171173
723.348	0.0173048
723.426	0.0176083
723.504	0.0178080
723.582	0.0180988
723.660	0.0181851
723.738	0.0182420
723.817	0.0185287
723.895	0.0186700
723.973	0.0187437
724.051	0.0189150
724.129	0.0188927
724.207	0.0187065
724.285	0.0187440
724.363	0.0185769
724.442	0.0185921
724.520	0.0183860
724.598	0.0182272
724.676	0.0181429
724.754	0.0181805
724.832	0.0181384
724.910	0.0179851
724.988	0.0181601
725.067	0.0180813
725.145	0.0179632
725.223	0.0180415
725.301	0.0180914
725.379	0.0182868
725.457	0.0183366
725.535	0.0182674
725.613	0.0182910
725.692	0.0184786
725.770	0.0184833
725.848	0.0185608
725.926	0.0184669
726.004	0.0185506
726.082	0.0184618
726.160	0.0184845
726.238	0.0182391
726.317	0.0181034
726.395	0.0179662
726.473	0.0180376
726.551	0.0179619
726.629	0.0177892
726.707	0.0175900
726.785	0.0175056
726.863	0.0174830
726.942	0.0174294
727.020	0.0174535
727.098	0.0172182
727.176	0.0171826
727.254	0.0172887
727.332	0.0172375
727.410	0.0172588
727.488	0.0171456
727.567	0.0172675
727.645	0.0172732
727.723	0.0173723
727.801	0.0172850
727.879	0.0172655
727.957	0.0172989
728.035	0.0172559
728.113	0.0173988
728.192	0.0171624
728.270	0.0172138
728.348	0.0171695
728.426	0.0172530
728.504	0.0171792
728.582	0.0171132
728.660	0.0172121
728.738	0.0173164
728.817	0.0172071
728.895	0.0171828
728.973	0.0173771
729.051	0.0174374
729.129	0.0175703
729.207	0.0175465
729.285	0.0175392
729.363	0.0174458
729.442	0.0176307
729.520	0.0177563
729.598	0.0175713
729.676	0.0176578
729.754	0.0177051
729.832	0.0176072
729.910	0.0177150
729.988	0.0177914
730.067	0.0178950
730.145	0.0178618
730.223	0.0179622
730.301	0.0179727
730.379	0.0180841
730.457	0.0181590
730.535	0.0182722
730.613	0.0184663
730.692	0.0185125
730.770	0.0183087
730.848	0.0185663
730.926	0.0185747
731.004	0.0184059
731.082	0.0183249
731.160	0.0183249
731.238	0.0182253
731.317	0.0179331
731.395	0.0179704
731.473	0.0179535
731.551	0.0177882
731.629	0.0174996
731.707	0.0175317
731.785	0.0173924
731.863	0.0172675
731.942	0.0171877
732.020	0.0172271
732.098	0.0170472
732.176	0.0170535
732.254	0.0171381
732.332	0.0172485
732.410	0.0172832
732.488	0.0174001
732.567	0.0175578
732.645	0.0175881
732.723	0.0175583
732.801	0.0177513
732.879	0.0179031
732.957	0.0178718
733.035	0.0179963
733.113	0.0180212
733.192	0.0181573
733.270	0.0181465
733.348	0.0179102
733.426	0.0180332
733.504	0.0181699
733.582	0.0179574
733.660	0.0178098
733.738	0.0179565
733.817	0.0179031
733.895	0.0178958
733.973	0.0178401
734.051	0.0177567
734.129	0.0177005
734.207	0.0178607
734.285	0.0176275
734.363	0.0174784
734.442	0.0174618
734.520	0.0174525
734.598	0.0174836
734.676	0.0176727
734.754	0.0175130
734.832	0.0176397
734.910	0.0177847
734.988	0.0179422
735.067	0.0178446
735.145	0.0178582
735.223	0.0179831
735.301	0.0179656
735.379	0.0180268
735.457	0.0180441
735.535	0.0178367
735.613	0.0178254
735.692	0.0179397
735.770	0.0177795
735.848	0.0175327
735.926	0.0176262
736.004	0.0176888
736.082	0.0175932
736.160	0.0175584
736.238	0.0175379
736.317	0.0175433
736.395	0.0176758
736.473	0.0175278
736.551	0.0177518
736.629	0.0176011
736.707	0.0175226
736.785	0.0176683
736.863	0.0176581
736.942	0.0177008
737.020	0.0177480
737.098	0.0177224
737.176	0.0176434
737.254	0.0176543
737.332	0.0177070
737.410	0.0178771
737.488	0.0178273
737.567	0.0177130
737.645	0.0178542
737.723	0.0177933
737.801	0.0178168
737.879	0.0179129
737.957	0.0178196
738.035	0.0178159
738.113	0.0177341
738.192	0.0177365
738.270	0.0178244
738.348	0.0178218
738.426	0.0176180
738.504	0.0175826
738.582	0.0178116
738.660	0.0176344
738.738	0.0175118
738.817	0.0176285
738.895	0.0177100
738.973	0.0177287
739.051	0.0178622
739.129	0.0178797
739.207	0.0179034
739.285	0.0181378
739.363	0.0180270
739.442	0.0180511
739.520	0.0181092
739.598	0.0181161
739.676	0.0180410
739.754	0.0180431
739.832	0.0179260
739.910	0.0177904
739.988	0.0177179
740.067	0.0175920
740.145	0.0175403
740.223	0.0174995
740.301	0.0173058
740.379	0.0171970
740.457	0.0172473
740.535	0.0173566
740.613	0.0173474
740.692	0.0172746
740.770	0.0175138
740.848	0.0174998
740.926	0.0176290
741.004	0.0178879
741.082	0.0180765
741.160	0.0181880
741.238	0.0182935
741.317	0.0184539
741.395	0.0185126
741.473	0.0184957
741.551	0.0185352
741.629	0.0185744
741.707	0.0185144
741.785	0.0185529
741.863	0.0183304
741.942	0.0181521
742.020	0.0182011
742.098	0.0180222
742.176	0.0178194
742.254	0.0178784
742.332	0.0177640
742.410	0.0177484
742.488	0.0177296
742.567	0.0174895
742.645	0.0175040
742.723	0.0175488
742.801	0.0175050
742.879	0.0175124
742.957	0.0177463
743.035	0.0177911
743.113	0.0177754
743.192	0.0178995
743.270	0.0180165
743.348	0.0180291
743.426	0.0180946
743.504	0.0181433
743.582	0.0182693
743.660	0.0182529
743.738	0.0180779
743.817	0.0180582
743.895	0.0179339
743.973	0.0179940
744.051	0.0176671
744.129	0.0176040
744.207	0.0175494
744.285	0.0175426
744.363	0.0173492
744.442	0.0172288
744.520	0.0169994
744.598	0.0170932
744.676	0.0170832
744.754	0.0169227
744.832	0.0169269
744.910	0.0169939
744.988	0.0169765
745.067	0.0171797
745.145	0.0172881
745.223	0.0172482
745.301	0.0172259
745.379	0.0174626
745.457	0.0175227
745.535	0.0175880
745.613	0.0175559
745.692	0.0176972
745.770	0.0177278
745.848	0.0177149
745.926	0.0177429
746.004	0.0176647
746.082	0.0178111
746.160	0.0177396
746.238	0.0176045
746.317	0.0175538
746.395	0.0177780
746.473	0.0175803
746.551	0.0175560
746.629	0.0177161
746.707	0.0175297
746.785	0.0174014
746.863	0.0175743
746.942	0.0174519
747.020	0.0172796
747.098	0.0173148
747.176	0.0174863
747.254	0.0175329
747.332	0.0174561
747.410	0.0175588
747.488	0.0176719
747.567	0.0175700
747.645	0.0176342
747.723	0.0176758
747.801	0.0179950
747.879	0.0181861
747.957	0.0181788
748.035	0.0183241
748.113	0.0182479
748.192	0.0184959
748.270	0.0184512
748.348	0.0184252
748.426	0.0183786
748.504	0.0183877
748.582	0.0184140
748.660	0.0184724
748.738	0.0182177
748.817	0.0184068
748.895	0.0183186
748.973	0.0183956
749.051	0.0184489
749.129	0.0184731
749.207	0.0185554
749.285	0.0186908
749.363	0.0183899
749.442	0.0185525
749.520	0.0186082
749.598	0.0185095
749.676	0.0184602
749.754	0.0182906
749.832	0.0183641
749.910	0.0182182
749.988	0.0179923
750.067	0.0178672
750.145	0.0177501
750.223	0.0174854
750.301	0.0173355
750.379	0.0171012
750.457	0.0169836
750.535	0.0169521
750.613	0.0167876
750.692	0.0168040
750.770	0.0168224
750.848	0.0167072
750.926	0.0167482
751.004	0.0168531
751.082	0.0168528
751.160	0.0169883
751.238	0.0170052
751.317	0.0171584
751.395	0.0171689
751.473	0.0174265
751.551	0.0173323
751.629	0.0174057
751.707	0.0174268
751.785	0.0175169
751.863	0.0172865
751.942	0.0171861
752.020	0.0171555
752.098	0.0171960
752.176	0.0172092
752.254	0.0172949
752.332	0.0171851
752.410	0.0169783
752.488	0.0170354
752.567	0.0170554
752.645	0.0170874
752.723	0.0170258
752.801	0.0172013
752.879	0.0172369
752.957	0.0172311
753.035	0.0174815
753.113	0.0175031
753.192	0.0177982
753.270	0.0176267
753.348	0.0178460
753.426	0.0179310
753.504	0.0180441
753.582	0.0181738
753.660	0.0182553
753.738	0.0183754
753.817	0.0182368
753.895	0.0181813
753.973	0.0181145
754.051	0.0179939
754.129	0.0182334
754.207	0.0181148
754.285	0.0180708
754.363	0.0181400
754.442	0.0180222
754.520	0.0179692
754.598	0.0179723
754.676	0.0179864
754.754	0.0182050
754.832	0.0180628
754.910	0.0181104
754.988	0.0182689
755.067	0.0182359
755.145	0.0182485
755.223	0.0183003
755.301	0.0183497
755.379	0.0182111
755.457	0.0182178
755.535	0.0182754
755.613	0.0181702
755.692	0.0182815
755.770	0.0180770
755.848	0.0180871
755.926	0.0179279
756.004	0.0179289
756.082	0.0178777
756.160	0.0178143
756.238	0.0177587
756.317	0.0178103
756.395	0.0177860
756.473	0.0177847
756.551	0.0176886
756.629	0.0179105
756.707	0.0178307
756.785	0.0177486
756.863	0.0178682
756.942	0.0180355
757.020	0.0179383
757.098	0.0179282
757.176	0.0180624
757.254	0.0179122
757.332	0.0179284
757.410	0.0178407
757.488	0.0178373
757.567	0.0177615
757.645	0.0176102
757.723	0.0175773
757.801	0.0175321
757.879	0.0173074
757.957	0.0171935
758.035	0.0171323
758.113	0.0172109
758.192	0.0171281
758.270	0.0171519
758.348	0.0171658
758.426	0.0171425
758.504	0.0171977
758.582	0.0173785
758.660	0.0175536
758.738	0.0176025
758.817	0.0173769
758.895	0.0175366
758.973	0.0176823
759.051	0.0175249
759.129	0.0176280
759.207	0.0174830
759.285	0.0175999
759.363	0.0175315
759.442	0.0174750
759.520	0.0173837
759.598	0.0173812
759.676	0.0172438
759.754	0.0172153
759.832	0.0170988
759.910	0.0169695
759.988	0.0171209
760.067	0.0171348
760.145	0.0169810
760.223	0.0170451
760.301	0.0170947
760.379	0.0172462
760.457	0.0173016
760.535	0.0173965
760.613	0.0177047
760.692	0.0176762
760.770	0.0178114
760.848	0.0178093
760.926	0.0180008
761.004	0.0182445
761.082	0.0181786
761.160	0.0182367
761.238	0.0182702
761.317	0.0183490
761.395	0.0183031
761.473	0.0183254
761.551	0.0182185
761.629	0.0182214
761.707	0.0181826
761.785	0.0182167
761.863	0.0181345
761.942	0.0180944
762.020	0.0180230
762.098	0.0179824
762.176	0.0180951
762.254	0.0178782
762.332	0.0179410
762.410	0.0181140
762.488	0.0180820
762.567	0.0180010
762.645	0.0182017
762.723	0.0181469
762.801	0.0181628
762.879	0.0183578
762.957	0.0184235
763.035	0.0184435
763.113	0.0182304
763.192	0.0183048
763.270	0.0182660
763.348	0.0182610
763.426	0.0181416
763.504	0.0180387
763.582	0.0181152
763.660	0.0179733
763.738	0.0179519
763.817	0.0178796
763.895	0.0180009
763.973	0.0179607
764.051	0.0180927
764.129	0.0179711
764.207	0.0180205
764.285	0.0181715
764.363	0.0181206
764.442	0.0181564
764.520	0.0181657
764.598	0.0181016
764.676	0.0180815
764.754	0.0180410
764.832	0.0179380
764.910	0.0178117
764.988	0.0176800
765.067	0.0176784
765.145	0.0174302
765.223	0.0173256
765.301	0.0172945
765.379	0.0171275
765.457	0.0172068
765.535	0.0169826
765.613	0.0168775
765.692	0.0167456
765.770	0.0167340
765.848	0.0168635
765.926	0.0169771
766.004	0.0169403
766.082	0.0168823
766.160	0.0170428
766.238	0.0170297
766.317	0.0173179
766.395	0.0173395
766.473	0.0174577
766.551	0.0175240
766.629	0.0176478
766.707	0.0175430
766.785	0.0177208
766.863	0.0175063
766.942	0.0175175
767.020	0.0174502
767.098	0.0173479
767.176	0.0172748
767.254	0.0170775
767.332	0.0171402
767.410	0.0170469
767.488	0.0171397
767.567	0.0169539
767.645	0.0168929
767.723	0.0169081
767.801	0.0170941
767.879	0.0172290
767.957	0.0171905
768.035	0.0174137
768.113	0.0175788
768.192	0.0178282
768.270	0.0179265
768.348	0.0181573
768.426	0.0182912
768.504	0.0184277
768.582	0.0185379
768.660	0.0187286
768.738	0.0187355
768.817	0.0189207
768.895	0.0189732
768.973	0.0189472
769.051	0.0190321
769.129	0.0188364
769.207	0.0186870
769.285	0.0185876
769.363	0.0184139
769.442	0.0181361
769.520	0.0181530
769.598	0.0179259
769.676	0.0178725
769.754	0.0176387
769.832	0.0175722
769.910	0.0175774
769.988	0.0175534
770.067	0.0174070
770.145	0.0174158
770.223	0.0174212
770.301	0.0175972
770.379	0.0175253
770.457	0.0177902
770.535	0.0177815
770.613	0.0179507
770.692	0.0180575
770.770	0.0180571
770.848	0.0181475
770.926	0.0182922
771.004	0.0183109
771.082	0.0183599
771.160	0.0184843
771.238	0.0183038
771.317	0.0183208
771.395	0.0183659
771.473	0.0184148
771.551	0.0181834
771.629	0.0183218
771.707	0.0181546
771.785	0.0181540
771.863	0.0180425
771.942	0.0181300
772.020	0.0181774
772.098	0.0180383
772.176	0.0179773
772.254	0.0180029
772.332	0.0180526
772.410	0.0179302
772.488	0.0179919
772.567	0.0178211
772.645	0.0176797
772.723	0.0178278
772.801	0.0176861
772.879	0.0175683
772.957	0.0174744
773.035	0.0174209
773.113	0.0171958
773.192	0.0170441
773.270	0.0169848
773.348	0.0170584
773.426	0.0169362
773.504	0.0168463
773.582	0.0168325
773.660	0.0166325
773.738	0.0168172
773.817	0.0168497
773.895	0.0168547
773.973	0.0168330
774.051	0.0169531
774.129	0.0170805
774.207	0.0170303
774.285	0.0172881
774.363	0.0171654
774.442	0.0172687
774.520	0.0173289
774.598	0.0173698
774.676	0.0172529
774.754	0.0172524
774.832	0.0172050
774.910	0.0171233
774.988	0.0172448
775.067	0.0170972
775.145	0.0171735
775.223	0.0170171
775.301	0.0170697
775.379	0.0171394
775.457	0.0173353
775.535	0.0172032
775.613	0.0173732
775.692	0.0174709
775.770	0.0175734
775.848	0.0177818
775.926	0.0178985
776.004	0.0183499
776.082	0.0184386
776.160	0.0183514
776.238	0.0184709
776.317	0.0185440
776.395	0.0187859
776.473	0.0187155
776.551	0.0189326
776.629	0.0186889
776.707	0.0187278
776.785	0.0185853
776.863	0.0185013
776.942	0.0184631
777.020	0.0181917
777.098	0.0180766
777.176	0.0179372
777.254	0.0178327
777.332	0.0177148
777.410	0.0177041
777.488	0.0175617
777.567	0.0174542
777.645	0.0172211
777.723	0.0173956
777.801	0.0174696
777.879	0.0174524
777.957	0.0175539
778.035	0.0176397
778.113	0.0175239
778.192	0.0176633
778.270	0.0176865
778.348	0.0177691
778.426	0.0178686
778.504	0.0179688
778.582	0.0178970
778.660	0.0180778
778.738	0.0181057
778.817	0.0183009
778.895	0.0182977
778.973	0.0184789
779.051	0.0185361
779.129	0.0185629
779.207	0.0184821
779.285	0.0185548
779.363	0.0185449
779.442	0.0185740
779.520	0.0184538
779.598	0.0185307
779.676	0.0185565
779.754	0.0185671
779.832	0.0185074
779.910	0.0184343
779.988	0.0182726
780.067	0.0181316
780.145	0.0180496
780.223	0.0179111
780.301	0.0178286
780.379	0.0176448
780.457	0.0173600
780.535	0.0173029
780.613	0.0171904
780.692	0.0171014
780.770	0.0169997
780.848	0.0168935
780.926	0.0168968
781.004	0.0167937
781.082	0.0166008
781.160	0.0167307
781.238	0.0166904
781.317	0.0167214
781.395	0.0168096
781.473	0.0165420
781.551	0.0168234
781.629	0.0167860
781.707	0.0169112
781.785	0.0171149
781.863	0.0170314
781.942	0.0171294
782.020	0.0171562
782.098	0.0173524
782.176	0.0172102
782.254	0.0172485
782.332	0.0173306
782.410	0.0173454
782.488	0.0174246
782.567	0.0173310
782.645	0.0172462
782.723	0.0171823
782.801	0.0173275
782.879	0.0173262
782.957	0.0172596
783.035	0.0175009
783.113	0.0175512
783.192	0.0174829
783.270	0.0176193
783.348	0.0176639
783.426	0.0178556
783.504	0.0179972
783.582	0.0180731
783.660	0.0181923
783.738	0.0184154
783.817	0.0185026
783.895	0.0185833
783.973	0.0186372
784.051	0.0186022
784.129	0.0187423
784.207	0.0188040
784.285	0.0187358
784.363	0.0187292
784.442	0.0186519
784.520	0.0185007
784.598	0.0185294
784.676	0.0184406
784.754	0.0184462
784.832	0.0182575
784.910	0.0180901
784.988	0.0178444
785.067	0.0178819
785.145	0.0178722
785.223	0.0178448
785.301	0.0177932
785.379	0.0176283
785.457	0.0177411
785.535	0.0179137
785.613	0.0178960
785.692	0.0178896
785.770	0.0179488
785.848	0.0179677
785.926	0.0182623
786.004	0.0180588
786.082	0.0181238
786.160	0.0182984
786.238	0.0183945
786.317	0.0183315
786.395	0.0184093
786.473	0.0184760
786.551	0.0184789
786.629	0.0185228
786.707	0.0184855
786.785	0.0185149
786.863	0.0184956
786.942	0.0184935
787.020	0.0183351
787.098	0.0182967
787.176	0.0181551
787.254	0.0182004
787.332	0.0180481
787.410	0.0179807
787.488	0.0178118
787.567	0.0178483
787.645	0.0178654
787.723	0.0178685
787.801	0.0178342
787.879	0.0177419
787.957	0.0175885
788.035	0.0174980
788.113	0.0176186
788.192	0.0174862
788.270	0.0172278
788.348	0.0171795
788.426	0.0172260
788.504	0.0169911
788.582	0.0171158
788.660	0.0169898
788.738	0.0169150
788.817	0.0168679
788.895	0.0167731
788.973	0.0165681
789.051	0.0168774
789.129	0.0167174
789.207	0.0166559
789.285	0.0166158
789.363	0.0166978
789.442	0.0166396
789.520	0.0165543
789.598	0.0165778
789.676	0.0167106
789.754	0.0169306
789.832	0.0167444
789.910	0.0170090
789.988	0.0170425
790.067	0.0170631
790.145	0.0171130
790.223	0.0173711
790.301	0.0174181
790.379	0.0173410
790.457	0.0176498
790.535	0.0177091
790.613	0.0177299
790.692	0.0178603
790.770	0.0180490
790.848	0.0179864
790.926	0.0181721
791.004	0.0181632
791.082	0.0184721
791.160	0.0184391
791.238	0.0183973
791.317	0.0185191
791.395	0.0186497
791.473	0.0185535
791.551	0.0185403
791.629	0.0185577
791.707	0.0184289
791.785	0.0185311
791.863	0.0184238
791.942	0.0183334
792.020	0.0182722
792.098	0.0181402
792.176	0.0180561
792.254	0.0178892
792.332	0.0178455
792.410	0.0178536
792.488	0.0176071
792.567	0.0174129
792.645	0.0176057
792.723	0.0175343
792.801	0.0175771
792.879	0.0175018
792.957	0.0175248
793.035	0.0176837
793.113	0.0176884
793.192	0.0177345
793.270	0.0177718
793.348	0.0178465
793.426	0.0179150
793.504	0.0180653
793.582	0.0182244
793.660	0.0182929
793.738	0.0183168
793.817	0.0183403
793.895	0.0185186
793.973	0.0186229
794.051	0.0186381
794.129	0.0185472
794.207	0.0186103
794.285	0.0185502
794.363	0.0185520
794.442	0.0186370
794.520	0.0187143
794.598	0.0186971
794.676	0.0186601
794.754	0.0184494
794.832	0.0185416
794.910	0.0184823
794.988	0.0184128
795.067	0.0184512
795.145	0.0182551
795.223	0.0182156
795.301	0.0182167
795.379	0.0181525
795.457	0.0180142
795.535	0.0179065
795.613	0.0179323
795.692	0.0176743
795.770	0.0175526
795.848	0.0174426
795.926	0.0171227
796.004	0.0172044
796.082	0.0171357
796.160	0.0167823
796.238	0.0167245
796.317	0.0165530
796.395	0.0164322
796.473	0.0163060
796.551	0.0162292
796.629	0.0159974
796.707	0.0159921
796.785	0.0160124
796.863	0.0159966
796.942	0.0158680
797.020	0.0158549
797.098	0.0158573
797.176	0.0158810
797.254	0.0160886
797.332	0.0161369
797.410	0.0162251
797.488	0.0163358
797.567	0.0167335
797.645	0.0168460
797.723	0.0168718
797.801	0.0169612
797.879	0.0173408
797.957	0.0173033
798.035	0.0175583
798.113	0.0176130
798.192	0.0177156
798.270	0.0178188
798.348	0.0180123
798.426	0.0181463
798.504	0.0182077
798.582	0.0181646
798.660	0.0183427
798.738	0.0183572
798.817	0.0185236
798.895	0.0185767
798.973	0.0185619
799.051	0.0186080
799.129	0.0187247
799.207	0.0187359
799.285	0.0186904
799.363	0.0186539
799.442	0.0186957
799.520	0.0186728
799.598	0.0185930
799.676	0.0185313
799.754	0.0184771
799.832	0.0184929
799.910	0.0182773
799.988	0.0182082
800.067	0.0181453
800.145	0.0180503
800.223	0.0179871
800.301	0.0179540
800.379	0.0179180
800.457	0.0178299
800.535	0.0178333
800.613	0.0177821
800.692	0.0177219
800.770	0.0178027
800.848	0.0177914
800.926	0.0178051
801.004	0.0178493
801.082	0.0179021
801.160	0.0179539
801.238	0.0179450
801.317	0.0179623
801.395	0.0180801
801.473	0.0180932
801.551	0.0179015
801.629	0.0179681
801.707	0.0179903
801.785	0.0179847
801.863	0.0180785
801.942	0.0180644
802.020	0.0181111
802.098	0.0180725
802.176	0.0180722
802.254	0.0180727
802.332	0.0179722
802.410	0.0180542
802.488	0.0179273
802.567	0.0180295
802.645	0.0178993
802.723	0.0177892
802.801	0.0179604
802.879	0.0180399
802.957	0.0179095
803.035	0.0178223
803.113	0.0180499
803.192	0.0179438
803.270	0.0178741
803.348	0.0180005
803.426	0.0177141
803.504	0.0177366
803.582	0.0176401
803.660	0.0175939
803.738	0.0173940
803.817	0.0173526
803.895	0.0173644
803.973	0.0170985
804.051	0.0170528
804.129	0.0170963
804.207	0.0169023
804.285	0.0166931
804.363	0.0165124
804.442	0.0164819
804.520	0.0164989
804.598	0.0164185
804.676	0.0164600
804.754	0.0162966
804.832	0.0163216
804.910	0.0163349
804.988	0.0164954
805.067	0.0164927
805.145	0.0165218
805.223	0.0167636
805.301	0.0167663
805.379	0.0168686
805.457	0.0170332
805.535	0.0171540
805.613	0.0172630
805.692	0.0172278
805.770	0.0175489
805.848	0.0177372
805.926	0.0177946
806.004	0.0179529
806.082	0.0180424
806.160	0.0178808
806.238	0.0180904
806.317	0.0182735
806.395	0.0183006
806.473	0.0182967
806.551	0.0181332
806.629	0.0182517
806.707	0.0182681
806.785	0.0180936
806.863	0.0181929
806.942	0.0181854
807.020	0.0181853
807.098	0.0180193
807.176	0.0180478
807.254	0.0180486
807.332	0.0180214
807.410	0.0180176
807.488	0.0179782
807.567	0.0178945
807.645	0.0178751
807.723	0.0178501
807.801	0.0180271
807.879	0.0181517
807.957	0.0180875
808.035	0.0180273
808.113	0.0182810
808.192	0.0183168
808.270	0.0182480
808.348	0.0180627
808.426	0.0182396
808.504	0.0184212
808.582	0.0183047
808.660	0.0183578
808.738	0.0184260
808.817	0.0185583
808.895	0.0186405
808.973	0.0184100
809.051	0.0185892
809.129	0.0186118
809.207	0.0185703
809.285	0.0185890
809.363	0.0184541
809.442	0.0186099
809.520	0.0186463
809.598	0.0184216
809.676	0.0185314
809.754	0.0184017
809.832	0.0182968
809.910	0.0183216
809.988	0.0182681
810.067	0.0182723
810.145	0.0181866
810.223	0.0181805
810.301	0.0180255
810.379	0.0180598
810.457	0.0179831
810.535	0.0180001
810.613	0.0180072
810.692	0.0177422
810.770	0.0178761
810.848	0.0178334
810.926	0.0177911
811.004	0.0178339
811.082	0.0176918
811.160	0.0174329
811.238	0.0175503
811.317	0.0174490
811.395	0.0173519
811.473	0.0173039
811.551	0.0171621
811.629	0.0170770
811.707	0.0168877
811.785	0.0167900
811.863	0.0165018
811.942	0.0165492
812.020	0.0165619
812.098	0.0164877
812.176	0.0163239
812.254	0.0161146
812.332	0.0161612
812.410	0.0161292
812.488	0.0162162
812.567	0.0162386
812.645	0.0161591
812.723	0.0161320
812.801	0.0160574
812.879	0.0164642
812.957	0.0164806
813.035	0.0166708
813.113	0.0168147
813.192	0.0168199
813.270	0.0168885
813.348	0.0171300
813.426	0.0173470
813.504	0.0174175
813.582	0.0177602
813.660	0.0176995
813.738	0.0178431
813.817	0.0179292
813.895	0.0179749
813.973	0.0180495
814.051	0.0182397
814.129	0.0182632
814.207	0.0183223
814.285	0.0183971
814.363	0.0184572
814.442	0.0184228
814.520	0.0184780
814.598	0.0184014
814.676	0.0183772
814.754	0.0184583
814.832	0.0185393
814.910	0.0184428
814.988	0.0185036
815.067	0.0184814
815.145	0.0184137
815.223	0.0185577
815.301	0.0184608
815.379	0.0185093
815.457	0.0185046
815.535	0.0183622
815.613	0.0182934
815.692	0.0183697
815.770	0.0183700
815.848	0.0182967
815.926	0.0183704
816.004	0.0183205
816.082	0.0183563
816.160	0.0185147
816.238	0.0182288
816.317	0.0183141
816.395	0.0183569
816.473	0.0184649
816.551	0.0184425
816.629	0.0184442
816.707	0.0184621
816.785	0.0184742
816.863	0.0183282
816.942	0.0182668
817.020	0.0184557
817.098	0.0185013
817.176	0.0183372
817.254	0.0182075
817.332	0.0181291
817.410	0.0182112
817.488	0.0180552
817.567	0.0181275
817.645	0.0180064
817.723	0.0179868
817.801	0.0178020
817.879	0.0178226
817.957	0.0178031
818.035	0.0176627
818.113	0.0176899
818.192	0.0176189
818.270	0.0175848
818.348	0.0175075
818.426	0.0174117
818.504	0.0175227
818.582	0.0175100
818.660	0.0172359
818.738	0.0173122
818.817	0.0172211
818.895	0.0171397
818.973	0.0170599
819.051	0.0170329
819.129	0.0168952
819.207	0.0170782
819.285	0.0168066
819.363	0.0167046
819.442	0.0168180
819.520	0.0169847
819.598	0.0167866
819.676	0.0167316
819.754	0.0168858
819.832	0.0168677
819.910	0.0168689
819.988	0.0169054
820.067	0.0168927
820.145	0.0167905
820.223	0.0167844
820.301	0.0170081
820.379	0.0169188
820.457	0.0170627
820.535	0.0171425
820.613	0.0171074
820.692	0.0171602
820.770	0.0172721
820.848	0.0174333
820.926	0.0175420
821.004	0.0175651
821.082	0.0176391
821.160	0.0176882
821.238	0.0177871
821.317	0.0177569
821.395	0.0179135
821.473	0.0179205
821.551	0.0179491
821.629	0.0179572
821.707	0.0179771
821.785	0.0180700
821.863	0.0181335
821.942	0.0182158
822.020	0.0181942
822.098	0.0181922
822.176	0.0181739
822.254	0.0181811
822.332	0.0181749
822.410	0.0181824
822.488	0.0179659
822.567	0.0182253
822.645	0.0182211
822.723	0.0181704
822.801	0.0180814
822.879	0.0181748
822.957	0.0181599
823.035	0.0183938
823.113	0.0182092
823.192	0.0183608
823.270	0.0184276
823.348	0.0183907
823.426	0.0182809
823.504	0.0183547
823.582	0.0184180
823.660	0.0183160
823.738	0.0183787
823.817	0.0182957
823.895	0.0180105
823.973	0.0181432
824.051	0.0183813
824.129	0.0181574
824.207	0.0180043
824.285	0.0180669
824.363	0.0180028
824.442	0.0180817
824.520	0.0180779
824.598	0.0180090
824.676	0.0180524
824.754	0.0181109
824.832	0.0181229
824.910	0.0181100
824.988	0.0181185
825.067	0.0179311
825.145	0.0179726
825.223	0.0180294
825.301	0.0180312
825.379	0.0179253
825.457	0.0179416
825.535	0.0179988
825.613	0.0179352
825.692	0.0179230
825.770	0.0178743
825.848	0.0178217
825.926	0.0177341
826.004	0.0177119
826.082	0.0176666
826.160	0.0176363
826.238	0.0174194
826.317	0.0175124
826.395	0.0174369
826.473	0.0174300
826.551	0.0172826
826.629	0.0174325
826.707	0.0172742
826.785	0.0171498
826.863	0.0171410
826.942	0.0170503
827.020	0.0171063
827.098	0.0170209
827.176	0.0170534
827.254	0.0169503
827.332	0.0170055
827.410	0.0168320
827.488	0.0168948
827.567	0.0171207
827.645	0.0168624
827.723	0.0169655
827.801	0.0168825
827.879	0.0168605
827.957	0.0168913
828.035	0.0169451
828.113	0.0169003
828.192	0.0170662
828.270	0.0170877
828.348	0.0172011
828.426	0.0172276
828.504	0.0172631
828.582	0.0174606
828.660	0.0173824
828.738	0.0175736
828.817	0.0176152
828.895	0.0176968
828.973	0.0176937
829.051	0.0177792
829.129	0.0176938
829.207	0.0177088
829.285	0.0177843
829.363	0.0178592
829.442	0.0178039
829.520	0.0178565
829.598	0.0177161
829.676	0.0179242
829.754	0.0179284
829.832	0.0178970
829.910	0.0177801
829.988	0.0178075
830.067	0.0178925
830.145	0.0179757
830.223	0.0179330
830.301	0.0179259
830.379	0.0180837
830.457	0.0180602
830.535	0.0182149
830.613	0.0182483
830.692	0.0183170
830.770	0.0184287
830.848	0.0184602
830.926	0.0185513
831.004	0.0184646
831.082	0.0184713
831.160	0.0185151
831.238	0.0184614
831.317	0.0185939
831.395	0.0184445
831.473	0.0184538
831.551	0.0183936
831.629	0.0183529
831.707	0.0181925
831.785	0.0182224
831.863	0.0181830
831.942	0.0182173
832.020	0.0181481
832.098	0.0179777
832.176	0.0179024
832.254	0.0179884
832.332	0.0179485
832.410	0.0179067
832.488	0.0179050
832.567	0.0179544
832.645	0.0179227
832.723	0.0179268
832.801	0.0177944
832.879	0.0180315
832.957	0.0180272
833.035	0.0178728
833.113	0.0177997
833.192	0.0178312
833.270	0.0178035
833.348	0.0178265
833.426	0.0177319
833.504	0.0175008
833.582	0.0175932
833.660	0.0176398
833.738	0.0175896
833.817	0.0175905
833.895	0.0174706
833.973	0.0172994
834.051	0.0174554
834.129	0.0173477
834.207	0.0173895
834.285	0.0172071
834.363	0.0173605
834.442	0.0173360
834.520	0.0172762
834.598	0.0173065
834.676	0.0172403
834.754	0.0171346
834.832	0.0172235
834.910	0.0172456
834.988	0.0171991
835.067	0.0171623
835.145	0.0170920
835.223	0.0171604
835.301	0.0171618
835.379	0.0171215
835.457	0.0173796
835.535	0.0171398
835.613	0.0173039
835.692	0.0172997
835.770	0.0173705
835.848	0.0174571
835.926	0.0175935
836.004	0.0176307
836.082	0.0176849
836.160	0.0177732
836.238	0.0176494
836.317	0.0177620
836.395	0.0178778
836.473	0.0178447
836.551	0.0180708
836.629	0.0179089
836.707	0.0179292
836.785	0.0180257
836.863	0.0180102
836.942	0.0178902
837.020	0.0179791
837.098	0.0179516
837.176	0.0180052
837.254	0.0180487
837.332	0.0179358
837.410	0.0179170
837.488	0.0178763
837.567	0.0178584
837.645	0.0178093
837.723	0.0179044
837.801	0.0177197
837.879	0.0177101
837.957	0.0176177
838.035	0.0176756
838.113	0.0177737
838.192	0.0179676
838.270	0.0178416
838.348	0.0177972
838.426	0.0178687
838.504	0.0179478
838.582	0.0178997
838.660	0.0180558
838.738	0.0180389
838.817	0.0180418
838.895	0.0180181
838.973	0.0181891
839.051	0.0180592
839.129	0.0182092
839.207	0.0182632
839.285	0.0180901
839.363	0.0180681
839.442	0.0182615
839.520	0.0180711
839.598	0.0181402
839.676	0.0182294
839.754	0.0181038
839.832	0.0180507
839.910	0.0181614
839.988	0.0181870
840.067	0.0181467
840.145	0.0179517
840.223	0.0178823
840.301	0.0180128
840.379	0.0178802
840.457	0.0179920
840.535	0.0179259
840.613	0.0179478
840.692	0.0179707
840.770	0.0179569
840.848	0.0179329
840.926	0.0179311
841.004	0.0178830
841.082	0.0179044
841.160	0.0179005
841.238	0.0177434
841.317	0.0176751
841.395	0.0177933
841.473	0.0178172
841.551	0.0176871
841.629	0.0175763
841.707	0.0176535
841.785	0.0176637
841.863	0.0176416
841.942	0.0174869
842.020	0.0175233
842.098	0.0173983
842.176	0.0174760
842.254	0.0173103
842.332	0.0173654
842.410	0.0174405
842.488	0.0171461
842.567	0.0172928
842.645	0.0172754
842.723	0.0171530
842.801	0.0171922
842.879	0.0170881
842.957	0.0170316
843.035	0.0169096
843.113	0.0170120
843.192	0.0170696
843.270	0.0170778
843.348	0.0171214
843.426	0.0171709
843.504	0.0172862
843.582	0.0173840
843.660	0.0173267
843.738	0.0173840
843.817	0.0175568
843.895	0.0176999
843.973	0.0177975
844.051	0.0177991
844.129	0.0178699
844.207	0.0179758
844.285	0.0179881
844.363	0.0181053
844.442	0.0179906
844.520	0.0181720
844.598	0.0181519
844.676	0.0180479
844.754	0.0181937
844.832	0.0181015
844.910	0.0181924
844.988	0.0180874
845.067	0.0179192
845.145	0.0180541
845.223	0.0180226
845.301	0.0178051
845.379	0.0178926
845.457	0.0178699
845.535	0.0179287
845.613	0.0177271
845.692	0.0178201
845.770	0.0178364
845.848	0.0177027
845.926	0.0177581
846.004	0.0177320
846.082	0.0177032
846.160	0.0178698
846.238	0.0177820
846.317	0.0178060
846.395	0.0179077
846.473	0.0177316
846.551	0.0179240
846.629	0.0178234
846.707	0.0179932
846.785	0.0179619
846.863	0.0178919
846.942	0.0180083
847.020	0.0179678
847.098	0.0179154
847.176	0.0180882
847.254	0.0179736
847.332	0.0180447
847.410	0.0182178
847.488	0.0180206
847.567	0.0179374
847.645	0.0179438
847.723	0.0179623
847.801	0.0179193
847.879	0.0181089
847.957	0.0178092
848.035	0.0179703
848.113	0.0179671
848.192	0.0177274
848.270	0.0177308
848.348	0.0177551
848.426	0.0178419
848.504	0.0177584
848.582	0.0176362
848.660	0.0177144
848.738	0.0176338
848.817	0.0176111
848.895	0.0175717
848.973	0.0175076
849.051	0.0175824
849.129	0.0175698
849.207	0.0175495
849.285	0.0175167
849.363	0.0177063
849.442	0.0176705
849.520	0.0175485
849.598	0.0176079
849.676	0.0176306
849.754	0.0175119
849.832	0.0175638
849.910	0.0174219
849.988	0.0176144
850.067	0.0176193
850.145	0.0174651
850.223	0.0174393
850.301	0.0173843
850.379	0.0172893
850.457	0.0172986
850.535	0.0172485
850.613	0.0171887
850.692	0.0171278
850.770	0.0172463
850.848	0.0172028
850.926	0.0173259
851.004	0.0172729
851.082	0.0172428
851.160	0.0173342
851.238	0.0174938
851.317	0.0173962
851.395	0.0174420
851.473	0.0175139
851.551	0.0175796
851.629	0.0176540
851.707	0.0177300
851.785	0.0176823
851.863	0.0177472
851.942	0.0177591
852.020	0.0179529
852.098	0.0180099
852.176	0.0180766
852.254	0.0178296
852.332	0.0180418
852.410	0.0181589
852.488	0.0181606
852.567	0.0180564
852.645	0.0181295
852.723	0.0179609
852.801	0.0180260
852.879	0.0179526
852.957	0.0179211
853.035	0.0178588
853.113	0.0179893
853.192	0.0179773
853.270	0.0178229
853.348	0.0177182
853.426	0.0176458
853.504	0.0176298
853.582	0.0176926
853.660	0.0175600
853.738	0.0175801
853.817	0.0175409
853.895	0.0173493
853.973	0.0175002
854.051	0.0175262
854.129	0.0174763
854.207	0.0175166
854.285	0.0175207
854.363	0.0175014
854.442	0.0174506
854.520	0.0177654
854.598	0.0174850
854.676	0.0176059
854.754	0.0177020
854.832	0.0177391
854.910	0.0178160
854.988	0.0178787
855.067	0.0178265
855.145	0.0179359
855.223	0.0178973
855.301	0.0178789
855.379	0.0178859
855.457	0.0179047
855.535	0.0178158
855.613	0.0177743
855.692	0.0178603
855.770	0.0178452
855.848	0.0178445
855.926	0.0178397
856.004	0.0177193
856.082	0.0177699
856.160	0.0177046
856.238	0.0176662
856.317	0.0175895
856.395	0.0177486
856.473	0.0177252
856.551	0.0176844
856.629	0.0176700
856.707	0.0177648
856.785	0.0176515
856.863	0.0177275
856.942	0.0176007
857.020	0.0175643
857.098	0.0178375
857.176	0.0178130
857.254	0.0178087
857.332	0.0177613
857.410	0.0178310
857.488	0.0177039
857.567	0.0178141
857.645	0.0177583
857.723	0.0177557
857.801	0.0177837
857.879	0.0177053
857.957	0.0176236
858.035	0.0174763
858.113	0.0173915
858.192	0.0173598
858.270	0.0173820
858.348	0.0172456
858.426	0.0174596
858.504	0.0172616
858.582	0.0172774
858.660	0.0172269
858.738	0.0172688
858.817	0.0173067
858.895	0.0173146
858.973	0.0173367
859.051	0.0173175
859.129	0.0175546
859.207	0.0173659
859.285	0.0175180
859.363	0.0173305
859.442	0.0175272
859.520	0.0175850
859.598	0.0175625
859.676	0.0176185
859.754	0.0178143
859.832	0.0177883
859.910	0.0179760
859.988	0.0179780
860.067	0.0179670
860.145	0.0179165
860.223	0.0180385
860.301	0.0181163
860.379	0.0180878
860.457	0.0181268
860.535	0.0179795
860.613	0.0179916
860.692	0.0180134
860.770	0.0179646
860.848	0.0180864
860.926	0.0179021
861.004	0.0178773
861.082	0.0178554
861.160	0.0177156
861.238	0.0176624
861.317	0.0176402
861.395	0.0175426
861.473	0.0175884
861.551	0.0175475
861.629	0.0175032
861.707	0.0175687
861.785	0.0174860
861.863	0.0175922
861.942	0.0175164
862.020	0.0174740
862.098	0.0176206
862.176	0.0174643
862.254	0.0176496
862.332	0.0175948
862.410	0.0176033
862.488	0.0176946
862.567	0.0178990
862.645	0.0178194
862.723	0.0177014
862.801	0.0177882
862.879	0.0178832
862.957	0.0177569
863.035	0.0178812
863.113	0.0179043
863.192	0.0179030
863.270	0.0179470
863.348	0.0179359
863.426	0.0179469
863.504	0.0178702
863.582	0.0179116
863.660	0.0180018
863.738	0.0179877
863.817	0.0178257
863.895	0.0180385
863.973	0.0179356
864.051	0.0179328
864.129	0.0178937
864.207	0.0179430
864.285	0.0179185
864.363	0.0179469
864.442	0.0178468
864.520	0.0178331
864.598	0.0179546
864.676	0.0179613
864.754	0.0178053
864.832	0.0178849
864.910	0.0178386
864.988	0.0178341
865.067	0.0178461
865.145	0.0179368
865.223	0.0180067
865.301	0.0178520
865.379	0.0178780
865.457	0.0179122
865.535	0.0177669
865.613	0.0177408
865.692	0.0176260
865.770	0.0177499
865.848	0.0175895
865.926	0.0177420
866.004	0.0176151
866.082	0.0175577
866.160	0.0174780
866.238	0.0175889
866.317	0.0177540
866.395	0.0174932
866.473	0.0175086
866.551	0.0174143
866.629	0.0174284
866.707	0.0176610
866.785	0.0176218
866.863	0.0174639
866.942	0.0177030
867.020	0.0175842
867.098	0.0176830
867.176	0.0176688
867.254	0.0176619
867.332	0.0177370
867.410	0.0178082
867.488	0.0177236
867.567	0.0178932
867.645	0.0179049
867.723	0.0177243
867.801	0.0178539
867.879	0.0180308
867.957	0.0179469
868.035	0.0180144
868.113	0.0180399
868.192	0.0181676
868.270	0.0180309
868.348	0.0181505
868.426	0.0181330
868.504	0.0179676
868.582	0.0180281
868.660	0.0180199
868.738	0.0179156
868.817	0.0179773
868.895	0.0178246
868.973	0.0177556
869.051	0.0177489
869.129	0.0177555
869.207	0.0175997
869.285	0.0175032
869.363	0.0175533
869.442	0.0175356
869.520	0.0174513
869.598	0.0174852
869.676	0.0175977
869.754	0.0175193
869.832	0.0174400
869.910	0.0174306
869.988	0.0172294
870.067	0.0174923
870.145	0.0175314
870.223	0.0174174
870.301	0.0175311
870.379	0.0175951
870.457	0.0176016
870.535	0.0174108
870.613	0.0175223
870.692	0.0175164
870.770	0.0176260
870.848	0.0175631
870.926	0.0176103
871.004	0.0175615
871.082	0.0175719
871.160	0.0176811
871.238	0.0177615
871.317	0.0176798
871.395	0.0177592
871.473	0.0178139
871.551	0.0177615
871.629	0.0177798
871.707	0.0179121
871.785	0.0179046
871.863	0.0177949
871.942	0.0178101
872.020	0.0177267
872.098	0.0178979
872.176	0.0178790
872.254	0.0178926
872.332	0.0179114
872.410	0.0179025
872.488	0.0179554
872.567	0.0179874
872.645	0.0177757
872.723	0.0178539
872.801	0.0178484
872.879	0.0179490
872.957	0.0179992
873.035	0.0177825
873.113	0.0178367
873.192	0.0178582
873.270	0.0178761
873.348	0.0177094
873.426	0.0175465
873.504	0.0176727
873.582	0.0177023
873.660	0.0175748
873.738	0.0175772
873.817	0.0175799
873.895	0.0175759
873.973	0.0175879
874.051	0.0175378
874.129	0.0174754
874.207	0.0174754
874.285	0.0174831
874.363	0.0175924
874.442	0.0175581
874.520	0.0174448
874.598	0.0175130
874.676	0.0174345
874.754	0.0175383
874.832	0.0176196
874.910	0.0176040
874.988	0.0175117
875.067	0.0175371
875.145	0.0175586
875.223	0.0176711
875.301	0.0176050
875.379	0.0176631
875.457	0.0176133
875.535	0.0177233
875.613	0.0178742
875.692	0.0177737
875.770	0.0178616
875.848	0.0178181
875.926	0.0178597
876.004	0.0178755
876.082	0.0179618
876.160	0.0178975
876.238	0.0178990
876.317	0.0179842
876.395	0.0180497
876.473	0.0178390
876.551	0.0180100
876.629	0.0177592
876.707	0.0178773
876.785	0.0179099
876.863	0.0176550
876.942	0.0176121
877.020	0.0176701
877.098	0.0177409
877.176	0.0175482
877.254	0.0174898
877.332	0.0174816
877.410	0.0175705
877.488	0.0174889
877.567	0.0172626
877.645	0.0173265
877.723	0.0173067
877.801	0.0171720
877.879	0.0174502
877.957	0.0173276
878.035	0.0173010
878.113	0.0172854
878.192	0.0173312
878.270	0.0174843
878.348	0.0174696
878.426	0.0173087
878.504	0.0174318
878.582	0.0173969
878.660	0.0173999
878.738	0.0176579
878.817	0.0175388
878.895	0.0176138
878.973	0.0175932
879.051	0.0176217
879.129	0.0176272
879.207	0.0176523
879.285	0.0175965
879.363	0.0177656
879.442	0.0178542
879.520	0.0177748
879.598	0.0178659
879.676	0.0178506
879.754	0.0179255
879.832	0.0179801
879.910	0.0179543
879.988	0.0180725
880.067	0.0180044
880.145	0.0179536
880.223	0.0179135
880.301	0.0179074
880.379	0.0180325
880.457	0.0179465
880.535	0.0181684
880.613	0.0180066
880.692	0.0179521
880.770	0.0178222
880.848	0.0177400
880.926	0.0177887
881.004	0.0177716
881.082	0.0177776
881.160	0.0176624
881.238	0.0177148
881.317	0.0176144
881.395	0.0174763
881.473	0.0176044
881.551	0.0176205
881.629	0.0176805
881.707	0.0176001
881.785	0.0176802
881.863	0.0176038
881.942	0.0175519
882.020	0.0176185
882.098	0.0174986
882.176	0.0176129
882.254	0.0176083
882.332	0.0176751
882.410	0.0177112
882.488	0.0177839
882.567	0.0178137
882.645	0.0179156
882.723	0.0177677
882.801	0.0178019
882.879	0.0177696
882.957	0.0178768
883.035	0.0178497
883.113	0.0178226
883.192	0.0179234
883.270	0.0179019
883.348	0.0179183
883.426	0.0180140
883.504	0.0179274
883.582	0.0178777
883.660	0.0178395
883.738	0.0178948
883.817	0.0178296
883.895	0.0177572
883.973	0.0177362
884.051	0.0177876
884.129	0.0177859
884.207	0.0176583
884.285	0.0177029
884.363	0.0176298
884.442	0.0177660
884.520	0.0176203
884.598	0.0175052
884.676	0.0176735
884.754	0.0175294
884.832	0.0175332
884.910	0.0176911
884.988	0.0174999
885.067	0.0175098
885.145	0.0174555
885.223	0.0173631
885.301	0.0171741
885.379	0.0173803
885.457	0.0173479
885.535	0.0174165
885.613	0.0173144
885.692	0.0173086
885.770	0.0174088
885.848	0.0172456
885.926	0.0172762
886.004	0.0174844
886.082	0.0174870
886.160	0.0174093
886.238	0.0175353
886.317	0.0177498
886.395	0.0177435
886.473	0.0175803
886.551	0.0178027
886.629	0.0177525
886.707	0.0177383
886.785	0.0178209
886.863	0.0177611
886.942	0.0179043
887.020	0.0179984
887.098	0.0179036
887.176	0.0180045
887.254	0.0179994
887.332	0.0179536
887.410	0.0179788
887.488	0.0180466
887.567	0.0179806
887.645	0.0178063
887.723	0.0180229
887.801	0.0180487
887.879	0.0178856
887.957	0.0178504
888.035	0.0177988
888.113	0.0177574
888.192	0.0178764
888.270	0.0176683
888.348	0.0177596
888.426	0.0176971
888.504	0.0177051
888.582	0.0177277
888.660	0.0176575
888.738	0.0177554
888.817	0.0176786
888.895	0.0177676
888.973	0.0177608
889.051	0.0178029
889.129	0.0178036
889.207	0.0178389
889.285	0.0179274
889.363	0.0179100
889.442	0.0178432
889.520	0.0178870
889.598	0.0177913
889.676	0.0179772
889.754	0.0179606
889.832	0.0178767
889.910	0.0180779
889.988	0.0179726
890.067	0.0178406
890.145	0.0177118
890.223	0.0178234
890.301	0.0178738
890.379	0.0177512
890.457	0.0177564
890.535	0.0178999
890.613	0.0178029
890.692	0.0179046
890.770	0.0179411
890.848	0.0178065
890.926	0.0178329
891.004	0.0178874
891.082	0.0178880
891.160	0.0177942
891.238	0.0179016
891.317	0.0177231
891.395	0.0177641
891.473	0.0179156
891.551	0.0178917
891.629	0.0178482
891.707	0.0177625
891.785	0.0176894
891.863	0.0176335
891.942	0.0177122
892.020	0.0177582
892.098	0.0177231
892.176	0.0176067
892.254	0.0175420
892.332	0.0177030
892.410	0.0176138
892.488	0.0176227
892.567	0.0175076
892.645	0.0175446
892.723	0.0175715
892.801	0.0175574
892.879	0.0174928
892.957	0.0175199
893.035	0.0174459
893.113	0.0174623
893.192	0.0174420
893.270	0.0173468
893.348	0.0172985
893.426	0.0173360
893.504	0.0172173
893.582	0.0172839
893.660	0.0173756
893.738	0.0174633
893.817	0.0174099
893.895	0.0174993
893.973	0.0174164
894.051	0.0173892
894.129	0.0174998
894.207	0.0175826
894.285	0.0176278
894.363	0.0176938
894.442	0.0175989
894.520	0.0177787
894.598	0.0177995
894.676	0.0178308
894.754	0.0179501
894.832	0.0180207
894.910	0.0179710
894.988	0.0178133
895.067	0.0177507
895.145	0.0180541
895.223	0.0179510
895.301	0.0179305
895.379	0.0178806
895.457	0.0179190
895.535	0.0180488
895.613	0.0178534
895.692	0.0178992
895.770	0.0178456
895.848	0.0178101
895.926	0.0177750
896.004	0.0177776
896.082	0.0177760
896.160	0.0178463
896.238	0.0177792
896.317	0.0177352
896.395	0.0177621
896.473	0.0175818
896.551	0.0175973
896.629	0.0175987
896.707	0.0175511
896.785	0.0175684
896.863	0.0176073
896.942	0.0176907
897.020	0.0175909
897.098	0.0177849
897.176	0.0176825
897.254	0.0177081
897.332	0.0177185
897.410	0.0178528
897.488	0.0178571
897.567	0.0178391
897.645	0.0177415
897.723	0.0177470
897.801	0.0180145
897.879	0.0179774
897.957	0.0179489
898.035	0.0180545
898.113	0.0177096
898.192	0.0179135
898.270	0.0179501
898.348	0.0178529
898.426	0.0178006
898.504	0.0179034
898.582	0.0176852
898.660	0.0177918
898.738	0.0178724
898.817	0.0178327
898.895	0.0178004
898.973	0.0178093
899.051	0.0179171
899.129	0.0178382
899.207	0.0177448
899.285	0.0177679
899.363	0.0178783
899.442	0.0176936
899.520	0.0176649
899.598	0.0177126
899.676	0.0176188
899.754	0.0175290
899.832	0.0176665
899.910	0.0176810
899.988	0.0176081
900.067	0.0176260
900.145	0.0176387
900.223	0.0177470
900.301	0.0175542
900.379	0.0175897
900.457	0.0176434
900.535	0.0173912
900.613	0.0175780
900.692	0.0175032
900.770	0.0174722
900.848	0.0174322
900.926	0.0174842
901.004	0.0174237
901.082	0.0173117
901.160	0.0172404
901.238	0.0174382
901.317	0.0175040
901.395	0.0174157
901.473	0.0175607
901.551	0.0174619
901.629	0.0176270
901.707	0.0174732
901.785	0.0174321
901.863	0.0175436
901.942	0.0175125
902.020	0.0175688
902.098	0.0176189
902.176	0.0176248
902.254	0.0177008
902.332	0.0176655
902.410	0.0176940
902.488	0.0177258
902.567	0.0177277
902.645	0.0176105
902.723	0.0177121
902.801	0.0178288
902.879	0.0178680
902.957	0.0179921
903.035	0.0179173
903.113	0.0179472
903.192	0.0177916
903.270	0.0180154
903.348	0.0179171
903.426	0.0179164
903.504	0.0180241
903.582	0.0178207
903.660	0.0179892
903.738	0.0179097
903.817	0.0178221
903.895	0.0178963
903.973	0.0177676
904.051	0.0178407
904.129	0.0178187
904.207	0.0177084
904.285	0.0177389
904.363	0.0177921
904.442	0.0177117
904.520	0.0177527
904.598	0.0177927
904.676	0.0176578
904.754	0.0178271
904.832	0.0176538
904.910	0.0177589
904.988	0.0177853
905.067	0.0178359
905.145	0.0178302
905.223	0.0178423
905.301	0.0177320
905.379	0.0178110
905.457	0.0177319
905.535	0.0179510
905.613	0.0179131
905.692	0.0178677
905.770	0.0179607
905.848	0.0178261
905.926	0.0179309
906.004	0.0179373
906.082	0.0178175
906.160	0.0179315
906.238	0.0178796
906.317	0.0180300
906.395	0.0180213
906.473	0.0178666
906.551	0.0179359
906.629	0.0179266
906.707	0.0181144
906.785	0.0179398
906.863	0.0178293
906.942	0.0179205
907.020	0.0178575
907.098	0.0179192
907.176	0.0178320
907.254	0.0178886
907.332	0.0178841
907.410	0.0176785
907.488	0.0175860
907.567	0.0175910
907.645	0.0176144
907.723	0.0175615
907.801	0.0176097
907.879	0.0173714
907.957	0.0174596
908.035	0.0174683
908.113	0.0173132
908.192	0.0174997
908.270	0.0173724
908.348	0.0174311
908.426	0.0175092
908.504	0.0174470
908.582	0.0175066
908.660	0.0174675
908.738	0.0175345
908.817	0.0175491
908.895	0.0175155
908.973	0.0174934
909.051	0.0174703
909.129	0.0175491
909.207	0.0176447
909.285	0.0176713
909.363	0.0176398
909.442	0.0177729
909.520	0.0176374
909.598	0.0177742
909.676	0.0176380
909.754	0.0176497
909.832	0.0177440
909.910	0.0178049
909.988	0.0176648
910.067	0.0177880
910.145	0.0177903
910.223	0.0177847
910.301	0.0178265
910.379	0.0176950
910.457	0.0177757
910.535	0.0179135
910.613	0.0178369
910.692	0.0178629
910.770	0.0178315
910.848	0.0178293
910.926	0.0178580
911.004	0.0179493
911.082	0.0178401
911.160	0.0179919
911.238	0.0180053
911.317	0.0179980
911.395	0.0180431
911.473	0.0180216
911.551	0.0179741
911.629	0.0182305
911.707	0.0180744
911.785	0.0179800
911.863	0.0181798
911.942	0.0180482
912.020	0.0179802
912.098	0.0179743
912.176	0.0179868
912.254	0.0178609
912.332	0.0178166
912.410	0.0178376
912.488	0.0179133
912.567	0.0178921
912.645	0.0178057
912.723	0.0177876
912.801	0.0177355
912.879	0.0178323
912.957	0.0178344
913.035	0.0177132
913.113	0.0176971
913.192	0.0177222
913.270	0.0177557
913.348	0.0177797
913.426	0.0178387
913.504	0.0177174
913.582	0.0176706
913.660	0.0177753
913.738	0.0176144
913.817	0.0177962
913.895	0.0177722
913.973	0.0176698
914.051	0.0176998
914.129	0.0175382
914.207	0.0176691
914.285	0.0177355
914.363	0.0176737
914.442	0.0177038
914.520	0.0176053
914.598	0.0176391
914.676	0.0176161
914.754	0.0176402
914.832	0.0175313
914.910	0.0175711
914.988	0.0175519
915.067	0.0175970
915.145	0.0177085
915.223	0.0177563
915.301	0.0177654
915.379	0.0175632
915.457	0.0176913
915.535	0.0176474
915.613	0.0176277
915.692	0.0176501
915.770	0.0175349
915.848	0.0175555
915.926	0.0176108
916.004	0.0178133
916.082	0.0176535
916.160	0.0175912
916.238	0.0175356
916.317	0.0175723
916.395	0.0176042
916.473	0.0175885
916.551	0.0175640
916.629	0.0175872
916.707	0.0175261
916.785	0.0177190
916.863	0.0175928
916.942	0.0176108
917.020	0.0175514
917.098	0.0176808
917.176	0.0176690
917.254	0.0176530
917.332	0.0176226
917.410	0.0176241
917.488	0.0175876
917.567	0.0177045
917.645	0.0176545
917.723	0.0177446
917.801	0.0178297
917.879	0.0177102
917.957	0.0176310
918.035	0.0175642
918.113	0.0175962
918.192	0.0174884
918.270	0.0177054
918.348	0.0175726
918.426	0.0175717
918.504	0.0177023
918.582	0.0176891
918.660	0.0175923
918.738	0.0175860
918.817	0.0177032
918.895	0.0177972
918.973	0.0177865
919.051	0.0176906
919.129	0.0176409
919.207	0.0175977
919.285	0.0177138
919.363	0.0177360
919.442	0.0177695
919.520	0.0177468
919.598	0.0177386
919.676	0.0177682
919.754	0.0177424
919.832	0.0177399
919.910	0.0176438
