06/01/2022	21:58:28	Ver.	4.1	UNKNOWN
Optical Delay	599.988409	Delta X		0.078125	Sweeps	1	Scan Rate	0/0
Coordinates	Axis 1	NaN	Axis 2	NaN	Axis 3	NaN	Axis 4	NaN	Axis 5	NaN	Axis 6	0.000000
TX Power	0.000000	RX Power	0.000000

599.988	0.0181078
600.067	0.0181307
600.145	0.0180274
600.223	0.0181529
600.301	0.0180965
600.379	0.0180642
600.457	0.0180708
600.535	0.0180850
600.613	0.0181023
600.692	0.0180885
600.770	0.0181393
600.848	0.0180543
600.926	0.0180522
601.004	0.0181326
601.082	0.0180538
601.160	0.0180971
601.238	0.0181956
601.317	0.0180331
601.395	0.0179973
601.473	0.0181792
601.551	0.0181181
601.629	0.0180193
601.707	0.0180534
601.785	0.0180279
601.863	0.0181055
601.942	0.0180115
602.020	0.0179947
602.098	0.0181649
602.176	0.0181712
602.254	0.0180897
602.332	0.0180302
602.410	0.0181696
602.488	0.0181453
602.567	0.0181266
602.645	0.0181439
602.723	0.0181616
602.801	0.0180775
602.879	0.0180904
602.957	0.0180880
603.035	0.0180982
603.113	0.0180540
603.192	0.0179760
603.270	0.0180792
603.348	0.0181651
603.426	0.0180669
603.504	0.0182204
603.582	0.0182424
603.660	0.0182133
603.738	0.0180416
603.817	0.0181213
603.895	0.0181287
603.973	0.0181772
604.051	0.0180978
604.129	0.0181654
604.207	0.0181059
604.285	0.0181129
604.363	0.0182323
604.442	0.0180118
604.520	0.0180441
604.598	0.0180343
604.676	0.0180650
604.754	0.0181281
604.832	0.0181863
604.910	0.0181361
604.988	0.0181625
605.067	0.0181620
605.145	0.0180469
605.223	0.0180759
605.301	0.0180893
605.379	0.0180663
605.457	0.0181161
605.535	0.0179536
605.613	0.0180658
605.692	0.0180922
605.770	0.0180726
605.848	0.0180834
605.926	0.0179932
606.004	0.0181200
606.082	0.0181757
606.160	0.0181596
606.238	0.0180367
606.317	0.0181381
606.395	0.0181236
606.473	0.0180296
606.551	0.0181096
606.629	0.0181026
606.707	0.0179685
606.785	0.0181763
606.863	0.0181557
606.942	0.0181886
607.020	0.0181269
607.098	0.0182254
607.176	0.0180756
607.254	0.0180811
607.332	0.0180280
607.410	0.0180970
607.488	0.0181440
607.567	0.0181757
607.645	0.0179915
607.723	0.0180080
607.801	0.0180278
607.879	0.0181575
607.957	0.0182307
608.035	0.0182153
608.113	0.0181353
608.192	0.0179384
608.270	0.0180834
608.348	0.0182254
608.426	0.0182394
608.504	0.0180143
608.582	0.0181456
608.660	0.0182271
608.738	0.0181340
608.817	0.0181525
608.895	0.0182990
608.973	0.0181132
609.051	0.0181210
609.129	0.0180633
609.207	0.0180517
609.285	0.0182072
609.363	0.0181097
609.442	0.0181890
609.520	0.0180867
609.598	0.0180586
609.676	0.0182130
609.754	0.0181847
609.832	0.0182178
609.910	0.0180700
609.988	0.0180688
610.067	0.0181398
610.145	0.0181413
610.223	0.0181026
610.301	0.0181616
610.379	0.0181260
610.457	0.0179343
610.535	0.0180978
610.613	0.0181956
610.692	0.0181573
610.770	0.0181094
610.848	0.0180898
610.926	0.0180920
611.004	0.0182021
611.082	0.0180537
611.160	0.0180882
611.238	0.0180415
611.317	0.0182481
611.395	0.0180962
611.473	0.0180292
611.551	0.0181655
611.629	0.0181324
611.707	0.0180448
611.785	0.0181494
611.863	0.0181547
611.942	0.0181729
612.020	0.0182201
612.098	0.0181750
612.176	0.0181066
612.254	0.0181657
612.332	0.0180003
612.410	0.0181774
612.488	0.0179101
612.567	0.0181132
612.645	0.0180901
612.723	0.0181397
612.801	0.0180403
612.879	0.0180565
612.957	0.0180454
613.035	0.0181428
613.113	0.0181111
613.192	0.0181587
613.270	0.0180827
613.348	0.0180470
613.426	0.0181569
613.504	0.0180107
613.582	0.0180877
613.660	0.0182871
613.738	0.0180764
613.817	0.0180679
613.895	0.0181312
613.973	0.0180260
614.051	0.0180894
614.129	0.0180740
614.207	0.0180280
614.285	0.0180199
614.363	0.0179655
614.442	0.0179996
614.520	0.0181938
614.598	0.0181550
614.676	0.0182188
614.754	0.0180631
614.832	0.0180923
614.910	0.0180719
614.988	0.0181925
615.067	0.0181301
615.145	0.0181167
615.223	0.0180163
615.301	0.0181365
615.379	0.0182017
615.457	0.0180404
615.535	0.0181539
615.613	0.0182700
615.692	0.0180900
615.770	0.0181583
615.848	0.0180466
615.926	0.0181284
616.004	0.0181113
616.082	0.0181007
616.160	0.0180901
616.238	0.0180146
616.317	0.0181182
616.395	0.0181277
616.473	0.0179742
616.551	0.0181734
616.629	0.0180983
616.707	0.0180122
616.785	0.0181029
616.863	0.0183379
616.942	0.0181914
617.020	0.0180135
617.098	0.0181098
617.176	0.0181231
617.254	0.0180985
617.332	0.0181146
617.410	0.0180789
617.488	0.0180240
617.567	0.0182202
617.645	0.0181195
617.723	0.0180145
617.801	0.0180224
617.879	0.0180358
617.957	0.0180490
618.035	0.0180816
618.113	0.0179790
618.192	0.0179672
618.270	0.0180848
618.348	0.0181074
618.426	0.0180431
618.504	0.0179987
618.582	0.0180198
618.660	0.0180581
618.738	0.0181593
618.817	0.0181664
618.895	0.0181384
618.973	0.0181793
619.051	0.0180573
619.129	0.0180498
619.207	0.0182021
619.285	0.0182342
619.363	0.0182373
619.442	0.0181020
619.520	0.0182291
619.598	0.0181625
619.676	0.0181396
619.754	0.0181509
619.832	0.0181088
619.910	0.0180882
619.988	0.0180766
620.067	0.0182697
620.145	0.0182399
620.223	0.0180545
620.301	0.0181889
620.379	0.0181234
620.457	0.0179999
620.535	0.0181537
620.613	0.0181033
620.692	0.0181327
620.770	0.0180807
620.848	0.0181866
620.926	0.0182960
621.004	0.0180737
621.082	0.0180915
621.160	0.0182125
621.238	0.0182509
621.317	0.0182726
621.395	0.0181739
621.473	0.0181444
621.551	0.0180798
621.629	0.0181137
621.707	0.0181248
621.785	0.0180000
621.863	0.0180849
621.942	0.0181493
622.020	0.0181182
622.098	0.0181612
622.176	0.0180994
622.254	0.0180605
622.332	0.0180763
622.410	0.0181043
622.488	0.0180789
622.567	0.0180937
622.645	0.0181818
622.723	0.0181432
622.801	0.0181262
622.879	0.0181918
622.957	0.0182270
623.035	0.0182422
623.113	0.0181557
623.192	0.0181616
623.270	0.0182909
623.348	0.0182659
623.426	0.0180612
623.504	0.0182108
623.582	0.0182430
623.660	0.0181024
623.738	0.0181268
623.817	0.0181954
623.895	0.0181225
623.973	0.0181229
624.051	0.0181855
624.129	0.0181509
624.207	0.0181368
624.285	0.0181966
624.363	0.0182211
624.442	0.0182285
624.520	0.0181769
624.598	0.0182599
624.676	0.0182350
624.754	0.0181357
624.832	0.0181738
624.910	0.0182935
624.988	0.0183662
625.067	0.0183405
625.145	0.0182664
625.223	0.0181865
625.301	0.0181582
625.379	0.0182290
625.457	0.0181851
625.535	0.0182066
625.613	0.0181860
625.692	0.0182114
625.770	0.0182303
625.848	0.0180563
625.926	0.0180784
626.004	0.0181991
626.082	0.0181610
626.160	0.0181425
626.238	0.0180933
626.317	0.0182259
626.395	0.0182071
626.473	0.0183187
626.551	0.0181593
626.629	0.0182146
626.707	0.0182154
626.785	0.0182072
626.863	0.0181494
626.942	0.0183234
627.020	0.0183025
627.098	0.0181916
627.176	0.0181260
627.254	0.0182238
627.332	0.0182281
627.410	0.0181447
627.488	0.0182022
627.567	0.0182648
627.645	0.0180921
627.723	0.0181186
627.801	0.0180720
627.879	0.0180299
627.957	0.0181020
628.035	0.0181734
628.113	0.0181302
628.192	0.0182539
628.270	0.0181088
628.348	0.0180962
628.426	0.0182568
628.504	0.0183611
628.582	0.0181906
628.660	0.0181476
628.738	0.0182632
628.817	0.0181990
628.895	0.0181264
628.973	0.0181258
629.051	0.0182570
629.129	0.0179996
629.207	0.0180807
629.285	0.0181127
629.363	0.0181635
629.442	0.0181373
629.520	0.0181026
629.598	0.0181076
629.676	0.0180517
629.754	0.0182244
629.832	0.0181304
629.910	0.0181773
629.988	0.0180598
630.067	0.0181063
630.145	0.0181084
630.223	0.0182287
630.301	0.0181689
630.379	0.0181626
630.457	0.0182761
630.535	0.0181570
630.613	0.0180677
630.692	0.0181349
630.770	0.0182079
630.848	0.0181152
630.926	0.0181046
631.004	0.0179408
631.082	0.0180653
631.160	0.0179287
631.238	0.0179620
631.317	0.0180618
631.395	0.0180008
631.473	0.0179556
631.551	0.0181253
631.629	0.0180917
631.707	0.0182190
631.785	0.0181168
631.863	0.0181268
631.942	0.0180717
632.020	0.0181870
632.098	0.0182963
632.176	0.0180775
632.254	0.0181460
632.332	0.0180422
632.410	0.0181007
632.488	0.0181508
632.567	0.0180158
632.645	0.0182150
632.723	0.0180975
632.801	0.0179221
632.879	0.0180169
632.957	0.0179185
633.035	0.0178859
633.113	0.0179312
633.192	0.0180470
633.270	0.0179600
633.348	0.0179571
633.426	0.0178577
633.504	0.0179050
633.582	0.0178974
633.660	0.0181029
633.738	0.0181226
633.817	0.0179868
633.895	0.0180709
633.973	0.0179337
634.051	0.0180912
634.129	0.0180875
634.207	0.0179836
634.285	0.0181480
634.363	0.0182736
634.442	0.0181123
634.520	0.0179523
634.598	0.0180408
634.676	0.0180579
634.754	0.0180608
634.832	0.0180082
634.910	0.0178517
634.988	0.0179087
635.067	0.0180099
635.145	0.0180547
635.223	0.0179428
635.301	0.0179074
635.379	0.0179267
635.457	0.0179234
635.535	0.0179740
635.613	0.0181608
635.692	0.0180511
635.770	0.0182307
635.848	0.0180598
635.926	0.0182545
636.004	0.0181476
636.082	0.0182415
636.160	0.0181804
636.238	0.0180616
636.317	0.0180249
636.395	0.0182053
636.473	0.0182419
636.551	0.0181763
636.629	0.0180759
636.707	0.0181749
636.785	0.0180716
636.863	0.0181271
636.942	0.0180888
637.020	0.0181602
637.098	0.0181345
637.176	0.0181138
637.254	0.0178908
637.332	0.0179548
637.410	0.0181049
637.488	0.0180637
637.567	0.0180294
637.645	0.0181347
637.723	0.0182177
637.801	0.0180647
637.879	0.0181984
637.957	0.0182217
638.035	0.0182957
638.113	0.0182882
638.192	0.0183855
638.270	0.0183212
638.348	0.0182573
638.426	0.0182059
638.504	0.0181512
638.582	0.0181550
638.660	0.0180362
638.738	0.0181662
638.817	0.0180985
638.895	0.0180612
638.973	0.0180430
639.051	0.0179738
639.129	0.0180592
639.207	0.0181532
639.285	0.0182643
639.363	0.0183179
639.442	0.0181968
639.520	0.0181159
639.598	0.0181163
639.676	0.0181414
639.754	0.0181905
639.832	0.0182430
639.910	0.0183452
639.988	0.0181766
640.067	0.0181290
640.145	0.0181013
640.223	0.0182478
640.301	0.0183248
640.379	0.0183734
640.457	0.0180239
640.535	0.0181606
640.613	0.0182550
640.692	0.0181761
640.770	0.0181112
640.848	0.0182157
640.926	0.0182262
641.004	0.0180785
641.082	0.0181557
641.160	0.0182744
641.238	0.0182751
641.317	0.0182818
641.395	0.0180849
641.473	0.0180592
641.551	0.0182673
641.629	0.0183105
641.707	0.0181400
641.785	0.0182124
641.863	0.0182504
641.942	0.0182615
642.020	0.0182139
642.098	0.0181532
642.176	0.0181932
642.254	0.0183230
642.332	0.0181930
642.410	0.0179488
642.488	0.0181462
642.567	0.0182659
642.645	0.0181033
642.723	0.0181940
642.801	0.0182040
642.879	0.0181525
642.957	0.0182300
643.035	0.0182726
643.113	0.0181154
643.192	0.0181636
643.270	0.0182803
643.348	0.0181774
643.426	0.0181612
643.504	0.0182079
643.582	0.0182654
643.660	0.0182965
643.738	0.0181732
643.817	0.0183296
643.895	0.0182206
643.973	0.0182478
644.051	0.0181567
644.129	0.0182249
644.207	0.0182724
644.285	0.0180653
644.363	0.0181260
644.442	0.0181672
644.520	0.0181155
644.598	0.0179839
644.676	0.0179567
644.754	0.0181685
644.832	0.0181985
644.910	0.0182339
644.988	0.0181753
645.067	0.0181786
645.145	0.0181738
645.223	0.0181599
645.301	0.0181892
645.379	0.0183082
645.457	0.0183442
645.535	0.0181804
645.613	0.0181724
645.692	0.0181778
645.770	0.0182175
645.848	0.0182391
645.926	0.0181213
646.004	0.0180233
646.082	0.0181184
646.160	0.0182026
646.238	0.0181562
646.317	0.0181525
646.395	0.0180479
646.473	0.0182081
646.551	0.0181170
646.629	0.0180752
646.707	0.0179755
646.785	0.0182520
646.863	0.0179889
646.942	0.0180729
647.020	0.0181033
647.098	0.0181834
647.176	0.0182366
647.254	0.0180821
647.332	0.0181645
647.410	0.0181800
647.488	0.0181783
647.567	0.0181615
647.645	0.0181068
647.723	0.0180791
647.801	0.0182256
647.879	0.0181017
647.957	0.0180907
648.035	0.0181019
648.113	0.0180968
648.192	0.0181271
648.270	0.0180334
648.348	0.0180230
648.426	0.0179924
648.504	0.0181247
648.582	0.0181292
648.660	0.0180427
648.738	0.0181223
648.817	0.0180676
648.895	0.0180284
648.973	0.0181889
649.051	0.0181907
649.129	0.0181674
649.207	0.0181633
649.285	0.0182914
649.363	0.0184017
649.442	0.0182230
649.520	0.0183171
649.598	0.0182815
649.676	0.0181997
649.754	0.0180274
649.832	0.0181038
649.910	0.0180820
649.988	0.0180415
650.067	0.0179937
650.145	0.0180726
650.223	0.0181042
650.301	0.0179214
650.379	0.0180150
650.457	0.0179797
650.535	0.0180340
650.613	0.0181811
650.692	0.0180659
650.770	0.0181378
650.848	0.0181161
650.926	0.0181725
651.004	0.0182551
651.082	0.0181993
651.160	0.0182024
651.238	0.0182499
651.317	0.0181741
651.395	0.0182239
651.473	0.0183098
651.551	0.0183372
651.629	0.0183263
651.707	0.0182894
651.785	0.0182910
651.863	0.0181284
651.942	0.0181213
652.020	0.0182228
652.098	0.0181135
652.176	0.0182422
652.254	0.0180267
652.332	0.0181631
652.410	0.0180779
652.488	0.0179491
652.567	0.0180553
652.645	0.0179707
652.723	0.0180384
652.801	0.0180508
652.879	0.0180122
652.957	0.0180349
653.035	0.0180253
653.113	0.0179636
653.192	0.0180349
653.270	0.0180651
653.348	0.0179827
653.426	0.0179792
653.504	0.0181654
653.582	0.0181194
653.660	0.0180484
653.738	0.0179949
653.817	0.0180309
653.895	0.0180411
653.973	0.0180246
654.051	0.0179177
654.129	0.0181169
654.207	0.0180157
654.285	0.0181096
654.363	0.0181716
654.442	0.0180788
654.520	0.0180673
654.598	0.0180871
654.676	0.0182729
654.754	0.0181944
654.832	0.0180439
654.910	0.0183467
654.988	0.0182285
655.067	0.0179821
655.145	0.0180740
655.223	0.0179387
655.301	0.0180337
655.379	0.0180433
655.457	0.0179836
655.535	0.0180033
655.613	0.0181325
655.692	0.0180087
655.770	0.0180410
655.848	0.0179419
655.926	0.0180283
656.004	0.0180374
656.082	0.0179738
656.160	0.0180743
656.238	0.0181262
656.317	0.0179380
656.395	0.0179642
656.473	0.0181263
656.551	0.0179387
656.629	0.0179774
656.707	0.0180367
656.785	0.0180142
656.863	0.0180882
656.942	0.0179710
657.020	0.0180357
657.098	0.0179826
657.176	0.0180540
657.254	0.0180106
657.332	0.0179656
657.410	0.0181276
657.488	0.0180672
657.567	0.0181243
657.645	0.0179549
657.723	0.0180019
657.801	0.0181157
657.879	0.0181875
657.957	0.0180520
658.035	0.0182290
658.113	0.0182230
658.192	0.0181679
658.270	0.0181618
658.348	0.0182884
658.426	0.0182884
658.504	0.0182111
658.582	0.0182713
658.660	0.0182326
658.738	0.0182494
658.817	0.0182549
658.895	0.0182235
658.973	0.0181601
659.051	0.0181684
659.129	0.0181839
659.207	0.0180981
659.285	0.0180439
659.363	0.0180743
659.442	0.0180192
659.520	0.0180201
659.598	0.0179288
659.676	0.0180749
659.754	0.0180047
659.832	0.0179539
659.910	0.0179662
659.988	0.0178913
660.067	0.0180508
660.145	0.0181097
660.223	0.0180278
660.301	0.0181619
660.379	0.0182153
660.457	0.0179922
660.535	0.0180981
660.613	0.0181504
660.692	0.0180573
660.770	0.0180438
660.848	0.0181826
660.926	0.0181281
661.004	0.0181118
661.082	0.0183170
661.160	0.0181633
661.238	0.0181985
661.317	0.0182301
661.395	0.0181171
661.473	0.0182418
661.551	0.0182100
661.629	0.0181502
661.707	0.0179971
661.785	0.0180669
661.863	0.0181115
661.942	0.0180957
662.020	0.0180373
662.098	0.0181835
662.176	0.0180820
662.254	0.0182311
662.332	0.0182050
662.410	0.0180900
662.488	0.0182244
662.567	0.0181771
662.645	0.0183502
662.723	0.0183820
662.801	0.0183534
662.879	0.0183296
662.957	0.0182606
663.035	0.0183349
663.113	0.0181957
663.192	0.0182915
663.270	0.0183308
663.348	0.0183728
663.426	0.0181862
663.504	0.0181799
663.582	0.0181476
663.660	0.0180574
663.738	0.0180144
663.817	0.0180642
663.895	0.0180560
663.973	0.0179915
664.051	0.0180047
664.129	0.0179533
664.207	0.0180790
664.285	0.0180945
664.363	0.0179228
664.442	0.0178667
664.520	0.0180520
664.598	0.0181323
664.676	0.0181200
664.754	0.0180894
664.832	0.0178564
664.910	0.0182217
664.988	0.0181129
665.067	0.0180872
665.145	0.0181400
665.223	0.0181396
665.301	0.0180812
665.379	0.0181408
665.457	0.0179971
665.535	0.0183024
665.613	0.0182188
665.692	0.0182129
665.770	0.0181425
665.848	0.0182500
665.926	0.0182424
666.004	0.0181094
666.082	0.0181236
666.160	0.0180647
666.238	0.0180301
666.317	0.0179842
666.395	0.0181362
666.473	0.0180781
666.551	0.0179886
666.629	0.0180544
666.707	0.0179363
666.785	0.0180605
666.863	0.0180991
666.942	0.0181070
667.020	0.0181110
667.098	0.0181295
667.176	0.0181041
667.254	0.0181538
667.332	0.0180563
667.410	0.0182063
667.488	0.0180499
667.567	0.0182079
667.645	0.0180718
667.723	0.0180096
667.801	0.0181685
667.879	0.0181413
667.957	0.0180038
668.035	0.0181242
668.113	0.0179851
668.192	0.0180406
668.270	0.0181850
668.348	0.0181424
668.426	0.0180925
668.504	0.0180934
668.582	0.0181718
668.660	0.0181187
668.738	0.0182941
668.817	0.0182047
668.895	0.0181034
668.973	0.0180769
669.051	0.0181708
669.129	0.0181805
669.207	0.0180922
669.285	0.0179975
669.363	0.0181338
669.442	0.0179694
669.520	0.0181147
669.598	0.0181048
669.676	0.0181583
669.754	0.0179879
669.832	0.0179346
669.910	0.0179047
669.988	0.0180251
670.067	0.0180347
670.145	0.0179195
670.223	0.0180451
670.301	0.0178661
670.379	0.0179391
670.457	0.0179033
670.535	0.0179014
670.613	0.0181170
670.692	0.0181460
670.770	0.0179063
670.848	0.0180261
670.926	0.0182085
671.004	0.0181278
671.082	0.0181879
671.160	0.0183024
671.238	0.0182726
671.317	0.0182933
671.395	0.0183129
671.473	0.0183261
671.551	0.0181405
671.629	0.0183331
671.707	0.0182896
671.785	0.0182063
671.863	0.0181722
671.942	0.0182059
672.020	0.0180524
672.098	0.0183083
672.176	0.0181431
672.254	0.0179780
672.332	0.0180040
672.410	0.0180994
672.488	0.0180967
672.567	0.0180949
672.645	0.0180386
672.723	0.0181708
672.801	0.0180904
672.879	0.0181715
672.957	0.0182267
673.035	0.0182527
673.113	0.0182671
673.192	0.0181677
673.270	0.0181425
673.348	0.0181396
673.426	0.0181461
673.504	0.0181219
673.582	0.0182096
673.660	0.0180404
673.738	0.0180444
673.817	0.0181287
673.895	0.0181957
673.973	0.0180756
674.051	0.0179421
674.129	0.0179701
674.207	0.0181748
674.285	0.0180971
674.363	0.0181786
674.442	0.0181459
674.520	0.0182602
674.598	0.0184158
674.676	0.0182837
674.754	0.0183887
674.832	0.0182957
674.910	0.0182777
674.988	0.0184380
675.067	0.0183252
675.145	0.0183102
675.223	0.0181590
675.301	0.0183747
675.379	0.0182419
675.457	0.0180701
675.535	0.0181351
675.613	0.0180302
675.692	0.0179478
675.770	0.0178841
675.848	0.0178551
675.926	0.0180260
676.004	0.0178584
676.082	0.0178034
676.160	0.0179292
676.238	0.0179440
676.317	0.0177222
676.395	0.0178236
676.473	0.0179176
676.551	0.0179066
676.629	0.0180103
676.707	0.0181399
676.785	0.0180394
676.863	0.0181583
676.942	0.0181498
677.020	0.0181987
677.098	0.0179693
677.176	0.0180981
677.254	0.0181761
677.332	0.0180048
677.410	0.0179922
677.488	0.0179975
677.567	0.0179677
677.645	0.0179892
677.723	0.0179678
677.801	0.0181367
677.879	0.0180592
677.957	0.0181081
678.035	0.0180726
678.113	0.0181483
678.192	0.0181798
678.270	0.0183372
678.348	0.0183131
678.426	0.0183572
678.504	0.0185036
678.582	0.0185136
678.660	0.0186852
678.738	0.0188970
678.817	0.0188992
678.895	0.0188812
678.973	0.0187870
679.051	0.0187595
679.129	0.0188152
679.207	0.0185844
679.285	0.0186170
679.363	0.0186095
679.442	0.0184871
679.520	0.0182333
679.598	0.0180839
679.676	0.0179137
679.754	0.0179155
679.832	0.0175258
679.910	0.0175171
679.988	0.0173818
680.067	0.0171381
680.145	0.0170325
680.223	0.0171613
680.301	0.0171716
680.379	0.0169900
680.457	0.0170208
680.535	0.0170597
680.613	0.0172272
680.692	0.0172095
680.770	0.0172219
680.848	0.0173685
680.926	0.0176632
681.004	0.0176431
681.082	0.0177781
681.160	0.0179456
681.238	0.0180719
681.317	0.0183966
681.395	0.0185293
681.473	0.0188008
681.551	0.0191916
681.629	0.0192834
681.707	0.0194147
681.785	0.0195372
681.863	0.0197005
681.942	0.0198770
682.020	0.0198909
682.098	0.0201137
682.176	0.0197135
682.254	0.0198860
682.332	0.0197984
682.410	0.0196320
682.488	0.0194726
682.567	0.0192799
682.645	0.0190170
682.723	0.0187827
682.801	0.0185053
682.879	0.0182491
682.957	0.0178393
683.035	0.0175862
683.113	0.0172720
683.192	0.0171469
683.270	0.0168067
683.348	0.0165505
683.426	0.0164315
683.504	0.0161958
683.582	0.0160406
683.660	0.0159315
683.738	0.0159527
683.817	0.0159415
683.895	0.0158147
683.973	0.0158689
684.051	0.0160801
684.129	0.0162743
684.207	0.0165442
684.285	0.0167488
684.363	0.0169939
684.442	0.0172200
684.520	0.0175235
684.598	0.0177941
684.676	0.0181192
684.754	0.0183041
684.832	0.0187120
684.910	0.0188418
684.988	0.0190522
685.067	0.0194695
685.145	0.0196938
685.223	0.0199210
685.301	0.0200008
685.379	0.0202044
685.457	0.0202028
685.535	0.0202579
685.613	0.0203680
685.692	0.0204823
685.770	0.0204955
685.848	0.0202566
685.926	0.0200391
686.004	0.0199772
686.082	0.0197801
686.160	0.0194479
686.238	0.0192464
686.317	0.0188196
686.395	0.0184227
686.473	0.0182442
686.551	0.0179052
686.629	0.0174414
686.707	0.0172701
686.785	0.0169759
686.863	0.0166745
686.942	0.0162366
687.020	0.0161015
687.098	0.0159498
687.176	0.0158745
687.254	0.0157362
687.332	0.0156676
687.410	0.0155541
687.488	0.0156982
687.567	0.0158836
687.645	0.0158549
687.723	0.0160599
687.801	0.0163340
687.879	0.0165215
687.957	0.0167419
688.035	0.0172898
688.113	0.0175115
688.192	0.0176133
688.270	0.0179086
688.348	0.0181637
688.426	0.0186172
688.504	0.0188530
688.582	0.0190665
688.660	0.0191327
688.738	0.0195081
688.817	0.0196898
688.895	0.0196881
688.973	0.0197357
689.051	0.0199858
689.129	0.0200130
689.207	0.0200973
689.285	0.0200949
689.363	0.0201297
689.442	0.0200642
689.520	0.0201220
689.598	0.0200912
689.676	0.0198819
689.754	0.0198834
689.832	0.0196838
689.910	0.0194865
689.988	0.0193543
690.067	0.0192122
690.145	0.0189784
690.223	0.0186557
690.301	0.0183112
690.379	0.0181078
690.457	0.0178304
690.535	0.0175121
690.613	0.0171967
690.692	0.0167823
690.770	0.0165688
690.848	0.0162858
690.926	0.0161190
691.004	0.0158894
691.082	0.0157351
691.160	0.0155887
691.238	0.0155498
691.317	0.0154143
691.395	0.0156558
691.473	0.0157512
691.551	0.0158647
691.629	0.0159645
691.707	0.0164064
691.785	0.0165487
691.863	0.0168524
691.942	0.0172747
692.020	0.0174082
692.098	0.0177884
692.176	0.0180817
692.254	0.0184301
692.332	0.0186982
692.410	0.0189197
692.488	0.0193053
692.567	0.0193871
692.645	0.0196187
692.723	0.0197459
692.801	0.0198360
692.879	0.0198985
692.957	0.0198464
693.035	0.0197904
693.113	0.0198650
693.192	0.0198050
693.270	0.0195709
693.348	0.0194643
693.426	0.0194471
693.504	0.0192001
693.582	0.0189250
693.660	0.0187563
693.738	0.0187038
693.817	0.0183408
693.895	0.0181056
693.973	0.0180624
694.051	0.0178112
694.129	0.0176945
694.207	0.0174931
694.285	0.0174342
694.363	0.0175474
694.442	0.0173516
694.520	0.0176587
694.598	0.0178465
694.676	0.0177428
694.754	0.0178973
694.832	0.0179411
694.910	0.0181174
694.988	0.0182592
695.067	0.0182504
695.145	0.0182755
695.223	0.0183716
695.301	0.0184902
695.379	0.0183572
695.457	0.0183879
695.535	0.0183329
695.613	0.0184227
695.692	0.0184566
695.770	0.0181620
695.848	0.0180812
695.926	0.0178715
696.004	0.0177831
696.082	0.0174807
696.160	0.0174967
696.238	0.0174462
696.317	0.0171999
696.395	0.0169477
696.473	0.0167327
696.551	0.0168343
696.629	0.0166726
696.707	0.0165543
696.785	0.0163969
696.863	0.0164283
696.942	0.0164742
697.020	0.0163837
697.098	0.0166427
697.176	0.0168546
697.254	0.0170655
697.332	0.0172477
697.410	0.0174928
697.488	0.0179641
697.567	0.0180837
697.645	0.0185844
697.723	0.0189058
697.801	0.0193619
697.879	0.0195612
697.957	0.0196500
698.035	0.0199282
698.113	0.0201802
698.192	0.0202637
698.270	0.0202373
698.348	0.0203477
698.426	0.0202440
698.504	0.0203317
698.582	0.0203226
698.660	0.0201788
698.738	0.0199183
698.817	0.0197427
698.895	0.0196218
698.973	0.0193795
699.051	0.0191022
699.129	0.0189568
699.207	0.0185238
699.285	0.0183013
699.363	0.0182140
699.442	0.0179324
699.520	0.0176475
699.598	0.0176926
699.676	0.0173835
699.754	0.0173281
699.832	0.0171479
699.910	0.0169517
699.988	0.0169254
700.067	0.0169299
700.145	0.0169238
700.223	0.0170004
700.301	0.0169953
700.379	0.0170554
700.457	0.0171125
700.535	0.0170102
700.613	0.0171144
700.692	0.0170679
700.770	0.0170447
700.848	0.0171017
700.926	0.0169791
701.004	0.0170132
701.082	0.0169924
701.160	0.0170102
701.238	0.0170530
701.317	0.0170463
701.395	0.0168500
701.473	0.0170528
701.551	0.0170751
701.629	0.0172252
701.707	0.0171709
701.785	0.0172795
701.863	0.0173692
701.942	0.0174097
702.020	0.0175079
702.098	0.0176954
702.176	0.0179082
702.254	0.0178584
702.332	0.0182946
702.410	0.0184170
702.488	0.0186254
702.567	0.0190158
702.645	0.0192746
702.723	0.0194949
702.801	0.0197973
702.879	0.0199804
702.957	0.0200804
703.035	0.0203017
703.113	0.0203273
703.192	0.0205125
703.270	0.0205516
703.348	0.0203945
703.426	0.0203938
703.504	0.0202693
703.582	0.0201606
703.660	0.0201665
703.738	0.0199100
703.817	0.0197452
703.895	0.0195021
703.973	0.0192448
704.051	0.0190267
704.129	0.0187105
704.207	0.0184482
704.285	0.0182812
704.363	0.0179528
704.442	0.0176629
704.520	0.0175495
704.598	0.0172587
704.676	0.0170055
704.754	0.0167192
704.832	0.0167078
704.910	0.0163171
704.988	0.0164284
705.067	0.0161883
705.145	0.0161342
705.223	0.0161085
705.301	0.0162038
705.379	0.0161877
705.457	0.0160931
705.535	0.0163684
705.613	0.0167780
705.692	0.0169608
705.770	0.0172018
705.848	0.0174809
705.926	0.0177885
706.004	0.0180009
706.082	0.0180849
706.160	0.0183232
706.238	0.0186578
706.317	0.0185772
706.395	0.0186874
706.473	0.0187801
706.551	0.0187455
706.629	0.0187960
706.707	0.0188017
706.785	0.0185487
706.863	0.0185763
706.942	0.0184604
707.020	0.0182954
707.098	0.0181510
707.176	0.0180075
707.254	0.0179518
707.332	0.0178124
707.410	0.0177253
707.488	0.0176630
707.567	0.0175626
707.645	0.0176733
707.723	0.0174908
707.801	0.0176455
707.879	0.0176479
707.957	0.0177488
708.035	0.0179306
708.113	0.0179913
708.192	0.0180238
708.270	0.0183306
708.348	0.0183450
708.426	0.0185012
708.504	0.0185085
708.582	0.0186776
708.660	0.0187949
708.738	0.0190305
708.817	0.0191302
708.895	0.0192708
708.973	0.0194607
709.051	0.0194099
709.129	0.0194478
709.207	0.0193535
709.285	0.0195315
709.363	0.0195861
709.442	0.0193358
709.520	0.0194028
709.598	0.0192957
709.676	0.0191863
709.754	0.0191854
709.832	0.0189811
709.910	0.0189648
709.988	0.0187203
710.067	0.0184045
710.145	0.0181949
710.223	0.0180800
710.301	0.0179375
710.379	0.0176288
710.457	0.0174754
710.535	0.0172958
710.613	0.0170576
710.692	0.0168713
710.770	0.0167845
710.848	0.0166547
710.926	0.0165003
711.004	0.0162352
711.082	0.0162506
711.160	0.0162373
711.238	0.0160621
711.317	0.0160453
711.395	0.0162115
711.473	0.0163052
711.551	0.0163611
711.629	0.0163180
711.707	0.0165912
711.785	0.0166801
711.863	0.0169028
711.942	0.0171023
712.020	0.0173174
712.098	0.0173493
712.176	0.0174429
712.254	0.0176762
712.332	0.0177725
712.410	0.0179243
712.488	0.0179855
712.567	0.0178801
712.645	0.0180344
712.723	0.0180877
712.801	0.0182344
712.879	0.0182433
712.957	0.0182804
713.035	0.0182390
713.113	0.0182821
713.192	0.0184789
713.270	0.0184033
713.348	0.0184965
713.426	0.0186879
713.504	0.0187965
713.582	0.0189526
713.660	0.0189956
713.738	0.0191831
713.817	0.0193652
713.895	0.0194790
713.973	0.0194850
714.051	0.0196119
714.129	0.0196700
714.207	0.0196634
714.285	0.0196130
714.363	0.0196286
714.442	0.0195540
714.520	0.0192842
714.598	0.0192358
714.676	0.0192305
714.754	0.0190799
714.832	0.0188354
714.910	0.0186929
714.988	0.0186025
715.067	0.0184436
715.145	0.0183219
715.223	0.0183924
715.301	0.0183051
715.379	0.0182516
715.457	0.0180822
715.535	0.0179877
715.613	0.0179435
715.692	0.0179249
715.770	0.0178325
715.848	0.0176968
715.926	0.0176816
716.004	0.0177188
716.082	0.0177923
716.160	0.0175929
716.238	0.0174188
716.317	0.0173058
716.395	0.0173267
716.473	0.0173866
716.551	0.0172411
716.629	0.0170608
716.707	0.0170377
716.785	0.0168746
716.863	0.0169321
716.942	0.0169073
717.020	0.0167827
717.098	0.0167781
717.176	0.0169077
717.254	0.0168089
717.332	0.0168864
717.410	0.0168197
717.488	0.0167574
717.567	0.0169411
717.645	0.0170603
717.723	0.0172374
717.801	0.0173751
717.879	0.0173540
717.957	0.0174505
718.035	0.0175909
718.113	0.0177938
718.192	0.0179399
718.270	0.0177968
718.348	0.0180531
718.426	0.0181068
718.504	0.0181570
718.582	0.0180608
718.660	0.0182370
718.738	0.0184269
718.817	0.0181911
718.895	0.0184444
718.973	0.0184338
719.051	0.0184170
719.129	0.0186206
719.207	0.0186105
719.285	0.0187523
719.363	0.0189638
719.442	0.0190130
719.520	0.0190913
719.598	0.0191716
719.676	0.0193819
719.754	0.0193430
719.832	0.0194003
719.910	0.0195838
719.988	0.0194966
720.067	0.0195425
720.145	0.0194881
720.223	0.0195054
720.301	0.0194424
720.379	0.0193333
720.457	0.0193326
720.535	0.0191916
720.613	0.0191344
720.692	0.0190956
720.770	0.0190331
720.848	0.0189069
720.926	0.0188183
721.004	0.0187010
721.082	0.0187478
721.160	0.0185876
721.238	0.0185526
721.317	0.0184801
721.395	0.0184441
721.473	0.0183894
721.551	0.0181770
721.629	0.0181145
721.707	0.0179969
721.785	0.0180692
721.863	0.0180693
721.942	0.0180051
722.020	0.0177930
722.098	0.0177150
722.176	0.0176540
722.254	0.0176685
722.332	0.0175767
722.410	0.0174567
722.488	0.0175496
722.567	0.0172143
722.645	0.0172235
722.723	0.0169988
722.801	0.0168135
722.879	0.0167915
722.957	0.0166551
723.035	0.0166304
723.113	0.0165870
723.192	0.0164890
723.270	0.0165131
723.348	0.0164921
723.426	0.0163737
723.504	0.0165070
723.582	0.0165121
723.660	0.0167548
723.738	0.0169167
723.817	0.0173026
723.895	0.0173735
723.973	0.0175577
724.051	0.0177329
724.129	0.0180096
724.207	0.0181828
724.285	0.0183858
724.363	0.0185147
724.442	0.0186333
724.520	0.0187833
724.598	0.0187675
724.676	0.0189405
724.754	0.0189046
724.832	0.0190941
724.910	0.0188807
724.988	0.0187761
725.067	0.0187701
725.145	0.0187083
725.223	0.0185685
725.301	0.0186232
725.379	0.0187232
725.457	0.0184601
725.535	0.0184583
725.613	0.0185941
725.692	0.0186341
725.770	0.0187221
725.848	0.0187696
725.926	0.0187509
726.004	0.0189020
726.082	0.0189317
726.160	0.0190998
726.238	0.0191169
726.317	0.0191304
726.395	0.0192669
726.473	0.0192350
726.551	0.0191542
726.629	0.0191994
726.707	0.0192560
726.785	0.0191651
726.863	0.0189947
726.942	0.0188628
727.020	0.0187502
727.098	0.0187255
727.176	0.0185300
727.254	0.0186423
727.332	0.0183041
727.410	0.0182997
727.488	0.0181705
727.567	0.0180496
727.645	0.0180231
727.723	0.0179742
727.801	0.0178893
727.879	0.0179075
727.957	0.0179424
728.035	0.0179821
728.113	0.0176292
728.192	0.0176364
728.270	0.0175291
728.348	0.0174487
728.426	0.0176001
728.504	0.0175446
728.582	0.0174761
728.660	0.0172958
728.738	0.0173363
728.817	0.0172123
728.895	0.0172472
728.973	0.0171941
729.051	0.0171732
729.129	0.0171484
729.207	0.0171346
729.285	0.0171065
729.363	0.0170749
729.442	0.0170461
729.520	0.0172321
729.598	0.0171987
729.676	0.0172089
729.754	0.0172813
729.832	0.0176054
729.910	0.0174712
729.988	0.0175484
730.067	0.0176302
730.145	0.0175594
730.223	0.0175911
730.301	0.0176691
730.379	0.0178090
730.457	0.0180573
730.535	0.0179883
730.613	0.0180431
730.692	0.0179626
730.770	0.0181338
730.848	0.0182320
730.926	0.0182822
731.004	0.0184552
731.082	0.0185158
731.160	0.0187049
731.238	0.0186524
731.317	0.0187993
731.395	0.0188319
731.473	0.0188863
731.551	0.0189128
731.629	0.0189865
731.707	0.0188920
731.785	0.0187740
731.863	0.0188320
731.942	0.0187067
732.020	0.0186824
732.098	0.0186085
732.176	0.0183609
732.254	0.0186021
732.332	0.0183638
732.410	0.0181887
732.488	0.0183193
732.567	0.0183257
732.645	0.0183727
732.723	0.0183549
732.801	0.0183748
732.879	0.0184848
732.957	0.0184673
733.035	0.0185734
733.113	0.0185168
733.192	0.0185467
733.270	0.0185643
733.348	0.0184225
733.426	0.0183586
733.504	0.0183246
733.582	0.0182140
733.660	0.0182150
733.738	0.0181198
733.817	0.0180175
733.895	0.0180074
733.973	0.0180067
734.051	0.0178439
734.129	0.0179007
734.207	0.0178642
734.285	0.0177608
734.363	0.0176036
734.442	0.0176966
734.520	0.0176765
734.598	0.0176862
734.676	0.0176735
734.754	0.0176039
734.832	0.0176929
734.910	0.0177235
734.988	0.0177704
735.067	0.0177052
735.145	0.0176798
735.223	0.0178164
735.301	0.0178805
735.379	0.0178686
735.457	0.0179340
735.535	0.0180923
735.613	0.0181805
735.692	0.0182583
735.770	0.0181058
735.848	0.0181199
735.926	0.0180510
736.004	0.0180135
736.082	0.0180528
736.160	0.0180689
736.238	0.0179212
736.317	0.0177490
736.395	0.0178781
736.473	0.0177547
736.551	0.0175722
736.629	0.0176898
736.707	0.0175655
736.785	0.0176343
736.863	0.0177131
736.942	0.0178419
737.020	0.0177187
737.098	0.0178510
737.176	0.0178287
737.254	0.0180707
737.332	0.0180123
737.410	0.0181944
737.488	0.0181440
737.567	0.0182758
737.645	0.0182220
737.723	0.0181821
737.801	0.0182948
737.879	0.0184794
737.957	0.0184354
738.035	0.0184560
738.113	0.0185693
738.192	0.0184171
738.270	0.0184941
738.348	0.0184620
738.426	0.0184518
738.504	0.0186333
738.582	0.0184487
738.660	0.0183229
738.738	0.0181724
738.817	0.0181726
738.895	0.0181169
738.973	0.0179813
739.051	0.0180258
739.129	0.0179881
739.207	0.0180759
739.285	0.0178929
739.363	0.0180861
739.442	0.0180124
739.520	0.0180745
739.598	0.0181262
739.676	0.0181737
739.754	0.0183877
739.832	0.0184795
739.910	0.0183834
739.988	0.0183721
740.067	0.0185563
740.145	0.0185355
740.223	0.0184644
740.301	0.0183936
740.379	0.0184250
740.457	0.0182832
740.535	0.0183239
740.613	0.0182874
740.692	0.0180153
740.770	0.0180060
740.848	0.0179472
740.926	0.0178403
741.004	0.0177599
741.082	0.0178013
741.160	0.0177103
741.238	0.0178185
741.317	0.0178956
741.395	0.0178438
741.473	0.0179983
741.551	0.0181007
741.629	0.0181169
741.707	0.0182526
741.785	0.0182973
741.863	0.0183910
741.942	0.0183904
742.020	0.0185252
742.098	0.0184045
742.176	0.0184309
742.254	0.0182813
742.332	0.0183762
742.410	0.0185194
742.488	0.0182583
742.567	0.0182720
742.645	0.0181413
742.723	0.0180438
742.801	0.0180393
742.879	0.0179889
742.957	0.0179552
743.035	0.0178634
743.113	0.0178765
743.192	0.0178632
743.270	0.0178574
743.348	0.0177879
743.426	0.0179681
743.504	0.0178602
743.582	0.0179935
743.660	0.0180269
743.738	0.0180183
743.817	0.0181039
743.895	0.0182295
743.973	0.0182932
744.051	0.0182888
744.129	0.0183099
744.207	0.0183633
744.285	0.0182006
744.363	0.0182416
744.442	0.0182034
744.520	0.0183061
744.598	0.0183277
744.676	0.0181792
744.754	0.0182907
744.832	0.0181113
744.910	0.0182359
744.988	0.0182652
745.067	0.0181400
745.145	0.0180895
745.223	0.0182246
745.301	0.0181029
745.379	0.0181621
745.457	0.0181083
745.535	0.0181522
745.613	0.0181268
745.692	0.0181155
745.770	0.0180843
745.848	0.0179839
745.926	0.0181046
746.004	0.0179332
746.082	0.0181168
746.160	0.0179024
746.238	0.0180254
746.317	0.0180355
746.395	0.0179284
746.473	0.0180331
746.551	0.0180817
746.629	0.0179310
746.707	0.0180712
746.785	0.0180833
746.863	0.0180836
746.942	0.0180340
747.020	0.0180097
747.098	0.0180013
747.176	0.0179036
747.254	0.0180296
747.332	0.0179147
747.410	0.0179340
747.488	0.0179137
747.567	0.0180972
747.645	0.0180501
747.723	0.0179428
747.801	0.0180402
747.879	0.0182125
747.957	0.0179919
748.035	0.0179134
748.113	0.0181583
748.192	0.0182320
748.270	0.0181077
748.348	0.0180832
748.426	0.0182185
748.504	0.0183304
748.582	0.0182575
748.660	0.0184411
748.738	0.0183689
748.817	0.0183961
748.895	0.0183759
748.973	0.0183440
749.051	0.0183569
749.129	0.0186195
749.207	0.0185300
749.285	0.0186974
749.363	0.0186806
749.442	0.0186166
749.520	0.0186686
749.598	0.0187096
749.676	0.0188385
749.754	0.0186066
749.832	0.0186610
749.910	0.0186829
749.988	0.0186665
750.067	0.0186426
750.145	0.0184836
750.223	0.0183658
750.301	0.0183330
750.379	0.0181396
750.457	0.0181567
750.535	0.0180052
750.613	0.0179376
750.692	0.0177982
750.770	0.0177943
750.848	0.0177410
750.926	0.0176726
751.004	0.0177131
751.082	0.0176301
751.160	0.0175903
751.238	0.0174368
751.317	0.0175923
751.395	0.0175774
751.473	0.0175146
751.551	0.0177364
751.629	0.0176174
751.707	0.0177301
751.785	0.0177809
751.863	0.0177978
751.942	0.0178217
752.020	0.0177061
752.098	0.0178421
752.176	0.0177151
752.254	0.0177497
752.332	0.0176948
752.410	0.0177520
752.488	0.0177082
752.567	0.0177070
752.645	0.0176671
752.723	0.0177567
752.801	0.0177150
752.879	0.0178145
752.957	0.0178458
753.035	0.0178113
753.113	0.0179242
753.192	0.0179190
753.270	0.0180957
753.348	0.0182097
753.426	0.0182671
753.504	0.0183195
753.582	0.0182388
753.660	0.0183242
753.738	0.0183571
753.817	0.0182899
753.895	0.0183469
753.973	0.0183323
754.051	0.0180849
754.129	0.0182597
754.207	0.0181000
754.285	0.0181574
754.363	0.0181296
754.442	0.0181608
754.520	0.0181958
754.598	0.0180933
754.676	0.0180888
754.754	0.0179552
754.832	0.0180935
754.910	0.0180036
754.988	0.0182395
755.067	0.0181812
755.145	0.0181564
755.223	0.0181829
755.301	0.0180751
755.379	0.0183518
755.457	0.0183284
755.535	0.0184657
755.613	0.0183869
755.692	0.0185372
755.770	0.0184292
755.848	0.0184603
755.926	0.0185865
756.004	0.0185941
756.082	0.0185896
756.160	0.0186877
756.238	0.0188081
756.317	0.0185111
756.395	0.0187051
756.473	0.0187700
756.551	0.0186179
756.629	0.0184850
756.707	0.0186674
756.785	0.0184542
756.863	0.0184913
756.942	0.0184824
757.020	0.0184743
757.098	0.0182558
757.176	0.0181427
757.254	0.0180943
757.332	0.0182884
757.410	0.0181194
757.488	0.0179895
757.567	0.0178271
757.645	0.0178175
757.723	0.0177435
757.801	0.0176933
757.879	0.0177410
757.957	0.0176991
758.035	0.0174776
758.113	0.0175726
758.192	0.0174508
758.270	0.0175094
758.348	0.0174683
758.426	0.0174121
758.504	0.0176581
758.582	0.0175902
758.660	0.0175842
758.738	0.0176814
758.817	0.0176379
758.895	0.0176258
758.973	0.0177667
759.051	0.0177519
759.129	0.0177921
759.207	0.0176332
759.285	0.0177101
759.363	0.0176595
759.442	0.0176195
759.520	0.0176878
759.598	0.0176006
759.676	0.0176050
759.754	0.0176322
759.832	0.0175768
759.910	0.0175303
759.988	0.0175275
760.067	0.0176756
760.145	0.0176667
760.223	0.0177315
760.301	0.0177676
760.379	0.0177898
760.457	0.0177068
760.535	0.0179108
760.613	0.0178049
760.692	0.0178969
760.770	0.0180145
760.848	0.0180878
760.926	0.0180524
761.004	0.0182041
761.082	0.0181831
761.160	0.0181821
761.238	0.0182144
761.317	0.0181297
761.395	0.0182361
761.473	0.0182137
761.551	0.0181968
761.629	0.0182259
761.707	0.0180492
761.785	0.0181078
761.863	0.0181684
761.942	0.0180362
762.020	0.0179987
762.098	0.0180779
762.176	0.0180505
762.254	0.0180376
762.332	0.0182243
762.410	0.0182619
762.488	0.0182449
762.567	0.0183764
762.645	0.0183124
762.723	0.0185427
762.801	0.0185141
762.879	0.0186590
762.957	0.0186270
763.035	0.0187076
763.113	0.0187149
763.192	0.0188229
763.270	0.0187558
763.348	0.0187904
763.426	0.0187369
763.504	0.0187572
763.582	0.0186494
763.660	0.0186125
763.738	0.0185687
763.817	0.0185103
763.895	0.0184077
763.973	0.0183254
764.051	0.0182100
764.129	0.0182681
764.207	0.0181619
764.285	0.0182998
764.363	0.0182359
764.442	0.0181514
764.520	0.0181330
764.598	0.0182416
764.676	0.0183013
764.754	0.0181917
764.832	0.0183512
764.910	0.0184457
764.988	0.0182729
765.067	0.0182415
765.145	0.0182230
765.223	0.0182999
765.301	0.0179935
765.379	0.0180487
765.457	0.0178887
765.535	0.0177715
765.613	0.0175864
765.692	0.0175055
765.770	0.0175616
765.848	0.0174521
765.926	0.0174223
766.004	0.0173828
766.082	0.0172564
766.160	0.0173170
766.238	0.0173322
766.317	0.0174229
766.395	0.0174880
766.473	0.0175900
766.551	0.0177660
766.629	0.0179072
766.707	0.0178662
766.785	0.0179328
766.863	0.0181331
766.942	0.0181744
767.020	0.0181620
767.098	0.0182629
767.176	0.0181166
767.254	0.0180603
767.332	0.0180703
767.410	0.0179764
767.488	0.0179216
767.567	0.0179426
767.645	0.0178316
767.723	0.0177547
767.801	0.0177527
767.879	0.0175382
767.957	0.0175266
768.035	0.0176986
768.113	0.0177292
768.192	0.0178276
768.270	0.0178948
768.348	0.0179428
768.426	0.0182877
768.504	0.0183659
768.582	0.0185075
768.660	0.0186739
768.738	0.0187577
768.817	0.0190184
768.895	0.0189788
768.973	0.0189782
769.051	0.0189558
769.129	0.0191821
769.207	0.0189930
769.285	0.0188697
769.363	0.0188776
769.442	0.0187755
769.520	0.0186807
769.598	0.0186023
769.676	0.0182279
769.754	0.0181693
769.832	0.0182115
769.910	0.0180244
769.988	0.0178696
770.067	0.0178680
770.145	0.0179512
770.223	0.0179029
770.301	0.0179359
770.379	0.0180579
770.457	0.0180489
770.535	0.0180845
770.613	0.0180434
770.692	0.0181001
770.770	0.0181911
770.848	0.0183419
770.926	0.0183920
771.004	0.0184914
771.082	0.0184388
771.160	0.0184930
771.238	0.0185116
771.317	0.0184736
771.395	0.0186017
771.473	0.0185484
771.551	0.0185269
771.629	0.0185651
771.707	0.0186269
771.785	0.0184662
771.863	0.0184346
771.942	0.0184213
772.020	0.0182251
772.098	0.0183277
772.176	0.0182864
772.254	0.0182983
772.332	0.0182693
772.410	0.0182109
772.488	0.0181606
772.567	0.0181868
772.645	0.0182184
772.723	0.0180604
772.801	0.0179990
772.879	0.0180022
772.957	0.0180164
773.035	0.0179426
773.113	0.0179649
773.192	0.0178048
773.270	0.0177481
773.348	0.0177728
773.426	0.0175252
773.504	0.0173822
773.582	0.0174977
773.660	0.0175190
773.738	0.0174042
773.817	0.0173854
773.895	0.0173313
773.973	0.0173734
774.051	0.0174879
774.129	0.0174691
774.207	0.0175520
774.285	0.0176455
774.363	0.0177212
774.442	0.0179474
774.520	0.0179600
774.598	0.0179433
774.676	0.0180952
774.754	0.0181448
774.832	0.0180811
774.910	0.0180392
774.988	0.0179898
775.067	0.0180532
775.145	0.0180059
775.223	0.0179407
775.301	0.0178274
775.379	0.0179137
775.457	0.0178062
775.535	0.0177254
775.613	0.0177016
775.692	0.0176918
775.770	0.0178976
775.848	0.0178967
775.926	0.0178946
776.004	0.0177716
776.082	0.0181653
776.160	0.0181995
776.238	0.0183613
776.317	0.0183398
776.395	0.0184703
776.473	0.0185647
776.551	0.0188007
776.629	0.0187842
776.707	0.0187292
776.785	0.0188689
776.863	0.0190005
776.942	0.0188931
777.020	0.0189560
777.098	0.0188688
777.176	0.0186581
777.254	0.0186830
777.332	0.0185796
777.410	0.0183926
777.488	0.0182869
777.567	0.0181097
777.645	0.0180437
777.723	0.0181059
777.801	0.0179173
777.879	0.0177822
777.957	0.0177353
778.035	0.0178239
778.113	0.0178197
778.192	0.0179566
778.270	0.0178566
778.348	0.0178669
778.426	0.0180096
778.504	0.0180666
778.582	0.0181871
778.660	0.0182201
778.738	0.0182579
778.817	0.0183298
778.895	0.0183508
778.973	0.0184734
779.051	0.0185031
779.129	0.0184815
779.207	0.0184274
779.285	0.0184521
779.363	0.0185311
779.442	0.0183784
779.520	0.0182761
779.598	0.0182620
779.676	0.0183542
779.754	0.0183312
779.832	0.0182944
779.910	0.0182318
779.988	0.0182546
780.067	0.0183044
780.145	0.0183072
780.223	0.0183415
780.301	0.0183112
780.379	0.0183877
780.457	0.0182035
780.535	0.0181544
780.613	0.0181615
780.692	0.0181980
780.770	0.0179417
780.848	0.0179185
780.926	0.0178963
781.004	0.0178532
781.082	0.0176041
781.160	0.0175832
781.238	0.0173545
781.317	0.0174445
781.395	0.0173763
781.473	0.0173901
781.551	0.0171152
781.629	0.0171604
781.707	0.0172458
781.785	0.0173267
781.863	0.0174695
781.942	0.0174727
782.020	0.0176229
782.098	0.0177367
782.176	0.0177222
782.254	0.0179265
782.332	0.0179647
782.410	0.0180747
782.488	0.0181541
782.567	0.0181003
782.645	0.0181902
782.723	0.0182216
782.801	0.0181979
782.879	0.0181509
782.957	0.0181010
783.035	0.0180845
783.113	0.0179807
783.192	0.0179182
783.270	0.0178810
783.348	0.0178436
783.426	0.0178014
783.504	0.0179597
783.582	0.0177855
783.660	0.0178156
783.738	0.0180622
783.817	0.0181694
783.895	0.0181166
783.973	0.0181630
784.051	0.0183606
784.129	0.0184609
784.207	0.0185144
784.285	0.0186732
784.363	0.0185250
784.442	0.0186626
784.520	0.0186235
784.598	0.0186121
784.676	0.0186882
784.754	0.0185191
784.832	0.0184316
784.910	0.0183907
784.988	0.0184266
785.067	0.0184407
785.145	0.0183089
785.223	0.0181227
785.301	0.0180688
785.379	0.0180283
785.457	0.0179593
785.535	0.0179678
785.613	0.0179963
785.692	0.0178662
785.770	0.0178543
785.848	0.0180170
785.926	0.0180312
786.004	0.0180095
786.082	0.0181339
786.160	0.0183142
786.238	0.0183899
786.317	0.0184653
786.395	0.0183811
786.473	0.0183463
786.551	0.0183984
786.629	0.0185444
786.707	0.0185024
786.785	0.0185445
786.863	0.0184773
786.942	0.0186051
787.020	0.0186662
787.098	0.0185543
787.176	0.0185668
787.254	0.0183701
787.332	0.0184429
787.410	0.0184354
787.488	0.0184710
787.567	0.0184297
787.645	0.0182590
787.723	0.0181882
787.801	0.0181233
787.879	0.0182743
787.957	0.0182020
788.035	0.0181737
788.113	0.0180603
788.192	0.0181522
788.270	0.0178864
788.348	0.0179124
788.426	0.0177094
788.504	0.0178068
788.582	0.0177412
788.660	0.0175867
788.738	0.0174480
788.817	0.0173810
788.895	0.0173701
788.973	0.0172915
789.051	0.0171236
789.129	0.0172037
789.207	0.0171645
789.285	0.0170954
789.363	0.0171745
789.442	0.0172755
789.520	0.0173064
789.598	0.0173310
789.676	0.0172665
789.754	0.0175201
789.832	0.0175210
789.910	0.0176838
789.988	0.0178225
790.067	0.0178577
790.145	0.0177681
790.223	0.0176111
790.301	0.0177660
790.379	0.0179705
790.457	0.0178509
790.535	0.0179423
790.613	0.0178346
790.692	0.0180016
790.770	0.0179633
790.848	0.0179916
790.926	0.0180537
791.004	0.0181728
791.082	0.0182148
791.160	0.0182831
791.238	0.0184504
791.317	0.0184806
791.395	0.0183975
791.473	0.0185125
791.551	0.0187923
791.629	0.0187424
791.707	0.0187949
791.785	0.0189278
791.863	0.0189389
791.942	0.0189940
792.020	0.0187659
792.098	0.0189754
792.176	0.0186940
792.254	0.0186649
792.332	0.0186202
792.410	0.0183930
792.488	0.0183946
792.567	0.0182806
792.645	0.0181934
792.723	0.0179699
792.801	0.0178343
792.879	0.0178547
792.957	0.0177325
793.035	0.0176095
793.113	0.0177790
793.192	0.0176468
793.270	0.0177427
793.348	0.0178230
793.426	0.0178445
793.504	0.0179051
793.582	0.0179134
793.660	0.0180754
793.738	0.0181203
793.817	0.0181576
793.895	0.0184961
793.973	0.0183871
794.051	0.0185612
794.129	0.0185488
794.207	0.0186946
794.285	0.0186361
794.363	0.0186301
794.442	0.0187995
794.520	0.0188579
794.598	0.0188480
794.676	0.0189339
794.754	0.0188316
794.832	0.0189653
794.910	0.0188668
794.988	0.0189404
795.067	0.0187913
795.145	0.0189620
795.223	0.0189852
795.301	0.0188516
795.379	0.0187682
795.457	0.0188638
795.535	0.0186745
795.613	0.0184592
795.692	0.0185426
795.770	0.0183208
795.848	0.0183616
795.926	0.0183414
796.004	0.0182701
796.082	0.0179720
796.160	0.0179129
796.238	0.0178527
796.317	0.0175825
796.395	0.0175762
796.473	0.0173442
796.551	0.0171886
796.629	0.0171873
796.707	0.0168748
796.785	0.0170013
796.863	0.0169182
796.942	0.0168736
797.020	0.0167001
797.098	0.0166166
797.176	0.0167124
797.254	0.0167455
797.332	0.0168210
797.410	0.0168870
797.488	0.0169914
797.567	0.0169740
797.645	0.0170663
797.723	0.0170646
797.801	0.0173492
797.879	0.0173677
797.957	0.0176068
798.035	0.0176169
798.113	0.0177274
798.192	0.0178420
798.270	0.0178628
798.348	0.0181695
798.426	0.0182224
798.504	0.0181013
798.582	0.0181294
798.660	0.0183788
798.738	0.0184021
798.817	0.0185698
798.895	0.0184042
798.973	0.0184969
799.051	0.0186497
799.129	0.0187238
799.207	0.0189568
799.285	0.0188852
799.363	0.0189931
799.442	0.0189875
799.520	0.0191557
799.598	0.0193645
799.676	0.0192268
799.754	0.0190440
799.832	0.0191779
799.910	0.0191911
799.988	0.0190459
800.067	0.0189453
800.145	0.0188896
800.223	0.0188599
800.301	0.0187376
800.379	0.0187685
800.457	0.0185681
800.535	0.0183722
800.613	0.0182743
800.692	0.0181606
800.770	0.0181242
800.848	0.0180599
800.926	0.0180397
801.004	0.0179672
801.082	0.0179276
801.160	0.0178960
801.238	0.0178867
801.317	0.0178738
801.395	0.0179986
801.473	0.0181866
801.551	0.0180759
801.629	0.0181641
801.707	0.0181618
801.785	0.0181541
801.863	0.0183218
801.942	0.0183385
802.020	0.0182864
802.098	0.0182527
802.176	0.0184492
802.254	0.0183592
802.332	0.0184109
802.410	0.0184743
802.488	0.0185680
802.567	0.0187159
802.645	0.0185873
802.723	0.0186150
802.801	0.0187076
802.879	0.0185645
802.957	0.0186651
803.035	0.0185513
803.113	0.0186018
803.192	0.0186476
803.270	0.0184689
803.348	0.0184746
803.426	0.0183421
803.504	0.0182230
803.582	0.0182912
803.660	0.0182784
803.738	0.0182036
803.817	0.0181294
803.895	0.0179965
803.973	0.0178637
804.051	0.0178297
804.129	0.0176842
804.207	0.0176254
804.285	0.0173569
804.363	0.0171886
804.442	0.0171844
804.520	0.0172244
804.598	0.0170921
804.676	0.0170518
804.754	0.0168762
804.832	0.0169631
804.910	0.0169518
804.988	0.0168820
805.067	0.0170206
805.145	0.0170911
805.223	0.0170271
805.301	0.0171748
805.379	0.0173197
805.457	0.0173817
805.535	0.0174394
805.613	0.0176079
805.692	0.0176070
805.770	0.0178416
805.848	0.0179267
805.926	0.0179911
806.004	0.0180545
806.082	0.0181232
806.160	0.0180616
806.238	0.0181487
806.317	0.0182703
806.395	0.0183334
806.473	0.0182981
806.551	0.0183952
806.629	0.0184662
806.707	0.0183750
806.785	0.0185711
806.863	0.0184982
806.942	0.0185699
807.020	0.0185580
807.098	0.0187434
807.176	0.0186306
807.254	0.0186620
807.332	0.0184859
807.410	0.0185997
807.488	0.0184930
807.567	0.0186073
807.645	0.0186450
807.723	0.0184599
807.801	0.0183598
807.879	0.0183212
807.957	0.0183772
808.035	0.0181889
808.113	0.0181026
808.192	0.0182144
808.270	0.0179860
808.348	0.0180860
808.426	0.0180293
808.504	0.0182626
808.582	0.0181075
808.660	0.0179237
808.738	0.0179535
808.817	0.0182076
808.895	0.0181271
808.973	0.0182315
809.051	0.0181765
809.129	0.0182948
809.207	0.0182455
809.285	0.0182718
809.363	0.0183620
809.442	0.0183300
809.520	0.0183719
809.598	0.0184095
809.676	0.0185100
809.754	0.0185315
809.832	0.0185297
809.910	0.0183114
809.988	0.0186332
810.067	0.0185490
810.145	0.0184794
810.223	0.0185180
810.301	0.0185289
810.379	0.0184835
810.457	0.0185758
810.535	0.0185094
810.613	0.0185193
810.692	0.0185981
810.770	0.0184953
810.848	0.0183011
810.926	0.0184155
811.004	0.0183113
811.082	0.0182005
811.160	0.0181516
811.238	0.0181219
811.317	0.0180726
811.395	0.0181437
811.473	0.0180531
811.551	0.0180525
811.629	0.0176822
811.707	0.0177175
811.785	0.0177641
811.863	0.0175432
811.942	0.0174380
812.020	0.0175001
812.098	0.0173792
812.176	0.0173920
812.254	0.0170726
812.332	0.0170677
812.410	0.0169791
812.488	0.0169293
812.567	0.0168576
812.645	0.0166611
812.723	0.0167479
812.801	0.0167706
812.879	0.0167624
812.957	0.0167658
813.035	0.0167345
813.113	0.0168365
813.192	0.0170377
813.270	0.0170989
813.348	0.0171465
813.426	0.0173014
813.504	0.0174294
813.582	0.0174281
813.660	0.0175794
813.738	0.0175536
813.817	0.0178450
813.895	0.0179153
813.973	0.0179247
814.051	0.0181796
814.129	0.0179256
814.207	0.0182154
814.285	0.0183112
814.363	0.0183382
814.442	0.0183914
814.520	0.0184784
814.598	0.0185539
814.676	0.0185822
814.754	0.0186095
814.832	0.0185746
814.910	0.0186624
814.988	0.0186245
815.067	0.0188083
815.145	0.0188636
815.223	0.0187601
815.301	0.0186557
815.379	0.0186816
815.457	0.0188109
815.535	0.0186351
815.613	0.0188040
815.692	0.0187198
815.770	0.0186359
815.848	0.0186684
815.926	0.0187053
816.004	0.0187532
816.082	0.0185178
816.160	0.0185163
816.238	0.0186777
816.317	0.0186073
816.395	0.0185640
816.473	0.0186233
816.551	0.0187498
816.629	0.0185687
816.707	0.0185093
816.785	0.0186572
816.863	0.0187104
816.942	0.0185802
817.020	0.0186944
817.098	0.0185310
817.176	0.0184668
817.254	0.0185099
817.332	0.0185246
817.410	0.0184557
817.488	0.0185221
817.567	0.0184319
817.645	0.0184086
817.723	0.0185240
817.801	0.0185479
817.879	0.0183799
817.957	0.0185941
818.035	0.0183068
818.113	0.0183037
818.192	0.0183393
818.270	0.0182691
818.348	0.0181557
818.426	0.0182827
818.504	0.0181842
818.582	0.0179816
818.660	0.0181212
818.738	0.0181780
818.817	0.0180125
818.895	0.0179642
818.973	0.0180025
819.051	0.0180053
819.129	0.0180235
819.207	0.0178208
819.285	0.0176421
819.363	0.0176386
819.442	0.0176382
819.520	0.0175864
819.598	0.0174454
819.676	0.0172164
819.754	0.0172507
819.832	0.0172909
819.910	0.0172586
819.988	0.0171622
820.067	0.0171847
820.145	0.0171830
820.223	0.0170168
820.301	0.0171138
820.379	0.0171866
820.457	0.0170724
820.535	0.0172120
820.613	0.0171785
820.692	0.0172569
820.770	0.0174184
820.848	0.0173683
820.926	0.0173402
821.004	0.0176680
821.082	0.0176791
821.160	0.0177541
821.238	0.0178906
821.317	0.0177953
821.395	0.0180196
821.473	0.0181118
821.551	0.0182250
821.629	0.0183113
821.707	0.0182781
821.785	0.0186176
821.863	0.0186430
821.942	0.0186478
822.020	0.0186489
822.098	0.0186276
822.176	0.0186721
822.254	0.0187022
822.332	0.0186334
822.410	0.0185432
822.488	0.0186476
822.567	0.0189580
822.645	0.0188064
822.723	0.0186626
822.801	0.0186932
822.879	0.0185257
822.957	0.0185555
823.035	0.0185125
823.113	0.0186842
823.192	0.0186448
823.270	0.0184976
823.348	0.0186632
823.426	0.0185227
823.504	0.0185479
823.582	0.0184369
823.660	0.0185680
823.738	0.0186826
823.817	0.0184542
823.895	0.0184578
823.973	0.0185892
824.051	0.0185365
824.129	0.0184702
824.207	0.0184641
824.285	0.0184553
824.363	0.0184814
824.442	0.0184080
824.520	0.0185677
824.598	0.0185524
824.676	0.0184444
824.754	0.0183486
824.832	0.0183302
824.910	0.0184116
824.988	0.0182156
825.067	0.0182558
825.145	0.0183686
825.223	0.0183753
825.301	0.0183199
825.379	0.0181570
825.457	0.0183507
825.535	0.0182421
825.613	0.0181409
825.692	0.0182614
825.770	0.0182102
825.848	0.0181437
825.926	0.0181178
826.004	0.0182210
826.082	0.0181895
826.160	0.0181557
826.238	0.0181277
826.317	0.0180711
826.395	0.0181610
826.473	0.0182918
826.551	0.0180235
826.629	0.0180711
826.707	0.0180666
826.785	0.0181396
826.863	0.0179712
826.942	0.0178288
827.020	0.0178355
827.098	0.0177915
827.176	0.0179215
827.254	0.0176540
827.332	0.0177174
827.410	0.0176424
827.488	0.0175276
827.567	0.0175323
827.645	0.0174408
827.723	0.0174787
827.801	0.0174052
827.879	0.0173296
827.957	0.0173533
828.035	0.0173589
828.113	0.0174311
828.192	0.0173535
828.270	0.0173505
828.348	0.0173888
828.426	0.0173769
828.504	0.0173744
828.582	0.0174770
828.660	0.0175437
828.738	0.0175945
828.817	0.0176833
828.895	0.0178455
828.973	0.0177634
829.051	0.0178516
829.129	0.0179014
829.207	0.0180953
829.285	0.0179621
829.363	0.0181887
829.442	0.0182693
829.520	0.0182375
829.598	0.0182759
829.676	0.0183721
829.754	0.0183612
829.832	0.0182574
829.910	0.0184376
829.988	0.0184161
830.067	0.0183218
830.145	0.0182109
830.223	0.0183172
830.301	0.0184165
830.379	0.0183190
830.457	0.0184064
830.535	0.0183186
830.613	0.0182241
830.692	0.0184241
830.770	0.0182970
830.848	0.0182800
830.926	0.0185204
831.004	0.0184542
831.082	0.0184731
831.160	0.0184238
831.238	0.0185952
831.317	0.0186431
831.395	0.0185016
831.473	0.0186786
831.551	0.0186299
831.629	0.0188255
831.707	0.0186443
831.785	0.0186702
831.863	0.0186137
831.942	0.0186187
832.020	0.0184927
832.098	0.0187390
832.176	0.0185087
832.254	0.0185228
832.332	0.0184780
832.410	0.0184595
832.488	0.0184574
832.567	0.0185157
832.645	0.0184670
832.723	0.0184747
832.801	0.0185181
832.879	0.0184504
832.957	0.0183099
833.035	0.0185274
833.113	0.0183389
833.192	0.0184221
833.270	0.0183406
833.348	0.0182752
833.426	0.0181937
833.504	0.0182980
833.582	0.0181545
833.660	0.0182660
833.738	0.0181902
833.817	0.0180476
833.895	0.0182481
833.973	0.0179979
834.051	0.0180242
834.129	0.0180108
834.207	0.0178841
834.285	0.0178053
834.363	0.0177611
834.442	0.0177386
834.520	0.0177673
834.598	0.0176233
834.676	0.0177519
834.754	0.0176952
834.832	0.0175253
834.910	0.0175755
834.988	0.0176090
835.067	0.0174871
835.145	0.0175582
835.223	0.0175601
835.301	0.0175642
835.379	0.0175258
835.457	0.0175358
835.535	0.0176026
835.613	0.0174618
835.692	0.0175133
835.770	0.0174944
835.848	0.0175019
835.926	0.0177027
836.004	0.0175018
836.082	0.0177440
836.160	0.0176502
836.238	0.0176917
836.317	0.0177921
836.395	0.0177970
836.473	0.0179306
836.551	0.0178660
836.629	0.0179804
836.707	0.0180533
836.785	0.0180209
836.863	0.0180231
836.942	0.0180004
837.020	0.0179250
837.098	0.0180026
837.176	0.0180242
837.254	0.0182248
837.332	0.0181200
837.410	0.0179889
837.488	0.0181580
837.567	0.0181100
837.645	0.0180665
837.723	0.0181516
837.801	0.0181091
837.879	0.0180649
837.957	0.0180760
838.035	0.0181779
838.113	0.0180661
838.192	0.0180949
838.270	0.0181065
838.348	0.0180466
838.426	0.0181040
838.504	0.0182542
838.582	0.0182349
838.660	0.0184199
838.738	0.0182478
838.817	0.0182701
838.895	0.0185479
838.973	0.0183134
839.051	0.0183849
839.129	0.0182847
839.207	0.0183791
839.285	0.0185297
839.363	0.0184812
839.442	0.0183192
839.520	0.0184359
839.598	0.0185119
839.676	0.0184686
839.754	0.0185767
839.832	0.0184173
839.910	0.0183293
839.988	0.0182882
840.067	0.0182590
840.145	0.0184322
840.223	0.0182800
840.301	0.0182764
840.379	0.0183275
840.457	0.0182980
840.535	0.0182568
840.613	0.0184077
840.692	0.0184259
840.770	0.0182860
840.848	0.0182812
840.926	0.0184382
841.004	0.0183956
841.082	0.0183575
841.160	0.0185035
841.238	0.0183799
841.317	0.0184009
841.395	0.0182397
841.473	0.0183042
841.551	0.0182972
841.629	0.0182629
841.707	0.0182606
841.785	0.0180464
841.863	0.0181996
841.942	0.0180545
842.020	0.0180917
842.098	0.0180453
842.176	0.0178593
842.254	0.0180151
842.332	0.0177831
842.410	0.0178764
842.488	0.0177637
842.567	0.0176567
842.645	0.0176403
842.723	0.0174743
842.801	0.0174916
842.879	0.0174554
842.957	0.0175344
843.035	0.0175191
843.113	0.0175205
843.192	0.0173038
843.270	0.0173338
843.348	0.0173197
843.426	0.0172791
843.504	0.0174177
843.582	0.0174124
843.660	0.0173409
843.738	0.0173044
843.817	0.0173540
843.895	0.0174289
843.973	0.0176000
844.051	0.0176080
844.129	0.0177560
844.207	0.0178122
844.285	0.0180247
844.363	0.0181681
844.442	0.0180588
844.520	0.0181571
844.598	0.0183030
844.676	0.0183344
844.754	0.0183026
844.832	0.0182291
844.910	0.0184521
844.988	0.0183092
845.067	0.0184056
845.145	0.0182516
845.223	0.0182169
845.301	0.0182507
845.379	0.0182330
845.457	0.0181703
845.535	0.0181902
845.613	0.0181932
845.692	0.0181509
845.770	0.0181540
845.848	0.0181149
845.926	0.0181242
846.004	0.0179259
846.082	0.0180338
846.160	0.0182246
846.238	0.0181927
846.317	0.0182117
846.395	0.0183642
846.473	0.0183501
846.551	0.0182542
846.629	0.0184927
846.707	0.0185332
846.785	0.0185397
846.863	0.0184757
846.942	0.0185781
847.020	0.0186426
847.098	0.0186717
847.176	0.0186472
847.254	0.0186443
847.332	0.0185207
847.410	0.0185120
847.488	0.0184240
847.567	0.0184673
847.645	0.0184445
847.723	0.0184896
847.801	0.0185179
847.879	0.0183566
847.957	0.0183286
848.035	0.0184921
848.113	0.0182549
848.192	0.0182649
848.270	0.0182346
848.348	0.0182372
848.426	0.0183643
848.504	0.0183564
848.582	0.0183558
848.660	0.0183184
848.738	0.0182831
848.817	0.0182919
848.895	0.0182002
848.973	0.0182660
849.051	0.0184434
849.129	0.0182678
849.207	0.0183662
849.285	0.0183433
849.363	0.0183823
849.442	0.0182764
849.520	0.0181817
849.598	0.0183020
849.676	0.0182581
849.754	0.0179945
849.832	0.0181656
849.910	0.0179266
849.988	0.0177295
850.067	0.0180651
850.145	0.0179086
850.223	0.0179131
850.301	0.0178236
850.379	0.0177019
850.457	0.0176405
850.535	0.0177651
850.613	0.0176644
850.692	0.0174976
850.770	0.0175430
850.848	0.0174787
850.926	0.0174435
851.004	0.0174947
851.082	0.0175922
851.160	0.0175024
851.238	0.0174983
851.317	0.0176195
851.395	0.0175564
851.473	0.0176483
851.551	0.0176968
851.629	0.0177110
851.707	0.0178155
851.785	0.0179398
851.863	0.0179881
851.942	0.0181293
852.020	0.0181465
852.098	0.0182033
852.176	0.0183609
852.254	0.0183004
852.332	0.0184136
852.410	0.0183549
852.488	0.0183801
852.567	0.0184431
852.645	0.0185273
852.723	0.0185120
852.801	0.0185242
852.879	0.0184697
852.957	0.0184012
853.035	0.0183764
853.113	0.0183231
853.192	0.0182989
853.270	0.0181597
853.348	0.0181085
853.426	0.0180652
853.504	0.0180467
853.582	0.0181358
853.660	0.0181297
853.738	0.0180209
853.817	0.0180032
853.895	0.0180537
853.973	0.0180844
854.051	0.0180896
854.129	0.0181016
854.207	0.0180856
854.285	0.0181046
854.363	0.0182293
854.442	0.0182907
854.520	0.0180653
854.598	0.0182624
854.676	0.0182368
854.754	0.0182489
854.832	0.0182502
854.910	0.0182785
854.988	0.0182716
855.067	0.0181021
855.145	0.0182308
855.223	0.0183849
855.301	0.0182749
855.379	0.0182230
855.457	0.0181967
855.535	0.0182540
855.613	0.0182516
855.692	0.0181299
855.770	0.0183688
855.848	0.0182081
855.926	0.0182487
856.004	0.0181905
856.082	0.0181691
856.160	0.0181834
856.238	0.0181636
856.317	0.0180343
856.395	0.0181739
856.473	0.0182366
856.551	0.0181756
856.629	0.0181721
856.707	0.0181710
856.785	0.0181249
856.863	0.0180679
856.942	0.0181719
857.020	0.0182721
857.098	0.0183353
857.176	0.0182047
857.254	0.0182770
857.332	0.0183350
857.410	0.0183203
857.488	0.0182620
857.567	0.0182992
857.645	0.0183092
857.723	0.0182552
857.801	0.0181913
857.879	0.0182069
857.957	0.0181985
858.035	0.0179337
858.113	0.0179611
858.192	0.0178680
858.270	0.0180174
858.348	0.0178682
858.426	0.0177806
858.504	0.0177164
858.582	0.0176057
858.660	0.0175739
858.738	0.0177000
858.817	0.0175893
858.895	0.0176427
858.973	0.0176781
859.051	0.0175255
859.129	0.0175231
859.207	0.0176003
859.285	0.0176507
859.363	0.0176694
859.442	0.0177874
859.520	0.0177316
859.598	0.0177107
859.676	0.0179142
859.754	0.0178983
859.832	0.0179484
859.910	0.0179885
859.988	0.0182793
860.067	0.0181847
860.145	0.0182028
860.223	0.0181855
860.301	0.0182530
860.379	0.0182963
860.457	0.0181979
860.535	0.0183024
860.613	0.0181979
860.692	0.0182980
860.770	0.0183392
860.848	0.0180969
860.926	0.0182109
861.004	0.0182733
861.082	0.0181751
861.160	0.0181622
861.238	0.0179400
861.317	0.0181708
861.395	0.0181075
861.473	0.0179773
861.551	0.0179964
861.629	0.0179435
861.707	0.0180206
861.785	0.0179465
861.863	0.0179702
861.942	0.0178198
862.020	0.0177540
862.098	0.0179530
862.176	0.0179393
862.254	0.0180019
862.332	0.0180014
862.410	0.0178613
862.488	0.0180373
862.567	0.0179778
862.645	0.0180224
862.723	0.0182388
862.801	0.0182254
862.879	0.0182417
862.957	0.0181155
863.035	0.0182872
863.113	0.0182217
863.192	0.0182156
863.270	0.0183391
863.348	0.0182697
863.426	0.0183884
863.504	0.0183165
863.582	0.0182274
863.660	0.0182594
863.738	0.0183058
863.817	0.0182280
863.895	0.0182333
863.973	0.0181362
864.051	0.0182267
864.129	0.0182710
864.207	0.0180544
864.285	0.0180538
864.363	0.0181162
864.442	0.0180545
864.520	0.0180060
864.598	0.0180978
864.676	0.0180887
864.754	0.0181596
864.832	0.0181552
864.910	0.0181728
864.988	0.0181639
865.067	0.0181116
865.145	0.0182329
865.223	0.0182774
865.301	0.0182570
865.379	0.0181578
865.457	0.0182341
865.535	0.0183163
865.613	0.0180807
865.692	0.0181993
865.770	0.0181596
865.848	0.0180903
865.926	0.0181177
866.004	0.0180588
866.082	0.0180232
866.160	0.0179118
866.238	0.0178083
866.317	0.0178626
866.395	0.0178141
866.473	0.0178793
866.551	0.0176984
866.629	0.0177228
866.707	0.0178339
866.785	0.0178807
866.863	0.0176958
866.942	0.0177194
867.020	0.0176463
867.098	0.0176756
867.176	0.0177724
867.254	0.0178349
867.332	0.0177612
867.410	0.0179676
867.488	0.0179382
867.567	0.0179029
867.645	0.0179322
867.723	0.0179699
867.801	0.0180904
867.879	0.0180331
867.957	0.0181129
868.035	0.0181347
868.113	0.0182799
868.192	0.0183424
868.270	0.0182573
868.348	0.0183376
868.426	0.0182619
868.504	0.0183248
868.582	0.0183530
868.660	0.0183640
868.738	0.0183793
868.817	0.0183727
868.895	0.0182093
868.973	0.0183577
869.051	0.0183230
869.129	0.0182513
869.207	0.0183163
869.285	0.0182120
869.363	0.0182011
869.442	0.0179389
869.520	0.0180811
869.598	0.0180544
869.676	0.0180618
869.754	0.0179688
869.832	0.0180254
869.910	0.0178942
869.988	0.0180702
870.067	0.0178770
870.145	0.0179820
870.223	0.0179126
870.301	0.0179510
870.379	0.0180952
870.457	0.0180624
870.535	0.0181915
870.613	0.0180994
870.692	0.0179980
870.770	0.0181518
870.848	0.0183076
870.926	0.0181829
871.004	0.0181944
871.082	0.0180730
871.160	0.0183147
871.238	0.0182253
871.317	0.0180952
871.395	0.0182739
871.473	0.0182839
871.551	0.0182244
871.629	0.0182594
871.707	0.0182596
871.785	0.0181593
871.863	0.0182119
871.942	0.0181389
872.020	0.0181654
872.098	0.0182249
872.176	0.0181712
872.254	0.0181836
872.332	0.0182303
872.410	0.0182139
872.488	0.0181832
872.567	0.0180553
872.645	0.0180351
872.723	0.0181905
872.801	0.0183141
872.879	0.0182393
872.957	0.0181950
873.035	0.0181454
873.113	0.0182584
873.192	0.0182314
873.270	0.0181042
873.348	0.0182388
873.426	0.0182899
873.504	0.0182085
873.582	0.0181783
873.660	0.0182215
873.738	0.0180766
873.817	0.0181085
873.895	0.0181632
873.973	0.0180472
874.051	0.0179203
874.129	0.0180573
874.207	0.0179287
874.285	0.0179508
874.363	0.0180000
874.442	0.0179594
874.520	0.0178202
874.598	0.0178589
874.676	0.0179478
874.754	0.0179111
874.832	0.0179400
874.910	0.0179053
874.988	0.0178721
875.067	0.0179010
875.145	0.0179687
875.223	0.0179417
875.301	0.0179958
875.379	0.0179518
875.457	0.0179310
875.535	0.0180299
875.613	0.0180367
875.692	0.0179882
875.770	0.0181384
875.848	0.0182480
875.926	0.0181019
876.004	0.0182363
876.082	0.0182365
876.160	0.0182722
876.238	0.0182117
876.317	0.0183884
876.395	0.0183160
876.473	0.0183415
876.551	0.0183831
876.629	0.0182402
876.707	0.0184556
876.785	0.0183879
876.863	0.0183030
876.942	0.0183331
877.020	0.0182321
877.098	0.0182103
877.176	0.0182958
877.254	0.0181656
877.332	0.0180029
877.410	0.0182033
877.488	0.0182034
877.567	0.0181721
877.645	0.0181452
877.723	0.0180258
877.801	0.0179800
877.879	0.0178100
877.957	0.0179611
878.035	0.0178975
878.113	0.0178463
878.192	0.0179167
878.270	0.0179898
878.348	0.0179559
878.426	0.0179989
878.504	0.0179262
878.582	0.0179208
878.660	0.0178651
878.738	0.0178851
878.817	0.0180357
878.895	0.0180839
878.973	0.0179708
879.051	0.0179172
879.129	0.0180281
879.207	0.0181264
879.285	0.0181866
879.363	0.0181477
879.442	0.0181641
879.520	0.0181630
879.598	0.0182140
879.676	0.0182395
879.754	0.0181951
879.832	0.0182702
879.910	0.0181738
879.988	0.0181583
880.067	0.0182431
880.145	0.0182734
880.223	0.0182603
880.301	0.0182677
880.379	0.0183276
880.457	0.0183015
880.535	0.0182378
880.613	0.0182549
880.692	0.0181078
880.770	0.0181051
880.848	0.0181113
880.926	0.0181075
881.004	0.0181467
881.082	0.0179652
881.160	0.0181774
881.238	0.0180441
881.317	0.0181158
881.395	0.0181829
881.473	0.0180375
881.551	0.0179760
881.629	0.0178635
881.707	0.0179192
881.785	0.0180156
881.863	0.0180171
881.942	0.0180468
882.020	0.0181501
882.098	0.0179893
882.176	0.0179865
882.254	0.0179670
882.332	0.0179089
882.410	0.0179718
882.488	0.0179843
882.567	0.0179276
882.645	0.0180035
882.723	0.0179414
882.801	0.0178879
882.879	0.0179649
882.957	0.0180473
883.035	0.0179329
883.113	0.0181195
883.192	0.0180990
883.270	0.0181201
883.348	0.0181685
883.426	0.0182133
883.504	0.0181419
883.582	0.0181850
883.660	0.0181755
883.738	0.0183046
883.817	0.0182919
883.895	0.0182422
883.973	0.0182543
884.051	0.0180791
884.129	0.0183331
884.207	0.0182103
884.285	0.0182004
884.363	0.0180427
884.442	0.0182912
884.520	0.0182970
884.598	0.0181002
884.676	0.0181807
884.754	0.0182303
884.832	0.0181438
884.910	0.0182657
884.988	0.0179535
885.067	0.0181288
885.145	0.0179508
885.223	0.0180227
885.301	0.0179028
885.379	0.0180486
885.457	0.0181349
885.535	0.0179305
885.613	0.0179224
885.692	0.0179307
885.770	0.0178654
885.848	0.0178614
885.926	0.0178812
886.004	0.0179238
886.082	0.0179401
886.160	0.0177798
886.238	0.0178116
886.317	0.0177821
886.395	0.0179375
886.473	0.0180650
886.551	0.0180636
886.629	0.0180471
886.707	0.0181129
886.785	0.0180240
886.863	0.0179969
886.942	0.0180762
887.020	0.0181255
887.098	0.0181750
887.176	0.0180634
887.254	0.0182009
887.332	0.0181783
887.410	0.0181729
887.488	0.0182341
887.567	0.0182951
887.645	0.0182986
887.723	0.0182103
887.801	0.0183135
887.879	0.0182444
887.957	0.0181937
888.035	0.0180836
888.113	0.0180470
888.192	0.0181684
888.270	0.0181255
888.348	0.0181310
888.426	0.0180524
888.504	0.0181671
888.582	0.0180551
888.660	0.0180569
888.738	0.0180161
888.817	0.0180625
888.895	0.0180508
888.973	0.0180775
889.051	0.0181004
889.129	0.0179552
889.207	0.0179753
889.285	0.0181604
889.363	0.0181906
889.442	0.0180154
889.520	0.0181913
889.598	0.0181821
889.676	0.0182747
889.754	0.0181883
889.832	0.0180835
889.910	0.0181287
889.988	0.0183299
890.067	0.0182097
890.145	0.0182147
890.223	0.0182291
890.301	0.0181325
890.379	0.0182228
890.457	0.0181677
890.535	0.0181936
890.613	0.0182777
890.692	0.0181344
890.770	0.0182105
890.848	0.0181628
890.926	0.0182007
891.004	0.0182206
891.082	0.0182118
891.160	0.0181949
891.238	0.0182793
891.317	0.0183290
891.395	0.0181775
891.473	0.0182070
891.551	0.0181882
891.629	0.0181722
891.707	0.0181843
891.785	0.0181332
891.863	0.0180901
891.942	0.0182915
892.020	0.0181362
892.098	0.0181059
892.176	0.0181103
892.254	0.0181531
892.332	0.0181193
892.410	0.0181431
892.488	0.0181428
892.567	0.0179402
892.645	0.0180175
892.723	0.0180436
892.801	0.0180630
892.879	0.0180717
892.957	0.0179773
893.035	0.0179636
893.113	0.0178841
893.192	0.0178907
893.270	0.0178616
893.348	0.0179124
893.426	0.0179447
893.504	0.0180274
893.582	0.0180377
893.660	0.0179212
893.738	0.0179392
893.817	0.0179222
893.895	0.0180182
893.973	0.0180553
894.051	0.0179888
894.129	0.0180850
894.207	0.0180090
894.285	0.0181180
894.363	0.0181662
894.442	0.0181608
894.520	0.0181818
894.598	0.0182005
894.676	0.0181731
894.754	0.0181946
894.832	0.0183354
894.910	0.0183089
894.988	0.0183301
895.067	0.0181818
895.145	0.0182761
895.223	0.0183234
895.301	0.0183462
895.379	0.0183846
895.457	0.0183137
895.535	0.0183110
895.613	0.0181757
895.692	0.0183656
895.770	0.0181521
895.848	0.0182284
895.926	0.0180905
896.004	0.0181149
896.082	0.0181232
896.160	0.0180810
896.238	0.0180025
896.317	0.0179079
896.395	0.0180427
896.473	0.0179774
896.551	0.0180233
896.629	0.0179013
896.707	0.0179887
896.785	0.0179437
896.863	0.0179449
896.942	0.0179407
897.020	0.0179803
897.098	0.0179572
897.176	0.0178642
897.254	0.0179959
897.332	0.0180596
897.410	0.0179858
897.488	0.0180770
897.567	0.0180597
897.645	0.0179737
897.723	0.0180111
897.801	0.0179742
897.879	0.0179945
897.957	0.0181261
898.035	0.0180162
898.113	0.0180335
898.192	0.0181394
898.270	0.0180775
898.348	0.0180251
898.426	0.0181046
898.504	0.0182127
898.582	0.0182704
898.660	0.0181518
898.738	0.0183627
898.817	0.0184161
898.895	0.0181097
898.973	0.0181424
899.051	0.0181686
899.129	0.0183137
899.207	0.0183524
899.285	0.0182332
899.363	0.0182560
899.442	0.0181969
899.520	0.0182146
899.598	0.0182126
899.676	0.0180332
899.754	0.0181884
899.832	0.0180910
899.910	0.0181361
899.988	0.0181740
900.067	0.0181461
900.145	0.0181104
900.223	0.0180120
900.301	0.0180261
900.379	0.0181055
900.457	0.0181002
900.535	0.0180443
900.613	0.0180037
900.692	0.0179846
900.770	0.0180876
900.848	0.0180810
900.926	0.0180383
901.004	0.0180267
901.082	0.0180513
901.160	0.0179628
901.238	0.0180714
901.317	0.0179867
901.395	0.0179224
901.473	0.0180332
901.551	0.0180099
901.629	0.0179433
901.707	0.0178733
901.785	0.0180201
901.863	0.0177540
901.942	0.0178601
902.020	0.0178899
902.098	0.0178553
902.176	0.0178735
902.254	0.0180208
902.332	0.0179193
902.410	0.0178012
902.488	0.0179263
902.567	0.0180650
902.645	0.0180740
902.723	0.0179600
902.801	0.0180652
902.879	0.0179539
902.957	0.0181746
903.035	0.0182310
903.113	0.0182497
903.192	0.0181912
903.270	0.0181931
903.348	0.0183344
903.426	0.0183639
903.504	0.0183049
903.582	0.0182164
903.660	0.0182137
903.738	0.0183234
903.817	0.0183166
903.895	0.0182843
903.973	0.0182636
904.051	0.0182674
904.129	0.0182726
904.207	0.0181886
904.285	0.0182246
904.363	0.0181216
904.442	0.0182541
904.520	0.0182863
904.598	0.0182442
904.676	0.0182242
904.754	0.0182104
904.832	0.0182031
904.910	0.0181194
904.988	0.0180874
905.067	0.0181493
905.145	0.0181231
905.223	0.0181966
905.301	0.0182593
905.379	0.0182343
905.457	0.0181356
905.535	0.0181207
905.613	0.0181644
905.692	0.0182468
905.770	0.0180736
905.848	0.0182069
905.926	0.0180561
906.004	0.0180698
906.082	0.0182317
906.160	0.0182655
906.238	0.0182898
906.317	0.0181813
906.395	0.0180969
906.473	0.0181570
906.551	0.0181570
906.629	0.0182843
906.707	0.0182523
906.785	0.0182368
906.863	0.0182526
906.942	0.0183909
907.020	0.0185721
907.098	0.0181262
907.176	0.0182987
907.254	0.0183772
907.332	0.0182871
907.410	0.0183132
907.488	0.0183145
907.567	0.0182247
907.645	0.0181908
907.723	0.0182438
907.801	0.0182124
907.879	0.0182451
907.957	0.0181170
908.035	0.0180586
908.113	0.0178613
908.192	0.0179357
908.270	0.0179758
908.348	0.0177597
908.426	0.0178675
908.504	0.0177792
908.582	0.0176033
908.660	0.0176752
908.738	0.0177996
908.817	0.0177557
908.895	0.0176504
908.973	0.0177129
909.051	0.0176616
909.129	0.0177029
909.207	0.0177518
909.285	0.0177841
909.363	0.0177827
909.442	0.0178642
909.520	0.0178030
909.598	0.0180763
909.676	0.0179044
909.754	0.0179008
909.832	0.0180324
909.910	0.0180087
909.988	0.0180183
910.067	0.0181163
910.145	0.0180967
910.223	0.0181586
910.301	0.0181270
910.379	0.0181242
910.457	0.0182124
910.535	0.0181404
910.613	0.0182359
910.692	0.0182143
910.770	0.0180139
910.848	0.0182010
910.926	0.0182686
911.004	0.0181210
911.082	0.0181704
911.160	0.0180263
911.238	0.0180491
911.317	0.0180692
911.395	0.0181378
911.473	0.0180592
911.551	0.0182665
911.629	0.0181960
911.707	0.0183956
911.785	0.0183257
911.863	0.0180737
911.942	0.0180251
912.020	0.0182279
912.098	0.0182790
912.176	0.0183013
912.254	0.0182497
912.332	0.0181438
912.410	0.0181401
912.488	0.0183383
912.567	0.0183208
912.645	0.0183173
912.723	0.0183448
912.801	0.0182996
912.879	0.0181821
912.957	0.0182134
913.035	0.0182626
913.113	0.0182114
913.192	0.0181921
913.270	0.0182224
913.348	0.0182964
913.426	0.0182540
913.504	0.0181959
913.582	0.0182987
913.660	0.0182702
913.738	0.0182845
913.817	0.0182338
913.895	0.0182593
913.973	0.0183105
914.051	0.0182590
914.129	0.0181717
914.207	0.0182040
914.285	0.0183196
914.363	0.0183170
914.442	0.0180632
914.520	0.0180576
914.598	0.0182067
914.676	0.0182191
914.754	0.0182884
914.832	0.0182256
914.910	0.0181019
914.988	0.0181625
915.067	0.0182719
915.145	0.0181376
915.223	0.0180906
915.301	0.0178289
915.379	0.0180316
915.457	0.0181285
915.535	0.0181352
915.613	0.0181287
915.692	0.0181815
915.770	0.0180668
915.848	0.0179661
915.926	0.0181429
916.004	0.0180466
916.082	0.0179675
916.160	0.0178158
916.238	0.0177425
916.317	0.0178682
916.395	0.0179666
916.473	0.0178590
916.551	0.0176773
916.629	0.0178424
916.707	0.0179058
916.785	0.0179114
916.863	0.0178572
916.942	0.0178110
917.020	0.0178511
917.098	0.0177825
917.176	0.0178743
917.254	0.0178744
917.332	0.0179707
917.410	0.0179257
917.488	0.0179266
917.567	0.0180392
917.645	0.0179965
917.723	0.0180208
917.801	0.0181301
917.879	0.0181067
917.957	0.0181150
918.035	0.0182007
918.113	0.0182039
918.192	0.0181435
918.270	0.0180870
918.348	0.0180936
918.426	0.0180978
918.504	0.0182348
918.582	0.0182783
918.660	0.0182440
918.738	0.0182289
918.817	0.0182790
918.895	0.0182163
918.973	0.0182393
919.051	0.0182371
919.129	0.0181538
919.207	0.0182502
919.285	0.0183295
919.363	0.0181157
919.442	0.0180856
919.520	0.0182920
919.598	0.0180620
919.676	0.0180025
919.754	0.0180685
919.832	0.0182381
919.910	0.0180585
