06/01/2022	22:00:23	Ver.	4.1	UNKNOWN
Optical Delay	599.988409	Delta X		0.078125	Sweeps	1	Scan Rate	0/0
Coordinates	Axis 1	NaN	Axis 2	NaN	Axis 3	NaN	Axis 4	NaN	Axis 5	NaN	Axis 6	0.000000
TX Power	0.000000	RX Power	0.000000

599.988	0.0175137
600.067	0.0175176
600.145	0.0175144
600.223	0.0174315
600.301	0.0173873
600.379	0.0176193
600.457	0.0176097
600.535	0.0175898
600.613	0.0175405
600.692	0.0176366
600.770	0.0173390
600.848	0.0174691
600.926	0.0175517
601.004	0.0175562
601.082	0.0174237
601.160	0.0173005
601.238	0.0175045
601.317	0.0176678
601.395	0.0175246
601.473	0.0175426
601.551	0.0175069
601.629	0.0175677
601.707	0.0175275
601.785	0.0175221
601.863	0.0175603
601.942	0.0176622
602.020	0.0176165
602.098	0.0175395
602.176	0.0175080
602.254	0.0175244
602.332	0.0175210
602.410	0.0175738
602.488	0.0175370
602.567	0.0176206
602.645	0.0176542
602.723	0.0174986
602.801	0.0175784
602.879	0.0176398
602.957	0.0176443
603.035	0.0175138
603.113	0.0174502
603.192	0.0174697
603.270	0.0175617
603.348	0.0175472
603.426	0.0175245
603.504	0.0175857
603.582	0.0176209
603.660	0.0176023
603.738	0.0175247
603.817	0.0176638
603.895	0.0175740
603.973	0.0174184
604.051	0.0175857
604.129	0.0175550
604.207	0.0175086
604.285	0.0175309
604.363	0.0175439
604.442	0.0175992
604.520	0.0175935
604.598	0.0176727
604.676	0.0176196
604.754	0.0176236
604.832	0.0176252
604.910	0.0175457
604.988	0.0174872
605.067	0.0176492
605.145	0.0175947
605.223	0.0175760
605.301	0.0176254
605.379	0.0176557
605.457	0.0175828
605.535	0.0174876
605.613	0.0174879
605.692	0.0175714
605.770	0.0176022
605.848	0.0175803
605.926	0.0176000
606.004	0.0177275
606.082	0.0176692
606.160	0.0176391
606.238	0.0175923
606.317	0.0175856
606.395	0.0176226
606.473	0.0176537
606.551	0.0176099
606.629	0.0174398
606.707	0.0177893
606.785	0.0177461
606.863	0.0175365
606.942	0.0176081
607.020	0.0175940
607.098	0.0176535
607.176	0.0175700
607.254	0.0175426
607.332	0.0176561
607.410	0.0175304
607.488	0.0175841
607.567	0.0176060
607.645	0.0175480
607.723	0.0175111
607.801	0.0176667
607.879	0.0175756
607.957	0.0176985
608.035	0.0176172
608.113	0.0176218
608.192	0.0175752
608.270	0.0176846
608.348	0.0176455
608.426	0.0176171
608.504	0.0176542
608.582	0.0176785
608.660	0.0175880
608.738	0.0174223
608.817	0.0174473
608.895	0.0174942
608.973	0.0174274
609.051	0.0175347
609.129	0.0175237
609.207	0.0174486
609.285	0.0175566
609.363	0.0175588
609.442	0.0175461
609.520	0.0175769
609.598	0.0174971
609.676	0.0174690
609.754	0.0175347
609.832	0.0174704
609.910	0.0173861
609.988	0.0176466
610.067	0.0175163
610.145	0.0175832
610.223	0.0176788
610.301	0.0175433
610.379	0.0176536
610.457	0.0175425
610.535	0.0175180
610.613	0.0176985
610.692	0.0175112
610.770	0.0176987
610.848	0.0177360
610.926	0.0175498
611.004	0.0176787
611.082	0.0176320
611.160	0.0178849
611.238	0.0176731
611.317	0.0176035
611.395	0.0176233
611.473	0.0175392
611.551	0.0174776
611.629	0.0175540
611.707	0.0176157
611.785	0.0175164
611.863	0.0174840
611.942	0.0176064
612.020	0.0174870
612.098	0.0175611
612.176	0.0176895
612.254	0.0175937
612.332	0.0174514
612.410	0.0174955
612.488	0.0175094
612.567	0.0175452
612.645	0.0174713
612.723	0.0174279
612.801	0.0176035
612.879	0.0174438
612.957	0.0174805
613.035	0.0174966
613.113	0.0176405
613.192	0.0175873
613.270	0.0176160
613.348	0.0175484
613.426	0.0175582
613.504	0.0176700
613.582	0.0175289
613.660	0.0174936
613.738	0.0174356
613.817	0.0175873
613.895	0.0175843
613.973	0.0175912
614.051	0.0175877
614.129	0.0176440
614.207	0.0175188
614.285	0.0176495
614.363	0.0175916
614.442	0.0175377
614.520	0.0176299
614.598	0.0176192
614.676	0.0175563
614.754	0.0175041
614.832	0.0175740
614.910	0.0176912
614.988	0.0176620
615.067	0.0175694
615.145	0.0176165
615.223	0.0176043
615.301	0.0175919
615.379	0.0177157
615.457	0.0176790
615.535	0.0178234
615.613	0.0176127
615.692	0.0176579
615.770	0.0177425
615.848	0.0176485
615.926	0.0177847
616.004	0.0177289
616.082	0.0176836
616.160	0.0176844
616.238	0.0177852
616.317	0.0176124
616.395	0.0176891
616.473	0.0175598
616.551	0.0175612
616.629	0.0176030
616.707	0.0176023
616.785	0.0176828
616.863	0.0175706
616.942	0.0176757
617.020	0.0176677
617.098	0.0175875
617.176	0.0175358
617.254	0.0176527
617.332	0.0176778
617.410	0.0176160
617.488	0.0176214
617.567	0.0177998
617.645	0.0174981
617.723	0.0175672
617.801	0.0176275
617.879	0.0176554
617.957	0.0175520
618.035	0.0174512
618.113	0.0176106
618.192	0.0176978
618.270	0.0175338
618.348	0.0175317
618.426	0.0173498
618.504	0.0174377
618.582	0.0174519
618.660	0.0174235
618.738	0.0174532
618.817	0.0173850
618.895	0.0175417
618.973	0.0175623
619.051	0.0174489
619.129	0.0174912
619.207	0.0174783
619.285	0.0175764
619.363	0.0175608
619.442	0.0174924
619.520	0.0174840
619.598	0.0174776
619.676	0.0175346
619.754	0.0175588
619.832	0.0175537
619.910	0.0174367
619.988	0.0175047
620.067	0.0174508
620.145	0.0175967
620.223	0.0175808
620.301	0.0174883
620.379	0.0174357
620.457	0.0173500
620.535	0.0174415
620.613	0.0174852
620.692	0.0174038
620.770	0.0174349
620.848	0.0175755
620.926	0.0173818
621.004	0.0172435
621.082	0.0174816
621.160	0.0174705
621.238	0.0174081
621.317	0.0173988
621.395	0.0174585
621.473	0.0174139
621.551	0.0172871
621.629	0.0172864
621.707	0.0172337
621.785	0.0173762
621.863	0.0173817
621.942	0.0173675
622.020	0.0175108
622.098	0.0174429
622.176	0.0173760
622.254	0.0174217
622.332	0.0173482
622.410	0.0173736
622.488	0.0174988
622.567	0.0175789
622.645	0.0174390
622.723	0.0174202
622.801	0.0175517
622.879	0.0174644
622.957	0.0175530
623.035	0.0175429
623.113	0.0176266
623.192	0.0174824
623.270	0.0175898
623.348	0.0175610
623.426	0.0174335
623.504	0.0174513
623.582	0.0174164
623.660	0.0173736
623.738	0.0174232
623.817	0.0175091
623.895	0.0175153
623.973	0.0173809
624.051	0.0175240
624.129	0.0176552
624.207	0.0175534
624.285	0.0176195
624.363	0.0174629
624.442	0.0175759
624.520	0.0176752
624.598	0.0176912
624.676	0.0176292
624.754	0.0176909
624.832	0.0177435
624.910	0.0175597
624.988	0.0176356
625.067	0.0175711
625.145	0.0174855
625.223	0.0175769
625.301	0.0174936
625.379	0.0175166
625.457	0.0174526
625.535	0.0175599
625.613	0.0174818
625.692	0.0174502
625.770	0.0174303
625.848	0.0174241
625.926	0.0176646
626.004	0.0175620
626.082	0.0175186
626.160	0.0175719
626.238	0.0175728
626.317	0.0174747
626.395	0.0175977
626.473	0.0175832
626.551	0.0176231
626.629	0.0174599
626.707	0.0175253
626.785	0.0175772
626.863	0.0177206
626.942	0.0175909
627.020	0.0175745
627.098	0.0177438
627.176	0.0175558
627.254	0.0175603
627.332	0.0175131
627.410	0.0176397
627.488	0.0175810
627.567	0.0174760
627.645	0.0174988
627.723	0.0175575
627.801	0.0175218
627.879	0.0175700
627.957	0.0175127
628.035	0.0174767
628.113	0.0175212
628.192	0.0174274
628.270	0.0174645
628.348	0.0175610
628.426	0.0177122
628.504	0.0176147
628.582	0.0176144
628.660	0.0176959
628.738	0.0176949
628.817	0.0177155
628.895	0.0175960
628.973	0.0176208
629.051	0.0175400
629.129	0.0176012
629.207	0.0174991
629.285	0.0175431
629.363	0.0174534
629.442	0.0174794
629.520	0.0174246
629.598	0.0174634
629.676	0.0174281
629.754	0.0175450
629.832	0.0175874
629.910	0.0175244
629.988	0.0174054
630.067	0.0175584
630.145	0.0175568
630.223	0.0176000
630.301	0.0175536
630.379	0.0174920
630.457	0.0176695
630.535	0.0176025
630.613	0.0175616
630.692	0.0176751
630.770	0.0175904
630.848	0.0175382
630.926	0.0176279
631.004	0.0174512
631.082	0.0174868
631.160	0.0174469
631.238	0.0176093
631.317	0.0175539
631.395	0.0174282
631.473	0.0175127
631.551	0.0175043
631.629	0.0174952
631.707	0.0175370
631.785	0.0176464
631.863	0.0175729
631.942	0.0175789
632.020	0.0175890
632.098	0.0175903
632.176	0.0175893
632.254	0.0175848
632.332	0.0175980
632.410	0.0175742
632.488	0.0175889
632.567	0.0175246
632.645	0.0176318
632.723	0.0175901
632.801	0.0174380
632.879	0.0175644
632.957	0.0175361
633.035	0.0175066
633.113	0.0176421
633.192	0.0174997
633.270	0.0174925
633.348	0.0173920
633.426	0.0173989
633.504	0.0175034
633.582	0.0175178
633.660	0.0174106
633.738	0.0176148
633.817	0.0175616
633.895	0.0175298
633.973	0.0175823
634.051	0.0175690
634.129	0.0175230
634.207	0.0176393
634.285	0.0176561
634.363	0.0174687
634.442	0.0175779
634.520	0.0175510
634.598	0.0175221
634.676	0.0175621
634.754	0.0175928
634.832	0.0174792
634.910	0.0175624
634.988	0.0175890
635.067	0.0174545
635.145	0.0174693
635.223	0.0174874
635.301	0.0176389
635.379	0.0174741
635.457	0.0175723
635.535	0.0174536
635.613	0.0175016
635.692	0.0173978
635.770	0.0174373
635.848	0.0176158
635.926	0.0175648
636.004	0.0176090
636.082	0.0174759
636.160	0.0176926
636.238	0.0175648
636.317	0.0175946
636.395	0.0174610
636.473	0.0175134
636.551	0.0176256
636.629	0.0176921
636.707	0.0176103
636.785	0.0175629
636.863	0.0176118
636.942	0.0175351
637.020	0.0175760
637.098	0.0175774
637.176	0.0175560
637.254	0.0175687
637.332	0.0175580
637.410	0.0174600
637.488	0.0176193
637.567	0.0175822
637.645	0.0175237
637.723	0.0175159
637.801	0.0173959
637.879	0.0175532
637.957	0.0175231
638.035	0.0174846
638.113	0.0174226
638.192	0.0174960
638.270	0.0175450
638.348	0.0175573
638.426	0.0174678
638.504	0.0174613
638.582	0.0176061
638.660	0.0175512
638.738	0.0174657
638.817	0.0176059
638.895	0.0174584
638.973	0.0175382
639.051	0.0174758
639.129	0.0175565
639.207	0.0174639
639.285	0.0175652
639.363	0.0176192
639.442	0.0175832
639.520	0.0176005
639.598	0.0174242
639.676	0.0173141
639.754	0.0174934
639.832	0.0176183
639.910	0.0174957
639.988	0.0173477
640.067	0.0174170
640.145	0.0173421
640.223	0.0173820
640.301	0.0173126
640.379	0.0174710
640.457	0.0175352
640.535	0.0173177
640.613	0.0174393
640.692	0.0174944
640.770	0.0173567
640.848	0.0175042
640.926	0.0175475
641.004	0.0175819
641.082	0.0173304
641.160	0.0175947
641.238	0.0176290
641.317	0.0176257
641.395	0.0175552
641.473	0.0175652
641.551	0.0175262
641.629	0.0175989
641.707	0.0175039
641.785	0.0176635
641.863	0.0177254
641.942	0.0176327
642.020	0.0175510
642.098	0.0177648
642.176	0.0176127
642.254	0.0175828
642.332	0.0174726
642.410	0.0175721
642.488	0.0175565
642.567	0.0175000
642.645	0.0176112
642.723	0.0175644
642.801	0.0175842
642.879	0.0175093
642.957	0.0176444
643.035	0.0175343
643.113	0.0175197
643.192	0.0175515
643.270	0.0175623
643.348	0.0174941
643.426	0.0175873
643.504	0.0173822
643.582	0.0174767
643.660	0.0175499
643.738	0.0176247
643.817	0.0173965
643.895	0.0174607
643.973	0.0175683
644.051	0.0176105
644.129	0.0175230
644.207	0.0172956
644.285	0.0174062
644.363	0.0174664
644.442	0.0175587
644.520	0.0173792
644.598	0.0173405
644.676	0.0173161
644.754	0.0173776
644.832	0.0174780
644.910	0.0173854
644.988	0.0174825
645.067	0.0174015
645.145	0.0175177
645.223	0.0175661
645.301	0.0175764
645.379	0.0174836
645.457	0.0174685
645.535	0.0174482
645.613	0.0175064
645.692	0.0175101
645.770	0.0175648
645.848	0.0175404
645.926	0.0173983
646.004	0.0174811
646.082	0.0174617
646.160	0.0174360
646.238	0.0173993
646.317	0.0174614
646.395	0.0173622
646.473	0.0174025
646.551	0.0174375
646.629	0.0173991
646.707	0.0173547
646.785	0.0173595
646.863	0.0175130
646.942	0.0174718
647.020	0.0175116
647.098	0.0176113
647.176	0.0175529
647.254	0.0175473
647.332	0.0174564
647.410	0.0175666
647.488	0.0175792
647.567	0.0175017
647.645	0.0174911
647.723	0.0174577
647.801	0.0174872
647.879	0.0175507
647.957	0.0173642
648.035	0.0175113
648.113	0.0174425
648.192	0.0173120
648.270	0.0173792
648.348	0.0174821
648.426	0.0175755
648.504	0.0175182
648.582	0.0176023
648.660	0.0175368
648.738	0.0175974
648.817	0.0176311
648.895	0.0176299
648.973	0.0176293
649.051	0.0174888
649.129	0.0177019
649.207	0.0176663
649.285	0.0176089
649.363	0.0175518
649.442	0.0175270
649.520	0.0174822
649.598	0.0174825
649.676	0.0174126
649.754	0.0174826
649.832	0.0174682
649.910	0.0173614
649.988	0.0174039
650.067	0.0172193
650.145	0.0172980
650.223	0.0172337
650.301	0.0173450
650.379	0.0172883
650.457	0.0172535
650.535	0.0173107
650.613	0.0174432
650.692	0.0173248
650.770	0.0174565
650.848	0.0174865
650.926	0.0175085
651.004	0.0174615
651.082	0.0175698
651.160	0.0176150
651.238	0.0175428
651.317	0.0174976
651.395	0.0176665
651.473	0.0175663
651.551	0.0176393
651.629	0.0174315
651.707	0.0174679
651.785	0.0175313
651.863	0.0175313
651.942	0.0173734
652.020	0.0175251
652.098	0.0174504
652.176	0.0172984
652.254	0.0174032
652.332	0.0173636
652.410	0.0173014
652.488	0.0173591
652.567	0.0174138
652.645	0.0173399
652.723	0.0173380
652.801	0.0173460
652.879	0.0174669
652.957	0.0173481
653.035	0.0172951
653.113	0.0172945
653.192	0.0173064
653.270	0.0174464
653.348	0.0175200
653.426	0.0173553
653.504	0.0173396
653.582	0.0173335
653.660	0.0172775
653.738	0.0172300
653.817	0.0172258
653.895	0.0173077
653.973	0.0172750
654.051	0.0172518
654.129	0.0172494
654.207	0.0173083
654.285	0.0173544
654.363	0.0172675
654.442	0.0172733
654.520	0.0173700
654.598	0.0173466
654.676	0.0173546
654.754	0.0174019
654.832	0.0175395
654.910	0.0174216
654.988	0.0174216
655.067	0.0176087
655.145	0.0176119
655.223	0.0175199
655.301	0.0176205
655.379	0.0176318
655.457	0.0175578
655.535	0.0175524
655.613	0.0176403
655.692	0.0174139
655.770	0.0176518
655.848	0.0176508
655.926	0.0175540
656.004	0.0174555
656.082	0.0176392
656.160	0.0175779
656.238	0.0175510
656.317	0.0175534
656.395	0.0175513
656.473	0.0175300
656.551	0.0174474
656.629	0.0175719
656.707	0.0175195
656.785	0.0173792
656.863	0.0174821
656.942	0.0174842
657.020	0.0174709
657.098	0.0174539
657.176	0.0173954
657.254	0.0174632
657.332	0.0174254
657.410	0.0174578
657.488	0.0174544
657.567	0.0172623
657.645	0.0174113
657.723	0.0173937
657.801	0.0175538
657.879	0.0175137
657.957	0.0172187
658.035	0.0172855
658.113	0.0174326
658.192	0.0173357
658.270	0.0173278
658.348	0.0173034
658.426	0.0172526
658.504	0.0173183
658.582	0.0174745
658.660	0.0173230
658.738	0.0174699
658.817	0.0173799
658.895	0.0173553
658.973	0.0174434
659.051	0.0174626
659.129	0.0174210
659.207	0.0174350
659.285	0.0175630
659.363	0.0175059
659.442	0.0176529
659.520	0.0176244
659.598	0.0175861
659.676	0.0176247
659.754	0.0175921
659.832	0.0176661
659.910	0.0177163
659.988	0.0176375
660.067	0.0175670
660.145	0.0176130
660.223	0.0175513
660.301	0.0175114
660.379	0.0175301
660.457	0.0174358
660.535	0.0175921
660.613	0.0173946
660.692	0.0173409
660.770	0.0173917
660.848	0.0175388
660.926	0.0174521
661.004	0.0174393
661.082	0.0173965
661.160	0.0173717
661.238	0.0174254
661.317	0.0173861
661.395	0.0175101
661.473	0.0174338
661.551	0.0173494
661.629	0.0173957
661.707	0.0173832
661.785	0.0174502
661.863	0.0172845
661.942	0.0173948
662.020	0.0173431
662.098	0.0174365
662.176	0.0174604
662.254	0.0173396
662.332	0.0175090
662.410	0.0174223
662.488	0.0174479
662.567	0.0174044
662.645	0.0174662
662.723	0.0175636
662.801	0.0174421
662.879	0.0173751
662.957	0.0173453
663.035	0.0174360
663.113	0.0176116
663.192	0.0175520
663.270	0.0175111
663.348	0.0174574
663.426	0.0174177
663.504	0.0174400
663.582	0.0175298
663.660	0.0175208
663.738	0.0175321
663.817	0.0175974
663.895	0.0175420
663.973	0.0175544
664.051	0.0176840
664.129	0.0174491
664.207	0.0175203
664.285	0.0174181
664.363	0.0174782
664.442	0.0175948
664.520	0.0174517
664.598	0.0173442
664.676	0.0172431
664.754	0.0174305
664.832	0.0174449
664.910	0.0173460
664.988	0.0173348
665.067	0.0174193
665.145	0.0174828
665.223	0.0174452
665.301	0.0174805
665.379	0.0175237
665.457	0.0174776
665.535	0.0174871
665.613	0.0175845
665.692	0.0176021
665.770	0.0176551
665.848	0.0176922
665.926	0.0176447
666.004	0.0175185
666.082	0.0177354
666.160	0.0175906
666.238	0.0176466
666.317	0.0175764
666.395	0.0175800
666.473	0.0176105
666.551	0.0175322
666.629	0.0174577
666.707	0.0175145
666.785	0.0175555
666.863	0.0175288
666.942	0.0174447
667.020	0.0174058
667.098	0.0175224
667.176	0.0176257
667.254	0.0175290
667.332	0.0175124
667.410	0.0174539
667.488	0.0175240
667.567	0.0174844
667.645	0.0173434
667.723	0.0175678
667.801	0.0174965
667.879	0.0174782
667.957	0.0174060
668.035	0.0173996
668.113	0.0175471
668.192	0.0175777
668.270	0.0175121
668.348	0.0177442
668.426	0.0176273
668.504	0.0177034
668.582	0.0175320
668.660	0.0176889
668.738	0.0176047
668.817	0.0175290
668.895	0.0175661
668.973	0.0174680
669.051	0.0176779
669.129	0.0177431
669.207	0.0174728
669.285	0.0174930
669.363	0.0176247
669.442	0.0174065
669.520	0.0176041
669.598	0.0176641
669.676	0.0175010
669.754	0.0176278
669.832	0.0176971
669.910	0.0177940
669.988	0.0175653
670.067	0.0176814
670.145	0.0176634
670.223	0.0178531
670.301	0.0177169
670.379	0.0176074
670.457	0.0176736
670.535	0.0177013
670.613	0.0176619
670.692	0.0176176
670.770	0.0175634
670.848	0.0177000
670.926	0.0176923
671.004	0.0176283
671.082	0.0175610
671.160	0.0175894
671.238	0.0174785
671.317	0.0175163
671.395	0.0174343
671.473	0.0176702
671.551	0.0175145
671.629	0.0174509
671.707	0.0175774
671.785	0.0173250
671.863	0.0173588
671.942	0.0175779
672.020	0.0174255
672.098	0.0172844
672.176	0.0173264
672.254	0.0173339
672.332	0.0174947
672.410	0.0175696
672.488	0.0174606
672.567	0.0174136
672.645	0.0174648
672.723	0.0175498
672.801	0.0175225
672.879	0.0176796
672.957	0.0174291
673.035	0.0173822
673.113	0.0174657
673.192	0.0173389
673.270	0.0173506
673.348	0.0175710
673.426	0.0174124
673.504	0.0172922
673.582	0.0173248
673.660	0.0173063
673.738	0.0173121
673.817	0.0174344
673.895	0.0175637
673.973	0.0175974
674.051	0.0175196
674.129	0.0175754
674.207	0.0176490
674.285	0.0177203
674.363	0.0177528
674.442	0.0178327
674.520	0.0177830
674.598	0.0178180
674.676	0.0178066
674.754	0.0176105
674.832	0.0177116
674.910	0.0176054
674.988	0.0176346
675.067	0.0174886
675.145	0.0173764
675.223	0.0173083
675.301	0.0172208
675.379	0.0171256
675.457	0.0171113
675.535	0.0168766
675.613	0.0169213
675.692	0.0169260
675.770	0.0169180
675.848	0.0169509
675.926	0.0170874
676.004	0.0171202
676.082	0.0171015
676.160	0.0169930
676.238	0.0172039
676.317	0.0172758
676.395	0.0173199
676.473	0.0174711
676.551	0.0176431
676.629	0.0175729
676.707	0.0177277
676.785	0.0177764
676.863	0.0178874
676.942	0.0177797
677.020	0.0178781
677.098	0.0179778
677.176	0.0177969
677.254	0.0178841
677.332	0.0178166
677.410	0.0177073
677.488	0.0176529
677.567	0.0175961
677.645	0.0174993
677.723	0.0173530
677.801	0.0171559
677.879	0.0170725
677.957	0.0173423
678.035	0.0170922
678.113	0.0170546
678.192	0.0169845
678.270	0.0171648
678.348	0.0170924
678.426	0.0171220
678.504	0.0173223
678.582	0.0174323
678.660	0.0174711
678.738	0.0174294
678.817	0.0176038
678.895	0.0177193
678.973	0.0177315
679.051	0.0177691
679.129	0.0177282
679.207	0.0178067
679.285	0.0176326
679.363	0.0176769
679.442	0.0176479
679.520	0.0175136
679.598	0.0171988
679.676	0.0170625
679.754	0.0169590
679.832	0.0170007
679.910	0.0168725
679.988	0.0166454
680.067	0.0166627
680.145	0.0165760
680.223	0.0165648
680.301	0.0165980
680.379	0.0166503
680.457	0.0166737
680.535	0.0165856
680.613	0.0167210
680.692	0.0168874
680.770	0.0169143
680.848	0.0169860
680.926	0.0170782
681.004	0.0170940
681.082	0.0172474
681.160	0.0173603
681.238	0.0174772
681.317	0.0177710
681.395	0.0179241
681.473	0.0180438
681.551	0.0179905
681.629	0.0182117
681.707	0.0181714
681.785	0.0182662
681.863	0.0184792
681.942	0.0185253
682.020	0.0184891
682.098	0.0185901
682.176	0.0185790
682.254	0.0183614
682.332	0.0184879
682.410	0.0183459
682.488	0.0182577
682.567	0.0182704
682.645	0.0180671
682.723	0.0177646
682.801	0.0176560
682.879	0.0175306
682.957	0.0172314
683.035	0.0171708
683.113	0.0169297
683.192	0.0166512
683.270	0.0164960
683.348	0.0163031
683.426	0.0161502
683.504	0.0160139
683.582	0.0160236
683.660	0.0160760
683.738	0.0160901
683.817	0.0160992
683.895	0.0160367
683.973	0.0161668
684.051	0.0162633
684.129	0.0164163
684.207	0.0165900
684.285	0.0168246
684.363	0.0170234
684.442	0.0169785
684.520	0.0172982
684.598	0.0173691
684.676	0.0176157
684.754	0.0177974
684.832	0.0181819
684.910	0.0183227
684.988	0.0182497
685.067	0.0185497
685.145	0.0187306
685.223	0.0188278
685.301	0.0190032
685.379	0.0193885
685.457	0.0193878
685.535	0.0193050
685.613	0.0195087
685.692	0.0195157
685.770	0.0193256
685.848	0.0194280
685.926	0.0193110
686.004	0.0191014
686.082	0.0190785
686.160	0.0189567
686.238	0.0187311
686.317	0.0185602
686.395	0.0183179
686.473	0.0181126
686.551	0.0176796
686.629	0.0174603
686.707	0.0173243
686.785	0.0170911
686.863	0.0168369
686.942	0.0165009
687.020	0.0161282
687.098	0.0160611
687.176	0.0159453
687.254	0.0160384
687.332	0.0159063
687.410	0.0156585
687.488	0.0159771
687.567	0.0157974
687.645	0.0160451
687.723	0.0161698
687.801	0.0161320
687.879	0.0162091
687.957	0.0163503
688.035	0.0166384
688.113	0.0166376
688.192	0.0166714
688.270	0.0168034
688.348	0.0171075
688.426	0.0172719
688.504	0.0174322
688.582	0.0174665
688.660	0.0176141
688.738	0.0178030
688.817	0.0181439
688.895	0.0182612
688.973	0.0184219
689.051	0.0186098
689.129	0.0188094
689.207	0.0189072
689.285	0.0190268
689.363	0.0189475
689.442	0.0192049
689.520	0.0192270
689.598	0.0191573
689.676	0.0191049
689.754	0.0192480
689.832	0.0191745
689.910	0.0191000
689.988	0.0188609
690.067	0.0188183
690.145	0.0186475
690.223	0.0186253
690.301	0.0185915
690.379	0.0184267
690.457	0.0181454
690.535	0.0180135
690.613	0.0177433
690.692	0.0176341
690.770	0.0176906
690.848	0.0173547
690.926	0.0171622
691.004	0.0170324
691.082	0.0169505
691.160	0.0167529
691.238	0.0165675
691.317	0.0164375
691.395	0.0163361
691.473	0.0161744
691.551	0.0162684
691.629	0.0160792
691.707	0.0160921
691.785	0.0160530
691.863	0.0162074
691.942	0.0161283
692.020	0.0161134
692.098	0.0162954
692.176	0.0163343
692.254	0.0162314
692.332	0.0164030
692.410	0.0165999
692.488	0.0166401
692.567	0.0166707
692.645	0.0169242
692.723	0.0169718
692.801	0.0172299
692.879	0.0173785
692.957	0.0176160
693.035	0.0176635
693.113	0.0177811
693.192	0.0178603
693.270	0.0181682
693.348	0.0182690
693.426	0.0183180
693.504	0.0184242
693.582	0.0185239
693.660	0.0187971
693.738	0.0190070
693.817	0.0190427
693.895	0.0191657
693.973	0.0190462
694.051	0.0189848
694.129	0.0191932
694.207	0.0191644
694.285	0.0191660
694.363	0.0190147
694.442	0.0189320
694.520	0.0188033
694.598	0.0186720
694.676	0.0186664
694.754	0.0184344
694.832	0.0182907
694.910	0.0180499
694.988	0.0181580
695.067	0.0181624
695.145	0.0179541
695.223	0.0178141
695.301	0.0176868
695.379	0.0175168
695.457	0.0174679
695.535	0.0172816
695.613	0.0171267
695.692	0.0169704
695.770	0.0169226
695.848	0.0168322
695.926	0.0164896
696.004	0.0162344
696.082	0.0162288
696.160	0.0160698
696.238	0.0159008
696.317	0.0157046
696.395	0.0155103
696.473	0.0154998
696.551	0.0152627
696.629	0.0153684
696.707	0.0152979
696.785	0.0152470
696.863	0.0153331
696.942	0.0155207
697.020	0.0156818
697.098	0.0160256
697.176	0.0164181
697.254	0.0167008
697.332	0.0171735
697.410	0.0173913
697.488	0.0178128
697.567	0.0182066
697.645	0.0183538
697.723	0.0185790
697.801	0.0188488
697.879	0.0192123
697.957	0.0192397
698.035	0.0192574
698.113	0.0193385
698.192	0.0193650
698.270	0.0193839
698.348	0.0193907
698.426	0.0194476
698.504	0.0192586
698.582	0.0190675
698.660	0.0189070
698.738	0.0188404
698.817	0.0187320
698.895	0.0187346
698.973	0.0185120
699.051	0.0184980
699.129	0.0184245
699.207	0.0181918
699.285	0.0182693
699.363	0.0181628
699.442	0.0180700
699.520	0.0178838
699.598	0.0178479
699.676	0.0177781
699.754	0.0176460
699.832	0.0176379
699.910	0.0175414
699.988	0.0173543
700.067	0.0172971
700.145	0.0171342
700.223	0.0171345
700.301	0.0171560
700.379	0.0169514
700.457	0.0169022
700.535	0.0169137
700.613	0.0168303
700.692	0.0167948
700.770	0.0166483
700.848	0.0165196
700.926	0.0164599
701.004	0.0164046
701.082	0.0163015
701.160	0.0161935
701.238	0.0161121
701.317	0.0161708
701.395	0.0160463
701.473	0.0161064
701.551	0.0160295
701.629	0.0160818
701.707	0.0161530
701.785	0.0163109
701.863	0.0162663
701.942	0.0162801
702.020	0.0165433
702.098	0.0166196
702.176	0.0168183
702.254	0.0167596
702.332	0.0169188
702.410	0.0172733
702.488	0.0173112
702.567	0.0177579
702.645	0.0178336
702.723	0.0181152
702.801	0.0184966
702.879	0.0186733
702.957	0.0188911
703.035	0.0190000
703.113	0.0192818
703.192	0.0194998
703.270	0.0196278
703.348	0.0197777
703.426	0.0196958
703.504	0.0198634
703.582	0.0197366
703.660	0.0197395
703.738	0.0195905
703.817	0.0194662
703.895	0.0193839
703.973	0.0193731
704.051	0.0190253
704.129	0.0187617
704.207	0.0184645
704.285	0.0183169
704.363	0.0178691
704.442	0.0176463
704.520	0.0173846
704.598	0.0170328
704.676	0.0167585
704.754	0.0164261
704.832	0.0161826
704.910	0.0161028
704.988	0.0157590
705.067	0.0156878
705.145	0.0154646
705.223	0.0153753
705.301	0.0154188
705.379	0.0153520
705.457	0.0153848
705.535	0.0155657
705.613	0.0155290
705.692	0.0158798
705.770	0.0159637
705.848	0.0163419
705.926	0.0164946
706.004	0.0168011
706.082	0.0170426
706.160	0.0173529
706.238	0.0175885
706.317	0.0180230
706.395	0.0181516
706.473	0.0184798
706.551	0.0185535
706.629	0.0187563
706.707	0.0187789
706.785	0.0189381
706.863	0.0188481
706.942	0.0187447
707.020	0.0187342
707.098	0.0187193
707.176	0.0186737
707.254	0.0185091
707.332	0.0182198
707.410	0.0179675
707.488	0.0178470
707.567	0.0178131
707.645	0.0175348
707.723	0.0174294
707.801	0.0171778
707.879	0.0169841
707.957	0.0168486
708.035	0.0166425
708.113	0.0166093
708.192	0.0165257
708.270	0.0165887
708.348	0.0164244
708.426	0.0166259
708.504	0.0165348
708.582	0.0165938
708.660	0.0168212
708.738	0.0169112
708.817	0.0169276
708.895	0.0171459
708.973	0.0173431
709.051	0.0174255
709.129	0.0176431
709.207	0.0177188
709.285	0.0181084
709.363	0.0181103
709.442	0.0183421
709.520	0.0186682
709.598	0.0188289
709.676	0.0190405
709.754	0.0191509
709.832	0.0192113
709.910	0.0193575
709.988	0.0192910
710.067	0.0194835
710.145	0.0193156
710.223	0.0191128
710.301	0.0191547
710.379	0.0189600
710.457	0.0188280
710.535	0.0186668
710.613	0.0184238
710.692	0.0181910
710.770	0.0180355
710.848	0.0179695
710.926	0.0174664
711.004	0.0173453
711.082	0.0172612
711.160	0.0170467
711.238	0.0168353
711.317	0.0168695
711.395	0.0165812
711.473	0.0166297
711.551	0.0164641
711.629	0.0164821
711.707	0.0164606
711.785	0.0163106
711.863	0.0163140
711.942	0.0164875
712.020	0.0164475
712.098	0.0163943
712.176	0.0164094
712.254	0.0165070
712.332	0.0164945
712.410	0.0165849
712.488	0.0166195
712.567	0.0166799
712.645	0.0167004
712.723	0.0167425
712.801	0.0168105
712.879	0.0168150
712.957	0.0167666
713.035	0.0168098
713.113	0.0167746
713.192	0.0168384
713.270	0.0168825
713.348	0.0169148
713.426	0.0171506
713.504	0.0174196
713.582	0.0175446
713.660	0.0175550
713.738	0.0176591
713.817	0.0179675
713.895	0.0179875
713.973	0.0182552
714.051	0.0185353
714.129	0.0185522
714.207	0.0187920
714.285	0.0189368
714.363	0.0187329
714.442	0.0189590
714.520	0.0189966
714.598	0.0189713
714.676	0.0188666
714.754	0.0186799
714.832	0.0186890
714.910	0.0188468
714.988	0.0186153
715.067	0.0186722
715.145	0.0185993
715.223	0.0186439
715.301	0.0187621
715.379	0.0186382
715.457	0.0186317
715.535	0.0185587
715.613	0.0184820
715.692	0.0185514
715.770	0.0183721
715.848	0.0180618
715.926	0.0180366
716.004	0.0178522
716.082	0.0176025
716.160	0.0173220
716.238	0.0172543
716.317	0.0171432
716.395	0.0168970
716.473	0.0167912
716.551	0.0169337
716.629	0.0166818
716.707	0.0165607
716.785	0.0165156
716.863	0.0163871
716.942	0.0164473
717.020	0.0165131
717.098	0.0164056
717.176	0.0164709
717.254	0.0166467
717.332	0.0166463
717.410	0.0166405
717.488	0.0167521
717.567	0.0166473
717.645	0.0167505
717.723	0.0170136
717.801	0.0171709
717.879	0.0170561
717.957	0.0170052
718.035	0.0172389
718.113	0.0173026
718.192	0.0174379
718.270	0.0174967
718.348	0.0175004
718.426	0.0175212
718.504	0.0174847
718.582	0.0174591
718.660	0.0173396
718.738	0.0175578
718.817	0.0174496
718.895	0.0172683
718.973	0.0173067
719.051	0.0173086
719.129	0.0173176
719.207	0.0171530
719.285	0.0173273
719.363	0.0172748
719.442	0.0174603
719.520	0.0176137
719.598	0.0177077
719.676	0.0179002
719.754	0.0180560
719.832	0.0181940
719.910	0.0182921
719.988	0.0182946
720.067	0.0183609
720.145	0.0184984
720.223	0.0185770
720.301	0.0185321
720.379	0.0185104
720.457	0.0184145
720.535	0.0183939
720.613	0.0183543
720.692	0.0181798
720.770	0.0181542
720.848	0.0180215
720.926	0.0179691
721.004	0.0178696
721.082	0.0180197
721.160	0.0178605
721.238	0.0179928
721.317	0.0181676
721.395	0.0180919
721.473	0.0180336
721.551	0.0181815
721.629	0.0181877
721.707	0.0182114
721.785	0.0182253
721.863	0.0181676
721.942	0.0182492
722.020	0.0181558
722.098	0.0180253
722.176	0.0179289
722.254	0.0180214
722.332	0.0177285
722.410	0.0178010
722.488	0.0175774
722.567	0.0174823
722.645	0.0174185
722.723	0.0173531
722.801	0.0170158
722.879	0.0170826
722.957	0.0170041
723.035	0.0169828
723.113	0.0168383
723.192	0.0166576
723.270	0.0165865
723.348	0.0163248
723.426	0.0164827
723.504	0.0163953
723.582	0.0162778
723.660	0.0161541
723.738	0.0160777
723.817	0.0163155
723.895	0.0162076
723.973	0.0161469
724.051	0.0162068
724.129	0.0163335
724.207	0.0163624
724.285	0.0165136
724.363	0.0164868
724.442	0.0166669
724.520	0.0168420
724.598	0.0169653
724.676	0.0171463
724.754	0.0173158
724.832	0.0173328
724.910	0.0174636
724.988	0.0175201
725.067	0.0176602
725.145	0.0177140
725.223	0.0176557
725.301	0.0177099
725.379	0.0178674
725.457	0.0177406
725.535	0.0180206
725.613	0.0179786
725.692	0.0180468
725.770	0.0179259
725.848	0.0180988
725.926	0.0181511
726.004	0.0181098
726.082	0.0181497
726.160	0.0182835
726.238	0.0182273
726.317	0.0183141
726.395	0.0183198
726.473	0.0185496
726.551	0.0185773
726.629	0.0184160
726.707	0.0186164
726.785	0.0185998
726.863	0.0185796
726.942	0.0186343
727.020	0.0186192
727.098	0.0185343
727.176	0.0184711
727.254	0.0184731
727.332	0.0183805
727.410	0.0184537
727.488	0.0181036
727.567	0.0181042
727.645	0.0180530
727.723	0.0178243
727.801	0.0178241
727.879	0.0174665
727.957	0.0174152
728.035	0.0173837
728.113	0.0171978
728.192	0.0170866
728.270	0.0170716
728.348	0.0170159
728.426	0.0168985
728.504	0.0168620
728.582	0.0168340
728.660	0.0169818
728.738	0.0169630
728.817	0.0171200
728.895	0.0170934
728.973	0.0170656
729.051	0.0171671
729.129	0.0171314
729.207	0.0172603
729.285	0.0172655
729.363	0.0170982
729.442	0.0172186
729.520	0.0172702
729.598	0.0170253
729.676	0.0170779
729.754	0.0169135
729.832	0.0168786
729.910	0.0169067
729.988	0.0169019
730.067	0.0167706
730.145	0.0167551
730.223	0.0167446
730.301	0.0167482
730.379	0.0167791
730.457	0.0169079
730.535	0.0167709
730.613	0.0166895
730.692	0.0169223
730.770	0.0168483
730.848	0.0168833
730.926	0.0171336
731.004	0.0170473
731.082	0.0171301
731.160	0.0172651
731.238	0.0173813
731.317	0.0174371
731.395	0.0176283
731.473	0.0176650
731.551	0.0176889
731.629	0.0176778
731.707	0.0179530
731.785	0.0179284
731.863	0.0178623
731.942	0.0179603
732.020	0.0179124
732.098	0.0179219
732.176	0.0178835
732.254	0.0179430
732.332	0.0178797
732.410	0.0179599
732.488	0.0179456
732.567	0.0181122
732.645	0.0179851
732.723	0.0180454
732.801	0.0181145
732.879	0.0180752
732.957	0.0182066
733.035	0.0183053
733.113	0.0183461
733.192	0.0184856
733.270	0.0184972
733.348	0.0184645
733.426	0.0184551
733.504	0.0186903
733.582	0.0185217
733.660	0.0185261
733.738	0.0184662
733.817	0.0184441
733.895	0.0183159
733.973	0.0181593
734.051	0.0180949
734.129	0.0179452
734.207	0.0178432
734.285	0.0177757
734.363	0.0176967
734.442	0.0175594
734.520	0.0175702
734.598	0.0174294
734.676	0.0174664
734.754	0.0173190
734.832	0.0171891
734.910	0.0173153
734.988	0.0171971
735.067	0.0172295
735.145	0.0172380
735.223	0.0172736
735.301	0.0171812
735.379	0.0170638
735.457	0.0169910
735.535	0.0170380
735.613	0.0170515
735.692	0.0170922
735.770	0.0169749
735.848	0.0168373
735.926	0.0167230
736.004	0.0167007
736.082	0.0167989
736.160	0.0166312
736.238	0.0164539
736.317	0.0164521
736.395	0.0162663
736.473	0.0162090
736.551	0.0163667
736.629	0.0163889
736.707	0.0162865
736.785	0.0164416
736.863	0.0165423
736.942	0.0165306
737.020	0.0166795
737.098	0.0166488
737.176	0.0168022
737.254	0.0170014
737.332	0.0170634
737.410	0.0171716
737.488	0.0173865
737.567	0.0175286
737.645	0.0174847
737.723	0.0176712
737.801	0.0176830
737.879	0.0178932
737.957	0.0178966
738.035	0.0178724
738.113	0.0180092
738.192	0.0180399
738.270	0.0180270
738.348	0.0181025
738.426	0.0182465
738.504	0.0183668
738.582	0.0182188
738.660	0.0182957
738.738	0.0183279
738.817	0.0183087
738.895	0.0182905
738.973	0.0181589
739.051	0.0182934
739.129	0.0182427
739.207	0.0181015
739.285	0.0181316
739.363	0.0180898
739.442	0.0180566
739.520	0.0180017
739.598	0.0180283
739.676	0.0178771
739.754	0.0178061
739.832	0.0179511
739.910	0.0179752
739.988	0.0180396
740.067	0.0179924
740.145	0.0181273
740.223	0.0181940
740.301	0.0181866
740.379	0.0182339
740.457	0.0182971
740.535	0.0183841
740.613	0.0183878
740.692	0.0184152
740.770	0.0183480
740.848	0.0182620
740.926	0.0180784
741.004	0.0179965
741.082	0.0179298
741.160	0.0178143
741.238	0.0176663
741.317	0.0174965
741.395	0.0172458
741.473	0.0173911
741.551	0.0172314
741.629	0.0170976
741.707	0.0169992
741.785	0.0169058
741.863	0.0169653
741.942	0.0167123
742.020	0.0169419
742.098	0.0169064
742.176	0.0168181
742.254	0.0168681
742.332	0.0169167
742.410	0.0168768
742.488	0.0168056
742.567	0.0168829
742.645	0.0167275
742.723	0.0168000
742.801	0.0168042
742.879	0.0168957
742.957	0.0168526
743.035	0.0166991
743.113	0.0167161
743.192	0.0166874
743.270	0.0168200
743.348	0.0169097
743.426	0.0167753
743.504	0.0168555
743.582	0.0169023
743.660	0.0167760
743.738	0.0169395
743.817	0.0168577
743.895	0.0170625
743.973	0.0169353
744.051	0.0171436
744.129	0.0172331
744.207	0.0172739
744.285	0.0174281
744.363	0.0173543
744.442	0.0175188
744.520	0.0175121
744.598	0.0175381
744.676	0.0176667
744.754	0.0177806
744.832	0.0177293
744.910	0.0176080
744.988	0.0178004
745.067	0.0177940
745.145	0.0178451
745.223	0.0178708
745.301	0.0177595
745.379	0.0178682
745.457	0.0178355
745.535	0.0177883
745.613	0.0178058
745.692	0.0176094
745.770	0.0175737
745.848	0.0177533
745.926	0.0176794
746.004	0.0175829
746.082	0.0176086
746.160	0.0174375
746.238	0.0177077
746.317	0.0176084
746.395	0.0175599
746.473	0.0175048
746.551	0.0173378
746.629	0.0174847
746.707	0.0175501
746.785	0.0174461
746.863	0.0176118
746.942	0.0175463
747.020	0.0174966
747.098	0.0176040
747.176	0.0176185
747.254	0.0175956
747.332	0.0177341
747.410	0.0177925
747.488	0.0177815
747.567	0.0178792
747.645	0.0178600
747.723	0.0177607
747.801	0.0178352
747.879	0.0178058
747.957	0.0177430
748.035	0.0178848
748.113	0.0177386
748.192	0.0177193
748.270	0.0177792
748.348	0.0177102
748.426	0.0175350
748.504	0.0176569
748.582	0.0175624
748.660	0.0173971
748.738	0.0174568
748.817	0.0173481
748.895	0.0174266
748.973	0.0172876
749.051	0.0171980
749.129	0.0173576
749.207	0.0172640
749.285	0.0172527
749.363	0.0174951
749.442	0.0172647
749.520	0.0172295
749.598	0.0172946
749.676	0.0172318
749.754	0.0172511
749.832	0.0175378
749.910	0.0175008
749.988	0.0175597
750.067	0.0173941
750.145	0.0173981
750.223	0.0175184
750.301	0.0174873
750.379	0.0174135
750.457	0.0173623
750.535	0.0174362
750.613	0.0175371
750.692	0.0173969
750.770	0.0173963
750.848	0.0174032
750.926	0.0173035
751.004	0.0173322
751.082	0.0171693
751.160	0.0173338
751.238	0.0172794
751.317	0.0171363
751.395	0.0170843
751.473	0.0171401
751.551	0.0170834
751.629	0.0171568
751.707	0.0171976
751.785	0.0172090
751.863	0.0170928
751.942	0.0172646
752.020	0.0173925
752.098	0.0172442
752.176	0.0174019
752.254	0.0173183
752.332	0.0175028
752.410	0.0173764
752.488	0.0174222
752.567	0.0175320
752.645	0.0176028
752.723	0.0174924
752.801	0.0175639
752.879	0.0176201
752.957	0.0176198
753.035	0.0175272
753.113	0.0176310
753.192	0.0177286
753.270	0.0175475
753.348	0.0175755
753.426	0.0175068
753.504	0.0174755
753.582	0.0174729
753.660	0.0174326
753.738	0.0174606
753.817	0.0174182
753.895	0.0175593
753.973	0.0175660
754.051	0.0173655
754.129	0.0174506
754.207	0.0175990
754.285	0.0175549
754.363	0.0175917
754.442	0.0174757
754.520	0.0175137
754.598	0.0177212
754.676	0.0176231
754.754	0.0175027
754.832	0.0176257
754.910	0.0177039
754.988	0.0176936
755.067	0.0174693
755.145	0.0175256
755.223	0.0175060
755.301	0.0176125
755.379	0.0174937
755.457	0.0174957
755.535	0.0175063
755.613	0.0173696
755.692	0.0175294
755.770	0.0174996
755.848	0.0175122
755.926	0.0174648
756.004	0.0174335
756.082	0.0175075
756.160	0.0175262
756.238	0.0174821
756.317	0.0174617
756.395	0.0175220
756.473	0.0174348
756.551	0.0175417
756.629	0.0174927
756.707	0.0175317
756.785	0.0175437
756.863	0.0174667
756.942	0.0174772
757.020	0.0174430
757.098	0.0174558
757.176	0.0174595
757.254	0.0174725
757.332	0.0174124
757.410	0.0173368
757.488	0.0173786
757.567	0.0173721
757.645	0.0173969
757.723	0.0175103
757.801	0.0174582
757.879	0.0174139
757.957	0.0174654
758.035	0.0174062
758.113	0.0175355
758.192	0.0174738
758.270	0.0175575
758.348	0.0174412
758.426	0.0174829
758.504	0.0174761
758.582	0.0176075
758.660	0.0175347
758.738	0.0175692
758.817	0.0175443
758.895	0.0175673
758.973	0.0175265
759.051	0.0175171
759.129	0.0174825
759.207	0.0175602
759.285	0.0176299
759.363	0.0174656
759.442	0.0173698
759.520	0.0175082
759.598	0.0175237
759.676	0.0175729
759.754	0.0174982
759.832	0.0175533
759.910	0.0175412
759.988	0.0175312
760.067	0.0176045
760.145	0.0176105
760.223	0.0174648
760.301	0.0174342
760.379	0.0175983
760.457	0.0177341
760.535	0.0175780
760.613	0.0176384
760.692	0.0176794
760.770	0.0175696
760.848	0.0174345
760.926	0.0175388
761.004	0.0176109
761.082	0.0176268
761.160	0.0175459
761.238	0.0175964
761.317	0.0176514
761.395	0.0175954
761.473	0.0176845
761.551	0.0175113
761.629	0.0174656
761.707	0.0175719
761.785	0.0173489
761.863	0.0173358
761.942	0.0173472
762.020	0.0173491
762.098	0.0172240
762.176	0.0174716
762.254	0.0173138
762.332	0.0174165
762.410	0.0173218
762.488	0.0175105
762.567	0.0174358
762.645	0.0174210
762.723	0.0174927
762.801	0.0175240
762.879	0.0176212
762.957	0.0175435
763.035	0.0175504
763.113	0.0175270
763.192	0.0177297
763.270	0.0177560
763.348	0.0177181
763.426	0.0178008
763.504	0.0177621
763.582	0.0179288
763.660	0.0178332
763.738	0.0178739
763.817	0.0179078
763.895	0.0178815
763.973	0.0178316
764.051	0.0177654
764.129	0.0178598
764.207	0.0176633
764.285	0.0176003
764.363	0.0175708
764.442	0.0174581
764.520	0.0175405
764.598	0.0174200
764.676	0.0173983
764.754	0.0175376
764.832	0.0173328
764.910	0.0175642
764.988	0.0175050
765.067	0.0172610
765.145	0.0174504
765.223	0.0173306
765.301	0.0172975
765.379	0.0172184
765.457	0.0173458
765.535	0.0172261
765.613	0.0172696
765.692	0.0171526
765.770	0.0172964
765.848	0.0172348
765.926	0.0173513
766.004	0.0172366
766.082	0.0170999
766.160	0.0171936
766.238	0.0172875
766.317	0.0173026
766.395	0.0173472
766.473	0.0172741
766.551	0.0172123
766.629	0.0173036
766.707	0.0173354
766.785	0.0173500
766.863	0.0172922
766.942	0.0175385
767.020	0.0174193
767.098	0.0173264
767.176	0.0173202
767.254	0.0174374
767.332	0.0175457
767.410	0.0174818
767.488	0.0173015
767.567	0.0174757
767.645	0.0173904
767.723	0.0174355
767.801	0.0175213
767.879	0.0175050
767.957	0.0176765
768.035	0.0176591
768.113	0.0175717
768.192	0.0175831
768.270	0.0176488
768.348	0.0176979
768.426	0.0176773
768.504	0.0177061
768.582	0.0178114
768.660	0.0178019
768.738	0.0179121
768.817	0.0179747
768.895	0.0181416
768.973	0.0179063
769.051	0.0178922
769.129	0.0177965
769.207	0.0178701
769.285	0.0178591
769.363	0.0178515
769.442	0.0178259
769.520	0.0178243
769.598	0.0178365
769.676	0.0177634
769.754	0.0177575
769.832	0.0177495
769.910	0.0177950
769.988	0.0176493
770.067	0.0177394
770.145	0.0176563
770.223	0.0176298
770.301	0.0176162
770.379	0.0176186
770.457	0.0175977
770.535	0.0176524
770.613	0.0178454
770.692	0.0179379
770.770	0.0178131
770.848	0.0179636
770.926	0.0178208
771.004	0.0179247
771.082	0.0180386
771.160	0.0181055
771.238	0.0179662
771.317	0.0179654
771.395	0.0181129
771.473	0.0181097
771.551	0.0181262
771.629	0.0182265
771.707	0.0181857
771.785	0.0181358
771.863	0.0181316
771.942	0.0181412
772.020	0.0179427
772.098	0.0181100
772.176	0.0179178
772.254	0.0179208
772.332	0.0179608
772.410	0.0178494
772.488	0.0177179
772.567	0.0177054
772.645	0.0175196
772.723	0.0174711
772.801	0.0173254
772.879	0.0173103
772.957	0.0173142
773.035	0.0170094
773.113	0.0169452
773.192	0.0168620
773.270	0.0168774
773.348	0.0168658
773.426	0.0168986
773.504	0.0168937
773.582	0.0167284
773.660	0.0168727
773.738	0.0168999
773.817	0.0168478
773.895	0.0170543
773.973	0.0171426
774.051	0.0171867
774.129	0.0171604
774.207	0.0171760
774.285	0.0172422
774.363	0.0172292
774.442	0.0173305
774.520	0.0173415
774.598	0.0173276
774.676	0.0172199
774.754	0.0173169
774.832	0.0172644
774.910	0.0172466
774.988	0.0172715
775.067	0.0171371
775.145	0.0170441
775.223	0.0171980
775.301	0.0173050
775.379	0.0171516
775.457	0.0171669
775.535	0.0171556
775.613	0.0171849
775.692	0.0171683
775.770	0.0172581
775.848	0.0173164
775.926	0.0173557
776.004	0.0173234
776.082	0.0174744
776.160	0.0175026
776.238	0.0174332
776.317	0.0175237
776.395	0.0175793
776.473	0.0175837
776.551	0.0175584
776.629	0.0176132
776.707	0.0176081
776.785	0.0176807
776.863	0.0177125
776.942	0.0176797
777.020	0.0177071
777.098	0.0176304
777.176	0.0176036
777.254	0.0175700
777.332	0.0175206
777.410	0.0176454
777.488	0.0174325
777.567	0.0173840
777.645	0.0175214
777.723	0.0173793
777.801	0.0172345
777.879	0.0174242
777.957	0.0174183
778.035	0.0173606
778.113	0.0174328
778.192	0.0174345
778.270	0.0174402
778.348	0.0174940
778.426	0.0176292
778.504	0.0174834
778.582	0.0173908
778.660	0.0176387
778.738	0.0175745
778.817	0.0175705
778.895	0.0175607
778.973	0.0175548
779.051	0.0173852
779.129	0.0175030
779.207	0.0174297
779.285	0.0173788
779.363	0.0174296
779.442	0.0173465
779.520	0.0172998
779.598	0.0173309
779.676	0.0175073
779.754	0.0172858
779.832	0.0173380
779.910	0.0172955
779.988	0.0173314
780.067	0.0173720
780.145	0.0173616
780.223	0.0173802
780.301	0.0173542
780.379	0.0174100
780.457	0.0173717
780.535	0.0173390
780.613	0.0173622
780.692	0.0173413
780.770	0.0173116
780.848	0.0172803
780.926	0.0171700
781.004	0.0171340
781.082	0.0172674
781.160	0.0169643
781.238	0.0170960
781.317	0.0170890
781.395	0.0169785
781.473	0.0170116
781.551	0.0170600
781.629	0.0170323
781.707	0.0171355
781.785	0.0171094
781.863	0.0171298
781.942	0.0171067
782.020	0.0173566
782.098	0.0172512
782.176	0.0175040
782.254	0.0175425
782.332	0.0176623
782.410	0.0176004
782.488	0.0179093
782.567	0.0177447
782.645	0.0177969
782.723	0.0178510
782.801	0.0177609
782.879	0.0179387
782.957	0.0178779
783.035	0.0179530
783.113	0.0178094
783.192	0.0176470
783.270	0.0177692
783.348	0.0177384
783.426	0.0177544
783.504	0.0176450
783.582	0.0176351
783.660	0.0175632
783.738	0.0176256
783.817	0.0177545
783.895	0.0176365
783.973	0.0176993
784.051	0.0177741
784.129	0.0176894
784.207	0.0177953
784.285	0.0178162
784.363	0.0178381
784.442	0.0178439
784.520	0.0179524
784.598	0.0180044
784.676	0.0178846
784.754	0.0178603
784.832	0.0178217
784.910	0.0178942
784.988	0.0178238
785.067	0.0180514
785.145	0.0178649
785.223	0.0178008
785.301	0.0177784
785.379	0.0177016
785.457	0.0177885
785.535	0.0176984
785.613	0.0176730
785.692	0.0176236
785.770	0.0176685
785.848	0.0176878
785.926	0.0175698
786.004	0.0176685
786.082	0.0176883
786.160	0.0176663
786.238	0.0175914
786.317	0.0176772
786.395	0.0177803
786.473	0.0175821
786.551	0.0177309
786.629	0.0176521
786.707	0.0177153
786.785	0.0176753
786.863	0.0176704
786.942	0.0176838
787.020	0.0176041
787.098	0.0176102
787.176	0.0175803
787.254	0.0174137
787.332	0.0174817
787.410	0.0174873
787.488	0.0175037
787.567	0.0173425
787.645	0.0173386
787.723	0.0173773
787.801	0.0173790
787.879	0.0174376
787.957	0.0173218
788.035	0.0172398
788.113	0.0172004
788.192	0.0172239
788.270	0.0171771
788.348	0.0171889
788.426	0.0170929
788.504	0.0170867
788.582	0.0170902
788.660	0.0167348
788.738	0.0167361
788.817	0.0168235
788.895	0.0167468
788.973	0.0168638
789.051	0.0166599
789.129	0.0166412
789.207	0.0167398
789.285	0.0168414
789.363	0.0168715
789.442	0.0169897
789.520	0.0169633
789.598	0.0170472
789.676	0.0171671
789.754	0.0173143
789.832	0.0173666
789.910	0.0175455
789.988	0.0176650
790.067	0.0177130
790.145	0.0177209
790.223	0.0177119
790.301	0.0178264
790.379	0.0179153
790.457	0.0179450
790.535	0.0178591
790.613	0.0178324
790.692	0.0178166
790.770	0.0178989
790.848	0.0178488
790.926	0.0178191
791.004	0.0178352
791.082	0.0177754
791.160	0.0177785
791.238	0.0178131
791.317	0.0177823
791.395	0.0178907
791.473	0.0178867
791.551	0.0178614
791.629	0.0180379
791.707	0.0177985
791.785	0.0180212
791.863	0.0181644
791.942	0.0182460
792.020	0.0182880
792.098	0.0180325
792.176	0.0181885
792.254	0.0182419
792.332	0.0182953
792.410	0.0180920
792.488	0.0179887
792.567	0.0179642
792.645	0.0178747
792.723	0.0178026
792.801	0.0176672
792.879	0.0175455
792.957	0.0174628
793.035	0.0172439
793.113	0.0173264
793.192	0.0174126
793.270	0.0173552
793.348	0.0170730
793.426	0.0171778
793.504	0.0172169
793.582	0.0173386
793.660	0.0171641
793.738	0.0173149
793.817	0.0173837
793.895	0.0174871
793.973	0.0174252
794.051	0.0174834
794.129	0.0176176
794.207	0.0178592
794.285	0.0177701
794.363	0.0180328
794.442	0.0181380
794.520	0.0180979
794.598	0.0179274
794.676	0.0181514
794.754	0.0182657
794.832	0.0182302
794.910	0.0181894
794.988	0.0181451
795.067	0.0180809
795.145	0.0181577
795.223	0.0180841
795.301	0.0181839
795.379	0.0180853
795.457	0.0180244
795.535	0.0180577
795.613	0.0179026
795.692	0.0177513
795.770	0.0178111
795.848	0.0177224
795.926	0.0177249
796.004	0.0176000
796.082	0.0176099
796.160	0.0174110
796.238	0.0174252
796.317	0.0172849
796.395	0.0172244
796.473	0.0171462
796.551	0.0172005
796.629	0.0169913
796.707	0.0169585
796.785	0.0168691
796.863	0.0167522
796.942	0.0167442
797.020	0.0168020
797.098	0.0168015
797.176	0.0168287
797.254	0.0168828
797.332	0.0168060
797.410	0.0170496
797.488	0.0170692
797.567	0.0170561
797.645	0.0171054
797.723	0.0173764
797.801	0.0172988
797.879	0.0172469
797.957	0.0174500
798.035	0.0174886
798.113	0.0176897
798.192	0.0174939
798.270	0.0176484
798.348	0.0175356
798.426	0.0175358
798.504	0.0175540
798.582	0.0174646
798.660	0.0177816
798.738	0.0177628
798.817	0.0176395
798.895	0.0175121
798.973	0.0176221
799.051	0.0177296
799.129	0.0177940
799.207	0.0180322
799.285	0.0179218
799.363	0.0180087
799.442	0.0181765
799.520	0.0181659
799.598	0.0181183
799.676	0.0182735
799.754	0.0183906
799.832	0.0184020
799.910	0.0183793
799.988	0.0184668
800.067	0.0182834
800.145	0.0184549
800.223	0.0183582
800.301	0.0182754
800.379	0.0181315
800.457	0.0179658
800.535	0.0179202
800.613	0.0179183
800.692	0.0176876
800.770	0.0176689
800.848	0.0174469
800.926	0.0172813
801.004	0.0172314
801.082	0.0171591
801.160	0.0170107
801.238	0.0170313
801.317	0.0169994
801.395	0.0170560
801.473	0.0169366
801.551	0.0167848
801.629	0.0167496
801.707	0.0168231
801.785	0.0169239
801.863	0.0169986
801.942	0.0169825
802.020	0.0170210
802.098	0.0171538
802.176	0.0171478
802.254	0.0172548
802.332	0.0171543
802.410	0.0171955
802.488	0.0172557
802.567	0.0171872
802.645	0.0173615
802.723	0.0173798
802.801	0.0174013
802.879	0.0172291
802.957	0.0174301
803.035	0.0173593
803.113	0.0173775
803.192	0.0174423
803.270	0.0174412
803.348	0.0174500
803.426	0.0175383
803.504	0.0174348
803.582	0.0173337
803.660	0.0173367
803.738	0.0173997
803.817	0.0172933
803.895	0.0173079
803.973	0.0171252
804.051	0.0171030
804.129	0.0169527
804.207	0.0170353
804.285	0.0170486
804.363	0.0169250
804.442	0.0166927
804.520	0.0168599
804.598	0.0167392
804.676	0.0166103
804.754	0.0166775
804.832	0.0168082
804.910	0.0167308
804.988	0.0169576
805.067	0.0169458
805.145	0.0170831
805.223	0.0171267
805.301	0.0173367
805.379	0.0174963
805.457	0.0174609
805.535	0.0174814
805.613	0.0174661
805.692	0.0176076
805.770	0.0176719
805.848	0.0177839
805.926	0.0176814
806.004	0.0177393
806.082	0.0174229
806.160	0.0174097
806.238	0.0177112
806.317	0.0175954
806.395	0.0175682
806.473	0.0174950
806.551	0.0175900
806.629	0.0175813
806.707	0.0174998
806.785	0.0175506
806.863	0.0176644
806.942	0.0177628
807.020	0.0178249
807.098	0.0177651
807.176	0.0177795
807.254	0.0178355
807.332	0.0179464
807.410	0.0180050
807.488	0.0179121
807.567	0.0178968
807.645	0.0178236
807.723	0.0177702
807.801	0.0179095
807.879	0.0179300
807.957	0.0177251
808.035	0.0176441
808.113	0.0174635
808.192	0.0174173
808.270	0.0173995
808.348	0.0173282
808.426	0.0171837
808.504	0.0172324
808.582	0.0171508
808.660	0.0170669
808.738	0.0170855
808.817	0.0170222
808.895	0.0169862
808.973	0.0171880
809.051	0.0172247
809.129	0.0172343
809.207	0.0172644
809.285	0.0172460
809.363	0.0173050
809.442	0.0174097
809.520	0.0174363
809.598	0.0174103
809.676	0.0176537
809.754	0.0175724
809.832	0.0175529
809.910	0.0176020
809.988	0.0177611
810.067	0.0177339
810.145	0.0176759
810.223	0.0176498
810.301	0.0176795
810.379	0.0176956
810.457	0.0175884
810.535	0.0177845
810.613	0.0176165
810.692	0.0177253
810.770	0.0177523
810.848	0.0177562
810.926	0.0177634
811.004	0.0176512
811.082	0.0178236
811.160	0.0178331
811.238	0.0177517
811.317	0.0176665
811.395	0.0178241
811.473	0.0178313
811.551	0.0177515
811.629	0.0177457
811.707	0.0176776
811.785	0.0175920
811.863	0.0175144
811.942	0.0175014
812.020	0.0174345
812.098	0.0171836
812.176	0.0172350
812.254	0.0171720
812.332	0.0172455
812.410	0.0170862
812.488	0.0171320
812.567	0.0170956
812.645	0.0170735
812.723	0.0171211
812.801	0.0171005
812.879	0.0171338
812.957	0.0173167
813.035	0.0173872
813.113	0.0173526
813.192	0.0173405
813.270	0.0173042
813.348	0.0175722
813.426	0.0177208
813.504	0.0177791
813.582	0.0177010
813.660	0.0176575
813.738	0.0178236
813.817	0.0178278
813.895	0.0178872
813.973	0.0178832
814.051	0.0179205
814.129	0.0179409
814.207	0.0178533
814.285	0.0178716
814.363	0.0179926
814.442	0.0177003
814.520	0.0177003
814.598	0.0177818
814.676	0.0178355
814.754	0.0178615
814.832	0.0178380
814.910	0.0178098
814.988	0.0179012
815.067	0.0179554
815.145	0.0180479
815.223	0.0180363
815.301	0.0180370
815.379	0.0180176
815.457	0.0181082
815.535	0.0180206
815.613	0.0180750
815.692	0.0181096
815.770	0.0178610
815.848	0.0179715
815.926	0.0179097
816.004	0.0178162
816.082	0.0177756
816.160	0.0177323
816.238	0.0175736
816.317	0.0176296
816.395	0.0176846
816.473	0.0175673
816.551	0.0175474
816.629	0.0174946
816.707	0.0174660
816.785	0.0175272
816.863	0.0174433
816.942	0.0173574
817.020	0.0174350
817.098	0.0175508
817.176	0.0175576
817.254	0.0174982
817.332	0.0176162
817.410	0.0175760
817.488	0.0178031
817.567	0.0179030
817.645	0.0177061
817.723	0.0179897
817.801	0.0177746
817.879	0.0177151
817.957	0.0178001
818.035	0.0178399
818.113	0.0179117
818.192	0.0178035
818.270	0.0177574
818.348	0.0177747
818.426	0.0176224
818.504	0.0176748
818.582	0.0176181
818.660	0.0176257
818.738	0.0176745
818.817	0.0175893
818.895	0.0173417
818.973	0.0174648
819.051	0.0174091
819.129	0.0172984
819.207	0.0172822
819.285	0.0171970
819.363	0.0171364
819.442	0.0170872
819.520	0.0170921
819.598	0.0170169
819.676	0.0168661
819.754	0.0167307
819.832	0.0168342
819.910	0.0167549
819.988	0.0168266
820.067	0.0167308
820.145	0.0166566
820.223	0.0166721
820.301	0.0166934
820.379	0.0166782
820.457	0.0167799
820.535	0.0168727
820.613	0.0169406
820.692	0.0170731
820.770	0.0170139
820.848	0.0170429
820.926	0.0172221
821.004	0.0173450
821.082	0.0174075
821.160	0.0173543
821.238	0.0175450
821.317	0.0174922
821.395	0.0173631
821.473	0.0175902
821.551	0.0175725
821.629	0.0176744
821.707	0.0176633
821.785	0.0176724
821.863	0.0175260
821.942	0.0176028
822.020	0.0177547
822.098	0.0176408
822.176	0.0175046
822.254	0.0176574
822.332	0.0178191
822.410	0.0177663
822.488	0.0178272
822.567	0.0177739
822.645	0.0178980
822.723	0.0178988
822.801	0.0180744
822.879	0.0179987
822.957	0.0179770
823.035	0.0180183
823.113	0.0180468
823.192	0.0181491
823.270	0.0180915
823.348	0.0180889
823.426	0.0181096
823.504	0.0178326
823.582	0.0178111
823.660	0.0180075
823.738	0.0178169
823.817	0.0176302
823.895	0.0177569
823.973	0.0176470
824.051	0.0175772
824.129	0.0176331
824.207	0.0175781
824.285	0.0175389
824.363	0.0175838
824.442	0.0174366
824.520	0.0174807
824.598	0.0176161
824.676	0.0175197
824.754	0.0175300
824.832	0.0175228
824.910	0.0175610
824.988	0.0177085
825.067	0.0175739
825.145	0.0175478
825.223	0.0176459
825.301	0.0176054
825.379	0.0176053
825.457	0.0177715
825.535	0.0177369
825.613	0.0178381
825.692	0.0177332
825.770	0.0176616
825.848	0.0176440
825.926	0.0176009
826.004	0.0178207
826.082	0.0175443
826.160	0.0176804
826.238	0.0176497
826.317	0.0176443
826.395	0.0175360
826.473	0.0175769
826.551	0.0175807
826.629	0.0174492
826.707	0.0175764
826.785	0.0174022
826.863	0.0173845
826.942	0.0174910
827.020	0.0174744
827.098	0.0175088
827.176	0.0172522
827.254	0.0172688
827.332	0.0172574
827.410	0.0172539
827.488	0.0173388
827.567	0.0172839
827.645	0.0170660
827.723	0.0171441
827.801	0.0172344
827.879	0.0170465
827.957	0.0171935
828.035	0.0171599
828.113	0.0171501
828.192	0.0169912
828.270	0.0171297
828.348	0.0172071
828.426	0.0172498
828.504	0.0172427
828.582	0.0173025
828.660	0.0174402
828.738	0.0175095
828.817	0.0174580
828.895	0.0175136
828.973	0.0174950
829.051	0.0176125
829.129	0.0177558
829.207	0.0177608
829.285	0.0176596
829.363	0.0178422
829.442	0.0177071
829.520	0.0178237
829.598	0.0177905
829.676	0.0178680
829.754	0.0178054
829.832	0.0177028
829.910	0.0177680
829.988	0.0177831
830.067	0.0177255
830.145	0.0177224
830.223	0.0176858
830.301	0.0176400
830.379	0.0176930
830.457	0.0175901
830.535	0.0176948
830.613	0.0178111
830.692	0.0176616
830.770	0.0175193
830.848	0.0176974
830.926	0.0175778
831.004	0.0175750
831.082	0.0176415
831.160	0.0176726
831.238	0.0174692
831.317	0.0175504
831.395	0.0176482
831.473	0.0176172
831.551	0.0175156
831.629	0.0176643
831.707	0.0175629
831.785	0.0174778
831.863	0.0174173
831.942	0.0174548
832.020	0.0172844
832.098	0.0173675
832.176	0.0173194
832.254	0.0171886
832.332	0.0173752
832.410	0.0174863
832.488	0.0173209
832.567	0.0173878
832.645	0.0173657
832.723	0.0173701
832.801	0.0173930
832.879	0.0174457
832.957	0.0175326
833.035	0.0176059
833.113	0.0175686
833.192	0.0174947
833.270	0.0175963
833.348	0.0176694
833.426	0.0176739
833.504	0.0175024
833.582	0.0175081
833.660	0.0174570
833.738	0.0175758
833.817	0.0176073
833.895	0.0174912
833.973	0.0174322
834.051	0.0174944
834.129	0.0175509
834.207	0.0174718
834.285	0.0175207
834.363	0.0174090
834.442	0.0175179
834.520	0.0174883
834.598	0.0175198
834.676	0.0174810
834.754	0.0173214
834.832	0.0173051
834.910	0.0173782
834.988	0.0175095
835.067	0.0173264
835.145	0.0173866
835.223	0.0172678
835.301	0.0171426
835.379	0.0173290
835.457	0.0173441
835.535	0.0171842
835.613	0.0170373
835.692	0.0171938
835.770	0.0172128
835.848	0.0171787
835.926	0.0171474
836.004	0.0172675
836.082	0.0173674
836.160	0.0173288
836.238	0.0173190
836.317	0.0174956
836.395	0.0176291
836.473	0.0177396
836.551	0.0175684
836.629	0.0176157
836.707	0.0177535
836.785	0.0176785
836.863	0.0177229
836.942	0.0179279
837.020	0.0178127
837.098	0.0177364
837.176	0.0178545
837.254	0.0177422
837.332	0.0177610
837.410	0.0176859
837.488	0.0178410
837.567	0.0177742
837.645	0.0175800
837.723	0.0176418
837.801	0.0175468
837.879	0.0176341
837.957	0.0177338
838.035	0.0177131
838.113	0.0176856
838.192	0.0176980
838.270	0.0176495
838.348	0.0175346
838.426	0.0176269
838.504	0.0177386
838.582	0.0176341
838.660	0.0177924
838.738	0.0177879
838.817	0.0177771
838.895	0.0177354
838.973	0.0177326
839.051	0.0178482
839.129	0.0176945
839.207	0.0176019
839.285	0.0176984
839.363	0.0175897
839.442	0.0176163
839.520	0.0176105
839.598	0.0175630
839.676	0.0175657
839.754	0.0176292
839.832	0.0174663
839.910	0.0174932
839.988	0.0173592
840.067	0.0174997
840.145	0.0175308
840.223	0.0175012
840.301	0.0175187
840.379	0.0176213
840.457	0.0176091
840.535	0.0176696
840.613	0.0176439
840.692	0.0176901
840.770	0.0176053
840.848	0.0175808
840.926	0.0178154
841.004	0.0178022
841.082	0.0177413
841.160	0.0179054
841.238	0.0179933
841.317	0.0176313
841.395	0.0178360
841.473	0.0178661
841.551	0.0177873
841.629	0.0177501
841.707	0.0177418
841.785	0.0177121
841.863	0.0176679
841.942	0.0175548
842.020	0.0175082
842.098	0.0175442
842.176	0.0173812
842.254	0.0175016
842.332	0.0172462
842.410	0.0170676
842.488	0.0172300
842.567	0.0171421
842.645	0.0171145
842.723	0.0170436
842.801	0.0170165
842.879	0.0169448
842.957	0.0169377
843.035	0.0169569
843.113	0.0169066
843.192	0.0168877
843.270	0.0168459
843.348	0.0168353
843.426	0.0169599
843.504	0.0169743
843.582	0.0168616
843.660	0.0169550
843.738	0.0169002
843.817	0.0169265
843.895	0.0170966
843.973	0.0170637
844.051	0.0172529
844.129	0.0171106
844.207	0.0173034
844.285	0.0173786
844.363	0.0175111
844.442	0.0174822
844.520	0.0174097
844.598	0.0175596
844.676	0.0174155
844.754	0.0175923
844.832	0.0175626
844.910	0.0177141
844.988	0.0175820
845.067	0.0174827
845.145	0.0176985
845.223	0.0177215
845.301	0.0176194
845.379	0.0176087
845.457	0.0176781
845.535	0.0177676
845.613	0.0176603
845.692	0.0176192
845.770	0.0175702
845.848	0.0175820
845.926	0.0176733
846.004	0.0176125
846.082	0.0175781
846.160	0.0177073
846.238	0.0177177
846.317	0.0175006
846.395	0.0175400
846.473	0.0176268
846.551	0.0177755
846.629	0.0177938
846.707	0.0176482
846.785	0.0179039
846.863	0.0178949
846.942	0.0178632
847.020	0.0178336
847.098	0.0178091
847.176	0.0178174
847.254	0.0178900
847.332	0.0178807
847.410	0.0179122
847.488	0.0178524
847.567	0.0178235
847.645	0.0177705
847.723	0.0178201
847.801	0.0177416
847.879	0.0176374
847.957	0.0178571
848.035	0.0178726
848.113	0.0176908
848.192	0.0176702
848.270	0.0176286
848.348	0.0176056
848.426	0.0175621
848.504	0.0177155
848.582	0.0177180
848.660	0.0177232
848.738	0.0176481
848.817	0.0177245
848.895	0.0176755
848.973	0.0177351
849.051	0.0177950
849.129	0.0177286
849.207	0.0177728
849.285	0.0178516
849.363	0.0177026
849.442	0.0178346
849.520	0.0177328
849.598	0.0176175
849.676	0.0178297
849.754	0.0175986
849.832	0.0175399
849.910	0.0176127
849.988	0.0175082
850.067	0.0175358
850.145	0.0175471
850.223	0.0174580
850.301	0.0173327
850.379	0.0173876
850.457	0.0172814
850.535	0.0173994
850.613	0.0174245
850.692	0.0172448
850.770	0.0171370
850.848	0.0171318
850.926	0.0171447
851.004	0.0169786
851.082	0.0169707
851.160	0.0170906
851.238	0.0169907
851.317	0.0169968
851.395	0.0169994
851.473	0.0170824
851.551	0.0170274
851.629	0.0170438
851.707	0.0171329
851.785	0.0172375
851.863	0.0172141
851.942	0.0172079
852.020	0.0173689
852.098	0.0175051
852.176	0.0174122
852.254	0.0174764
852.332	0.0175195
852.410	0.0176934
852.488	0.0176979
852.567	0.0175929
852.645	0.0177896
852.723	0.0177986
852.801	0.0178167
852.879	0.0177700
852.957	0.0176959
853.035	0.0177044
853.113	0.0176756
853.192	0.0176953
853.270	0.0175841
853.348	0.0177162
853.426	0.0175521
853.504	0.0175969
853.582	0.0176599
853.660	0.0176154
853.738	0.0175598
853.817	0.0175629
853.895	0.0175999
853.973	0.0176849
854.051	0.0175072
854.129	0.0176793
854.207	0.0176176
854.285	0.0176822
854.363	0.0176415
854.442	0.0176570
854.520	0.0177195
854.598	0.0177108
854.676	0.0177216
854.754	0.0178067
854.832	0.0176823
854.910	0.0177522
854.988	0.0177666
855.067	0.0178412
855.145	0.0178109
855.223	0.0177267
855.301	0.0177369
855.379	0.0177383
855.457	0.0176649
855.535	0.0176846
855.613	0.0175894
855.692	0.0176880
855.770	0.0177827
855.848	0.0176835
855.926	0.0176937
856.004	0.0176882
856.082	0.0176448
856.160	0.0176262
856.238	0.0176257
856.317	0.0176677
856.395	0.0176817
856.473	0.0176690
856.551	0.0176820
856.629	0.0178374
856.707	0.0175646
856.785	0.0177390
856.863	0.0178719
856.942	0.0177433
857.020	0.0176794
857.098	0.0177487
857.176	0.0178227
857.254	0.0177950
857.332	0.0176343
857.410	0.0176507
857.488	0.0176836
857.567	0.0176787
857.645	0.0177235
857.723	0.0175131
857.801	0.0174825
857.879	0.0173746
857.957	0.0175764
858.035	0.0176093
858.113	0.0173655
858.192	0.0173682
858.270	0.0173190
858.348	0.0174848
858.426	0.0174384
858.504	0.0171627
858.582	0.0170924
858.660	0.0173696
858.738	0.0170743
858.817	0.0171550
858.895	0.0172041
858.973	0.0169501
859.051	0.0170438
859.129	0.0169948
859.207	0.0170938
859.285	0.0170613
859.363	0.0170891
859.442	0.0171022
859.520	0.0169662
859.598	0.0171851
859.676	0.0173335
859.754	0.0172910
859.832	0.0173499
859.910	0.0172868
859.988	0.0174625
860.067	0.0175150
860.145	0.0175573
860.223	0.0175126
860.301	0.0176518
860.379	0.0176665
860.457	0.0176607
860.535	0.0176572
860.613	0.0177604
860.692	0.0177090
860.770	0.0177351
860.848	0.0178033
860.926	0.0177407
861.004	0.0176817
861.082	0.0176494
861.160	0.0176371
861.238	0.0176733
861.317	0.0175018
861.395	0.0173038
861.473	0.0174091
861.551	0.0173606
861.629	0.0173912
861.707	0.0173680
861.785	0.0173476
861.863	0.0173508
861.942	0.0174247
862.020	0.0172852
862.098	0.0173696
862.176	0.0175274
862.254	0.0176619
862.332	0.0175082
862.410	0.0175703
862.488	0.0175356
862.567	0.0175529
862.645	0.0176783
862.723	0.0176278
862.801	0.0177144
862.879	0.0176669
862.957	0.0177859
863.035	0.0176865
863.113	0.0176883
863.192	0.0176672
863.270	0.0176026
863.348	0.0177503
863.426	0.0177511
863.504	0.0176612
863.582	0.0176005
863.660	0.0176389
863.738	0.0175574
863.817	0.0175236
863.895	0.0176102
863.973	0.0176221
864.051	0.0176153
864.129	0.0174573
864.207	0.0174555
864.285	0.0176026
864.363	0.0174928
864.442	0.0175352
864.520	0.0174923
864.598	0.0174712
864.676	0.0174321
864.754	0.0174451
864.832	0.0173590
864.910	0.0173602
864.988	0.0172739
865.067	0.0174958
865.145	0.0175787
865.223	0.0174490
865.301	0.0173765
865.379	0.0173881
865.457	0.0173985
865.535	0.0172897
865.613	0.0173392
865.692	0.0172153
865.770	0.0173562
865.848	0.0172953
865.926	0.0172675
866.004	0.0170838
866.082	0.0170731
866.160	0.0169191
866.238	0.0171957
866.317	0.0169447
866.395	0.0170396
866.473	0.0169427
866.551	0.0168578
866.629	0.0169097
866.707	0.0169400
866.785	0.0169038
866.863	0.0169441
866.942	0.0168988
867.020	0.0168969
867.098	0.0168980
867.176	0.0169801
867.254	0.0169661
867.332	0.0170017
867.410	0.0170428
867.488	0.0170415
867.567	0.0171995
867.645	0.0173386
867.723	0.0174686
867.801	0.0173258
867.879	0.0175291
867.957	0.0175829
868.035	0.0177109
868.113	0.0176009
868.192	0.0177346
868.270	0.0177484
868.348	0.0178557
868.426	0.0177651
868.504	0.0179326
868.582	0.0179114
868.660	0.0178555
868.738	0.0178174
868.817	0.0177916
868.895	0.0178117
868.973	0.0177405
869.051	0.0176223
869.129	0.0177409
869.207	0.0179117
869.285	0.0177939
869.363	0.0176829
869.442	0.0176928
869.520	0.0176276
869.598	0.0176415
869.676	0.0177168
869.754	0.0176652
869.832	0.0176007
869.910	0.0177322
869.988	0.0176368
870.067	0.0176506
870.145	0.0178182
870.223	0.0178906
870.301	0.0179263
870.379	0.0177949
870.457	0.0178347
870.535	0.0178945
870.613	0.0180733
870.692	0.0180535
870.770	0.0180420
870.848	0.0178777
870.926	0.0180117
871.004	0.0182078
871.082	0.0180012
871.160	0.0178331
871.238	0.0180070
871.317	0.0180524
871.395	0.0180130
871.473	0.0179573
871.551	0.0179472
871.629	0.0179372
871.707	0.0179729
871.785	0.0178099
871.863	0.0178905
871.942	0.0177737
872.020	0.0177420
872.098	0.0176709
872.176	0.0178679
872.254	0.0178844
872.332	0.0178544
872.410	0.0177739
872.488	0.0176817
872.567	0.0178086
872.645	0.0176711
872.723	0.0177786
872.801	0.0177670
872.879	0.0177320
872.957	0.0177258
873.035	0.0176807
873.113	0.0176469
873.192	0.0177048
873.270	0.0174345
873.348	0.0177000
873.426	0.0175912
873.504	0.0176395
873.582	0.0176353
873.660	0.0175706
873.738	0.0175644
873.817	0.0175082
873.895	0.0172979
873.973	0.0174913
874.051	0.0174245
874.129	0.0174991
874.207	0.0172488
874.285	0.0174284
874.363	0.0174723
874.442	0.0174907
874.520	0.0173084
874.598	0.0173026
874.676	0.0174069
874.754	0.0174026
874.832	0.0172399
874.910	0.0172835
874.988	0.0173181
875.067	0.0173350
875.145	0.0174482
875.223	0.0174191
875.301	0.0173523
875.379	0.0173618
875.457	0.0173508
875.535	0.0174496
875.613	0.0174914
875.692	0.0175404
875.770	0.0174763
875.848	0.0177372
875.926	0.0176633
876.004	0.0176348
876.082	0.0175732
876.160	0.0177054
876.238	0.0177488
876.317	0.0177820
876.395	0.0177757
876.473	0.0176561
876.551	0.0176193
876.629	0.0177097
876.707	0.0177568
876.785	0.0176751
876.863	0.0177394
876.942	0.0175860
877.020	0.0175848
877.098	0.0176260
877.176	0.0176594
877.254	0.0177063
877.332	0.0177563
877.410	0.0175999
877.488	0.0176170
877.567	0.0174706
877.645	0.0176507
877.723	0.0176285
877.801	0.0176926
877.879	0.0175014
877.957	0.0176093
878.035	0.0175997
878.113	0.0175608
878.192	0.0176035
878.270	0.0177654
878.348	0.0175745
878.426	0.0174900
878.504	0.0176496
878.582	0.0177672
878.660	0.0175182
878.738	0.0175569
878.817	0.0176537
878.895	0.0177233
878.973	0.0177916
879.051	0.0178402
879.129	0.0176458
879.207	0.0177291
879.285	0.0176090
879.363	0.0177156
879.442	0.0177961
879.520	0.0176599
879.598	0.0175336
879.676	0.0175777
879.754	0.0176478
879.832	0.0177348
879.910	0.0176617
879.988	0.0175859
880.067	0.0175793
880.145	0.0175536
880.223	0.0176225
880.301	0.0176444
880.379	0.0174767
880.457	0.0175294
880.535	0.0176336
880.613	0.0175281
880.692	0.0176447
880.770	0.0176186
880.848	0.0176379
880.926	0.0176986
881.004	0.0177484
881.082	0.0176437
881.160	0.0174809
881.238	0.0175854
881.317	0.0174221
881.395	0.0174194
881.473	0.0174133
881.551	0.0173331
881.629	0.0175608
881.707	0.0173790
881.785	0.0172441
881.863	0.0172735
881.942	0.0172439
882.020	0.0171803
882.098	0.0173225
882.176	0.0173011
882.254	0.0172066
882.332	0.0173103
882.410	0.0173320
882.488	0.0172723
882.567	0.0172959
882.645	0.0171835
882.723	0.0172224
882.801	0.0173865
882.879	0.0173528
882.957	0.0174196
883.035	0.0174378
883.113	0.0174400
883.192	0.0173279
883.270	0.0174969
883.348	0.0175848
883.426	0.0175313
883.504	0.0174569
883.582	0.0175095
883.660	0.0176139
883.738	0.0177448
883.817	0.0175597
883.895	0.0175896
883.973	0.0177011
884.051	0.0176576
884.129	0.0176433
884.207	0.0175531
884.285	0.0175269
884.363	0.0177115
884.442	0.0175719
884.520	0.0175891
884.598	0.0176559
884.676	0.0175983
884.754	0.0176072
884.832	0.0177073
884.910	0.0176690
884.988	0.0176322
885.067	0.0175771
885.145	0.0176939
885.223	0.0177200
885.301	0.0176726
885.379	0.0176890
885.457	0.0176840
885.535	0.0176815
885.613	0.0176832
885.692	0.0177267
885.770	0.0176493
885.848	0.0176785
885.926	0.0177897
886.004	0.0176808
886.082	0.0175178
886.160	0.0176101
886.238	0.0176252
886.317	0.0176627
886.395	0.0176078
886.473	0.0176053
886.551	0.0177254
886.629	0.0177914
886.707	0.0177972
886.785	0.0177528
886.863	0.0176908
886.942	0.0177996
887.020	0.0176683
887.098	0.0177380
887.176	0.0177599
887.254	0.0177205
887.332	0.0177451
887.410	0.0177785
887.488	0.0177200
887.567	0.0176446
887.645	0.0177006
887.723	0.0175272
887.801	0.0176868
887.879	0.0176134
887.957	0.0174412
888.035	0.0176052
888.113	0.0174232
888.192	0.0175255
888.270	0.0175975
888.348	0.0174007
888.426	0.0174715
888.504	0.0175921
888.582	0.0173918
888.660	0.0174465
888.738	0.0175375
888.817	0.0174865
888.895	0.0175225
888.973	0.0174038
889.051	0.0175229
889.129	0.0176106
889.207	0.0174998
889.285	0.0176281
889.363	0.0174562
889.442	0.0175786
889.520	0.0174782
889.598	0.0175721
889.676	0.0174795
889.754	0.0174619
889.832	0.0174201
889.910	0.0175088
889.988	0.0175335
890.067	0.0175716
890.145	0.0175552
890.223	0.0174828
890.301	0.0175341
890.379	0.0175874
890.457	0.0174741
890.535	0.0174746
890.613	0.0174136
890.692	0.0174684
890.770	0.0176813
890.848	0.0175956
890.926	0.0175996
891.004	0.0176345
891.082	0.0175975
891.160	0.0176165
891.238	0.0177040
891.317	0.0176725
891.395	0.0175982
891.473	0.0175999
891.551	0.0176266
891.629	0.0177966
891.707	0.0176379
891.785	0.0177088
891.863	0.0177769
891.942	0.0178477
892.020	0.0176726
892.098	0.0176820
892.176	0.0177579
892.254	0.0176955
892.332	0.0177872
892.410	0.0178643
892.488	0.0177634
892.567	0.0176993
892.645	0.0177098
892.723	0.0177126
892.801	0.0176683
892.879	0.0175730
892.957	0.0176135
893.035	0.0175951
893.113	0.0177188
893.192	0.0176385
893.270	0.0174837
893.348	0.0175291
893.426	0.0176190
893.504	0.0175822
893.582	0.0175712
893.660	0.0175494
893.738	0.0176109
893.817	0.0175169
893.895	0.0174412
893.973	0.0175358
894.051	0.0174803
894.129	0.0176262
894.207	0.0174911
894.285	0.0175851
894.363	0.0175176
894.442	0.0175114
894.520	0.0175295
894.598	0.0176041
894.676	0.0177026
894.754	0.0176371
894.832	0.0179047
894.910	0.0178092
894.988	0.0178651
895.067	0.0177431
895.145	0.0178433
895.223	0.0178735
895.301	0.0177823
895.379	0.0179772
895.457	0.0178906
895.535	0.0178678
895.613	0.0178747
895.692	0.0177561
895.770	0.0178124
895.848	0.0177832
895.926	0.0177807
896.004	0.0176186
896.082	0.0175370
896.160	0.0175809
896.238	0.0175409
896.317	0.0173882
896.395	0.0174752
896.473	0.0173736
896.551	0.0172569
896.629	0.0173638
896.707	0.0172990
896.785	0.0173466
896.863	0.0171880
896.942	0.0172702
897.020	0.0172533
897.098	0.0172027
897.176	0.0172293
897.254	0.0172761
897.332	0.0172919
897.410	0.0172670
897.488	0.0171672
897.567	0.0171932
897.645	0.0173969
897.723	0.0174574
897.801	0.0173174
897.879	0.0173640
897.957	0.0173629
898.035	0.0172985
898.113	0.0173504
898.192	0.0174376
898.270	0.0174601
898.348	0.0173404
898.426	0.0174116
898.504	0.0173888
898.582	0.0176591
898.660	0.0175780
898.738	0.0175329
898.817	0.0175213
898.895	0.0175851
898.973	0.0174812
899.051	0.0175605
899.129	0.0174928
899.207	0.0175813
899.285	0.0175265
899.363	0.0175660
899.442	0.0176715
899.520	0.0174921
899.598	0.0175047
899.676	0.0176311
899.754	0.0176305
899.832	0.0175780
899.910	0.0176237
899.988	0.0176173
900.067	0.0176378
900.145	0.0175318
900.223	0.0174762
900.301	0.0176673
900.379	0.0176405
900.457	0.0176203
900.535	0.0175186
900.613	0.0175461
900.692	0.0175181
900.770	0.0174798
900.848	0.0172810
900.926	0.0174646
901.004	0.0175319
901.082	0.0174315
901.160	0.0173795
901.238	0.0174742
901.317	0.0176152
901.395	0.0174387
901.473	0.0173808
901.551	0.0174588
901.629	0.0175399
901.707	0.0174589
901.785	0.0174933
901.863	0.0174548
901.942	0.0175450
902.020	0.0175176
902.098	0.0174863
902.176	0.0173906
902.254	0.0174232
902.332	0.0172926
902.410	0.0175187
902.488	0.0175384
902.567	0.0173573
902.645	0.0173492
902.723	0.0174295
902.801	0.0173586
902.879	0.0174934
902.957	0.0175199
903.035	0.0174565
903.113	0.0173951
903.192	0.0176105
903.270	0.0174834
903.348	0.0175108
903.426	0.0175526
903.504	0.0175038
903.582	0.0175677
903.660	0.0175106
903.738	0.0175282
903.817	0.0175859
903.895	0.0175574
903.973	0.0174140
904.051	0.0174857
904.129	0.0174786
904.207	0.0174775
904.285	0.0175561
904.363	0.0175687
904.442	0.0174035
904.520	0.0174464
904.598	0.0174493
904.676	0.0174922
904.754	0.0174325
904.832	0.0173167
904.910	0.0175148
904.988	0.0174297
905.067	0.0174793
905.145	0.0175042
905.223	0.0174178
905.301	0.0173354
905.379	0.0175488
905.457	0.0175733
905.535	0.0175247
905.613	0.0173898
905.692	0.0175238
905.770	0.0175565
905.848	0.0174432
905.926	0.0175616
906.004	0.0173479
906.082	0.0173962
906.160	0.0175589
906.238	0.0173083
906.317	0.0174563
906.395	0.0174099
906.473	0.0174918
906.551	0.0173810
906.629	0.0175585
906.707	0.0175155
906.785	0.0175579
906.863	0.0174512
906.942	0.0175432
907.020	0.0176443
907.098	0.0174585
907.176	0.0175706
907.254	0.0174236
907.332	0.0174149
907.410	0.0174516
907.488	0.0174709
907.567	0.0174876
907.645	0.0174976
907.723	0.0175465
907.801	0.0174564
907.879	0.0175468
907.957	0.0175476
908.035	0.0175568
908.113	0.0175794
908.192	0.0176078
908.270	0.0176280
908.348	0.0173628
908.426	0.0174074
908.504	0.0174840
908.582	0.0175669
908.660	0.0175278
908.738	0.0175874
908.817	0.0174986
908.895	0.0174090
908.973	0.0174281
909.051	0.0174055
909.129	0.0174286
909.207	0.0174596
909.285	0.0173015
909.363	0.0172317
909.442	0.0173899
909.520	0.0172545
909.598	0.0172612
909.676	0.0173622
909.754	0.0174140
909.832	0.0173886
909.910	0.0174360
909.988	0.0174403
910.067	0.0174524
910.145	0.0173357
910.223	0.0175950
910.301	0.0174667
910.379	0.0175787
910.457	0.0175941
910.535	0.0177132
910.613	0.0178486
910.692	0.0176871
910.770	0.0176369
910.848	0.0176528
910.926	0.0177153
911.004	0.0176439
911.082	0.0176948
911.160	0.0177267
911.238	0.0177059
911.317	0.0176952
911.395	0.0176448
911.473	0.0178262
911.551	0.0178493
911.629	0.0179138
911.707	0.0178013
911.785	0.0176874
911.863	0.0177914
911.942	0.0177404
912.020	0.0177851
912.098	0.0176761
912.176	0.0176550
912.254	0.0176745
912.332	0.0174803
912.410	0.0176336
912.488	0.0178565
912.567	0.0176195
912.645	0.0175127
912.723	0.0175757
912.801	0.0175837
912.879	0.0176394
912.957	0.0176187
913.035	0.0175222
913.113	0.0176276
913.192	0.0175568
913.270	0.0175576
913.348	0.0175842
913.426	0.0177514
913.504	0.0177332
913.582	0.0175179
913.660	0.0177601
913.738	0.0178837
913.817	0.0177155
913.895	0.0177209
913.973	0.0175620
914.051	0.0176618
914.129	0.0177068
914.207	0.0175772
914.285	0.0177020
914.363	0.0176263
914.442	0.0176373
914.520	0.0176646
914.598	0.0176180
914.676	0.0175224
914.754	0.0176093
914.832	0.0177232
914.910	0.0174623
914.988	0.0175763
915.067	0.0174605
915.145	0.0174880
915.223	0.0173602
915.301	0.0175438
915.379	0.0173611
915.457	0.0174348
915.535	0.0174865
915.613	0.0174516
915.692	0.0173396
915.770	0.0174461
915.848	0.0173421
915.926	0.0174180
916.004	0.0175500
916.082	0.0175997
916.160	0.0175330
916.238	0.0176367
916.317	0.0173987
916.395	0.0174895
916.473	0.0175408
916.551	0.0175478
916.629	0.0174609
916.707	0.0176347
916.785	0.0175613
916.863	0.0173776
916.942	0.0176176
917.020	0.0175890
917.098	0.0175333
917.176	0.0172771
917.254	0.0174329
917.332	0.0173997
917.410	0.0175201
917.488	0.0173586
917.567	0.0175082
917.645	0.0173215
917.723	0.0173006
917.801	0.0174532
917.879	0.0175089
917.957	0.0175730
918.035	0.0175321
918.113	0.0174185
918.192	0.0175239
918.270	0.0174503
918.348	0.0175719
918.426	0.0174945
918.504	0.0176244
918.582	0.0175829
918.660	0.0175053
918.738	0.0177149
918.817	0.0175638
918.895	0.0174537
918.973	0.0175058
919.051	0.0175285
919.129	0.0176486
919.207	0.0175632
919.285	0.0175544
919.363	0.0176160
919.442	0.0174589
919.520	0.0174228
919.598	0.0174709
919.676	0.0174129
919.754	0.0174512
919.832	0.0172057
919.910	0.0172427
