06/01/2022	22:01:18	Ver.	4.1	UNKNOWN
Optical Delay	599.988409	Delta X		0.078125	Sweeps	1	Scan Rate	0/0
Coordinates	Axis 1	NaN	Axis 2	NaN	Axis 3	NaN	Axis 4	NaN	Axis 5	NaN	Axis 6	0.000000
TX Power	0.000000	RX Power	0.000000

599.988	0.0167712
600.067	0.0165015
600.145	0.0165598
600.223	0.0166265
600.301	0.0166515
600.379	0.0167133
600.457	0.0165935
600.535	0.0166794
600.613	0.0167384
600.692	0.0167421
600.770	0.0167336
600.848	0.0168301
600.926	0.0167090
601.004	0.0167461
601.082	0.0168719
601.160	0.0169624
601.238	0.0167329
601.317	0.0168281
601.395	0.0169328
601.473	0.0168066
601.551	0.0167869
601.629	0.0170179
601.707	0.0168763
601.785	0.0168113
601.863	0.0168876
601.942	0.0167879
602.020	0.0168185
602.098	0.0167600
602.176	0.0168350
602.254	0.0168408
602.332	0.0167109
602.410	0.0166869
602.488	0.0167519
602.567	0.0168370
602.645	0.0166302
602.723	0.0165772
602.801	0.0167269
602.879	0.0165631
602.957	0.0166225
603.035	0.0167776
603.113	0.0167804
603.192	0.0166064
603.270	0.0166414
603.348	0.0166750
603.426	0.0166073
603.504	0.0168721
603.582	0.0167447
603.660	0.0168296
603.738	0.0167664
603.817	0.0165945
603.895	0.0166956
603.973	0.0168639
604.051	0.0167078
604.129	0.0166996
604.207	0.0167575
604.285	0.0167023
604.363	0.0167725
604.442	0.0166620
604.520	0.0167645
604.598	0.0167864
604.676	0.0167294
604.754	0.0168255
604.832	0.0168394
604.910	0.0167969
604.988	0.0168037
605.067	0.0168414
605.145	0.0169095
605.223	0.0168098
605.301	0.0169704
605.379	0.0168066
605.457	0.0167136
605.535	0.0170000
605.613	0.0169653
605.692	0.0168391
605.770	0.0169099
605.848	0.0169530
605.926	0.0168211
606.004	0.0168956
606.082	0.0169041
606.160	0.0168671
606.238	0.0169095
606.317	0.0170544
606.395	0.0168947
606.473	0.0168611
606.551	0.0170177
606.629	0.0170780
606.707	0.0168690
606.785	0.0169485
606.863	0.0170349
606.942	0.0170026
607.020	0.0169109
607.098	0.0169032
607.176	0.0169932
607.254	0.0171364
607.332	0.0169016
607.410	0.0168890
607.488	0.0169097
607.567	0.0168650
607.645	0.0169894
607.723	0.0168501
607.801	0.0167535
607.879	0.0168975
607.957	0.0169822
608.035	0.0168149
608.113	0.0168412
608.192	0.0167671
608.270	0.0167732
608.348	0.0168555
608.426	0.0169110
608.504	0.0169102
608.582	0.0168404
608.660	0.0168057
608.738	0.0167076
608.817	0.0168275
608.895	0.0168932
608.973	0.0170232
609.051	0.0168111
609.129	0.0168147
609.207	0.0168011
609.285	0.0169272
609.363	0.0167606
609.442	0.0168114
609.520	0.0168262
609.598	0.0169577
609.676	0.0167682
609.754	0.0168085
609.832	0.0168559
609.910	0.0167440
609.988	0.0168669
610.067	0.0169076
610.145	0.0169472
610.223	0.0167263
610.301	0.0167577
610.379	0.0169032
610.457	0.0168821
610.535	0.0168040
610.613	0.0168882
610.692	0.0168010
610.770	0.0167823
610.848	0.0167529
610.926	0.0168137
611.004	0.0167413
611.082	0.0167341
611.160	0.0167110
611.238	0.0167725
611.317	0.0168393
611.395	0.0167184
611.473	0.0166383
611.551	0.0167731
611.629	0.0167073
611.707	0.0167802
611.785	0.0167557
611.863	0.0167709
611.942	0.0165823
612.020	0.0167683
612.098	0.0167932
612.176	0.0167643
612.254	0.0167408
612.332	0.0168389
612.410	0.0168284
612.488	0.0167451
612.567	0.0169493
612.645	0.0168549
612.723	0.0168559
612.801	0.0167174
612.879	0.0166831
612.957	0.0167117
613.035	0.0166148
613.113	0.0167336
613.192	0.0166916
613.270	0.0168185
613.348	0.0167650
613.426	0.0167410
613.504	0.0167381
613.582	0.0167152
613.660	0.0167366
613.738	0.0166688
613.817	0.0166847
613.895	0.0168537
613.973	0.0168699
614.051	0.0168193
614.129	0.0167292
614.207	0.0169809
614.285	0.0167416
614.363	0.0168071
614.442	0.0168595
614.520	0.0167764
614.598	0.0169084
614.676	0.0168698
614.754	0.0169403
614.832	0.0168089
614.910	0.0167701
614.988	0.0168370
615.067	0.0168120
615.145	0.0169325
615.223	0.0168436
615.301	0.0169181
615.379	0.0167503
615.457	0.0166685
615.535	0.0167954
615.613	0.0167524
615.692	0.0168720
615.770	0.0168624
615.848	0.0168336
615.926	0.0168325
616.004	0.0169164
616.082	0.0169370
616.160	0.0167621
616.238	0.0167901
616.317	0.0168009
616.395	0.0167579
616.473	0.0168047
616.551	0.0169548
616.629	0.0168945
616.707	0.0168277
616.785	0.0167058
616.863	0.0167672
616.942	0.0166553
617.020	0.0168681
617.098	0.0168744
617.176	0.0167973
617.254	0.0168696
617.332	0.0169061
617.410	0.0168288
617.488	0.0167775
617.567	0.0168126
617.645	0.0167799
617.723	0.0167986
617.801	0.0169006
617.879	0.0168672
617.957	0.0167899
618.035	0.0167790
618.113	0.0166906
618.192	0.0167736
618.270	0.0167796
618.348	0.0166128
618.426	0.0167022
618.504	0.0166789
618.582	0.0165363
618.660	0.0168555
618.738	0.0168238
618.817	0.0166418
618.895	0.0168346
618.973	0.0166763
619.051	0.0166013
619.129	0.0167191
619.207	0.0167218
619.285	0.0169164
619.363	0.0166644
619.442	0.0167847
619.520	0.0167772
619.598	0.0167666
619.676	0.0167130
619.754	0.0166740
619.832	0.0167002
619.910	0.0167872
619.988	0.0165919
620.067	0.0166520
620.145	0.0166687
620.223	0.0166212
620.301	0.0166885
620.379	0.0164397
620.457	0.0166994
620.535	0.0166558
620.613	0.0168739
620.692	0.0166911
620.770	0.0167342
620.848	0.0167022
620.926	0.0167602
621.004	0.0167525
621.082	0.0168277
621.160	0.0167810
621.238	0.0167559
621.317	0.0167675
621.395	0.0167903
621.473	0.0167814
621.551	0.0167001
621.629	0.0166992
621.707	0.0166319
621.785	0.0166786
621.863	0.0166809
621.942	0.0166640
622.020	0.0167622
622.098	0.0167513
622.176	0.0167357
622.254	0.0166489
622.332	0.0168600
622.410	0.0168495
622.488	0.0168446
622.567	0.0166959
622.645	0.0166695
622.723	0.0166094
622.801	0.0165843
622.879	0.0166057
622.957	0.0168083
623.035	0.0167102
623.113	0.0166177
623.192	0.0166776
623.270	0.0167422
623.348	0.0167999
623.426	0.0167242
623.504	0.0168959
623.582	0.0168857
623.660	0.0167818
623.738	0.0168409
623.817	0.0167618
623.895	0.0168118
623.973	0.0169687
624.051	0.0169331
624.129	0.0169533
624.207	0.0169188
624.285	0.0167213
624.363	0.0168864
624.442	0.0169965
624.520	0.0168858
624.598	0.0169244
624.676	0.0168965
624.754	0.0168769
624.832	0.0168424
624.910	0.0169670
624.988	0.0170153
625.067	0.0168436
625.145	0.0169469
625.223	0.0169217
625.301	0.0170776
625.379	0.0168967
625.457	0.0169267
625.535	0.0168279
625.613	0.0169522
625.692	0.0170857
625.770	0.0169473
625.848	0.0168867
625.926	0.0169846
626.004	0.0168618
626.082	0.0169816
626.160	0.0171038
626.238	0.0170309
626.317	0.0168502
626.395	0.0168171
626.473	0.0169312
626.551	0.0170240
626.629	0.0170881
626.707	0.0170232
626.785	0.0167302
626.863	0.0167905
626.942	0.0169159
627.020	0.0168075
627.098	0.0168795
627.176	0.0168635
627.254	0.0169291
627.332	0.0168918
627.410	0.0170785
627.488	0.0167287
627.567	0.0167337
627.645	0.0169708
627.723	0.0169936
627.801	0.0169308
627.879	0.0167231
627.957	0.0168155
628.035	0.0169967
628.113	0.0169365
628.192	0.0169532
628.270	0.0167139
628.348	0.0169628
628.426	0.0169430
628.504	0.0168806
628.582	0.0168642
628.660	0.0168535
628.738	0.0169309
628.817	0.0169670
628.895	0.0168769
628.973	0.0167686
629.051	0.0168027
629.129	0.0169554
629.207	0.0169724
629.285	0.0170119
629.363	0.0168893
629.442	0.0167429
629.520	0.0167828
629.598	0.0167545
629.676	0.0167989
629.754	0.0169195
629.832	0.0168090
629.910	0.0168614
629.988	0.0168915
630.067	0.0168056
630.145	0.0167651
630.223	0.0168633
630.301	0.0167006
630.379	0.0169597
630.457	0.0169086
630.535	0.0168137
630.613	0.0167141
630.692	0.0169286
630.770	0.0169038
630.848	0.0169129
630.926	0.0168337
631.004	0.0169623
631.082	0.0169352
631.160	0.0167646
631.238	0.0168805
631.317	0.0168385
631.395	0.0168391
631.473	0.0168636
631.551	0.0168764
631.629	0.0167803
631.707	0.0169626
631.785	0.0169012
631.863	0.0167564
631.942	0.0169038
632.020	0.0168282
632.098	0.0167723
632.176	0.0167444
632.254	0.0166238
632.332	0.0168111
632.410	0.0168230
632.488	0.0167285
632.567	0.0167242
632.645	0.0167796
632.723	0.0168898
632.801	0.0168690
632.879	0.0167329
632.957	0.0168029
633.035	0.0168664
633.113	0.0168195
633.192	0.0168204
633.270	0.0167996
633.348	0.0168037
633.426	0.0168629
633.504	0.0169485
633.582	0.0168855
633.660	0.0169195
633.738	0.0168493
633.817	0.0168766
633.895	0.0167770
633.973	0.0168891
634.051	0.0167886
634.129	0.0166615
634.207	0.0166571
634.285	0.0166256
634.363	0.0166901
634.442	0.0167184
634.520	0.0166943
634.598	0.0167604
634.676	0.0166439
634.754	0.0165931
634.832	0.0166428
634.910	0.0166602
634.988	0.0166259
635.067	0.0166144
635.145	0.0166547
635.223	0.0167331
635.301	0.0167632
635.379	0.0168607
635.457	0.0168800
635.535	0.0168018
635.613	0.0168330
635.692	0.0167449
635.770	0.0168645
635.848	0.0167817
635.926	0.0168192
636.004	0.0168188
636.082	0.0167874
636.160	0.0168404
636.238	0.0166593
636.317	0.0166249
636.395	0.0167136
636.473	0.0166335
636.551	0.0166747
636.629	0.0166963
636.707	0.0165614
636.785	0.0165569
636.863	0.0165056
636.942	0.0166469
637.020	0.0166904
637.098	0.0168529
637.176	0.0166403
637.254	0.0166149
637.332	0.0166800
637.410	0.0165457
637.488	0.0166878
637.567	0.0167638
637.645	0.0167761
637.723	0.0166771
637.801	0.0168068
637.879	0.0167001
637.957	0.0168124
638.035	0.0168610
638.113	0.0168160
638.192	0.0168860
638.270	0.0167212
638.348	0.0168145
638.426	0.0167010
638.504	0.0168774
638.582	0.0166766
638.660	0.0167234
638.738	0.0166972
638.817	0.0167188
638.895	0.0165476
638.973	0.0164025
639.051	0.0166243
639.129	0.0165749
639.207	0.0166198
639.285	0.0165430
639.363	0.0166575
639.442	0.0166454
639.520	0.0166510
639.598	0.0167447
639.676	0.0167546
639.754	0.0166518
639.832	0.0167419
639.910	0.0166770
639.988	0.0168396
640.067	0.0167432
640.145	0.0166477
640.223	0.0167316
640.301	0.0167973
640.379	0.0169187
640.457	0.0168185
640.535	0.0167848
640.613	0.0167864
640.692	0.0166878
640.770	0.0166579
640.848	0.0167466
640.926	0.0168134
641.004	0.0166273
641.082	0.0165774
641.160	0.0167141
641.238	0.0166120
641.317	0.0165878
641.395	0.0165686
641.473	0.0165742
641.551	0.0166898
641.629	0.0166943
641.707	0.0167618
641.785	0.0166373
641.863	0.0166738
641.942	0.0166183
642.020	0.0166171
642.098	0.0165706
642.176	0.0166993
642.254	0.0166254
642.332	0.0166458
642.410	0.0166334
642.488	0.0165924
642.567	0.0166669
642.645	0.0166615
642.723	0.0165955
642.801	0.0166165
642.879	0.0167747
642.957	0.0166236
643.035	0.0166254
643.113	0.0168697
643.192	0.0166561
643.270	0.0166523
643.348	0.0167809
643.426	0.0167068
643.504	0.0166751
643.582	0.0166447
643.660	0.0166793
643.738	0.0166138
643.817	0.0167568
643.895	0.0167559
643.973	0.0166912
644.051	0.0166460
644.129	0.0167260
644.207	0.0167621
644.285	0.0165406
644.363	0.0165895
644.442	0.0167007
644.520	0.0167574
644.598	0.0167509
644.676	0.0167698
644.754	0.0166346
644.832	0.0165984
644.910	0.0166370
644.988	0.0166585
645.067	0.0168010
645.145	0.0168066
645.223	0.0166731
645.301	0.0166581
645.379	0.0167461
645.457	0.0168536
645.535	0.0169041
645.613	0.0168129
645.692	0.0168275
645.770	0.0167520
645.848	0.0168793
645.926	0.0168935
646.004	0.0168304
646.082	0.0168404
646.160	0.0167620
646.238	0.0167188
646.317	0.0168051
646.395	0.0166450
646.473	0.0167250
646.551	0.0167379
646.629	0.0168212
646.707	0.0167848
646.785	0.0166586
646.863	0.0166470
646.942	0.0166510
647.020	0.0168790
647.098	0.0169020
647.176	0.0169163
647.254	0.0168305
647.332	0.0168977
647.410	0.0169010
647.488	0.0168761
647.567	0.0169102
647.645	0.0168103
647.723	0.0169762
647.801	0.0168916
647.879	0.0168486
647.957	0.0169176
648.035	0.0167915
648.113	0.0168325
648.192	0.0167925
648.270	0.0168871
648.348	0.0168169
648.426	0.0168575
648.504	0.0167690
648.582	0.0167234
648.660	0.0166398
648.738	0.0166418
648.817	0.0168056
648.895	0.0166367
648.973	0.0166290
649.051	0.0166874
649.129	0.0168082
649.207	0.0168114
649.285	0.0167200
649.363	0.0167704
649.442	0.0167612
649.520	0.0166877
649.598	0.0168245
649.676	0.0168807
649.754	0.0168219
649.832	0.0168878
649.910	0.0168612
649.988	0.0169480
650.067	0.0168403
650.145	0.0169103
650.223	0.0168401
650.301	0.0168460
650.379	0.0169666
650.457	0.0168356
650.535	0.0169070
650.613	0.0167814
650.692	0.0169984
650.770	0.0167702
650.848	0.0167862
650.926	0.0168088
651.004	0.0167527
651.082	0.0169032
651.160	0.0168655
651.238	0.0169036
651.317	0.0169743
651.395	0.0168772
651.473	0.0168918
651.551	0.0169330
651.629	0.0168616
651.707	0.0169618
651.785	0.0168342
651.863	0.0168962
651.942	0.0169697
652.020	0.0168851
652.098	0.0169104
652.176	0.0168700
652.254	0.0168441
652.332	0.0167133
652.410	0.0167281
652.488	0.0167513
652.567	0.0168002
652.645	0.0169113
652.723	0.0169165
652.801	0.0167907
652.879	0.0167184
652.957	0.0169422
653.035	0.0167875
653.113	0.0167511
653.192	0.0168081
653.270	0.0168260
653.348	0.0168201
653.426	0.0168084
653.504	0.0168143
653.582	0.0168661
653.660	0.0167764
653.738	0.0168570
653.817	0.0169818
653.895	0.0168692
653.973	0.0168472
654.051	0.0170015
654.129	0.0169986
654.207	0.0169821
654.285	0.0170665
654.363	0.0170572
654.442	0.0169730
654.520	0.0170493
654.598	0.0169170
654.676	0.0168637
654.754	0.0169154
654.832	0.0169019
654.910	0.0169782
654.988	0.0169818
655.067	0.0167742
655.145	0.0167179
655.223	0.0168327
655.301	0.0168119
655.379	0.0169780
655.457	0.0168719
655.535	0.0169018
655.613	0.0168858
655.692	0.0169580
655.770	0.0168935
655.848	0.0168475
655.926	0.0166825
656.004	0.0167678
656.082	0.0168306
656.160	0.0166453
656.238	0.0167396
656.317	0.0168999
656.395	0.0167220
656.473	0.0167318
656.551	0.0167258
656.629	0.0167474
656.707	0.0167803
656.785	0.0168043
656.863	0.0167429
656.942	0.0167166
657.020	0.0167412
657.098	0.0166671
657.176	0.0167725
657.254	0.0168095
657.332	0.0167277
657.410	0.0166642
657.488	0.0168098
657.567	0.0168182
657.645	0.0167781
657.723	0.0168653
657.801	0.0167817
657.879	0.0167835
657.957	0.0168126
658.035	0.0168757
658.113	0.0168611
658.192	0.0168658
658.270	0.0169742
658.348	0.0169112
658.426	0.0169334
658.504	0.0168661
658.582	0.0168198
658.660	0.0168718
658.738	0.0169191
658.817	0.0168583
658.895	0.0168593
658.973	0.0169561
659.051	0.0168223
659.129	0.0168156
659.207	0.0167095
659.285	0.0166957
659.363	0.0167715
659.442	0.0167519
659.520	0.0167519
659.598	0.0166887
659.676	0.0167195
659.754	0.0166676
659.832	0.0168372
659.910	0.0167068
659.988	0.0166071
660.067	0.0168011
660.145	0.0165495
660.223	0.0166801
660.301	0.0166475
660.379	0.0165787
660.457	0.0166095
660.535	0.0166709
660.613	0.0165424
660.692	0.0164758
660.770	0.0166351
660.848	0.0166921
660.926	0.0165684
661.004	0.0166175
661.082	0.0165023
661.160	0.0164891
661.238	0.0166711
661.317	0.0167014
661.395	0.0166201
661.473	0.0165575
661.551	0.0166254
661.629	0.0165756
661.707	0.0167519
661.785	0.0166091
661.863	0.0165386
661.942	0.0167196
662.020	0.0166803
662.098	0.0165898
662.176	0.0167268
662.254	0.0167073
662.332	0.0166883
662.410	0.0167124
662.488	0.0167374
662.567	0.0166865
662.645	0.0167632
662.723	0.0167219
662.801	0.0165784
662.879	0.0166316
662.957	0.0167305
663.035	0.0165948
663.113	0.0166045
663.192	0.0165388
663.270	0.0165221
663.348	0.0166775
663.426	0.0165370
663.504	0.0164886
663.582	0.0167099
663.660	0.0165092
663.738	0.0165788
663.817	0.0165652
663.895	0.0165931
663.973	0.0166521
664.051	0.0166351
664.129	0.0165511
664.207	0.0166177
664.285	0.0165561
664.363	0.0165766
664.442	0.0165100
664.520	0.0165835
664.598	0.0166430
664.676	0.0166552
664.754	0.0165204
664.832	0.0166910
664.910	0.0166544
664.988	0.0166731
665.067	0.0166852
665.145	0.0166972
665.223	0.0167686
665.301	0.0168120
665.379	0.0166834
665.457	0.0167381
665.535	0.0167465
665.613	0.0167526
665.692	0.0167783
665.770	0.0167863
665.848	0.0168745
665.926	0.0167730
666.004	0.0167776
666.082	0.0168652
666.160	0.0168473
666.238	0.0167149
666.317	0.0168370
666.395	0.0168299
666.473	0.0167347
666.551	0.0166295
666.629	0.0167037
666.707	0.0166600
666.785	0.0167680
666.863	0.0166985
666.942	0.0167261
667.020	0.0166544
667.098	0.0167026
667.176	0.0166661
667.254	0.0166679
667.332	0.0166534
667.410	0.0166743
667.488	0.0168320
667.567	0.0167805
667.645	0.0166969
667.723	0.0167574
667.801	0.0166971
667.879	0.0165942
667.957	0.0167229
668.035	0.0166418
668.113	0.0167780
668.192	0.0168207
668.270	0.0166288
668.348	0.0166555
668.426	0.0166856
668.504	0.0166742
668.582	0.0166358
668.660	0.0166605
668.738	0.0168025
668.817	0.0168842
668.895	0.0168005
668.973	0.0167560
669.051	0.0168075
669.129	0.0167686
669.207	0.0166990
669.285	0.0166152
669.363	0.0168587
669.442	0.0168895
669.520	0.0166685
669.598	0.0166711
669.676	0.0167072
669.754	0.0167554
669.832	0.0168681
669.910	0.0167365
669.988	0.0166710
670.067	0.0167573
670.145	0.0169089
670.223	0.0167568
670.301	0.0167319
670.379	0.0166985
670.457	0.0167176
670.535	0.0168089
670.613	0.0169646
670.692	0.0167857
670.770	0.0167654
670.848	0.0168108
670.926	0.0167573
671.004	0.0167245
671.082	0.0168777
671.160	0.0167142
671.238	0.0167699
671.317	0.0167107
671.395	0.0168122
671.473	0.0166748
671.551	0.0166978
671.629	0.0165862
671.707	0.0167034
671.785	0.0166139
671.863	0.0166273
671.942	0.0166815
672.020	0.0166731
672.098	0.0166743
672.176	0.0166795
672.254	0.0167957
672.332	0.0168063
672.410	0.0170174
672.488	0.0167509
672.567	0.0168510
672.645	0.0169160
672.723	0.0169193
672.801	0.0169543
672.879	0.0169455
672.957	0.0168404
673.035	0.0171300
673.113	0.0171011
673.192	0.0169657
673.270	0.0169487
673.348	0.0169874
673.426	0.0170586
673.504	0.0169186
673.582	0.0169215
673.660	0.0168080
673.738	0.0170007
673.817	0.0171043
673.895	0.0169611
673.973	0.0170154
674.051	0.0170255
674.129	0.0170422
674.207	0.0171368
674.285	0.0171101
674.363	0.0171874
674.442	0.0172337
674.520	0.0172733
674.598	0.0172407
674.676	0.0171751
674.754	0.0171123
674.832	0.0171744
674.910	0.0170331
674.988	0.0171452
675.067	0.0170246
675.145	0.0169215
675.223	0.0169122
675.301	0.0168872
675.379	0.0167117
675.457	0.0166273
675.535	0.0166337
675.613	0.0166425
675.692	0.0165832
675.770	0.0167351
675.848	0.0166062
675.926	0.0165007
676.004	0.0167295
676.082	0.0166399
676.160	0.0166270
676.238	0.0167629
676.317	0.0169220
676.395	0.0168492
676.473	0.0169257
676.551	0.0169958
676.629	0.0170246
676.707	0.0170427
676.785	0.0170819
676.863	0.0173100
676.942	0.0172726
677.020	0.0172008
677.098	0.0173712
677.176	0.0173650
677.254	0.0173186
677.332	0.0172819
677.410	0.0172491
677.488	0.0171322
677.567	0.0171819
677.645	0.0169790
677.723	0.0170284
677.801	0.0168801
677.879	0.0168540
677.957	0.0166705
678.035	0.0165977
678.113	0.0165736
678.192	0.0164359
678.270	0.0166019
678.348	0.0165594
678.426	0.0164450
678.504	0.0165057
678.582	0.0167382
678.660	0.0167406
678.738	0.0166589
678.817	0.0168024
678.895	0.0169556
678.973	0.0169848
679.051	0.0170387
679.129	0.0172359
679.207	0.0171638
679.285	0.0171518
679.363	0.0173045
679.442	0.0172755
679.520	0.0171409
679.598	0.0172669
679.676	0.0170648
679.754	0.0169696
679.832	0.0169204
679.910	0.0168610
679.988	0.0169081
680.067	0.0166719
680.145	0.0166927
680.223	0.0164074
680.301	0.0163148
680.379	0.0163254
680.457	0.0163061
680.535	0.0163575
680.613	0.0161947
680.692	0.0161351
680.770	0.0161240
680.848	0.0161777
680.926	0.0161523
681.004	0.0164219
681.082	0.0165122
681.160	0.0165268
681.238	0.0167264
681.317	0.0169089
681.395	0.0168975
681.473	0.0170455
681.551	0.0172139
681.629	0.0172897
681.707	0.0172860
681.785	0.0175208
681.863	0.0174260
681.942	0.0174866
682.020	0.0176273
682.098	0.0177039
682.176	0.0176509
682.254	0.0176785
682.332	0.0176659
682.410	0.0176545
682.488	0.0176081
682.567	0.0176446
682.645	0.0175887
682.723	0.0174722
682.801	0.0174534
682.879	0.0173276
682.957	0.0170963
683.035	0.0170462
683.113	0.0167664
683.192	0.0165316
683.270	0.0163293
683.348	0.0162426
683.426	0.0161754
683.504	0.0161189
683.582	0.0158020
683.660	0.0157989
683.738	0.0155727
683.817	0.0155804
683.895	0.0155439
683.973	0.0155239
684.051	0.0153143
684.129	0.0155752
684.207	0.0156772
684.285	0.0156944
684.363	0.0157134
684.442	0.0156975
684.520	0.0159669
684.598	0.0160476
684.676	0.0163924
684.754	0.0164492
684.832	0.0164977
684.910	0.0168813
684.988	0.0171011
685.067	0.0171632
685.145	0.0173130
685.223	0.0176241
685.301	0.0178255
685.379	0.0179448
685.457	0.0180088
685.535	0.0181770
685.613	0.0181279
685.692	0.0181553
685.770	0.0183257
685.848	0.0183062
685.926	0.0183390
686.004	0.0182850
686.082	0.0181184
686.160	0.0180954
686.238	0.0180926
686.317	0.0178442
686.395	0.0177559
686.473	0.0176140
686.551	0.0175796
686.629	0.0171339
686.707	0.0168385
686.785	0.0166736
686.863	0.0164593
686.942	0.0164069
687.020	0.0161302
687.098	0.0157489
687.176	0.0156544
687.254	0.0156546
687.332	0.0154200
687.410	0.0154426
687.488	0.0153037
687.567	0.0150581
687.645	0.0151226
687.723	0.0151134
687.801	0.0152547
687.879	0.0151451
687.957	0.0153120
688.035	0.0154089
688.113	0.0156019
688.192	0.0157224
688.270	0.0158281
688.348	0.0160572
688.426	0.0161712
688.504	0.0163207
688.582	0.0164462
688.660	0.0164178
688.738	0.0165557
688.817	0.0167890
688.895	0.0168581
688.973	0.0168945
689.051	0.0170380
689.129	0.0172101
689.207	0.0172189
689.285	0.0173911
689.363	0.0176008
689.442	0.0176509
689.520	0.0177145
689.598	0.0175656
689.676	0.0177528
689.754	0.0180402
689.832	0.0181184
689.910	0.0180026
689.988	0.0181425
690.067	0.0181313
690.145	0.0181705
690.223	0.0181674
690.301	0.0180677
690.379	0.0180386
690.457	0.0180146
690.535	0.0179991
690.613	0.0179324
690.692	0.0177480
690.770	0.0178049
690.848	0.0176072
690.926	0.0174841
691.004	0.0170389
691.082	0.0170703
691.160	0.0167416
691.238	0.0166480
691.317	0.0163948
691.395	0.0161230
691.473	0.0161237
691.551	0.0157825
691.629	0.0156625
691.707	0.0156168
691.785	0.0154787
691.863	0.0153821
691.942	0.0153104
692.020	0.0153317
692.098	0.0153666
692.176	0.0153865
692.254	0.0154224
692.332	0.0154332
692.410	0.0153838
692.488	0.0155305
692.567	0.0155912
692.645	0.0157730
692.723	0.0158345
692.801	0.0158228
692.879	0.0157377
692.957	0.0159454
693.035	0.0161060
693.113	0.0162118
693.192	0.0162254
693.270	0.0161420
693.348	0.0164302
693.426	0.0166148
693.504	0.0166584
693.582	0.0167899
693.660	0.0169298
693.738	0.0172617
693.817	0.0173565
693.895	0.0175158
693.973	0.0177505
694.051	0.0179868
694.129	0.0181398
694.207	0.0183205
694.285	0.0185094
694.363	0.0184437
694.442	0.0186436
694.520	0.0187531
694.598	0.0188460
694.676	0.0187922
694.754	0.0189007
694.832	0.0187894
694.910	0.0186254
694.988	0.0185421
695.067	0.0184385
695.145	0.0182916
695.223	0.0181153
695.301	0.0179579
695.379	0.0177932
695.457	0.0175903
695.535	0.0173962
695.613	0.0171668
695.692	0.0170522
695.770	0.0168429
695.848	0.0165885
695.926	0.0163831
696.004	0.0162305
696.082	0.0158952
696.160	0.0158649
696.238	0.0156552
696.317	0.0154433
696.395	0.0151891
696.473	0.0150737
696.551	0.0149435
696.629	0.0146809
696.707	0.0145786
696.785	0.0145307
696.863	0.0144933
696.942	0.0145387
697.020	0.0144928
697.098	0.0145770
697.176	0.0146490
697.254	0.0148215
697.332	0.0148675
697.410	0.0150651
697.488	0.0154167
697.567	0.0155725
697.645	0.0158791
697.723	0.0161694
697.801	0.0164484
697.879	0.0168851
697.957	0.0171029
698.035	0.0175999
698.113	0.0178354
698.192	0.0180988
698.270	0.0186406
698.348	0.0188414
698.426	0.0188228
698.504	0.0191296
698.582	0.0193027
698.660	0.0193040
698.738	0.0193832
698.817	0.0192304
698.895	0.0190311
698.973	0.0190142
699.051	0.0188039
699.129	0.0189364
699.207	0.0185924
699.285	0.0184966
699.363	0.0182233
699.442	0.0180812
699.520	0.0177292
699.598	0.0176112
699.676	0.0174498
699.754	0.0172701
699.832	0.0170932
699.910	0.0168426
699.988	0.0167693
700.067	0.0167444
700.145	0.0165848
700.223	0.0164465
700.301	0.0165728
700.379	0.0164286
700.457	0.0163500
700.535	0.0164095
700.613	0.0163039
700.692	0.0162113
700.770	0.0163226
700.848	0.0162530
700.926	0.0161436
701.004	0.0161438
701.082	0.0161031
701.160	0.0160397
701.238	0.0161196
701.317	0.0159217
701.395	0.0157438
701.473	0.0157542
701.551	0.0155884
701.629	0.0156412
701.707	0.0155717
701.785	0.0155573
701.863	0.0153600
701.942	0.0153349
702.020	0.0153694
702.098	0.0153967
702.176	0.0154925
702.254	0.0154221
702.332	0.0156070
702.410	0.0155985
702.488	0.0157706
702.567	0.0160204
702.645	0.0161163
702.723	0.0162723
702.801	0.0166409
702.879	0.0170397
702.957	0.0172829
703.035	0.0174886
703.113	0.0177985
703.192	0.0180414
703.270	0.0183556
703.348	0.0183875
703.426	0.0187156
703.504	0.0188268
703.582	0.0189069
703.660	0.0190165
703.738	0.0192113
703.817	0.0191814
703.895	0.0191861
703.973	0.0192590
704.051	0.0190521
704.129	0.0189743
704.207	0.0189601
704.285	0.0187195
704.363	0.0184924
704.442	0.0184335
704.520	0.0181481
704.598	0.0179435
704.676	0.0175952
704.754	0.0172781
704.832	0.0170469
704.910	0.0167910
704.988	0.0166493
705.067	0.0161618
705.145	0.0157563
705.223	0.0157359
705.301	0.0153288
705.379	0.0151653
705.457	0.0147338
705.535	0.0147063
705.613	0.0146726
705.692	0.0145223
705.770	0.0144798
705.848	0.0146284
705.926	0.0146844
706.004	0.0147472
706.082	0.0151123
706.160	0.0152734
706.238	0.0153419
706.317	0.0156738
706.395	0.0159189
706.473	0.0163842
706.551	0.0166090
706.629	0.0167133
706.707	0.0168239
706.785	0.0171037
706.863	0.0174117
706.942	0.0175349
707.020	0.0175439
707.098	0.0177487
707.176	0.0177125
707.254	0.0178061
707.332	0.0178195
707.410	0.0176894
707.488	0.0177639
707.567	0.0174883
707.645	0.0174452
707.723	0.0175607
707.801	0.0173303
707.879	0.0172157
707.957	0.0171664
708.035	0.0168662
708.113	0.0168822
708.192	0.0168755
708.270	0.0167039
708.348	0.0167077
708.426	0.0166187
708.504	0.0166669
708.582	0.0164761
708.660	0.0164615
708.738	0.0163779
708.817	0.0164436
708.895	0.0165099
708.973	0.0163284
709.051	0.0164005
709.129	0.0163464
709.207	0.0164746
709.285	0.0164259
709.363	0.0163757
709.442	0.0164767
709.520	0.0165903
709.598	0.0166150
709.676	0.0168868
709.754	0.0170918
709.832	0.0170728
709.910	0.0172942
709.988	0.0173379
710.067	0.0175176
710.145	0.0176165
710.223	0.0175734
710.301	0.0176802
710.379	0.0178288
710.457	0.0177758
710.535	0.0176794
710.613	0.0176118
710.692	0.0175111
710.770	0.0174654
710.848	0.0174471
710.926	0.0173330
711.004	0.0171540
711.082	0.0169954
711.160	0.0168855
711.238	0.0168250
711.317	0.0166882
711.395	0.0165752
711.473	0.0165173
711.551	0.0165158
711.629	0.0163258
711.707	0.0162115
711.785	0.0162077
711.863	0.0162973
711.942	0.0163882
712.020	0.0162153
712.098	0.0163983
712.176	0.0162518
712.254	0.0161838
712.332	0.0161404
712.410	0.0162317
712.488	0.0160852
712.567	0.0160364
712.645	0.0160662
712.723	0.0159443
712.801	0.0159978
712.879	0.0160490
712.957	0.0159161
713.035	0.0159048
713.113	0.0159882
713.192	0.0156892
713.270	0.0160712
713.348	0.0159563
713.426	0.0160850
713.504	0.0161641
713.582	0.0161614
713.660	0.0161482
713.738	0.0163544
713.817	0.0165534
713.895	0.0164954
713.973	0.0165538
714.051	0.0165983
714.129	0.0167876
714.207	0.0169082
714.285	0.0170463
714.363	0.0171588
714.442	0.0172137
714.520	0.0172598
714.598	0.0173460
714.676	0.0174496
714.754	0.0176270
714.832	0.0174559
714.910	0.0176382
714.988	0.0175967
715.067	0.0176853
715.145	0.0179179
715.223	0.0178972
715.301	0.0180961
715.379	0.0180302
715.457	0.0182397
715.535	0.0181901
715.613	0.0180975
715.692	0.0181421
715.770	0.0180526
715.848	0.0181266
715.926	0.0181169
716.004	0.0179844
716.082	0.0178048
716.160	0.0176650
716.238	0.0174538
716.317	0.0173857
716.395	0.0170823
716.473	0.0169655
716.551	0.0167055
716.629	0.0167245
716.707	0.0164098
716.785	0.0162347
716.863	0.0161370
716.942	0.0159874
717.020	0.0158756
717.098	0.0155663
717.176	0.0156127
717.254	0.0158442
717.332	0.0157691
717.410	0.0157279
717.488	0.0157198
717.567	0.0158370
717.645	0.0159463
717.723	0.0160231
717.801	0.0161031
717.879	0.0162552
717.957	0.0162411
718.035	0.0162889
718.113	0.0162746
718.192	0.0162289
718.270	0.0162896
718.348	0.0163492
718.426	0.0164056
718.504	0.0165620
718.582	0.0166828
718.660	0.0166176
718.738	0.0167471
718.817	0.0167513
718.895	0.0168482
718.973	0.0168634
719.051	0.0167960
719.129	0.0167129
719.207	0.0168136
719.285	0.0167822
719.363	0.0166920
719.442	0.0167210
719.520	0.0167883
719.598	0.0166795
719.676	0.0166720
719.754	0.0167470
719.832	0.0166121
719.910	0.0167770
719.988	0.0166613
720.067	0.0168526
720.145	0.0168561
720.223	0.0169177
720.301	0.0169759
720.379	0.0171664
720.457	0.0172947
720.535	0.0172758
720.613	0.0173629
720.692	0.0174683
720.770	0.0174824
720.848	0.0174390
720.926	0.0174645
721.004	0.0174550
721.082	0.0175021
721.160	0.0175245
721.238	0.0174583
721.317	0.0176635
721.395	0.0175755
721.473	0.0175287
721.551	0.0176281
721.629	0.0176645
721.707	0.0176442
721.785	0.0177497
721.863	0.0177466
721.942	0.0176823
722.020	0.0177071
722.098	0.0175851
722.176	0.0177106
722.254	0.0174918
722.332	0.0174945
722.410	0.0172499
722.488	0.0171336
722.567	0.0170826
722.645	0.0169911
722.723	0.0169285
722.801	0.0166840
722.879	0.0164530
722.957	0.0164370
723.035	0.0164330
723.113	0.0164110
723.192	0.0161693
723.270	0.0162133
723.348	0.0161931
723.426	0.0160538
723.504	0.0160674
723.582	0.0160923
723.660	0.0158722
723.738	0.0160508
723.817	0.0160114
723.895	0.0159486
723.973	0.0158637
724.051	0.0160133
724.129	0.0161084
724.207	0.0159727
724.285	0.0160182
724.363	0.0161439
724.442	0.0161800
724.520	0.0163396
724.598	0.0165548
724.676	0.0166128
724.754	0.0165989
724.832	0.0167004
724.910	0.0167183
724.988	0.0168063
725.067	0.0167982
725.145	0.0168919
725.223	0.0169469
725.301	0.0170283
725.379	0.0169769
725.457	0.0168901
725.535	0.0168838
725.613	0.0169617
725.692	0.0168530
725.770	0.0169907
725.848	0.0169763
725.926	0.0171505
726.004	0.0172295
726.082	0.0171500
726.160	0.0170296
726.238	0.0172540
726.317	0.0172192
726.395	0.0174551
726.473	0.0174405
726.551	0.0174866
726.629	0.0174800
726.707	0.0176546
726.785	0.0178004
726.863	0.0177464
726.942	0.0176921
727.020	0.0178259
727.098	0.0177699
727.176	0.0179015
727.254	0.0179143
727.332	0.0179072
727.410	0.0176991
727.488	0.0177402
727.567	0.0178044
727.645	0.0176491
727.723	0.0175353
727.801	0.0173347
727.879	0.0174122
727.957	0.0172373
728.035	0.0169612
728.113	0.0170631
728.192	0.0168784
728.270	0.0166547
728.348	0.0167049
728.426	0.0167001
728.504	0.0164960
728.582	0.0164218
728.660	0.0164547
728.738	0.0162755
728.817	0.0163134
728.895	0.0162957
728.973	0.0162405
729.051	0.0162857
729.129	0.0162370
729.207	0.0163325
729.285	0.0162891
729.363	0.0162665
729.442	0.0163216
729.520	0.0161106
729.598	0.0162962
729.676	0.0162313
729.754	0.0160691
729.832	0.0160274
729.910	0.0160732
729.988	0.0160488
730.067	0.0160455
730.145	0.0160388
730.223	0.0159239
730.301	0.0158739
730.379	0.0158260
730.457	0.0159697
730.535	0.0159578
730.613	0.0160023
730.692	0.0158489
730.770	0.0159773
730.848	0.0160175
730.926	0.0161015
731.004	0.0161475
731.082	0.0162029
731.160	0.0162524
731.238	0.0162107
731.317	0.0162743
731.395	0.0163898
731.473	0.0165325
731.551	0.0165656
731.629	0.0164185
731.707	0.0167141
731.785	0.0166231
731.863	0.0167037
731.942	0.0169395
732.020	0.0167187
732.098	0.0168639
732.176	0.0169466
732.254	0.0168377
732.332	0.0169656
732.410	0.0168899
732.488	0.0168347
732.567	0.0170091
732.645	0.0168641
732.723	0.0169395
732.801	0.0171276
732.879	0.0169135
732.957	0.0169455
733.035	0.0170850
733.113	0.0171128
733.192	0.0171578
733.270	0.0173203
733.348	0.0171003
733.426	0.0170779
733.504	0.0173446
733.582	0.0172422
733.660	0.0173734
733.738	0.0173208
733.817	0.0176100
733.895	0.0176696
733.973	0.0175871
734.051	0.0177150
734.129	0.0175051
734.207	0.0176013
734.285	0.0175692
734.363	0.0175273
734.442	0.0175370
734.520	0.0174225
734.598	0.0173438
734.676	0.0171662
734.754	0.0170811
734.832	0.0170269
734.910	0.0168526
734.988	0.0168059
735.067	0.0167195
735.145	0.0165304
735.223	0.0164458
735.301	0.0162656
735.379	0.0162447
735.457	0.0162621
735.535	0.0163206
735.613	0.0162498
735.692	0.0161658
735.770	0.0162346
735.848	0.0163303
735.926	0.0164338
736.004	0.0163827
736.082	0.0162679
736.160	0.0162767
736.238	0.0163779
736.317	0.0163987
736.395	0.0162421
736.473	0.0163346
736.551	0.0161971
736.629	0.0161597
736.707	0.0162134
736.785	0.0160429
736.863	0.0159582
736.942	0.0161203
737.020	0.0161207
737.098	0.0157979
737.176	0.0159051
737.254	0.0160674
737.332	0.0160200
737.410	0.0160940
737.488	0.0161575
737.567	0.0160951
737.645	0.0162114
737.723	0.0164120
737.801	0.0164693
737.879	0.0165977
737.957	0.0166431
738.035	0.0167023
738.113	0.0167042
738.192	0.0167593
738.270	0.0167914
738.348	0.0167142
738.426	0.0167103
738.504	0.0169473
738.582	0.0169557
738.660	0.0169736
738.738	0.0168661
738.817	0.0168559
738.895	0.0168609
738.973	0.0170276
739.051	0.0170156
739.129	0.0171970
739.207	0.0170010
739.285	0.0170852
739.363	0.0171203
739.442	0.0170738
739.520	0.0169806
739.598	0.0170884
739.676	0.0172267
739.754	0.0171626
739.832	0.0172233
739.910	0.0172356
739.988	0.0172497
740.067	0.0172886
740.145	0.0173969
740.223	0.0173170
740.301	0.0174171
740.379	0.0175305
740.457	0.0176671
740.535	0.0175700
740.613	0.0174963
740.692	0.0174906
740.770	0.0174947
740.848	0.0175117
740.926	0.0174880
741.004	0.0175386
741.082	0.0174177
741.160	0.0172858
741.238	0.0172695
741.317	0.0172351
741.395	0.0170019
741.473	0.0168892
741.551	0.0168784
741.629	0.0167891
741.707	0.0165518
741.785	0.0165984
741.863	0.0166077
741.942	0.0164735
742.020	0.0163108
742.098	0.0162785
742.176	0.0164061
742.254	0.0164247
742.332	0.0162585
742.410	0.0162985
742.488	0.0163797
742.567	0.0162910
742.645	0.0162880
742.723	0.0163785
742.801	0.0162669
742.879	0.0161713
742.957	0.0162155
743.035	0.0162419
743.113	0.0161691
743.192	0.0163743
743.270	0.0163143
743.348	0.0164948
743.426	0.0163013
743.504	0.0162464
743.582	0.0162659
743.660	0.0163843
743.738	0.0163512
743.817	0.0163888
743.895	0.0163255
743.973	0.0164417
744.051	0.0163818
744.129	0.0165437
744.207	0.0165513
744.285	0.0166453
744.363	0.0167174
744.442	0.0167535
744.520	0.0168346
744.598	0.0168994
744.676	0.0169601
744.754	0.0169312
744.832	0.0169974
744.910	0.0169402
744.988	0.0171053
745.067	0.0171390
745.145	0.0172034
745.223	0.0171982
745.301	0.0173029
745.379	0.0174309
745.457	0.0172801
745.535	0.0172182
745.613	0.0172273
745.692	0.0173192
745.770	0.0171919
745.848	0.0171015
745.926	0.0170638
746.004	0.0170750
746.082	0.0169867
746.160	0.0169863
746.238	0.0169150
746.317	0.0168848
746.395	0.0170390
746.473	0.0168900
746.551	0.0167818
746.629	0.0168762
746.707	0.0168667
746.785	0.0169321
746.863	0.0168602
746.942	0.0168918
747.020	0.0169389
747.098	0.0169869
747.176	0.0169891
747.254	0.0172954
747.332	0.0174247
747.410	0.0171631
747.488	0.0172463
747.567	0.0172466
747.645	0.0173518
747.723	0.0172572
747.801	0.0172050
747.879	0.0172842
747.957	0.0170258
748.035	0.0169764
748.113	0.0170037
748.192	0.0169505
748.270	0.0169727
748.348	0.0169865
748.426	0.0167620
748.504	0.0166259
748.582	0.0165169
748.660	0.0164897
748.738	0.0165148
748.817	0.0164488
748.895	0.0163376
748.973	0.0162881
749.051	0.0161342
749.129	0.0160529
749.207	0.0160887
749.285	0.0160305
749.363	0.0161045
749.442	0.0160289
749.520	0.0160495
749.598	0.0160688
749.676	0.0162354
749.754	0.0161687
749.832	0.0161942
749.910	0.0163338
749.988	0.0163699
750.067	0.0165347
750.145	0.0164822
750.223	0.0166185
750.301	0.0167755
750.379	0.0167663
750.457	0.0167135
750.535	0.0167880
750.613	0.0167809
750.692	0.0167081
750.770	0.0167044
750.848	0.0166823
750.926	0.0165802
751.004	0.0165923
751.082	0.0165298
751.160	0.0165428
751.238	0.0164716
751.317	0.0164518
751.395	0.0165633
751.473	0.0165027
751.551	0.0165256
751.629	0.0164633
751.707	0.0164773
751.785	0.0165744
751.863	0.0164757
751.942	0.0167048
752.020	0.0167040
752.098	0.0166456
752.176	0.0167543
752.254	0.0168913
752.332	0.0168143
752.410	0.0168087
752.488	0.0170520
752.567	0.0169555
752.645	0.0169733
752.723	0.0170992
752.801	0.0169577
752.879	0.0169897
752.957	0.0170114
753.035	0.0169542
753.113	0.0170150
753.192	0.0169479
753.270	0.0168469
753.348	0.0169929
753.426	0.0170145
753.504	0.0169720
753.582	0.0169404
753.660	0.0170498
753.738	0.0170016
753.817	0.0169823
753.895	0.0170447
753.973	0.0169327
754.051	0.0168227
754.129	0.0171133
754.207	0.0170862
754.285	0.0169800
754.363	0.0170387
754.442	0.0171027
754.520	0.0171287
754.598	0.0170438
754.676	0.0170806
754.754	0.0169847
754.832	0.0170521
754.910	0.0169715
754.988	0.0169384
755.067	0.0170479
755.145	0.0168280
755.223	0.0168983
755.301	0.0169461
755.379	0.0167966
755.457	0.0167676
755.535	0.0167395
755.613	0.0168313
755.692	0.0166929
755.770	0.0167464
755.848	0.0165796
755.926	0.0165082
756.004	0.0163689
756.082	0.0164111
756.160	0.0165157
756.238	0.0164238
756.317	0.0164098
756.395	0.0164542
756.473	0.0164515
756.551	0.0164568
756.629	0.0163877
756.707	0.0163660
756.785	0.0164814
756.863	0.0167014
756.942	0.0167579
757.020	0.0165564
757.098	0.0166441
757.176	0.0165346
757.254	0.0167161
757.332	0.0166983
757.410	0.0166196
757.488	0.0167259
757.567	0.0165814
757.645	0.0166752
757.723	0.0167223
757.801	0.0167578
757.879	0.0166684
757.957	0.0167588
758.035	0.0166918
758.113	0.0166335
758.192	0.0168072
758.270	0.0168477
758.348	0.0169727
758.426	0.0168949
758.504	0.0169397
758.582	0.0169696
758.660	0.0168617
758.738	0.0171098
758.817	0.0169416
758.895	0.0169315
758.973	0.0169441
759.051	0.0171007
759.129	0.0171723
759.207	0.0171031
759.285	0.0168884
759.363	0.0168534
759.442	0.0171223
759.520	0.0171469
759.598	0.0172459
759.676	0.0172753
759.754	0.0171441
759.832	0.0172153
759.910	0.0172404
759.988	0.0172534
760.067	0.0171828
760.145	0.0170481
760.223	0.0171165
760.301	0.0172132
760.379	0.0170583
760.457	0.0170884
760.535	0.0170933
760.613	0.0168068
760.692	0.0167975
760.770	0.0170210
760.848	0.0168837
760.926	0.0169928
761.004	0.0167883
761.082	0.0168527
761.160	0.0168118
761.238	0.0168840
761.317	0.0167059
761.395	0.0167055
761.473	0.0167738
761.551	0.0167967
761.629	0.0166961
761.707	0.0166276
761.785	0.0166337
761.863	0.0166699
761.942	0.0166510
762.020	0.0165365
762.098	0.0166654
762.176	0.0166708
762.254	0.0166415
762.332	0.0167817
762.410	0.0168921
762.488	0.0170248
762.567	0.0168462
762.645	0.0167402
762.723	0.0169632
762.801	0.0167962
762.879	0.0167946
762.957	0.0168538
763.035	0.0168194
763.113	0.0166573
763.192	0.0167635
763.270	0.0167590
763.348	0.0167152
763.426	0.0166243
763.504	0.0165532
763.582	0.0167239
763.660	0.0167799
763.738	0.0167130
763.817	0.0168055
763.895	0.0167878
763.973	0.0167703
764.051	0.0167338
764.129	0.0168826
764.207	0.0169086
764.285	0.0168250
764.363	0.0168361
764.442	0.0166423
764.520	0.0166718
764.598	0.0165998
764.676	0.0165240
764.754	0.0165331
764.832	0.0164551
764.910	0.0162354
764.988	0.0164026
765.067	0.0163943
765.145	0.0164362
765.223	0.0164072
765.301	0.0164384
765.379	0.0163483
765.457	0.0164333
765.535	0.0165948
765.613	0.0164941
765.692	0.0163755
765.770	0.0164767
765.848	0.0164407
765.926	0.0165498
766.004	0.0164678
766.082	0.0164332
766.160	0.0164172
766.238	0.0164104
766.317	0.0164001
766.395	0.0165164
766.473	0.0164433
766.551	0.0165666
766.629	0.0164005
766.707	0.0164774
766.785	0.0166500
766.863	0.0166039
766.942	0.0165323
767.020	0.0165927
767.098	0.0167265
767.176	0.0166191
767.254	0.0167494
767.332	0.0168244
767.410	0.0166509
767.488	0.0167264
767.567	0.0166705
767.645	0.0169273
767.723	0.0169675
767.801	0.0168036
767.879	0.0170405
767.957	0.0170480
768.035	0.0169010
768.113	0.0169259
768.192	0.0169839
768.270	0.0170110
768.348	0.0170574
768.426	0.0170741
768.504	0.0170749
768.582	0.0171159
768.660	0.0170589
768.738	0.0170947
768.817	0.0173132
768.895	0.0172433
768.973	0.0172541
769.051	0.0171414
769.129	0.0170141
769.207	0.0169305
769.285	0.0170569
769.363	0.0171353
769.442	0.0169450
769.520	0.0171371
769.598	0.0170081
769.676	0.0169333
769.754	0.0170687
769.832	0.0168545
769.910	0.0168673
769.988	0.0168419
770.067	0.0167418
770.145	0.0168340
770.223	0.0167448
770.301	0.0166868
770.379	0.0167953
770.457	0.0168002
770.535	0.0167651
770.613	0.0167269
770.692	0.0166559
770.770	0.0167356
770.848	0.0167406
770.926	0.0167315
771.004	0.0168671
771.082	0.0168319
771.160	0.0169611
771.238	0.0169388
771.317	0.0168628
771.395	0.0169238
771.473	0.0170296
771.551	0.0170599
771.629	0.0171294
771.707	0.0170042
771.785	0.0170254
771.863	0.0171616
771.942	0.0171519
772.020	0.0171821
772.098	0.0171411
772.176	0.0171490
772.254	0.0171803
772.332	0.0169229
772.410	0.0170157
772.488	0.0168079
772.567	0.0169139
772.645	0.0168787
772.723	0.0167944
772.801	0.0167621
772.879	0.0167303
772.957	0.0167189
773.035	0.0165604
773.113	0.0166424
773.192	0.0165346
773.270	0.0164555
773.348	0.0164466
773.426	0.0163393
773.504	0.0164117
773.582	0.0163438
773.660	0.0163775
773.738	0.0163600
773.817	0.0164431
773.895	0.0165692
773.973	0.0165886
774.051	0.0167339
774.129	0.0167564
774.207	0.0168145
774.285	0.0167209
774.363	0.0167923
774.442	0.0168134
774.520	0.0167885
774.598	0.0167003
774.676	0.0168135
774.754	0.0169160
774.832	0.0169386
774.910	0.0168027
774.988	0.0168140
775.067	0.0167079
775.145	0.0167270
775.223	0.0166455
775.301	0.0166490
775.379	0.0167107
775.457	0.0166730
775.535	0.0166741
775.613	0.0164997
775.692	0.0166025
775.770	0.0166077
775.848	0.0165285
775.926	0.0165951
776.004	0.0165827
776.082	0.0167265
776.160	0.0165837
776.238	0.0166538
776.317	0.0166666
776.395	0.0167835
776.473	0.0167489
776.551	0.0165874
776.629	0.0168001
776.707	0.0167529
776.785	0.0167634
776.863	0.0168390
776.942	0.0167972
777.020	0.0168627
777.098	0.0168798
777.176	0.0167302
777.254	0.0168549
777.332	0.0169098
777.410	0.0168429
777.488	0.0168314
777.567	0.0167553
777.645	0.0167831
777.723	0.0168476
777.801	0.0169086
777.879	0.0168370
777.957	0.0167542
778.035	0.0168246
778.113	0.0168272
778.192	0.0169360
778.270	0.0169088
778.348	0.0169636
778.426	0.0169804
778.504	0.0169265
778.582	0.0170946
778.660	0.0171198
778.738	0.0170252
778.817	0.0169881
778.895	0.0170936
778.973	0.0170849
779.051	0.0170602
779.129	0.0171584
779.207	0.0170319
779.285	0.0171508
779.363	0.0170003
779.442	0.0169688
779.520	0.0169590
779.598	0.0169513
779.676	0.0169980
779.754	0.0170050
779.832	0.0169706
779.910	0.0168999
779.988	0.0168936
780.067	0.0168047
780.145	0.0168295
780.223	0.0167292
780.301	0.0167453
780.379	0.0168621
780.457	0.0169441
780.535	0.0167577
780.613	0.0167413
780.692	0.0166501
780.770	0.0166261
780.848	0.0166691
780.926	0.0167174
781.004	0.0167291
781.082	0.0167604
781.160	0.0167399
781.238	0.0167834
781.317	0.0166192
781.395	0.0166705
781.473	0.0168224
781.551	0.0168025
781.629	0.0168855
781.707	0.0168839
781.785	0.0170177
781.863	0.0168773
781.942	0.0169102
782.020	0.0169789
782.098	0.0170255
782.176	0.0169754
782.254	0.0169823
782.332	0.0171360
782.410	0.0170091
782.488	0.0169287
782.567	0.0168179
782.645	0.0170674
782.723	0.0170805
782.801	0.0171282
782.879	0.0171748
782.957	0.0171166
783.035	0.0171938
783.113	0.0170550
783.192	0.0171930
783.270	0.0172360
783.348	0.0172855
783.426	0.0172044
783.504	0.0171797
783.582	0.0171339
783.660	0.0170154
783.738	0.0171118
783.817	0.0170422
783.895	0.0169882
783.973	0.0171585
784.051	0.0171445
784.129	0.0169747
784.207	0.0170181
784.285	0.0169724
784.363	0.0170330
784.442	0.0169312
784.520	0.0169428
784.598	0.0171017
784.676	0.0169956
784.754	0.0170748
784.832	0.0169503
784.910	0.0170016
784.988	0.0168806
785.067	0.0169319
785.145	0.0169870
785.223	0.0168620
785.301	0.0169487
785.379	0.0167862
785.457	0.0168318
785.535	0.0169347
785.613	0.0168412
785.692	0.0168990
785.770	0.0169408
785.848	0.0171432
785.926	0.0169761
786.004	0.0170463
786.082	0.0172473
786.160	0.0170970
786.238	0.0173478
786.317	0.0173085
786.395	0.0173019
786.473	0.0172292
786.551	0.0173078
786.629	0.0173138
786.707	0.0171694
786.785	0.0170906
786.863	0.0170888
786.942	0.0170794
787.020	0.0170796
787.098	0.0170337
787.176	0.0169886
787.254	0.0168880
787.332	0.0170129
787.410	0.0167580
787.488	0.0166908
787.567	0.0165917
787.645	0.0167219
787.723	0.0166776
787.801	0.0166135
787.879	0.0164458
787.957	0.0163737
788.035	0.0164771
788.113	0.0164329
788.192	0.0162978
788.270	0.0162380
788.348	0.0163718
788.426	0.0161841
788.504	0.0160954
788.582	0.0162083
788.660	0.0158878
788.738	0.0158926
788.817	0.0159743
788.895	0.0158606
788.973	0.0160590
789.051	0.0158993
789.129	0.0157988
789.207	0.0159129
789.285	0.0159327
789.363	0.0159329
789.442	0.0160458
789.520	0.0161295
789.598	0.0163424
789.676	0.0162896
789.754	0.0162926
789.832	0.0164543
789.910	0.0165316
789.988	0.0166118
790.067	0.0166885
790.145	0.0167136
790.223	0.0167498
790.301	0.0167145
790.379	0.0168318
790.457	0.0167432
790.535	0.0167306
790.613	0.0167852
790.692	0.0168588
790.770	0.0167677
790.848	0.0167625
790.926	0.0166719
791.004	0.0168201
791.082	0.0168659
791.160	0.0167956
791.238	0.0167551
791.317	0.0169561
791.395	0.0169004
791.473	0.0168512
791.551	0.0169757
791.629	0.0170352
791.707	0.0170555
791.785	0.0169773
791.863	0.0171059
791.942	0.0171157
792.020	0.0172882
792.098	0.0171266
792.176	0.0170351
792.254	0.0173847
792.332	0.0171619
792.410	0.0171471
792.488	0.0170619
792.567	0.0171362
792.645	0.0169675
792.723	0.0169612
792.801	0.0167989
792.879	0.0167924
792.957	0.0164903
793.035	0.0165313
793.113	0.0165605
793.192	0.0164592
793.270	0.0164851
793.348	0.0164224
793.426	0.0164999
793.504	0.0165044
793.582	0.0165128
793.660	0.0165253
793.738	0.0166045
793.817	0.0166402
793.895	0.0166666
793.973	0.0166756
794.051	0.0167259
794.129	0.0167842
794.207	0.0168186
794.285	0.0170037
794.363	0.0168782
794.442	0.0170678
794.520	0.0170549
794.598	0.0170608
794.676	0.0170778
794.754	0.0169529
794.832	0.0172115
794.910	0.0171838
794.988	0.0170811
795.067	0.0170617
795.145	0.0170047
795.223	0.0172346
795.301	0.0170589
795.379	0.0169618
795.457	0.0170131
795.535	0.0169977
795.613	0.0168315
795.692	0.0169091
795.770	0.0167747
795.848	0.0167185
795.926	0.0168127
796.004	0.0167760
796.082	0.0166578
796.160	0.0165222
796.238	0.0165508
796.317	0.0164275
796.395	0.0164182
796.473	0.0163912
796.551	0.0162727
796.629	0.0162469
796.707	0.0162563
796.785	0.0161893
796.863	0.0161694
796.942	0.0160472
797.020	0.0161543
797.098	0.0162492
797.176	0.0161870
797.254	0.0161522
797.332	0.0163866
797.410	0.0164287
797.488	0.0163421
797.567	0.0164214
797.645	0.0165281
797.723	0.0165042
797.801	0.0165321
797.879	0.0166835
797.957	0.0165783
798.035	0.0165855
798.113	0.0167220
798.192	0.0166794
798.270	0.0166827
798.348	0.0167246
798.426	0.0167222
798.504	0.0166911
798.582	0.0165866
798.660	0.0166110
798.738	0.0167532
798.817	0.0167178
798.895	0.0167336
798.973	0.0167524
799.051	0.0167599
799.129	0.0168019
799.207	0.0169833
799.285	0.0169933
799.363	0.0172128
799.442	0.0171661
799.520	0.0172276
799.598	0.0172986
799.676	0.0174253
799.754	0.0175110
799.832	0.0175540
799.910	0.0176571
799.988	0.0175607
800.067	0.0177068
800.145	0.0176268
800.223	0.0176199
800.301	0.0175815
800.379	0.0175765
800.457	0.0174780
800.535	0.0175484
800.613	0.0175154
800.692	0.0173618
800.770	0.0173106
800.848	0.0172157
800.926	0.0172316
801.004	0.0172121
801.082	0.0171045
801.160	0.0170046
801.238	0.0170079
801.317	0.0168465
801.395	0.0168690
801.473	0.0167985
801.551	0.0167545
801.629	0.0167122
801.707	0.0167519
801.785	0.0168118
801.863	0.0167300
801.942	0.0169126
802.020	0.0168408
802.098	0.0167610
802.176	0.0167942
802.254	0.0168118
802.332	0.0168877
802.410	0.0168056
802.488	0.0168304
802.567	0.0169277
802.645	0.0168587
802.723	0.0168462
802.801	0.0169109
802.879	0.0168296
802.957	0.0167343
803.035	0.0168184
803.113	0.0168187
803.192	0.0168801
803.270	0.0168346
803.348	0.0167649
803.426	0.0168385
803.504	0.0168961
803.582	0.0168843
803.660	0.0167739
803.738	0.0168379
803.817	0.0168755
803.895	0.0168755
803.973	0.0167272
804.051	0.0166398
804.129	0.0166646
804.207	0.0165963
804.285	0.0166294
804.363	0.0164748
804.442	0.0165839
804.520	0.0165403
804.598	0.0163728
804.676	0.0164081
804.754	0.0163698
804.832	0.0164462
804.910	0.0164765
804.988	0.0163972
805.067	0.0164729
805.145	0.0164450
805.223	0.0165397
805.301	0.0165338
805.379	0.0166151
805.457	0.0166217
805.535	0.0167208
805.613	0.0166679
805.692	0.0167860
805.770	0.0169760
805.848	0.0168045
805.926	0.0168689
806.004	0.0167703
806.082	0.0168617
806.160	0.0169426
806.238	0.0169162
806.317	0.0168654
806.395	0.0168227
806.473	0.0169229
806.551	0.0169159
806.629	0.0167386
806.707	0.0168609
806.785	0.0168929
806.863	0.0168814
806.942	0.0169107
807.020	0.0170354
807.098	0.0169823
807.176	0.0169448
807.254	0.0169653
807.332	0.0170410
807.410	0.0170406
807.488	0.0171776
807.567	0.0171118
807.645	0.0170679
807.723	0.0170621
807.801	0.0170149
807.879	0.0170993
807.957	0.0170690
808.035	0.0170255
808.113	0.0169434
808.192	0.0168533
808.270	0.0169221
808.348	0.0167207
808.426	0.0166273
808.504	0.0165816
808.582	0.0166467
808.660	0.0165433
808.738	0.0164591
808.817	0.0165239
808.895	0.0165081
808.973	0.0164040
809.051	0.0164486
809.129	0.0164156
809.207	0.0164334
809.285	0.0165241
809.363	0.0165131
809.442	0.0165672
809.520	0.0166500
809.598	0.0166465
809.676	0.0165788
809.754	0.0166879
809.832	0.0166946
809.910	0.0167359
809.988	0.0168042
810.067	0.0168026
810.145	0.0167567
810.223	0.0166875
810.301	0.0167213
810.379	0.0167432
810.457	0.0166408
810.535	0.0166609
810.613	0.0166972
810.692	0.0167992
810.770	0.0166708
810.848	0.0168080
810.926	0.0168175
811.004	0.0167220
811.082	0.0167062
811.160	0.0167227
811.238	0.0168201
811.317	0.0165784
811.395	0.0165542
811.473	0.0166314
811.551	0.0165563
811.629	0.0165655
811.707	0.0164764
811.785	0.0164980
811.863	0.0163635
811.942	0.0164165
812.020	0.0163062
812.098	0.0164431
812.176	0.0162019
812.254	0.0163670
812.332	0.0162480
812.410	0.0161501
812.488	0.0164151
812.567	0.0163599
812.645	0.0163210
812.723	0.0164182
812.801	0.0165805
812.879	0.0164996
812.957	0.0165333
813.035	0.0165233
813.113	0.0165717
813.192	0.0166785
813.270	0.0166067
813.348	0.0168181
813.426	0.0168953
813.504	0.0167101
813.582	0.0167331
813.660	0.0167526
813.738	0.0167103
813.817	0.0167059
813.895	0.0167896
813.973	0.0165808
814.051	0.0167769
814.129	0.0166351
814.207	0.0166785
814.285	0.0168236
814.363	0.0167535
814.442	0.0168641
814.520	0.0169252
814.598	0.0170535
814.676	0.0170872
814.754	0.0169888
814.832	0.0171267
814.910	0.0170963
814.988	0.0171220
815.067	0.0171505
815.145	0.0171127
815.223	0.0170922
815.301	0.0172701
815.379	0.0172471
815.457	0.0172205
815.535	0.0172854
815.613	0.0171889
815.692	0.0171315
815.770	0.0171169
815.848	0.0171526
815.926	0.0171036
816.004	0.0169514
816.082	0.0169116
816.160	0.0168343
816.238	0.0167554
816.317	0.0168935
816.395	0.0167219
816.473	0.0168377
816.551	0.0168092
816.629	0.0167290
816.707	0.0166359
816.785	0.0167934
816.863	0.0167181
816.942	0.0168015
817.020	0.0168623
817.098	0.0167960
817.176	0.0167580
817.254	0.0168824
817.332	0.0168567
817.410	0.0168394
817.488	0.0169434
817.567	0.0168607
817.645	0.0168568
817.723	0.0169382
817.801	0.0167546
817.879	0.0168706
817.957	0.0169818
818.035	0.0169254
818.113	0.0168616
818.192	0.0168307
818.270	0.0170266
818.348	0.0169648
818.426	0.0169048
818.504	0.0169250
818.582	0.0170461
818.660	0.0169061
818.738	0.0168292
818.817	0.0169125
818.895	0.0168644
818.973	0.0167924
819.051	0.0167713
819.129	0.0166868
819.207	0.0166682
819.285	0.0166319
819.363	0.0166306
819.442	0.0165007
819.520	0.0164823
819.598	0.0164318
819.676	0.0163145
819.754	0.0163750
819.832	0.0162401
819.910	0.0163072
819.988	0.0163377
820.067	0.0163041
820.145	0.0163992
820.223	0.0161399
820.301	0.0161816
820.379	0.0163027
820.457	0.0163497
820.535	0.0163808
820.613	0.0165067
820.692	0.0165259
820.770	0.0165221
820.848	0.0166461
820.926	0.0166292
821.004	0.0167203
821.082	0.0168531
821.160	0.0170617
821.238	0.0169251
821.317	0.0170278
821.395	0.0168525
821.473	0.0169207
821.551	0.0169530
821.629	0.0168987
821.707	0.0169425
821.785	0.0169831
821.863	0.0168723
821.942	0.0168479
822.020	0.0169024
822.098	0.0168671
822.176	0.0169717
822.254	0.0169649
822.332	0.0168446
822.410	0.0169997
822.488	0.0171677
822.567	0.0171771
822.645	0.0171407
822.723	0.0170563
822.801	0.0173575
822.879	0.0172039
822.957	0.0172495
823.035	0.0173936
823.113	0.0174594
823.192	0.0175360
823.270	0.0174966
823.348	0.0174181
823.426	0.0173758
823.504	0.0175370
823.582	0.0173099
823.660	0.0172627
823.738	0.0171571
823.817	0.0170895
823.895	0.0170061
823.973	0.0168933
824.051	0.0170296
824.129	0.0168313
824.207	0.0167288
824.285	0.0168399
824.363	0.0166639
824.442	0.0165922
824.520	0.0167153
824.598	0.0166209
824.676	0.0166700
824.754	0.0167966
824.832	0.0168819
824.910	0.0168426
824.988	0.0168025
825.067	0.0167239
825.145	0.0168668
825.223	0.0169440
825.301	0.0169376
825.379	0.0168806
825.457	0.0167799
825.535	0.0168941
825.613	0.0169037
825.692	0.0168721
825.770	0.0168436
825.848	0.0168502
825.926	0.0168622
826.004	0.0168658
826.082	0.0167402
826.160	0.0168600
826.238	0.0166548
826.317	0.0167240
826.395	0.0166770
826.473	0.0166456
826.551	0.0166650
826.629	0.0166085
826.707	0.0167354
826.785	0.0166710
826.863	0.0168572
826.942	0.0168328
827.020	0.0167085
827.098	0.0167498
827.176	0.0167632
827.254	0.0166920
827.332	0.0165183
827.410	0.0166553
827.488	0.0166975
827.567	0.0164331
827.645	0.0166044
827.723	0.0166023
827.801	0.0165656
827.879	0.0163541
827.957	0.0163379
828.035	0.0164786
828.113	0.0164659
828.192	0.0163831
828.270	0.0163220
828.348	0.0164743
828.426	0.0165749
828.504	0.0164277
828.582	0.0166376
828.660	0.0166812
828.738	0.0167510
828.817	0.0167254
828.895	0.0167402
828.973	0.0168890
829.051	0.0169319
829.129	0.0168003
829.207	0.0168341
829.285	0.0169372
829.363	0.0169899
829.442	0.0169872
829.520	0.0168836
829.598	0.0167961
829.676	0.0168040
829.754	0.0168801
829.832	0.0169199
829.910	0.0169868
829.988	0.0168236
830.067	0.0168622
830.145	0.0167974
830.223	0.0168956
830.301	0.0169613
830.379	0.0169096
830.457	0.0169352
830.535	0.0169869
830.613	0.0169006
830.692	0.0170563
830.770	0.0171420
830.848	0.0170610
830.926	0.0170828
831.004	0.0170937
831.082	0.0168990
831.160	0.0169046
831.238	0.0169423
831.317	0.0169761
831.395	0.0169421
831.473	0.0170233
831.551	0.0169036
831.629	0.0168523
831.707	0.0167902
831.785	0.0168145
831.863	0.0168446
831.942	0.0167697
832.020	0.0166131
832.098	0.0166368
832.176	0.0166435
832.254	0.0167882
832.332	0.0166216
832.410	0.0165966
832.488	0.0166860
832.567	0.0166005
832.645	0.0165329
832.723	0.0166423
832.801	0.0166235
832.879	0.0166693
832.957	0.0166747
833.035	0.0167294
833.113	0.0168226
833.192	0.0167550
833.270	0.0167464
833.348	0.0168376
833.426	0.0168115
833.504	0.0168225
833.582	0.0167992
833.660	0.0168179
833.738	0.0167612
833.817	0.0168305
833.895	0.0167816
833.973	0.0165685
834.051	0.0166182
834.129	0.0165614
834.207	0.0166161
834.285	0.0166428
834.363	0.0164902
834.442	0.0165201
834.520	0.0166558
834.598	0.0165418
834.676	0.0166390
834.754	0.0164867
834.832	0.0164760
834.910	0.0164391
834.988	0.0164510
835.067	0.0166053
835.145	0.0165578
835.223	0.0164680
835.301	0.0164613
835.379	0.0163949
835.457	0.0164188
835.535	0.0164171
835.613	0.0165111
835.692	0.0163462
835.770	0.0164712
835.848	0.0165725
835.926	0.0166183
836.004	0.0165046
836.082	0.0166992
836.160	0.0166960
836.238	0.0166643
836.317	0.0167191
836.395	0.0169457
836.473	0.0171026
836.551	0.0170206
836.629	0.0170454
836.707	0.0170779
836.785	0.0170502
836.863	0.0170502
836.942	0.0170833
837.020	0.0172314
837.098	0.0170737
837.176	0.0170560
837.254	0.0170713
837.332	0.0170362
837.410	0.0169227
837.488	0.0170251
837.567	0.0172388
837.645	0.0170257
837.723	0.0169692
837.801	0.0168447
837.879	0.0169024
837.957	0.0169965
838.035	0.0169371
838.113	0.0170163
838.192	0.0169910
838.270	0.0169151
838.348	0.0169722
838.426	0.0170404
838.504	0.0169992
838.582	0.0168986
838.660	0.0171614
838.738	0.0170602
838.817	0.0169554
838.895	0.0169633
838.973	0.0171053
839.051	0.0171157
839.129	0.0169511
839.207	0.0170837
839.285	0.0169936
839.363	0.0169263
839.442	0.0168475
839.520	0.0168745
839.598	0.0169560
839.676	0.0168472
839.754	0.0168070
839.832	0.0168549
839.910	0.0166860
839.988	0.0167403
840.067	0.0168725
840.145	0.0168725
840.223	0.0167342
840.301	0.0167368
840.379	0.0169757
840.457	0.0169310
840.535	0.0168813
840.613	0.0168938
840.692	0.0169896
840.770	0.0170927
840.848	0.0169513
840.926	0.0168733
841.004	0.0170103
841.082	0.0170702
841.160	0.0170930
841.238	0.0171796
841.317	0.0170428
841.395	0.0170391
841.473	0.0171548
841.551	0.0171228
841.629	0.0169482
841.707	0.0171478
841.785	0.0171210
841.863	0.0170678
841.942	0.0170987
842.020	0.0170929
842.098	0.0168504
842.176	0.0169433
842.254	0.0168501
842.332	0.0169749
842.410	0.0166695
842.488	0.0167119
842.567	0.0166528
842.645	0.0166137
842.723	0.0166529
842.801	0.0164744
842.879	0.0165698
842.957	0.0163844
843.035	0.0165060
843.113	0.0165046
843.192	0.0164073
843.270	0.0164769
843.348	0.0164510
843.426	0.0163546
843.504	0.0165755
843.582	0.0164474
843.660	0.0163837
843.738	0.0165192
843.817	0.0166148
843.895	0.0166157
843.973	0.0166364
844.051	0.0168206
844.129	0.0167309
844.207	0.0167217
844.285	0.0167992
844.363	0.0169253
844.442	0.0169108
844.520	0.0167659
844.598	0.0168452
844.676	0.0169006
844.754	0.0169452
844.832	0.0169352
844.910	0.0169715
844.988	0.0169297
845.067	0.0169465
845.145	0.0170499
845.223	0.0169371
845.301	0.0168317
845.379	0.0169589
845.457	0.0169121
845.535	0.0169144
845.613	0.0168031
845.692	0.0168983
845.770	0.0168768
845.848	0.0168863
845.926	0.0170396
846.004	0.0169756
846.082	0.0170853
846.160	0.0169387
846.238	0.0169861
846.317	0.0169176
846.395	0.0170718
846.473	0.0170756
846.551	0.0169855
846.629	0.0168549
846.707	0.0169862
846.785	0.0169736
846.863	0.0169450
846.942	0.0169449
847.020	0.0168551
847.098	0.0169507
847.176	0.0169344
847.254	0.0169923
847.332	0.0170422
847.410	0.0169264
847.488	0.0167630
847.567	0.0169137
847.645	0.0169647
847.723	0.0169289
847.801	0.0168140
847.879	0.0169118
847.957	0.0170161
848.035	0.0170607
848.113	0.0169626
848.192	0.0170295
848.270	0.0170495
848.348	0.0170290
848.426	0.0170396
848.504	0.0170122
848.582	0.0169707
848.660	0.0169794
848.738	0.0169702
848.817	0.0168903
848.895	0.0170385
848.973	0.0170220
849.051	0.0169890
849.129	0.0169191
849.207	0.0169631
849.285	0.0169139
849.363	0.0169294
849.442	0.0168373
849.520	0.0168748
849.598	0.0168178
849.676	0.0168307
849.754	0.0167473
849.832	0.0167744
849.910	0.0166631
849.988	0.0166265
850.067	0.0166169
850.145	0.0164189
850.223	0.0166293
850.301	0.0165280
850.379	0.0164925
850.457	0.0164737
850.535	0.0165179
850.613	0.0165176
850.692	0.0164516
850.770	0.0163689
850.848	0.0162569
850.926	0.0161798
851.004	0.0162605
851.082	0.0162777
851.160	0.0163076
851.238	0.0161682
851.317	0.0162242
851.395	0.0162396
851.473	0.0162460
851.551	0.0160770
851.629	0.0161841
851.707	0.0160691
851.785	0.0163015
851.863	0.0161468
851.942	0.0161846
852.020	0.0163280
852.098	0.0163837
852.176	0.0165178
852.254	0.0164423
852.332	0.0166016
852.410	0.0165499
852.488	0.0166858
852.567	0.0166898
852.645	0.0167966
852.723	0.0168343
852.801	0.0168974
852.879	0.0169186
852.957	0.0168327
853.035	0.0168999
853.113	0.0169661
853.192	0.0169763
853.270	0.0168948
853.348	0.0167620
853.426	0.0168772
853.504	0.0168871
853.582	0.0168549
853.660	0.0169010
853.738	0.0168906
853.817	0.0168916
853.895	0.0169005
853.973	0.0169041
854.051	0.0170179
854.129	0.0171107
854.207	0.0172459
854.285	0.0170729
854.363	0.0169919
854.442	0.0169759
854.520	0.0171662
854.598	0.0170830
854.676	0.0170499
854.754	0.0172177
854.832	0.0171062
854.910	0.0171619
854.988	0.0171613
855.067	0.0172734
855.145	0.0170196
855.223	0.0171133
855.301	0.0171613
855.379	0.0170971
855.457	0.0170996
855.535	0.0170396
855.613	0.0171700
855.692	0.0170795
855.770	0.0170300
855.848	0.0170322
855.926	0.0170006
856.004	0.0170398
856.082	0.0170010
856.160	0.0170900
856.238	0.0170826
856.317	0.0171235
856.395	0.0170637
856.473	0.0169492
856.551	0.0170678
856.629	0.0171921
856.707	0.0171156
856.785	0.0170920
856.863	0.0170658
856.942	0.0170820
857.020	0.0169951
857.098	0.0170177
857.176	0.0170663
857.254	0.0170643
857.332	0.0170488
857.410	0.0170322
857.488	0.0170859
857.567	0.0170025
857.645	0.0167924
857.723	0.0168212
857.801	0.0167742
857.879	0.0167171
857.957	0.0167200
858.035	0.0168013
858.113	0.0166353
858.192	0.0164304
858.270	0.0167198
858.348	0.0166290
858.426	0.0166146
858.504	0.0164838
858.582	0.0164713
858.660	0.0164536
858.738	0.0164793
858.817	0.0166772
858.895	0.0164671
858.973	0.0163588
859.051	0.0163893
859.129	0.0164272
859.207	0.0163651
859.285	0.0163406
859.363	0.0166157
859.442	0.0164442
859.520	0.0165795
859.598	0.0166202
859.676	0.0165684
859.754	0.0165868
859.832	0.0167446
859.910	0.0166463
859.988	0.0168272
860.067	0.0168652
860.145	0.0168031
860.223	0.0168951
860.301	0.0169024
860.379	0.0168454
860.457	0.0169008
860.535	0.0168994
860.613	0.0169942
860.692	0.0169677
860.770	0.0168700
860.848	0.0169258
860.926	0.0167206
861.004	0.0168421
861.082	0.0169205
861.160	0.0169090
861.238	0.0167880
861.317	0.0166833
861.395	0.0166804
861.473	0.0167062
861.551	0.0167919
861.629	0.0166495
861.707	0.0167426
861.785	0.0167752
861.863	0.0167191
861.942	0.0167760
862.020	0.0169378
862.098	0.0168243
862.176	0.0168204
862.254	0.0167950
862.332	0.0170554
862.410	0.0170229
862.488	0.0171498
862.567	0.0171238
862.645	0.0171041
862.723	0.0171102
862.801	0.0170962
862.879	0.0171474
862.957	0.0171249
863.035	0.0172112
863.113	0.0172621
863.192	0.0171660
863.270	0.0170812
863.348	0.0170773
863.426	0.0170901
863.504	0.0172365
863.582	0.0171093
863.660	0.0171236
863.738	0.0170616
863.817	0.0169699
863.895	0.0170242
863.973	0.0171194
864.051	0.0169891
864.129	0.0169883
864.207	0.0172226
864.285	0.0171429
864.363	0.0170844
864.442	0.0170924
864.520	0.0170979
864.598	0.0171133
864.676	0.0171668
864.754	0.0172757
864.832	0.0171042
864.910	0.0173009
864.988	0.0170164
865.067	0.0170575
865.145	0.0171309
865.223	0.0171015
865.301	0.0170061
865.379	0.0170147
865.457	0.0170197
865.535	0.0168501
865.613	0.0168831
865.692	0.0168184
865.770	0.0168601
865.848	0.0168690
865.926	0.0168894
866.004	0.0167033
866.082	0.0167619
866.160	0.0166782
866.238	0.0166695
866.317	0.0166086
866.395	0.0165530
866.473	0.0165973
866.551	0.0166408
866.629	0.0164796
866.707	0.0164414
866.785	0.0163658
866.863	0.0164780
866.942	0.0164234
867.020	0.0164172
867.098	0.0165300
867.176	0.0164751
867.254	0.0165615
867.332	0.0167425
867.410	0.0166248
867.488	0.0164773
867.567	0.0165354
867.645	0.0166933
867.723	0.0166312
867.801	0.0167759
867.879	0.0167986
867.957	0.0169634
868.035	0.0169064
868.113	0.0169975
868.192	0.0169843
868.270	0.0170123
868.348	0.0169791
868.426	0.0169420
868.504	0.0168854
868.582	0.0170214
868.660	0.0170083
868.738	0.0169653
868.817	0.0170107
868.895	0.0169656
868.973	0.0167813
869.051	0.0167175
869.129	0.0168140
869.207	0.0169991
869.285	0.0167265
869.363	0.0166608
869.442	0.0169279
869.520	0.0167762
869.598	0.0167220
869.676	0.0167564
869.754	0.0167527
869.832	0.0166385
869.910	0.0167113
869.988	0.0168135
870.067	0.0167313
870.145	0.0169247
870.223	0.0168186
870.301	0.0169563
870.379	0.0169255
870.457	0.0168508
870.535	0.0168884
870.613	0.0170129
870.692	0.0170112
870.770	0.0169498
870.848	0.0169324
870.926	0.0169727
871.004	0.0169964
871.082	0.0169382
871.160	0.0168118
871.238	0.0170830
871.317	0.0168492
871.395	0.0168900
871.473	0.0169698
871.551	0.0168660
871.629	0.0168199
871.707	0.0169170
871.785	0.0167680
871.863	0.0167004
871.942	0.0169225
872.020	0.0168217
872.098	0.0167928
872.176	0.0167520
872.254	0.0168580
872.332	0.0167212
872.410	0.0166852
872.488	0.0167944
872.567	0.0167772
872.645	0.0168331
872.723	0.0169111
872.801	0.0169235
872.879	0.0168996
872.957	0.0169391
873.035	0.0169213
873.113	0.0167531
873.192	0.0167979
873.270	0.0169058
873.348	0.0169464
873.426	0.0168898
873.504	0.0169547
873.582	0.0169036
873.660	0.0169465
873.738	0.0167665
873.817	0.0167059
873.895	0.0168600
873.973	0.0167799
874.051	0.0167166
874.129	0.0165402
874.207	0.0165659
874.285	0.0166351
874.363	0.0166570
874.442	0.0166548
874.520	0.0166778
874.598	0.0164716
874.676	0.0164935
874.754	0.0166478
874.832	0.0165770
874.910	0.0165466
874.988	0.0164403
875.067	0.0164745
875.145	0.0165965
875.223	0.0166077
875.301	0.0166287
875.379	0.0165411
875.457	0.0165831
875.535	0.0167606
875.613	0.0167252
875.692	0.0168290
875.770	0.0168851
875.848	0.0169084
875.926	0.0167657
876.004	0.0168066
876.082	0.0169405
876.160	0.0169830
876.238	0.0168819
876.317	0.0169611
876.395	0.0169290
876.473	0.0169142
876.551	0.0168756
876.629	0.0170520
876.707	0.0169423
876.785	0.0168530
876.863	0.0169581
876.942	0.0170369
877.020	0.0168655
877.098	0.0169437
877.176	0.0168653
877.254	0.0168651
877.332	0.0168343
877.410	0.0167936
877.488	0.0169259
877.567	0.0168301
877.645	0.0168555
877.723	0.0168413
877.801	0.0168362
877.879	0.0168072
877.957	0.0168415
878.035	0.0170965
878.113	0.0168375
878.192	0.0169562
878.270	0.0169372
878.348	0.0169695
878.426	0.0170646
878.504	0.0169695
878.582	0.0170435
878.660	0.0169605
878.738	0.0170628
878.817	0.0169318
878.895	0.0168902
878.973	0.0169904
879.051	0.0169981
879.129	0.0170824
879.207	0.0169154
879.285	0.0168693
879.363	0.0169247
879.442	0.0168653
879.520	0.0168700
879.598	0.0168086
879.676	0.0168130
879.754	0.0168583
879.832	0.0167440
879.910	0.0166801
879.988	0.0168185
880.067	0.0166492
880.145	0.0166943
880.223	0.0167365
880.301	0.0166607
880.379	0.0167941
880.457	0.0168048
880.535	0.0167087
880.613	0.0166439
880.692	0.0167399
880.770	0.0167014
880.848	0.0167780
880.926	0.0167551
881.004	0.0166982
881.082	0.0168012
881.160	0.0168401
881.238	0.0168616
881.317	0.0167106
881.395	0.0168252
881.473	0.0169158
881.551	0.0168248
881.629	0.0166945
881.707	0.0167677
881.785	0.0168466
881.863	0.0165504
881.942	0.0166180
882.020	0.0166552
882.098	0.0165728
882.176	0.0165337
882.254	0.0165821
882.332	0.0166299
882.410	0.0165020
882.488	0.0164555
882.567	0.0165272
882.645	0.0165771
882.723	0.0164671
882.801	0.0164093
882.879	0.0166589
882.957	0.0165318
883.035	0.0163489
883.113	0.0166637
883.192	0.0167538
883.270	0.0168211
883.348	0.0168417
883.426	0.0167744
883.504	0.0167146
883.582	0.0168832
883.660	0.0168404
883.738	0.0170177
883.817	0.0170605
883.895	0.0169844
883.973	0.0170169
884.051	0.0169595
884.129	0.0169699
884.207	0.0170321
884.285	0.0169270
884.363	0.0169170
884.442	0.0168705
884.520	0.0167825
884.598	0.0167343
884.676	0.0167484
884.754	0.0167525
884.832	0.0168057
884.910	0.0166798
884.988	0.0167370
885.067	0.0167058
885.145	0.0166465
885.223	0.0166933
885.301	0.0168831
885.379	0.0167758
885.457	0.0168797
885.535	0.0167943
885.613	0.0168904
885.692	0.0168725
885.770	0.0169121
885.848	0.0169514
885.926	0.0170899
886.004	0.0171616
886.082	0.0170485
886.160	0.0170881
886.238	0.0170915
886.317	0.0171907
886.395	0.0170887
886.473	0.0171619
886.551	0.0170761
886.629	0.0171014
886.707	0.0172389
886.785	0.0170918
886.863	0.0171815
886.942	0.0171915
887.020	0.0171844
887.098	0.0170775
887.176	0.0170748
887.254	0.0170999
887.332	0.0170453
887.410	0.0170452
887.488	0.0171009
887.567	0.0169707
887.645	0.0169831
887.723	0.0169378
887.801	0.0168996
887.879	0.0169429
887.957	0.0167239
888.035	0.0167531
888.113	0.0167604
888.192	0.0167138
888.270	0.0167993
888.348	0.0166166
888.426	0.0166010
888.504	0.0166409
888.582	0.0167310
888.660	0.0166182
888.738	0.0166465
888.817	0.0166573
888.895	0.0166689
888.973	0.0166474
889.051	0.0166582
889.129	0.0165360
889.207	0.0166426
889.285	0.0166719
889.363	0.0164869
889.442	0.0166289
889.520	0.0165952
889.598	0.0166742
889.676	0.0167050
889.754	0.0166222
889.832	0.0166027
889.910	0.0166933
889.988	0.0166651
890.067	0.0166551
890.145	0.0168658
890.223	0.0166917
890.301	0.0166633
890.379	0.0168579
890.457	0.0166042
890.535	0.0166470
890.613	0.0167005
890.692	0.0167490
890.770	0.0168812
890.848	0.0168179
890.926	0.0167172
891.004	0.0169131
891.082	0.0168388
891.160	0.0167679
891.238	0.0166006
891.317	0.0168140
891.395	0.0168431
891.473	0.0167970
891.551	0.0168263
891.629	0.0169617
891.707	0.0169826
891.785	0.0168195
891.863	0.0167299
891.942	0.0169592
892.020	0.0169110
892.098	0.0167652
892.176	0.0167278
892.254	0.0168387
892.332	0.0168543
892.410	0.0166797
892.488	0.0167638
892.567	0.0167925
892.645	0.0165701
892.723	0.0165382
892.801	0.0165868
892.879	0.0165612
892.957	0.0165504
893.035	0.0166256
893.113	0.0165311
893.192	0.0164313
893.270	0.0164589
893.348	0.0165191
893.426	0.0164551
893.504	0.0164602
893.582	0.0165349
893.660	0.0166049
893.738	0.0164732
893.817	0.0165116
893.895	0.0164700
893.973	0.0166465
894.051	0.0165683
894.129	0.0165880
894.207	0.0166270
894.285	0.0165073
894.363	0.0168354
894.442	0.0167743
894.520	0.0166909
894.598	0.0168039
894.676	0.0167982
894.754	0.0169369
894.832	0.0168698
894.910	0.0169042
894.988	0.0168814
895.067	0.0167702
895.145	0.0169714
895.223	0.0167694
895.301	0.0169384
895.379	0.0169398
895.457	0.0169389
895.535	0.0169439
895.613	0.0170782
895.692	0.0169252
895.770	0.0169505
895.848	0.0169827
895.926	0.0169073
896.004	0.0170326
896.082	0.0170157
896.160	0.0169592
896.238	0.0168587
896.317	0.0169283
896.395	0.0169009
896.473	0.0168925
896.551	0.0169091
896.629	0.0167618
896.707	0.0166877
896.785	0.0166923
896.863	0.0166518
896.942	0.0167747
897.020	0.0167085
897.098	0.0166996
897.176	0.0166400
897.254	0.0166554
897.332	0.0166443
897.410	0.0166873
897.488	0.0166372
897.567	0.0167141
897.645	0.0166496
897.723	0.0167525
897.801	0.0167650
897.879	0.0167674
897.957	0.0168804
898.035	0.0167017
898.113	0.0166784
898.192	0.0167834
898.270	0.0167539
898.348	0.0168693
898.426	0.0169633
898.504	0.0167682
898.582	0.0167899
898.660	0.0168818
898.738	0.0168608
898.817	0.0169579
898.895	0.0170058
898.973	0.0169367
899.051	0.0169669
899.129	0.0170428
899.207	0.0168781
899.285	0.0168365
899.363	0.0169878
899.442	0.0168732
899.520	0.0168668
899.598	0.0168800
899.676	0.0168717
899.754	0.0168968
899.832	0.0169133
899.910	0.0168195
899.988	0.0168961
900.067	0.0168607
900.145	0.0167789
900.223	0.0169555
900.301	0.0169259
900.379	0.0167995
900.457	0.0167579
900.535	0.0167732
900.613	0.0167612
900.692	0.0169188
900.770	0.0168983
900.848	0.0167397
900.926	0.0166931
901.004	0.0168204
901.082	0.0167673
901.160	0.0166364
901.238	0.0166710
901.317	0.0166809
901.395	0.0167340
901.473	0.0168153
901.551	0.0166660
901.629	0.0166901
901.707	0.0167435
901.785	0.0167024
901.863	0.0167465
901.942	0.0167315
902.020	0.0168195
902.098	0.0167973
902.176	0.0167461
902.254	0.0167615
902.332	0.0166602
902.410	0.0167723
902.488	0.0169303
902.567	0.0169071
902.645	0.0167081
902.723	0.0167630
902.801	0.0168759
902.879	0.0167352
902.957	0.0167898
903.035	0.0166705
903.113	0.0168622
903.192	0.0168652
903.270	0.0166260
903.348	0.0167551
903.426	0.0168198
903.504	0.0166942
903.582	0.0167032
903.660	0.0168256
903.738	0.0168200
903.817	0.0167123
903.895	0.0166427
903.973	0.0167858
904.051	0.0166901
904.129	0.0167152
904.207	0.0167987
904.285	0.0167416
904.363	0.0167781
904.442	0.0165643
904.520	0.0166903
904.598	0.0165617
904.676	0.0165410
904.754	0.0166356
904.832	0.0165983
904.910	0.0165027
904.988	0.0164331
905.067	0.0166106
905.145	0.0165406
905.223	0.0165175
905.301	0.0163929
905.379	0.0164398
905.457	0.0165812
905.535	0.0164467
905.613	0.0165579
905.692	0.0165555
905.770	0.0165216
905.848	0.0165108
905.926	0.0165075
906.004	0.0165554
906.082	0.0165995
906.160	0.0167001
906.238	0.0166231
906.317	0.0165623
906.395	0.0164832
906.473	0.0166615
906.551	0.0165350
906.629	0.0167262
906.707	0.0167537
906.785	0.0167487
906.863	0.0167418
906.942	0.0166369
907.020	0.0167543
907.098	0.0168338
907.176	0.0168645
907.254	0.0167791
907.332	0.0169137
907.410	0.0168167
907.488	0.0168649
907.567	0.0168978
907.645	0.0168054
907.723	0.0168568
907.801	0.0170496
907.879	0.0169292
907.957	0.0168272
908.035	0.0169257
908.113	0.0167645
908.192	0.0168524
908.270	0.0167775
908.348	0.0167149
908.426	0.0169892
908.504	0.0168819
908.582	0.0168018
908.660	0.0167493
908.738	0.0168353
908.817	0.0167114
908.895	0.0166744
908.973	0.0166813
909.051	0.0168433
909.129	0.0166344
909.207	0.0166615
909.285	0.0166506
909.363	0.0166762
909.442	0.0167532
909.520	0.0166190
909.598	0.0166771
909.676	0.0167142
909.754	0.0167125
909.832	0.0166567
909.910	0.0166132
909.988	0.0166801
910.067	0.0166260
910.145	0.0168069
910.223	0.0167677
910.301	0.0167590
910.379	0.0168161
910.457	0.0168391
910.535	0.0167184
910.613	0.0168272
910.692	0.0168967
910.770	0.0169588
910.848	0.0169498
910.926	0.0170683
911.004	0.0169990
911.082	0.0168718
911.160	0.0169393
911.238	0.0169946
911.317	0.0169252
911.395	0.0169348
911.473	0.0169267
911.551	0.0168637
911.629	0.0167542
911.707	0.0167523
911.785	0.0167500
911.863	0.0167475
911.942	0.0167805
912.020	0.0167297
912.098	0.0168011
912.176	0.0168639
912.254	0.0167797
912.332	0.0166493
912.410	0.0167427
912.488	0.0167432
912.567	0.0165671
912.645	0.0167136
912.723	0.0165215
912.801	0.0165644
912.879	0.0168226
912.957	0.0166724
913.035	0.0166475
913.113	0.0166516
913.192	0.0166067
913.270	0.0165334
913.348	0.0166402
913.426	0.0168472
913.504	0.0167404
913.582	0.0167392
913.660	0.0166563
913.738	0.0166476
913.817	0.0167245
913.895	0.0166492
913.973	0.0165897
914.051	0.0167056
914.129	0.0165875
914.207	0.0167280
914.285	0.0167252
914.363	0.0165889
914.442	0.0166006
914.520	0.0166372
914.598	0.0167381
914.676	0.0167243
914.754	0.0166649
914.832	0.0166848
914.910	0.0167513
914.988	0.0166962
915.067	0.0168053
915.145	0.0167574
915.223	0.0168220
915.301	0.0166790
915.379	0.0167634
915.457	0.0167957
915.535	0.0166557
915.613	0.0167719
915.692	0.0167812
915.770	0.0167998
915.848	0.0167419
915.926	0.0166967
916.004	0.0167725
916.082	0.0167789
916.160	0.0166618
916.238	0.0168526
916.317	0.0168825
916.395	0.0167732
916.473	0.0166526
916.551	0.0167439
916.629	0.0167384
916.707	0.0167857
916.785	0.0167873
916.863	0.0166518
916.942	0.0167146
917.020	0.0167644
917.098	0.0167206
917.176	0.0166565
917.254	0.0165076
917.332	0.0166541
917.410	0.0166998
917.488	0.0166785
917.567	0.0167179
917.645	0.0166875
917.723	0.0168041
917.801	0.0166486
917.879	0.0168024
917.957	0.0168019
918.035	0.0168505
918.113	0.0168166
918.192	0.0167493
918.270	0.0167363
918.348	0.0168386
918.426	0.0168222
918.504	0.0167593
918.582	0.0168423
918.660	0.0167982
918.738	0.0169324
918.817	0.0167518
918.895	0.0168742
918.973	0.0169186
919.051	0.0169105
919.129	0.0169540
919.207	0.0169847
919.285	0.0168938
919.363	0.0167687
919.442	0.0168444
919.520	0.0168352
919.598	0.0168488
919.676	0.0168150
919.754	0.0170049
919.832	0.0168568
919.910	0.0168009
