06/29/2022	21:34:04	Ver.	4.1	UNKNOWN
Optical Delay	600.001752	Delta X		0.078125	Sweeps	1	Scan Rate	0/0
Coordinates	Axis 1	NaN	Axis 2	NaN	Axis 3	NaN	Axis 4	NaN	Axis 5	NaN	Axis 6	0.000000
TX Power	0.000000	RX Power	0.000000

600.002	0.0164005
600.080	0.0163574
600.158	0.0164304
600.236	0.0164848
600.314	0.0164334
600.392	0.0163863
600.471	0.0164067
600.549	0.0163065
600.627	0.0164184
600.705	0.0165260
600.783	0.0164125
600.861	0.0163490
600.939	0.0166280
601.017	0.0163914
601.096	0.0163694
601.174	0.0163673
601.252	0.0164088
601.330	0.0164629
601.408	0.0164787
601.486	0.0163484
601.564	0.0163683
601.642	0.0164229
601.721	0.0164266
601.799	0.0163390
601.877	0.0165539
601.955	0.0163852
602.033	0.0164278
602.111	0.0164385
602.189	0.0162797
602.267	0.0163480
602.346	0.0162918
602.424	0.0164606
602.502	0.0163576
602.580	0.0163628
602.658	0.0164108
602.736	0.0162448
602.814	0.0163943
602.892	0.0163892
602.971	0.0164433
603.049	0.0164281
603.127	0.0164215
603.205	0.0163246
603.283	0.0162855
603.361	0.0164207
603.439	0.0162919
603.517	0.0164172
603.596	0.0164223
603.674	0.0164227
603.752	0.0163097
603.830	0.0165030
603.908	0.0164123
603.986	0.0164705
604.064	0.0163113
604.142	0.0163790
604.221	0.0164278
604.299	0.0164772
604.377	0.0164963
604.455	0.0163300
604.533	0.0164616
604.611	0.0163413
604.689	0.0163907
604.767	0.0165631
604.846	0.0165652
604.924	0.0165480
605.002	0.0165376
605.080	0.0163459
605.158	0.0165489
605.236	0.0165488
605.314	0.0165133
605.392	0.0165131
605.471	0.0164557
605.549	0.0164641
605.627	0.0164419
605.705	0.0165298
605.783	0.0165095
605.861	0.0164674
605.939	0.0164092
606.017	0.0164652
606.096	0.0164557
606.174	0.0165145
606.252	0.0164420
606.330	0.0164454
606.408	0.0164543
606.486	0.0165498
606.564	0.0164590
606.642	0.0163402
606.721	0.0165166
606.799	0.0164763
606.877	0.0164735
606.955	0.0166579
607.033	0.0164297
607.111	0.0166209
607.189	0.0165118
607.267	0.0165988
607.346	0.0164996
607.424	0.0164426
607.502	0.0165161
607.580	0.0165558
607.658	0.0166369
607.736	0.0165094
607.814	0.0165951
607.892	0.0166555
607.971	0.0164188
608.049	0.0163224
608.127	0.0164471
608.205	0.0165250
608.283	0.0164012
608.361	0.0166141
608.439	0.0165268
608.517	0.0164709
608.596	0.0164684
608.674	0.0163585
608.752	0.0164900
608.830	0.0164896
608.908	0.0164741
608.986	0.0164967
609.064	0.0165967
609.142	0.0164888
609.221	0.0164964
609.299	0.0165053
609.377	0.0165253
609.455	0.0164168
609.533	0.0163780
609.611	0.0165872
609.689	0.0166866
609.767	0.0164073
609.846	0.0164078
609.924	0.0165611
610.002	0.0165754
610.080	0.0165907
610.158	0.0166092
610.236	0.0165826
610.314	0.0164465
610.392	0.0166093
610.471	0.0165424
610.549	0.0165246
610.627	0.0166637
610.705	0.0166344
610.783	0.0164510
610.861	0.0165968
610.939	0.0165780
611.017	0.0167245
611.096	0.0165257
611.174	0.0164342
611.252	0.0166433
611.330	0.0165305
611.408	0.0165195
611.486	0.0165373
611.564	0.0164873
611.642	0.0165630
611.721	0.0165175
611.799	0.0165688
611.877	0.0165737
611.955	0.0167252
612.033	0.0165402
612.111	0.0164317
612.189	0.0165244
612.267	0.0166192
612.346	0.0166121
612.424	0.0165291
612.502	0.0166008
612.580	0.0165845
612.658	0.0166027
612.736	0.0165719
612.814	0.0165546
612.892	0.0165161
612.971	0.0165620
613.049	0.0165322
613.127	0.0165909
613.205	0.0165247
613.283	0.0165196
613.361	0.0164881
613.439	0.0166067
613.517	0.0164537
613.596	0.0164492
613.674	0.0166321
613.752	0.0165708
613.830	0.0165183
613.908	0.0165923
613.986	0.0165546
614.064	0.0165935
614.142	0.0165024
614.221	0.0166074
614.299	0.0165225
614.377	0.0165273
614.455	0.0164772
614.533	0.0165414
614.611	0.0165485
614.689	0.0165857
614.767	0.0165526
614.846	0.0164880
614.924	0.0165662
615.002	0.0165659
615.080	0.0166240
615.158	0.0163326
615.236	0.0164228
615.314	0.0165565
615.392	0.0164629
615.471	0.0165370
615.549	0.0163864
615.627	0.0164056
615.705	0.0165596
615.783	0.0165456
615.861	0.0164537
615.939	0.0164192
616.017	0.0163871
616.096	0.0165139
616.174	0.0164336
616.252	0.0164363
616.330	0.0165447
616.408	0.0163072
616.486	0.0165446
616.564	0.0164414
616.642	0.0164558
616.721	0.0163934
616.799	0.0163979
616.877	0.0164658
616.955	0.0164034
617.033	0.0164806
617.111	0.0164066
617.189	0.0163727
617.267	0.0164948
617.346	0.0163614
617.424	0.0164860
617.502	0.0165440
617.580	0.0164538
617.658	0.0164022
617.736	0.0163171
617.814	0.0164152
617.892	0.0164635
617.971	0.0163918
618.049	0.0164165
618.127	0.0164940
618.205	0.0163776
618.283	0.0162792
618.361	0.0163809
618.439	0.0164923
618.517	0.0164431
618.596	0.0163170
618.674	0.0163455
618.752	0.0164080
618.830	0.0164204
618.908	0.0163544
618.986	0.0164069
619.064	0.0162762
619.142	0.0163287
619.221	0.0163879
619.299	0.0163018
619.377	0.0164040
619.455	0.0164120
619.533	0.0163457
619.611	0.0163437
619.689	0.0163699
619.767	0.0163305
619.846	0.0165392
619.924	0.0161276
620.002	0.0163068
620.080	0.0164368
620.158	0.0164674
620.236	0.0164598
620.314	0.0162411
620.392	0.0163151
620.471	0.0164868
620.549	0.0164572
620.627	0.0165983
620.705	0.0165511
620.783	0.0164960
620.861	0.0164264
620.939	0.0163673
621.017	0.0166100
621.096	0.0165063
621.174	0.0164195
621.252	0.0163610
621.330	0.0164933
621.408	0.0164889
621.486	0.0163768
621.564	0.0164408
621.642	0.0163505
621.721	0.0163690
621.799	0.0165639
621.877	0.0165555
621.955	0.0165271
622.033	0.0164582
622.111	0.0164621
622.189	0.0164991
622.267	0.0166869
622.346	0.0164822
622.424	0.0164762
622.502	0.0164702
622.580	0.0164645
622.658	0.0166195
622.736	0.0164904
622.814	0.0164873
622.892	0.0163240
622.971	0.0164697
623.049	0.0165315
623.127	0.0163902
623.205	0.0164613
623.283	0.0163357
623.361	0.0165005
623.439	0.0165455
623.517	0.0164804
623.596	0.0165683
623.674	0.0164143
623.752	0.0164810
623.830	0.0166662
623.908	0.0165740
623.986	0.0165001
624.064	0.0164526
624.142	0.0165935
624.221	0.0165570
624.299	0.0164687
624.377	0.0164375
624.455	0.0163622
624.533	0.0164870
624.611	0.0165290
624.689	0.0165071
624.767	0.0164586
624.846	0.0164580
624.924	0.0165009
625.002	0.0164460
625.080	0.0165456
625.158	0.0164837
625.236	0.0165352
625.314	0.0166084
625.392	0.0164661
625.471	0.0165405
625.549	0.0165414
625.627	0.0165617
625.705	0.0164333
625.783	0.0164907
625.861	0.0164991
625.939	0.0164993
626.017	0.0164873
626.096	0.0165472
626.174	0.0165072
626.252	0.0165556
626.330	0.0165486
626.408	0.0165498
626.486	0.0166578
626.564	0.0165336
626.642	0.0164462
626.721	0.0165241
626.799	0.0164924
626.877	0.0164230
626.955	0.0164771
627.033	0.0164440
627.111	0.0163913
627.189	0.0164835
627.267	0.0164239
627.346	0.0165332
627.424	0.0165859
627.502	0.0164809
627.580	0.0164346
627.658	0.0166027
627.736	0.0165964
627.814	0.0165530
627.892	0.0164597
627.971	0.0164743
628.049	0.0165408
628.127	0.0164336
628.205	0.0166121
628.283	0.0165235
628.361	0.0164278
628.439	0.0163516
628.517	0.0165409
628.596	0.0165620
628.674	0.0165030
628.752	0.0165298
628.830	0.0164445
628.908	0.0163808
628.986	0.0165250
629.064	0.0164706
629.142	0.0164975
629.221	0.0164838
629.299	0.0166456
629.377	0.0165363
629.455	0.0165191
629.533	0.0165372
629.611	0.0164174
629.689	0.0165285
629.767	0.0165475
629.846	0.0164635
629.924	0.0166045
630.002	0.0165189
630.080	0.0164593
630.158	0.0164282
630.236	0.0163538
630.314	0.0164217
630.392	0.0166403
630.471	0.0165774
630.549	0.0165032
630.627	0.0165534
630.705	0.0165487
630.783	0.0166116
630.861	0.0165686
630.939	0.0164230
631.017	0.0166112
631.096	0.0165681
631.174	0.0165672
631.252	0.0166160
631.330	0.0166834
631.408	0.0166272
631.486	0.0165228
631.564	0.0166486
631.642	0.0165482
631.721	0.0165555
631.799	0.0166013
631.877	0.0164668
631.955	0.0165312
632.033	0.0167086
632.111	0.0165286
632.189	0.0166487
632.267	0.0165902
632.346	0.0166477
632.424	0.0165676
632.502	0.0168041
632.580	0.0166906
632.658	0.0165691
632.736	0.0165971
632.814	0.0165912
632.892	0.0166581
632.971	0.0167020
633.049	0.0166385
633.127	0.0165164
633.205	0.0164858
633.283	0.0166801
633.361	0.0166100
633.439	0.0168202
633.517	0.0165378
633.596	0.0166271
633.674	0.0166132
633.752	0.0166679
633.830	0.0166209
633.908	0.0166470
633.986	0.0166203
634.064	0.0167002
634.142	0.0165360
634.221	0.0165955
634.299	0.0164995
634.377	0.0166209
634.455	0.0165012
634.533	0.0166048
634.611	0.0165990
634.689	0.0165648
634.767	0.0166874
634.846	0.0165880
634.924	0.0165674
635.002	0.0165917
635.080	0.0165006
635.158	0.0165918
635.236	0.0165345
635.314	0.0166270
635.392	0.0166127
635.471	0.0166560
635.549	0.0165484
635.627	0.0165679
635.705	0.0165565
635.783	0.0166217
635.861	0.0165946
635.939	0.0165303
636.017	0.0165616
636.096	0.0166682
636.174	0.0166195
636.252	0.0164253
636.330	0.0165520
636.408	0.0165459
636.486	0.0165482
636.564	0.0165855
636.642	0.0165219
636.721	0.0164605
636.799	0.0165119
636.877	0.0166090
636.955	0.0166151
637.033	0.0165596
637.111	0.0163988
637.189	0.0164796
637.267	0.0165849
637.346	0.0164520
637.424	0.0165042
637.502	0.0165670
637.580	0.0166095
637.658	0.0164242
637.736	0.0164081
637.814	0.0164949
637.892	0.0165031
637.971	0.0164388
638.049	0.0164680
638.127	0.0165032
638.205	0.0165153
638.283	0.0164971
638.361	0.0165654
638.439	0.0165700
638.517	0.0165947
638.596	0.0165581
638.674	0.0165820
638.752	0.0166222
638.830	0.0165138
638.908	0.0165429
638.986	0.0165479
639.064	0.0164368
639.142	0.0164717
639.221	0.0166835
639.299	0.0165464
639.377	0.0166979
639.455	0.0164878
639.533	0.0165752
639.611	0.0166094
639.689	0.0165822
639.767	0.0164733
639.846	0.0164584
639.924	0.0164845
640.002	0.0165452
640.080	0.0165519
640.158	0.0164767
640.236	0.0165665
640.314	0.0167361
640.392	0.0166280
640.471	0.0164283
640.549	0.0165849
640.627	0.0165474
640.705	0.0164346
640.783	0.0164951
640.861	0.0164861
640.939	0.0164641
641.017	0.0164874
641.096	0.0166084
641.174	0.0165031
641.252	0.0163605
641.330	0.0165244
641.408	0.0165865
641.486	0.0165405
641.564	0.0165409
641.642	0.0165926
641.721	0.0163625
641.799	0.0164464
641.877	0.0163331
641.955	0.0164231
642.033	0.0166290
642.111	0.0165779
642.189	0.0165499
642.267	0.0163813
642.346	0.0165381
642.424	0.0165486
642.502	0.0163533
642.580	0.0163765
642.658	0.0165762
642.736	0.0165578
642.814	0.0165103
642.892	0.0165295
642.971	0.0165060
643.049	0.0163958
643.127	0.0165352
643.205	0.0166975
643.283	0.0164539
643.361	0.0165083
643.439	0.0165363
643.517	0.0166264
643.596	0.0166003
643.674	0.0166466
643.752	0.0165498
643.830	0.0164046
643.908	0.0165826
643.986	0.0166142
644.064	0.0165700
644.142	0.0166186
644.221	0.0166045
644.299	0.0165446
644.377	0.0167294
644.455	0.0166106
644.533	0.0165343
644.611	0.0164685
644.689	0.0165173
644.767	0.0165266
644.846	0.0165829
644.924	0.0165188
645.002	0.0165581
645.080	0.0164488
645.158	0.0165868
645.236	0.0164978
645.314	0.0163530
645.392	0.0165196
645.471	0.0165681
645.549	0.0166534
645.627	0.0164466
645.705	0.0164040
645.783	0.0165609
645.861	0.0165858
645.939	0.0163583
646.017	0.0164705
646.096	0.0165673
646.174	0.0165340
646.252	0.0165216
646.330	0.0164894
646.408	0.0164521
646.486	0.0165679
646.564	0.0165758
646.642	0.0164415
646.721	0.0164544
646.799	0.0166187
646.877	0.0165718
646.955	0.0164784
647.033	0.0164694
647.111	0.0165102
647.189	0.0164063
647.267	0.0166174
647.346	0.0166756
647.424	0.0164816
647.502	0.0165077
647.580	0.0165207
647.658	0.0164332
647.736	0.0163914
647.814	0.0165570
647.892	0.0164736
647.971	0.0163947
648.049	0.0165421
648.127	0.0165308
648.205	0.0164941
648.283	0.0163596
648.361	0.0164694
648.439	0.0164922
648.517	0.0165437
648.596	0.0165392
648.674	0.0162819
648.752	0.0164974
648.830	0.0165253
648.908	0.0165463
648.986	0.0165714
649.064	0.0163742
649.142	0.0166154
649.221	0.0165393
649.299	0.0165670
649.377	0.0166163
649.455	0.0165432
649.533	0.0165031
649.611	0.0165343
649.689	0.0165711
649.767	0.0166002
649.846	0.0164613
649.924	0.0163874
650.002	0.0164398
650.080	0.0164532
650.158	0.0165862
650.236	0.0164572
650.314	0.0165110
650.392	0.0164054
650.471	0.0165531
650.549	0.0164851
650.627	0.0163713
650.705	0.0164532
650.783	0.0165895
650.861	0.0163927
650.939	0.0164159
651.017	0.0164497
651.096	0.0165669
651.174	0.0165270
651.252	0.0165494
651.330	0.0165529
651.408	0.0165052
651.486	0.0164198
651.564	0.0163956
651.642	0.0164885
651.721	0.0165372
651.799	0.0165166
651.877	0.0164070
651.955	0.0163512
652.033	0.0164457
652.111	0.0165169
652.189	0.0163850
652.267	0.0164063
652.346	0.0164636
652.424	0.0164010
652.502	0.0165103
652.580	0.0163853
652.658	0.0163563
652.736	0.0163793
652.814	0.0165044
652.892	0.0163654
652.971	0.0164446
653.049	0.0164115
653.127	0.0162912
653.205	0.0163689
653.283	0.0164977
653.361	0.0163685
653.439	0.0164399
653.517	0.0164472
653.596	0.0164372
653.674	0.0165028
653.752	0.0165540
653.830	0.0164103
653.908	0.0164784
653.986	0.0163240
654.064	0.0165659
654.142	0.0164796
654.221	0.0164953
654.299	0.0164465
654.377	0.0164973
654.455	0.0164485
654.533	0.0165452
654.611	0.0165191
654.689	0.0163811
654.767	0.0165571
654.846	0.0164980
654.924	0.0164906
655.002	0.0164411
655.080	0.0165312
655.158	0.0165044
655.236	0.0164622
655.314	0.0165128
655.392	0.0163917
655.471	0.0165274
655.549	0.0165480
655.627	0.0164367
655.705	0.0164857
655.783	0.0164866
655.861	0.0164165
655.939	0.0163850
656.017	0.0166227
656.096	0.0164774
656.174	0.0165543
656.252	0.0164803
656.330	0.0164877
656.408	0.0164203
656.486	0.0164505
656.564	0.0164707
656.642	0.0164567
656.721	0.0163598
656.799	0.0164182
656.877	0.0163771
656.955	0.0164307
657.033	0.0165853
657.111	0.0164489
657.189	0.0164266
657.267	0.0163777
657.346	0.0163689
657.424	0.0163461
657.502	0.0163281
657.580	0.0164850
657.658	0.0163198
657.736	0.0163718
657.814	0.0163953
657.892	0.0163737
657.971	0.0163178
658.049	0.0163595
658.127	0.0162986
658.205	0.0162876
658.283	0.0164533
658.361	0.0163509
658.439	0.0163471
658.517	0.0164054
658.596	0.0164982
658.674	0.0164219
658.752	0.0164585
658.830	0.0162312
658.908	0.0163865
658.986	0.0164604
659.064	0.0163445
659.142	0.0163609
659.221	0.0163833
659.299	0.0163759
659.377	0.0163987
659.455	0.0164449
659.533	0.0164339
659.611	0.0164139
659.689	0.0163498
659.767	0.0163313
659.846	0.0164277
659.924	0.0164486
660.002	0.0163828
660.080	0.0163088
660.158	0.0165098
660.236	0.0164686
660.314	0.0163880
660.392	0.0162635
660.471	0.0163246
660.549	0.0164156
660.627	0.0163458
660.705	0.0163673
660.783	0.0164024
660.861	0.0165273
660.939	0.0164140
661.017	0.0163122
661.096	0.0164056
661.174	0.0164543
661.252	0.0164020
661.330	0.0163803
661.408	0.0163391
661.486	0.0164212
661.564	0.0164151
661.642	0.0165096
661.721	0.0165589
661.799	0.0164478
661.877	0.0165321
661.955	0.0163148
662.033	0.0164515
662.111	0.0165356
662.189	0.0164215
662.267	0.0164278
662.346	0.0165329
662.424	0.0163161
662.502	0.0162905
662.580	0.0164912
662.658	0.0163527
662.736	0.0163786
662.814	0.0164138
662.892	0.0163996
662.971	0.0165552
663.049	0.0165170
663.127	0.0166727
663.205	0.0165255
663.283	0.0165053
663.361	0.0165454
663.439	0.0164258
663.517	0.0165146
663.596	0.0165128
663.674	0.0163142
663.752	0.0165134
663.830	0.0165150
663.908	0.0164684
663.986	0.0164302
664.064	0.0164326
664.142	0.0164104
664.221	0.0165805
664.299	0.0164017
664.377	0.0164512
664.455	0.0165874
664.533	0.0165486
664.611	0.0164179
664.689	0.0165609
664.767	0.0164275
664.846	0.0164975
664.924	0.0164306
665.002	0.0164754
665.080	0.0164148
665.158	0.0165898
665.236	0.0165685
665.314	0.0165367
665.392	0.0163542
665.471	0.0163950
665.549	0.0164692
665.627	0.0164280
665.705	0.0165153
665.783	0.0165007
665.861	0.0163344
665.939	0.0165189
666.017	0.0165117
666.096	0.0164877
666.174	0.0164659
666.252	0.0166306
666.330	0.0165425
666.408	0.0164872
666.486	0.0164544
666.564	0.0164365
666.642	0.0166557
666.721	0.0164956
666.799	0.0162933
666.877	0.0165000
666.955	0.0163874
667.033	0.0165218
667.111	0.0166034
667.189	0.0164904
667.267	0.0165211
667.346	0.0165527
667.424	0.0165381
667.502	0.0164261
667.580	0.0164146
667.658	0.0163066
667.736	0.0164400
667.814	0.0166072
667.892	0.0164759
667.971	0.0165205
668.049	0.0164322
668.127	0.0164169
668.205	0.0165311
668.283	0.0164982
668.361	0.0164436
668.439	0.0163982
668.517	0.0164677
668.596	0.0164445
668.674	0.0163634
668.752	0.0164676
668.830	0.0165659
668.908	0.0164923
668.986	0.0164407
669.064	0.0164254
669.142	0.0163699
669.221	0.0163863
669.299	0.0163623
669.377	0.0164412
669.455	0.0165123
669.533	0.0164381
669.611	0.0165777
669.689	0.0165991
669.767	0.0164920
669.846	0.0163663
669.924	0.0163380
670.002	0.0163999
670.080	0.0165068
670.158	0.0165019
670.236	0.0164651
670.314	0.0163494
670.392	0.0163626
670.471	0.0163358
670.549	0.0163833
670.627	0.0163419
670.705	0.0164026
670.783	0.0164613
670.861	0.0163481
670.939	0.0163534
671.017	0.0163598
671.096	0.0163925
671.174	0.0164121
671.252	0.0165036
671.330	0.0164470
671.408	0.0164548
671.486	0.0164015
671.564	0.0164429
671.642	0.0164662
671.721	0.0163993
671.799	0.0163564
671.877	0.0163088
671.955	0.0164803
672.033	0.0165358
672.111	0.0164755
672.189	0.0161653
672.267	0.0163724
672.346	0.0164707
672.424	0.0163863
672.502	0.0163362
672.580	0.0162698
672.658	0.0163237
672.736	0.0163937
672.814	0.0164352
672.892	0.0162684
672.971	0.0163275
673.049	0.0164017
673.127	0.0164206
673.205	0.0163250
673.283	0.0164741
673.361	0.0163377
673.439	0.0163303
673.517	0.0163402
673.596	0.0164032
673.674	0.0163323
673.752	0.0163229
673.830	0.0162782
673.908	0.0163649
673.986	0.0165492
674.064	0.0164521
674.142	0.0163179
674.221	0.0163150
674.299	0.0164107
674.377	0.0164662
674.455	0.0163951
674.533	0.0164356
674.611	0.0164829
674.689	0.0165027
674.767	0.0163979
674.846	0.0163560
674.924	0.0164340
675.002	0.0165183
675.080	0.0164035
675.158	0.0163959
675.236	0.0163372
675.314	0.0165474
675.392	0.0164413
675.471	0.0165324
675.549	0.0164714
675.627	0.0163744
675.705	0.0164046
675.783	0.0162975
675.861	0.0165746
675.939	0.0165536
676.017	0.0164548
676.096	0.0165289
676.174	0.0165829
676.252	0.0164613
676.330	0.0163930
676.408	0.0164752
676.486	0.0164061
676.564	0.0164673
676.642	0.0164822
676.721	0.0162934
676.799	0.0164940
676.877	0.0164386
676.955	0.0164307
677.033	0.0164494
677.111	0.0164977
677.189	0.0164377
677.267	0.0164240
677.346	0.0164606
677.424	0.0164849
677.502	0.0163095
677.580	0.0164213
677.658	0.0163692
677.736	0.0163951
677.814	0.0165018
677.892	0.0163206
677.971	0.0163723
678.049	0.0163982
678.127	0.0164759
678.205	0.0162774
678.283	0.0163420
678.361	0.0165272
678.439	0.0164243
678.517	0.0164488
678.596	0.0163577
678.674	0.0164278
678.752	0.0163766
678.830	0.0163558
678.908	0.0164529
678.986	0.0163596
679.064	0.0164700
679.142	0.0164748
679.221	0.0163691
679.299	0.0164584
679.377	0.0164079
679.455	0.0164691
679.533	0.0164102
679.611	0.0163035
679.689	0.0164595
679.767	0.0164194
679.846	0.0164336
679.924	0.0163794
680.002	0.0164018
680.080	0.0164027
680.158	0.0162791
680.236	0.0163966
680.314	0.0165550
680.392	0.0164320
680.471	0.0163824
680.549	0.0163935
680.627	0.0162959
680.705	0.0164349
680.783	0.0164404
680.861	0.0164722
680.939	0.0165133
681.017	0.0164738
681.096	0.0164503
681.174	0.0164014
681.252	0.0164771
681.330	0.0164945
681.408	0.0165835
681.486	0.0164540
681.564	0.0165282
681.642	0.0164378
681.721	0.0164436
681.799	0.0164258
681.877	0.0165180
681.955	0.0164886
682.033	0.0164510
682.111	0.0165612
682.189	0.0165278
682.267	0.0165115
682.346	0.0164473
682.424	0.0164672
682.502	0.0165955
682.580	0.0165537
682.658	0.0165168
682.736	0.0163374
682.814	0.0164589
682.892	0.0164924
682.971	0.0165018
683.049	0.0165712
683.127	0.0165111
683.205	0.0165907
683.283	0.0165166
683.361	0.0164965
683.439	0.0164534
683.517	0.0164410
683.596	0.0165469
683.674	0.0164658
683.752	0.0165107
683.830	0.0164619
683.908	0.0163775
683.986	0.0163464
684.064	0.0164006
684.142	0.0164932
684.221	0.0164663
684.299	0.0163596
684.377	0.0163544
684.455	0.0164851
684.533	0.0163350
684.611	0.0163878
684.689	0.0163773
684.767	0.0164896
684.846	0.0165413
684.924	0.0163329
685.002	0.0165200
685.080	0.0165543
685.158	0.0165498
685.236	0.0164939
685.314	0.0164802
685.392	0.0164956
685.471	0.0164773
685.549	0.0166413
685.627	0.0165268
685.705	0.0165749
685.783	0.0165126
685.861	0.0165005
685.939	0.0164233
686.017	0.0165553
686.096	0.0163883
686.174	0.0165247
686.252	0.0165152
686.330	0.0164979
686.408	0.0164629
686.486	0.0165224
686.564	0.0164967
686.642	0.0165578
686.721	0.0164611
686.799	0.0165488
686.877	0.0164705
686.955	0.0167429
687.033	0.0165642
687.111	0.0165372
687.189	0.0166701
687.267	0.0166283
687.346	0.0166779
687.424	0.0166988
687.502	0.0164371
687.580	0.0164808
687.658	0.0166362
687.736	0.0164112
687.814	0.0164548
687.892	0.0165659
687.971	0.0164309
688.049	0.0164507
688.127	0.0164706
688.205	0.0165107
688.283	0.0165258
688.361	0.0165028
688.439	0.0164774
688.517	0.0163293
688.596	0.0165239
688.674	0.0165855
688.752	0.0163477
688.830	0.0164247
688.908	0.0164235
688.986	0.0164410
689.064	0.0165460
689.142	0.0164055
689.221	0.0164384
689.299	0.0164492
689.377	0.0163018
689.455	0.0164057
689.533	0.0164748
689.611	0.0164587
689.689	0.0165583
689.767	0.0165789
689.846	0.0165331
689.924	0.0165341
690.002	0.0164985
690.080	0.0164378
690.158	0.0165019
690.236	0.0164311
690.314	0.0165526
690.392	0.0165709
690.471	0.0165323
690.549	0.0165969
690.627	0.0164525
690.705	0.0164605
690.783	0.0165672
690.861	0.0164968
690.939	0.0164693
691.017	0.0163230
691.096	0.0163689
691.174	0.0164567
691.252	0.0164936
691.330	0.0163956
691.408	0.0164352
691.486	0.0163372
691.564	0.0163009
691.642	0.0164349
691.721	0.0165285
691.799	0.0162456
691.877	0.0163457
691.955	0.0165668
692.033	0.0164635
692.111	0.0164413
692.189	0.0165821
692.267	0.0165881
692.346	0.0165506
692.424	0.0165498
692.502	0.0165279
692.580	0.0165856
692.658	0.0164588
692.736	0.0164892
692.814	0.0165705
692.892	0.0164337
692.971	0.0165128
693.049	0.0165533
693.127	0.0164072
693.205	0.0164973
693.283	0.0164766
693.361	0.0163927
693.439	0.0164586
693.517	0.0162794
693.596	0.0162624
693.674	0.0164215
693.752	0.0164497
693.830	0.0164843
693.908	0.0165816
693.986	0.0162362
694.064	0.0163225
694.142	0.0164239
694.221	0.0163445
694.299	0.0164131
694.377	0.0164099
694.455	0.0164664
694.533	0.0164069
694.611	0.0163676
694.689	0.0164027
694.767	0.0164902
694.846	0.0164689
694.924	0.0164927
695.002	0.0165083
695.080	0.0164651
695.158	0.0165088
695.236	0.0165115
695.314	0.0165063
695.392	0.0165145
695.471	0.0164567
695.549	0.0165636
695.627	0.0165471
695.705	0.0166103
695.783	0.0166020
695.861	0.0166471
695.939	0.0166191
696.017	0.0166281
696.096	0.0165453
696.174	0.0166325
696.252	0.0166485
696.330	0.0164368
696.408	0.0165975
696.486	0.0165042
696.564	0.0165878
696.642	0.0165344
696.721	0.0165406
696.799	0.0165363
696.877	0.0164640
696.955	0.0165496
697.033	0.0165026
697.111	0.0165906
697.189	0.0164864
697.267	0.0164731
697.346	0.0165778
697.424	0.0163677
697.502	0.0164054
697.580	0.0164416
697.658	0.0165244
697.736	0.0164993
697.814	0.0163667
697.892	0.0164005
697.971	0.0164923
698.049	0.0164568
698.127	0.0165286
698.205	0.0162904
698.283	0.0165903
698.361	0.0165469
698.439	0.0164500
698.517	0.0164529
698.596	0.0164471
698.674	0.0164524
698.752	0.0164803
698.830	0.0164769
698.908	0.0163909
698.986	0.0164304
699.064	0.0165456
699.142	0.0164276
699.221	0.0165739
699.299	0.0162566
699.377	0.0164637
699.455	0.0165296
699.533	0.0165216
699.611	0.0165620
699.689	0.0166158
699.767	0.0166247
699.846	0.0166129
699.924	0.0165481
700.002	0.0166885
700.080	0.0167773
700.158	0.0167537
700.236	0.0166721
700.314	0.0166737
700.392	0.0167811
700.471	0.0166622
700.549	0.0167743
700.627	0.0167857
700.705	0.0166044
700.783	0.0166575
700.861	0.0165771
700.939	0.0165867
701.017	0.0164320
701.096	0.0165386
701.174	0.0164676
701.252	0.0163526
701.330	0.0164501
701.408	0.0163578
701.486	0.0162952
701.564	0.0163253
701.642	0.0163065
701.721	0.0164336
701.799	0.0163381
701.877	0.0164605
701.955	0.0165173
702.033	0.0163836
702.111	0.0164574
702.189	0.0164748
702.267	0.0164061
702.346	0.0164356
702.424	0.0164390
702.502	0.0165047
702.580	0.0165981
702.658	0.0165978
702.736	0.0165833
702.814	0.0166041
702.892	0.0166117
702.971	0.0165012
703.049	0.0165369
703.127	0.0163875
703.205	0.0164911
703.283	0.0166589
703.361	0.0165329
703.439	0.0164223
703.517	0.0165133
703.596	0.0166366
703.674	0.0163988
703.752	0.0164057
703.830	0.0164120
703.908	0.0164423
703.986	0.0165228
704.064	0.0164740
704.142	0.0164262
704.221	0.0163914
704.299	0.0165255
704.377	0.0164931
704.455	0.0164417
704.533	0.0165447
704.611	0.0164793
704.689	0.0165084
704.767	0.0164855
704.846	0.0165054
704.924	0.0164722
705.002	0.0165897
705.080	0.0164896
705.158	0.0166026
705.236	0.0166755
705.314	0.0166187
705.392	0.0164989
705.471	0.0165120
705.549	0.0166440
705.627	0.0166753
705.705	0.0167334
705.783	0.0168559
705.861	0.0166153
705.939	0.0167847
706.017	0.0168288
706.096	0.0166338
706.174	0.0167194
706.252	0.0168516
706.330	0.0167153
706.408	0.0167970
706.486	0.0168156
706.564	0.0167223
706.642	0.0166584
706.721	0.0166621
706.799	0.0166788
706.877	0.0167010
706.955	0.0167484
707.033	0.0167712
707.111	0.0166663
707.189	0.0167261
707.267	0.0166324
707.346	0.0167445
707.424	0.0165683
707.502	0.0165137
707.580	0.0166845
707.658	0.0166753
707.736	0.0165743
707.814	0.0165288
707.892	0.0164702
707.971	0.0165640
708.049	0.0165503
708.127	0.0165019
708.205	0.0164478
708.283	0.0165241
708.361	0.0165229
708.439	0.0163958
708.517	0.0164812
708.596	0.0165779
708.674	0.0165836
708.752	0.0166124
708.830	0.0166667
708.908	0.0164681
708.986	0.0165733
709.064	0.0165766
709.142	0.0167355
709.221	0.0167557
709.299	0.0167744
709.377	0.0166930
709.455	0.0167837
709.533	0.0168192
709.611	0.0167736
709.689	0.0167657
709.767	0.0167683
709.846	0.0166544
709.924	0.0166436
710.002	0.0167021
710.080	0.0166448
710.158	0.0165573
710.236	0.0163908
710.314	0.0165239
710.392	0.0164050
710.471	0.0162917
710.549	0.0161543
710.627	0.0162448
710.705	0.0163055
710.783	0.0161955
710.861	0.0162428
710.939	0.0163017
711.017	0.0162569
711.096	0.0162095
711.174	0.0161880
711.252	0.0164281
711.330	0.0165010
711.408	0.0165554
711.486	0.0166417
711.564	0.0166189
711.642	0.0167176
711.721	0.0169340
711.799	0.0168571
711.877	0.0168387
711.955	0.0168718
712.033	0.0168265
712.111	0.0168795
712.189	0.0169861
712.267	0.0170125
712.346	0.0169214
712.424	0.0168675
712.502	0.0170545
712.580	0.0170201
712.658	0.0168643
712.736	0.0168714
712.814	0.0169225
712.892	0.0169132
712.971	0.0167289
713.049	0.0168530
713.127	0.0168191
713.205	0.0166404
713.283	0.0167341
713.361	0.0167188
713.439	0.0166173
713.517	0.0165361
713.596	0.0167153
713.674	0.0166743
713.752	0.0165748
713.830	0.0166141
713.908	0.0165558
713.986	0.0164481
714.064	0.0165751
714.142	0.0164892
714.221	0.0166008
714.299	0.0164932
714.377	0.0164696
714.455	0.0164993
714.533	0.0163027
714.611	0.0165015
714.689	0.0164999
714.767	0.0163735
714.846	0.0162121
714.924	0.0162688
715.002	0.0163028
715.080	0.0162251
715.158	0.0161742
715.236	0.0163120
715.314	0.0162461
715.392	0.0161877
715.471	0.0163945
715.549	0.0162121
715.627	0.0162750
715.705	0.0162428
715.783	0.0163412
715.861	0.0163425
715.939	0.0163087
716.017	0.0164765
716.096	0.0164714
716.174	0.0163083
716.252	0.0164931
716.330	0.0164812
716.408	0.0164404
716.486	0.0165935
716.564	0.0165645
716.642	0.0166135
716.721	0.0166881
716.799	0.0167978
716.877	0.0168749
716.955	0.0167644
717.033	0.0166341
717.111	0.0167861
717.189	0.0166887
717.267	0.0167595
717.346	0.0167178
717.424	0.0166456
717.502	0.0167500
717.580	0.0168211
717.658	0.0166453
717.736	0.0166759
717.814	0.0165166
717.892	0.0166712
717.971	0.0166439
718.049	0.0164265
718.127	0.0164641
718.205	0.0166034
718.283	0.0167270
718.361	0.0165847
718.439	0.0166896
718.517	0.0166094
718.596	0.0165778
718.674	0.0167986
718.752	0.0167645
718.830	0.0168475
718.908	0.0167798
718.986	0.0168375
719.064	0.0168431
719.142	0.0169408
719.221	0.0167455
719.299	0.0168369
719.377	0.0167646
719.455	0.0166908
719.533	0.0165672
719.611	0.0165173
719.689	0.0166785
719.767	0.0164802
719.846	0.0164520
719.924	0.0164402
720.002	0.0164723
720.080	0.0163831
720.158	0.0164047
720.236	0.0163789
720.314	0.0163452
720.392	0.0163564
720.471	0.0163346
720.549	0.0163248
720.627	0.0163962
720.705	0.0164512
720.783	0.0163400
720.861	0.0164116
720.939	0.0163285
721.017	0.0164922
721.096	0.0165389
721.174	0.0164083
721.252	0.0162598
721.330	0.0163669
721.408	0.0163698
721.486	0.0162655
721.564	0.0163386
721.642	0.0161746
721.721	0.0163254
721.799	0.0162909
721.877	0.0162012
721.955	0.0160852
722.033	0.0162425
722.111	0.0162383
722.189	0.0162221
722.267	0.0162904
722.346	0.0162497
722.424	0.0161764
722.502	0.0163187
722.580	0.0163848
722.658	0.0163338
722.736	0.0164841
722.814	0.0164831
722.892	0.0164886
722.971	0.0165005
723.049	0.0166391
723.127	0.0166679
723.205	0.0166454
723.283	0.0165444
723.361	0.0166389
723.439	0.0166375
723.517	0.0166180
723.596	0.0165337
723.674	0.0166160
723.752	0.0167258
723.830	0.0166536
723.908	0.0165636
723.986	0.0164869
724.064	0.0167209
724.142	0.0166792
724.221	0.0166766
724.299	0.0167165
724.377	0.0165842
724.455	0.0166461
724.533	0.0166796
724.611	0.0167084
724.689	0.0167864
724.767	0.0167112
724.846	0.0167307
724.924	0.0166655
725.002	0.0166880
725.080	0.0166348
725.158	0.0165813
725.236	0.0168344
725.314	0.0166287
725.392	0.0164857
725.471	0.0164572
725.549	0.0163716
725.627	0.0163490
725.705	0.0162929
725.783	0.0162698
725.861	0.0161820
725.939	0.0162936
726.017	0.0161555
726.096	0.0162655
726.174	0.0162033
726.252	0.0160253
726.330	0.0163003
726.408	0.0163244
726.486	0.0162722
726.564	0.0164193
726.642	0.0164580
726.721	0.0164838
726.799	0.0164594
726.877	0.0166131
726.955	0.0165007
727.033	0.0165160
727.111	0.0167674
727.189	0.0167075
727.267	0.0166431
727.346	0.0165587
727.424	0.0165150
727.502	0.0164095
727.580	0.0165076
727.658	0.0163427
727.736	0.0162836
727.814	0.0164304
727.892	0.0162482
727.971	0.0162411
728.049	0.0162734
728.127	0.0161967
728.205	0.0163089
728.283	0.0162269
728.361	0.0164571
728.439	0.0162260
728.517	0.0162066
728.596	0.0163668
728.674	0.0164259
728.752	0.0164481
728.830	0.0164904
728.908	0.0165573
728.986	0.0164816
729.064	0.0164936
729.142	0.0164803
729.221	0.0165965
729.299	0.0165965
729.377	0.0165469
729.455	0.0164724
729.533	0.0165843
729.611	0.0166228
729.689	0.0163869
729.767	0.0166164
729.846	0.0166115
729.924	0.0165488
730.002	0.0166385
730.080	0.0166750
730.158	0.0167358
730.236	0.0167297
730.314	0.0165289
730.392	0.0166859
730.471	0.0167365
730.549	0.0167068
730.627	0.0166571
730.705	0.0167021
730.783	0.0166715
730.861	0.0167424
730.939	0.0167666
731.017	0.0166128
731.096	0.0165721
731.174	0.0164697
731.252	0.0164373
731.330	0.0164561
731.408	0.0163671
731.486	0.0164697
731.564	0.0163868
731.642	0.0162539
731.721	0.0161314
731.799	0.0162393
731.877	0.0160339
731.955	0.0159895
732.033	0.0159960
732.111	0.0161961
732.189	0.0161154
732.267	0.0160896
732.346	0.0162441
732.424	0.0162266
732.502	0.0164372
732.580	0.0164402
732.658	0.0164685
732.736	0.0166842
732.814	0.0166612
732.892	0.0166525
732.971	0.0168221
733.049	0.0168733
733.127	0.0168890
733.205	0.0168475
733.283	0.0169225
733.361	0.0169683
733.439	0.0168756
733.517	0.0169176
733.596	0.0166769
733.674	0.0167088
733.752	0.0166476
733.830	0.0166323
733.908	0.0164755
733.986	0.0164771
734.064	0.0165005
734.142	0.0163474
734.221	0.0162134
734.299	0.0162450
734.377	0.0162881
734.455	0.0162470
734.533	0.0164893
734.611	0.0161990
734.689	0.0162600
734.767	0.0161808
734.846	0.0161587
734.924	0.0161997
735.002	0.0161395
735.080	0.0163430
735.158	0.0163923
735.236	0.0162714
735.314	0.0162720
735.392	0.0164023
735.471	0.0164402
735.549	0.0163517
735.627	0.0165914
735.705	0.0165536
735.783	0.0164861
735.861	0.0165320
735.939	0.0165044
736.017	0.0164544
736.096	0.0164985
736.174	0.0166363
736.252	0.0166599
736.330	0.0164601
736.408	0.0166861
736.486	0.0166693
736.564	0.0165336
736.642	0.0166887
736.721	0.0167336
736.799	0.0166150
736.877	0.0166439
736.955	0.0166887
737.033	0.0167689
737.111	0.0167512
737.189	0.0167033
737.267	0.0166603
737.346	0.0166822
737.424	0.0166517
737.502	0.0166261
737.580	0.0166231
737.658	0.0164560
737.736	0.0165305
737.814	0.0165065
737.892	0.0164719
737.971	0.0162114
738.049	0.0163696
738.127	0.0164059
738.205	0.0162053
738.283	0.0160489
738.361	0.0161521
738.439	0.0160831
738.517	0.0160606
738.596	0.0160944
738.674	0.0159443
738.752	0.0161198
738.830	0.0161491
738.908	0.0163363
738.986	0.0161717
739.064	0.0160904
739.142	0.0163010
739.221	0.0164310
739.299	0.0162972
739.377	0.0164065
739.455	0.0164860
739.533	0.0164597
739.611	0.0164785
739.689	0.0164806
739.767	0.0163741
739.846	0.0165192
739.924	0.0164637
740.002	0.0165401
740.080	0.0164173
740.158	0.0162663
740.236	0.0163431
740.314	0.0163799
740.392	0.0163483
740.471	0.0164548
740.549	0.0163193
740.627	0.0164239
740.705	0.0165095
740.783	0.0164960
740.861	0.0164611
740.939	0.0165572
741.017	0.0166142
741.096	0.0166908
741.174	0.0167600
741.252	0.0168435
741.330	0.0168260
741.408	0.0169205
741.486	0.0167538
741.564	0.0167729
741.642	0.0169131
741.721	0.0169856
741.799	0.0169441
741.877	0.0168188
741.955	0.0167739
742.033	0.0167769
742.111	0.0166219
742.189	0.0165881
742.267	0.0165945
742.346	0.0166113
742.424	0.0163821
742.502	0.0162544
742.580	0.0162379
742.658	0.0162357
742.736	0.0161836
742.814	0.0160749
742.892	0.0160651
742.971	0.0159453
743.049	0.0158710
743.127	0.0160036
743.205	0.0159706
743.283	0.0159605
743.361	0.0159130
743.439	0.0159680
743.517	0.0158702
743.596	0.0159975
743.674	0.0161629
743.752	0.0160556
743.830	0.0161394
743.908	0.0162572
743.986	0.0162579
744.064	0.0163236
744.142	0.0164393
744.221	0.0164359
744.299	0.0163842
744.377	0.0163488
744.455	0.0165652
744.533	0.0166216
744.611	0.0165958
744.689	0.0165640
744.767	0.0166587
744.846	0.0166032
744.924	0.0164482
745.002	0.0164691
745.080	0.0166042
745.158	0.0165884
745.236	0.0162878
745.314	0.0162850
745.392	0.0164497
745.471	0.0163055
745.549	0.0163474
745.627	0.0164110
745.705	0.0163757
745.783	0.0164924
745.861	0.0166280
745.939	0.0165779
746.017	0.0164549
746.096	0.0164264
746.174	0.0165223
746.252	0.0166743
746.330	0.0166424
746.408	0.0166604
746.486	0.0165685
746.564	0.0166387
746.642	0.0167123
746.721	0.0165179
746.799	0.0165889
746.877	0.0165843
746.955	0.0165212
747.033	0.0165944
747.111	0.0164037
747.189	0.0164296
747.267	0.0165148
747.346	0.0162834
747.424	0.0163280
747.502	0.0163041
747.580	0.0161974
747.658	0.0161556
747.736	0.0161700
747.814	0.0160986
747.892	0.0159280
747.971	0.0160660
748.049	0.0161617
748.127	0.0160839
748.205	0.0160500
748.283	0.0161158
748.361	0.0161404
748.439	0.0162208
748.517	0.0162697
748.596	0.0163284
748.674	0.0162798
748.752	0.0160728
748.830	0.0163936
748.908	0.0163321
748.986	0.0163419
749.064	0.0163250
749.142	0.0163438
749.221	0.0162912
749.299	0.0163205
749.377	0.0162650
749.455	0.0162643
749.533	0.0162623
749.611	0.0162813
749.689	0.0162758
749.767	0.0162903
749.846	0.0162174
749.924	0.0160458
750.002	0.0161614
750.080	0.0160798
750.158	0.0162151
750.236	0.0160674
750.314	0.0161765
750.392	0.0163556
750.471	0.0163689
750.549	0.0164223
750.627	0.0164439
750.705	0.0164471
750.783	0.0164616
750.861	0.0165766
750.939	0.0166720
751.017	0.0166602
751.096	0.0166156
751.174	0.0166783
751.252	0.0166661
751.330	0.0167459
751.408	0.0166846
751.486	0.0166923
751.564	0.0167120
751.642	0.0166399
751.721	0.0166497
751.799	0.0165418
751.877	0.0165873
751.955	0.0165130
752.033	0.0163946
752.111	0.0163766
752.189	0.0163099
752.267	0.0162988
752.346	0.0161133
752.424	0.0162799
752.502	0.0161385
752.580	0.0160024
752.658	0.0161275
752.736	0.0163086
752.814	0.0162336
752.892	0.0161496
752.971	0.0160885
753.049	0.0161471
753.127	0.0163430
753.205	0.0163116
753.283	0.0163134
753.361	0.0162980
753.439	0.0162745
753.517	0.0163906
753.596	0.0164281
753.674	0.0165375
753.752	0.0163754
753.830	0.0162841
753.908	0.0164323
753.986	0.0165701
754.064	0.0165232
754.142	0.0164613
754.221	0.0163996
754.299	0.0165220
754.377	0.0165302
754.455	0.0164527
754.533	0.0165346
754.611	0.0164893
754.689	0.0164445
754.767	0.0164707
754.846	0.0163975
754.924	0.0164192
755.002	0.0164469
755.080	0.0165878
755.158	0.0164326
755.236	0.0163816
755.314	0.0165470
755.392	0.0164819
755.471	0.0164577
755.549	0.0165511
755.627	0.0164664
755.705	0.0164946
755.783	0.0164704
755.861	0.0165276
755.939	0.0166780
756.017	0.0165912
756.096	0.0165835
756.174	0.0165315
756.252	0.0165187
756.330	0.0164624
756.408	0.0165092
756.486	0.0165543
756.564	0.0165627
756.642	0.0166126
756.721	0.0165494
756.799	0.0164788
756.877	0.0164704
756.955	0.0164047
757.033	0.0163573
757.111	0.0164301
757.189	0.0162984
757.267	0.0165482
757.346	0.0162637
757.424	0.0161842
757.502	0.0162486
757.580	0.0164005
757.658	0.0163950
757.736	0.0164507
757.814	0.0165164
757.892	0.0162954
757.971	0.0163355
758.049	0.0163732
758.127	0.0164685
758.205	0.0164254
758.283	0.0163719
758.361	0.0164896
758.439	0.0165286
758.517	0.0164648
758.596	0.0163384
758.674	0.0163978
758.752	0.0165396
758.830	0.0164617
758.908	0.0163644
758.986	0.0164299
759.064	0.0163052
759.142	0.0163202
759.221	0.0163480
759.299	0.0163556
759.377	0.0165486
759.455	0.0164517
759.533	0.0164884
759.611	0.0163897
759.689	0.0163921
759.767	0.0164468
759.846	0.0164897
759.924	0.0164563
760.002	0.0165040
760.080	0.0164578
760.158	0.0163905
760.236	0.0166013
760.314	0.0165984
760.392	0.0164350
760.471	0.0166280
760.549	0.0166402
760.627	0.0166690
760.705	0.0166866
760.783	0.0166260
760.861	0.0165255
760.939	0.0166209
761.017	0.0164407
761.096	0.0164749
761.174	0.0165322
761.252	0.0165298
761.330	0.0164638
761.408	0.0164787
761.486	0.0164503
761.564	0.0165580
761.642	0.0163771
761.721	0.0163917
761.799	0.0163250
761.877	0.0163297
761.955	0.0162894
762.033	0.0162882
762.111	0.0163895
762.189	0.0162984
762.267	0.0163332
762.346	0.0163312
762.424	0.0163488
762.502	0.0163802
762.580	0.0164238
762.658	0.0163579
762.736	0.0165088
762.814	0.0165437
762.892	0.0165378
762.971	0.0164603
763.049	0.0164771
763.127	0.0164578
763.205	0.0165462
763.283	0.0165672
763.361	0.0164098
763.439	0.0164674
763.517	0.0165386
763.596	0.0165495
763.674	0.0164202
763.752	0.0166002
763.830	0.0165573
763.908	0.0165447
763.986	0.0164585
764.064	0.0164630
764.142	0.0165091
764.221	0.0164703
764.299	0.0164303
764.377	0.0163438
764.455	0.0164580
764.533	0.0165268
764.611	0.0163438
764.689	0.0164622
764.767	0.0163774
764.846	0.0162945
764.924	0.0163759
765.002	0.0162273
765.080	0.0163800
765.158	0.0163262
765.236	0.0163470
765.314	0.0164270
765.392	0.0163555
765.471	0.0162760
765.549	0.0162760
765.627	0.0163343
765.705	0.0165267
765.783	0.0163528
765.861	0.0162913
765.939	0.0163828
766.017	0.0162840
766.096	0.0163921
766.174	0.0162157
766.252	0.0164001
766.330	0.0162794
766.408	0.0163210
766.486	0.0163386
766.564	0.0161861
766.642	0.0161994
766.721	0.0162399
766.799	0.0163352
766.877	0.0164362
766.955	0.0162493
767.033	0.0162370
767.111	0.0163256
767.189	0.0162952
767.267	0.0162091
767.346	0.0162895
767.424	0.0162048
767.502	0.0164072
767.580	0.0164617
767.658	0.0162136
767.736	0.0164790
767.814	0.0165839
767.892	0.0164807
767.971	0.0163846
768.049	0.0166453
768.127	0.0165541
768.205	0.0163908
768.283	0.0164680
768.361	0.0165411
768.439	0.0164490
768.517	0.0163259
768.596	0.0164233
768.674	0.0164149
768.752	0.0163809
768.830	0.0163661
768.908	0.0165182
768.986	0.0165749
769.064	0.0164933
769.142	0.0164142
769.221	0.0164938
769.299	0.0164090
769.377	0.0166238
769.455	0.0165352
769.533	0.0164062
769.611	0.0163860
769.689	0.0163374
769.767	0.0165195
769.846	0.0164314
769.924	0.0164705
770.002	0.0163330
770.080	0.0164056
770.158	0.0162556
770.236	0.0163702
770.314	0.0163531
770.392	0.0164113
770.471	0.0164714
770.549	0.0161209
770.627	0.0162463
770.705	0.0163943
770.783	0.0162738
770.861	0.0163322
770.939	0.0162697
771.017	0.0163760
771.096	0.0164033
771.174	0.0162659
771.252	0.0163556
771.330	0.0164637
771.408	0.0164659
771.486	0.0165773
771.564	0.0165562
771.642	0.0164824
771.721	0.0164014
771.799	0.0165938
771.877	0.0165375
771.955	0.0165369
772.033	0.0165703
772.111	0.0165655
772.189	0.0164596
772.267	0.0166061
772.346	0.0166869
772.424	0.0164871
772.502	0.0162856
772.580	0.0164545
772.658	0.0164861
772.736	0.0166563
772.814	0.0166191
772.892	0.0165566
772.971	0.0165785
773.049	0.0164706
773.127	0.0165496
773.205	0.0164692
773.283	0.0167103
773.361	0.0165438
773.439	0.0166098
773.517	0.0165686
773.596	0.0164293
773.674	0.0165317
773.752	0.0165548
773.830	0.0164531
773.908	0.0164249
773.986	0.0163619
774.064	0.0163514
774.142	0.0165475
774.221	0.0162983
774.299	0.0162725
774.377	0.0164518
774.455	0.0163468
774.533	0.0162725
774.611	0.0161792
774.689	0.0162833
774.767	0.0162199
774.846	0.0163216
774.924	0.0164200
775.002	0.0163747
775.080	0.0165605
775.158	0.0165635
775.236	0.0164283
775.314	0.0165038
775.392	0.0165583
775.471	0.0165219
775.549	0.0165681
775.627	0.0164964
775.705	0.0166111
775.783	0.0166672
775.861	0.0168022
775.939	0.0169073
776.017	0.0167562
776.096	0.0167307
776.174	0.0167500
776.252	0.0166748
776.330	0.0165841
776.408	0.0167439
776.486	0.0167200
776.564	0.0166745
776.642	0.0166813
776.721	0.0165624
776.799	0.0167074
776.877	0.0165093
776.955	0.0164993
777.033	0.0165372
777.111	0.0164046
777.189	0.0164468
777.267	0.0164272
777.346	0.0165520
777.424	0.0164954
777.502	0.0165965
777.580	0.0164478
777.658	0.0164405
777.736	0.0164572
777.814	0.0163589
777.892	0.0164124
777.971	0.0164532
778.049	0.0165263
778.127	0.0165398
778.205	0.0165089
778.283	0.0165629
778.361	0.0165170
778.439	0.0163691
778.517	0.0165107
778.596	0.0164928
778.674	0.0163567
778.752	0.0165620
778.830	0.0165582
778.908	0.0163718
778.986	0.0166370
779.064	0.0165301
779.142	0.0163988
779.221	0.0165501
779.299	0.0164890
779.377	0.0164737
779.455	0.0164342
779.533	0.0166544
779.611	0.0165977
779.689	0.0165765
779.767	0.0166403
779.846	0.0165665
779.924	0.0165407
780.002	0.0167510
780.080	0.0165753
780.158	0.0165669
780.236	0.0166206
780.314	0.0166890
780.392	0.0165846
780.471	0.0166331
780.549	0.0164290
780.627	0.0164740
780.705	0.0165282
780.783	0.0166811
780.861	0.0166129
780.939	0.0166068
781.017	0.0165891
781.096	0.0165318
781.174	0.0165205
781.252	0.0166259
781.330	0.0167004
781.408	0.0166488
781.486	0.0166862
781.564	0.0166336
781.642	0.0166446
781.721	0.0165759
781.799	0.0167113
781.877	0.0166452
781.955	0.0165520
782.033	0.0165572
782.111	0.0166375
782.189	0.0165689
782.267	0.0165075
782.346	0.0165837
782.424	0.0165564
782.502	0.0166861
782.580	0.0166175
782.658	0.0164942
782.736	0.0165553
782.814	0.0165636
782.892	0.0165474
782.971	0.0165022
783.049	0.0165545
783.127	0.0165090
783.205	0.0166084
783.283	0.0166405
783.361	0.0165154
783.439	0.0165468
783.517	0.0164504
783.596	0.0165927
783.674	0.0167124
783.752	0.0166309
783.830	0.0166951
783.908	0.0165749
783.986	0.0165698
784.064	0.0166270
784.142	0.0165439
784.221	0.0165904
784.299	0.0165768
784.377	0.0166922
784.455	0.0166990
784.533	0.0164494
784.611	0.0164150
784.689	0.0164156
784.767	0.0164780
784.846	0.0165455
784.924	0.0163721
785.002	0.0164169
785.080	0.0164375
785.158	0.0162694
785.236	0.0163474
785.314	0.0164680
785.392	0.0163230
785.471	0.0162904
785.549	0.0162902
785.627	0.0164029
785.705	0.0163170
785.783	0.0163903
785.861	0.0164731
785.939	0.0162302
786.017	0.0163670
786.096	0.0164625
786.174	0.0164235
786.252	0.0164748
786.330	0.0164252
786.408	0.0164175
786.486	0.0164774
786.564	0.0165334
786.642	0.0164344
786.721	0.0164124
786.799	0.0164745
786.877	0.0165827
786.955	0.0164451
787.033	0.0165409
787.111	0.0165681
787.189	0.0166219
787.267	0.0166172
787.346	0.0164416
787.424	0.0164639
787.502	0.0165215
787.580	0.0165130
787.658	0.0165390
787.736	0.0164387
787.814	0.0165060
787.892	0.0163007
787.971	0.0163584
788.049	0.0165997
788.127	0.0165092
788.205	0.0163628
788.283	0.0164096
788.361	0.0161616
788.439	0.0163194
788.517	0.0164767
788.596	0.0163423
788.674	0.0162926
788.752	0.0163237
788.830	0.0163569
788.908	0.0163660
788.986	0.0164559
789.064	0.0163838
789.142	0.0164516
789.221	0.0164133
789.299	0.0164582
789.377	0.0164101
789.455	0.0164844
789.533	0.0164743
789.611	0.0163970
789.689	0.0165112
789.767	0.0164680
789.846	0.0164960
789.924	0.0164896
790.002	0.0165373
790.080	0.0164698
790.158	0.0165166
790.236	0.0164988
790.314	0.0164846
790.392	0.0164098
790.471	0.0163325
790.549	0.0163241
790.627	0.0165579
790.705	0.0164142
790.783	0.0162128
790.861	0.0162453
790.939	0.0161946
791.017	0.0164053
791.096	0.0163259
791.174	0.0162083
791.252	0.0161539
791.330	0.0162840
791.408	0.0163201
791.486	0.0162945
791.564	0.0162990
791.642	0.0162827
791.721	0.0163957
791.799	0.0163450
791.877	0.0163527
791.955	0.0163666
792.033	0.0165834
792.111	0.0164666
792.189	0.0166182
792.267	0.0165359
792.346	0.0164452
792.424	0.0166452
792.502	0.0166392
792.580	0.0165967
792.658	0.0165573
792.736	0.0166776
792.814	0.0166875
792.892	0.0165586
792.971	0.0166022
793.049	0.0166001
793.127	0.0164689
793.205	0.0165275
793.283	0.0165009
793.361	0.0165496
793.439	0.0164548
793.517	0.0163990
793.596	0.0163883
793.674	0.0164034
793.752	0.0164204
793.830	0.0164191
793.908	0.0164429
793.986	0.0163669
794.064	0.0163680
794.142	0.0164384
794.221	0.0165295
794.299	0.0164544
794.377	0.0165372
794.455	0.0164972
794.533	0.0165906
794.611	0.0164736
794.689	0.0166705
794.767	0.0166278
794.846	0.0166817
794.924	0.0167407
795.002	0.0166075
795.080	0.0166776
795.158	0.0166599
795.236	0.0165684
795.314	0.0166483
795.392	0.0167663
795.471	0.0164931
795.549	0.0165516
795.627	0.0167701
795.705	0.0166743
795.783	0.0167018
795.861	0.0165273
795.939	0.0166096
796.017	0.0166195
796.096	0.0165067
796.174	0.0164686
796.252	0.0166080
796.330	0.0165069
796.408	0.0164536
796.486	0.0165878
796.564	0.0165087
796.642	0.0164312
796.721	0.0165491
796.799	0.0165925
796.877	0.0165354
796.955	0.0165861
797.033	0.0166094
797.111	0.0166802
797.189	0.0166582
797.267	0.0165810
797.346	0.0166537
797.424	0.0167299
797.502	0.0165874
797.580	0.0167074
797.658	0.0168417
797.736	0.0167018
797.814	0.0167493
797.892	0.0166472
797.971	0.0166826
798.049	0.0167725
798.127	0.0166245
798.205	0.0167689
798.283	0.0167477
798.361	0.0165824
798.439	0.0165852
798.517	0.0166562
798.596	0.0165570
798.674	0.0166206
798.752	0.0166033
798.830	0.0166854
798.908	0.0166734
798.986	0.0165910
799.064	0.0166090
799.142	0.0166743
799.221	0.0165033
799.299	0.0166742
799.377	0.0166267
799.455	0.0164737
799.533	0.0166104
799.611	0.0165571
799.689	0.0165104
799.767	0.0165580
799.846	0.0165887
799.924	0.0165059
800.002	0.0166592
800.080	0.0166472
800.158	0.0165186
800.236	0.0166244
800.314	0.0165292
800.392	0.0167077
800.471	0.0166795
800.549	0.0166119
800.627	0.0165567
800.705	0.0166130
800.783	0.0166769
800.861	0.0166768
800.939	0.0164861
801.017	0.0166628
801.096	0.0167817
801.174	0.0165942
801.252	0.0167220
801.330	0.0166423
801.408	0.0166135
801.486	0.0165407
801.564	0.0165453
801.642	0.0163951
801.721	0.0164768
801.799	0.0165041
801.877	0.0164503
801.955	0.0164564
802.033	0.0165295
802.111	0.0165361
802.189	0.0166145
802.267	0.0165409
802.346	0.0164484
802.424	0.0164619
802.502	0.0165616
802.580	0.0165724
802.658	0.0166276
802.736	0.0165775
802.814	0.0165770
802.892	0.0167155
802.971	0.0165766
803.049	0.0166570
803.127	0.0167052
803.205	0.0167432
803.283	0.0165205
803.361	0.0166882
803.439	0.0166626
803.517	0.0166636
803.596	0.0167129
803.674	0.0165820
803.752	0.0166232
803.830	0.0166973
803.908	0.0167060
803.986	0.0164832
804.064	0.0164803
804.142	0.0164121
804.221	0.0164254
804.299	0.0164291
804.377	0.0165254
804.455	0.0163477
804.533	0.0164146
804.611	0.0163512
804.689	0.0163527
804.767	0.0163338
804.846	0.0164502
804.924	0.0164601
805.002	0.0164320
805.080	0.0164886
805.158	0.0164514
805.236	0.0165350
805.314	0.0164749
805.392	0.0164869
805.471	0.0164251
805.549	0.0166199
805.627	0.0165839
805.705	0.0165910
805.783	0.0166959
805.861	0.0167275
805.939	0.0166545
806.017	0.0166863
806.096	0.0167627
806.174	0.0166196
806.252	0.0165882
806.330	0.0166525
806.408	0.0166778
806.486	0.0165161
806.564	0.0164536
806.642	0.0165088
806.721	0.0164700
806.799	0.0164178
806.877	0.0164407
806.955	0.0163190
807.033	0.0163890
807.111	0.0163438
807.189	0.0163582
807.267	0.0164333
807.346	0.0164779
807.424	0.0165196
807.502	0.0164391
807.580	0.0164643
807.658	0.0163365
807.736	0.0163296
807.814	0.0164697
807.892	0.0164441
807.971	0.0164143
808.049	0.0166581
808.127	0.0164664
808.205	0.0164568
808.283	0.0163609
808.361	0.0164761
808.439	0.0165198
808.517	0.0165707
808.596	0.0165890
808.674	0.0163624
808.752	0.0165815
808.830	0.0164286
808.908	0.0165446
808.986	0.0165419
809.064	0.0165157
809.142	0.0164964
809.221	0.0165321
809.299	0.0164858
809.377	0.0165868
809.455	0.0166609
809.533	0.0164333
809.611	0.0164799
809.689	0.0165569
809.767	0.0163865
809.846	0.0164285
809.924	0.0164465
810.002	0.0165250
810.080	0.0164072
810.158	0.0161916
810.236	0.0162878
810.314	0.0162763
810.392	0.0163665
810.471	0.0163858
810.549	0.0162594
810.627	0.0163268
810.705	0.0164609
810.783	0.0163924
810.861	0.0164294
810.939	0.0164993
811.017	0.0164407
811.096	0.0164709
811.174	0.0165415
811.252	0.0165141
811.330	0.0164718
811.408	0.0164508
811.486	0.0165199
811.564	0.0164629
811.642	0.0164721
811.721	0.0165468
811.799	0.0164388
811.877	0.0164278
811.955	0.0163577
812.033	0.0164436
812.111	0.0165037
812.189	0.0162545
812.267	0.0164143
812.346	0.0164419
812.424	0.0164800
812.502	0.0163062
812.580	0.0164378
812.658	0.0165889
812.736	0.0165225
812.814	0.0164320
812.892	0.0164544
812.971	0.0164916
813.049	0.0164878
813.127	0.0163493
813.205	0.0166142
813.283	0.0166171
813.361	0.0165462
813.439	0.0165284
813.517	0.0164711
813.596	0.0164891
813.674	0.0165573
813.752	0.0165905
813.830	0.0167075
813.908	0.0166296
813.986	0.0164485
814.064	0.0165717
814.142	0.0165414
814.221	0.0163533
814.299	0.0165123
814.377	0.0164874
814.455	0.0164542
814.533	0.0163878
814.611	0.0165389
814.689	0.0165280
814.767	0.0165859
814.846	0.0162556
814.924	0.0165547
815.002	0.0166438
815.080	0.0165411
815.158	0.0164453
815.236	0.0166913
815.314	0.0165229
815.392	0.0164558
815.471	0.0165750
815.549	0.0167270
815.627	0.0166238
815.705	0.0166121
815.783	0.0166077
815.861	0.0167012
815.939	0.0166312
816.017	0.0166347
816.096	0.0166858
816.174	0.0165427
816.252	0.0166398
816.330	0.0164790
816.408	0.0165840
816.486	0.0164616
816.564	0.0166695
816.642	0.0166513
816.721	0.0166766
816.799	0.0165266
816.877	0.0164370
816.955	0.0165538
817.033	0.0166082
817.111	0.0164828
817.189	0.0165103
817.267	0.0164898
817.346	0.0165730
817.424	0.0165058
817.502	0.0164793
817.580	0.0165102
817.658	0.0165157
817.736	0.0164165
817.814	0.0164247
817.892	0.0165554
817.971	0.0167730
818.049	0.0166474
818.127	0.0165231
818.205	0.0166245
818.283	0.0165679
818.361	0.0166155
818.439	0.0166715
818.517	0.0166502
818.596	0.0165331
818.674	0.0165920
818.752	0.0167388
818.830	0.0165981
818.908	0.0166837
818.986	0.0165803
819.064	0.0166095
819.142	0.0166165
819.221	0.0165800
819.299	0.0165281
819.377	0.0166898
819.455	0.0165557
819.533	0.0164762
819.611	0.0165551
819.689	0.0165867
819.767	0.0165146
819.846	0.0165427
819.924	0.0163927
820.002	0.0164124
820.080	0.0164645
820.158	0.0164594
820.236	0.0164132
820.314	0.0164468
820.392	0.0165180
820.471	0.0165195
820.549	0.0165018
820.627	0.0166027
820.705	0.0164004
820.783	0.0165125
820.861	0.0165744
820.939	0.0164373
821.017	0.0166069
821.096	0.0166045
821.174	0.0165269
821.252	0.0164178
821.330	0.0165679
821.408	0.0166114
821.486	0.0164845
821.564	0.0165086
821.642	0.0164751
821.721	0.0165036
821.799	0.0164373
821.877	0.0165011
821.955	0.0164255
822.033	0.0163148
822.111	0.0164130
822.189	0.0164689
822.267	0.0164298
822.346	0.0163715
822.424	0.0164415
822.502	0.0163486
822.580	0.0164600
822.658	0.0163065
822.736	0.0164840
822.814	0.0164213
822.892	0.0166454
822.971	0.0165320
823.049	0.0164439
823.127	0.0162880
823.205	0.0164350
823.283	0.0165327
823.361	0.0165276
823.439	0.0163796
823.517	0.0164725
823.596	0.0165235
823.674	0.0164989
823.752	0.0164001
823.830	0.0164758
823.908	0.0163946
823.986	0.0165154
824.064	0.0163986
824.142	0.0163905
824.221	0.0163846
824.299	0.0163980
824.377	0.0164207
824.455	0.0164034
824.533	0.0163845
824.611	0.0164342
824.689	0.0164819
824.767	0.0165105
824.846	0.0163947
824.924	0.0165905
825.002	0.0164752
825.080	0.0165565
825.158	0.0164988
825.236	0.0165440
825.314	0.0165537
825.392	0.0165766
825.471	0.0166579
825.549	0.0163932
825.627	0.0165491
825.705	0.0166088
825.783	0.0166053
825.861	0.0166866
825.939	0.0164751
826.017	0.0166317
826.096	0.0165620
826.174	0.0166592
826.252	0.0166165
826.330	0.0166057
826.408	0.0164938
826.486	0.0166217
826.564	0.0163377
826.642	0.0165591
826.721	0.0164821
826.799	0.0163785
826.877	0.0165089
826.955	0.0166444
827.033	0.0164821
827.111	0.0164503
827.189	0.0164650
827.267	0.0164289
827.346	0.0165929
827.424	0.0164035
827.502	0.0164478
827.580	0.0164406
827.658	0.0164758
827.736	0.0164221
827.814	0.0163939
827.892	0.0164041
827.971	0.0164132
828.049	0.0164402
828.127	0.0165223
828.205	0.0163504
828.283	0.0164077
828.361	0.0165308
828.439	0.0165136
828.517	0.0163830
828.596	0.0163615
828.674	0.0164201
828.752	0.0164719
828.830	0.0163547
828.908	0.0163532
828.986	0.0162092
829.064	0.0163921
829.142	0.0164116
829.221	0.0163586
829.299	0.0162527
829.377	0.0162977
829.455	0.0162629
829.533	0.0163466
829.611	0.0163666
829.689	0.0165137
829.767	0.0162179
829.846	0.0165157
829.924	0.0164545
830.002	0.0163930
830.080	0.0164149
830.158	0.0164937
830.236	0.0164877
830.314	0.0164237
830.392	0.0164026
830.471	0.0165580
830.549	0.0164604
830.627	0.0164432
830.705	0.0164809
830.783	0.0165705
830.861	0.0163625
830.939	0.0164048
831.017	0.0163284
831.096	0.0163709
831.174	0.0165804
831.252	0.0163068
831.330	0.0161755
831.408	0.0162234
831.486	0.0163486
831.564	0.0162888
831.642	0.0162553
831.721	0.0162780
831.799	0.0163544
831.877	0.0162521
831.955	0.0162610
832.033	0.0162562
832.111	0.0162692
832.189	0.0163199
832.267	0.0164573
832.346	0.0163797
832.424	0.0162830
832.502	0.0163741
832.580	0.0164665
832.658	0.0165003
832.736	0.0165190
832.814	0.0164772
832.892	0.0164231
832.971	0.0163560
833.049	0.0164571
833.127	0.0165491
833.205	0.0165697
833.283	0.0165981
833.361	0.0166128
833.439	0.0165490
833.517	0.0164684
833.596	0.0165856
833.674	0.0166125
833.752	0.0163961
833.830	0.0163792
833.908	0.0163721
833.986	0.0164870
834.064	0.0163396
834.142	0.0162622
834.221	0.0163206
834.299	0.0163380
834.377	0.0163490
834.455	0.0162687
834.533	0.0163853
834.611	0.0162424
834.689	0.0162863
834.767	0.0163654
834.846	0.0163684
834.924	0.0163274
835.002	0.0163161
835.080	0.0163931
835.158	0.0163880
835.236	0.0164752
835.314	0.0163734
835.392	0.0164534
835.471	0.0164995
835.549	0.0164299
835.627	0.0165391
835.705	0.0165462
835.783	0.0164956
835.861	0.0163968
835.939	0.0165752
836.017	0.0165831
836.096	0.0164986
836.174	0.0166021
836.252	0.0165280
836.330	0.0164044
836.408	0.0164568
836.486	0.0165292
836.564	0.0163738
836.642	0.0163842
836.721	0.0165254
836.799	0.0164159
836.877	0.0164835
836.955	0.0163463
837.033	0.0164175
837.111	0.0165389
837.189	0.0164803
837.267	0.0163965
837.346	0.0164929
837.424	0.0166032
837.502	0.0165673
837.580	0.0165481
837.658	0.0166354
837.736	0.0166159
837.814	0.0166138
837.892	0.0166921
837.971	0.0167114
838.049	0.0167042
838.127	0.0165765
838.205	0.0166388
838.283	0.0165369
838.361	0.0165961
838.439	0.0166724
838.517	0.0165983
838.596	0.0165291
838.674	0.0165823
838.752	0.0164634
838.830	0.0164528
838.908	0.0164750
838.986	0.0163747
839.064	0.0163388
839.142	0.0165372
839.221	0.0163441
839.299	0.0163603
839.377	0.0163382
839.455	0.0164400
839.533	0.0164493
839.611	0.0164751
839.689	0.0164699
839.767	0.0164080
839.846	0.0164068
839.924	0.0164594
840.002	0.0164535
840.080	0.0165583
840.158	0.0163515
840.236	0.0163129
840.314	0.0165624
840.392	0.0164948
840.471	0.0163622
840.549	0.0164617
840.627	0.0163438
840.705	0.0164332
840.783	0.0166087
840.861	0.0165754
840.939	0.0165318
841.017	0.0164686
841.096	0.0165445
841.174	0.0165804
841.252	0.0165002
841.330	0.0166608
841.408	0.0165477
841.486	0.0165147
841.564	0.0165882
841.642	0.0166074
841.721	0.0163620
841.799	0.0164368
841.877	0.0164494
841.955	0.0164883
842.033	0.0166266
842.111	0.0166521
842.189	0.0165145
842.267	0.0165302
842.346	0.0164853
842.424	0.0163929
842.502	0.0164764
842.580	0.0165740
842.658	0.0165928
842.736	0.0166124
842.814	0.0164915
842.892	0.0164391
842.971	0.0164854
843.049	0.0165391
843.127	0.0166607
843.205	0.0166094
843.283	0.0166252
843.361	0.0165820
843.439	0.0166536
843.517	0.0164944
843.596	0.0165480
843.674	0.0166056
843.752	0.0167372
843.830	0.0165525
843.908	0.0166505
843.986	0.0166794
844.064	0.0167545
844.142	0.0165678
844.221	0.0165115
844.299	0.0165913
844.377	0.0166006
844.455	0.0165439
844.533	0.0165746
844.611	0.0165463
844.689	0.0165608
844.767	0.0165237
844.846	0.0162965
844.924	0.0164045
845.002	0.0165076
845.080	0.0164337
845.158	0.0163819
845.236	0.0162940
845.314	0.0164131
845.392	0.0164197
845.471	0.0165055
845.549	0.0165313
845.627	0.0165443
845.705	0.0164181
845.783	0.0164227
845.861	0.0163146
845.939	0.0163816
846.017	0.0165585
846.096	0.0164811
846.174	0.0165379
846.252	0.0166646
846.330	0.0164780
846.408	0.0164330
846.486	0.0165296
846.564	0.0165689
846.642	0.0164049
846.721	0.0165604
846.799	0.0165255
846.877	0.0165581
846.955	0.0165328
847.033	0.0164919
847.111	0.0164482
847.189	0.0164862
847.267	0.0163902
847.346	0.0165534
847.424	0.0165907
847.502	0.0163723
847.580	0.0162974
847.658	0.0163922
847.736	0.0165787
847.814	0.0163676
847.892	0.0163354
847.971	0.0164053
848.049	0.0163902
848.127	0.0164549
848.205	0.0164438
848.283	0.0164114
848.361	0.0166000
848.439	0.0164816
848.517	0.0164188
848.596	0.0164798
848.674	0.0164548
848.752	0.0164106
848.830	0.0164621
848.908	0.0164870
848.986	0.0165292
849.064	0.0163239
849.142	0.0163534
849.221	0.0164382
849.299	0.0162776
849.377	0.0164216
849.455	0.0164413
849.533	0.0163479
849.611	0.0164120
849.689	0.0164236
849.767	0.0163538
849.846	0.0163814
849.924	0.0164906
850.002	0.0163231
850.080	0.0164282
850.158	0.0163148
850.236	0.0164676
850.314	0.0163803
850.392	0.0163174
850.471	0.0162730
850.549	0.0164552
850.627	0.0163575
850.705	0.0162543
850.783	0.0162541
850.861	0.0164259
850.939	0.0164124
851.017	0.0163836
851.096	0.0164823
851.174	0.0164735
851.252	0.0164169
851.330	0.0164217
851.408	0.0164700
851.486	0.0164983
851.564	0.0165920
851.642	0.0165241
851.721	0.0164417
851.799	0.0166699
851.877	0.0165100
851.955	0.0165359
852.033	0.0164561
852.111	0.0166633
852.189	0.0164292
852.267	0.0164655
852.346	0.0165061
852.424	0.0164346
852.502	0.0163949
852.580	0.0164955
852.658	0.0163213
852.736	0.0164714
852.814	0.0164369
852.892	0.0165214
852.971	0.0163990
853.049	0.0163898
853.127	0.0162816
853.205	0.0164473
853.283	0.0163414
853.361	0.0162083
853.439	0.0164569
853.517	0.0163918
853.596	0.0165083
853.674	0.0164304
853.752	0.0164264
853.830	0.0165079
853.908	0.0164987
853.986	0.0165736
854.064	0.0164965
854.142	0.0165340
854.221	0.0164111
854.299	0.0165760
854.377	0.0165382
854.455	0.0165132
854.533	0.0166695
854.611	0.0164992
854.689	0.0165129
854.767	0.0165902
854.846	0.0164948
854.924	0.0165288
855.002	0.0164796
855.080	0.0163012
855.158	0.0163377
855.236	0.0165179
855.314	0.0163579
855.392	0.0162493
855.471	0.0162124
855.549	0.0163071
855.627	0.0164366
855.705	0.0163281
855.783	0.0164007
855.861	0.0164185
855.939	0.0163216
856.017	0.0163151
856.096	0.0164275
856.174	0.0163908
856.252	0.0164596
856.330	0.0163846
856.408	0.0163567
856.486	0.0163777
856.564	0.0163685
856.642	0.0164107
856.721	0.0164909
856.799	0.0163982
856.877	0.0163649
856.955	0.0162944
857.033	0.0162768
857.111	0.0163774
857.189	0.0163860
857.267	0.0162546
857.346	0.0164110
857.424	0.0164653
857.502	0.0163746
857.580	0.0164152
857.658	0.0163484
857.736	0.0162739
857.814	0.0162796
857.892	0.0163647
857.971	0.0164633
858.049	0.0163611
858.127	0.0164311
858.205	0.0164101
858.283	0.0163382
858.361	0.0163616
858.439	0.0162562
858.517	0.0165491
858.596	0.0165686
858.674	0.0165274
858.752	0.0163922
858.830	0.0163523
858.908	0.0165160
858.986	0.0164111
859.064	0.0164195
859.142	0.0165927
859.221	0.0164961
859.299	0.0163954
859.377	0.0165033
859.455	0.0163354
859.533	0.0162879
859.611	0.0163787
859.689	0.0165842
859.767	0.0164982
859.846	0.0164043
859.924	0.0166030
860.002	0.0164317
860.080	0.0163605
860.158	0.0164802
860.236	0.0164980
860.314	0.0165956
860.392	0.0165403
860.471	0.0164771
860.549	0.0164358
860.627	0.0165849
860.705	0.0163683
860.783	0.0164024
860.861	0.0165102
860.939	0.0164167
861.017	0.0162948
861.096	0.0165213
861.174	0.0166286
861.252	0.0165219
861.330	0.0163992
861.408	0.0165178
861.486	0.0165475
861.564	0.0165144
861.642	0.0166225
861.721	0.0165187
861.799	0.0165514
861.877	0.0166539
861.955	0.0165067
862.033	0.0165417
862.111	0.0165565
862.189	0.0164946
862.267	0.0164011
862.346	0.0165079
862.424	0.0165526
862.502	0.0164700
862.580	0.0164539
862.658	0.0164108
862.736	0.0164305
862.814	0.0164516
862.892	0.0164584
862.971	0.0163435
863.049	0.0163366
863.127	0.0164353
863.205	0.0163961
863.283	0.0163549
863.361	0.0163999
863.439	0.0163268
863.517	0.0163549
863.596	0.0164152
863.674	0.0164384
863.752	0.0163049
863.830	0.0163948
863.908	0.0164479
863.986	0.0163864
864.064	0.0162583
864.142	0.0165487
864.221	0.0163169
864.299	0.0165119
864.377	0.0164392
864.455	0.0164260
864.533	0.0164124
864.611	0.0164412
864.689	0.0164647
864.767	0.0163832
864.846	0.0164985
864.924	0.0164066
865.002	0.0164007
865.080	0.0165325
865.158	0.0164306
865.236	0.0165510
865.314	0.0165895
865.392	0.0164245
865.471	0.0164894
865.549	0.0166011
865.627	0.0164095
865.705	0.0164662
865.783	0.0165902
865.861	0.0164688
865.939	0.0163994
866.017	0.0166164
866.096	0.0164339
866.174	0.0164214
866.252	0.0165201
866.330	0.0164967
866.408	0.0165284
866.486	0.0163837
866.564	0.0165060
866.642	0.0165049
866.721	0.0166267
866.799	0.0164151
866.877	0.0166097
866.955	0.0165723
867.033	0.0165814
867.111	0.0165306
867.189	0.0164506
867.267	0.0164956
867.346	0.0164677
867.424	0.0165002
867.502	0.0166105
867.580	0.0165756
867.658	0.0165047
867.736	0.0165060
867.814	0.0165424
867.892	0.0165331
867.971	0.0163850
868.049	0.0164943
868.127	0.0164342
868.205	0.0165611
868.283	0.0165851
868.361	0.0165322
868.439	0.0164514
868.517	0.0164597
868.596	0.0165032
868.674	0.0164194
868.752	0.0164522
868.830	0.0164941
868.908	0.0166147
868.986	0.0165001
869.064	0.0164057
869.142	0.0164777
869.221	0.0166132
869.299	0.0164232
869.377	0.0164364
869.455	0.0164915
869.533	0.0163502
869.611	0.0165573
869.689	0.0165165
869.767	0.0164265
869.846	0.0163744
869.924	0.0164070
870.002	0.0166425
870.080	0.0163799
870.158	0.0164099
870.236	0.0165550
870.314	0.0164501
870.392	0.0165775
870.471	0.0165125
870.549	0.0165495
870.627	0.0162856
870.705	0.0165634
870.783	0.0165036
870.861	0.0165257
870.939	0.0164165
871.017	0.0164832
871.096	0.0163457
871.174	0.0164282
871.252	0.0164802
871.330	0.0164268
871.408	0.0164524
871.486	0.0165125
871.564	0.0164581
871.642	0.0164091
871.721	0.0163476
871.799	0.0165011
871.877	0.0165031
871.955	0.0164235
872.033	0.0165036
872.111	0.0163251
872.189	0.0164133
872.267	0.0165179
872.346	0.0163794
872.424	0.0165183
872.502	0.0164755
872.580	0.0165174
872.658	0.0164163
872.736	0.0163904
872.814	0.0163786
872.892	0.0165096
872.971	0.0165709
873.049	0.0164975
873.127	0.0165177
873.205	0.0164768
873.283	0.0165722
873.361	0.0166354
873.439	0.0163144
873.517	0.0164118
873.596	0.0163611
873.674	0.0164189
873.752	0.0164428
873.830	0.0165936
873.908	0.0165623
873.986	0.0165075
874.064	0.0164968
874.142	0.0164212
874.221	0.0165826
874.299	0.0165114
874.377	0.0164053
874.455	0.0165129
874.533	0.0165318
874.611	0.0164923
874.689	0.0164001
874.767	0.0165111
874.846	0.0163210
874.924	0.0165328
875.002	0.0164309
875.080	0.0165493
875.158	0.0165604
875.236	0.0163550
875.314	0.0163932
875.392	0.0165865
875.471	0.0165440
875.549	0.0165489
875.627	0.0165853
875.705	0.0164548
875.783	0.0165770
875.861	0.0164520
875.939	0.0164520
876.017	0.0165786
876.096	0.0165678
876.174	0.0165330
876.252	0.0166107
876.330	0.0165261
876.408	0.0165475
876.486	0.0165298
876.564	0.0165522
876.642	0.0165030
876.721	0.0165955
876.799	0.0165295
876.877	0.0163893
876.955	0.0163840
877.033	0.0165756
877.111	0.0165167
877.189	0.0163846
877.267	0.0164172
877.346	0.0164336
877.424	0.0163908
877.502	0.0165630
877.580	0.0165289
877.658	0.0165345
877.736	0.0164980
877.814	0.0165195
877.892	0.0164890
877.971	0.0165230
878.049	0.0164575
878.127	0.0164777
878.205	0.0165611
878.283	0.0165363
878.361	0.0165044
878.439	0.0164111
878.517	0.0165584
878.596	0.0164952
878.674	0.0165974
878.752	0.0165876
878.830	0.0162478
878.908	0.0164327
878.986	0.0164543
879.064	0.0164636
879.142	0.0165303
879.221	0.0164798
879.299	0.0164797
879.377	0.0165535
879.455	0.0164854
879.533	0.0164677
879.611	0.0164877
879.689	0.0164836
879.767	0.0165041
879.846	0.0165775
879.924	0.0165384
880.002	0.0164352
880.080	0.0164680
880.158	0.0165507
880.236	0.0166013
880.314	0.0165902
880.392	0.0163760
880.471	0.0164731
880.549	0.0166107
880.627	0.0164816
880.705	0.0165493
880.783	0.0165953
880.861	0.0165382
880.939	0.0164764
881.017	0.0164767
881.096	0.0164896
881.174	0.0164120
881.252	0.0164702
881.330	0.0164883
881.408	0.0165282
881.486	0.0164281
881.564	0.0164705
881.642	0.0165279
881.721	0.0165079
881.799	0.0164339
881.877	0.0165228
881.955	0.0164128
882.033	0.0163303
882.111	0.0165670
882.189	0.0165870
882.267	0.0163726
882.346	0.0165205
882.424	0.0165816
882.502	0.0165968
882.580	0.0165826
882.658	0.0166045
882.736	0.0165160
882.814	0.0165811
882.892	0.0165146
882.971	0.0166364
883.049	0.0165887
883.127	0.0166247
883.205	0.0165176
883.283	0.0166399
883.361	0.0166212
883.439	0.0165190
883.517	0.0165953
883.596	0.0166677
883.674	0.0166349
883.752	0.0164378
883.830	0.0165392
883.908	0.0164873
883.986	0.0165132
884.064	0.0164725
884.142	0.0165231
884.221	0.0166352
884.299	0.0165913
884.377	0.0166753
884.455	0.0165436
884.533	0.0166072
884.611	0.0164946
884.689	0.0164037
884.767	0.0164623
884.846	0.0165081
884.924	0.0167215
885.002	0.0165664
885.080	0.0165697
885.158	0.0166216
885.236	0.0165829
885.314	0.0165572
885.392	0.0165630
885.471	0.0167227
885.549	0.0166089
885.627	0.0165586
885.705	0.0165099
885.783	0.0165716
885.861	0.0165121
885.939	0.0165518
886.017	0.0165842
886.096	0.0164892
886.174	0.0166078
886.252	0.0165115
886.330	0.0165197
886.408	0.0165684
886.486	0.0165409
886.564	0.0164436
886.642	0.0164111
886.721	0.0163059
886.799	0.0166313
886.877	0.0164412
886.955	0.0164694
887.033	0.0164291
887.111	0.0164085
887.189	0.0166094
887.267	0.0165211
887.346	0.0164491
887.424	0.0164620
887.502	0.0164438
887.580	0.0163747
887.658	0.0164621
887.736	0.0164404
887.814	0.0164099
887.892	0.0164196
887.971	0.0162571
888.049	0.0164127
888.127	0.0162904
888.205	0.0165273
888.283	0.0164185
888.361	0.0162694
888.439	0.0163329
888.517	0.0164983
888.596	0.0163673
888.674	0.0164256
888.752	0.0164101
888.830	0.0163625
888.908	0.0164262
888.986	0.0164255
889.064	0.0163781
889.142	0.0165302
889.221	0.0163511
889.299	0.0164004
889.377	0.0164403
889.455	0.0163292
889.533	0.0162819
889.611	0.0164996
889.689	0.0164891
889.767	0.0163524
889.846	0.0162751
889.924	0.0164375
890.002	0.0163448
890.080	0.0164848
890.158	0.0163924
890.236	0.0163102
890.314	0.0162943
890.392	0.0164068
890.471	0.0163350
890.549	0.0163969
890.627	0.0163011
890.705	0.0162937
890.783	0.0163639
890.861	0.0163374
890.939	0.0163705
891.017	0.0163699
891.096	0.0164260
891.174	0.0165071
891.252	0.0163808
891.330	0.0164271
891.408	0.0163995
891.486	0.0164557
891.564	0.0165585
891.642	0.0164876
891.721	0.0163773
891.799	0.0164139
891.877	0.0164300
891.955	0.0163284
892.033	0.0165114
892.111	0.0165781
892.189	0.0164191
892.267	0.0163284
892.346	0.0162852
892.424	0.0164854
892.502	0.0164590
892.580	0.0165521
892.658	0.0164791
892.736	0.0164187
892.814	0.0164247
892.892	0.0164795
892.971	0.0165429
893.049	0.0165247
893.127	0.0164195
893.205	0.0165524
893.283	0.0165613
893.361	0.0165820
893.439	0.0165538
893.517	0.0166065
893.596	0.0164705
893.674	0.0166689
893.752	0.0165821
893.830	0.0164878
893.908	0.0166508
893.986	0.0167047
894.064	0.0165253
894.142	0.0165679
894.221	0.0166666
894.299	0.0165609
894.377	0.0166219
894.455	0.0166220
894.533	0.0165052
894.611	0.0166556
894.689	0.0165825
894.767	0.0165083
894.846	0.0166532
894.924	0.0167136
895.002	0.0166764
895.080	0.0165751
895.158	0.0164745
895.236	0.0167092
895.314	0.0166137
895.392	0.0165458
895.471	0.0166605
895.549	0.0165755
895.627	0.0165303
895.705	0.0165717
895.783	0.0165998
895.861	0.0165855
895.939	0.0164046
896.017	0.0165072
896.096	0.0164613
896.174	0.0165221
896.252	0.0165042
896.330	0.0164642
896.408	0.0164328
896.486	0.0165501
896.564	0.0165045
896.642	0.0165480
896.721	0.0166701
896.799	0.0165491
896.877	0.0165818
896.955	0.0164758
897.033	0.0165060
897.111	0.0165046
897.189	0.0165968
897.267	0.0165425
897.346	0.0165310
897.424	0.0166016
897.502	0.0165276
897.580	0.0164544
897.658	0.0165222
897.736	0.0165372
897.814	0.0165829
897.892	0.0165070
897.971	0.0166357
898.049	0.0164807
898.127	0.0164622
898.205	0.0164034
898.283	0.0166003
898.361	0.0165795
898.439	0.0166646
898.517	0.0164610
898.596	0.0165752
898.674	0.0166888
898.752	0.0166055
898.830	0.0166621
898.908	0.0164806
898.986	0.0166462
899.064	0.0165703
899.142	0.0166104
899.221	0.0166269
899.299	0.0166390
899.377	0.0164944
899.455	0.0167741
899.533	0.0166509
899.611	0.0164273
899.689	0.0165003
899.767	0.0165298
899.846	0.0167103
899.924	0.0165221
900.002	0.0165880
900.080	0.0164789
900.158	0.0164914
900.236	0.0164964
900.314	0.0165958
900.392	0.0164898
900.471	0.0165599
900.549	0.0165392
900.627	0.0164899
900.705	0.0165529
900.783	0.0165395
900.861	0.0164565
900.939	0.0165505
901.017	0.0164210
901.096	0.0164599
901.174	0.0166514
901.252	0.0164491
901.330	0.0165248
901.408	0.0166684
901.486	0.0164689
901.564	0.0163713
901.642	0.0164727
901.721	0.0164932
901.799	0.0163116
901.877	0.0165903
901.955	0.0164317
902.033	0.0163446
902.111	0.0164426
902.189	0.0165012
902.267	0.0163887
902.346	0.0164085
902.424	0.0164378
902.502	0.0165878
902.580	0.0164601
902.658	0.0164255
902.736	0.0164902
902.814	0.0165425
902.892	0.0165220
902.971	0.0164367
903.049	0.0165821
903.127	0.0164678
903.205	0.0163949
903.283	0.0165777
903.361	0.0166016
903.439	0.0164175
903.517	0.0165385
903.596	0.0165776
903.674	0.0164801
903.752	0.0163685
903.830	0.0164631
903.908	0.0165000
903.986	0.0163662
904.064	0.0164140
904.142	0.0165066
904.221	0.0165417
904.299	0.0164694
904.377	0.0164967
904.455	0.0166343
904.533	0.0163655
904.611	0.0165653
904.689	0.0165287
904.767	0.0162019
904.846	0.0163899
904.924	0.0165224
905.002	0.0165214
905.080	0.0164615
905.158	0.0164471
905.236	0.0165377
905.314	0.0166119
905.392	0.0165562
905.471	0.0165238
905.549	0.0165598
905.627	0.0164704
905.705	0.0164093
905.783	0.0165821
905.861	0.0165376
905.939	0.0166446
906.017	0.0165060
906.096	0.0164034
906.174	0.0164175
906.252	0.0165243
906.330	0.0164556
906.408	0.0165961
906.486	0.0165051
906.564	0.0165156
906.642	0.0165002
906.721	0.0165038
906.799	0.0166766
906.877	0.0164945
906.955	0.0165414
907.033	0.0166366
907.111	0.0165654
907.189	0.0165940
907.267	0.0164843
907.346	0.0166183
907.424	0.0164789
907.502	0.0166650
907.580	0.0165531
907.658	0.0165411
907.736	0.0167168
907.814	0.0164795
907.892	0.0165127
907.971	0.0164855
908.049	0.0164554
908.127	0.0165733
908.205	0.0165787
908.283	0.0164700
908.361	0.0165757
908.439	0.0166296
908.517	0.0166628
908.596	0.0166010
908.674	0.0165649
908.752	0.0166221
908.830	0.0165453
908.908	0.0165302
908.986	0.0165679
909.064	0.0167458
909.142	0.0165350
909.221	0.0164198
909.299	0.0166201
909.377	0.0164901
909.455	0.0165516
909.533	0.0165679
909.611	0.0164558
909.689	0.0165645
909.767	0.0166243
909.846	0.0163781
909.924	0.0163979
910.002	0.0164400
910.080	0.0165649
910.158	0.0164610
910.236	0.0164249
910.314	0.0165484
910.392	0.0164102
910.471	0.0163543
910.549	0.0164440
910.627	0.0164529
910.705	0.0165383
910.783	0.0165351
910.861	0.0166367
910.939	0.0165465
911.017	0.0163771
911.096	0.0164839
911.174	0.0164861
911.252	0.0165060
911.330	0.0165030
911.408	0.0164046
911.486	0.0165199
911.564	0.0164554
911.642	0.0165149
911.721	0.0166051
911.799	0.0164059
911.877	0.0162842
911.955	0.0163164
912.033	0.0163685
912.111	0.0163593
912.189	0.0165165
912.267	0.0164285
912.346	0.0163408
912.424	0.0164542
912.502	0.0163778
912.580	0.0163796
912.658	0.0164294
912.736	0.0162988
912.814	0.0163534
912.892	0.0165949
912.971	0.0164307
913.049	0.0165306
913.127	0.0164933
913.205	0.0165514
913.283	0.0164565
913.361	0.0164642
913.439	0.0164254
913.517	0.0165321
913.596	0.0165264
913.674	0.0163414
913.752	0.0164281
913.830	0.0164560
913.908	0.0165618
913.986	0.0162682
914.064	0.0162575
914.142	0.0162914
914.221	0.0163370
914.299	0.0164442
914.377	0.0164718
914.455	0.0163485
914.533	0.0163248
914.611	0.0163857
914.689	0.0163725
914.767	0.0164849
914.846	0.0164655
914.924	0.0162418
915.002	0.0163093
915.080	0.0164149
915.158	0.0164152
915.236	0.0166112
915.314	0.0165037
915.392	0.0165042
915.471	0.0163875
915.549	0.0163509
915.627	0.0166227
915.705	0.0165080
915.783	0.0163323
915.861	0.0164335
915.939	0.0164302
916.017	0.0164371
916.096	0.0164397
916.174	0.0163365
916.252	0.0164571
916.330	0.0163899
916.408	0.0165138
916.486	0.0164899
916.564	0.0164308
916.642	0.0163824
916.721	0.0164811
916.799	0.0164828
916.877	0.0163709
916.955	0.0163058
917.033	0.0163904
917.111	0.0163982
917.189	0.0164511
917.267	0.0165253
917.346	0.0164073
917.424	0.0165337
917.502	0.0163054
917.580	0.0163377
917.658	0.0165389
917.736	0.0163287
917.814	0.0165430
917.892	0.0165224
917.971	0.0164478
918.049	0.0164617
918.127	0.0163454
918.205	0.0163629
918.283	0.0164693
918.361	0.0164744
918.439	0.0164044
918.517	0.0164890
918.596	0.0164951
918.674	0.0164444
918.752	0.0166960
918.830	0.0164912
918.908	0.0165991
918.986	0.0164695
919.064	0.0164022
919.142	0.0165179
919.221	0.0166524
919.299	0.0165446
919.377	0.0163289
919.455	0.0164876
919.533	0.0164694
919.611	0.0164181
919.689	0.0164245
919.767	0.0164146
919.846	0.0163679
919.924	0.0163631
