06/29/2022	21:34:54	Ver.	4.1	UNKNOWN
Optical Delay	600.001752	Delta X		0.078125	Sweeps	1	Scan Rate	0/0
Coordinates	Axis 1	NaN	Axis 2	NaN	Axis 3	NaN	Axis 4	NaN	Axis 5	NaN	Axis 6	0.000000
TX Power	0.000000	RX Power	0.000000

600.002	0.0160509
600.080	0.0161681
600.158	0.0160307
600.236	0.0159782
600.314	0.0160793
600.392	0.0160475
600.471	0.0160976
600.549	0.0160962
600.627	0.0160215
600.705	0.0160062
600.783	0.0160503
600.861	0.0159798
600.939	0.0159948
601.017	0.0159806
601.096	0.0160970
601.174	0.0160806
601.252	0.0160513
601.330	0.0159657
601.408	0.0159349
601.486	0.0160078
601.564	0.0160233
601.642	0.0160477
601.721	0.0159830
601.799	0.0161163
601.877	0.0161071
601.955	0.0160710
602.033	0.0161430
602.111	0.0162353
602.189	0.0160263
602.267	0.0160814
602.346	0.0160135
602.424	0.0161565
602.502	0.0161413
602.580	0.0161408
602.658	0.0160900
602.736	0.0161102
602.814	0.0161063
602.892	0.0161295
602.971	0.0162115
603.049	0.0161472
603.127	0.0160429
603.205	0.0161159
603.283	0.0162687
603.361	0.0161327
603.439	0.0162344
603.517	0.0161170
603.596	0.0161504
603.674	0.0161554
603.752	0.0162116
603.830	0.0161934
603.908	0.0160731
603.986	0.0161436
604.064	0.0161700
604.142	0.0161998
604.221	0.0161394
604.299	0.0160293
604.377	0.0162075
604.455	0.0161963
604.533	0.0161803
604.611	0.0162418
604.689	0.0162527
604.767	0.0161540
604.846	0.0161280
604.924	0.0162038
605.002	0.0161478
605.080	0.0162158
605.158	0.0162103
605.236	0.0162415
605.314	0.0161639
605.392	0.0161095
605.471	0.0159798
605.549	0.0161810
605.627	0.0162813
605.705	0.0162161
605.783	0.0161479
605.861	0.0161366
605.939	0.0160275
606.017	0.0160865
606.096	0.0161069
606.174	0.0162829
606.252	0.0160658
606.330	0.0159626
606.408	0.0161767
606.486	0.0162660
606.564	0.0160518
606.642	0.0160598
606.721	0.0159904
606.799	0.0161952
606.877	0.0161568
606.955	0.0160645
607.033	0.0159971
607.111	0.0161597
607.189	0.0161002
607.267	0.0159927
607.346	0.0161353
607.424	0.0160513
607.502	0.0161030
607.580	0.0161198
607.658	0.0160487
607.736	0.0161546
607.814	0.0160656
607.892	0.0160896
607.971	0.0161310
608.049	0.0160846
608.127	0.0158371
608.205	0.0160256
608.283	0.0160345
608.361	0.0160554
608.439	0.0160095
608.517	0.0161973
608.596	0.0160140
608.674	0.0160822
608.752	0.0159984
608.830	0.0160989
608.908	0.0161417
608.986	0.0160387
609.064	0.0160494
609.142	0.0160632
609.221	0.0160806
609.299	0.0161692
609.377	0.0160993
609.455	0.0159567
609.533	0.0160215
609.611	0.0161578
609.689	0.0159998
609.767	0.0160310
609.846	0.0161676
609.924	0.0161364
610.002	0.0159354
610.080	0.0161881
610.158	0.0159560
610.236	0.0159870
610.314	0.0161265
610.392	0.0160882
610.471	0.0159800
610.549	0.0160384
610.627	0.0159554
610.705	0.0160247
610.783	0.0159869
610.861	0.0159435
610.939	0.0161211
611.017	0.0160364
611.096	0.0160059
611.174	0.0160548
611.252	0.0161140
611.330	0.0159534
611.408	0.0161053
611.486	0.0159248
611.564	0.0161687
611.642	0.0161093
611.721	0.0159594
611.799	0.0161308
611.877	0.0160566
611.955	0.0160903
612.033	0.0160841
612.111	0.0160944
612.189	0.0160639
612.267	0.0160953
612.346	0.0161728
612.424	0.0162257
612.502	0.0160927
612.580	0.0161549
612.658	0.0161051
612.736	0.0161623
612.814	0.0161728
612.892	0.0161530
612.971	0.0160343
613.049	0.0162147
613.127	0.0160484
613.205	0.0161552
613.283	0.0162163
613.361	0.0162976
613.439	0.0161854
613.517	0.0163273
613.596	0.0162815
613.674	0.0162884
613.752	0.0161868
613.830	0.0160882
613.908	0.0163389
613.986	0.0163249
614.064	0.0162582
614.142	0.0163304
614.221	0.0162620
614.299	0.0162194
614.377	0.0160400
614.455	0.0162273
614.533	0.0162295
614.611	0.0162580
614.689	0.0162041
614.767	0.0162727
614.846	0.0162285
614.924	0.0160899
615.002	0.0161797
615.080	0.0162787
615.158	0.0162583
615.236	0.0160730
615.314	0.0162820
615.392	0.0163583
615.471	0.0161637
615.549	0.0160860
615.627	0.0161887
615.705	0.0162392
615.783	0.0162043
615.861	0.0161295
615.939	0.0160408
616.017	0.0160480
616.096	0.0161353
616.174	0.0162244
616.252	0.0161311
616.330	0.0161374
616.408	0.0160600
616.486	0.0160621
616.564	0.0161468
616.642	0.0160889
616.721	0.0162005
616.799	0.0160508
616.877	0.0160954
616.955	0.0160525
617.033	0.0161066
617.111	0.0160867
617.189	0.0159013
617.267	0.0160710
617.346	0.0160419
617.424	0.0160452
617.502	0.0160446
617.580	0.0160916
617.658	0.0160697
617.736	0.0160825
617.814	0.0161538
617.892	0.0159731
617.971	0.0160866
618.049	0.0161178
618.127	0.0160049
618.205	0.0159596
618.283	0.0159626
618.361	0.0160201
618.439	0.0160001
618.517	0.0159462
618.596	0.0161521
618.674	0.0160393
618.752	0.0158693
618.830	0.0161010
618.908	0.0160674
618.986	0.0159521
619.064	0.0159182
619.142	0.0158694
619.221	0.0159298
619.299	0.0160310
619.377	0.0159799
619.455	0.0159200
619.533	0.0158475
619.611	0.0160422
619.689	0.0161044
619.767	0.0159092
619.846	0.0160899
619.924	0.0158826
620.002	0.0160358
620.080	0.0160929
620.158	0.0160475
620.236	0.0161138
620.314	0.0160860
620.392	0.0159347
620.471	0.0158836
620.549	0.0158552
620.627	0.0160301
620.705	0.0160557
620.783	0.0161107
620.861	0.0160169
620.939	0.0160390
621.017	0.0161559
621.096	0.0161826
621.174	0.0160526
621.252	0.0158720
621.330	0.0160293
621.408	0.0161057
621.486	0.0160693
621.564	0.0158936
621.642	0.0160682
621.721	0.0161333
621.799	0.0160282
621.877	0.0160472
621.955	0.0161371
622.033	0.0160919
622.111	0.0161921
622.189	0.0162242
622.267	0.0161176
622.346	0.0162173
622.424	0.0161800
622.502	0.0162753
622.580	0.0162689
622.658	0.0160828
622.736	0.0161917
622.814	0.0162125
622.892	0.0161918
622.971	0.0161807
623.049	0.0160944
623.127	0.0161946
623.205	0.0162602
623.283	0.0162501
623.361	0.0160693
623.439	0.0162162
623.517	0.0161202
623.596	0.0161311
623.674	0.0160970
623.752	0.0161740
623.830	0.0161079
623.908	0.0161432
623.986	0.0162373
624.064	0.0161859
624.142	0.0162195
624.221	0.0161814
624.299	0.0162764
624.377	0.0161539
624.455	0.0162456
624.533	0.0161359
624.611	0.0161589
624.689	0.0161980
624.767	0.0163428
624.846	0.0162346
624.924	0.0162283
625.002	0.0163448
625.080	0.0162462
625.158	0.0161001
625.236	0.0162390
625.314	0.0161696
625.392	0.0162087
625.471	0.0161181
625.549	0.0161189
625.627	0.0161828
625.705	0.0161633
625.783	0.0161259
625.861	0.0161246
625.939	0.0161567
626.017	0.0162786
626.096	0.0162822
626.174	0.0161156
626.252	0.0162061
626.330	0.0162568
626.408	0.0161679
626.486	0.0161323
626.564	0.0162295
626.642	0.0160871
626.721	0.0161432
626.799	0.0163219
626.877	0.0161929
626.955	0.0161889
627.033	0.0162552
627.111	0.0162213
627.189	0.0162198
627.267	0.0160950
627.346	0.0160577
627.424	0.0160432
627.502	0.0161907
627.580	0.0162477
627.658	0.0160999
627.736	0.0161857
627.814	0.0161425
627.892	0.0159787
627.971	0.0161555
628.049	0.0161683
628.127	0.0162027
628.205	0.0161284
628.283	0.0161156
628.361	0.0159816
628.439	0.0160297
628.517	0.0160007
628.596	0.0160953
628.674	0.0161497
628.752	0.0161882
628.830	0.0160738
628.908	0.0160896
628.986	0.0162088
629.064	0.0161579
629.142	0.0160703
629.221	0.0160051
629.299	0.0161096
629.377	0.0162421
629.455	0.0160938
629.533	0.0159825
629.611	0.0159890
629.689	0.0160949
629.767	0.0161063
629.846	0.0160275
629.924	0.0160252
630.002	0.0160837
630.080	0.0159775
630.158	0.0160687
630.236	0.0160323
630.314	0.0159762
630.392	0.0159262
630.471	0.0160638
630.549	0.0159740
630.627	0.0160712
630.705	0.0160279
630.783	0.0160767
630.861	0.0158777
630.939	0.0160206
631.017	0.0160246
631.096	0.0160087
631.174	0.0160731
631.252	0.0160888
631.330	0.0160851
631.408	0.0161313
631.486	0.0161557
631.564	0.0160727
631.642	0.0160570
631.721	0.0160143
631.799	0.0162039
631.877	0.0160995
631.955	0.0159554
632.033	0.0160049
632.111	0.0159083
632.189	0.0161974
632.267	0.0161626
632.346	0.0159503
632.424	0.0162089
632.502	0.0160491
632.580	0.0159348
632.658	0.0161079
632.736	0.0161092
632.814	0.0160967
632.892	0.0162004
632.971	0.0160261
633.049	0.0161447
633.127	0.0159993
633.205	0.0161000
633.283	0.0162122
633.361	0.0161164
633.439	0.0160054
633.517	0.0160571
633.596	0.0161070
633.674	0.0160625
633.752	0.0161673
633.830	0.0160944
633.908	0.0161001
633.986	0.0160863
634.064	0.0160330
634.142	0.0161474
634.221	0.0160472
634.299	0.0161611
634.377	0.0161481
634.455	0.0160506
634.533	0.0160279
634.611	0.0162055
634.689	0.0161276
634.767	0.0161020
634.846	0.0161179
634.924	0.0160641
635.002	0.0161288
635.080	0.0162311
635.158	0.0161050
635.236	0.0159645
635.314	0.0161606
635.392	0.0161377
635.471	0.0161387
635.549	0.0161189
635.627	0.0161652
635.705	0.0161518
635.783	0.0161606
635.861	0.0160052
635.939	0.0161039
636.017	0.0160456
636.096	0.0161521
636.174	0.0161612
636.252	0.0160056
636.330	0.0160108
636.408	0.0160204
636.486	0.0161905
636.564	0.0161775
636.642	0.0160297
636.721	0.0160976
636.799	0.0162544
636.877	0.0161399
636.955	0.0161021
637.033	0.0160863
637.111	0.0160748
637.189	0.0162326
637.267	0.0162051
637.346	0.0161662
637.424	0.0162524
637.502	0.0160584
637.580	0.0159904
637.658	0.0161205
637.736	0.0160593
637.814	0.0161111
637.892	0.0160948
637.971	0.0161384
638.049	0.0160520
638.127	0.0160272
638.205	0.0160825
638.283	0.0160708
638.361	0.0161684
638.439	0.0161201
638.517	0.0159061
638.596	0.0159904
638.674	0.0160468
638.752	0.0160902
638.830	0.0160601
638.908	0.0162138
638.986	0.0160180
639.064	0.0160356
639.142	0.0159692
639.221	0.0161130
639.299	0.0160038
639.377	0.0159093
639.455	0.0160226
639.533	0.0159708
639.611	0.0160258
639.689	0.0160638
639.767	0.0159697
639.846	0.0160415
639.924	0.0160462
640.002	0.0160505
640.080	0.0158504
640.158	0.0159308
640.236	0.0159896
640.314	0.0158321
640.392	0.0159093
640.471	0.0160030
640.549	0.0160622
640.627	0.0159669
640.705	0.0160093
640.783	0.0160494
640.861	0.0159300
640.939	0.0159855
641.017	0.0159669
641.096	0.0160606
641.174	0.0159225
641.252	0.0160389
641.330	0.0159668
641.408	0.0159451
641.486	0.0160248
641.564	0.0160257
641.642	0.0159834
641.721	0.0160126
641.799	0.0160313
641.877	0.0159669
641.955	0.0159149
642.033	0.0159599
642.111	0.0159628
642.189	0.0158772
642.267	0.0160126
642.346	0.0159458
642.424	0.0160463
642.502	0.0161861
642.580	0.0159479
642.658	0.0158147
642.736	0.0159538
642.814	0.0159583
642.892	0.0160394
642.971	0.0161450
643.049	0.0160356
643.127	0.0160618
643.205	0.0161585
643.283	0.0160452
643.361	0.0160094
643.439	0.0160970
643.517	0.0160058
643.596	0.0159744
643.674	0.0160529
643.752	0.0160239
643.830	0.0160076
643.908	0.0161887
643.986	0.0161660
644.064	0.0160783
644.142	0.0160411
644.221	0.0161198
644.299	0.0162081
644.377	0.0161181
644.455	0.0159312
644.533	0.0161504
644.611	0.0162421
644.689	0.0160956
644.767	0.0162801
644.846	0.0160777
644.924	0.0161320
645.002	0.0160680
645.080	0.0161262
645.158	0.0160706
645.236	0.0160968
645.314	0.0161548
645.392	0.0160885
645.471	0.0160182
645.549	0.0161323
645.627	0.0160331
645.705	0.0161279
645.783	0.0160980
645.861	0.0162816
645.939	0.0161721
646.017	0.0160976
646.096	0.0161086
646.174	0.0161004
646.252	0.0162307
646.330	0.0160641
646.408	0.0161383
646.486	0.0162608
646.564	0.0161582
646.642	0.0161185
646.721	0.0160891
646.799	0.0160454
646.877	0.0160195
646.955	0.0160986
647.033	0.0160709
647.111	0.0161024
647.189	0.0162153
647.267	0.0161796
647.346	0.0160719
647.424	0.0161522
647.502	0.0161525
647.580	0.0161105
647.658	0.0161008
647.736	0.0160693
647.814	0.0160744
647.892	0.0161230
647.971	0.0160889
648.049	0.0161839
648.127	0.0160954
648.205	0.0158773
648.283	0.0160775
648.361	0.0160174
648.439	0.0159418
648.517	0.0159788
648.596	0.0161086
648.674	0.0160831
648.752	0.0161739
648.830	0.0161936
648.908	0.0160905
648.986	0.0160990
649.064	0.0160454
649.142	0.0163000
649.221	0.0161327
649.299	0.0161700
649.377	0.0160529
649.455	0.0159207
649.533	0.0160403
649.611	0.0161771
649.689	0.0159660
649.767	0.0160123
649.846	0.0160024
649.924	0.0159184
650.002	0.0161487
650.080	0.0160349
650.158	0.0159924
650.236	0.0160226
650.314	0.0159807
650.392	0.0158750
650.471	0.0160413
650.549	0.0160946
650.627	0.0159899
650.705	0.0160024
650.783	0.0160407
650.861	0.0160452
650.939	0.0159574
651.017	0.0160096
651.096	0.0160281
651.174	0.0159087
651.252	0.0158774
651.330	0.0158535
651.408	0.0159183
651.486	0.0159514
651.564	0.0159319
651.642	0.0160099
651.721	0.0160376
651.799	0.0159732
651.877	0.0159608
651.955	0.0159351
652.033	0.0159854
652.111	0.0159848
652.189	0.0157812
652.267	0.0160387
652.346	0.0161251
652.424	0.0160168
652.502	0.0159451
652.580	0.0160075
652.658	0.0159386
652.736	0.0159360
652.814	0.0158904
652.892	0.0159486
652.971	0.0159825
653.049	0.0159386
653.127	0.0158807
653.205	0.0160285
653.283	0.0160534
653.361	0.0159739
653.439	0.0159143
653.517	0.0160396
653.596	0.0160408
653.674	0.0158611
653.752	0.0158789
653.830	0.0161293
653.908	0.0160849
653.986	0.0160130
654.064	0.0159593
654.142	0.0157879
654.221	0.0160686
654.299	0.0160473
654.377	0.0160963
654.455	0.0159825
654.533	0.0159478
654.611	0.0159785
654.689	0.0160802
654.767	0.0160043
654.846	0.0160499
654.924	0.0159636
655.002	0.0160520
655.080	0.0160114
655.158	0.0160004
655.236	0.0160617
655.314	0.0160950
655.392	0.0161167
655.471	0.0160483
655.549	0.0160146
655.627	0.0160567
655.705	0.0160331
655.783	0.0159200
655.861	0.0159987
655.939	0.0161205
656.017	0.0160245
656.096	0.0162116
656.174	0.0160417
656.252	0.0159845
656.330	0.0160035
656.408	0.0160543
656.486	0.0159731
656.564	0.0160925
656.642	0.0159002
656.721	0.0161182
656.799	0.0159468
656.877	0.0160381
656.955	0.0159540
657.033	0.0160551
657.111	0.0160648
657.189	0.0159894
657.267	0.0160094
657.346	0.0161054
657.424	0.0159851
657.502	0.0159734
657.580	0.0161320
657.658	0.0159466
657.736	0.0159761
657.814	0.0159884
657.892	0.0159510
657.971	0.0160744
658.049	0.0161124
658.127	0.0160448
658.205	0.0160439
658.283	0.0160275
658.361	0.0159084
658.439	0.0159499
658.517	0.0159386
658.596	0.0159286
658.674	0.0160158
658.752	0.0160654
658.830	0.0160726
658.908	0.0160228
658.986	0.0159531
659.064	0.0160531
659.142	0.0159728
659.221	0.0159085
659.299	0.0158391
659.377	0.0159789
659.455	0.0159801
659.533	0.0160094
659.611	0.0159551
659.689	0.0161169
659.767	0.0160612
659.846	0.0158945
659.924	0.0160061
660.002	0.0159730
660.080	0.0159267
660.158	0.0159453
660.236	0.0160431
660.314	0.0160665
660.392	0.0159986
660.471	0.0159525
660.549	0.0160715
660.627	0.0160499
660.705	0.0159065
660.783	0.0159908
660.861	0.0160548
660.939	0.0159907
661.017	0.0160606
661.096	0.0161031
661.174	0.0160824
661.252	0.0160277
661.330	0.0159666
661.408	0.0160238
661.486	0.0160422
661.564	0.0159438
661.642	0.0160522
661.721	0.0159987
661.799	0.0160435
661.877	0.0161191
661.955	0.0160450
662.033	0.0159808
662.111	0.0159816
662.189	0.0160319
662.267	0.0159687
662.346	0.0159966
662.424	0.0160550
662.502	0.0159681
662.580	0.0160312
662.658	0.0160484
662.736	0.0159375
662.814	0.0159043
662.892	0.0159416
662.971	0.0161282
663.049	0.0161160
663.127	0.0159956
663.205	0.0159476
663.283	0.0160828
663.361	0.0160042
663.439	0.0161226
663.517	0.0161114
663.596	0.0159519
663.674	0.0159348
663.752	0.0160448
663.830	0.0159975
663.908	0.0159890
663.986	0.0159792
664.064	0.0160954
664.142	0.0159882
664.221	0.0159768
664.299	0.0160320
664.377	0.0158652
664.455	0.0159545
664.533	0.0159093
664.611	0.0160038
664.689	0.0160818
664.767	0.0159404
664.846	0.0158614
664.924	0.0159155
665.002	0.0159203
665.080	0.0159210
665.158	0.0159615
665.236	0.0158774
665.314	0.0160011
665.392	0.0159016
665.471	0.0159811
665.549	0.0158733
665.627	0.0159883
665.705	0.0160809
665.783	0.0160107
665.861	0.0159165
665.939	0.0158514
666.017	0.0160010
666.096	0.0160010
666.174	0.0159960
666.252	0.0159973
666.330	0.0160873
666.408	0.0159586
666.486	0.0161466
666.564	0.0160130
666.642	0.0158743
666.721	0.0160063
666.799	0.0160171
666.877	0.0158802
666.955	0.0159035
667.033	0.0159921
667.111	0.0159177
667.189	0.0160429
667.267	0.0160477
667.346	0.0160031
667.424	0.0160485
667.502	0.0159444
667.580	0.0159658
667.658	0.0160538
667.736	0.0159825
667.814	0.0158397
667.892	0.0160411
667.971	0.0159079
668.049	0.0158697
668.127	0.0159872
668.205	0.0159170
668.283	0.0159685
668.361	0.0161064
668.439	0.0159735
668.517	0.0159221
668.596	0.0159287
668.674	0.0160861
668.752	0.0160024
668.830	0.0159818
668.908	0.0159320
668.986	0.0160406
669.064	0.0160594
669.142	0.0159170
669.221	0.0159381
669.299	0.0159208
669.377	0.0160474
669.455	0.0160135
669.533	0.0160252
669.611	0.0159764
669.689	0.0159465
669.767	0.0158257
669.846	0.0158939
669.924	0.0161412
670.002	0.0160616
670.080	0.0159725
670.158	0.0159362
670.236	0.0160412
670.314	0.0160410
670.392	0.0159161
670.471	0.0160048
670.549	0.0159786
670.627	0.0159824
670.705	0.0159791
670.783	0.0159720
670.861	0.0161767
670.939	0.0160613
671.017	0.0160819
671.096	0.0162090
671.174	0.0161056
671.252	0.0161485
671.330	0.0161062
671.408	0.0160474
671.486	0.0160534
671.564	0.0161008
671.642	0.0161276
671.721	0.0160362
671.799	0.0161507
671.877	0.0162669
671.955	0.0161634
672.033	0.0161723
672.111	0.0160426
672.189	0.0161246
672.267	0.0161275
672.346	0.0161982
672.424	0.0162047
672.502	0.0161239
672.580	0.0162378
672.658	0.0161639
672.736	0.0160783
672.814	0.0159523
672.892	0.0162392
672.971	0.0161238
673.049	0.0162143
673.127	0.0162106
673.205	0.0161700
673.283	0.0161011
673.361	0.0160684
673.439	0.0159969
673.517	0.0161733
673.596	0.0161938
673.674	0.0160732
673.752	0.0161751
673.830	0.0161624
673.908	0.0160674
673.986	0.0161166
674.064	0.0161279
674.142	0.0161234
674.221	0.0160469
674.299	0.0161042
674.377	0.0159887
674.455	0.0162323
674.533	0.0161103
674.611	0.0161212
674.689	0.0161559
674.767	0.0160917
674.846	0.0160092
674.924	0.0159732
675.002	0.0161267
675.080	0.0161278
675.158	0.0160157
675.236	0.0159152
675.314	0.0160271
675.392	0.0159595
675.471	0.0161533
675.549	0.0159282
675.627	0.0161048
675.705	0.0159806
675.783	0.0160201
675.861	0.0158913
675.939	0.0159586
676.017	0.0159854
676.096	0.0158439
676.174	0.0159432
676.252	0.0159687
676.330	0.0161578
676.408	0.0159435
676.486	0.0159858
676.564	0.0160175
676.642	0.0160243
676.721	0.0158689
676.799	0.0159931
676.877	0.0158573
676.955	0.0159258
677.033	0.0158190
677.111	0.0158574
677.189	0.0159277
677.267	0.0160588
677.346	0.0159904
677.424	0.0157711
677.502	0.0160544
677.580	0.0160067
677.658	0.0158318
677.736	0.0159039
677.814	0.0160863
677.892	0.0159859
677.971	0.0159549
678.049	0.0160983
678.127	0.0160007
678.205	0.0159047
678.283	0.0159298
678.361	0.0159213
678.439	0.0159113
678.517	0.0158459
678.596	0.0160214
678.674	0.0160241
678.752	0.0159591
678.830	0.0158574
678.908	0.0159489
678.986	0.0159419
679.064	0.0159232
679.142	0.0161211
679.221	0.0160803
679.299	0.0160019
679.377	0.0159696
679.455	0.0160741
679.533	0.0161010
679.611	0.0159549
679.689	0.0159378
679.767	0.0158918
679.846	0.0162033
679.924	0.0160737
680.002	0.0161491
680.080	0.0159783
680.158	0.0159547
680.236	0.0160831
680.314	0.0160233
680.392	0.0160939
680.471	0.0160294
680.549	0.0161146
680.627	0.0161517
680.705	0.0161205
680.783	0.0160610
680.861	0.0160893
680.939	0.0160914
681.017	0.0161465
681.096	0.0161375
681.174	0.0160213
681.252	0.0161143
681.330	0.0160723
681.408	0.0161636
681.486	0.0161151
681.564	0.0161092
681.642	0.0160490
681.721	0.0160499
681.799	0.0161247
681.877	0.0161502
681.955	0.0161435
682.033	0.0161517
682.111	0.0160899
682.189	0.0161971
682.267	0.0161648
682.346	0.0160605
682.424	0.0161349
682.502	0.0161895
682.580	0.0160798
682.658	0.0160085
682.736	0.0162029
682.814	0.0162367
682.892	0.0162119
682.971	0.0161195
683.049	0.0159856
683.127	0.0160773
683.205	0.0160877
683.283	0.0161494
683.361	0.0160306
683.439	0.0160474
683.517	0.0162695
683.596	0.0160852
683.674	0.0159767
683.752	0.0161568
683.830	0.0162460
683.908	0.0161826
683.986	0.0162563
684.064	0.0161087
684.142	0.0160939
684.221	0.0160950
684.299	0.0160838
684.377	0.0160936
684.455	0.0159581
684.533	0.0161459
684.611	0.0160394
684.689	0.0161082
684.767	0.0161085
684.846	0.0160776
684.924	0.0161548
685.002	0.0161039
685.080	0.0162861
685.158	0.0160992
685.236	0.0162655
685.314	0.0160427
685.392	0.0161810
685.471	0.0160992
685.549	0.0160428
685.627	0.0160885
685.705	0.0161334
685.783	0.0160950
685.861	0.0163026
685.939	0.0161478
686.017	0.0159348
686.096	0.0161416
686.174	0.0160696
686.252	0.0159876
686.330	0.0160703
686.408	0.0160887
686.486	0.0160997
686.564	0.0159962
686.642	0.0160563
686.721	0.0161321
686.799	0.0161218
686.877	0.0159846
686.955	0.0158803
687.033	0.0159885
687.111	0.0160197
687.189	0.0159329
687.267	0.0159658
687.346	0.0160499
687.424	0.0159315
687.502	0.0159418
687.580	0.0161198
687.658	0.0159603
687.736	0.0159761
687.814	0.0159499
687.892	0.0161017
687.971	0.0160180
688.049	0.0160503
688.127	0.0161068
688.205	0.0160773
688.283	0.0160750
688.361	0.0160013
688.439	0.0162028
688.517	0.0160355
688.596	0.0160575
688.674	0.0160356
688.752	0.0160426
688.830	0.0161723
688.908	0.0162186
688.986	0.0161261
689.064	0.0161968
689.142	0.0163026
689.221	0.0161905
689.299	0.0160375
689.377	0.0161244
689.455	0.0163088
689.533	0.0161004
689.611	0.0161693
689.689	0.0161759
689.767	0.0160922
689.846	0.0161462
689.924	0.0161234
690.002	0.0160757
690.080	0.0160342
690.158	0.0161020
690.236	0.0161439
690.314	0.0161601
690.392	0.0161189
690.471	0.0160577
690.549	0.0159337
690.627	0.0161153
690.705	0.0160693
690.783	0.0159537
690.861	0.0159838
690.939	0.0161263
691.017	0.0159901
691.096	0.0160561
691.174	0.0161206
691.252	0.0161403
691.330	0.0161307
691.408	0.0160627
691.486	0.0161858
691.564	0.0162452
691.642	0.0161229
691.721	0.0162407
691.799	0.0163179
691.877	0.0161503
691.955	0.0161464
692.033	0.0160312
692.111	0.0163757
692.189	0.0161084
692.267	0.0161506
692.346	0.0160448
692.424	0.0160432
692.502	0.0161256
692.580	0.0160410
692.658	0.0160493
692.736	0.0160529
692.814	0.0159332
692.892	0.0160835
692.971	0.0159082
693.049	0.0159401
693.127	0.0161420
693.205	0.0160259
693.283	0.0161352
693.361	0.0160866
693.439	0.0161540
693.517	0.0161252
693.596	0.0160545
693.674	0.0159109
693.752	0.0160703
693.830	0.0159754
693.908	0.0160050
693.986	0.0161424
694.064	0.0161909
694.142	0.0160871
694.221	0.0162057
694.299	0.0160387
694.377	0.0161324
694.455	0.0161443
694.533	0.0161984
694.611	0.0163081
694.689	0.0161538
694.767	0.0160910
694.846	0.0162812
694.924	0.0162325
695.002	0.0162141
695.080	0.0162842
695.158	0.0162151
695.236	0.0161613
695.314	0.0162351
695.392	0.0162743
695.471	0.0161182
695.549	0.0161110
695.627	0.0162461
695.705	0.0160959
695.783	0.0161309
695.861	0.0162599
695.939	0.0160011
696.017	0.0160966
696.096	0.0160952
696.174	0.0162344
696.252	0.0161125
696.330	0.0159882
696.408	0.0160138
696.486	0.0160384
696.564	0.0161043
696.642	0.0160381
696.721	0.0159686
696.799	0.0159715
696.877	0.0159055
696.955	0.0159650
697.033	0.0159295
697.111	0.0160151
697.189	0.0159693
697.267	0.0160540
697.346	0.0161278
697.424	0.0160279
697.502	0.0159650
697.580	0.0162597
697.658	0.0160238
697.736	0.0160788
697.814	0.0162198
697.892	0.0160743
697.971	0.0160922
698.049	0.0162048
698.127	0.0161494
698.205	0.0160717
698.283	0.0160628
698.361	0.0162685
698.439	0.0162630
698.517	0.0161050
698.596	0.0162930
698.674	0.0162107
698.752	0.0162539
698.830	0.0161514
698.908	0.0160548
698.986	0.0162652
699.064	0.0162666
699.142	0.0162666
699.221	0.0163142
699.299	0.0162634
699.377	0.0163254
699.455	0.0163438
699.533	0.0163174
699.611	0.0162897
699.689	0.0161726
699.767	0.0162488
699.846	0.0163438
699.924	0.0163056
700.002	0.0162424
700.080	0.0161099
700.158	0.0162202
700.236	0.0162656
700.314	0.0161822
700.392	0.0161487
700.471	0.0159509
700.549	0.0160121
700.627	0.0160873
700.705	0.0162090
700.783	0.0160926
700.861	0.0160420
700.939	0.0160584
701.017	0.0160759
701.096	0.0161269
701.174	0.0160611
701.252	0.0161875
701.330	0.0160900
701.408	0.0160409
701.486	0.0161665
701.564	0.0161222
701.642	0.0161889
701.721	0.0163817
701.799	0.0163390
701.877	0.0161320
701.955	0.0161891
702.033	0.0161146
702.111	0.0160230
702.189	0.0161372
702.267	0.0161192
702.346	0.0161113
702.424	0.0161716
702.502	0.0160674
702.580	0.0158945
702.658	0.0160204
702.736	0.0160770
702.814	0.0160417
702.892	0.0159496
702.971	0.0160568
703.049	0.0160513
703.127	0.0161181
703.205	0.0161977
703.283	0.0161118
703.361	0.0160608
703.439	0.0162462
703.517	0.0160525
703.596	0.0160860
703.674	0.0161308
703.752	0.0161973
703.830	0.0161260
703.908	0.0160814
703.986	0.0161835
704.064	0.0161487
704.142	0.0162367
704.221	0.0160941
704.299	0.0161057
704.377	0.0162465
704.455	0.0163593
704.533	0.0162797
704.611	0.0161167
704.689	0.0162303
704.767	0.0161611
704.846	0.0161887
704.924	0.0163574
705.002	0.0161748
705.080	0.0162975
705.158	0.0163583
705.236	0.0162003
705.314	0.0162464
705.392	0.0163950
705.471	0.0162401
705.549	0.0161138
705.627	0.0164361
705.705	0.0162450
705.783	0.0162678
705.861	0.0162451
705.939	0.0162017
706.017	0.0162357
706.096	0.0163670
706.174	0.0163012
706.252	0.0161356
706.330	0.0160976
706.408	0.0162410
706.486	0.0161807
706.564	0.0161034
706.642	0.0159667
706.721	0.0161449
706.799	0.0160982
706.877	0.0161353
706.955	0.0160770
707.033	0.0159723
707.111	0.0159859
707.189	0.0161249
707.267	0.0160535
707.346	0.0160162
707.424	0.0160662
707.502	0.0160418
707.580	0.0158311
707.658	0.0160149
707.736	0.0159881
707.814	0.0159904
707.892	0.0160715
707.971	0.0160571
708.049	0.0160921
708.127	0.0160430
708.205	0.0160576
708.283	0.0161447
708.361	0.0161596
708.439	0.0161354
708.517	0.0160350
708.596	0.0161899
708.674	0.0162785
708.752	0.0162505
708.830	0.0161845
708.908	0.0162669
708.986	0.0161569
709.064	0.0161723
709.142	0.0162743
709.221	0.0161776
709.299	0.0162045
709.377	0.0162186
709.455	0.0161947
709.533	0.0161131
709.611	0.0160989
709.689	0.0160709
709.767	0.0159768
709.846	0.0159616
709.924	0.0159509
710.002	0.0158619
710.080	0.0157670
710.158	0.0157516
710.236	0.0157628
710.314	0.0157196
710.392	0.0158013
710.471	0.0157008
710.549	0.0158454
710.627	0.0159335
710.705	0.0160268
710.783	0.0160227
710.861	0.0161573
710.939	0.0162370
711.017	0.0160743
711.096	0.0162264
711.174	0.0164352
711.252	0.0164317
711.330	0.0164117
711.408	0.0165134
711.486	0.0165086
711.564	0.0164637
711.642	0.0164847
711.721	0.0164054
711.799	0.0164542
711.877	0.0164456
711.955	0.0163786
712.033	0.0163077
712.111	0.0164194
712.189	0.0162921
712.267	0.0162387
712.346	0.0161454
712.424	0.0161553
712.502	0.0162093
712.580	0.0160481
712.658	0.0160957
712.736	0.0160618
712.814	0.0161394
712.892	0.0161122
712.971	0.0161146
713.049	0.0161559
713.127	0.0162343
713.205	0.0162008
713.283	0.0160990
713.361	0.0161509
713.439	0.0160913
713.517	0.0161201
713.596	0.0161575
713.674	0.0160982
713.752	0.0161444
713.830	0.0161399
713.908	0.0159651
713.986	0.0158669
714.064	0.0157534
714.142	0.0157603
714.221	0.0157426
714.299	0.0157364
714.377	0.0157237
714.455	0.0156612
714.533	0.0156551
714.611	0.0157088
714.689	0.0157733
714.767	0.0154449
714.846	0.0155859
714.924	0.0158125
715.002	0.0156548
715.080	0.0157384
715.158	0.0158128
715.236	0.0159373
715.314	0.0159328
715.392	0.0159657
715.471	0.0161094
715.549	0.0158789
715.627	0.0160838
715.705	0.0160664
715.783	0.0161352
715.861	0.0162014
715.939	0.0161942
716.017	0.0162251
716.096	0.0161201
716.174	0.0163268
716.252	0.0164014
716.330	0.0161472
716.408	0.0162597
716.486	0.0162610
716.564	0.0161899
716.642	0.0162513
716.721	0.0161588
716.799	0.0162888
716.877	0.0161370
716.955	0.0160205
717.033	0.0160382
717.111	0.0160338
717.189	0.0160172
717.267	0.0161523
717.346	0.0160014
717.424	0.0159075
717.502	0.0158248
717.580	0.0159438
717.658	0.0159142
717.736	0.0158717
717.814	0.0159934
717.892	0.0161263
717.971	0.0162378
718.049	0.0161896
718.127	0.0162050
718.205	0.0164425
718.283	0.0163593
718.361	0.0164185
718.439	0.0164466
718.517	0.0164064
718.596	0.0164808
718.674	0.0163783
718.752	0.0163381
718.830	0.0162228
718.908	0.0161998
718.986	0.0163056
719.064	0.0160564
719.142	0.0160134
719.221	0.0160644
719.299	0.0160332
719.377	0.0160128
719.455	0.0157912
719.533	0.0158939
719.611	0.0157790
719.689	0.0158863
719.767	0.0157344
719.846	0.0157971
719.924	0.0158306
720.002	0.0157140
720.080	0.0158154
720.158	0.0158387
720.236	0.0157335
720.314	0.0158227
720.392	0.0157665
720.471	0.0158680
720.549	0.0157700
720.627	0.0157119
720.705	0.0158057
720.783	0.0158582
720.861	0.0159438
720.939	0.0158679
721.017	0.0157576
721.096	0.0158138
721.174	0.0159097
721.252	0.0158859
721.330	0.0157722
721.408	0.0157297
721.486	0.0157950
721.564	0.0157613
721.642	0.0157263
721.721	0.0159731
721.799	0.0157993
721.877	0.0157475
721.955	0.0158070
722.033	0.0157722
722.111	0.0157574
722.189	0.0157854
722.267	0.0160137
722.346	0.0161341
722.424	0.0159782
722.502	0.0161203
722.580	0.0159991
722.658	0.0161618
722.736	0.0162521
722.814	0.0163873
722.892	0.0162540
722.971	0.0162877
723.049	0.0163465
723.127	0.0163955
723.205	0.0163818
723.283	0.0163278
723.361	0.0161425
723.439	0.0161461
723.517	0.0161428
723.596	0.0161568
723.674	0.0160504
723.752	0.0159835
723.830	0.0159737
723.908	0.0159116
723.986	0.0159871
724.064	0.0160109
724.142	0.0161486
724.221	0.0160564
724.299	0.0160852
724.377	0.0159920
724.455	0.0161103
724.533	0.0160618
724.611	0.0161398
724.689	0.0161600
724.767	0.0161029
724.846	0.0161242
724.924	0.0161485
725.002	0.0160051
725.080	0.0162038
725.158	0.0163452
725.236	0.0161529
725.314	0.0161167
725.392	0.0160310
725.471	0.0160985
725.549	0.0162523
725.627	0.0161522
725.705	0.0160554
725.783	0.0160560
725.861	0.0160501
725.939	0.0159340
726.017	0.0161101
726.096	0.0160883
726.174	0.0161123
726.252	0.0160927
726.330	0.0161704
726.408	0.0161514
726.486	0.0161091
726.564	0.0160580
726.642	0.0160314
726.721	0.0160719
726.799	0.0161479
726.877	0.0160361
726.955	0.0160059
727.033	0.0159386
727.111	0.0160370
727.189	0.0158178
727.267	0.0158962
727.346	0.0157331
727.424	0.0157568
727.502	0.0156633
727.580	0.0156720
727.658	0.0158874
727.736	0.0158526
727.814	0.0157783
727.892	0.0156161
727.971	0.0157079
728.049	0.0158815
728.127	0.0158690
728.205	0.0161311
728.283	0.0160124
728.361	0.0159678
728.439	0.0160196
728.517	0.0160244
728.596	0.0162325
728.674	0.0160326
728.752	0.0161995
728.830	0.0161688
728.908	0.0160900
728.986	0.0161563
729.064	0.0161789
729.142	0.0161627
729.221	0.0161926
729.299	0.0160573
729.377	0.0161540
729.455	0.0161320
729.533	0.0161437
729.611	0.0160348
729.689	0.0161125
729.767	0.0161211
729.846	0.0161295
729.924	0.0161162
730.002	0.0162733
730.080	0.0163016
730.158	0.0161935
730.236	0.0162271
730.314	0.0163597
730.392	0.0162194
730.471	0.0162907
730.549	0.0161440
730.627	0.0162406
730.705	0.0163341
730.783	0.0161149
730.861	0.0162154
730.939	0.0162101
731.017	0.0162273
731.096	0.0161213
731.174	0.0160747
731.252	0.0160597
731.330	0.0159604
731.408	0.0160069
731.486	0.0159126
731.564	0.0158481
731.642	0.0159217
731.721	0.0158749
731.799	0.0156211
731.877	0.0156586
731.955	0.0156396
732.033	0.0156534
732.111	0.0155594
732.189	0.0156333
732.267	0.0157071
732.346	0.0156161
732.424	0.0155279
732.502	0.0157164
732.580	0.0158311
732.658	0.0158173
732.736	0.0158213
732.814	0.0159721
732.892	0.0159962
732.971	0.0159414
733.049	0.0160802
733.127	0.0159595
733.205	0.0161903
733.283	0.0163311
733.361	0.0164294
733.439	0.0163586
733.517	0.0162625
733.596	0.0162185
733.674	0.0163063
733.752	0.0162941
733.830	0.0162457
733.908	0.0162486
733.986	0.0163212
734.064	0.0162524
734.142	0.0162232
734.221	0.0161513
734.299	0.0159957
734.377	0.0158350
734.455	0.0159895
734.533	0.0158261
734.611	0.0158967
734.689	0.0157809
734.767	0.0157954
734.846	0.0157672
734.924	0.0157307
735.002	0.0158392
735.080	0.0157468
735.158	0.0157647
735.236	0.0156593
735.314	0.0159655
735.392	0.0158167
735.471	0.0158262
735.549	0.0158888
735.627	0.0159509
735.705	0.0158532
735.783	0.0159226
735.861	0.0159756
735.939	0.0159229
736.017	0.0159398
736.096	0.0159567
736.174	0.0160430
736.252	0.0160117
736.330	0.0160771
736.408	0.0160529
736.486	0.0160428
736.564	0.0159981
736.642	0.0160999
736.721	0.0160232
736.799	0.0162108
736.877	0.0162012
736.955	0.0162122
737.033	0.0162473
737.111	0.0163584
737.189	0.0162582
737.267	0.0163105
737.346	0.0162868
737.424	0.0163276
737.502	0.0163486
737.580	0.0162933
737.658	0.0163129
737.736	0.0161035
737.814	0.0160041
737.892	0.0161650
737.971	0.0161190
738.049	0.0159973
738.127	0.0159422
738.205	0.0157645
738.283	0.0159064
738.361	0.0157652
738.439	0.0157185
738.517	0.0157925
738.596	0.0157103
738.674	0.0158045
738.752	0.0156750
738.830	0.0158223
738.908	0.0158163
738.986	0.0158476
739.064	0.0159692
739.142	0.0158832
739.221	0.0159266
739.299	0.0160226
739.377	0.0161740
739.455	0.0160832
739.533	0.0160835
739.611	0.0161903
739.689	0.0161395
739.767	0.0163255
739.846	0.0162620
739.924	0.0162029
740.002	0.0161560
740.080	0.0161988
740.158	0.0161958
740.236	0.0160549
740.314	0.0161570
740.392	0.0161002
740.471	0.0159857
740.549	0.0158652
740.627	0.0159263
740.705	0.0158152
740.783	0.0159216
740.861	0.0159772
740.939	0.0159421
741.017	0.0158788
741.096	0.0160326
741.174	0.0159566
741.252	0.0158769
741.330	0.0159124
741.408	0.0159552
741.486	0.0160944
741.564	0.0160653
741.642	0.0160560
741.721	0.0161067
741.799	0.0162019
741.877	0.0164384
741.955	0.0163085
742.033	0.0163741
742.111	0.0163478
742.189	0.0162260
742.267	0.0163008
742.346	0.0162842
742.424	0.0164952
742.502	0.0163506
742.580	0.0163177
742.658	0.0161483
742.736	0.0161489
742.814	0.0161427
742.892	0.0159923
742.971	0.0158525
743.049	0.0157277
743.127	0.0158073
743.205	0.0156622
743.283	0.0155806
743.361	0.0156494
743.439	0.0155332
743.517	0.0155184
743.596	0.0154935
743.674	0.0154859
743.752	0.0154526
743.830	0.0155135
743.908	0.0154288
743.986	0.0156076
744.064	0.0156807
744.142	0.0159420
744.221	0.0156574
744.299	0.0158203
744.377	0.0159474
744.455	0.0159897
744.533	0.0159035
744.611	0.0158910
744.689	0.0159718
744.767	0.0160230
744.846	0.0158285
744.924	0.0160222
745.002	0.0159932
745.080	0.0160096
745.158	0.0159088
745.236	0.0159337
745.314	0.0159805
745.392	0.0159354
745.471	0.0159261
745.549	0.0159546
745.627	0.0160702
745.705	0.0158991
745.783	0.0158660
745.861	0.0159584
745.939	0.0158688
746.017	0.0159908
746.096	0.0161147
746.174	0.0160335
746.252	0.0161614
746.330	0.0162445
746.408	0.0161395
746.486	0.0162521
746.564	0.0163009
746.642	0.0164685
746.721	0.0164342
746.799	0.0164838
746.877	0.0163773
746.955	0.0164407
747.033	0.0164638
747.111	0.0163603
747.189	0.0163280
747.267	0.0163088
747.346	0.0162119
747.424	0.0162140
747.502	0.0161271
747.580	0.0162066
747.658	0.0159653
747.736	0.0160422
747.814	0.0159975
747.892	0.0157792
747.971	0.0159206
748.049	0.0158244
748.127	0.0156777
748.205	0.0158665
748.283	0.0156714
748.361	0.0156521
748.439	0.0157669
748.517	0.0157237
748.596	0.0156033
748.674	0.0157247
748.752	0.0156886
748.830	0.0156282
748.908	0.0157607
748.986	0.0157419
749.064	0.0157532
749.142	0.0158358
749.221	0.0157175
749.299	0.0157928
749.377	0.0159457
749.455	0.0160762
749.533	0.0158588
749.611	0.0158483
749.689	0.0160423
749.767	0.0159180
749.846	0.0159840
749.924	0.0159566
750.002	0.0159470
750.080	0.0158847
750.158	0.0158632
750.236	0.0159888
750.314	0.0157752
750.392	0.0158267
750.471	0.0158495
750.549	0.0158406
750.627	0.0158741
750.705	0.0159779
750.783	0.0159054
750.861	0.0160472
750.939	0.0160179
751.017	0.0160361
751.096	0.0160748
751.174	0.0161648
751.252	0.0160642
751.330	0.0161298
751.408	0.0162692
751.486	0.0164294
751.564	0.0162962
751.642	0.0162292
751.721	0.0163374
751.799	0.0163219
751.877	0.0164281
751.955	0.0162444
752.033	0.0163284
752.111	0.0163305
752.189	0.0160513
752.267	0.0161864
752.346	0.0161389
752.424	0.0160468
752.502	0.0158673
752.580	0.0159489
752.658	0.0159274
752.736	0.0159615
752.814	0.0158178
752.892	0.0157314
752.971	0.0158593
753.049	0.0159363
753.127	0.0157733
753.205	0.0156953
753.283	0.0156767
753.361	0.0155843
753.439	0.0155805
753.517	0.0155515
753.596	0.0155663
753.674	0.0155898
753.752	0.0157085
753.830	0.0155357
753.908	0.0156933
753.986	0.0157942
754.064	0.0156592
754.142	0.0156544
754.221	0.0157504
754.299	0.0157265
754.377	0.0158219
754.455	0.0156670
754.533	0.0157990
754.611	0.0158386
754.689	0.0159186
754.767	0.0159402
754.846	0.0158788
754.924	0.0158739
755.002	0.0158627
755.080	0.0158149
755.158	0.0158887
755.236	0.0158112
755.314	0.0159364
755.392	0.0158031
755.471	0.0160118
755.549	0.0161230
755.627	0.0160192
755.705	0.0161373
755.783	0.0160892
755.861	0.0160729
755.939	0.0160876
756.017	0.0160374
756.096	0.0160513
756.174	0.0160526
756.252	0.0162038
756.330	0.0160263
756.408	0.0161221
756.486	0.0162168
756.564	0.0161294
756.642	0.0160416
756.721	0.0160004
756.799	0.0161211
756.877	0.0159901
756.955	0.0159595
757.033	0.0160213
757.111	0.0159895
757.189	0.0159956
757.267	0.0159682
757.346	0.0161092
757.424	0.0157752
757.502	0.0158927
757.580	0.0158990
757.658	0.0158286
757.736	0.0157851
757.814	0.0158435
757.892	0.0157259
757.971	0.0158825
758.049	0.0159721
758.127	0.0157721
758.205	0.0157192
758.283	0.0160149
758.361	0.0158506
758.439	0.0159795
758.517	0.0158901
758.596	0.0158823
758.674	0.0161067
758.752	0.0159638
758.830	0.0160365
758.908	0.0161900
758.986	0.0161404
759.064	0.0162649
759.142	0.0161095
759.221	0.0161785
759.299	0.0162962
759.377	0.0162077
759.455	0.0162235
759.533	0.0163549
759.611	0.0162156
759.689	0.0160892
759.767	0.0162210
759.846	0.0162067
759.924	0.0161181
760.002	0.0161137
760.080	0.0160658
760.158	0.0160057
760.236	0.0161295
760.314	0.0159272
760.392	0.0160586
760.471	0.0159536
760.549	0.0159694
760.627	0.0161274
760.705	0.0160577
760.783	0.0161788
760.861	0.0161415
760.939	0.0161368
761.017	0.0161523
761.096	0.0160801
761.174	0.0161526
761.252	0.0162234
761.330	0.0162782
761.408	0.0162362
761.486	0.0163332
761.564	0.0163503
761.642	0.0162654
761.721	0.0161689
761.799	0.0161245
761.877	0.0162254
761.955	0.0162166
762.033	0.0162582
762.111	0.0161901
762.189	0.0161092
762.267	0.0161495
762.346	0.0161239
762.424	0.0160990
762.502	0.0160014
762.580	0.0161088
762.658	0.0160585
762.736	0.0162120
762.814	0.0159550
762.892	0.0160899
762.971	0.0161138
763.049	0.0161850
763.127	0.0160873
763.205	0.0162395
763.283	0.0162538
763.361	0.0162103
763.439	0.0162329
763.517	0.0163720
763.596	0.0163136
763.674	0.0162375
763.752	0.0161954
763.830	0.0162271
763.908	0.0162515
763.986	0.0163319
764.064	0.0162666
764.142	0.0161610
764.221	0.0162202
764.299	0.0162115
764.377	0.0162466
764.455	0.0162214
764.533	0.0160609
764.611	0.0160917
764.689	0.0161624
764.767	0.0161687
764.846	0.0159512
764.924	0.0159960
765.002	0.0162023
765.080	0.0161249
765.158	0.0161691
765.236	0.0162611
765.314	0.0161562
765.392	0.0162345
765.471	0.0162386
765.549	0.0161592
765.627	0.0161840
765.705	0.0160979
765.783	0.0160384
765.861	0.0160355
765.939	0.0162032
766.017	0.0162335
766.096	0.0160770
766.174	0.0160033
766.252	0.0161329
766.330	0.0160645
766.408	0.0160042
766.486	0.0159818
766.564	0.0160146
766.642	0.0160692
766.721	0.0160650
766.799	0.0159325
766.877	0.0160103
766.955	0.0161172
767.033	0.0161217
767.111	0.0161002
767.189	0.0161172
767.267	0.0160925
767.346	0.0160603
767.424	0.0160803
767.502	0.0161883
767.580	0.0161826
767.658	0.0160731
767.736	0.0160940
767.814	0.0161621
767.892	0.0164270
767.971	0.0161496
768.049	0.0160811
768.127	0.0163242
768.205	0.0162523
768.283	0.0162318
768.361	0.0162442
768.439	0.0162672
768.517	0.0162256
768.596	0.0163145
768.674	0.0162292
768.752	0.0161647
768.830	0.0160986
768.908	0.0161121
768.986	0.0162781
769.064	0.0162726
769.142	0.0161243
769.221	0.0161324
769.299	0.0161230
769.377	0.0162174
769.455	0.0160548
769.533	0.0160310
769.611	0.0160913
769.689	0.0162276
769.767	0.0161356
769.846	0.0159576
769.924	0.0160838
770.002	0.0161555
770.080	0.0161443
770.158	0.0159475
770.236	0.0160323
770.314	0.0161987
770.392	0.0161170
770.471	0.0161414
770.549	0.0162023
770.627	0.0161479
770.705	0.0161198
770.783	0.0160811
770.861	0.0162309
770.939	0.0162377
771.017	0.0160588
771.096	0.0162006
771.174	0.0160899
771.252	0.0160999
771.330	0.0159505
771.408	0.0160551
771.486	0.0160821
771.564	0.0160921
771.642	0.0160585
771.721	0.0160952
771.799	0.0160781
771.877	0.0161304
771.955	0.0160299
772.033	0.0158585
772.111	0.0159677
772.189	0.0160000
772.267	0.0159863
772.346	0.0159458
772.424	0.0161109
772.502	0.0160152
772.580	0.0159982
772.658	0.0160049
772.736	0.0160467
772.814	0.0160793
772.892	0.0160057
772.971	0.0160451
773.049	0.0160191
773.127	0.0161658
773.205	0.0161002
773.283	0.0161748
773.361	0.0162398
773.439	0.0162799
773.517	0.0161573
773.596	0.0161736
773.674	0.0163719
773.752	0.0163013
773.830	0.0161051
773.908	0.0163092
773.986	0.0162199
774.064	0.0160503
774.142	0.0162224
774.221	0.0162060
774.299	0.0162028
774.377	0.0160738
774.455	0.0161513
774.533	0.0160386
774.611	0.0159071
774.689	0.0158972
774.767	0.0160646
774.846	0.0158262
774.924	0.0159256
775.002	0.0157997
775.080	0.0158659
775.158	0.0159004
775.236	0.0158562
775.314	0.0158538
775.392	0.0159079
775.471	0.0159342
775.549	0.0159470
775.627	0.0160166
775.705	0.0160343
775.783	0.0160104
775.861	0.0160128
775.939	0.0162014
776.017	0.0162740
776.096	0.0161911
776.174	0.0161057
776.252	0.0162790
776.330	0.0162586
776.408	0.0161405
776.486	0.0162383
776.564	0.0162140
776.642	0.0161848
776.721	0.0161502
776.799	0.0161279
776.877	0.0162007
776.955	0.0161843
777.033	0.0162214
777.111	0.0160356
777.189	0.0161185
777.267	0.0161253
777.346	0.0159625
777.424	0.0159929
777.502	0.0159630
777.580	0.0159525
777.658	0.0159525
777.736	0.0160681
777.814	0.0159036
777.892	0.0160290
777.971	0.0158080
778.049	0.0158768
778.127	0.0159118
778.205	0.0159590
778.283	0.0158642
778.361	0.0159019
778.439	0.0160321
778.517	0.0158769
778.596	0.0159166
778.674	0.0159241
778.752	0.0159788
778.830	0.0160387
778.908	0.0159519
778.986	0.0160798
779.064	0.0160670
779.142	0.0159870
779.221	0.0160815
779.299	0.0160192
779.377	0.0160474
779.455	0.0161464
779.533	0.0159747
779.611	0.0161625
779.689	0.0162267
779.767	0.0161442
779.846	0.0161890
779.924	0.0160583
780.002	0.0160676
780.080	0.0160368
780.158	0.0162735
780.236	0.0161706
780.314	0.0160229
780.392	0.0161872
780.471	0.0161776
780.549	0.0161333
780.627	0.0160297
780.705	0.0161092
780.783	0.0161583
780.861	0.0161150
780.939	0.0160017
781.017	0.0158893
781.096	0.0159388
781.174	0.0161662
781.252	0.0159684
781.330	0.0159385
781.408	0.0159731
781.486	0.0160570
781.564	0.0160352
781.642	0.0160319
781.721	0.0159497
781.799	0.0159660
781.877	0.0160244
781.955	0.0161491
782.033	0.0160694
782.111	0.0161479
782.189	0.0163292
782.267	0.0162488
782.346	0.0161945
782.424	0.0162331
782.502	0.0162716
782.580	0.0162578
782.658	0.0161686
782.736	0.0164596
782.814	0.0163142
782.892	0.0162434
782.971	0.0161407
783.049	0.0161780
783.127	0.0162000
783.205	0.0161335
783.283	0.0160726
783.361	0.0160812
783.439	0.0161396
783.517	0.0161268
783.596	0.0161398
783.674	0.0161954
783.752	0.0160965
783.830	0.0160990
783.908	0.0161121
783.986	0.0161507
784.064	0.0161471
784.142	0.0160314
784.221	0.0162186
784.299	0.0161614
784.377	0.0162332
784.455	0.0162588
784.533	0.0160352
784.611	0.0161508
784.689	0.0161767
784.767	0.0160137
784.846	0.0161452
784.924	0.0161251
785.002	0.0160854
785.080	0.0160862
785.158	0.0160760
785.236	0.0161565
785.314	0.0161063
785.392	0.0160672
785.471	0.0161668
785.549	0.0161378
785.627	0.0160567
785.705	0.0160282
785.783	0.0160453
785.861	0.0161224
785.939	0.0160471
786.017	0.0161423
786.096	0.0162242
786.174	0.0161649
786.252	0.0160110
786.330	0.0162845
786.408	0.0161671
786.486	0.0162170
786.564	0.0161582
786.642	0.0162472
786.721	0.0162339
786.799	0.0160702
786.877	0.0162401
786.955	0.0162523
787.033	0.0161559
787.111	0.0161057
787.189	0.0161348
787.267	0.0161987
787.346	0.0161232
787.424	0.0162207
787.502	0.0161901
787.580	0.0161536
787.658	0.0162086
787.736	0.0160996
787.814	0.0160145
787.892	0.0160042
787.971	0.0161089
788.049	0.0161870
788.127	0.0161615
788.205	0.0161031
788.283	0.0161680
788.361	0.0161272
788.439	0.0160545
788.517	0.0161430
788.596	0.0162510
788.674	0.0161488
788.752	0.0161333
788.830	0.0161609
788.908	0.0161214
788.986	0.0160471
789.064	0.0160408
789.142	0.0161564
789.221	0.0161038
789.299	0.0161682
789.377	0.0159948
789.455	0.0160823
789.533	0.0161153
789.611	0.0161394
789.689	0.0161234
789.767	0.0161303
789.846	0.0160803
789.924	0.0160947
790.002	0.0161389
790.080	0.0161467
790.158	0.0160786
790.236	0.0158877
790.314	0.0161361
790.392	0.0160825
790.471	0.0161487
790.549	0.0161535
790.627	0.0159840
790.705	0.0160632
790.783	0.0159954
790.861	0.0161131
790.939	0.0161864
791.017	0.0160527
791.096	0.0159982
791.174	0.0159314
791.252	0.0160131
791.330	0.0161188
791.408	0.0161090
791.486	0.0159976
791.564	0.0161880
791.642	0.0161056
791.721	0.0161523
791.799	0.0160030
791.877	0.0161877
791.955	0.0160149
792.033	0.0161475
792.111	0.0159614
792.189	0.0159670
792.267	0.0160731
792.346	0.0162078
792.424	0.0160930
792.502	0.0162022
792.580	0.0160387
792.658	0.0161258
792.736	0.0160585
792.814	0.0159910
792.892	0.0161095
792.971	0.0160725
793.049	0.0162866
793.127	0.0162883
793.205	0.0161678
793.283	0.0161324
793.361	0.0161029
793.439	0.0162914
793.517	0.0162888
793.596	0.0161697
793.674	0.0162471
793.752	0.0161233
793.830	0.0161350
793.908	0.0162185
793.986	0.0160927
794.064	0.0160797
794.142	0.0161358
794.221	0.0160410
794.299	0.0161430
794.377	0.0161552
794.455	0.0161346
794.533	0.0160821
794.611	0.0159315
794.689	0.0160916
794.767	0.0161662
794.846	0.0160548
794.924	0.0161251
795.002	0.0160403
795.080	0.0160442
795.158	0.0162021
795.236	0.0161025
795.314	0.0159654
795.392	0.0160453
795.471	0.0160955
795.549	0.0160500
795.627	0.0160921
795.705	0.0160854
795.783	0.0161092
795.861	0.0160390
795.939	0.0160187
796.017	0.0161202
796.096	0.0161699
796.174	0.0160574
796.252	0.0161475
796.330	0.0162188
796.408	0.0161260
796.486	0.0162129
796.564	0.0160780
796.642	0.0162406
796.721	0.0163690
796.799	0.0163420
796.877	0.0162094
796.955	0.0161846
797.033	0.0162234
797.111	0.0162003
797.189	0.0161855
797.267	0.0162752
797.346	0.0162456
797.424	0.0162899
797.502	0.0163378
797.580	0.0161957
797.658	0.0161387
797.736	0.0162444
797.814	0.0162060
797.892	0.0161462
797.971	0.0160493
798.049	0.0159975
798.127	0.0159505
798.205	0.0161469
798.283	0.0160657
798.361	0.0160093
798.439	0.0159721
798.517	0.0160487
798.596	0.0160425
798.674	0.0158729
798.752	0.0159323
798.830	0.0160797
798.908	0.0161027
798.986	0.0162433
799.064	0.0161256
799.142	0.0160745
799.221	0.0160917
799.299	0.0161435
799.377	0.0161387
799.455	0.0161072
799.533	0.0162197
799.611	0.0161844
799.689	0.0161583
799.767	0.0162451
799.846	0.0160139
799.924	0.0161629
800.002	0.0162459
800.080	0.0162042
800.158	0.0162057
800.236	0.0161945
800.314	0.0160107
800.392	0.0161366
800.471	0.0161133
800.549	0.0159993
800.627	0.0162225
800.705	0.0161736
800.783	0.0159267
800.861	0.0159131
800.939	0.0160089
801.017	0.0160334
801.096	0.0160362
801.174	0.0159486
801.252	0.0160280
801.330	0.0161349
801.408	0.0160479
801.486	0.0161016
801.564	0.0160389
801.642	0.0160300
801.721	0.0161042
801.799	0.0162210
801.877	0.0161819
801.955	0.0161778
802.033	0.0160838
802.111	0.0161649
802.189	0.0162687
802.267	0.0162101
802.346	0.0160733
802.424	0.0163116
802.502	0.0162755
802.580	0.0161259
802.658	0.0161430
802.736	0.0161300
802.814	0.0161478
802.892	0.0162186
802.971	0.0160881
803.049	0.0161119
803.127	0.0161246
803.205	0.0159991
803.283	0.0160925
803.361	0.0161966
803.439	0.0162157
803.517	0.0161490
803.596	0.0160926
803.674	0.0160617
803.752	0.0160078
803.830	0.0160348
803.908	0.0160403
803.986	0.0160958
804.064	0.0161127
804.142	0.0160602
804.221	0.0159825
804.299	0.0158989
804.377	0.0160176
804.455	0.0159766
804.533	0.0160326
804.611	0.0158607
804.689	0.0160039
804.767	0.0159366
804.846	0.0161299
804.924	0.0160323
805.002	0.0160332
805.080	0.0160155
805.158	0.0159720
805.236	0.0160689
805.314	0.0159797
805.392	0.0159755
805.471	0.0160257
805.549	0.0162337
805.627	0.0161395
805.705	0.0160490
805.783	0.0159296
805.861	0.0159180
805.939	0.0160090
806.017	0.0160789
806.096	0.0160716
806.174	0.0160516
806.252	0.0160610
806.330	0.0160084
806.408	0.0159867
806.486	0.0159684
806.564	0.0159307
806.642	0.0159453
806.721	0.0160263
806.799	0.0160340
806.877	0.0161626
806.955	0.0160486
807.033	0.0159136
807.111	0.0161048
807.189	0.0160786
807.267	0.0161098
807.346	0.0160140
807.424	0.0160625
807.502	0.0161082
807.580	0.0161777
807.658	0.0159716
807.736	0.0159911
807.814	0.0160204
807.892	0.0160797
807.971	0.0160304
808.049	0.0161418
808.127	0.0160567
808.205	0.0161446
808.283	0.0160572
808.361	0.0160213
808.439	0.0161253
808.517	0.0161605
808.596	0.0160661
808.674	0.0159695
808.752	0.0160690
808.830	0.0161436
808.908	0.0161100
808.986	0.0160333
809.064	0.0161311
809.142	0.0160146
809.221	0.0162093
809.299	0.0161526
809.377	0.0159064
809.455	0.0160352
809.533	0.0162138
809.611	0.0159831
809.689	0.0159702
809.767	0.0161319
809.846	0.0160463
809.924	0.0160863
810.002	0.0160550
810.080	0.0160307
810.158	0.0158322
810.236	0.0159455
810.314	0.0160638
810.392	0.0161114
810.471	0.0158623
810.549	0.0159876
810.627	0.0159024
810.705	0.0159722
810.783	0.0161001
810.861	0.0162517
810.939	0.0159011
811.017	0.0158603
811.096	0.0159965
811.174	0.0161584
811.252	0.0160479
811.330	0.0159078
811.408	0.0158681
811.486	0.0160860
811.564	0.0159923
811.642	0.0159166
811.721	0.0160587
811.799	0.0161375
811.877	0.0159871
811.955	0.0160687
812.033	0.0159676
812.111	0.0160397
812.189	0.0160194
812.267	0.0161039
812.346	0.0161765
812.424	0.0160565
812.502	0.0160096
812.580	0.0161044
812.658	0.0162757
812.736	0.0161993
812.814	0.0160793
812.892	0.0160796
812.971	0.0162422
813.049	0.0160537
813.127	0.0160456
813.205	0.0161358
813.283	0.0160788
813.361	0.0160680
813.439	0.0160754
813.517	0.0160883
813.596	0.0160767
813.674	0.0161094
813.752	0.0160169
813.830	0.0158708
813.908	0.0160941
813.986	0.0160016
814.064	0.0160207
814.142	0.0160793
814.221	0.0160711
814.299	0.0160675
814.377	0.0161348
814.455	0.0160954
814.533	0.0162400
814.611	0.0159459
814.689	0.0160165
814.767	0.0161040
814.846	0.0159972
814.924	0.0159311
815.002	0.0161503
815.080	0.0160601
815.158	0.0160412
815.236	0.0161112
815.314	0.0160914
815.392	0.0161364
815.471	0.0160336
815.549	0.0160436
815.627	0.0161160
815.705	0.0161362
815.783	0.0158340
815.861	0.0160009
815.939	0.0160409
816.017	0.0160726
816.096	0.0160405
816.174	0.0160449
816.252	0.0160227
816.330	0.0160132
816.408	0.0159744
816.486	0.0160914
816.564	0.0159702
816.642	0.0159933
816.721	0.0160693
816.799	0.0160528
816.877	0.0159788
816.955	0.0162067
817.033	0.0160364
817.111	0.0159811
817.189	0.0158798
817.267	0.0160218
817.346	0.0159979
817.424	0.0159645
817.502	0.0159222
817.580	0.0159052
817.658	0.0159817
817.736	0.0159323
817.814	0.0160299
817.892	0.0160622
817.971	0.0159470
818.049	0.0159648
818.127	0.0159249
818.205	0.0159570
818.283	0.0159959
818.361	0.0160299
818.439	0.0159171
818.517	0.0159415
818.596	0.0160055
818.674	0.0158843
818.752	0.0159161
818.830	0.0160252
818.908	0.0159462
818.986	0.0159856
819.064	0.0161619
819.142	0.0160110
819.221	0.0160802
819.299	0.0159622
819.377	0.0160235
819.455	0.0162924
819.533	0.0159301
819.611	0.0158121
819.689	0.0160467
819.767	0.0160180
819.846	0.0162008
819.924	0.0160434
820.002	0.0160046
820.080	0.0159708
820.158	0.0160085
820.236	0.0159901
820.314	0.0159593
820.392	0.0158967
820.471	0.0159042
820.549	0.0160107
820.627	0.0158720
820.705	0.0158694
820.783	0.0160042
820.861	0.0159943
820.939	0.0159332
821.017	0.0159003
821.096	0.0158744
821.174	0.0159895
821.252	0.0161742
821.330	0.0160231
821.408	0.0159964
821.486	0.0160792
821.564	0.0161274
821.642	0.0161038
821.721	0.0160259
821.799	0.0160754
821.877	0.0160441
821.955	0.0160563
822.033	0.0161833
822.111	0.0160426
822.189	0.0160174
822.267	0.0159444
822.346	0.0159461
822.424	0.0160191
822.502	0.0160612
822.580	0.0160485
822.658	0.0161250
822.736	0.0160108
822.814	0.0159025
822.892	0.0160172
822.971	0.0160429
823.049	0.0158554
823.127	0.0158915
823.205	0.0160458
823.283	0.0159946
823.361	0.0159694
823.439	0.0158963
823.517	0.0160651
823.596	0.0159737
823.674	0.0160949
823.752	0.0160559
823.830	0.0160580
823.908	0.0160019
823.986	0.0161002
824.064	0.0160645
824.142	0.0160744
824.221	0.0161205
824.299	0.0160197
824.377	0.0159988
824.455	0.0161883
824.533	0.0161240
824.611	0.0161789
824.689	0.0160438
824.767	0.0161666
824.846	0.0161758
824.924	0.0160597
825.002	0.0161920
825.080	0.0160396
825.158	0.0160988
825.236	0.0160535
825.314	0.0161269
825.392	0.0161846
825.471	0.0160728
825.549	0.0161196
825.627	0.0161169
825.705	0.0161047
825.783	0.0161711
825.861	0.0161137
825.939	0.0160072
826.017	0.0162031
826.096	0.0163082
826.174	0.0161172
826.252	0.0162264
826.330	0.0162601
826.408	0.0161783
826.486	0.0162382
826.564	0.0161189
826.642	0.0162524
826.721	0.0161884
826.799	0.0160564
826.877	0.0161544
826.955	0.0160388
827.033	0.0161799
827.111	0.0161033
827.189	0.0160909
827.267	0.0161716
827.346	0.0161280
827.424	0.0159658
827.502	0.0159903
827.580	0.0161973
827.658	0.0161613
827.736	0.0161700
827.814	0.0160593
827.892	0.0161349
827.971	0.0160542
828.049	0.0159183
828.127	0.0161431
828.205	0.0160428
828.283	0.0159032
828.361	0.0159886
828.439	0.0158791
828.517	0.0160698
828.596	0.0159469
828.674	0.0160441
828.752	0.0161149
828.830	0.0160084
828.908	0.0160294
828.986	0.0160213
829.064	0.0158620
829.142	0.0160429
829.221	0.0161146
829.299	0.0159740
829.377	0.0161838
829.455	0.0160401
829.533	0.0161272
829.611	0.0160699
829.689	0.0162842
829.767	0.0161791
829.846	0.0161889
829.924	0.0161864
830.002	0.0161938
830.080	0.0161018
830.158	0.0160564
830.236	0.0160685
830.314	0.0160524
830.392	0.0160609
830.471	0.0160739
830.549	0.0160324
830.627	0.0160495
830.705	0.0159174
830.783	0.0160978
830.861	0.0159103
830.939	0.0159607
831.017	0.0159829
831.096	0.0159764
831.174	0.0159867
831.252	0.0159367
831.330	0.0159687
831.408	0.0160297
831.486	0.0160066
831.564	0.0160892
831.642	0.0160403
831.721	0.0159878
831.799	0.0160120
831.877	0.0162331
831.955	0.0160777
832.033	0.0159934
832.111	0.0160259
832.189	0.0160832
832.267	0.0161597
832.346	0.0161488
832.424	0.0161237
832.502	0.0160595
832.580	0.0160700
832.658	0.0161338
832.736	0.0161665
832.814	0.0160818
832.892	0.0160634
832.971	0.0161279
833.049	0.0161210
833.127	0.0161921
833.205	0.0161107
833.283	0.0160208
833.361	0.0159933
833.439	0.0160419
833.517	0.0159711
833.596	0.0160175
833.674	0.0160827
833.752	0.0161131
833.830	0.0159611
833.908	0.0158919
833.986	0.0160782
834.064	0.0160384
834.142	0.0158354
834.221	0.0160068
834.299	0.0161090
834.377	0.0159195
834.455	0.0159988
834.533	0.0160279
834.611	0.0159641
834.689	0.0159798
834.767	0.0160036
834.846	0.0160123
834.924	0.0159877
835.002	0.0161673
835.080	0.0160646
835.158	0.0159529
835.236	0.0160600
835.314	0.0159315
835.392	0.0158951
835.471	0.0158937
835.549	0.0159093
835.627	0.0157844
835.705	0.0158812
835.783	0.0159678
835.861	0.0158022
835.939	0.0159360
836.017	0.0159482
836.096	0.0159206
836.174	0.0159161
836.252	0.0160590
836.330	0.0158540
836.408	0.0159616
836.486	0.0158988
836.564	0.0159097
836.642	0.0159989
836.721	0.0160159
836.799	0.0159986
836.877	0.0159792
836.955	0.0158742
837.033	0.0159220
837.111	0.0159871
837.189	0.0159962
837.267	0.0161280
837.346	0.0160973
837.424	0.0161652
837.502	0.0159376
837.580	0.0159755
837.658	0.0161974
837.736	0.0162012
837.814	0.0159567
837.892	0.0160696
837.971	0.0161214
838.049	0.0162145
838.127	0.0160754
838.205	0.0160182
838.283	0.0160765
838.361	0.0160381
838.439	0.0159840
838.517	0.0160967
838.596	0.0160078
838.674	0.0159534
838.752	0.0160360
838.830	0.0158965
838.908	0.0159310
838.986	0.0159633
839.064	0.0160184
839.142	0.0159020
839.221	0.0159349
839.299	0.0158846
839.377	0.0159315
839.455	0.0159246
839.533	0.0160015
839.611	0.0160728
839.689	0.0161594
839.767	0.0160239
839.846	0.0160847
839.924	0.0160799
840.002	0.0160308
840.080	0.0161082
840.158	0.0160948
840.236	0.0160195
840.314	0.0160484
840.392	0.0160760
840.471	0.0159862
840.549	0.0160024
840.627	0.0160308
840.705	0.0161116
840.783	0.0159757
840.861	0.0160743
840.939	0.0160149
841.017	0.0160117
841.096	0.0159814
841.174	0.0158784
841.252	0.0160371
841.330	0.0158788
841.408	0.0159116
841.486	0.0159669
841.564	0.0157957
841.642	0.0159870
841.721	0.0160729
841.799	0.0160094
841.877	0.0160635
841.955	0.0159332
842.033	0.0160553
842.111	0.0160575
842.189	0.0161662
842.267	0.0161592
842.346	0.0161315
842.424	0.0160360
842.502	0.0161534
842.580	0.0161023
842.658	0.0160928
842.736	0.0162128
842.814	0.0162562
842.892	0.0162006
842.971	0.0161408
843.049	0.0162696
843.127	0.0161916
843.205	0.0162274
843.283	0.0160970
843.361	0.0161902
843.439	0.0163078
843.517	0.0161329
843.596	0.0161206
843.674	0.0160857
843.752	0.0161233
843.830	0.0160479
843.908	0.0160670
843.986	0.0161119
844.064	0.0161341
844.142	0.0160794
844.221	0.0160588
844.299	0.0160993
844.377	0.0160492
844.455	0.0159302
844.533	0.0160872
844.611	0.0160523
844.689	0.0159839
844.767	0.0161015
844.846	0.0160535
844.924	0.0159581
845.002	0.0161452
845.080	0.0160397
845.158	0.0159528
845.236	0.0159895
845.314	0.0159528
845.392	0.0161675
845.471	0.0159515
845.549	0.0158485
845.627	0.0161096
845.705	0.0161308
845.783	0.0160366
845.861	0.0159939
845.939	0.0159501
846.017	0.0160305
846.096	0.0161334
846.174	0.0160896
846.252	0.0160760
846.330	0.0158686
846.408	0.0161322
846.486	0.0160993
846.564	0.0160123
846.642	0.0159807
846.721	0.0160726
846.799	0.0159648
846.877	0.0160519
846.955	0.0158935
847.033	0.0158308
847.111	0.0160954
847.189	0.0158223
847.267	0.0160384
847.346	0.0159035
847.424	0.0160062
847.502	0.0161170
847.580	0.0159539
847.658	0.0159632
847.736	0.0161237
847.814	0.0162287
847.892	0.0161280
847.971	0.0161546
848.049	0.0161363
848.127	0.0161302
848.205	0.0162672
848.283	0.0161641
848.361	0.0161720
848.439	0.0161497
848.517	0.0161922
848.596	0.0160706
848.674	0.0160000
848.752	0.0160913
848.830	0.0161154
848.908	0.0159801
848.986	0.0158401
849.064	0.0159947
849.142	0.0158507
849.221	0.0158955
849.299	0.0158576
849.377	0.0159061
849.455	0.0159084
849.533	0.0160201
849.611	0.0158138
849.689	0.0158991
849.767	0.0159352
849.846	0.0159679
849.924	0.0159341
850.002	0.0158356
850.080	0.0159382
850.158	0.0160554
850.236	0.0160413
850.314	0.0161208
850.392	0.0161537
850.471	0.0161221
850.549	0.0161712
850.627	0.0159829
850.705	0.0160302
850.783	0.0160328
850.861	0.0161004
850.939	0.0161105
851.017	0.0159035
851.096	0.0160779
851.174	0.0161153
851.252	0.0159904
851.330	0.0161562
851.408	0.0159568
851.486	0.0160255
851.564	0.0160964
851.642	0.0159660
851.721	0.0159520
851.799	0.0159922
851.877	0.0161848
851.955	0.0160170
852.033	0.0158798
852.111	0.0159954
852.189	0.0159699
852.267	0.0159628
852.346	0.0159380
852.424	0.0160010
852.502	0.0159744
852.580	0.0160398
852.658	0.0160709
852.736	0.0161454
852.814	0.0160689
852.892	0.0160490
852.971	0.0160030
853.049	0.0160477
853.127	0.0160439
853.205	0.0161277
853.283	0.0161987
853.361	0.0160931
853.439	0.0160344
853.517	0.0160329
853.596	0.0159872
853.674	0.0159771
853.752	0.0160890
853.830	0.0159399
853.908	0.0160738
853.986	0.0161188
854.064	0.0161274
854.142	0.0160632
854.221	0.0159438
854.299	0.0160730
854.377	0.0161076
854.455	0.0159818
854.533	0.0159343
854.611	0.0160691
854.689	0.0159948
854.767	0.0159645
854.846	0.0160733
854.924	0.0160399
855.002	0.0160461
855.080	0.0159580
855.158	0.0161687
855.236	0.0160547
855.314	0.0159491
855.392	0.0160221
855.471	0.0160541
855.549	0.0159663
855.627	0.0161414
855.705	0.0161289
855.783	0.0160705
855.861	0.0160721
855.939	0.0160969
856.017	0.0161410
856.096	0.0159614
856.174	0.0160309
856.252	0.0161368
856.330	0.0160608
856.408	0.0159905
856.486	0.0161812
856.564	0.0161221
856.642	0.0162086
856.721	0.0161859
856.799	0.0159170
856.877	0.0161064
856.955	0.0160640
857.033	0.0161745
857.111	0.0159601
857.189	0.0160554
857.267	0.0159441
857.346	0.0158380
857.424	0.0159023
857.502	0.0158219
857.580	0.0160004
857.658	0.0159180
857.736	0.0159792
857.814	0.0161233
857.892	0.0161787
857.971	0.0159790
858.049	0.0160089
858.127	0.0160793
858.205	0.0161327
858.283	0.0162253
858.361	0.0161845
858.439	0.0161656
858.517	0.0161839
858.596	0.0163249
858.674	0.0162807
858.752	0.0162424
858.830	0.0162639
858.908	0.0162782
858.986	0.0162357
859.064	0.0162340
859.142	0.0160664
859.221	0.0162772
859.299	0.0161050
859.377	0.0161928
859.455	0.0161442
859.533	0.0160789
859.611	0.0160497
859.689	0.0162099
859.767	0.0159471
859.846	0.0158910
859.924	0.0159904
860.002	0.0159482
860.080	0.0159973
860.158	0.0161074
860.236	0.0159362
860.314	0.0160327
860.392	0.0160609
860.471	0.0161175
860.549	0.0161004
860.627	0.0161185
860.705	0.0161106
860.783	0.0161989
860.861	0.0163340
860.939	0.0163232
861.017	0.0161072
861.096	0.0161597
861.174	0.0162309
861.252	0.0162265
861.330	0.0162104
861.408	0.0161918
861.486	0.0162672
861.564	0.0163310
861.642	0.0161726
861.721	0.0163683
861.799	0.0161423
861.877	0.0162762
861.955	0.0162028
862.033	0.0161516
862.111	0.0162090
862.189	0.0161825
862.267	0.0162067
862.346	0.0161481
862.424	0.0161241
862.502	0.0161005
862.580	0.0159805
862.658	0.0160518
862.736	0.0161044
862.814	0.0162040
862.892	0.0161040
862.971	0.0161087
863.049	0.0161425
863.127	0.0161540
863.205	0.0161087
863.283	0.0162871
863.361	0.0161023
863.439	0.0160556
863.517	0.0161913
863.596	0.0161654
863.674	0.0161644
863.752	0.0161559
863.830	0.0161364
863.908	0.0162342
863.986	0.0162184
864.064	0.0161078
864.142	0.0161060
864.221	0.0161161
864.299	0.0161702
864.377	0.0162846
864.455	0.0161501
864.533	0.0161366
864.611	0.0160902
864.689	0.0161088
864.767	0.0160493
864.846	0.0161048
864.924	0.0161550
865.002	0.0161330
865.080	0.0160717
865.158	0.0160128
865.236	0.0160525
865.314	0.0160228
865.392	0.0161260
865.471	0.0160658
865.549	0.0159840
865.627	0.0161236
865.705	0.0161250
865.783	0.0161127
865.861	0.0161152
865.939	0.0160757
866.017	0.0160632
866.096	0.0161880
866.174	0.0158727
866.252	0.0160429
866.330	0.0161865
866.408	0.0161749
866.486	0.0161264
866.564	0.0161192
866.642	0.0161386
866.721	0.0162445
866.799	0.0161990
866.877	0.0159977
866.955	0.0161116
867.033	0.0161485
867.111	0.0161395
867.189	0.0161513
867.267	0.0160334
867.346	0.0160624
867.424	0.0161169
867.502	0.0160808
867.580	0.0159226
867.658	0.0159898
867.736	0.0161420
867.814	0.0159809
867.892	0.0161414
867.971	0.0161024
868.049	0.0159907
868.127	0.0160249
868.205	0.0160757
868.283	0.0160966
868.361	0.0160081
868.439	0.0160522
868.517	0.0161912
868.596	0.0161609
868.674	0.0160948
868.752	0.0161801
868.830	0.0160381
868.908	0.0162691
868.986	0.0162896
869.064	0.0161546
869.142	0.0161240
869.221	0.0161120
869.299	0.0162009
869.377	0.0160952
869.455	0.0161042
869.533	0.0161001
869.611	0.0160764
869.689	0.0160720
869.767	0.0160683
869.846	0.0159875
869.924	0.0159826
870.002	0.0160226
870.080	0.0160464
870.158	0.0161012
870.236	0.0160268
870.314	0.0160764
870.392	0.0161720
870.471	0.0161559
870.549	0.0161091
870.627	0.0160653
870.705	0.0160658
870.783	0.0160928
870.861	0.0161655
870.939	0.0160916
871.017	0.0160710
871.096	0.0161388
871.174	0.0161214
871.252	0.0161737
871.330	0.0161809
871.408	0.0160831
871.486	0.0163328
871.564	0.0161949
871.642	0.0162173
871.721	0.0161468
871.799	0.0161692
871.877	0.0161640
871.955	0.0161394
872.033	0.0161177
872.111	0.0161897
872.189	0.0161250
872.267	0.0161977
872.346	0.0161056
872.424	0.0162128
872.502	0.0160508
872.580	0.0162236
872.658	0.0160719
872.736	0.0161722
872.814	0.0160058
872.892	0.0162310
872.971	0.0162386
873.049	0.0161320
873.127	0.0162347
873.205	0.0161320
873.283	0.0162604
873.361	0.0161923
873.439	0.0161448
873.517	0.0162038
873.596	0.0162845
873.674	0.0161637
873.752	0.0161086
873.830	0.0162380
873.908	0.0161691
873.986	0.0161246
874.064	0.0162370
874.142	0.0161761
874.221	0.0160811
874.299	0.0161143
874.377	0.0161845
874.455	0.0161951
874.533	0.0161734
874.611	0.0160596
874.689	0.0162345
874.767	0.0161877
874.846	0.0161011
874.924	0.0160925
875.002	0.0161155
875.080	0.0160982
875.158	0.0161833
875.236	0.0160673
875.314	0.0160814
875.392	0.0161477
875.471	0.0161166
875.549	0.0161345
875.627	0.0161289
875.705	0.0160403
875.783	0.0160680
875.861	0.0160578
875.939	0.0161095
876.017	0.0158972
876.096	0.0158830
876.174	0.0160422
876.252	0.0160024
876.330	0.0159277
876.408	0.0160381
876.486	0.0160423
876.564	0.0158899
876.642	0.0160400
876.721	0.0158570
876.799	0.0159245
876.877	0.0158749
876.955	0.0160099
877.033	0.0159799
877.111	0.0159033
877.189	0.0159863
877.267	0.0160588
877.346	0.0160523
877.424	0.0160040
877.502	0.0159423
877.580	0.0160980
877.658	0.0160625
877.736	0.0160387
877.814	0.0160098
877.892	0.0160768
877.971	0.0160226
878.049	0.0159573
878.127	0.0159924
878.205	0.0159226
878.283	0.0159779
878.361	0.0158981
878.439	0.0160619
878.517	0.0159911
878.596	0.0160906
878.674	0.0162133
878.752	0.0159772
878.830	0.0160061
878.908	0.0161829
878.986	0.0161672
879.064	0.0160130
879.142	0.0161081
879.221	0.0159747
879.299	0.0161305
879.377	0.0160290
879.455	0.0162057
879.533	0.0161495
879.611	0.0161547
879.689	0.0160755
879.767	0.0160600
879.846	0.0161393
879.924	0.0162711
880.002	0.0161563
880.080	0.0160520
880.158	0.0160447
880.236	0.0160720
880.314	0.0161362
880.392	0.0160983
880.471	0.0161211
880.549	0.0161475
880.627	0.0161725
880.705	0.0161233
880.783	0.0160597
880.861	0.0160188
880.939	0.0160455
881.017	0.0160780
881.096	0.0161791
881.174	0.0159747
881.252	0.0161485
881.330	0.0161045
881.408	0.0160036
881.486	0.0160154
881.564	0.0161205
881.642	0.0162422
881.721	0.0162604
881.799	0.0160947
881.877	0.0160995
881.955	0.0162696
882.033	0.0163079
882.111	0.0161165
882.189	0.0161040
882.267	0.0162097
882.346	0.0161025
882.424	0.0162000
882.502	0.0161713
882.580	0.0162072
882.658	0.0161295
882.736	0.0160578
882.814	0.0161121
882.892	0.0160906
882.971	0.0161258
883.049	0.0160786
883.127	0.0161897
883.205	0.0159469
883.283	0.0160670
883.361	0.0161507
883.439	0.0161610
883.517	0.0160533
883.596	0.0160084
883.674	0.0160499
883.752	0.0162334
883.830	0.0161246
883.908	0.0161068
883.986	0.0160896
884.064	0.0160044
884.142	0.0161311
884.221	0.0161239
884.299	0.0160393
884.377	0.0161357
884.455	0.0160857
884.533	0.0160835
884.611	0.0160233
884.689	0.0161497
884.767	0.0161340
884.846	0.0160992
884.924	0.0160402
885.002	0.0161134
885.080	0.0162889
885.158	0.0161338
885.236	0.0160736
885.314	0.0162173
885.392	0.0161691
885.471	0.0161653
885.549	0.0160894
885.627	0.0160395
885.705	0.0161469
885.783	0.0160297
885.861	0.0160831
885.939	0.0160592
886.017	0.0160335
886.096	0.0161069
886.174	0.0160979
886.252	0.0159632
886.330	0.0160806
886.408	0.0159638
886.486	0.0159624
886.564	0.0159902
886.642	0.0160483
886.721	0.0160204
886.799	0.0159977
886.877	0.0160616
886.955	0.0161257
887.033	0.0160092
887.111	0.0161702
887.189	0.0160320
887.267	0.0159904
887.346	0.0160805
887.424	0.0160072
887.502	0.0160820
887.580	0.0162157
887.658	0.0161293
887.736	0.0161388
887.814	0.0162086
887.892	0.0161757
887.971	0.0161773
888.049	0.0161349
888.127	0.0160419
888.205	0.0161800
888.283	0.0161585
888.361	0.0161781
888.439	0.0161169
888.517	0.0161498
888.596	0.0160970
888.674	0.0160072
888.752	0.0161959
888.830	0.0160773
888.908	0.0161332
888.986	0.0161330
889.064	0.0159443
889.142	0.0160501
889.221	0.0160773
889.299	0.0160670
889.377	0.0160352
889.455	0.0159657
889.533	0.0161358
889.611	0.0162272
889.689	0.0160873
889.767	0.0161662
889.846	0.0162507
889.924	0.0161730
890.002	0.0160019
890.080	0.0160959
890.158	0.0161967
890.236	0.0162092
890.314	0.0161010
890.392	0.0160828
890.471	0.0162292
890.549	0.0161077
890.627	0.0161102
890.705	0.0161556
890.783	0.0160836
890.861	0.0160471
890.939	0.0160175
891.017	0.0159885
891.096	0.0161169
891.174	0.0160992
891.252	0.0159944
891.330	0.0160527
891.408	0.0159818
891.486	0.0159983
891.564	0.0159834
891.642	0.0160609
891.721	0.0161707
891.799	0.0161253
891.877	0.0159573
891.955	0.0160838
892.033	0.0161261
892.111	0.0161615
892.189	0.0161546
892.267	0.0161241
892.346	0.0161109
892.424	0.0162345
892.502	0.0162630
892.580	0.0162112
892.658	0.0162238
892.736	0.0161868
892.814	0.0161959
892.892	0.0162730
892.971	0.0161754
893.049	0.0161526
893.127	0.0161502
893.205	0.0160589
893.283	0.0161246
893.361	0.0161760
893.439	0.0161284
893.517	0.0160224
893.596	0.0159415
893.674	0.0160722
893.752	0.0160210
893.830	0.0160495
893.908	0.0160443
893.986	0.0160603
894.064	0.0161799
894.142	0.0161411
894.221	0.0159836
894.299	0.0161452
894.377	0.0161508
894.455	0.0161472
894.533	0.0162366
894.611	0.0161024
894.689	0.0161763
894.767	0.0161446
894.846	0.0161466
894.924	0.0161581
895.002	0.0161497
895.080	0.0161603
895.158	0.0161910
895.236	0.0161310
895.314	0.0161628
895.392	0.0160712
895.471	0.0161489
895.549	0.0161294
895.627	0.0159962
895.705	0.0162295
895.783	0.0160968
895.861	0.0161218
895.939	0.0162063
896.017	0.0160231
896.096	0.0161618
896.174	0.0160927
896.252	0.0162323
896.330	0.0161412
896.408	0.0160769
896.486	0.0162308
896.564	0.0161597
896.642	0.0161729
896.721	0.0161756
896.799	0.0159851
896.877	0.0161901
896.955	0.0162254
897.033	0.0161954
897.111	0.0162411
897.189	0.0161823
897.267	0.0160724
897.346	0.0160831
897.424	0.0160983
897.502	0.0162125
897.580	0.0161038
897.658	0.0160985
897.736	0.0160773
897.814	0.0162222
897.892	0.0162021
897.971	0.0161533
898.049	0.0161501
898.127	0.0161685
898.205	0.0161379
898.283	0.0162367
898.361	0.0162611
898.439	0.0162382
898.517	0.0163364
898.596	0.0161468
898.674	0.0162128
898.752	0.0162308
898.830	0.0161913
898.908	0.0163013
898.986	0.0162296
899.064	0.0161918
899.142	0.0160846
899.221	0.0161317
899.299	0.0161211
899.377	0.0160428
899.455	0.0160547
899.533	0.0160776
899.611	0.0161649
899.689	0.0160761
899.767	0.0161955
899.846	0.0160921
899.924	0.0161300
900.002	0.0159359
900.080	0.0161774
900.158	0.0161279
900.236	0.0161611
900.314	0.0162090
900.392	0.0162334
900.471	0.0161547
900.549	0.0160870
900.627	0.0159884
900.705	0.0161119
900.783	0.0161864
900.861	0.0160634
900.939	0.0160704
901.017	0.0161186
901.096	0.0159240
901.174	0.0161397
901.252	0.0160039
901.330	0.0159544
901.408	0.0159943
901.486	0.0159219
901.564	0.0160998
901.642	0.0159461
901.721	0.0159049
901.799	0.0160000
901.877	0.0159339
901.955	0.0159943
902.033	0.0159853
902.111	0.0161577
902.189	0.0160546
902.267	0.0160714
902.346	0.0161069
902.424	0.0159985
902.502	0.0161453
902.580	0.0161203
902.658	0.0160583
902.736	0.0159779
902.814	0.0159215
902.892	0.0161418
902.971	0.0162218
903.049	0.0161180
903.127	0.0159496
903.205	0.0160680
903.283	0.0160194
903.361	0.0159335
903.439	0.0161674
903.517	0.0160046
903.596	0.0159991
903.674	0.0160133
903.752	0.0160593
903.830	0.0161017
903.908	0.0160806
903.986	0.0160346
904.064	0.0159325
904.142	0.0160370
904.221	0.0159221
904.299	0.0159087
904.377	0.0159800
904.455	0.0159007
904.533	0.0159653
904.611	0.0159644
904.689	0.0159468
904.767	0.0161431
904.846	0.0160751
904.924	0.0160319
905.002	0.0159698
905.080	0.0159951
905.158	0.0160037
905.236	0.0160283
905.314	0.0160237
905.392	0.0161160
905.471	0.0160657
905.549	0.0161829
905.627	0.0160331
905.705	0.0160126
905.783	0.0160487
905.861	0.0159368
905.939	0.0159319
906.017	0.0160733
906.096	0.0159984
906.174	0.0161508
906.252	0.0160642
906.330	0.0160461
906.408	0.0159676
906.486	0.0161162
906.564	0.0161206
906.642	0.0160129
906.721	0.0160740
906.799	0.0160976
906.877	0.0159431
906.955	0.0160315
907.033	0.0160773
907.111	0.0161111
907.189	0.0160934
907.267	0.0160850
907.346	0.0160502
907.424	0.0160447
907.502	0.0159747
907.580	0.0160458
907.658	0.0158761
907.736	0.0160458
907.814	0.0161888
907.892	0.0162234
907.971	0.0161230
908.049	0.0161005
908.127	0.0160561
908.205	0.0159525
908.283	0.0161676
908.361	0.0162577
908.439	0.0161070
908.517	0.0160111
908.596	0.0160665
908.674	0.0162733
908.752	0.0160976
908.830	0.0160254
908.908	0.0159862
908.986	0.0161266
909.064	0.0160509
909.142	0.0161714
909.221	0.0160435
909.299	0.0160553
909.377	0.0159470
909.455	0.0159266
909.533	0.0159773
909.611	0.0158862
909.689	0.0159261
909.767	0.0160741
909.846	0.0160447
909.924	0.0160361
910.002	0.0160468
910.080	0.0160711
910.158	0.0161299
910.236	0.0160587
910.314	0.0159814
910.392	0.0160169
910.471	0.0160194
910.549	0.0159659
910.627	0.0160748
910.705	0.0159216
910.783	0.0160178
910.861	0.0160509
910.939	0.0161073
911.017	0.0162192
911.096	0.0160487
911.174	0.0160348
911.252	0.0159726
911.330	0.0159946
911.408	0.0161423
911.486	0.0160664
911.564	0.0159950
911.642	0.0159171
911.721	0.0159306
911.799	0.0160059
911.877	0.0159608
911.955	0.0160685
912.033	0.0160295
912.111	0.0159566
912.189	0.0160172
912.267	0.0162443
912.346	0.0160993
912.424	0.0160851
912.502	0.0160780
912.580	0.0162344
912.658	0.0160776
912.736	0.0160647
912.814	0.0159867
912.892	0.0161058
912.971	0.0159789
913.049	0.0160381
913.127	0.0161524
913.205	0.0160283
913.283	0.0160458
913.361	0.0160027
913.439	0.0161794
913.517	0.0160323
913.596	0.0159811
913.674	0.0160034
913.752	0.0161108
913.830	0.0159767
913.908	0.0161019
913.986	0.0160394
914.064	0.0160664
914.142	0.0160344
914.221	0.0162012
914.299	0.0161410
914.377	0.0160039
914.455	0.0160799
914.533	0.0160706
914.611	0.0160284
914.689	0.0161853
914.767	0.0160876
914.846	0.0160002
914.924	0.0161296
915.002	0.0160820
915.080	0.0160931
915.158	0.0162092
915.236	0.0161646
915.314	0.0160609
915.392	0.0161219
915.471	0.0160218
915.549	0.0161781
915.627	0.0162402
915.705	0.0161071
915.783	0.0159779
915.861	0.0161660
915.939	0.0160371
916.017	0.0160973
916.096	0.0161362
916.174	0.0161073
916.252	0.0161149
916.330	0.0161112
916.408	0.0162132
916.486	0.0160797
916.564	0.0161516
916.642	0.0159212
916.721	0.0159505
916.799	0.0161703
916.877	0.0161415
916.955	0.0161869
917.033	0.0161981
917.111	0.0160241
917.189	0.0161245
917.267	0.0160706
917.346	0.0161699
917.424	0.0161178
917.502	0.0160535
917.580	0.0161443
917.658	0.0161430
917.736	0.0160937
917.814	0.0161761
917.892	0.0161044
917.971	0.0162786
918.049	0.0160691
918.127	0.0161217
918.205	0.0161342
918.283	0.0162296
918.361	0.0161102
918.439	0.0160547
918.517	0.0160018
918.596	0.0160582
918.674	0.0161071
918.752	0.0160883
918.830	0.0161372
918.908	0.0160065
918.986	0.0158869
919.064	0.0161485
919.142	0.0160430
919.221	0.0158967
919.299	0.0160246
919.377	0.0161400
919.455	0.0159402
919.533	0.0160479
919.611	0.0160783
919.689	0.0159534
919.767	0.0162286
919.846	0.0160315
919.924	0.0159332
