06/29/2022	21:35:09	Ver.	4.1	UNKNOWN
Optical Delay	600.001752	Delta X		0.078125	Sweeps	1	Scan Rate	0/0
Coordinates	Axis 1	NaN	Axis 2	NaN	Axis 3	NaN	Axis 4	NaN	Axis 5	NaN	Axis 6	0.000000
TX Power	0.000000	RX Power	0.000000

600.002	0.0163857
600.080	0.0165994
600.158	0.0165497
600.236	0.0165920
600.314	0.0165329
600.392	0.0165205
600.471	0.0164959
600.549	0.0165144
600.627	0.0164866
600.705	0.0165392
600.783	0.0166135
600.861	0.0164717
600.939	0.0165882
601.017	0.0165664
601.096	0.0165448
601.174	0.0165283
601.252	0.0165247
601.330	0.0167047
601.408	0.0165340
601.486	0.0166328
601.564	0.0164283
601.642	0.0165836
601.721	0.0164907
601.799	0.0166208
601.877	0.0164754
601.955	0.0165408
602.033	0.0164493
602.111	0.0165369
602.189	0.0165913
602.267	0.0163430
602.346	0.0165543
602.424	0.0165966
602.502	0.0165651
602.580	0.0163804
602.658	0.0164993
602.736	0.0164699
602.814	0.0164725
602.892	0.0164892
602.971	0.0166145
603.049	0.0165670
603.127	0.0164790
603.205	0.0165378
603.283	0.0163827
603.361	0.0163517
603.439	0.0163583
603.517	0.0164183
603.596	0.0164424
603.674	0.0163545
603.752	0.0163794
603.830	0.0162239
603.908	0.0164589
603.986	0.0163312
604.064	0.0163274
604.142	0.0163272
604.221	0.0163635
604.299	0.0163750
604.377	0.0165098
604.455	0.0164137
604.533	0.0164634
604.611	0.0164484
604.689	0.0164761
604.767	0.0163319
604.846	0.0163528
604.924	0.0164343
605.002	0.0164821
605.080	0.0164910
605.158	0.0163891
605.236	0.0164202
605.314	0.0165672
605.392	0.0164249
605.471	0.0163845
605.549	0.0164251
605.627	0.0165519
605.705	0.0163511
605.783	0.0163847
605.861	0.0162965
605.939	0.0162400
606.017	0.0163614
606.096	0.0164256
606.174	0.0163780
606.252	0.0163649
606.330	0.0163337
606.408	0.0163672
606.486	0.0163120
606.564	0.0162892
606.642	0.0163729
606.721	0.0163712
606.799	0.0162701
606.877	0.0163784
606.955	0.0163031
607.033	0.0163757
607.111	0.0162712
607.189	0.0162860
607.267	0.0164745
607.346	0.0162482
607.424	0.0163181
607.502	0.0163725
607.580	0.0163280
607.658	0.0162681
607.736	0.0163319
607.814	0.0164455
607.892	0.0165364
607.971	0.0163590
608.049	0.0163703
608.127	0.0163863
608.205	0.0164697
608.283	0.0163108
608.361	0.0164178
608.439	0.0164090
608.517	0.0163762
608.596	0.0163838
608.674	0.0164611
608.752	0.0164771
608.830	0.0164226
608.908	0.0163831
608.986	0.0165279
609.064	0.0163970
609.142	0.0164985
609.221	0.0165628
609.299	0.0164055
609.377	0.0164189
609.455	0.0165664
609.533	0.0164877
609.611	0.0165421
609.689	0.0165102
609.767	0.0164371
609.846	0.0165655
609.924	0.0164529
610.002	0.0165793
610.080	0.0165604
610.158	0.0165627
610.236	0.0164303
610.314	0.0166343
610.392	0.0164931
610.471	0.0165668
610.549	0.0165556
610.627	0.0165996
610.705	0.0167149
610.783	0.0166001
610.861	0.0165916
610.939	0.0164793
611.017	0.0165582
611.096	0.0166446
611.174	0.0165393
611.252	0.0164349
611.330	0.0165909
611.408	0.0165315
611.486	0.0166633
611.564	0.0165443
611.642	0.0165936
611.721	0.0165430
611.799	0.0166008
611.877	0.0165810
611.955	0.0165102
612.033	0.0165724
612.111	0.0165446
612.189	0.0164085
612.267	0.0166009
612.346	0.0166213
612.424	0.0165780
612.502	0.0165807
612.580	0.0167187
612.658	0.0166670
612.736	0.0163853
612.814	0.0165414
612.892	0.0165340
612.971	0.0164767
613.049	0.0164454
613.127	0.0164567
613.205	0.0163769
613.283	0.0163763
613.361	0.0165546
613.439	0.0165784
613.517	0.0163524
613.596	0.0164288
613.674	0.0164790
613.752	0.0164297
613.830	0.0164491
613.908	0.0162623
613.986	0.0163378
614.064	0.0163944
614.142	0.0163388
614.221	0.0164356
614.299	0.0163534
614.377	0.0162359
614.455	0.0164224
614.533	0.0163639
614.611	0.0162876
614.689	0.0163402
614.767	0.0163933
614.846	0.0163807
614.924	0.0162810
615.002	0.0164959
615.080	0.0163952
615.158	0.0163229
615.236	0.0163637
615.314	0.0163586
615.392	0.0162054
615.471	0.0164767
615.549	0.0162553
615.627	0.0163979
615.705	0.0163035
615.783	0.0164139
615.861	0.0164466
615.939	0.0163136
616.017	0.0163551
616.096	0.0163076
616.174	0.0163143
616.252	0.0164516
616.330	0.0163819
616.408	0.0163670
616.486	0.0163445
616.564	0.0163570
616.642	0.0163279
616.721	0.0164449
616.799	0.0163194
616.877	0.0163654
616.955	0.0162577
617.033	0.0163432
617.111	0.0163579
617.189	0.0162663
617.267	0.0163210
617.346	0.0164483
617.424	0.0163176
617.502	0.0162708
617.580	0.0163007
617.658	0.0162634
617.736	0.0163445
617.814	0.0163668
617.892	0.0163063
617.971	0.0163029
618.049	0.0164166
618.127	0.0163375
618.205	0.0162526
618.283	0.0161868
618.361	0.0163744
618.439	0.0164227
618.517	0.0163433
618.596	0.0163996
618.674	0.0164310
618.752	0.0164102
618.830	0.0162838
618.908	0.0163717
618.986	0.0164051
619.064	0.0163188
619.142	0.0163780
619.221	0.0162906
619.299	0.0164279
619.377	0.0164526
619.455	0.0164200
619.533	0.0163931
619.611	0.0164402
619.689	0.0164297
619.767	0.0164127
619.846	0.0164575
619.924	0.0164520
620.002	0.0165104
620.080	0.0164546
620.158	0.0164503
620.236	0.0165887
620.314	0.0164950
620.392	0.0163720
620.471	0.0165575
620.549	0.0164606
620.627	0.0166631
620.705	0.0164660
620.783	0.0165851
620.861	0.0165496
620.939	0.0165516
621.017	0.0164816
621.096	0.0165186
621.174	0.0164983
621.252	0.0164325
621.330	0.0164767
621.408	0.0165359
621.486	0.0166527
621.564	0.0165530
621.642	0.0166449
621.721	0.0165459
621.799	0.0166129
621.877	0.0165043
621.955	0.0163699
622.033	0.0165643
622.111	0.0165342
622.189	0.0165797
622.267	0.0165119
622.346	0.0165257
622.424	0.0166027
622.502	0.0165449
622.580	0.0165514
622.658	0.0165708
622.736	0.0164983
622.814	0.0165141
622.892	0.0165649
622.971	0.0164410
623.049	0.0165687
623.127	0.0165556
623.205	0.0165520
623.283	0.0165292
623.361	0.0165285
623.439	0.0165792
623.517	0.0164428
623.596	0.0165379
623.674	0.0165434
623.752	0.0164647
623.830	0.0165862
623.908	0.0166689
623.986	0.0165299
624.064	0.0164538
624.142	0.0166695
624.221	0.0167435
624.299	0.0166144
624.377	0.0164944
624.455	0.0165204
624.533	0.0164532
624.611	0.0165804
624.689	0.0165980
624.767	0.0165022
624.846	0.0164502
624.924	0.0165237
625.002	0.0165240
625.080	0.0165215
625.158	0.0163784
625.236	0.0164384
625.314	0.0165516
625.392	0.0164674
625.471	0.0163454
625.549	0.0164079
625.627	0.0164081
625.705	0.0164467
625.783	0.0164875
625.861	0.0164320
625.939	0.0165401
626.017	0.0164510
626.096	0.0162912
626.174	0.0165398
626.252	0.0163732
626.330	0.0165169
626.408	0.0165597
626.486	0.0164211
626.564	0.0164508
626.642	0.0162116
626.721	0.0163274
626.799	0.0165491
626.877	0.0164107
626.955	0.0164878
627.033	0.0164006
627.111	0.0164814
627.189	0.0165513
627.267	0.0164823
627.346	0.0163316
627.424	0.0163755
627.502	0.0164423
627.580	0.0163670
627.658	0.0164532
627.736	0.0163902
627.814	0.0164368
627.892	0.0163809
627.971	0.0164671
628.049	0.0164770
628.127	0.0165093
628.205	0.0164452
628.283	0.0163365
628.361	0.0163992
628.439	0.0163645
628.517	0.0163831
628.596	0.0164423
628.674	0.0164156
628.752	0.0163419
628.830	0.0163525
628.908	0.0163673
628.986	0.0163376
629.064	0.0163401
629.142	0.0164404
629.221	0.0163911
629.299	0.0165075
629.377	0.0162452
629.455	0.0164478
629.533	0.0165018
629.611	0.0164492
629.689	0.0164700
629.767	0.0162113
629.846	0.0163239
629.924	0.0164697
630.002	0.0164537
630.080	0.0163493
630.158	0.0164738
630.236	0.0164581
630.314	0.0164433
630.392	0.0164477
630.471	0.0164072
630.549	0.0164325
630.627	0.0163554
630.705	0.0164160
630.783	0.0165259
630.861	0.0164935
630.939	0.0164034
631.017	0.0164861
631.096	0.0163826
631.174	0.0164388
631.252	0.0164640
631.330	0.0163910
631.408	0.0166092
631.486	0.0163553
631.564	0.0164671
631.642	0.0164770
631.721	0.0164832
631.799	0.0164532
631.877	0.0165388
631.955	0.0165293
632.033	0.0165014
632.111	0.0165547
632.189	0.0164697
632.267	0.0164545
632.346	0.0164977
632.424	0.0163322
632.502	0.0165762
632.580	0.0164397
632.658	0.0165764
632.736	0.0165437
632.814	0.0163547
632.892	0.0165720
632.971	0.0165067
633.049	0.0164475
633.127	0.0163988
633.205	0.0164838
633.283	0.0163844
633.361	0.0164283
633.439	0.0164249
633.517	0.0165058
633.596	0.0164796
633.674	0.0165915
633.752	0.0165119
633.830	0.0164204
633.908	0.0166250
633.986	0.0166064
634.064	0.0164025
634.142	0.0163903
634.221	0.0165513
634.299	0.0164487
634.377	0.0164365
634.455	0.0164692
634.533	0.0166429
634.611	0.0165356
634.689	0.0164152
634.767	0.0164727
634.846	0.0163923
634.924	0.0163544
635.002	0.0165070
635.080	0.0164156
635.158	0.0163213
635.236	0.0162628
635.314	0.0164313
635.392	0.0164602
635.471	0.0164819
635.549	0.0164484
635.627	0.0163978
635.705	0.0164280
635.783	0.0164067
635.861	0.0163367
635.939	0.0162801
636.017	0.0163477
636.096	0.0164112
636.174	0.0165118
636.252	0.0164875
636.330	0.0163932
636.408	0.0164545
636.486	0.0162895
636.564	0.0164121
636.642	0.0165745
636.721	0.0164795
636.799	0.0163915
636.877	0.0163888
636.955	0.0164198
637.033	0.0164334
637.111	0.0163412
637.189	0.0166026
637.267	0.0165771
637.346	0.0163596
637.424	0.0162788
637.502	0.0164748
637.580	0.0164031
637.658	0.0164277
637.736	0.0163308
637.814	0.0163784
637.892	0.0164878
637.971	0.0164426
638.049	0.0164301
638.127	0.0164333
638.205	0.0163127
638.283	0.0162329
638.361	0.0164186
638.439	0.0164673
638.517	0.0163636
638.596	0.0163239
638.674	0.0163526
638.752	0.0163362
638.830	0.0162444
638.908	0.0164288
638.986	0.0164077
639.064	0.0163784
639.142	0.0164196
639.221	0.0163371
639.299	0.0163609
639.377	0.0163166
639.455	0.0163466
639.533	0.0162661
639.611	0.0164658
639.689	0.0165514
639.767	0.0163497
639.846	0.0163097
639.924	0.0162753
640.002	0.0163455
640.080	0.0163259
640.158	0.0163554
640.236	0.0164317
640.314	0.0163637
640.392	0.0163431
640.471	0.0163976
640.549	0.0164835
640.627	0.0163315
640.705	0.0164719
640.783	0.0163637
640.861	0.0162927
640.939	0.0164107
641.017	0.0165629
641.096	0.0163705
641.174	0.0163875
641.252	0.0165311
641.330	0.0164415
641.408	0.0165200
641.486	0.0164628
641.564	0.0165318
641.642	0.0163405
641.721	0.0165054
641.799	0.0164503
641.877	0.0164151
641.955	0.0164513
642.033	0.0164313
642.111	0.0165231
642.189	0.0164794
642.267	0.0165423
642.346	0.0164719
642.424	0.0163585
642.502	0.0163869
642.580	0.0163895
642.658	0.0165210
642.736	0.0163499
642.814	0.0163057
642.892	0.0163561
642.971	0.0164291
643.049	0.0164358
643.127	0.0163456
643.205	0.0162650
643.283	0.0164220
643.361	0.0163686
643.439	0.0164348
643.517	0.0163827
643.596	0.0163738
643.674	0.0164005
643.752	0.0163258
643.830	0.0163421
643.908	0.0163962
643.986	0.0164223
644.064	0.0164067
644.142	0.0163704
644.221	0.0164998
644.299	0.0163995
644.377	0.0164933
644.455	0.0163971
644.533	0.0164479
644.611	0.0162853
644.689	0.0163528
644.767	0.0163567
644.846	0.0164201
644.924	0.0164221
645.002	0.0163642
645.080	0.0164004
645.158	0.0163743
645.236	0.0164436
645.314	0.0164664
645.392	0.0162481
645.471	0.0165294
645.549	0.0164175
645.627	0.0165328
645.705	0.0164790
645.783	0.0164212
645.861	0.0164190
645.939	0.0163316
646.017	0.0163689
646.096	0.0164191
646.174	0.0164645
646.252	0.0164559
646.330	0.0164506
646.408	0.0163670
646.486	0.0164626
646.564	0.0164778
646.642	0.0164500
646.721	0.0163992
646.799	0.0163749
646.877	0.0165212
646.955	0.0165462
647.033	0.0163226
647.111	0.0163031
647.189	0.0163416
647.267	0.0164580
647.346	0.0163673
647.424	0.0164692
647.502	0.0163448
647.580	0.0162634
647.658	0.0163403
647.736	0.0163578
647.814	0.0164368
647.892	0.0164926
647.971	0.0163773
648.049	0.0162607
648.127	0.0163050
648.205	0.0164242
648.283	0.0162729
648.361	0.0161274
648.439	0.0163523
648.517	0.0163071
648.596	0.0161562
648.674	0.0163630
648.752	0.0165108
648.830	0.0164426
648.908	0.0163720
648.986	0.0163674
649.064	0.0162804
649.142	0.0163655
649.221	0.0164218
649.299	0.0163971
649.377	0.0162424
649.455	0.0163676
649.533	0.0163695
649.611	0.0163885
649.689	0.0162618
649.767	0.0163284
649.846	0.0165084
649.924	0.0162932
650.002	0.0162720
650.080	0.0163287
650.158	0.0164352
650.236	0.0164320
650.314	0.0163438
650.392	0.0163078
650.471	0.0162859
650.549	0.0163882
650.627	0.0164176
650.705	0.0164048
650.783	0.0162083
650.861	0.0163699
650.939	0.0163997
651.017	0.0162930
651.096	0.0162654
651.174	0.0162246
651.252	0.0162943
651.330	0.0163553
651.408	0.0163027
651.486	0.0163483
651.564	0.0163727
651.642	0.0163885
651.721	0.0162934
651.799	0.0163256
651.877	0.0163831
651.955	0.0163114
652.033	0.0163663
652.111	0.0162424
652.189	0.0161992
652.267	0.0164433
652.346	0.0163357
652.424	0.0163618
652.502	0.0163500
652.580	0.0164516
652.658	0.0163245
652.736	0.0163337
652.814	0.0163721
652.892	0.0163712
652.971	0.0163361
653.049	0.0163329
653.127	0.0164813
653.205	0.0162455
653.283	0.0161836
653.361	0.0163491
653.439	0.0163549
653.517	0.0164023
653.596	0.0164458
653.674	0.0162675
653.752	0.0162658
653.830	0.0163206
653.908	0.0163659
653.986	0.0164935
654.064	0.0164916
654.142	0.0162485
654.221	0.0163132
654.299	0.0162640
654.377	0.0163055
654.455	0.0163737
654.533	0.0162150
654.611	0.0164064
654.689	0.0163977
654.767	0.0164871
654.846	0.0164593
654.924	0.0163183
655.002	0.0163227
655.080	0.0163744
655.158	0.0163717
655.236	0.0163503
655.314	0.0164416
655.392	0.0165095
655.471	0.0164260
655.549	0.0164201
655.627	0.0164486
655.705	0.0165270
655.783	0.0164515
655.861	0.0165019
655.939	0.0164495
656.017	0.0163836
656.096	0.0164207
656.174	0.0164137
656.252	0.0164817
656.330	0.0164439
656.408	0.0163771
656.486	0.0164661
656.564	0.0164494
656.642	0.0164439
656.721	0.0165983
656.799	0.0165880
656.877	0.0163828
656.955	0.0163182
657.033	0.0163525
657.111	0.0165678
657.189	0.0164121
657.267	0.0164313
657.346	0.0164359
657.424	0.0164724
657.502	0.0165108
657.580	0.0166657
657.658	0.0163905
657.736	0.0163931
657.814	0.0163385
657.892	0.0164873
657.971	0.0163752
658.049	0.0164086
658.127	0.0165017
658.205	0.0163519
658.283	0.0165584
658.361	0.0163811
658.439	0.0164912
658.517	0.0165392
658.596	0.0164050
658.674	0.0163557
658.752	0.0164805
658.830	0.0164375
658.908	0.0163667
658.986	0.0164539
659.064	0.0163582
659.142	0.0162957
659.221	0.0163566
659.299	0.0162865
659.377	0.0163849
659.455	0.0163062
659.533	0.0163464
659.611	0.0163938
659.689	0.0163849
659.767	0.0162650
659.846	0.0162608
659.924	0.0163568
660.002	0.0163224
660.080	0.0163972
660.158	0.0163070
660.236	0.0164109
660.314	0.0162312
660.392	0.0162841
660.471	0.0163131
660.549	0.0162321
660.627	0.0163200
660.705	0.0164581
660.783	0.0162144
660.861	0.0163525
660.939	0.0163398
661.017	0.0163118
661.096	0.0163106
661.174	0.0163837
661.252	0.0163108
661.330	0.0163840
661.408	0.0164785
661.486	0.0163645
661.564	0.0164747
661.642	0.0164113
661.721	0.0163251
661.799	0.0163557
661.877	0.0163033
661.955	0.0163272
662.033	0.0163364
662.111	0.0162762
662.189	0.0162749
662.267	0.0163869
662.346	0.0162927
662.424	0.0164024
662.502	0.0163549
662.580	0.0164553
662.658	0.0163338
662.736	0.0163083
662.814	0.0162786
662.892	0.0163275
662.971	0.0162323
663.049	0.0162835
663.127	0.0163612
663.205	0.0161275
663.283	0.0163042
663.361	0.0162552
663.439	0.0164594
663.517	0.0163544
663.596	0.0162659
663.674	0.0162248
663.752	0.0161657
663.830	0.0163159
663.908	0.0162950
663.986	0.0161764
664.064	0.0162890
664.142	0.0161814
664.221	0.0162910
664.299	0.0162905
664.377	0.0162510
664.455	0.0164346
664.533	0.0164250
664.611	0.0162968
664.689	0.0163942
664.767	0.0162231
664.846	0.0163481
664.924	0.0163467
665.002	0.0162436
665.080	0.0162478
665.158	0.0163370
665.236	0.0165314
665.314	0.0164738
665.392	0.0163770
665.471	0.0163324
665.549	0.0163287
665.627	0.0161894
665.705	0.0162560
665.783	0.0164232
665.861	0.0163887
665.939	0.0163083
666.017	0.0165023
666.096	0.0164697
666.174	0.0163837
666.252	0.0164403
666.330	0.0164922
666.408	0.0163640
666.486	0.0164184
666.564	0.0164367
666.642	0.0163062
666.721	0.0163718
666.799	0.0164564
666.877	0.0163673
666.955	0.0163392
667.033	0.0163777
667.111	0.0164691
667.189	0.0163573
667.267	0.0163865
667.346	0.0163683
667.424	0.0165092
667.502	0.0163821
667.580	0.0163286
667.658	0.0165207
667.736	0.0165434
667.814	0.0163815
667.892	0.0163919
667.971	0.0164803
668.049	0.0164161
668.127	0.0164120
668.205	0.0163840
668.283	0.0164551
668.361	0.0162990
668.439	0.0164258
668.517	0.0163599
668.596	0.0163143
668.674	0.0165441
668.752	0.0164355
668.830	0.0164071
668.908	0.0165082
668.986	0.0165791
669.064	0.0164365
669.142	0.0163100
669.221	0.0163676
669.299	0.0163798
669.377	0.0162936
669.455	0.0164373
669.533	0.0163680
669.611	0.0164108
669.689	0.0163608
669.767	0.0163214
669.846	0.0163428
669.924	0.0163018
670.002	0.0163879
670.080	0.0164233
670.158	0.0163625
670.236	0.0163799
670.314	0.0162937
670.392	0.0163103
670.471	0.0164478
670.549	0.0164071
670.627	0.0163210
670.705	0.0162751
670.783	0.0164598
670.861	0.0163506
670.939	0.0163704
671.017	0.0164635
671.096	0.0164145
671.174	0.0163632
671.252	0.0163761
671.330	0.0163952
671.408	0.0164110
671.486	0.0162885
671.564	0.0163697
671.642	0.0163597
671.721	0.0163773
671.799	0.0163651
671.877	0.0164667
671.955	0.0164175
672.033	0.0163074
672.111	0.0163576
672.189	0.0163780
672.267	0.0165097
672.346	0.0162437
672.424	0.0163570
672.502	0.0163995
672.580	0.0164414
672.658	0.0162793
672.736	0.0163152
672.814	0.0163351
672.892	0.0163699
672.971	0.0163548
673.049	0.0164303
673.127	0.0163190
673.205	0.0163754
673.283	0.0163773
673.361	0.0163055
673.439	0.0163844
673.517	0.0164774
673.596	0.0164674
673.674	0.0163075
673.752	0.0163024
673.830	0.0162656
673.908	0.0163479
673.986	0.0164521
674.064	0.0164459
674.142	0.0162729
674.221	0.0164264
674.299	0.0164138
674.377	0.0163583
674.455	0.0164664
674.533	0.0162689
674.611	0.0162767
674.689	0.0163470
674.767	0.0163525
674.846	0.0162521
674.924	0.0163398
675.002	0.0163836
675.080	0.0163415
675.158	0.0163294
675.236	0.0162058
675.314	0.0163330
675.392	0.0162137
675.471	0.0163123
675.549	0.0163168
675.627	0.0163467
675.705	0.0164787
675.783	0.0162582
675.861	0.0163425
675.939	0.0163689
676.017	0.0163226
676.096	0.0164051
676.174	0.0163582
676.252	0.0163817
676.330	0.0163203
676.408	0.0164007
676.486	0.0163165
676.564	0.0163607
676.642	0.0164342
676.721	0.0163189
676.799	0.0164558
676.877	0.0162930
676.955	0.0163866
677.033	0.0164910
677.111	0.0164644
677.189	0.0163840
677.267	0.0164023
677.346	0.0162151
677.424	0.0163495
677.502	0.0164464
677.580	0.0163583
677.658	0.0164124
677.736	0.0164072
677.814	0.0163549
677.892	0.0163781
677.971	0.0163959
678.049	0.0164297
678.127	0.0163107
678.205	0.0164217
678.283	0.0163827
678.361	0.0163289
678.439	0.0164462
678.517	0.0162440
678.596	0.0164409
678.674	0.0165297
678.752	0.0164938
678.830	0.0163829
678.908	0.0164362
678.986	0.0164209
679.064	0.0163825
679.142	0.0164419
679.221	0.0164060
679.299	0.0163800
679.377	0.0163802
679.455	0.0165475
679.533	0.0164831
679.611	0.0165107
679.689	0.0164684
679.767	0.0164760
679.846	0.0164422
679.924	0.0166463
680.002	0.0165272
680.080	0.0164722
680.158	0.0164960
680.236	0.0165849
680.314	0.0165438
680.392	0.0164769
680.471	0.0165051
680.549	0.0164206
680.627	0.0164017
680.705	0.0163586
680.783	0.0165402
680.861	0.0165175
680.939	0.0165624
681.017	0.0164883
681.096	0.0164677
681.174	0.0165225
681.252	0.0165499
681.330	0.0165957
681.408	0.0164429
681.486	0.0163827
681.564	0.0163724
681.642	0.0165974
681.721	0.0165171
681.799	0.0164601
681.877	0.0165691
681.955	0.0166362
682.033	0.0165279
682.111	0.0163848
682.189	0.0164494
682.267	0.0164678
682.346	0.0164283
682.424	0.0164916
682.502	0.0164462
682.580	0.0164753
682.658	0.0163795
682.736	0.0163023
682.814	0.0164321
682.892	0.0164030
682.971	0.0166676
683.049	0.0165331
683.127	0.0162853
683.205	0.0164012
683.283	0.0165106
683.361	0.0164314
683.439	0.0163541
683.517	0.0164728
683.596	0.0164726
683.674	0.0165257
683.752	0.0164228
683.830	0.0166669
683.908	0.0164359
683.986	0.0164590
684.064	0.0164883
684.142	0.0164855
684.221	0.0165694
684.299	0.0164295
684.377	0.0165492
684.455	0.0164584
684.533	0.0164748
684.611	0.0165038
684.689	0.0164186
684.767	0.0165061
684.846	0.0165835
684.924	0.0163523
685.002	0.0164857
685.080	0.0164407
685.158	0.0164391
685.236	0.0165340
685.314	0.0165874
685.392	0.0164520
685.471	0.0164594
685.549	0.0164378
685.627	0.0165099
685.705	0.0165176
685.783	0.0163259
685.861	0.0163694
685.939	0.0163858
686.017	0.0164238
686.096	0.0163540
686.174	0.0163953
686.252	0.0164462
686.330	0.0164912
686.408	0.0164907
686.486	0.0164462
686.564	0.0164548
686.642	0.0163788
686.721	0.0163505
686.799	0.0163663
686.877	0.0165105
686.955	0.0165733
687.033	0.0164198
687.111	0.0163311
687.189	0.0164313
687.267	0.0163299
687.346	0.0163958
687.424	0.0163956
687.502	0.0164280
687.580	0.0164788
687.658	0.0164757
687.736	0.0164206
687.814	0.0164835
687.892	0.0163261
687.971	0.0165171
688.049	0.0164393
688.127	0.0165150
688.205	0.0164982
688.283	0.0165086
688.361	0.0164853
688.439	0.0164255
688.517	0.0165336
688.596	0.0165595
688.674	0.0165234
688.752	0.0165958
688.830	0.0166082
688.908	0.0164861
688.986	0.0164304
689.064	0.0166022
689.142	0.0165552
689.221	0.0166032
689.299	0.0164352
689.377	0.0165552
689.455	0.0165071
689.533	0.0165585
689.611	0.0165498
689.689	0.0165028
689.767	0.0164328
689.846	0.0164693
689.924	0.0165705
690.002	0.0165161
690.080	0.0163258
690.158	0.0163144
690.236	0.0163843
690.314	0.0164633
690.392	0.0164515
690.471	0.0165663
690.549	0.0164867
690.627	0.0165822
690.705	0.0164997
690.783	0.0164227
690.861	0.0163863
690.939	0.0164874
691.017	0.0165257
691.096	0.0164941
691.174	0.0166071
691.252	0.0165188
691.330	0.0164136
691.408	0.0165908
691.486	0.0164654
691.564	0.0165804
691.642	0.0165154
691.721	0.0165344
691.799	0.0165170
691.877	0.0164088
691.955	0.0164722
692.033	0.0165005
692.111	0.0163878
692.189	0.0164396
692.267	0.0163441
692.346	0.0164432
692.424	0.0165797
692.502	0.0164950
692.580	0.0164921
692.658	0.0163033
692.736	0.0164230
692.814	0.0164391
692.892	0.0163734
692.971	0.0163223
693.049	0.0165841
693.127	0.0164954
693.205	0.0164648
693.283	0.0165059
693.361	0.0164549
693.439	0.0163236
693.517	0.0165012
693.596	0.0164616
693.674	0.0164536
693.752	0.0164893
693.830	0.0163580
693.908	0.0164068
693.986	0.0165853
694.064	0.0163906
694.142	0.0163961
694.221	0.0164948
694.299	0.0165498
694.377	0.0164095
694.455	0.0165140
694.533	0.0164239
694.611	0.0166171
694.689	0.0165314
694.767	0.0166550
694.846	0.0166218
694.924	0.0166058
695.002	0.0165465
695.080	0.0165830
695.158	0.0166135
695.236	0.0165140
695.314	0.0166325
695.392	0.0166680
695.471	0.0165054
695.549	0.0165471
695.627	0.0165617
695.705	0.0164658
695.783	0.0164980
695.861	0.0165941
695.939	0.0166073
696.017	0.0164171
696.096	0.0163480
696.174	0.0164062
696.252	0.0164156
696.330	0.0162629
696.408	0.0163304
696.486	0.0162884
696.564	0.0162641
696.642	0.0163690
696.721	0.0164136
696.799	0.0162498
696.877	0.0161703
696.955	0.0163948
697.033	0.0163777
697.111	0.0163153
697.189	0.0164661
697.267	0.0164483
697.346	0.0164928
697.424	0.0165292
697.502	0.0165643
697.580	0.0164985
697.658	0.0165387
697.736	0.0164884
697.814	0.0165566
697.892	0.0164407
697.971	0.0163340
698.049	0.0165054
698.127	0.0164886
698.205	0.0165614
698.283	0.0166500
698.361	0.0165836
698.439	0.0165458
698.517	0.0165942
698.596	0.0168044
698.674	0.0165018
698.752	0.0165015
698.830	0.0166796
698.908	0.0167205
698.986	0.0167106
699.064	0.0165620
699.142	0.0166448
699.221	0.0168581
699.299	0.0167028
699.377	0.0167073
699.455	0.0165881
699.533	0.0165813
699.611	0.0167453
699.689	0.0166724
699.767	0.0165974
699.846	0.0165707
699.924	0.0166801
700.002	0.0165990
700.080	0.0164620
700.158	0.0165485
700.236	0.0164078
700.314	0.0164609
700.392	0.0165774
700.471	0.0164995
700.549	0.0165144
700.627	0.0163334
700.705	0.0166202
700.783	0.0163988
700.861	0.0163827
700.939	0.0164917
701.017	0.0164721
701.096	0.0165266
701.174	0.0164959
701.252	0.0163003
701.330	0.0164415
701.408	0.0164745
701.486	0.0163886
701.564	0.0165744
701.642	0.0165146
701.721	0.0164157
701.799	0.0163017
701.877	0.0165976
701.955	0.0164280
702.033	0.0163079
702.111	0.0163775
702.189	0.0162222
702.267	0.0163689
702.346	0.0164319
702.424	0.0163482
702.502	0.0163454
702.580	0.0164375
702.658	0.0162424
702.736	0.0163593
702.814	0.0164222
702.892	0.0164523
702.971	0.0165639
703.049	0.0165182
703.127	0.0164252
703.205	0.0165147
703.283	0.0165012
703.361	0.0164252
703.439	0.0165752
703.517	0.0166596
703.596	0.0166013
703.674	0.0166060
703.752	0.0165109
703.830	0.0165240
703.908	0.0167361
703.986	0.0166686
704.064	0.0165708
704.142	0.0165005
704.221	0.0166029
704.299	0.0166933
704.377	0.0165462
704.455	0.0166193
704.533	0.0166811
704.611	0.0165353
704.689	0.0165521
704.767	0.0165743
704.846	0.0166573
704.924	0.0165295
705.002	0.0164756
705.080	0.0165090
705.158	0.0165372
705.236	0.0166459
705.314	0.0165744
705.392	0.0164671
705.471	0.0165175
705.549	0.0167234
705.627	0.0165309
705.705	0.0163166
705.783	0.0163685
705.861	0.0166055
705.939	0.0166621
706.017	0.0165516
706.096	0.0165732
706.174	0.0165006
706.252	0.0164866
706.330	0.0166174
706.408	0.0165635
706.486	0.0164062
706.564	0.0163047
706.642	0.0164414
706.721	0.0164610
706.799	0.0163089
706.877	0.0164076
706.955	0.0165702
707.033	0.0164133
707.111	0.0162869
707.189	0.0163953
707.267	0.0163721
707.346	0.0164629
707.424	0.0164038
707.502	0.0163747
707.580	0.0164071
707.658	0.0164382
707.736	0.0163863
707.814	0.0163310
707.892	0.0164468
707.971	0.0163435
708.049	0.0165083
708.127	0.0164592
708.205	0.0163779
708.283	0.0164182
708.361	0.0165986
708.439	0.0163950
708.517	0.0165511
708.596	0.0166162
708.674	0.0165675
708.752	0.0165212
708.830	0.0165677
708.908	0.0166389
708.986	0.0166115
709.064	0.0166794
709.142	0.0164387
709.221	0.0163554
709.299	0.0164784
709.377	0.0164707
709.455	0.0164491
709.533	0.0163745
709.611	0.0163431
709.689	0.0163694
709.767	0.0163496
709.846	0.0161931
709.924	0.0161565
710.002	0.0161507
710.080	0.0162553
710.158	0.0162688
710.236	0.0162185
710.314	0.0160955
710.392	0.0163532
710.471	0.0164334
710.549	0.0163616
710.627	0.0163836
710.705	0.0164944
710.783	0.0165668
710.861	0.0166142
710.939	0.0166311
711.017	0.0168267
711.096	0.0167552
711.174	0.0166737
711.252	0.0167409
711.330	0.0167894
711.408	0.0170271
711.486	0.0168801
711.564	0.0167257
711.642	0.0167123
711.721	0.0168872
711.799	0.0167062
711.877	0.0167686
711.955	0.0164572
712.033	0.0166070
712.111	0.0165331
712.189	0.0166025
712.267	0.0162912
712.346	0.0163025
712.424	0.0165009
712.502	0.0164308
712.580	0.0164038
712.658	0.0163863
712.736	0.0164093
712.814	0.0164023
712.892	0.0164524
712.971	0.0165376
713.049	0.0165335
713.127	0.0164629
713.205	0.0163449
713.283	0.0165080
713.361	0.0165943
713.439	0.0165153
713.517	0.0164214
713.596	0.0163390
713.674	0.0164703
713.752	0.0163911
713.830	0.0162077
713.908	0.0162576
713.986	0.0162627
714.064	0.0160874
714.142	0.0160772
714.221	0.0158968
714.299	0.0160516
714.377	0.0160191
714.455	0.0159822
714.533	0.0159866
714.611	0.0160336
714.689	0.0160671
714.767	0.0160634
714.846	0.0161205
714.924	0.0161804
715.002	0.0161769
715.080	0.0162725
715.158	0.0161922
715.236	0.0162614
715.314	0.0164779
715.392	0.0165830
715.471	0.0164092
715.549	0.0165595
715.627	0.0164969
715.705	0.0165582
715.783	0.0166145
715.861	0.0165165
715.939	0.0165158
716.017	0.0164492
716.096	0.0164995
716.174	0.0165843
716.252	0.0165800
716.330	0.0164794
716.408	0.0164468
716.486	0.0166026
716.564	0.0164033
716.642	0.0163293
716.721	0.0164000
716.799	0.0165137
716.877	0.0163996
716.955	0.0163132
717.033	0.0162137
717.111	0.0162299
717.189	0.0162714
717.267	0.0161475
717.346	0.0162268
717.424	0.0162815
717.502	0.0161629
717.580	0.0163248
717.658	0.0163137
717.736	0.0163994
717.814	0.0165103
717.892	0.0166135
717.971	0.0165597
718.049	0.0165791
718.127	0.0166640
718.205	0.0167447
718.283	0.0167539
718.361	0.0165833
718.439	0.0166338
718.517	0.0168020
718.596	0.0166382
718.674	0.0166019
718.752	0.0165310
718.830	0.0165465
718.908	0.0165031
718.986	0.0163940
719.064	0.0163494
719.142	0.0162325
719.221	0.0161686
719.299	0.0161867
719.377	0.0162268
719.455	0.0161973
719.533	0.0160237
719.611	0.0160400
719.689	0.0160251
719.767	0.0160690
719.846	0.0160719
719.924	0.0160392
720.002	0.0160797
720.080	0.0161505
720.158	0.0162189
720.236	0.0163168
720.314	0.0162567
720.392	0.0161798
720.471	0.0162275
720.549	0.0162991
720.627	0.0161642
720.705	0.0161694
720.783	0.0161592
720.861	0.0162363
720.939	0.0162997
721.017	0.0163072
721.096	0.0162602
721.174	0.0162855
721.252	0.0162297
721.330	0.0162183
721.408	0.0162624
721.486	0.0162756
721.564	0.0163287
721.642	0.0162598
721.721	0.0163586
721.799	0.0162894
721.877	0.0164827
721.955	0.0164425
722.033	0.0163956
722.111	0.0163677
722.189	0.0164542
722.267	0.0165399
722.346	0.0166863
722.424	0.0166683
722.502	0.0164583
722.580	0.0166108
722.658	0.0167713
722.736	0.0168512
722.814	0.0167414
722.892	0.0167749
722.971	0.0166711
723.049	0.0166908
723.127	0.0166441
723.205	0.0167599
723.283	0.0166669
723.361	0.0165115
723.439	0.0164902
723.517	0.0164488
723.596	0.0164561
723.674	0.0163082
723.752	0.0162632
723.830	0.0163679
723.908	0.0164494
723.986	0.0164073
724.064	0.0161987
724.142	0.0162904
724.221	0.0164786
724.299	0.0162600
724.377	0.0162879
724.455	0.0161619
724.533	0.0163699
724.611	0.0164091
724.689	0.0163296
724.767	0.0164143
724.846	0.0164307
724.924	0.0163580
725.002	0.0164323
725.080	0.0164886
725.158	0.0165195
725.236	0.0164487
725.314	0.0165733
725.392	0.0164413
725.471	0.0165545
725.549	0.0165488
725.627	0.0166140
725.705	0.0165283
725.783	0.0166714
725.861	0.0165217
725.939	0.0165618
726.017	0.0165531
726.096	0.0164978
726.174	0.0164339
726.252	0.0166179
726.330	0.0165316
726.408	0.0164725
726.486	0.0164697
726.564	0.0163446
726.642	0.0163253
726.721	0.0163194
726.799	0.0163010
726.877	0.0162830
726.955	0.0163033
727.033	0.0161292
727.111	0.0161666
727.189	0.0161405
727.267	0.0161052
727.346	0.0160651
727.424	0.0160672
727.502	0.0159811
727.580	0.0161180
727.658	0.0161288
727.736	0.0160345
727.814	0.0162373
727.892	0.0161189
727.971	0.0161851
728.049	0.0163109
728.127	0.0163277
728.205	0.0162206
728.283	0.0162810
728.361	0.0164169
728.439	0.0165398
728.517	0.0165308
728.596	0.0165341
728.674	0.0165127
728.752	0.0165685
728.830	0.0165747
728.908	0.0166258
728.986	0.0166172
729.064	0.0165567
729.142	0.0165389
729.221	0.0164561
729.299	0.0165096
729.377	0.0164649
729.455	0.0163965
729.533	0.0164319
729.611	0.0164461
729.689	0.0163214
729.767	0.0163600
729.846	0.0164076
729.924	0.0163804
730.002	0.0164402
730.080	0.0164239
730.158	0.0165329
730.236	0.0166221
730.314	0.0164074
730.392	0.0166523
730.471	0.0166318
730.549	0.0166020
730.627	0.0165403
730.705	0.0165292
730.783	0.0165495
730.861	0.0166212
730.939	0.0165619
731.017	0.0166574
731.096	0.0165358
731.174	0.0164613
731.252	0.0166051
731.330	0.0165341
731.408	0.0165351
731.486	0.0164977
731.564	0.0162611
731.642	0.0161275
731.721	0.0162710
731.799	0.0162214
731.877	0.0162162
731.955	0.0161288
732.033	0.0160857
732.111	0.0160835
732.189	0.0161689
732.267	0.0161836
732.346	0.0162231
732.424	0.0160366
732.502	0.0162251
732.580	0.0161936
732.658	0.0161639
732.736	0.0162490
732.814	0.0163728
732.892	0.0163555
732.971	0.0163980
733.049	0.0164948
733.127	0.0164259
733.205	0.0166399
733.283	0.0166254
733.361	0.0166445
733.439	0.0167532
733.517	0.0166775
733.596	0.0167809
733.674	0.0166162
733.752	0.0167961
733.830	0.0167279
733.908	0.0167866
733.986	0.0167007
734.064	0.0167159
734.142	0.0165267
734.221	0.0165343
734.299	0.0166645
734.377	0.0164219
734.455	0.0163972
734.533	0.0165308
734.611	0.0163164
734.689	0.0162960
734.767	0.0163094
734.846	0.0162054
734.924	0.0162286
735.002	0.0163202
735.080	0.0163830
735.158	0.0163795
735.236	0.0164655
735.314	0.0162770
735.392	0.0161908
735.471	0.0163982
735.549	0.0162352
735.627	0.0163211
735.705	0.0163074
735.783	0.0163424
735.861	0.0163210
735.939	0.0163395
736.017	0.0162317
736.096	0.0162009
736.174	0.0162889
736.252	0.0162194
736.330	0.0162105
736.408	0.0163719
736.486	0.0163812
736.564	0.0164194
736.642	0.0165182
736.721	0.0163815
736.799	0.0165516
736.877	0.0165626
736.955	0.0164781
737.033	0.0165866
737.111	0.0166265
737.189	0.0167995
737.267	0.0169263
737.346	0.0168522
737.424	0.0167776
737.502	0.0167773
737.580	0.0168549
737.658	0.0167040
737.736	0.0166649
737.814	0.0165910
737.892	0.0165429
737.971	0.0165638
738.049	0.0164291
738.127	0.0163015
738.205	0.0162797
738.283	0.0161697
738.361	0.0162353
738.439	0.0160425
738.517	0.0161380
738.596	0.0161752
738.674	0.0162288
738.752	0.0160673
738.830	0.0160839
738.908	0.0161024
738.986	0.0160986
739.064	0.0160163
739.142	0.0160748
739.221	0.0162024
739.299	0.0162121
739.377	0.0162839
739.455	0.0165671
739.533	0.0163412
739.611	0.0164078
739.689	0.0163696
739.767	0.0163634
739.846	0.0163310
739.924	0.0165643
740.002	0.0164554
740.080	0.0163992
740.158	0.0164514
740.236	0.0163939
740.314	0.0163332
740.392	0.0163989
740.471	0.0162918
740.549	0.0163087
740.627	0.0163750
740.705	0.0162643
740.783	0.0162749
740.861	0.0162171
740.939	0.0162431
741.017	0.0163029
741.096	0.0162170
741.174	0.0161915
741.252	0.0162578
741.330	0.0163521
741.408	0.0163841
741.486	0.0162493
741.564	0.0162666
741.642	0.0164225
741.721	0.0165587
741.799	0.0163705
741.877	0.0164369
741.955	0.0165760
742.033	0.0164606
742.111	0.0166264
742.189	0.0165567
742.267	0.0166200
742.346	0.0164950
742.424	0.0165067
742.502	0.0165649
742.580	0.0166686
742.658	0.0166399
742.736	0.0164862
742.814	0.0166228
742.892	0.0165263
742.971	0.0166657
743.049	0.0165355
743.127	0.0164284
743.205	0.0163268
743.283	0.0163398
743.361	0.0163654
743.439	0.0163544
743.517	0.0162730
743.596	0.0162184
743.674	0.0161160
743.752	0.0162091
743.830	0.0162934
743.908	0.0161711
743.986	0.0159669
744.064	0.0160155
744.142	0.0161977
744.221	0.0161895
744.299	0.0160636
744.377	0.0162808
744.455	0.0162486
744.533	0.0162876
744.611	0.0161763
744.689	0.0162428
744.767	0.0161678
744.846	0.0162746
744.924	0.0161881
745.002	0.0161879
745.080	0.0161745
745.158	0.0162214
745.236	0.0161551
745.314	0.0163448
745.392	0.0161497
745.471	0.0162015
745.549	0.0161798
745.627	0.0163361
745.705	0.0163545
745.783	0.0163473
745.861	0.0163012
745.939	0.0163719
746.017	0.0164592
746.096	0.0164998
746.174	0.0164477
746.252	0.0164892
746.330	0.0165038
746.408	0.0165585
746.486	0.0165877
746.564	0.0167632
746.642	0.0167435
746.721	0.0167280
746.799	0.0167324
746.877	0.0167983
746.955	0.0168088
747.033	0.0168003
747.111	0.0168084
747.189	0.0167473
747.267	0.0168102
747.346	0.0167789
747.424	0.0165343
747.502	0.0166362
747.580	0.0165209
747.658	0.0163976
747.736	0.0162923
747.814	0.0162617
747.892	0.0162411
747.971	0.0161040
748.049	0.0160054
748.127	0.0161276
748.205	0.0160135
748.283	0.0161492
748.361	0.0160164
748.439	0.0160238
748.517	0.0158569
748.596	0.0160198
748.674	0.0160684
748.752	0.0160329
748.830	0.0161855
748.908	0.0160151
748.986	0.0160371
749.064	0.0161610
749.142	0.0159405
749.221	0.0158965
749.299	0.0160169
749.377	0.0162073
749.455	0.0160860
749.533	0.0161967
749.611	0.0161684
749.689	0.0161846
749.767	0.0161636
749.846	0.0161301
749.924	0.0161159
750.002	0.0163394
750.080	0.0162556
750.158	0.0162991
750.236	0.0162148
750.314	0.0161942
750.392	0.0162802
750.471	0.0163562
750.549	0.0163741
750.627	0.0161983
750.705	0.0162717
750.783	0.0162043
750.861	0.0163592
750.939	0.0162498
751.017	0.0164028
751.096	0.0163757
751.174	0.0164700
751.252	0.0165485
751.330	0.0164653
751.408	0.0165589
751.486	0.0165146
751.564	0.0166859
751.642	0.0168289
751.721	0.0167632
751.799	0.0166062
751.877	0.0166795
751.955	0.0167082
752.033	0.0167521
752.111	0.0167710
752.189	0.0167045
752.267	0.0165802
752.346	0.0166837
752.424	0.0167197
752.502	0.0164840
752.580	0.0165671
752.658	0.0164642
752.736	0.0165137
752.814	0.0164346
752.892	0.0162312
752.971	0.0162964
753.049	0.0162576
753.127	0.0161263
753.205	0.0163230
753.283	0.0161643
753.361	0.0161481
753.439	0.0161812
753.517	0.0163741
753.596	0.0162510
753.674	0.0162612
753.752	0.0162459
753.830	0.0163128
753.908	0.0162451
753.986	0.0162219
754.064	0.0163017
754.142	0.0161902
754.221	0.0163196
754.299	0.0162128
754.377	0.0162415
754.455	0.0162028
754.533	0.0162602
754.611	0.0164036
754.689	0.0163358
754.767	0.0163403
754.846	0.0164004
754.924	0.0164962
755.002	0.0164992
755.080	0.0165036
755.158	0.0166152
755.236	0.0164735
755.314	0.0165036
755.392	0.0166150
755.471	0.0164642
755.549	0.0163672
755.627	0.0165049
755.705	0.0164832
755.783	0.0165611
755.861	0.0165195
755.939	0.0165509
756.017	0.0165767
756.096	0.0166147
756.174	0.0167216
756.252	0.0167197
756.330	0.0167043
756.408	0.0165303
756.486	0.0166789
756.564	0.0167665
756.642	0.0166946
756.721	0.0166991
756.799	0.0166116
756.877	0.0165262
756.955	0.0166888
757.033	0.0165663
757.111	0.0165975
757.189	0.0165957
757.267	0.0164946
757.346	0.0164652
757.424	0.0164375
757.502	0.0163596
757.580	0.0164063
757.658	0.0163998
757.736	0.0163517
757.814	0.0163738
757.892	0.0164805
757.971	0.0163719
758.049	0.0164437
758.127	0.0164770
758.205	0.0163683
758.283	0.0162952
758.361	0.0164130
758.439	0.0164046
758.517	0.0164647
758.596	0.0165649
758.674	0.0164827
758.752	0.0164185
758.830	0.0164362
758.908	0.0165319
758.986	0.0165877
759.064	0.0165105
759.142	0.0166038
759.221	0.0166224
759.299	0.0167145
759.377	0.0166279
759.455	0.0165270
759.533	0.0166674
759.611	0.0166148
759.689	0.0165646
759.767	0.0166861
759.846	0.0166452
759.924	0.0166104
760.002	0.0166232
760.080	0.0165779
760.158	0.0164257
760.236	0.0165753
760.314	0.0164245
760.392	0.0164071
760.471	0.0163344
760.549	0.0163039
760.627	0.0162694
760.705	0.0163329
760.783	0.0163958
760.861	0.0162383
760.939	0.0163535
761.017	0.0163197
761.096	0.0163478
761.174	0.0165218
761.252	0.0165576
761.330	0.0165708
761.408	0.0165313
761.486	0.0165439
761.564	0.0165485
761.642	0.0166657
761.721	0.0166100
761.799	0.0165721
761.877	0.0166531
761.955	0.0165536
762.033	0.0165619
762.111	0.0165398
762.189	0.0165903
762.267	0.0164654
762.346	0.0165957
762.424	0.0165215
762.502	0.0163840
762.580	0.0164626
762.658	0.0165057
762.736	0.0163612
762.814	0.0162303
762.892	0.0162866
762.971	0.0162915
763.049	0.0163662
763.127	0.0164054
763.205	0.0163403
763.283	0.0163867
763.361	0.0164376
763.439	0.0163654
763.517	0.0164947
763.596	0.0164706
763.674	0.0165343
763.752	0.0164999
763.830	0.0165205
763.908	0.0165019
763.986	0.0165079
764.064	0.0164713
764.142	0.0165730
764.221	0.0165566
764.299	0.0165594
764.377	0.0164188
764.455	0.0164806
764.533	0.0165303
764.611	0.0164645
764.689	0.0164979
764.767	0.0163737
764.846	0.0164485
764.924	0.0163406
765.002	0.0163338
765.080	0.0163681
765.158	0.0164168
765.236	0.0164819
765.314	0.0165090
765.392	0.0162996
765.471	0.0165043
765.549	0.0164957
765.627	0.0164394
765.705	0.0164852
765.783	0.0164572
765.861	0.0166065
765.939	0.0164304
766.017	0.0165272
766.096	0.0165837
766.174	0.0164731
766.252	0.0165549
766.330	0.0166205
766.408	0.0165136
766.486	0.0165401
766.564	0.0164637
766.642	0.0164498
766.721	0.0164681
766.799	0.0165108
766.877	0.0164518
766.955	0.0164352
767.033	0.0164064
767.111	0.0163630
767.189	0.0163622
767.267	0.0164259
767.346	0.0164734
767.424	0.0164771
767.502	0.0164587
767.580	0.0164286
767.658	0.0165023
767.736	0.0165528
767.814	0.0164660
767.892	0.0164688
767.971	0.0164319
768.049	0.0165897
768.127	0.0165022
768.205	0.0165331
768.283	0.0165125
768.361	0.0164892
768.439	0.0165263
768.517	0.0166872
768.596	0.0165982
768.674	0.0166116
768.752	0.0165701
768.830	0.0165539
768.908	0.0165981
768.986	0.0165634
769.064	0.0165879
769.142	0.0166071
769.221	0.0166090
769.299	0.0166192
769.377	0.0166186
769.455	0.0166430
769.533	0.0164996
769.611	0.0164410
769.689	0.0165449
769.767	0.0164696
769.846	0.0165446
769.924	0.0164104
770.002	0.0164130
770.080	0.0164451
770.158	0.0165265
770.236	0.0165130
770.314	0.0163336
770.392	0.0163805
770.471	0.0165462
770.549	0.0164695
770.627	0.0166785
770.705	0.0164227
770.783	0.0163287
770.861	0.0163912
770.939	0.0164278
771.017	0.0163174
771.096	0.0163993
771.174	0.0164404
771.252	0.0164485
771.330	0.0165428
771.408	0.0163850
771.486	0.0164363
771.564	0.0164396
771.642	0.0163089
771.721	0.0164011
771.799	0.0164540
771.877	0.0164164
771.955	0.0162271
772.033	0.0163310
772.111	0.0163503
772.189	0.0162469
772.267	0.0164659
772.346	0.0166067
772.424	0.0161744
772.502	0.0162435
772.580	0.0163808
772.658	0.0162936
772.736	0.0163870
772.814	0.0163594
772.892	0.0163523
772.971	0.0163465
773.049	0.0163806
773.127	0.0164168
773.205	0.0164157
773.283	0.0164589
773.361	0.0164878
773.439	0.0165525
773.517	0.0165298
773.596	0.0166329
773.674	0.0166285
773.752	0.0166740
773.830	0.0166028
773.908	0.0165369
773.986	0.0164729
774.064	0.0164671
774.142	0.0165096
774.221	0.0164658
774.299	0.0165479
774.377	0.0165656
774.455	0.0165009
774.533	0.0163668
774.611	0.0165463
774.689	0.0164748
774.767	0.0164147
774.846	0.0163424
774.924	0.0163981
775.002	0.0163076
775.080	0.0164175
775.158	0.0163255
775.236	0.0163056
775.314	0.0162724
775.392	0.0162395
775.471	0.0163277
775.549	0.0163197
775.627	0.0163496
775.705	0.0162167
775.783	0.0163372
775.861	0.0165107
775.939	0.0164381
776.017	0.0163561
776.096	0.0164727
776.174	0.0164978
776.252	0.0166039
776.330	0.0164723
776.408	0.0166676
776.486	0.0165565
776.564	0.0165778
776.642	0.0165411
776.721	0.0166850
776.799	0.0168090
776.877	0.0166213
776.955	0.0166862
777.033	0.0166266
777.111	0.0164391
777.189	0.0165079
777.267	0.0165269
777.346	0.0165276
777.424	0.0164327
777.502	0.0165492
777.580	0.0164233
777.658	0.0163200
777.736	0.0164679
777.814	0.0163815
777.892	0.0163438
777.971	0.0163567
778.049	0.0165228
778.127	0.0165259
778.205	0.0163174
778.283	0.0162866
778.361	0.0164776
778.439	0.0165316
778.517	0.0164295
778.596	0.0163530
778.674	0.0164620
778.752	0.0162762
778.830	0.0164738
778.908	0.0164753
778.986	0.0164996
779.064	0.0163570
779.142	0.0164936
779.221	0.0164333
779.299	0.0163965
779.377	0.0163575
779.455	0.0163208
779.533	0.0163697
779.611	0.0164383
779.689	0.0164355
779.767	0.0164266
779.846	0.0164403
779.924	0.0164655
780.002	0.0165528
780.080	0.0163256
780.158	0.0164964
780.236	0.0166301
780.314	0.0165273
780.392	0.0164624
780.471	0.0164879
780.549	0.0165068
780.627	0.0164002
780.705	0.0164330
780.783	0.0164509
780.861	0.0164481
780.939	0.0165170
781.017	0.0164957
781.096	0.0163778
781.174	0.0164226
781.252	0.0163953
781.330	0.0164705
781.408	0.0161739
781.486	0.0163815
781.564	0.0164284
781.642	0.0163624
781.721	0.0164869
781.799	0.0164948
781.877	0.0165305
781.955	0.0165205
782.033	0.0164786
782.111	0.0164899
782.189	0.0164164
782.267	0.0165163
782.346	0.0164620
782.424	0.0164991
782.502	0.0164966
782.580	0.0165058
782.658	0.0166512
782.736	0.0166306
782.814	0.0166661
782.892	0.0165072
782.971	0.0164867
783.049	0.0165498
783.127	0.0165661
783.205	0.0165907
783.283	0.0166285
783.361	0.0167048
783.439	0.0166658
783.517	0.0165536
783.596	0.0163341
783.674	0.0164367
783.752	0.0165511
783.830	0.0164224
783.908	0.0165149
783.986	0.0165292
784.064	0.0163864
784.142	0.0164244
784.221	0.0165108
784.299	0.0164577
784.377	0.0164993
784.455	0.0163904
784.533	0.0165163
784.611	0.0165987
784.689	0.0164352
784.767	0.0165603
784.846	0.0166421
784.924	0.0165248
785.002	0.0166198
785.080	0.0165961
785.158	0.0165926
785.236	0.0164840
785.314	0.0165381
785.392	0.0165381
785.471	0.0165083
785.549	0.0164376
785.627	0.0164751
785.705	0.0164180
785.783	0.0164210
785.861	0.0164070
785.939	0.0165110
786.017	0.0164857
786.096	0.0165427
786.174	0.0164069
786.252	0.0164905
786.330	0.0164879
786.408	0.0165298
786.486	0.0164973
786.564	0.0165823
786.642	0.0165135
786.721	0.0165696
786.799	0.0166182
786.877	0.0166250
786.955	0.0166493
787.033	0.0165862
787.111	0.0165675
787.189	0.0165507
787.267	0.0167060
787.346	0.0166113
787.424	0.0167365
787.502	0.0166084
787.580	0.0165354
787.658	0.0167657
787.736	0.0166227
787.814	0.0165128
787.892	0.0164615
787.971	0.0165507
788.049	0.0165186
788.127	0.0165474
788.205	0.0164214
788.283	0.0165459
788.361	0.0164987
788.439	0.0164400
788.517	0.0164664
788.596	0.0164481
788.674	0.0163079
788.752	0.0163542
788.830	0.0164780
788.908	0.0163097
788.986	0.0163184
789.064	0.0163509
789.142	0.0163440
789.221	0.0164570
789.299	0.0165221
789.377	0.0164528
789.455	0.0165354
789.533	0.0165351
789.611	0.0165675
789.689	0.0166019
789.767	0.0166192
789.846	0.0165873
789.924	0.0164299
790.002	0.0165680
790.080	0.0164692
790.158	0.0166489
790.236	0.0166416
790.314	0.0165671
790.392	0.0167780
790.471	0.0165515
790.549	0.0165699
790.627	0.0165526
790.705	0.0165110
790.783	0.0166514
790.861	0.0166926
790.939	0.0165536
791.017	0.0163402
791.096	0.0165997
791.174	0.0167573
791.252	0.0166538
791.330	0.0165429
791.408	0.0165182
791.486	0.0164880
791.564	0.0165461
791.642	0.0164965
791.721	0.0164744
791.799	0.0164880
791.877	0.0165054
791.955	0.0165425
792.033	0.0164454
792.111	0.0163964
792.189	0.0163129
792.267	0.0163812
792.346	0.0163844
792.424	0.0164357
792.502	0.0164576
792.580	0.0162922
792.658	0.0164963
792.736	0.0164610
792.814	0.0163956
792.892	0.0165437
792.971	0.0165142
793.049	0.0165678
793.127	0.0163947
793.205	0.0164322
793.283	0.0166039
793.361	0.0165540
793.439	0.0165361
793.517	0.0166302
793.596	0.0164759
793.674	0.0164503
793.752	0.0165568
793.830	0.0165073
793.908	0.0165133
793.986	0.0164106
794.064	0.0164624
794.142	0.0162508
794.221	0.0164113
794.299	0.0165736
794.377	0.0162902
794.455	0.0164485
794.533	0.0164867
794.611	0.0162494
794.689	0.0165135
794.767	0.0164899
794.846	0.0164182
794.924	0.0165128
795.002	0.0165220
795.080	0.0165578
795.158	0.0164727
795.236	0.0165466
795.314	0.0165440
795.392	0.0164674
795.471	0.0164539
795.549	0.0163859
795.627	0.0164246
795.705	0.0164642
795.783	0.0164332
795.861	0.0165211
795.939	0.0164624
796.017	0.0164626
796.096	0.0166309
796.174	0.0166763
796.252	0.0167091
796.330	0.0165527
796.408	0.0164327
796.486	0.0165363
796.564	0.0166851
796.642	0.0165987
796.721	0.0164222
796.799	0.0165370
796.877	0.0165863
796.955	0.0165537
797.033	0.0163816
797.111	0.0165623
797.189	0.0166280
797.267	0.0165215
797.346	0.0164580
797.424	0.0164792
797.502	0.0164896
797.580	0.0164854
797.658	0.0164761
797.736	0.0166132
797.814	0.0164378
797.892	0.0163559
797.971	0.0165721
798.049	0.0165662
798.127	0.0163691
798.205	0.0164512
798.283	0.0163687
798.361	0.0164102
798.439	0.0164179
798.517	0.0163390
798.596	0.0163715
798.674	0.0165245
798.752	0.0163625
798.830	0.0163579
798.908	0.0163326
798.986	0.0163810
799.064	0.0163638
799.142	0.0164254
799.221	0.0164720
799.299	0.0164902
799.377	0.0164564
799.455	0.0164522
799.533	0.0164502
799.611	0.0164095
799.689	0.0164989
799.767	0.0164321
799.846	0.0163879
799.924	0.0165246
800.002	0.0163863
800.080	0.0164020
800.158	0.0163129
800.236	0.0163993
800.314	0.0164775
800.392	0.0164701
800.471	0.0164209
800.549	0.0164111
800.627	0.0165215
800.705	0.0165240
800.783	0.0163157
800.861	0.0164577
800.939	0.0163539
801.017	0.0165099
801.096	0.0165130
801.174	0.0164829
801.252	0.0163155
801.330	0.0165355
801.408	0.0164466
801.486	0.0164220
801.564	0.0164908
801.642	0.0164527
801.721	0.0164794
801.799	0.0165173
801.877	0.0164034
801.955	0.0163550
802.033	0.0164160
802.111	0.0164210
802.189	0.0162531
802.267	0.0162470
802.346	0.0162963
802.424	0.0162739
802.502	0.0163479
802.580	0.0162928
802.658	0.0163159
802.736	0.0163145
802.814	0.0162536
802.892	0.0163206
802.971	0.0163061
803.049	0.0163202
803.127	0.0164152
803.205	0.0162690
803.283	0.0162446
803.361	0.0163318
803.439	0.0164407
803.517	0.0163863
803.596	0.0163950
803.674	0.0165034
803.752	0.0164327
803.830	0.0163034
803.908	0.0163683
803.986	0.0163690
804.064	0.0164050
804.142	0.0163770
804.221	0.0162886
804.299	0.0164553
804.377	0.0164735
804.455	0.0163492
804.533	0.0163692
804.611	0.0163161
804.689	0.0163259
804.767	0.0162847
804.846	0.0163130
804.924	0.0163991
805.002	0.0164020
805.080	0.0162833
805.158	0.0163087
805.236	0.0163112
805.314	0.0163564
805.392	0.0163429
805.471	0.0162720
805.549	0.0163951
805.627	0.0163906
805.705	0.0164161
805.783	0.0164429
805.861	0.0165011
805.939	0.0163912
806.017	0.0164439
806.096	0.0163911
806.174	0.0164894
806.252	0.0164239
806.330	0.0162565
806.408	0.0163996
806.486	0.0164217
806.564	0.0166063
806.642	0.0163814
806.721	0.0164256
806.799	0.0163358
806.877	0.0164320
806.955	0.0164223
807.033	0.0164823
807.111	0.0164779
807.189	0.0163998
807.267	0.0163112
807.346	0.0163491
807.424	0.0164574
807.502	0.0164072
807.580	0.0163484
807.658	0.0163208
807.736	0.0164494
807.814	0.0165406
807.892	0.0163304
807.971	0.0162181
808.049	0.0164712
808.127	0.0164447
808.205	0.0163913
808.283	0.0164196
808.361	0.0164636
808.439	0.0165221
808.517	0.0165004
808.596	0.0163474
808.674	0.0164805
808.752	0.0164317
808.830	0.0165337
808.908	0.0165227
808.986	0.0165237
809.064	0.0164827
809.142	0.0164217
809.221	0.0165878
809.299	0.0164019
809.377	0.0164710
809.455	0.0163164
809.533	0.0163541
809.611	0.0163629
809.689	0.0163156
809.767	0.0163342
809.846	0.0163191
809.924	0.0164411
810.002	0.0164583
810.080	0.0162793
810.158	0.0164734
810.236	0.0164646
810.314	0.0162727
810.392	0.0163572
810.471	0.0164717
810.549	0.0165324
810.627	0.0164372
810.705	0.0164119
810.783	0.0163295
810.861	0.0164598
810.939	0.0163797
811.017	0.0163850
811.096	0.0164137
811.174	0.0162778
811.252	0.0161576
811.330	0.0162617
811.408	0.0163406
811.486	0.0164051
811.564	0.0163716
811.642	0.0163471
811.721	0.0164509
811.799	0.0164252
811.877	0.0164005
811.955	0.0164369
812.033	0.0164138
812.111	0.0163702
812.189	0.0163967
812.267	0.0163971
812.346	0.0164536
812.424	0.0165061
812.502	0.0164511
812.580	0.0163683
812.658	0.0164450
812.736	0.0165943
812.814	0.0165327
812.892	0.0163181
812.971	0.0164368
813.049	0.0164290
813.127	0.0163987
813.205	0.0163595
813.283	0.0164647
813.361	0.0165807
813.439	0.0163768
813.517	0.0164252
813.596	0.0164188
813.674	0.0163496
813.752	0.0163943
813.830	0.0163773
813.908	0.0164089
813.986	0.0166135
814.064	0.0164062
814.142	0.0164591
814.221	0.0163779
814.299	0.0164658
814.377	0.0164542
814.455	0.0165215
814.533	0.0164628
814.611	0.0164483
814.689	0.0164254
814.767	0.0164716
814.846	0.0165316
814.924	0.0164067
815.002	0.0164510
815.080	0.0164923
815.158	0.0162808
815.236	0.0164202
815.314	0.0163524
815.392	0.0164086
815.471	0.0163876
815.549	0.0161584
815.627	0.0163841
815.705	0.0162787
815.783	0.0161877
815.861	0.0162688
815.939	0.0164475
816.017	0.0162978
816.096	0.0162656
816.174	0.0162632
816.252	0.0162685
816.330	0.0163605
816.408	0.0163363
816.486	0.0163373
816.564	0.0162942
816.642	0.0163477
816.721	0.0164523
816.799	0.0163818
816.877	0.0165289
816.955	0.0162656
817.033	0.0163850
817.111	0.0165658
817.189	0.0164336
817.267	0.0164532
817.346	0.0164564
817.424	0.0163743
817.502	0.0164032
817.580	0.0164577
817.658	0.0163677
817.736	0.0163952
817.814	0.0164478
817.892	0.0164741
817.971	0.0164215
818.049	0.0165606
818.127	0.0163017
818.205	0.0162518
818.283	0.0163516
818.361	0.0163956
818.439	0.0163148
818.517	0.0164375
818.596	0.0164872
818.674	0.0166206
818.752	0.0166054
818.830	0.0164495
818.908	0.0166200
818.986	0.0165931
819.064	0.0165806
819.142	0.0165540
819.221	0.0166634
819.299	0.0165921
819.377	0.0164244
819.455	0.0165080
819.533	0.0165415
819.611	0.0164700
819.689	0.0165165
819.767	0.0165749
819.846	0.0163228
819.924	0.0163104
820.002	0.0163571
820.080	0.0165070
820.158	0.0164493
820.236	0.0164109
820.314	0.0164767
820.392	0.0165242
820.471	0.0163902
820.549	0.0163602
820.627	0.0165558
820.705	0.0164058
820.783	0.0164684
820.861	0.0164186
820.939	0.0165121
821.017	0.0163485
821.096	0.0164054
821.174	0.0163737
821.252	0.0164410
821.330	0.0164046
821.408	0.0165129
821.486	0.0164791
821.564	0.0164577
821.642	0.0165410
821.721	0.0163712
821.799	0.0163548
821.877	0.0164608
821.955	0.0164298
822.033	0.0164420
822.111	0.0163335
822.189	0.0165390
822.267	0.0164049
822.346	0.0164597
822.424	0.0164311
822.502	0.0164593
822.580	0.0164262
822.658	0.0163881
822.736	0.0164162
822.814	0.0164886
822.892	0.0164734
822.971	0.0164025
823.049	0.0163844
823.127	0.0163564
823.205	0.0164085
823.283	0.0163025
823.361	0.0163808
823.439	0.0162521
823.517	0.0165289
823.596	0.0163433
823.674	0.0164391
823.752	0.0163752
823.830	0.0163820
823.908	0.0164221
823.986	0.0164976
824.064	0.0164204
824.142	0.0164543
824.221	0.0163419
824.299	0.0165186
824.377	0.0164099
824.455	0.0162862
824.533	0.0164395
824.611	0.0164243
824.689	0.0163684
824.767	0.0163950
824.846	0.0164424
824.924	0.0164415
825.002	0.0162254
825.080	0.0163278
825.158	0.0164030
825.236	0.0164908
825.314	0.0164124
825.392	0.0164252
825.471	0.0165154
825.549	0.0164777
825.627	0.0164129
825.705	0.0163908
825.783	0.0164648
825.861	0.0165043
825.939	0.0164206
826.017	0.0165347
826.096	0.0165357
826.174	0.0165041
826.252	0.0166353
826.330	0.0164795
826.408	0.0164183
826.486	0.0165308
826.564	0.0165320
826.642	0.0163754
826.721	0.0164500
826.799	0.0165545
826.877	0.0164719
826.955	0.0164932
827.033	0.0164577
827.111	0.0162764
827.189	0.0164445
827.267	0.0164864
827.346	0.0164175
827.424	0.0163385
827.502	0.0163055
827.580	0.0163335
827.658	0.0164056
827.736	0.0164516
827.814	0.0163874
827.892	0.0165047
827.971	0.0164080
828.049	0.0163638
828.127	0.0163834
828.205	0.0163335
828.283	0.0164000
828.361	0.0163742
828.439	0.0163487
828.517	0.0161270
828.596	0.0162256
828.674	0.0162501
828.752	0.0163259
828.830	0.0162904
828.908	0.0164008
828.986	0.0165653
829.064	0.0163213
829.142	0.0163750
829.221	0.0164225
829.299	0.0163477
829.377	0.0164024
829.455	0.0164891
829.533	0.0162309
829.611	0.0163941
829.689	0.0164034
829.767	0.0164341
829.846	0.0165024
829.924	0.0164648
830.002	0.0165652
830.080	0.0165294
830.158	0.0162939
830.236	0.0164201
830.314	0.0165228
830.392	0.0164314
830.471	0.0164060
830.549	0.0164433
830.627	0.0165005
830.705	0.0163612
830.783	0.0164295
830.861	0.0163493
830.939	0.0162499
831.017	0.0161871
831.096	0.0163389
831.174	0.0163654
831.252	0.0163749
831.330	0.0164035
831.408	0.0162643
831.486	0.0163973
831.564	0.0163658
831.642	0.0164785
831.721	0.0166502
831.799	0.0164360
831.877	0.0163523
831.955	0.0164046
832.033	0.0165852
832.111	0.0164731
832.189	0.0164816
832.267	0.0165871
832.346	0.0165159
832.424	0.0165237
832.502	0.0164581
832.580	0.0163188
832.658	0.0165127
832.736	0.0164568
832.814	0.0163217
832.892	0.0163744
832.971	0.0165780
833.049	0.0164884
833.127	0.0163438
833.205	0.0163348
833.283	0.0164175
833.361	0.0162897
833.439	0.0164564
833.517	0.0164862
833.596	0.0163965
833.674	0.0164840
833.752	0.0164117
833.830	0.0164103
833.908	0.0164350
833.986	0.0164378
834.064	0.0165501
834.142	0.0165373
834.221	0.0163802
834.299	0.0164577
834.377	0.0164640
834.455	0.0165273
834.533	0.0164919
834.611	0.0164677
834.689	0.0163572
834.767	0.0163300
834.846	0.0164625
834.924	0.0163999
835.002	0.0164024
835.080	0.0164261
835.158	0.0162687
835.236	0.0164156
835.314	0.0164258
835.392	0.0162350
835.471	0.0163212
835.549	0.0163821
835.627	0.0163645
835.705	0.0163126
835.783	0.0162537
835.861	0.0163755
835.939	0.0162273
836.017	0.0162230
836.096	0.0163979
836.174	0.0164325
836.252	0.0164362
836.330	0.0162768
836.408	0.0163747
836.486	0.0163577
836.564	0.0163579
836.642	0.0164128
836.721	0.0164313
836.799	0.0163799
836.877	0.0164628
836.955	0.0163274
837.033	0.0164005
837.111	0.0163673
837.189	0.0165408
837.267	0.0164304
837.346	0.0163634
837.424	0.0163914
837.502	0.0164153
837.580	0.0164417
837.658	0.0164810
837.736	0.0163387
837.814	0.0162874
837.892	0.0163235
837.971	0.0163305
838.049	0.0164053
838.127	0.0163728
838.205	0.0163129
838.283	0.0165466
838.361	0.0164523
838.439	0.0164336
838.517	0.0164377
838.596	0.0163633
838.674	0.0163526
838.752	0.0164264
838.830	0.0162664
838.908	0.0162894
838.986	0.0163765
839.064	0.0164497
839.142	0.0163681
839.221	0.0164157
839.299	0.0163633
839.377	0.0163694
839.455	0.0163877
839.533	0.0163456
839.611	0.0165140
839.689	0.0165661
839.767	0.0163291
839.846	0.0164590
839.924	0.0165457
840.002	0.0164635
840.080	0.0164667
840.158	0.0163953
840.236	0.0165636
840.314	0.0164035
840.392	0.0165408
840.471	0.0164395
840.549	0.0163857
840.627	0.0164466
840.705	0.0165192
840.783	0.0164980
840.861	0.0165060
840.939	0.0164778
841.017	0.0163109
841.096	0.0162467
841.174	0.0164354
841.252	0.0165000
841.330	0.0162977
841.408	0.0162503
841.486	0.0163943
841.564	0.0164079
841.642	0.0163034
841.721	0.0164533
841.799	0.0164072
841.877	0.0164651
841.955	0.0162931
842.033	0.0163071
842.111	0.0162936
842.189	0.0163728
842.267	0.0164625
842.346	0.0165848
842.424	0.0164645
842.502	0.0164866
842.580	0.0164886
842.658	0.0164784
842.736	0.0164245
842.814	0.0166104
842.892	0.0164254
842.971	0.0165499
843.049	0.0165878
843.127	0.0164852
843.205	0.0164516
843.283	0.0165435
843.361	0.0165517
843.439	0.0164851
843.517	0.0165075
843.596	0.0164870
843.674	0.0165814
843.752	0.0163596
843.830	0.0164179
843.908	0.0164478
843.986	0.0165154
844.064	0.0165767
844.142	0.0165179
844.221	0.0164468
844.299	0.0164161
844.377	0.0164425
844.455	0.0164186
844.533	0.0164893
844.611	0.0164719
844.689	0.0162649
844.767	0.0163614
844.846	0.0164185
844.924	0.0165096
845.002	0.0163001
845.080	0.0162766
845.158	0.0164045
845.236	0.0164399
845.314	0.0164829
845.392	0.0164257
845.471	0.0163992
845.549	0.0162865
845.627	0.0162870
845.705	0.0164690
845.783	0.0164580
845.861	0.0163674
845.939	0.0164343
846.017	0.0164029
846.096	0.0163110
846.174	0.0162680
846.252	0.0165233
846.330	0.0162680
846.408	0.0162985
846.486	0.0163351
846.564	0.0163224
846.642	0.0164722
846.721	0.0162762
846.799	0.0162022
846.877	0.0163468
846.955	0.0163007
847.033	0.0164119
847.111	0.0162717
847.189	0.0163400
847.267	0.0164259
847.346	0.0164771
847.424	0.0164465
847.502	0.0164433
847.580	0.0163333
847.658	0.0165192
847.736	0.0165113
847.814	0.0164686
847.892	0.0165007
847.971	0.0165248
848.049	0.0165123
848.127	0.0164220
848.205	0.0165789
848.283	0.0164938
848.361	0.0164502
848.439	0.0164106
848.517	0.0165222
848.596	0.0166125
848.674	0.0164514
848.752	0.0164776
848.830	0.0163310
848.908	0.0164250
848.986	0.0164091
849.064	0.0165019
849.142	0.0164024
849.221	0.0163970
849.299	0.0163512
849.377	0.0162937
849.455	0.0162894
849.533	0.0163941
849.611	0.0162483
849.689	0.0163155
849.767	0.0162861
849.846	0.0163257
849.924	0.0164065
850.002	0.0164646
850.080	0.0163762
850.158	0.0163751
850.236	0.0164930
850.314	0.0163908
850.392	0.0164818
850.471	0.0164345
850.549	0.0165154
850.627	0.0163546
850.705	0.0165071
850.783	0.0165819
850.861	0.0164249
850.939	0.0163762
851.017	0.0163702
851.096	0.0164163
851.174	0.0164598
851.252	0.0163883
851.330	0.0164180
851.408	0.0163914
851.486	0.0163705
851.564	0.0163952
851.642	0.0162120
851.721	0.0162250
851.799	0.0164449
851.877	0.0164838
851.955	0.0163947
852.033	0.0164652
852.111	0.0163343
852.189	0.0163480
852.267	0.0163150
852.346	0.0164807
852.424	0.0164503
852.502	0.0165088
852.580	0.0165304
852.658	0.0165723
852.736	0.0163911
852.814	0.0164545
852.892	0.0164695
852.971	0.0164708
853.049	0.0165460
853.127	0.0165563
853.205	0.0165673
853.283	0.0165733
853.361	0.0166188
853.439	0.0165437
853.517	0.0164876
853.596	0.0165919
853.674	0.0165559
853.752	0.0165201
853.830	0.0164421
853.908	0.0166763
853.986	0.0165520
854.064	0.0165379
854.142	0.0164766
854.221	0.0164561
854.299	0.0163578
854.377	0.0163987
854.455	0.0162748
854.533	0.0163863
854.611	0.0164117
854.689	0.0164066
854.767	0.0163710
854.846	0.0163626
854.924	0.0163546
855.002	0.0164986
855.080	0.0165704
855.158	0.0164044
855.236	0.0163560
855.314	0.0165280
855.392	0.0165996
855.471	0.0164349
855.549	0.0164976
855.627	0.0166172
855.705	0.0165952
855.783	0.0166791
855.861	0.0166760
855.939	0.0166483
856.017	0.0165675
856.096	0.0164863
856.174	0.0165096
856.252	0.0164442
856.330	0.0164872
856.408	0.0164780
856.486	0.0165101
856.564	0.0164855
856.642	0.0164722
856.721	0.0163066
856.799	0.0164650
856.877	0.0164104
856.955	0.0164903
857.033	0.0164690
857.111	0.0163168
857.189	0.0162704
857.267	0.0163232
857.346	0.0163036
857.424	0.0164487
857.502	0.0163072
857.580	0.0164062
857.658	0.0163580
857.736	0.0164767
857.814	0.0163264
857.892	0.0164943
857.971	0.0163670
858.049	0.0165176
858.127	0.0165629
858.205	0.0164225
858.283	0.0166011
858.361	0.0165366
858.439	0.0165985
858.517	0.0164298
858.596	0.0164384
858.674	0.0165838
858.752	0.0164280
858.830	0.0165623
858.908	0.0165005
858.986	0.0165213
859.064	0.0164305
859.142	0.0166660
859.221	0.0165871
859.299	0.0164193
859.377	0.0163585
859.455	0.0164678
859.533	0.0166252
859.611	0.0164179
859.689	0.0164898
859.767	0.0163968
859.846	0.0164358
859.924	0.0164410
860.002	0.0164813
860.080	0.0166040
860.158	0.0164930
860.236	0.0164429
860.314	0.0164609
860.392	0.0164647
860.471	0.0165648
860.549	0.0165290
860.627	0.0165270
860.705	0.0166277
860.783	0.0166123
860.861	0.0166024
860.939	0.0165714
861.017	0.0166211
861.096	0.0166320
861.174	0.0166735
861.252	0.0166370
861.330	0.0167648
861.408	0.0165487
861.486	0.0165453
861.564	0.0165333
861.642	0.0166041
861.721	0.0165051
861.799	0.0164912
861.877	0.0165082
861.955	0.0164074
862.033	0.0164106
862.111	0.0164688
862.189	0.0163895
862.267	0.0163608
862.346	0.0162811
862.424	0.0164481
862.502	0.0164417
862.580	0.0164685
862.658	0.0163795
862.736	0.0164995
862.814	0.0164398
862.892	0.0164156
862.971	0.0165764
863.049	0.0165459
863.127	0.0164819
863.205	0.0166090
863.283	0.0165083
863.361	0.0166621
863.439	0.0163943
863.517	0.0164932
863.596	0.0164428
863.674	0.0163864
863.752	0.0163833
863.830	0.0164765
863.908	0.0165547
863.986	0.0164108
864.064	0.0164543
864.142	0.0164654
864.221	0.0165050
864.299	0.0164256
864.377	0.0165382
864.455	0.0164821
864.533	0.0163881
864.611	0.0163099
864.689	0.0163968
864.767	0.0163585
864.846	0.0163772
864.924	0.0162734
865.002	0.0164503
865.080	0.0164895
865.158	0.0163740
865.236	0.0164510
865.314	0.0163878
865.392	0.0163583
865.471	0.0165412
865.549	0.0165434
865.627	0.0164690
865.705	0.0164153
865.783	0.0163535
865.861	0.0164258
865.939	0.0166144
866.017	0.0165517
866.096	0.0164757
866.174	0.0165849
866.252	0.0164376
866.330	0.0165884
866.408	0.0165955
866.486	0.0165180
866.564	0.0166035
866.642	0.0165696
866.721	0.0165129
866.799	0.0166223
866.877	0.0166199
866.955	0.0165310
867.033	0.0165150
867.111	0.0163754
867.189	0.0166871
867.267	0.0166246
867.346	0.0164432
867.424	0.0165114
867.502	0.0165434
867.580	0.0165472
867.658	0.0166058
867.736	0.0165163
867.814	0.0164700
867.892	0.0165823
867.971	0.0164494
868.049	0.0165321
868.127	0.0165244
868.205	0.0164194
868.283	0.0164217
868.361	0.0165720
868.439	0.0164943
868.517	0.0164856
868.596	0.0165373
868.674	0.0163773
868.752	0.0164423
868.830	0.0164095
868.908	0.0164249
868.986	0.0164629
869.064	0.0165807
869.142	0.0165354
869.221	0.0165945
869.299	0.0164809
869.377	0.0164693
869.455	0.0163895
869.533	0.0163931
869.611	0.0164664
869.689	0.0163744
869.767	0.0164857
869.846	0.0164497
869.924	0.0164913
870.002	0.0164120
870.080	0.0163766
870.158	0.0164944
870.236	0.0164813
870.314	0.0164690
870.392	0.0163451
870.471	0.0164314
870.549	0.0163964
870.627	0.0163918
870.705	0.0165173
870.783	0.0164339
870.861	0.0165574
870.939	0.0166178
871.017	0.0164220
871.096	0.0165256
871.174	0.0163963
871.252	0.0164343
871.330	0.0164220
871.408	0.0164098
871.486	0.0164579
871.564	0.0164671
871.642	0.0164137
871.721	0.0163865
871.799	0.0164336
871.877	0.0163966
871.955	0.0164767
872.033	0.0164672
872.111	0.0165252
872.189	0.0164321
872.267	0.0164660
872.346	0.0163552
872.424	0.0163376
872.502	0.0164011
872.580	0.0163736
872.658	0.0163990
872.736	0.0163655
872.814	0.0164831
872.892	0.0164978
872.971	0.0164516
873.049	0.0162762
873.127	0.0163591
873.205	0.0165852
873.283	0.0164323
873.361	0.0164159
873.439	0.0165285
873.517	0.0163722
873.596	0.0165128
873.674	0.0164407
873.752	0.0164660
873.830	0.0163915
873.908	0.0163889
873.986	0.0164966
874.064	0.0164143
874.142	0.0164716
874.221	0.0163640
874.299	0.0164779
874.377	0.0164188
874.455	0.0164449
874.533	0.0163579
874.611	0.0163704
874.689	0.0164211
874.767	0.0164314
874.846	0.0164579
874.924	0.0163319
875.002	0.0165231
875.080	0.0163603
875.158	0.0164311
875.236	0.0164885
875.314	0.0165530
875.392	0.0165276
875.471	0.0162212
875.549	0.0163688
875.627	0.0164971
875.705	0.0164860
875.783	0.0163686
875.861	0.0164101
875.939	0.0164339
876.017	0.0164835
876.096	0.0163641
876.174	0.0163818
876.252	0.0162789
876.330	0.0164504
876.408	0.0164238
876.486	0.0164096
876.564	0.0163638
876.642	0.0163371
876.721	0.0163220
876.799	0.0162328
876.877	0.0164649
876.955	0.0164608
877.033	0.0163942
877.111	0.0163102
877.189	0.0163795
877.267	0.0163785
877.346	0.0164368
877.424	0.0162841
877.502	0.0165257
877.580	0.0164229
877.658	0.0164593
877.736	0.0164457
877.814	0.0164006
877.892	0.0164046
877.971	0.0164207
878.049	0.0164557
878.127	0.0163922
878.205	0.0164700
878.283	0.0163995
878.361	0.0165492
878.439	0.0163662
878.517	0.0163837
878.596	0.0163385
878.674	0.0165012
878.752	0.0166374
878.830	0.0163558
878.908	0.0164110
878.986	0.0163898
879.064	0.0163885
879.142	0.0164105
879.221	0.0165506
879.299	0.0164641
879.377	0.0165255
879.455	0.0165738
879.533	0.0164413
879.611	0.0165220
879.689	0.0164326
879.767	0.0164273
879.846	0.0165591
879.924	0.0164305
880.002	0.0165808
880.080	0.0164114
880.158	0.0162970
880.236	0.0164270
880.314	0.0164194
880.392	0.0164225
880.471	0.0164240
880.549	0.0163912
880.627	0.0164273
880.705	0.0163245
880.783	0.0164507
880.861	0.0162856
880.939	0.0163569
881.017	0.0164326
881.096	0.0163948
881.174	0.0163120
881.252	0.0163428
881.330	0.0164083
881.408	0.0164016
881.486	0.0165439
881.564	0.0164432
881.642	0.0164213
881.721	0.0165143
881.799	0.0165043
881.877	0.0165514
881.955	0.0164043
882.033	0.0164799
882.111	0.0165429
882.189	0.0164746
882.267	0.0164474
882.346	0.0164926
882.424	0.0165607
882.502	0.0165247
882.580	0.0165379
882.658	0.0165211
882.736	0.0164553
882.814	0.0165440
882.892	0.0164474
882.971	0.0165537
883.049	0.0165241
883.127	0.0164745
883.205	0.0164588
883.283	0.0165636
883.361	0.0165603
883.439	0.0165546
883.517	0.0165726
883.596	0.0164445
883.674	0.0164671
883.752	0.0163840
883.830	0.0166029
883.908	0.0165965
883.986	0.0164710
884.064	0.0165544
884.142	0.0165607
884.221	0.0165692
884.299	0.0165812
884.377	0.0165758
884.455	0.0165466
884.533	0.0164511
884.611	0.0164787
884.689	0.0165592
884.767	0.0165440
884.846	0.0165801
884.924	0.0166710
885.002	0.0165488
885.080	0.0164331
885.158	0.0166512
885.236	0.0167156
885.314	0.0164729
885.392	0.0164819
885.471	0.0164294
885.549	0.0164940
885.627	0.0166498
885.705	0.0164632
885.783	0.0163838
885.861	0.0164535
885.939	0.0163892
886.017	0.0164178
886.096	0.0164984
886.174	0.0165699
886.252	0.0165614
886.330	0.0164844
886.408	0.0163927
886.486	0.0163728
886.564	0.0165092
886.642	0.0163486
886.721	0.0164541
886.799	0.0164030
886.877	0.0164985
886.955	0.0163788
887.033	0.0164561
887.111	0.0164809
887.189	0.0165680
887.267	0.0163787
887.346	0.0163875
887.424	0.0163836
887.502	0.0164983
887.580	0.0166331
887.658	0.0163599
887.736	0.0165418
887.814	0.0164133
887.892	0.0164301
887.971	0.0164835
888.049	0.0163499
888.127	0.0165451
888.205	0.0165598
888.283	0.0165744
888.361	0.0163811
888.439	0.0163267
888.517	0.0163754
888.596	0.0164047
888.674	0.0164782
888.752	0.0164668
888.830	0.0164391
888.908	0.0164537
888.986	0.0165613
889.064	0.0165511
889.142	0.0164335
889.221	0.0164767
889.299	0.0165921
889.377	0.0165063
889.455	0.0165472
889.533	0.0164513
889.611	0.0165183
889.689	0.0165606
889.767	0.0164288
889.846	0.0165630
889.924	0.0165006
890.002	0.0165128
890.080	0.0166700
890.158	0.0164556
890.236	0.0164096
890.314	0.0166536
890.392	0.0164085
890.471	0.0164091
890.549	0.0164072
890.627	0.0165111
890.705	0.0164619
890.783	0.0164093
890.861	0.0164433
890.939	0.0163445
891.017	0.0163923
891.096	0.0163815
891.174	0.0163876
891.252	0.0163172
891.330	0.0163834
891.408	0.0164882
891.486	0.0163279
891.564	0.0162778
891.642	0.0164547
891.721	0.0164787
891.799	0.0164787
891.877	0.0163423
891.955	0.0165651
892.033	0.0165918
892.111	0.0166164
892.189	0.0164422
892.267	0.0165228
892.346	0.0165347
892.424	0.0166077
892.502	0.0165647
892.580	0.0164294
892.658	0.0165733
892.736	0.0166309
892.814	0.0166230
892.892	0.0164828
892.971	0.0166135
893.049	0.0166032
893.127	0.0165279
893.205	0.0165417
893.283	0.0164840
893.361	0.0166865
893.439	0.0164485
893.517	0.0165826
893.596	0.0165171
893.674	0.0164842
893.752	0.0164446
893.830	0.0164394
893.908	0.0163641
893.986	0.0165304
894.064	0.0165137
894.142	0.0164700
894.221	0.0165429
894.299	0.0166189
894.377	0.0165611
894.455	0.0165583
894.533	0.0163979
894.611	0.0165340
894.689	0.0165679
894.767	0.0165419
894.846	0.0166890
894.924	0.0165924
895.002	0.0164499
895.080	0.0164327
895.158	0.0166221
895.236	0.0166122
895.314	0.0164866
895.392	0.0165704
895.471	0.0164916
895.549	0.0165002
895.627	0.0164919
895.705	0.0164960
895.783	0.0164112
895.861	0.0164864
895.939	0.0163441
896.017	0.0164766
896.096	0.0165073
896.174	0.0163609
896.252	0.0163530
896.330	0.0164916
896.408	0.0165912
896.486	0.0166231
896.564	0.0164577
896.642	0.0165033
896.721	0.0163554
896.799	0.0163251
896.877	0.0165815
896.955	0.0163493
897.033	0.0163795
897.111	0.0163215
897.189	0.0163686
897.267	0.0164097
897.346	0.0163850
897.424	0.0162029
897.502	0.0163066
897.580	0.0162021
897.658	0.0163123
897.736	0.0163442
897.814	0.0163172
897.892	0.0162173
897.971	0.0162973
898.049	0.0162716
898.127	0.0162910
898.205	0.0163824
898.283	0.0165067
898.361	0.0163164
898.439	0.0164182
898.517	0.0164669
898.596	0.0164686
898.674	0.0164744
898.752	0.0163605
898.830	0.0164105
898.908	0.0162537
898.986	0.0164674
899.064	0.0165221
899.142	0.0164552
899.221	0.0163152
899.299	0.0164426
899.377	0.0162872
899.455	0.0162312
899.533	0.0163053
899.611	0.0162900
899.689	0.0164286
899.767	0.0163556
899.846	0.0164545
899.924	0.0162386
900.002	0.0164127
900.080	0.0163938
900.158	0.0164645
900.236	0.0163487
900.314	0.0163603
900.392	0.0163144
900.471	0.0165601
900.549	0.0164500
900.627	0.0164114
900.705	0.0164936
900.783	0.0165506
900.861	0.0164860
900.939	0.0164627
901.017	0.0164131
901.096	0.0164788
901.174	0.0163271
901.252	0.0163167
901.330	0.0164619
901.408	0.0164867
901.486	0.0163290
901.564	0.0162710
901.642	0.0165227
901.721	0.0164111
901.799	0.0163248
901.877	0.0162555
901.955	0.0163332
902.033	0.0164233
902.111	0.0163022
902.189	0.0163939
902.267	0.0164896
902.346	0.0163872
902.424	0.0163445
902.502	0.0164700
902.580	0.0164513
902.658	0.0164189
902.736	0.0163898
902.814	0.0163457
902.892	0.0163860
902.971	0.0164323
903.049	0.0164178
903.127	0.0163899
903.205	0.0165128
903.283	0.0162886
903.361	0.0165228
903.439	0.0165324
903.517	0.0163563
903.596	0.0164095
903.674	0.0164860
903.752	0.0163104
903.830	0.0164309
903.908	0.0164330
903.986	0.0163995
904.064	0.0163393
904.142	0.0163712
904.221	0.0163017
904.299	0.0164727
904.377	0.0163996
904.455	0.0164325
904.533	0.0162511
904.611	0.0164433
904.689	0.0163914
904.767	0.0165084
904.846	0.0164267
904.924	0.0164678
905.002	0.0164323
905.080	0.0163491
905.158	0.0163539
905.236	0.0164523
905.314	0.0164815
905.392	0.0164393
905.471	0.0164487
905.549	0.0164317
905.627	0.0164688
905.705	0.0164898
905.783	0.0163531
905.861	0.0163589
905.939	0.0165092
906.017	0.0164465
906.096	0.0163727
906.174	0.0163716
906.252	0.0163515
906.330	0.0163661
906.408	0.0163910
906.486	0.0163744
906.564	0.0164077
906.642	0.0164045
906.721	0.0163293
906.799	0.0163773
906.877	0.0164642
906.955	0.0163561
907.033	0.0163068
907.111	0.0163797
907.189	0.0163958
907.267	0.0163745
907.346	0.0165430
907.424	0.0164412
907.502	0.0164762
907.580	0.0163696
907.658	0.0164192
907.736	0.0162361
907.814	0.0165555
907.892	0.0164584
907.971	0.0163293
908.049	0.0163429
908.127	0.0164483
908.205	0.0165504
908.283	0.0164597
908.361	0.0166031
908.439	0.0164526
908.517	0.0165312
908.596	0.0165319
908.674	0.0163875
908.752	0.0163148
908.830	0.0163659
908.908	0.0164165
908.986	0.0165094
909.064	0.0163529
909.142	0.0164805
909.221	0.0164395
909.299	0.0164362
909.377	0.0165109
909.455	0.0164143
909.533	0.0164178
909.611	0.0163663
909.689	0.0163250
909.767	0.0165794
909.846	0.0165786
909.924	0.0164223
910.002	0.0164230
910.080	0.0164671
910.158	0.0164653
910.236	0.0166051
910.314	0.0164761
910.392	0.0164260
910.471	0.0165855
910.549	0.0165667
910.627	0.0164259
910.705	0.0165067
910.783	0.0165180
910.861	0.0164879
910.939	0.0164148
911.017	0.0164647
911.096	0.0163298
911.174	0.0165308
911.252	0.0162847
911.330	0.0164517
911.408	0.0165592
911.486	0.0165321
911.564	0.0164545
911.642	0.0164588
911.721	0.0164632
911.799	0.0164969
911.877	0.0164569
911.955	0.0165137
912.033	0.0165097
912.111	0.0164413
912.189	0.0163744
912.267	0.0165582
912.346	0.0164973
912.424	0.0163715
912.502	0.0164182
912.580	0.0164564
912.658	0.0164764
912.736	0.0164986
912.814	0.0164128
912.892	0.0164678
912.971	0.0164073
913.049	0.0164282
913.127	0.0163710
913.205	0.0163785
913.283	0.0163214
913.361	0.0164960
913.439	0.0163772
913.517	0.0164963
913.596	0.0163265
913.674	0.0164370
913.752	0.0164299
913.830	0.0164965
913.908	0.0164421
913.986	0.0163150
914.064	0.0165231
914.142	0.0163505
914.221	0.0163748
914.299	0.0164191
914.377	0.0165153
914.455	0.0164376
914.533	0.0163508
914.611	0.0163428
914.689	0.0163240
914.767	0.0164101
914.846	0.0163779
914.924	0.0164597
915.002	0.0165157
915.080	0.0164758
915.158	0.0163132
915.236	0.0163875
915.314	0.0164374
915.392	0.0164564
915.471	0.0163876
915.549	0.0163493
915.627	0.0164259
915.705	0.0165009
915.783	0.0164114
915.861	0.0164166
915.939	0.0164679
916.017	0.0163170
916.096	0.0164031
916.174	0.0163954
916.252	0.0164749
916.330	0.0163687
916.408	0.0163409
916.486	0.0164568
916.564	0.0164284
916.642	0.0164954
916.721	0.0164062
916.799	0.0162780
916.877	0.0162938
916.955	0.0164050
917.033	0.0163509
917.111	0.0162413
917.189	0.0164337
917.267	0.0164645
917.346	0.0164744
917.424	0.0164027
917.502	0.0163444
917.580	0.0164735
917.658	0.0164417
917.736	0.0163310
917.814	0.0165690
917.892	0.0164265
917.971	0.0164814
918.049	0.0164225
918.127	0.0163293
918.205	0.0163497
918.283	0.0165347
918.361	0.0164024
918.439	0.0163989
918.517	0.0164890
918.596	0.0162209
918.674	0.0163902
918.752	0.0163394
918.830	0.0163731
918.908	0.0164658
918.986	0.0162949
919.064	0.0163103
919.142	0.0163522
919.221	0.0162710
919.299	0.0163014
919.377	0.0162639
919.455	0.0163288
919.533	0.0163844
919.611	0.0164340
919.689	0.0163811
919.767	0.0162445
919.846	0.0164540
919.924	0.0163685
