06/29/2022	21:36:59	Ver.	4.1	UNKNOWN
Optical Delay	600.001752	Delta X		0.078125	Sweeps	1	Scan Rate	0/0
Coordinates	Axis 1	NaN	Axis 2	NaN	Axis 3	NaN	Axis 4	NaN	Axis 5	NaN	Axis 6	0.000000
TX Power	0.000000	RX Power	0.000000

600.002	0.0163618
600.080	0.0163786
600.158	0.0163725
600.236	0.0164492
600.314	0.0162840
600.392	0.0162554
600.471	0.0165134
600.549	0.0164581
600.627	0.0163979
600.705	0.0162525
600.783	0.0165428
600.861	0.0164365
600.939	0.0164317
601.017	0.0163427
601.096	0.0163499
601.174	0.0164058
601.252	0.0166165
601.330	0.0163987
601.408	0.0165187
601.486	0.0163749
601.564	0.0165213
601.642	0.0165065
601.721	0.0165843
601.799	0.0163911
601.877	0.0165789
601.955	0.0165168
602.033	0.0163935
602.111	0.0165025
602.189	0.0165358
602.267	0.0164171
602.346	0.0165691
602.424	0.0164845
602.502	0.0165486
602.580	0.0163879
602.658	0.0164813
602.736	0.0165347
602.814	0.0165434
602.892	0.0165580
602.971	0.0166674
603.049	0.0165914
603.127	0.0165135
603.205	0.0165813
603.283	0.0165821
603.361	0.0166545
603.439	0.0166992
603.517	0.0165195
603.596	0.0167886
603.674	0.0166116
603.752	0.0166617
603.830	0.0165873
603.908	0.0166298
603.986	0.0165434
604.064	0.0166306
604.142	0.0166873
604.221	0.0166781
604.299	0.0165101
604.377	0.0165491
604.455	0.0166868
604.533	0.0166374
604.611	0.0166352
604.689	0.0164660
604.767	0.0165995
604.846	0.0166468
604.924	0.0166670
605.002	0.0167147
605.080	0.0164739
605.158	0.0165589
605.236	0.0165684
605.314	0.0165995
605.392	0.0165598
605.471	0.0164786
605.549	0.0165153
605.627	0.0165874
605.705	0.0165643
605.783	0.0165772
605.861	0.0164922
605.939	0.0165572
606.017	0.0164208
606.096	0.0164544
606.174	0.0164748
606.252	0.0164034
606.330	0.0164874
606.408	0.0165633
606.486	0.0165344
606.564	0.0166188
606.642	0.0164538
606.721	0.0164679
606.799	0.0166368
606.877	0.0164870
606.955	0.0165275
607.033	0.0166183
607.111	0.0165375
607.189	0.0165215
607.267	0.0166154
607.346	0.0165150
607.424	0.0164389
607.502	0.0165277
607.580	0.0165109
607.658	0.0165580
607.736	0.0164477
607.814	0.0164371
607.892	0.0164127
607.971	0.0163923
608.049	0.0164391
608.127	0.0164790
608.205	0.0165157
608.283	0.0164236
608.361	0.0163410
608.439	0.0164632
608.517	0.0164942
608.596	0.0164977
608.674	0.0163419
608.752	0.0163466
608.830	0.0165070
608.908	0.0162987
608.986	0.0164451
609.064	0.0163092
609.142	0.0162598
609.221	0.0164030
609.299	0.0162767
609.377	0.0163443
609.455	0.0164444
609.533	0.0164311
609.611	0.0163646
609.689	0.0163127
609.767	0.0163660
609.846	0.0163618
609.924	0.0164579
610.002	0.0163884
610.080	0.0162394
610.158	0.0164185
610.236	0.0164740
610.314	0.0162211
610.392	0.0164715
610.471	0.0164261
610.549	0.0163761
610.627	0.0163991
610.705	0.0163612
610.783	0.0163802
610.861	0.0164842
610.939	0.0165781
611.017	0.0164142
611.096	0.0164330
611.174	0.0164339
611.252	0.0164998
611.330	0.0165465
611.408	0.0163350
611.486	0.0164587
611.564	0.0165429
611.642	0.0164571
611.721	0.0164622
611.799	0.0164114
611.877	0.0164761
611.955	0.0164098
612.033	0.0164082
612.111	0.0165034
612.189	0.0162843
612.267	0.0164771
612.346	0.0164383
612.424	0.0164945
612.502	0.0164692
612.580	0.0165006
612.658	0.0164795
612.736	0.0166157
612.814	0.0165443
612.892	0.0164655
612.971	0.0165092
613.049	0.0165582
613.127	0.0164964
613.205	0.0165963
613.283	0.0164857
613.361	0.0164058
613.439	0.0164693
613.517	0.0164950
613.596	0.0164291
613.674	0.0164425
613.752	0.0165047
613.830	0.0165208
613.908	0.0164919
613.986	0.0164380
614.064	0.0165658
614.142	0.0164425
614.221	0.0163472
614.299	0.0164589
614.377	0.0165650
614.455	0.0165974
614.533	0.0165691
614.611	0.0164474
614.689	0.0164842
614.767	0.0164976
614.846	0.0165176
614.924	0.0165454
615.002	0.0164930
615.080	0.0165134
615.158	0.0165996
615.236	0.0165951
615.314	0.0164912
615.392	0.0164195
615.471	0.0164759
615.549	0.0166070
615.627	0.0165583
615.705	0.0165395
615.783	0.0165041
615.861	0.0166549
615.939	0.0166421
616.017	0.0165878
616.096	0.0165063
616.174	0.0164294
616.252	0.0165985
616.330	0.0166171
616.408	0.0165701
616.486	0.0166400
616.564	0.0165908
616.642	0.0165530
616.721	0.0165652
616.799	0.0165658
616.877	0.0165295
616.955	0.0164839
617.033	0.0165633
617.111	0.0165475
617.189	0.0165147
617.267	0.0167139
617.346	0.0166328
617.424	0.0166326
617.502	0.0165176
617.580	0.0165240
617.658	0.0165914
617.736	0.0166645
617.814	0.0165658
617.892	0.0165520
617.971	0.0163992
618.049	0.0166096
618.127	0.0165186
618.205	0.0164818
618.283	0.0166050
618.361	0.0165546
618.439	0.0163555
618.517	0.0165929
618.596	0.0164252
618.674	0.0164214
618.752	0.0164589
618.830	0.0164310
618.908	0.0164835
618.986	0.0163757
619.064	0.0163464
619.142	0.0165924
619.221	0.0166652
619.299	0.0164629
619.377	0.0163531
619.455	0.0164307
619.533	0.0165945
619.611	0.0164733
619.689	0.0163815
619.767	0.0164172
619.846	0.0165379
619.924	0.0163831
620.002	0.0164305
620.080	0.0165427
620.158	0.0164404
620.236	0.0165641
620.314	0.0164717
620.392	0.0164555
620.471	0.0163962
620.549	0.0164858
620.627	0.0164381
620.705	0.0165583
620.783	0.0165144
620.861	0.0164236
620.939	0.0164185
621.017	0.0165615
621.096	0.0164342
621.174	0.0165041
621.252	0.0165152
621.330	0.0164685
621.408	0.0164853
621.486	0.0165247
621.564	0.0164798
621.642	0.0163763
621.721	0.0164149
621.799	0.0163212
621.877	0.0163607
621.955	0.0163947
622.033	0.0163192
622.111	0.0163850
622.189	0.0164682
622.267	0.0163083
622.346	0.0163355
622.424	0.0163224
622.502	0.0163571
622.580	0.0163345
622.658	0.0161568
622.736	0.0162381
622.814	0.0163912
622.892	0.0163902
622.971	0.0163046
623.049	0.0162647
623.127	0.0163228
623.205	0.0163748
623.283	0.0163525
623.361	0.0162917
623.439	0.0163871
623.517	0.0162811
623.596	0.0163335
623.674	0.0163390
623.752	0.0164441
623.830	0.0163998
623.908	0.0164397
623.986	0.0163711
624.064	0.0163911
624.142	0.0162888
624.221	0.0162430
624.299	0.0163621
624.377	0.0164005
624.455	0.0164612
624.533	0.0163999
624.611	0.0165070
624.689	0.0164639
624.767	0.0164330
624.846	0.0165234
624.924	0.0165536
625.002	0.0163227
625.080	0.0165367
625.158	0.0165121
625.236	0.0164442
625.314	0.0163475
625.392	0.0164870
625.471	0.0164368
625.549	0.0165630
625.627	0.0163589
625.705	0.0164695
625.783	0.0164498
625.861	0.0162809
625.939	0.0164101
626.017	0.0164005
626.096	0.0163359
626.174	0.0164182
626.252	0.0164578
626.330	0.0163504
626.408	0.0163628
626.486	0.0164371
626.564	0.0164694
626.642	0.0162946
626.721	0.0163198
626.799	0.0163522
626.877	0.0163809
626.955	0.0164006
627.033	0.0163982
627.111	0.0164499
627.189	0.0163939
627.267	0.0163459
627.346	0.0163323
627.424	0.0163716
627.502	0.0164166
627.580	0.0164836
627.658	0.0162820
627.736	0.0164973
627.814	0.0164130
627.892	0.0163367
627.971	0.0165145
628.049	0.0163562
628.127	0.0164988
628.205	0.0164816
628.283	0.0164520
628.361	0.0163795
628.439	0.0165114
628.517	0.0165002
628.596	0.0163255
628.674	0.0163691
628.752	0.0164940
628.830	0.0163696
628.908	0.0163106
628.986	0.0163374
629.064	0.0164043
629.142	0.0163299
629.221	0.0162950
629.299	0.0163618
629.377	0.0163522
629.455	0.0164036
629.533	0.0163338
629.611	0.0163179
629.689	0.0162769
629.767	0.0162481
629.846	0.0162794
629.924	0.0162367
630.002	0.0163564
630.080	0.0164232
630.158	0.0163332
630.236	0.0163871
630.314	0.0163385
630.392	0.0163909
630.471	0.0164547
630.549	0.0164167
630.627	0.0163246
630.705	0.0162980
630.783	0.0162636
630.861	0.0164034
630.939	0.0163802
631.017	0.0164858
631.096	0.0164217
631.174	0.0164055
631.252	0.0164395
631.330	0.0164174
631.408	0.0163215
631.486	0.0164014
631.564	0.0163639
631.642	0.0164079
631.721	0.0164158
631.799	0.0164505
631.877	0.0165717
631.955	0.0165187
632.033	0.0165240
632.111	0.0164906
632.189	0.0163767
632.267	0.0164201
632.346	0.0164691
632.424	0.0164801
632.502	0.0163500
632.580	0.0163529
632.658	0.0162365
632.736	0.0163489
632.814	0.0165418
632.892	0.0165068
632.971	0.0164024
633.049	0.0164278
633.127	0.0163647
633.205	0.0164076
633.283	0.0164034
633.361	0.0164215
633.439	0.0163871
633.517	0.0164085
633.596	0.0164310
633.674	0.0163776
633.752	0.0163648
633.830	0.0164531
633.908	0.0165009
633.986	0.0164123
634.064	0.0164492
634.142	0.0164519
634.221	0.0165057
634.299	0.0164781
634.377	0.0163454
634.455	0.0163896
634.533	0.0165092
634.611	0.0165040
634.689	0.0163492
634.767	0.0164301
634.846	0.0164437
634.924	0.0165246
635.002	0.0164970
635.080	0.0164340
635.158	0.0164363
635.236	0.0163785
635.314	0.0164250
635.392	0.0164565
635.471	0.0164548
635.549	0.0164735
635.627	0.0164806
635.705	0.0164348
635.783	0.0166018
635.861	0.0163810
635.939	0.0164806
636.017	0.0164566
636.096	0.0165003
636.174	0.0164429
636.252	0.0162786
636.330	0.0163948
636.408	0.0165183
636.486	0.0165194
636.564	0.0164597
636.642	0.0163152
636.721	0.0165459
636.799	0.0165105
636.877	0.0165833
636.955	0.0165179
637.033	0.0164774
637.111	0.0164809
637.189	0.0164277
637.267	0.0164938
637.346	0.0165481
637.424	0.0165388
637.502	0.0165794
637.580	0.0164457
637.658	0.0165479
637.736	0.0164076
637.814	0.0165282
637.892	0.0166489
637.971	0.0166835
638.049	0.0165853
638.127	0.0165760
638.205	0.0166517
638.283	0.0164669
638.361	0.0166039
638.439	0.0166708
638.517	0.0164323
638.596	0.0166455
638.674	0.0166606
638.752	0.0166401
638.830	0.0166320
638.908	0.0166112
638.986	0.0164932
639.064	0.0165521
639.142	0.0165340
639.221	0.0165454
639.299	0.0166201
639.377	0.0166029
639.455	0.0165749
639.533	0.0165181
639.611	0.0165181
639.689	0.0165288
639.767	0.0165497
639.846	0.0165546
639.924	0.0165340
640.002	0.0164434
640.080	0.0165134
640.158	0.0165539
640.236	0.0166348
640.314	0.0164693
640.392	0.0164648
640.471	0.0165244
640.549	0.0166328
640.627	0.0165293
640.705	0.0165814
640.783	0.0164828
640.861	0.0164603
640.939	0.0164888
641.017	0.0165363
641.096	0.0166347
641.174	0.0165130
641.252	0.0164222
641.330	0.0165613
641.408	0.0164733
641.486	0.0165702
641.564	0.0163931
641.642	0.0165636
641.721	0.0165884
641.799	0.0165450
641.877	0.0165132
641.955	0.0164084
642.033	0.0164393
642.111	0.0166840
642.189	0.0164494
642.267	0.0164779
642.346	0.0164986
642.424	0.0165012
642.502	0.0165377
642.580	0.0164910
642.658	0.0164641
642.736	0.0165812
642.814	0.0165063
642.892	0.0164437
642.971	0.0164560
643.049	0.0166293
643.127	0.0164870
643.205	0.0165482
643.283	0.0164741
643.361	0.0164420
643.439	0.0164206
643.517	0.0165460
643.596	0.0165414
643.674	0.0164526
643.752	0.0163851
643.830	0.0165958
643.908	0.0163896
643.986	0.0163425
644.064	0.0163915
644.142	0.0163912
644.221	0.0164765
644.299	0.0165366
644.377	0.0164997
644.455	0.0165516
644.533	0.0164612
644.611	0.0164005
644.689	0.0164630
644.767	0.0164718
644.846	0.0163566
644.924	0.0164037
645.002	0.0165073
645.080	0.0163332
645.158	0.0163859
645.236	0.0163540
645.314	0.0163761
645.392	0.0163998
645.471	0.0162574
645.549	0.0163470
645.627	0.0162772
645.705	0.0163770
645.783	0.0163544
645.861	0.0163933
645.939	0.0163286
646.017	0.0164297
646.096	0.0162394
646.174	0.0163418
646.252	0.0164631
646.330	0.0163493
646.408	0.0163013
646.486	0.0163020
646.564	0.0164259
646.642	0.0163689
646.721	0.0162553
646.799	0.0162252
646.877	0.0162787
646.955	0.0163924
647.033	0.0163701
647.111	0.0164258
647.189	0.0163230
647.267	0.0164022
647.346	0.0165234
647.424	0.0163645
647.502	0.0164099
647.580	0.0162785
647.658	0.0164350
647.736	0.0162759
647.814	0.0163493
647.892	0.0162714
647.971	0.0163589
648.049	0.0163322
648.127	0.0163129
648.205	0.0163774
648.283	0.0164648
648.361	0.0164099
648.439	0.0164095
648.517	0.0163101
648.596	0.0162850
648.674	0.0164849
648.752	0.0163795
648.830	0.0163654
648.908	0.0164680
648.986	0.0165022
649.064	0.0164436
649.142	0.0162803
649.221	0.0163595
649.299	0.0164995
649.377	0.0163712
649.455	0.0164420
649.533	0.0163579
649.611	0.0164294
649.689	0.0163696
649.767	0.0164287
649.846	0.0166368
649.924	0.0164574
650.002	0.0163628
650.080	0.0163615
650.158	0.0162914
650.236	0.0164528
650.314	0.0165070
650.392	0.0164716
650.471	0.0164041
650.549	0.0163664
650.627	0.0164355
650.705	0.0164526
650.783	0.0164069
650.861	0.0163995
650.939	0.0165322
651.017	0.0164189
651.096	0.0164435
651.174	0.0163574
651.252	0.0164091
651.330	0.0163687
651.408	0.0164335
651.486	0.0164215
651.564	0.0163696
651.642	0.0164158
651.721	0.0164643
651.799	0.0164531
651.877	0.0165037
651.955	0.0165224
652.033	0.0164896
652.111	0.0164128
652.189	0.0164818
652.267	0.0164405
652.346	0.0163287
652.424	0.0163106
652.502	0.0165545
652.580	0.0163967
652.658	0.0164909
652.736	0.0164483
652.814	0.0163625
652.892	0.0164764
652.971	0.0164127
653.049	0.0164541
653.127	0.0163814
653.205	0.0164044
653.283	0.0165457
653.361	0.0165024
653.439	0.0165903
653.517	0.0164326
653.596	0.0164935
653.674	0.0164721
653.752	0.0163498
653.830	0.0163744
653.908	0.0164790
653.986	0.0163966
654.064	0.0165657
654.142	0.0164913
654.221	0.0164648
654.299	0.0165118
654.377	0.0164779
654.455	0.0165096
654.533	0.0165163
654.611	0.0165199
654.689	0.0163931
654.767	0.0164446
654.846	0.0165790
654.924	0.0165142
655.002	0.0165441
655.080	0.0164722
655.158	0.0166985
655.236	0.0165114
655.314	0.0165532
655.392	0.0164922
655.471	0.0165842
655.549	0.0164348
655.627	0.0165240
655.705	0.0165078
655.783	0.0163876
655.861	0.0164697
655.939	0.0164565
656.017	0.0164728
656.096	0.0164751
656.174	0.0164248
656.252	0.0164501
656.330	0.0164426
656.408	0.0165308
656.486	0.0165575
656.564	0.0165882
656.642	0.0164671
656.721	0.0165002
656.799	0.0164944
656.877	0.0164532
656.955	0.0164832
657.033	0.0165181
657.111	0.0165689
657.189	0.0165462
657.267	0.0164751
657.346	0.0165395
657.424	0.0164355
657.502	0.0164792
657.580	0.0164917
657.658	0.0163342
657.736	0.0166494
657.814	0.0166231
657.892	0.0164915
657.971	0.0164817
658.049	0.0164866
658.127	0.0163792
658.205	0.0165414
658.283	0.0163539
658.361	0.0164212
658.439	0.0165541
658.517	0.0164810
658.596	0.0164858
658.674	0.0163532
658.752	0.0164762
658.830	0.0164346
658.908	0.0166053
658.986	0.0163926
659.064	0.0164196
659.142	0.0164893
659.221	0.0163869
659.299	0.0165324
659.377	0.0166344
659.455	0.0165662
659.533	0.0164679
659.611	0.0164137
659.689	0.0165828
659.767	0.0165026
659.846	0.0165102
659.924	0.0165393
660.002	0.0165067
660.080	0.0164989
660.158	0.0164609
660.236	0.0165879
660.314	0.0164726
660.392	0.0164910
660.471	0.0165765
660.549	0.0164635
660.627	0.0165417
660.705	0.0165639
660.783	0.0164098
660.861	0.0166165
660.939	0.0164671
661.017	0.0164833
661.096	0.0163955
661.174	0.0164508
661.252	0.0164356
661.330	0.0164664
661.408	0.0165312
661.486	0.0164466
661.564	0.0164934
661.642	0.0163383
661.721	0.0164380
661.799	0.0164867
661.877	0.0163437
661.955	0.0163427
662.033	0.0166373
662.111	0.0165057
662.189	0.0163905
662.267	0.0165387
662.346	0.0165135
662.424	0.0164854
662.502	0.0164704
662.580	0.0164242
662.658	0.0165101
662.736	0.0164715
662.814	0.0165173
662.892	0.0166032
662.971	0.0166251
663.049	0.0165968
663.127	0.0165755
663.205	0.0164167
663.283	0.0165379
663.361	0.0164144
663.439	0.0166278
663.517	0.0165193
663.596	0.0165426
663.674	0.0164895
663.752	0.0165482
663.830	0.0165854
663.908	0.0165918
663.986	0.0167368
664.064	0.0165865
664.142	0.0165243
664.221	0.0165230
664.299	0.0165086
664.377	0.0164027
664.455	0.0164951
664.533	0.0166415
664.611	0.0164622
664.689	0.0164641
664.767	0.0165961
664.846	0.0166095
664.924	0.0164996
665.002	0.0165549
665.080	0.0165401
665.158	0.0166129
665.236	0.0164464
665.314	0.0165661
665.392	0.0165457
665.471	0.0165955
665.549	0.0164935
665.627	0.0166175
665.705	0.0166292
665.783	0.0165086
665.861	0.0164690
665.939	0.0165826
666.017	0.0165285
666.096	0.0165655
666.174	0.0165517
666.252	0.0165572
666.330	0.0165034
666.408	0.0165327
666.486	0.0165511
666.564	0.0165159
666.642	0.0164781
666.721	0.0165721
666.799	0.0166426
666.877	0.0165620
666.955	0.0165620
667.033	0.0164883
667.111	0.0163561
667.189	0.0166104
667.267	0.0165874
667.346	0.0164793
667.424	0.0165547
667.502	0.0166315
667.580	0.0166465
667.658	0.0163858
667.736	0.0164967
667.814	0.0164812
667.892	0.0165628
667.971	0.0165661
668.049	0.0166129
668.127	0.0165094
668.205	0.0166771
668.283	0.0165112
668.361	0.0165591
668.439	0.0165506
668.517	0.0163979
668.596	0.0165137
668.674	0.0164191
668.752	0.0164973
668.830	0.0164999
668.908	0.0165155
668.986	0.0164754
669.064	0.0163442
669.142	0.0165263
669.221	0.0163560
669.299	0.0164397
669.377	0.0163614
669.455	0.0164256
669.533	0.0165275
669.611	0.0164365
669.689	0.0164630
669.767	0.0165421
669.846	0.0163587
669.924	0.0164926
670.002	0.0164920
670.080	0.0164413
670.158	0.0162849
670.236	0.0164077
670.314	0.0164209
670.392	0.0163634
670.471	0.0164233
670.549	0.0164219
670.627	0.0162935
670.705	0.0164968
670.783	0.0165334
670.861	0.0163622
670.939	0.0163816
671.017	0.0164333
671.096	0.0165849
671.174	0.0165523
671.252	0.0163190
671.330	0.0164014
671.408	0.0163116
671.486	0.0164408
671.564	0.0164220
671.642	0.0164218
671.721	0.0163085
671.799	0.0164561
671.877	0.0164995
671.955	0.0164422
672.033	0.0164003
672.111	0.0164050
672.189	0.0163593
672.267	0.0163743
672.346	0.0164195
672.424	0.0163476
672.502	0.0162744
672.580	0.0163761
672.658	0.0163911
672.736	0.0163313
672.814	0.0163478
672.892	0.0164439
672.971	0.0163336
673.049	0.0164201
673.127	0.0163113
673.205	0.0162785
673.283	0.0163412
673.361	0.0163617
673.439	0.0164346
673.517	0.0162689
673.596	0.0164372
673.674	0.0162955
673.752	0.0163731
673.830	0.0163876
673.908	0.0162933
673.986	0.0163801
674.064	0.0163535
674.142	0.0164219
674.221	0.0162756
674.299	0.0163628
674.377	0.0162909
674.455	0.0163734
674.533	0.0164258
674.611	0.0162928
674.689	0.0163670
674.767	0.0164214
674.846	0.0164507
674.924	0.0164449
675.002	0.0164072
675.080	0.0163570
675.158	0.0164112
675.236	0.0164489
675.314	0.0164161
675.392	0.0164552
675.471	0.0163416
675.549	0.0164953
675.627	0.0164660
675.705	0.0164924
675.783	0.0164931
675.861	0.0165558
675.939	0.0164816
676.017	0.0163824
676.096	0.0164318
676.174	0.0166154
676.252	0.0165022
676.330	0.0166778
676.408	0.0165323
676.486	0.0165534
676.564	0.0165088
676.642	0.0165250
676.721	0.0165986
676.799	0.0165779
676.877	0.0166899
676.955	0.0165233
677.033	0.0163554
677.111	0.0165466
677.189	0.0165317
677.267	0.0165408
677.346	0.0165453
677.424	0.0164263
677.502	0.0164908
677.580	0.0163963
677.658	0.0164071
677.736	0.0166158
677.814	0.0165824
677.892	0.0165891
677.971	0.0164748
678.049	0.0164620
678.127	0.0167031
678.205	0.0166093
678.283	0.0164712
678.361	0.0165114
678.439	0.0165101
678.517	0.0166560
678.596	0.0166093
678.674	0.0164801
678.752	0.0165630
678.830	0.0165470
678.908	0.0165896
678.986	0.0164934
679.064	0.0163906
679.142	0.0164806
679.221	0.0164697
679.299	0.0165048
679.377	0.0165137
679.455	0.0165533
679.533	0.0165463
679.611	0.0164301
679.689	0.0164765
679.767	0.0166200
679.846	0.0164912
679.924	0.0165385
680.002	0.0165358
680.080	0.0165403
680.158	0.0166002
680.236	0.0165297
680.314	0.0164919
680.392	0.0164841
680.471	0.0166950
680.549	0.0165313
680.627	0.0164232
680.705	0.0164352
680.783	0.0163629
680.861	0.0164194
680.939	0.0165819
681.017	0.0165197
681.096	0.0164713
681.174	0.0165131
681.252	0.0164429
681.330	0.0165120
681.408	0.0165980
681.486	0.0165405
681.564	0.0165701
681.642	0.0166022
681.721	0.0163085
681.799	0.0165297
681.877	0.0163913
681.955	0.0164726
682.033	0.0164564
682.111	0.0163874
682.189	0.0164392
682.267	0.0164902
682.346	0.0164036
682.424	0.0164862
682.502	0.0164990
682.580	0.0164683
682.658	0.0165928
682.736	0.0166301
682.814	0.0164419
682.892	0.0164458
682.971	0.0165041
683.049	0.0165547
683.127	0.0163956
683.205	0.0164088
683.283	0.0164314
683.361	0.0165262
683.439	0.0164505
683.517	0.0164719
683.596	0.0164793
683.674	0.0164828
683.752	0.0163689
683.830	0.0163223
683.908	0.0165191
683.986	0.0164756
684.064	0.0165717
684.142	0.0165730
684.221	0.0164250
684.299	0.0163167
684.377	0.0165160
684.455	0.0164592
684.533	0.0164540
684.611	0.0164680
684.689	0.0164178
684.767	0.0165177
684.846	0.0165466
684.924	0.0164388
685.002	0.0164986
685.080	0.0164610
685.158	0.0164951
685.236	0.0166640
685.314	0.0163622
685.392	0.0164969
685.471	0.0165940
685.549	0.0164567
685.627	0.0165137
685.705	0.0166105
685.783	0.0165250
685.861	0.0164816
685.939	0.0163940
686.017	0.0165922
686.096	0.0165984
686.174	0.0166509
686.252	0.0165534
686.330	0.0166933
686.408	0.0165952
686.486	0.0165531
686.564	0.0167032
686.642	0.0166843
686.721	0.0166900
686.799	0.0165991
686.877	0.0165777
686.955	0.0166328
687.033	0.0168473
687.111	0.0165129
687.189	0.0166273
687.267	0.0166098
687.346	0.0165943
687.424	0.0166380
687.502	0.0167632
687.580	0.0167328
687.658	0.0165981
687.736	0.0164282
687.814	0.0165804
687.892	0.0166142
687.971	0.0164204
688.049	0.0166179
688.127	0.0165520
688.205	0.0165071
688.283	0.0167216
688.361	0.0166505
688.439	0.0165411
688.517	0.0165355
688.596	0.0166761
688.674	0.0167530
688.752	0.0165419
688.830	0.0165437
688.908	0.0164853
688.986	0.0165956
689.064	0.0166226
689.142	0.0165935
689.221	0.0165582
689.299	0.0165283
689.377	0.0166103
689.455	0.0166490
689.533	0.0165392
689.611	0.0164365
689.689	0.0165189
689.767	0.0163157
689.846	0.0165036
689.924	0.0165468
690.002	0.0164646
690.080	0.0165202
690.158	0.0164890
690.236	0.0163216
690.314	0.0165042
690.392	0.0164375
690.471	0.0163411
690.549	0.0164996
690.627	0.0163993
690.705	0.0164210
690.783	0.0165404
690.861	0.0163493
690.939	0.0163473
691.017	0.0163760
691.096	0.0164175
691.174	0.0164613
691.252	0.0165262
691.330	0.0164850
691.408	0.0164782
691.486	0.0164384
691.564	0.0165579
691.642	0.0166225
691.721	0.0165094
691.799	0.0164108
691.877	0.0165864
691.955	0.0165493
692.033	0.0165015
692.111	0.0165366
692.189	0.0165783
692.267	0.0166000
692.346	0.0165992
692.424	0.0165253
692.502	0.0166469
692.580	0.0165289
692.658	0.0164660
692.736	0.0166419
692.814	0.0166090
692.892	0.0165295
692.971	0.0165745
693.049	0.0165743
693.127	0.0164736
693.205	0.0164896
693.283	0.0164087
693.361	0.0164056
693.439	0.0164522
693.517	0.0164350
693.596	0.0165228
693.674	0.0164407
693.752	0.0163309
693.830	0.0163788
693.908	0.0162690
693.986	0.0164975
694.064	0.0163406
694.142	0.0163290
694.221	0.0161561
694.299	0.0161993
694.377	0.0161118
694.455	0.0161964
694.533	0.0162910
694.611	0.0163248
694.689	0.0163225
694.767	0.0162747
694.846	0.0162151
694.924	0.0163737
695.002	0.0164014
695.080	0.0162121
695.158	0.0163258
695.236	0.0163355
695.314	0.0164178
695.392	0.0164298
695.471	0.0163866
695.549	0.0162888
695.627	0.0164175
695.705	0.0164770
695.783	0.0164511
695.861	0.0164544
695.939	0.0164488
696.017	0.0164304
696.096	0.0164356
696.174	0.0166330
696.252	0.0165928
696.330	0.0165074
696.408	0.0164465
696.486	0.0164887
696.564	0.0163125
696.642	0.0163078
696.721	0.0163979
696.799	0.0163810
696.877	0.0164246
696.955	0.0164330
697.033	0.0164302
697.111	0.0164380
697.189	0.0164362
697.267	0.0164150
697.346	0.0163190
697.424	0.0164175
697.502	0.0165511
697.580	0.0165759
697.658	0.0166491
697.736	0.0163353
697.814	0.0165298
697.892	0.0164944
697.971	0.0164389
698.049	0.0164703
698.127	0.0166023
698.205	0.0164632
698.283	0.0164789
698.361	0.0165205
698.439	0.0165132
698.517	0.0164307
698.596	0.0164581
698.674	0.0163487
698.752	0.0163323
698.830	0.0162663
698.908	0.0160772
698.986	0.0164197
699.064	0.0162838
699.142	0.0163377
699.221	0.0162027
699.299	0.0162530
699.377	0.0162775
699.455	0.0163746
699.533	0.0163770
699.611	0.0161632
699.689	0.0162616
699.767	0.0161859
699.846	0.0162273
699.924	0.0161952
700.002	0.0160685
700.080	0.0162289
700.158	0.0159886
700.236	0.0161544
700.314	0.0162608
700.392	0.0161436
700.471	0.0161634
700.549	0.0160369
700.627	0.0161785
700.705	0.0161361
700.783	0.0161253
700.861	0.0162129
700.939	0.0161364
701.017	0.0163770
701.096	0.0163535
701.174	0.0162671
701.252	0.0164841
701.330	0.0164256
701.408	0.0164725
701.486	0.0165536
701.564	0.0166280
701.642	0.0166698
701.721	0.0168414
701.799	0.0167548
701.877	0.0167284
701.955	0.0167905
702.033	0.0167163
702.111	0.0167017
702.189	0.0166796
702.267	0.0167043
702.346	0.0167010
702.424	0.0165229
702.502	0.0166088
702.580	0.0165520
702.658	0.0163789
702.736	0.0164146
702.814	0.0165851
702.892	0.0163264
702.971	0.0162360
703.049	0.0161789
703.127	0.0163127
703.205	0.0163740
703.283	0.0162109
703.361	0.0162701
703.439	0.0161781
703.517	0.0160760
703.596	0.0161548
703.674	0.0161596
703.752	0.0161053
703.830	0.0163245
703.908	0.0161821
703.986	0.0163084
704.064	0.0163581
704.142	0.0164848
704.221	0.0163892
704.299	0.0166528
704.377	0.0166481
704.455	0.0165527
704.533	0.0166684
704.611	0.0167686
704.689	0.0166985
704.767	0.0164814
704.846	0.0166013
704.924	0.0165931
705.002	0.0167146
705.080	0.0166299
705.158	0.0164655
705.236	0.0163403
705.314	0.0163739
705.392	0.0163235
705.471	0.0161939
705.549	0.0162038
705.627	0.0161942
705.705	0.0162501
705.783	0.0163512
705.861	0.0162826
705.939	0.0162257
706.017	0.0163127
706.096	0.0163267
706.174	0.0163581
706.252	0.0164868
706.330	0.0165163
706.408	0.0165005
706.486	0.0166144
706.564	0.0164685
706.642	0.0164711
706.721	0.0166199
706.799	0.0166307
706.877	0.0164894
706.955	0.0163728
707.033	0.0164238
707.111	0.0165358
707.189	0.0165955
707.267	0.0164802
707.346	0.0165665
707.424	0.0164886
707.502	0.0163484
707.580	0.0164635
707.658	0.0165876
707.736	0.0165408
707.814	0.0166500
707.892	0.0166333
707.971	0.0168064
708.049	0.0166290
708.127	0.0166826
708.205	0.0166405
708.283	0.0166874
708.361	0.0166737
708.439	0.0165402
708.517	0.0165562
708.596	0.0165548
708.674	0.0165351
708.752	0.0165069
708.830	0.0164726
708.908	0.0164229
708.986	0.0163304
709.064	0.0163449
709.142	0.0163052
709.221	0.0164292
709.299	0.0164199
709.377	0.0163376
709.455	0.0164161
709.533	0.0164311
709.611	0.0164139
709.689	0.0165477
709.767	0.0166882
709.846	0.0166878
709.924	0.0164616
710.002	0.0166616
710.080	0.0167663
710.158	0.0166867
710.236	0.0166695
710.314	0.0168411
710.392	0.0166766
710.471	0.0167171
710.549	0.0166943
710.627	0.0166003
710.705	0.0165377
710.783	0.0165319
710.861	0.0165791
710.939	0.0164763
711.017	0.0164555
711.096	0.0164203
711.174	0.0164178
711.252	0.0163587
711.330	0.0164291
711.408	0.0162909
711.486	0.0162552
711.564	0.0163318
711.642	0.0163970
711.721	0.0163416
711.799	0.0163657
711.877	0.0163775
711.955	0.0163582
712.033	0.0164490
712.111	0.0164754
712.189	0.0164912
712.267	0.0165533
712.346	0.0165789
712.424	0.0166883
712.502	0.0166061
712.580	0.0164323
712.658	0.0165723
712.736	0.0165553
712.814	0.0166513
712.892	0.0165391
712.971	0.0165063
713.049	0.0164828
713.127	0.0165180
713.205	0.0163902
713.283	0.0163589
713.361	0.0163787
713.439	0.0164873
713.517	0.0163877
713.596	0.0163791
713.674	0.0163184
713.752	0.0162832
713.830	0.0162775
713.908	0.0163329
713.986	0.0163539
714.064	0.0164268
714.142	0.0164273
714.221	0.0163614
714.299	0.0163847
714.377	0.0163681
714.455	0.0164516
714.533	0.0164028
714.611	0.0163032
714.689	0.0163372
714.767	0.0165043
714.846	0.0165517
714.924	0.0163634
715.002	0.0163195
715.080	0.0163022
715.158	0.0163348
715.236	0.0163329
715.314	0.0162971
715.392	0.0165099
715.471	0.0165897
715.549	0.0165059
715.627	0.0167192
715.705	0.0167004
715.783	0.0167038
715.861	0.0169456
715.939	0.0168579
716.017	0.0168417
716.096	0.0169591
716.174	0.0169525
716.252	0.0169106
716.330	0.0167910
716.408	0.0168711
716.486	0.0168433
716.564	0.0167298
716.642	0.0165978
716.721	0.0165981
716.799	0.0166048
716.877	0.0164839
716.955	0.0163498
717.033	0.0162666
717.111	0.0161592
717.189	0.0161393
717.267	0.0159460
717.346	0.0161740
717.424	0.0162582
717.502	0.0161948
717.580	0.0161917
717.658	0.0161987
717.736	0.0161900
717.814	0.0163226
717.892	0.0162685
717.971	0.0163216
718.049	0.0164174
718.127	0.0167445
718.205	0.0165726
718.283	0.0165221
718.361	0.0164969
718.439	0.0165448
718.517	0.0165530
718.596	0.0163703
718.674	0.0163698
718.752	0.0164064
718.830	0.0163168
718.908	0.0163873
718.986	0.0163515
719.064	0.0161699
719.142	0.0162878
719.221	0.0163197
719.299	0.0160762
719.377	0.0163219
719.455	0.0164212
719.533	0.0163200
719.611	0.0163875
719.689	0.0164630
719.767	0.0163513
719.846	0.0163997
719.924	0.0165575
720.002	0.0164229
720.080	0.0164751
720.158	0.0165989
720.236	0.0165171
720.314	0.0166627
720.392	0.0166769
720.471	0.0166196
720.549	0.0165399
720.627	0.0167010
720.705	0.0167313
720.783	0.0166815
720.861	0.0166769
720.939	0.0166819
721.017	0.0166547
721.096	0.0166949
721.174	0.0165958
721.252	0.0166326
721.330	0.0166196
721.408	0.0166867
721.486	0.0166639
721.564	0.0166084
721.642	0.0165160
721.721	0.0164257
721.799	0.0164475
721.877	0.0164999
721.955	0.0164539
722.033	0.0163408
722.111	0.0163139
722.189	0.0163341
722.267	0.0163564
722.346	0.0163435
722.424	0.0162109
722.502	0.0161908
722.580	0.0162009
722.658	0.0163229
722.736	0.0162862
722.814	0.0163116
722.892	0.0164070
722.971	0.0163361
723.049	0.0165115
723.127	0.0165533
723.205	0.0164729
723.283	0.0164633
723.361	0.0165406
723.439	0.0166289
723.517	0.0166588
723.596	0.0166793
723.674	0.0166630
723.752	0.0164857
723.830	0.0164540
723.908	0.0163969
723.986	0.0164139
724.064	0.0162917
724.142	0.0163685
724.221	0.0163835
724.299	0.0162096
724.377	0.0163890
724.455	0.0162652
724.533	0.0161653
724.611	0.0162785
724.689	0.0161089
724.767	0.0163554
724.846	0.0163249
724.924	0.0162138
725.002	0.0163062
725.080	0.0163435
725.158	0.0163364
725.236	0.0164252
725.314	0.0164658
725.392	0.0164384
725.471	0.0166013
725.549	0.0165184
725.627	0.0164529
725.705	0.0165451
725.783	0.0164385
725.861	0.0164858
725.939	0.0165300
726.017	0.0163882
726.096	0.0163176
726.174	0.0162519
726.252	0.0163821
726.330	0.0163292
726.408	0.0164396
726.486	0.0164539
726.564	0.0163834
726.642	0.0162810
726.721	0.0164288
726.799	0.0162124
726.877	0.0164191
726.955	0.0165463
727.033	0.0163799
727.111	0.0163860
727.189	0.0164883
727.267	0.0165594
727.346	0.0164148
727.424	0.0164068
727.502	0.0164653
727.580	0.0165872
727.658	0.0164384
727.736	0.0165808
727.814	0.0166182
727.892	0.0165454
727.971	0.0165876
728.049	0.0165396
728.127	0.0165894
728.205	0.0166173
728.283	0.0167066
728.361	0.0165676
728.439	0.0165800
728.517	0.0166925
728.596	0.0166896
728.674	0.0166412
728.752	0.0166144
728.830	0.0165363
728.908	0.0166299
728.986	0.0166396
729.064	0.0166496
729.142	0.0165096
729.221	0.0164742
729.299	0.0165017
729.377	0.0165986
729.455	0.0166381
729.533	0.0165619
729.611	0.0164456
729.689	0.0162682
729.767	0.0163277
729.846	0.0163563
729.924	0.0162035
730.002	0.0162613
730.080	0.0163473
730.158	0.0162313
730.236	0.0161089
730.314	0.0161047
730.392	0.0161452
730.471	0.0160228
730.549	0.0159394
730.627	0.0161369
730.705	0.0162787
730.783	0.0162382
730.861	0.0163900
730.939	0.0163705
731.017	0.0165288
731.096	0.0165430
731.174	0.0166357
731.252	0.0166689
731.330	0.0167436
731.408	0.0168178
731.486	0.0167935
731.564	0.0167220
731.642	0.0167404
731.721	0.0168591
731.799	0.0168250
731.877	0.0168067
731.955	0.0165049
732.033	0.0166245
732.111	0.0165022
732.189	0.0164461
732.267	0.0163291
732.346	0.0163029
732.424	0.0162424
732.502	0.0161424
732.580	0.0160099
732.658	0.0160574
732.736	0.0160260
732.814	0.0159477
732.892	0.0159159
732.971	0.0160913
733.049	0.0160863
733.127	0.0161248
733.205	0.0161474
733.283	0.0160047
733.361	0.0161381
733.439	0.0162202
733.517	0.0162026
733.596	0.0163399
733.674	0.0162746
733.752	0.0165234
733.830	0.0165207
733.908	0.0165453
733.986	0.0166119
734.064	0.0167081
734.142	0.0166727
734.221	0.0165517
734.299	0.0168216
734.377	0.0168491
734.455	0.0168423
734.533	0.0167483
734.611	0.0169484
734.689	0.0169029
734.767	0.0168559
734.846	0.0167751
734.924	0.0167876
735.002	0.0169424
735.080	0.0168200
735.158	0.0167762
735.236	0.0166227
735.314	0.0167576
735.392	0.0165994
735.471	0.0163998
735.549	0.0165091
735.627	0.0164629
735.705	0.0162562
735.783	0.0161465
735.861	0.0163226
735.939	0.0163261
736.017	0.0160952
736.096	0.0161137
736.174	0.0161684
736.252	0.0160823
736.330	0.0160145
736.408	0.0162316
736.486	0.0161846
736.564	0.0161999
736.642	0.0162215
736.721	0.0163456
736.799	0.0163697
736.877	0.0162062
736.955	0.0163779
737.033	0.0164795
737.111	0.0164901
737.189	0.0165192
737.267	0.0165482
737.346	0.0165144
737.424	0.0164962
737.502	0.0166106
737.580	0.0166690
737.658	0.0166317
737.736	0.0167349
737.814	0.0167558
737.892	0.0166661
737.971	0.0167471
738.049	0.0166326
738.127	0.0166228
738.205	0.0167096
738.283	0.0167225
738.361	0.0166366
738.439	0.0166943
738.517	0.0167447
738.596	0.0167554
738.674	0.0167822
738.752	0.0166078
738.830	0.0165945
738.908	0.0166286
738.986	0.0166896
739.064	0.0165606
739.142	0.0163885
739.221	0.0164477
739.299	0.0163342
739.377	0.0163140
739.455	0.0162632
739.533	0.0163487
739.611	0.0162701
739.689	0.0162111
739.767	0.0161662
739.846	0.0162312
739.924	0.0162153
740.002	0.0161828
740.080	0.0161628
740.158	0.0162244
740.236	0.0163423
740.314	0.0163000
740.392	0.0162669
740.471	0.0163832
740.549	0.0163754
740.627	0.0164593
740.705	0.0164887
740.783	0.0165656
740.861	0.0165672
740.939	0.0165003
741.017	0.0166353
741.096	0.0164836
741.174	0.0164032
741.252	0.0165668
741.330	0.0166433
741.408	0.0167066
741.486	0.0165086
741.564	0.0164229
741.642	0.0165052
741.721	0.0165031
741.799	0.0165112
741.877	0.0165282
741.955	0.0164848
742.033	0.0165022
742.111	0.0164019
742.189	0.0166077
742.267	0.0166126
742.346	0.0165671
742.424	0.0165909
742.502	0.0167407
742.580	0.0168185
742.658	0.0165564
742.736	0.0166707
742.814	0.0167387
742.892	0.0167115
742.971	0.0166772
743.049	0.0167916
743.127	0.0166807
743.205	0.0166225
743.283	0.0166077
743.361	0.0166518
743.439	0.0164312
743.517	0.0165134
743.596	0.0166151
743.674	0.0164689
743.752	0.0164638
743.830	0.0162872
743.908	0.0163934
743.986	0.0163667
744.064	0.0164229
744.142	0.0164876
744.221	0.0163647
744.299	0.0163943
744.377	0.0164814
744.455	0.0164252
744.533	0.0163898
744.611	0.0164819
744.689	0.0165195
744.767	0.0165933
744.846	0.0164719
744.924	0.0164533
745.002	0.0165969
745.080	0.0166320
745.158	0.0165939
745.236	0.0165224
745.314	0.0166540
745.392	0.0166899
745.471	0.0166599
745.549	0.0166351
745.627	0.0166040
745.705	0.0165169
745.783	0.0165827
745.861	0.0164193
745.939	0.0163351
746.017	0.0163987
746.096	0.0164712
746.174	0.0162547
746.252	0.0162659
746.330	0.0163703
746.408	0.0164396
746.486	0.0164324
746.564	0.0163618
746.642	0.0163458
746.721	0.0163892
746.799	0.0165526
746.877	0.0164606
746.955	0.0165172
747.033	0.0164598
747.111	0.0165829
747.189	0.0165797
747.267	0.0165564
747.346	0.0166650
747.424	0.0168610
747.502	0.0166977
747.580	0.0167110
747.658	0.0167264
747.736	0.0167276
747.814	0.0167651
747.892	0.0168069
747.971	0.0167144
748.049	0.0167323
748.127	0.0165316
748.205	0.0166086
748.283	0.0166565
748.361	0.0167068
748.439	0.0167715
748.517	0.0165125
748.596	0.0165807
748.674	0.0167469
748.752	0.0166771
748.830	0.0165686
748.908	0.0165028
748.986	0.0166109
749.064	0.0165169
749.142	0.0165238
749.221	0.0164935
749.299	0.0164606
749.377	0.0165250
749.455	0.0165920
749.533	0.0164861
749.611	0.0163668
749.689	0.0163029
749.767	0.0162739
749.846	0.0162437
749.924	0.0162601
750.002	0.0163835
750.080	0.0164165
750.158	0.0161466
750.236	0.0162439
750.314	0.0162461
750.392	0.0163283
750.471	0.0163820
750.549	0.0163448
750.627	0.0163573
750.705	0.0164857
750.783	0.0164578
750.861	0.0162238
750.939	0.0163927
751.017	0.0164235
751.096	0.0163785
751.174	0.0163833
751.252	0.0165649
751.330	0.0163138
751.408	0.0163441
751.486	0.0165553
751.564	0.0165476
751.642	0.0165833
751.721	0.0165475
751.799	0.0165981
751.877	0.0164481
751.955	0.0166006
752.033	0.0165241
752.111	0.0166302
752.189	0.0166957
752.267	0.0166785
752.346	0.0166235
752.424	0.0166505
752.502	0.0166107
752.580	0.0169110
752.658	0.0168359
752.736	0.0168861
752.814	0.0167658
752.892	0.0168299
752.971	0.0168375
753.049	0.0168626
753.127	0.0168489
753.205	0.0168345
753.283	0.0169316
753.361	0.0167917
753.439	0.0168266
753.517	0.0168343
753.596	0.0166766
753.674	0.0165784
753.752	0.0165303
753.830	0.0165569
753.908	0.0165411
753.986	0.0165687
754.064	0.0165329
754.142	0.0164642
754.221	0.0165127
754.299	0.0164188
754.377	0.0164094
754.455	0.0165246
754.533	0.0164164
754.611	0.0164280
754.689	0.0165417
754.767	0.0164374
754.846	0.0162989
754.924	0.0162700
755.002	0.0163943
755.080	0.0162966
755.158	0.0161920
755.236	0.0162724
755.314	0.0162222
755.392	0.0161656
755.471	0.0163615
755.549	0.0162840
755.627	0.0162436
755.705	0.0161936
755.783	0.0163386
755.861	0.0162263
755.939	0.0161987
756.017	0.0164525
756.096	0.0164101
756.174	0.0163667
756.252	0.0163579
756.330	0.0163647
756.408	0.0165006
756.486	0.0165327
756.564	0.0164774
756.642	0.0165589
756.721	0.0166984
756.799	0.0167094
756.877	0.0166198
756.955	0.0164621
757.033	0.0165733
757.111	0.0167154
757.189	0.0166982
757.267	0.0165667
757.346	0.0165934
757.424	0.0166013
757.502	0.0165268
757.580	0.0165820
757.658	0.0165681
757.736	0.0165600
757.814	0.0164870
757.892	0.0165375
757.971	0.0164287
758.049	0.0163947
758.127	0.0164299
758.205	0.0164510
758.283	0.0165489
758.361	0.0163750
758.439	0.0163415
758.517	0.0163364
758.596	0.0164272
758.674	0.0164883
758.752	0.0164799
758.830	0.0165424
758.908	0.0164616
758.986	0.0166101
759.064	0.0164804
759.142	0.0164817
759.221	0.0165552
759.299	0.0164986
759.377	0.0164361
759.455	0.0164709
759.533	0.0164387
759.611	0.0163780
759.689	0.0163609
759.767	0.0164434
759.846	0.0162615
759.924	0.0162820
760.002	0.0164459
760.080	0.0163708
760.158	0.0164772
760.236	0.0163725
760.314	0.0162694
760.392	0.0163744
760.471	0.0164732
760.549	0.0164288
760.627	0.0163688
760.705	0.0163876
760.783	0.0163823
760.861	0.0164560
760.939	0.0164346
761.017	0.0163491
761.096	0.0163256
761.174	0.0163541
761.252	0.0162672
761.330	0.0165031
761.408	0.0164003
761.486	0.0162131
761.564	0.0164306
761.642	0.0163497
761.721	0.0164184
761.799	0.0165188
761.877	0.0163010
761.955	0.0164386
762.033	0.0164648
762.111	0.0164939
762.189	0.0165312
762.267	0.0166074
762.346	0.0164904
762.424	0.0164478
762.502	0.0165022
762.580	0.0166303
762.658	0.0165328
762.736	0.0164449
762.814	0.0165807
762.892	0.0166806
762.971	0.0166599
763.049	0.0165617
763.127	0.0165670
763.205	0.0165453
763.283	0.0166125
763.361	0.0164441
763.439	0.0165390
763.517	0.0164742
763.596	0.0164359
763.674	0.0164112
763.752	0.0164925
763.830	0.0163072
763.908	0.0163989
763.986	0.0163012
764.064	0.0163914
764.142	0.0163233
764.221	0.0163972
764.299	0.0162811
764.377	0.0163148
764.455	0.0163955
764.533	0.0163803
764.611	0.0164616
764.689	0.0164577
764.767	0.0163519
764.846	0.0164725
764.924	0.0165092
765.002	0.0165537
765.080	0.0165555
765.158	0.0164484
765.236	0.0165072
765.314	0.0164812
765.392	0.0166328
765.471	0.0164513
765.549	0.0164146
765.627	0.0165013
765.705	0.0164738
765.783	0.0164883
765.861	0.0165254
765.939	0.0164981
766.017	0.0165988
766.096	0.0164989
766.174	0.0164825
766.252	0.0165190
766.330	0.0165465
766.408	0.0165410
766.486	0.0165839
766.564	0.0165312
766.642	0.0164712
766.721	0.0165735
766.799	0.0165538
766.877	0.0164232
766.955	0.0163776
767.033	0.0165403
767.111	0.0165720
767.189	0.0165915
767.267	0.0164699
767.346	0.0165057
767.424	0.0163712
767.502	0.0166258
767.580	0.0166132
767.658	0.0165885
767.736	0.0166853
767.814	0.0166699
767.892	0.0166823
767.971	0.0167110
768.049	0.0167191
768.127	0.0168050
768.205	0.0166817
768.283	0.0166153
768.361	0.0165580
768.439	0.0166650
768.517	0.0166968
768.596	0.0164632
768.674	0.0166584
768.752	0.0166866
768.830	0.0164690
768.908	0.0164156
768.986	0.0165067
769.064	0.0164124
769.142	0.0163387
769.221	0.0163819
769.299	0.0162914
769.377	0.0164081
769.455	0.0163319
769.533	0.0163076
769.611	0.0163576
769.689	0.0162741
769.767	0.0166145
769.846	0.0164219
769.924	0.0164645
770.002	0.0164393
770.080	0.0164229
770.158	0.0165080
770.236	0.0165611
770.314	0.0165919
770.392	0.0166797
770.471	0.0166770
770.549	0.0167592
770.627	0.0167310
770.705	0.0166505
770.783	0.0166713
770.861	0.0165579
770.939	0.0166517
771.017	0.0167000
771.096	0.0167174
771.174	0.0164040
771.252	0.0164612
771.330	0.0165334
771.408	0.0164817
771.486	0.0163902
771.564	0.0162683
771.642	0.0164726
771.721	0.0163479
771.799	0.0162262
771.877	0.0162806
771.955	0.0164225
772.033	0.0164132
772.111	0.0164527
772.189	0.0163734
772.267	0.0162347
772.346	0.0164459
772.424	0.0165163
772.502	0.0164381
772.580	0.0166399
772.658	0.0166174
772.736	0.0166409
772.814	0.0165164
772.892	0.0165816
772.971	0.0166321
773.049	0.0164964
773.127	0.0166049
773.205	0.0166991
773.283	0.0165215
773.361	0.0166843
773.439	0.0165022
773.517	0.0163880
773.596	0.0165915
773.674	0.0164854
773.752	0.0165220
773.830	0.0164864
773.908	0.0164217
773.986	0.0165282
774.064	0.0165491
774.142	0.0163313
774.221	0.0163300
774.299	0.0164941
774.377	0.0163397
774.455	0.0162446
774.533	0.0162443
774.611	0.0163165
774.689	0.0163950
774.767	0.0162509
774.846	0.0162955
774.924	0.0163569
775.002	0.0163828
775.080	0.0164225
775.158	0.0163700
775.236	0.0164868
775.314	0.0164639
775.392	0.0163737
775.471	0.0165045
775.549	0.0164456
775.627	0.0166608
775.705	0.0164793
775.783	0.0165157
775.861	0.0165822
775.939	0.0165617
776.017	0.0164524
776.096	0.0166404
776.174	0.0165578
776.252	0.0165102
776.330	0.0164853
776.408	0.0165065
776.486	0.0166171
776.564	0.0165050
776.642	0.0164705
776.721	0.0164970
776.799	0.0163779
776.877	0.0162598
776.955	0.0163872
777.033	0.0163722
777.111	0.0162260
777.189	0.0162643
777.267	0.0162528
777.346	0.0162401
777.424	0.0162203
777.502	0.0161798
777.580	0.0163527
777.658	0.0162242
777.736	0.0163472
777.814	0.0163839
777.892	0.0164001
777.971	0.0163277
778.049	0.0164309
778.127	0.0165295
778.205	0.0164639
778.283	0.0165154
778.361	0.0164604
778.439	0.0165702
778.517	0.0164722
778.596	0.0165720
778.674	0.0164598
778.752	0.0164449
778.830	0.0165742
778.908	0.0163860
778.986	0.0164356
779.064	0.0164551
779.142	0.0163332
779.221	0.0162965
779.299	0.0162724
779.377	0.0164681
779.455	0.0163660
779.533	0.0162670
779.611	0.0162016
779.689	0.0162473
779.767	0.0161980
779.846	0.0162864
779.924	0.0162821
780.002	0.0162629
780.080	0.0162876
780.158	0.0163244
780.236	0.0163232
780.314	0.0163217
780.392	0.0163708
780.471	0.0163398
780.549	0.0163154
780.627	0.0163024
780.705	0.0163515
780.783	0.0162855
780.861	0.0164324
780.939	0.0163882
781.017	0.0163677
781.096	0.0165543
781.174	0.0164915
781.252	0.0166927
781.330	0.0166785
781.408	0.0164802
781.486	0.0166335
781.564	0.0165812
781.642	0.0165672
781.721	0.0166373
781.799	0.0165664
781.877	0.0164482
781.955	0.0165548
782.033	0.0165800
782.111	0.0164403
782.189	0.0164244
782.267	0.0164009
782.346	0.0163648
782.424	0.0163564
782.502	0.0163713
782.580	0.0164014
782.658	0.0163726
782.736	0.0164561
782.814	0.0163487
782.892	0.0162701
782.971	0.0163994
783.049	0.0164442
783.127	0.0162855
783.205	0.0163451
783.283	0.0163217
783.361	0.0163638
783.439	0.0164328
783.517	0.0163836
783.596	0.0163944
783.674	0.0164283
783.752	0.0164598
783.830	0.0164634
783.908	0.0164350
783.986	0.0165053
784.064	0.0163882
784.142	0.0165015
784.221	0.0165279
784.299	0.0164537
784.377	0.0164027
784.455	0.0165370
784.533	0.0164703
784.611	0.0163863
784.689	0.0163192
784.767	0.0163093
784.846	0.0164616
784.924	0.0163202
785.002	0.0162958
785.080	0.0163427
785.158	0.0162366
785.236	0.0162362
785.314	0.0162078
785.392	0.0163265
785.471	0.0162559
785.549	0.0163106
785.627	0.0162784
785.705	0.0163060
785.783	0.0162871
785.861	0.0162701
785.939	0.0163136
786.017	0.0164691
786.096	0.0165360
786.174	0.0164019
786.252	0.0165903
786.330	0.0165739
786.408	0.0165616
786.486	0.0164175
786.564	0.0165746
786.642	0.0165734
786.721	0.0164430
786.799	0.0165880
786.877	0.0164816
786.955	0.0166673
787.033	0.0165905
787.111	0.0166190
787.189	0.0165411
787.267	0.0164652
787.346	0.0164615
787.424	0.0165002
787.502	0.0165453
787.580	0.0164450
787.658	0.0165844
787.736	0.0164050
787.814	0.0163428
787.892	0.0164473
787.971	0.0164363
788.049	0.0164175
788.127	0.0163544
788.205	0.0165199
788.283	0.0164330
788.361	0.0164573
788.439	0.0163816
788.517	0.0165271
788.596	0.0164154
788.674	0.0164478
788.752	0.0165920
788.830	0.0165321
788.908	0.0165012
788.986	0.0164731
789.064	0.0165172
789.142	0.0164619
789.221	0.0166473
789.299	0.0164754
789.377	0.0164465
789.455	0.0164973
789.533	0.0165822
789.611	0.0164954
789.689	0.0164684
789.767	0.0166058
789.846	0.0164646
789.924	0.0164481
790.002	0.0165722
790.080	0.0164686
790.158	0.0165598
790.236	0.0165215
790.314	0.0165596
790.392	0.0164268
790.471	0.0165414
790.549	0.0165993
790.627	0.0164347
790.705	0.0165514
790.783	0.0165263
790.861	0.0165716
790.939	0.0165459
791.017	0.0165518
791.096	0.0166606
791.174	0.0167526
791.252	0.0166553
791.330	0.0165919
791.408	0.0167001
791.486	0.0165067
791.564	0.0166608
791.642	0.0166589
791.721	0.0167065
791.799	0.0166284
791.877	0.0167343
791.955	0.0166158
792.033	0.0166128
792.111	0.0166273
792.189	0.0164872
792.267	0.0165243
792.346	0.0164614
792.424	0.0164534
792.502	0.0164277
792.580	0.0164426
792.658	0.0163348
792.736	0.0164765
792.814	0.0162270
792.892	0.0161794
792.971	0.0163908
793.049	0.0162070
793.127	0.0164413
793.205	0.0163742
793.283	0.0162387
793.361	0.0163972
793.439	0.0163028
793.517	0.0164024
793.596	0.0165097
793.674	0.0165398
793.752	0.0163863
793.830	0.0164460
793.908	0.0166290
793.986	0.0164144
794.064	0.0164985
794.142	0.0163154
794.221	0.0165285
794.299	0.0165316
794.377	0.0166298
794.455	0.0165479
794.533	0.0164484
794.611	0.0166126
794.689	0.0166051
794.767	0.0165714
794.846	0.0164985
794.924	0.0165783
795.002	0.0165232
795.080	0.0163929
795.158	0.0163190
795.236	0.0166016
795.314	0.0164435
795.392	0.0164137
795.471	0.0164419
795.549	0.0164453
795.627	0.0161742
795.705	0.0163795
795.783	0.0163383
795.861	0.0163345
795.939	0.0164440
796.017	0.0163371
796.096	0.0164458
796.174	0.0163047
796.252	0.0164574
796.330	0.0164033
796.408	0.0162855
796.486	0.0163715
796.564	0.0163949
796.642	0.0163647
796.721	0.0165760
796.799	0.0165486
796.877	0.0163593
796.955	0.0164629
797.033	0.0165508
797.111	0.0164173
797.189	0.0164346
797.267	0.0164331
797.346	0.0163322
797.424	0.0163790
797.502	0.0163567
797.580	0.0163251
797.658	0.0163952
797.736	0.0162260
797.814	0.0162596
797.892	0.0164169
797.971	0.0163646
798.049	0.0162085
798.127	0.0163251
798.205	0.0163630
798.283	0.0163777
798.361	0.0164142
798.439	0.0165417
798.517	0.0164180
798.596	0.0164043
798.674	0.0164296
798.752	0.0164278
798.830	0.0166876
798.908	0.0165434
798.986	0.0166219
799.064	0.0165406
799.142	0.0165129
799.221	0.0165218
799.299	0.0165718
799.377	0.0166741
799.455	0.0164922
799.533	0.0165099
799.611	0.0165591
799.689	0.0166189
799.767	0.0165781
799.846	0.0163847
799.924	0.0163035
800.002	0.0165031
800.080	0.0164661
800.158	0.0161801
800.236	0.0162730
800.314	0.0162793
800.392	0.0161819
800.471	0.0162174
800.549	0.0161314
800.627	0.0162057
800.705	0.0162144
800.783	0.0161034
800.861	0.0162836
800.939	0.0161417
801.017	0.0162328
801.096	0.0163179
801.174	0.0163120
801.252	0.0164049
801.330	0.0163392
801.408	0.0164367
801.486	0.0165012
801.564	0.0165479
801.642	0.0164693
801.721	0.0164270
801.799	0.0165536
801.877	0.0164955
801.955	0.0163997
802.033	0.0163986
802.111	0.0163480
802.189	0.0164410
802.267	0.0164760
802.346	0.0162993
802.424	0.0163252
802.502	0.0162962
802.580	0.0165001
802.658	0.0163971
802.736	0.0164866
802.814	0.0163030
802.892	0.0164763
802.971	0.0163451
803.049	0.0163105
803.127	0.0164375
803.205	0.0165096
803.283	0.0164526
803.361	0.0164126
803.439	0.0163239
803.517	0.0163130
803.596	0.0164998
803.674	0.0165841
803.752	0.0164074
803.830	0.0165356
803.908	0.0165020
803.986	0.0164686
804.064	0.0165621
804.142	0.0165472
804.221	0.0164850
804.299	0.0165171
804.377	0.0163555
804.455	0.0165005
804.533	0.0164072
804.611	0.0165222
804.689	0.0164983
804.767	0.0163934
804.846	0.0165515
804.924	0.0164480
805.002	0.0164660
805.080	0.0163892
805.158	0.0163936
805.236	0.0164154
805.314	0.0165034
805.392	0.0163898
805.471	0.0163873
805.549	0.0163033
805.627	0.0164449
805.705	0.0164703
805.783	0.0163552
805.861	0.0163874
805.939	0.0163549
806.017	0.0164169
806.096	0.0164008
806.174	0.0163683
806.252	0.0163499
806.330	0.0163901
806.408	0.0163802
806.486	0.0164592
806.564	0.0163795
806.642	0.0164577
806.721	0.0164777
806.799	0.0165685
806.877	0.0165123
806.955	0.0164000
807.033	0.0164407
807.111	0.0165744
807.189	0.0164397
807.267	0.0165205
807.346	0.0165198
807.424	0.0164642
807.502	0.0164197
807.580	0.0164988
807.658	0.0164321
807.736	0.0164574
807.814	0.0164305
807.892	0.0163012
807.971	0.0164023
808.049	0.0162978
808.127	0.0164306
808.205	0.0163493
808.283	0.0163966
808.361	0.0164366
808.439	0.0164352
808.517	0.0164587
808.596	0.0163834
808.674	0.0165142
808.752	0.0165417
808.830	0.0165056
808.908	0.0163705
808.986	0.0166914
809.064	0.0164936
809.142	0.0164806
809.221	0.0165083
809.299	0.0166602
809.377	0.0166287
809.455	0.0165993
809.533	0.0165781
809.611	0.0165391
809.689	0.0166750
809.767	0.0166825
809.846	0.0167081
809.924	0.0167602
810.002	0.0166399
810.080	0.0165455
810.158	0.0166628
810.236	0.0167026
810.314	0.0165923
810.392	0.0165151
810.471	0.0165719
810.549	0.0167136
810.627	0.0165837
810.705	0.0164984
810.783	0.0164444
810.861	0.0165382
810.939	0.0165386
811.017	0.0165254
811.096	0.0165341
811.174	0.0166338
811.252	0.0165933
811.330	0.0165379
811.408	0.0165896
811.486	0.0167351
811.564	0.0166208
811.642	0.0165293
811.721	0.0166309
811.799	0.0165790
811.877	0.0167220
811.955	0.0166850
812.033	0.0165959
812.111	0.0166344
812.189	0.0167932
812.267	0.0168173
812.346	0.0165462
812.424	0.0166289
812.502	0.0166044
812.580	0.0166438
812.658	0.0166362
812.736	0.0166733
812.814	0.0167468
812.892	0.0166153
812.971	0.0165440
813.049	0.0165046
813.127	0.0166045
813.205	0.0164680
813.283	0.0165932
813.361	0.0165275
813.439	0.0166361
813.517	0.0165777
813.596	0.0165815
813.674	0.0166244
813.752	0.0165355
813.830	0.0165571
813.908	0.0167737
813.986	0.0166296
814.064	0.0165759
814.142	0.0165370
814.221	0.0166000
814.299	0.0166855
814.377	0.0166481
814.455	0.0164728
814.533	0.0165585
814.611	0.0165015
814.689	0.0165567
814.767	0.0165247
814.846	0.0166278
814.924	0.0165392
815.002	0.0164752
815.080	0.0164379
815.158	0.0164330
815.236	0.0164497
815.314	0.0165161
815.392	0.0165047
815.471	0.0164792
815.549	0.0165046
815.627	0.0163083
815.705	0.0164088
815.783	0.0164748
815.861	0.0163603
815.939	0.0163264
816.017	0.0164506
816.096	0.0164251
816.174	0.0164583
816.252	0.0165912
816.330	0.0164148
816.408	0.0163734
816.486	0.0164127
816.564	0.0165186
816.642	0.0164682
816.721	0.0163332
816.799	0.0164165
816.877	0.0164941
816.955	0.0164588
817.033	0.0165477
817.111	0.0165202
817.189	0.0164529
817.267	0.0164501
817.346	0.0165372
817.424	0.0164520
817.502	0.0164957
817.580	0.0164612
817.658	0.0166192
817.736	0.0165718
817.814	0.0163085
817.892	0.0165254
817.971	0.0165562
818.049	0.0164478
818.127	0.0164814
818.205	0.0165821
818.283	0.0164819
818.361	0.0163208
818.439	0.0163229
818.517	0.0164175
818.596	0.0163258
818.674	0.0163206
818.752	0.0164056
818.830	0.0162540
818.908	0.0164974
818.986	0.0164245
819.064	0.0164197
819.142	0.0164527
819.221	0.0164565
819.299	0.0164246
819.377	0.0164172
819.455	0.0164472
819.533	0.0164059
819.611	0.0163960
819.689	0.0164287
819.767	0.0164954
819.846	0.0165160
819.924	0.0164397
820.002	0.0164175
820.080	0.0163934
820.158	0.0164899
820.236	0.0164072
820.314	0.0165422
820.392	0.0164121
820.471	0.0164690
820.549	0.0165874
820.627	0.0164786
820.705	0.0165048
820.783	0.0164325
820.861	0.0165255
820.939	0.0164403
821.017	0.0165242
821.096	0.0165405
821.174	0.0164390
821.252	0.0165086
821.330	0.0165421
821.408	0.0165799
821.486	0.0164906
821.564	0.0165810
821.642	0.0166522
821.721	0.0165453
821.799	0.0166235
821.877	0.0165737
821.955	0.0163334
822.033	0.0166665
822.111	0.0166614
822.189	0.0165706
822.267	0.0165192
822.346	0.0165211
822.424	0.0166161
822.502	0.0165973
822.580	0.0164885
822.658	0.0165831
822.736	0.0164684
822.814	0.0164848
822.892	0.0166833
822.971	0.0165562
823.049	0.0165052
823.127	0.0164549
823.205	0.0164355
823.283	0.0165308
823.361	0.0165404
823.439	0.0165459
823.517	0.0165031
823.596	0.0165196
823.674	0.0164760
823.752	0.0165642
823.830	0.0164668
823.908	0.0165992
823.986	0.0163696
824.064	0.0164214
824.142	0.0166652
824.221	0.0164709
824.299	0.0164512
824.377	0.0164510
824.455	0.0164622
824.533	0.0164137
824.611	0.0164336
824.689	0.0165467
824.767	0.0165603
824.846	0.0165049
824.924	0.0163639
825.002	0.0164716
825.080	0.0165495
825.158	0.0163610
825.236	0.0164926
825.314	0.0166782
825.392	0.0165288
825.471	0.0165763
825.549	0.0165295
825.627	0.0165279
825.705	0.0165110
825.783	0.0164661
825.861	0.0164532
825.939	0.0164390
826.017	0.0164278
826.096	0.0165226
826.174	0.0164715
826.252	0.0163493
826.330	0.0165332
826.408	0.0164429
826.486	0.0164867
826.564	0.0164674
826.642	0.0164263
826.721	0.0163745
826.799	0.0163069
826.877	0.0163355
826.955	0.0165816
827.033	0.0163847
827.111	0.0164082
827.189	0.0165161
827.267	0.0165042
827.346	0.0164201
827.424	0.0164734
827.502	0.0164359
827.580	0.0166587
827.658	0.0164196
827.736	0.0166254
827.814	0.0166176
827.892	0.0165569
827.971	0.0167515
828.049	0.0166244
828.127	0.0165087
828.205	0.0164854
828.283	0.0166562
828.361	0.0166029
828.439	0.0166524
828.517	0.0166953
828.596	0.0165726
828.674	0.0165646
828.752	0.0166268
828.830	0.0165221
828.908	0.0165989
828.986	0.0164680
829.064	0.0165173
829.142	0.0164109
829.221	0.0164890
829.299	0.0164919
829.377	0.0164874
829.455	0.0164680
829.533	0.0164412
829.611	0.0165820
829.689	0.0165228
829.767	0.0163937
829.846	0.0163319
829.924	0.0164754
830.002	0.0164906
830.080	0.0164813
830.158	0.0163519
830.236	0.0164143
830.314	0.0164098
830.392	0.0165187
830.471	0.0164111
830.549	0.0165051
830.627	0.0165849
830.705	0.0165967
830.783	0.0164473
830.861	0.0165685
830.939	0.0168006
831.017	0.0166335
831.096	0.0166948
831.174	0.0166700
831.252	0.0165835
831.330	0.0165479
831.408	0.0166103
831.486	0.0166546
831.564	0.0166537
831.642	0.0166789
831.721	0.0166654
831.799	0.0167722
831.877	0.0166444
831.955	0.0167223
832.033	0.0166771
832.111	0.0165525
832.189	0.0166940
832.267	0.0165524
832.346	0.0165537
832.424	0.0166058
832.502	0.0165501
832.580	0.0166082
832.658	0.0164878
832.736	0.0165350
832.814	0.0165128
832.892	0.0165186
832.971	0.0164301
833.049	0.0166458
833.127	0.0165104
833.205	0.0165819
833.283	0.0165370
833.361	0.0164195
833.439	0.0163499
833.517	0.0164703
833.596	0.0165217
833.674	0.0164602
833.752	0.0164874
833.830	0.0166023
833.908	0.0163445
833.986	0.0164104
834.064	0.0165102
834.142	0.0165398
834.221	0.0165116
834.299	0.0165507
834.377	0.0166103
834.455	0.0165868
834.533	0.0166241
834.611	0.0164400
834.689	0.0164500
834.767	0.0164231
834.846	0.0165628
834.924	0.0166405
835.002	0.0164781
835.080	0.0164549
835.158	0.0167308
835.236	0.0164477
835.314	0.0163966
835.392	0.0164446
835.471	0.0163528
835.549	0.0164600
835.627	0.0164523
835.705	0.0163783
835.783	0.0164919
835.861	0.0164087
835.939	0.0165292
836.017	0.0164492
836.096	0.0165203
836.174	0.0164577
836.252	0.0164239
836.330	0.0164319
836.408	0.0163676
836.486	0.0164023
836.564	0.0162891
836.642	0.0164510
836.721	0.0163820
836.799	0.0164678
836.877	0.0163036
836.955	0.0164072
837.033	0.0164983
837.111	0.0163765
837.189	0.0164574
837.267	0.0163296
837.346	0.0164021
837.424	0.0164655
837.502	0.0163686
837.580	0.0163718
837.658	0.0163058
837.736	0.0165341
837.814	0.0164522
837.892	0.0164139
837.971	0.0163853
838.049	0.0162858
838.127	0.0162948
838.205	0.0164330
838.283	0.0162935
838.361	0.0165140
838.439	0.0164811
838.517	0.0164643
838.596	0.0163953
838.674	0.0163734
838.752	0.0163118
838.830	0.0164170
838.908	0.0165160
838.986	0.0164680
839.064	0.0164438
839.142	0.0163911
839.221	0.0163399
839.299	0.0163618
839.377	0.0165186
839.455	0.0164352
839.533	0.0164561
839.611	0.0164559
839.689	0.0163231
839.767	0.0163449
839.846	0.0164137
839.924	0.0165212
840.002	0.0163927
840.080	0.0161997
840.158	0.0165462
840.236	0.0164970
840.314	0.0164147
840.392	0.0161820
840.471	0.0164455
840.549	0.0164119
840.627	0.0163722
840.705	0.0164428
840.783	0.0162517
840.861	0.0161963
840.939	0.0163609
841.017	0.0164617
841.096	0.0163554
841.174	0.0163779
841.252	0.0163087
841.330	0.0163908
841.408	0.0165007
841.486	0.0164188
841.564	0.0165432
841.642	0.0164943
841.721	0.0165350
841.799	0.0165708
841.877	0.0164766
841.955	0.0165106
842.033	0.0165631
842.111	0.0165410
842.189	0.0165549
842.267	0.0165028
842.346	0.0165414
842.424	0.0166212
842.502	0.0166356
842.580	0.0164331
842.658	0.0164140
842.736	0.0165826
842.814	0.0165376
842.892	0.0166171
842.971	0.0165770
843.049	0.0163912
843.127	0.0164019
843.205	0.0165027
843.283	0.0166222
843.361	0.0165158
843.439	0.0166705
843.517	0.0166430
843.596	0.0165952
843.674	0.0166172
843.752	0.0166070
843.830	0.0167338
843.908	0.0167804
843.986	0.0165337
844.064	0.0167035
844.142	0.0166420
844.221	0.0165017
844.299	0.0165999
844.377	0.0165649
844.455	0.0166842
844.533	0.0166109
844.611	0.0166228
844.689	0.0165282
844.767	0.0166039
844.846	0.0165907
844.924	0.0165499
845.002	0.0164662
845.080	0.0164927
845.158	0.0163293
845.236	0.0164031
845.314	0.0164401
845.392	0.0164971
845.471	0.0164016
845.549	0.0163924
845.627	0.0164037
845.705	0.0163678
845.783	0.0164818
845.861	0.0164481
845.939	0.0163174
846.017	0.0164402
846.096	0.0164172
846.174	0.0164107
846.252	0.0164638
846.330	0.0164653
846.408	0.0162495
846.486	0.0164616
846.564	0.0164064
846.642	0.0163042
846.721	0.0163125
846.799	0.0164156
846.877	0.0165695
846.955	0.0165204
847.033	0.0164064
847.111	0.0163491
847.189	0.0164286
847.267	0.0164315
847.346	0.0165361
847.424	0.0164558
847.502	0.0164223
847.580	0.0164574
847.658	0.0162275
847.736	0.0164369
847.814	0.0165678
847.892	0.0164745
847.971	0.0163814
848.049	0.0163662
848.127	0.0165667
848.205	0.0165154
848.283	0.0164665
848.361	0.0165157
848.439	0.0165884
848.517	0.0164522
848.596	0.0167145
848.674	0.0165575
848.752	0.0165680
848.830	0.0165918
848.908	0.0165105
848.986	0.0165017
849.064	0.0166098
849.142	0.0164841
849.221	0.0166375
849.299	0.0166518
849.377	0.0166809
849.455	0.0165336
849.533	0.0166245
849.611	0.0164989
849.689	0.0165575
849.767	0.0166651
849.846	0.0167049
849.924	0.0166902
850.002	0.0166341
850.080	0.0166019
850.158	0.0166204
850.236	0.0166710
850.314	0.0166286
850.392	0.0165694
850.471	0.0166892
850.549	0.0165954
850.627	0.0166483
850.705	0.0165158
850.783	0.0164778
850.861	0.0165712
850.939	0.0165006
851.017	0.0165388
851.096	0.0165894
851.174	0.0165264
851.252	0.0164596
851.330	0.0164697
851.408	0.0165501
851.486	0.0164773
851.564	0.0165092
851.642	0.0164951
851.721	0.0165035
851.799	0.0164742
851.877	0.0165446
851.955	0.0164810
852.033	0.0164603
852.111	0.0165059
852.189	0.0164294
852.267	0.0165717
852.346	0.0165021
852.424	0.0164191
852.502	0.0164619
852.580	0.0166000
852.658	0.0167672
852.736	0.0165394
852.814	0.0165143
852.892	0.0164452
852.971	0.0164843
853.049	0.0164826
853.127	0.0165302
853.205	0.0165330
853.283	0.0164982
853.361	0.0164885
853.439	0.0164660
853.517	0.0164956
853.596	0.0165375
853.674	0.0164298
853.752	0.0165580
853.830	0.0164501
853.908	0.0166644
853.986	0.0166431
854.064	0.0165555
854.142	0.0166403
854.221	0.0164503
854.299	0.0165795
854.377	0.0165770
854.455	0.0166235
854.533	0.0165591
854.611	0.0165905
854.689	0.0166138
854.767	0.0166331
854.846	0.0164056
854.924	0.0165150
855.002	0.0164642
855.080	0.0162395
855.158	0.0162751
855.236	0.0164948
855.314	0.0164315
855.392	0.0163684
855.471	0.0163007
855.549	0.0162966
855.627	0.0163554
855.705	0.0164632
855.783	0.0164310
855.861	0.0163452
855.939	0.0162994
856.017	0.0163807
856.096	0.0163715
856.174	0.0164688
856.252	0.0163969
856.330	0.0163603
856.408	0.0163264
856.486	0.0164580
856.564	0.0164420
856.642	0.0163489
856.721	0.0164772
856.799	0.0164154
856.877	0.0164298
856.955	0.0164538
857.033	0.0162725
857.111	0.0161334
857.189	0.0164168
857.267	0.0164378
857.346	0.0163333
857.424	0.0163845
857.502	0.0162174
857.580	0.0163428
857.658	0.0164487
857.736	0.0163388
857.814	0.0163280
857.892	0.0163270
857.971	0.0164001
858.049	0.0163863
858.127	0.0165070
858.205	0.0164509
858.283	0.0163050
858.361	0.0163682
858.439	0.0163031
858.517	0.0163771
858.596	0.0162488
858.674	0.0163612
858.752	0.0163177
858.830	0.0163321
858.908	0.0163940
858.986	0.0160334
859.064	0.0162618
859.142	0.0164256
859.221	0.0162506
859.299	0.0163822
859.377	0.0164294
859.455	0.0163577
859.533	0.0162324
859.611	0.0164011
859.689	0.0164365
859.767	0.0164247
859.846	0.0164090
859.924	0.0163933
860.002	0.0165341
860.080	0.0163490
860.158	0.0163499
860.236	0.0163916
860.314	0.0164674
860.392	0.0163776
860.471	0.0164355
860.549	0.0164537
860.627	0.0164523
860.705	0.0163142
860.783	0.0163225
860.861	0.0164546
860.939	0.0164407
861.017	0.0164902
861.096	0.0165928
861.174	0.0164436
861.252	0.0162848
861.330	0.0164005
861.408	0.0165647
861.486	0.0166019
861.564	0.0165407
861.642	0.0165367
861.721	0.0164483
861.799	0.0164327
861.877	0.0164198
861.955	0.0163752
862.033	0.0166370
862.111	0.0163960
862.189	0.0165453
862.267	0.0164805
862.346	0.0164193
862.424	0.0164093
862.502	0.0163882
862.580	0.0163428
862.658	0.0164757
862.736	0.0165398
862.814	0.0163903
862.892	0.0164288
862.971	0.0165094
863.049	0.0163598
863.127	0.0164771
863.205	0.0164920
863.283	0.0165131
863.361	0.0165188
863.439	0.0163901
863.517	0.0163533
863.596	0.0164227
863.674	0.0164819
863.752	0.0164948
863.830	0.0163506
863.908	0.0165282
863.986	0.0164370
864.064	0.0164565
864.142	0.0165665
864.221	0.0165961
864.299	0.0165142
864.377	0.0165365
864.455	0.0165862
864.533	0.0165625
864.611	0.0165083
864.689	0.0165806
864.767	0.0166382
864.846	0.0163640
864.924	0.0165502
865.002	0.0166908
865.080	0.0165878
865.158	0.0164854
865.236	0.0165699
865.314	0.0164867
865.392	0.0165911
865.471	0.0166317
865.549	0.0166064
865.627	0.0165161
865.705	0.0165073
865.783	0.0165016
865.861	0.0166090
865.939	0.0165686
866.017	0.0166103
866.096	0.0166121
866.174	0.0165736
866.252	0.0164838
866.330	0.0164460
866.408	0.0167502
866.486	0.0165935
866.564	0.0165894
866.642	0.0166853
866.721	0.0166715
866.799	0.0165665
866.877	0.0167510
866.955	0.0166457
867.033	0.0166235
867.111	0.0166408
867.189	0.0164986
867.267	0.0165605
867.346	0.0164569
867.424	0.0165986
867.502	0.0165662
867.580	0.0164317
867.658	0.0165408
867.736	0.0165430
867.814	0.0164259
867.892	0.0165973
867.971	0.0166087
868.049	0.0164297
868.127	0.0165054
868.205	0.0164048
868.283	0.0163873
868.361	0.0163706
868.439	0.0165279
868.517	0.0164392
868.596	0.0165527
868.674	0.0166211
868.752	0.0164092
868.830	0.0165573
868.908	0.0166721
868.986	0.0165404
869.064	0.0163940
869.142	0.0165012
869.221	0.0164735
869.299	0.0165357
869.377	0.0164970
869.455	0.0166196
869.533	0.0165665
869.611	0.0164684
869.689	0.0166130
869.767	0.0165543
869.846	0.0164134
869.924	0.0165092
870.002	0.0165124
870.080	0.0165434
870.158	0.0165387
870.236	0.0165553
870.314	0.0164959
870.392	0.0165928
870.471	0.0164237
870.549	0.0164857
870.627	0.0166403
870.705	0.0164780
870.783	0.0164571
870.861	0.0163918
870.939	0.0165644
871.017	0.0165076
871.096	0.0164819
871.174	0.0165228
871.252	0.0165427
871.330	0.0164724
871.408	0.0165341
871.486	0.0166119
871.564	0.0166080
871.642	0.0165691
871.721	0.0165680
871.799	0.0166300
871.877	0.0166243
871.955	0.0166383
872.033	0.0164667
872.111	0.0165662
872.189	0.0164880
872.267	0.0167072
872.346	0.0167475
872.424	0.0166549
872.502	0.0166676
872.580	0.0164520
872.658	0.0165074
872.736	0.0165280
872.814	0.0165485
872.892	0.0165285
872.971	0.0164887
873.049	0.0164127
873.127	0.0164091
873.205	0.0164579
873.283	0.0164932
873.361	0.0165541
873.439	0.0164645
873.517	0.0164518
873.596	0.0165540
873.674	0.0165983
873.752	0.0164082
873.830	0.0164198
873.908	0.0165238
873.986	0.0164731
874.064	0.0164048
874.142	0.0164413
874.221	0.0163655
874.299	0.0165521
874.377	0.0165847
874.455	0.0165084
874.533	0.0164247
874.611	0.0165613
874.689	0.0166058
874.767	0.0164927
874.846	0.0164981
874.924	0.0165552
875.002	0.0164288
875.080	0.0163858
875.158	0.0165369
875.236	0.0165633
875.314	0.0164760
875.392	0.0164347
875.471	0.0164840
875.549	0.0163875
875.627	0.0164290
875.705	0.0164483
875.783	0.0163428
875.861	0.0163170
875.939	0.0163140
876.017	0.0164471
876.096	0.0163396
876.174	0.0162826
876.252	0.0164191
876.330	0.0165172
876.408	0.0164018
876.486	0.0163544
876.564	0.0164667
876.642	0.0164668
876.721	0.0164133
876.799	0.0163658
876.877	0.0164002
876.955	0.0164294
877.033	0.0164278
877.111	0.0165017
877.189	0.0163974
877.267	0.0164384
877.346	0.0164988
877.424	0.0164046
877.502	0.0164237
877.580	0.0164780
877.658	0.0164240
877.736	0.0165002
877.814	0.0164326
877.892	0.0163162
877.971	0.0163618
878.049	0.0164033
878.127	0.0163049
878.205	0.0165512
878.283	0.0163657
878.361	0.0162952
878.439	0.0164574
878.517	0.0162467
878.596	0.0163561
878.674	0.0163853
878.752	0.0162671
878.830	0.0163999
878.908	0.0163819
878.986	0.0163681
879.064	0.0164758
879.142	0.0164875
879.221	0.0163972
879.299	0.0164058
879.377	0.0164484
879.455	0.0166452
879.533	0.0164846
879.611	0.0164819
879.689	0.0164053
879.767	0.0164795
879.846	0.0164175
879.924	0.0164458
880.002	0.0164319
880.080	0.0164956
880.158	0.0164342
880.236	0.0165689
880.314	0.0164445
880.392	0.0163063
880.471	0.0163326
880.549	0.0164411
880.627	0.0163142
880.705	0.0163305
880.783	0.0163119
880.861	0.0163705
880.939	0.0164027
881.017	0.0163564
881.096	0.0163596
881.174	0.0164021
881.252	0.0163236
881.330	0.0163409
881.408	0.0164050
881.486	0.0164342
881.564	0.0164315
881.642	0.0165623
881.721	0.0164584
881.799	0.0164412
881.877	0.0164548
881.955	0.0163167
882.033	0.0163503
882.111	0.0165786
882.189	0.0165209
882.267	0.0166290
882.346	0.0166230
882.424	0.0165350
882.502	0.0166395
882.580	0.0165318
882.658	0.0166470
882.736	0.0166452
882.814	0.0165969
882.892	0.0166412
882.971	0.0165774
883.049	0.0163839
883.127	0.0165403
883.205	0.0164432
883.283	0.0165526
883.361	0.0165685
883.439	0.0165458
883.517	0.0165229
883.596	0.0165754
883.674	0.0164339
883.752	0.0164548
883.830	0.0164895
883.908	0.0164964
883.986	0.0164966
884.064	0.0165136
884.142	0.0165148
884.221	0.0165182
884.299	0.0164088
884.377	0.0164192
884.455	0.0164584
884.533	0.0165731
884.611	0.0165247
884.689	0.0165329
884.767	0.0165615
884.846	0.0164043
884.924	0.0165110
885.002	0.0164979
885.080	0.0165292
885.158	0.0165745
885.236	0.0165490
885.314	0.0164950
885.392	0.0164613
885.471	0.0165321
885.549	0.0164793
885.627	0.0165443
885.705	0.0165207
885.783	0.0165046
885.861	0.0164661
885.939	0.0164873
886.017	0.0163184
886.096	0.0164568
886.174	0.0163544
886.252	0.0163885
886.330	0.0164561
886.408	0.0163642
886.486	0.0165913
886.564	0.0164386
886.642	0.0163511
886.721	0.0164742
886.799	0.0164902
886.877	0.0163296
886.955	0.0163053
887.033	0.0164004
887.111	0.0164609
887.189	0.0164687
887.267	0.0165068
887.346	0.0165636
887.424	0.0164642
887.502	0.0166179
887.580	0.0164355
887.658	0.0164256
887.736	0.0166011
887.814	0.0165399
887.892	0.0164984
887.971	0.0166072
888.049	0.0163888
888.127	0.0164799
888.205	0.0164285
888.283	0.0164534
888.361	0.0164610
888.439	0.0164361
888.517	0.0163641
888.596	0.0164177
888.674	0.0164172
888.752	0.0163483
888.830	0.0163982
888.908	0.0165327
888.986	0.0166286
889.064	0.0163203
889.142	0.0163738
889.221	0.0163927
889.299	0.0164452
889.377	0.0164374
889.455	0.0164027
889.533	0.0164565
889.611	0.0164876
889.689	0.0164804
889.767	0.0164611
889.846	0.0165616
889.924	0.0165326
890.002	0.0165379
890.080	0.0165578
890.158	0.0164532
890.236	0.0164116
890.314	0.0165101
890.392	0.0164590
890.471	0.0164947
890.549	0.0163639
890.627	0.0163931
890.705	0.0163873
890.783	0.0164739
890.861	0.0162918
890.939	0.0165654
891.017	0.0165360
891.096	0.0164525
891.174	0.0163518
891.252	0.0164366
891.330	0.0164138
891.408	0.0163199
891.486	0.0164180
891.564	0.0164802
891.642	0.0164031
891.721	0.0163944
891.799	0.0165555
891.877	0.0165183
891.955	0.0163029
892.033	0.0164176
892.111	0.0164363
892.189	0.0164558
892.267	0.0165162
892.346	0.0165159
892.424	0.0164301
892.502	0.0164126
892.580	0.0165137
892.658	0.0165225
892.736	0.0163379
892.814	0.0165566
892.892	0.0164547
892.971	0.0164818
893.049	0.0163681
893.127	0.0163754
893.205	0.0165073
893.283	0.0165155
893.361	0.0165427
893.439	0.0164562
893.517	0.0163304
893.596	0.0164355
893.674	0.0163677
893.752	0.0164449
893.830	0.0165253
893.908	0.0163742
893.986	0.0163999
894.064	0.0163967
894.142	0.0163596
894.221	0.0163625
894.299	0.0161934
894.377	0.0164418
894.455	0.0164265
894.533	0.0164006
894.611	0.0163400
894.689	0.0163443
894.767	0.0164287
894.846	0.0165871
894.924	0.0163963
895.002	0.0162956
895.080	0.0164734
895.158	0.0163477
895.236	0.0163734
895.314	0.0163075
895.392	0.0164116
895.471	0.0163828
895.549	0.0163962
895.627	0.0164266
895.705	0.0164601
895.783	0.0164610
895.861	0.0164529
895.939	0.0164299
896.017	0.0164410
896.096	0.0165330
896.174	0.0165223
896.252	0.0164886
896.330	0.0163837
896.408	0.0163886
896.486	0.0165154
896.564	0.0164937
896.642	0.0164875
896.721	0.0164468
896.799	0.0164502
896.877	0.0164184
896.955	0.0164125
897.033	0.0163081
897.111	0.0163491
897.189	0.0164588
897.267	0.0165312
897.346	0.0164738
897.424	0.0163931
897.502	0.0164999
897.580	0.0164828
897.658	0.0163685
897.736	0.0164541
897.814	0.0164953
897.892	0.0165086
897.971	0.0165467
898.049	0.0165036
898.127	0.0164998
898.205	0.0165302
898.283	0.0164301
898.361	0.0163239
898.439	0.0165395
898.517	0.0163699
898.596	0.0164504
898.674	0.0164720
898.752	0.0163940
898.830	0.0163878
898.908	0.0164668
898.986	0.0164108
899.064	0.0163527
899.142	0.0163821
899.221	0.0163192
899.299	0.0163898
899.377	0.0164660
899.455	0.0165421
899.533	0.0164516
899.611	0.0163308
899.689	0.0163386
899.767	0.0164424
899.846	0.0164793
899.924	0.0164980
900.002	0.0163756
900.080	0.0165030
900.158	0.0163498
900.236	0.0164503
900.314	0.0163306
900.392	0.0164365
900.471	0.0162492
900.549	0.0162467
900.627	0.0163612
900.705	0.0163708
900.783	0.0162837
900.861	0.0163499
900.939	0.0165185
901.017	0.0165871
901.096	0.0163111
901.174	0.0164478
901.252	0.0165161
901.330	0.0165290
901.408	0.0166205
901.486	0.0164473
901.564	0.0165324
901.642	0.0165240
901.721	0.0163870
901.799	0.0165086
901.877	0.0164382
901.955	0.0164501
902.033	0.0166310
902.111	0.0164245
902.189	0.0164104
902.267	0.0164199
902.346	0.0164723
902.424	0.0165180
902.502	0.0164425
902.580	0.0164233
902.658	0.0165784
902.736	0.0163834
902.814	0.0163500
902.892	0.0164098
902.971	0.0165057
903.049	0.0164192
903.127	0.0163049
903.205	0.0163738
903.283	0.0164809
903.361	0.0164614
903.439	0.0164619
903.517	0.0163040
903.596	0.0163313
903.674	0.0163885
903.752	0.0162707
903.830	0.0163547
903.908	0.0164030
903.986	0.0163343
904.064	0.0163846
904.142	0.0164232
904.221	0.0163285
904.299	0.0163368
904.377	0.0163394
904.455	0.0164680
904.533	0.0164847
904.611	0.0162589
904.689	0.0163471
904.767	0.0163637
904.846	0.0162994
904.924	0.0163484
905.002	0.0163673
905.080	0.0164729
905.158	0.0163853
905.236	0.0163179
905.314	0.0162525
905.392	0.0164524
905.471	0.0162904
905.549	0.0163734
905.627	0.0163129
905.705	0.0163409
905.783	0.0165212
905.861	0.0165449
905.939	0.0163185
906.017	0.0164679
906.096	0.0165779
906.174	0.0164035
906.252	0.0164864
906.330	0.0163829
906.408	0.0164587
906.486	0.0164445
906.564	0.0163564
906.642	0.0164750
906.721	0.0164014
906.799	0.0165003
906.877	0.0164302
906.955	0.0164651
907.033	0.0164839
907.111	0.0164684
907.189	0.0163284
907.267	0.0165684
907.346	0.0164466
907.424	0.0164160
907.502	0.0164341
907.580	0.0164225
907.658	0.0165436
907.736	0.0163879
907.814	0.0164584
907.892	0.0163576
907.971	0.0164841
908.049	0.0163084
908.127	0.0164210
908.205	0.0164085
908.283	0.0163308
908.361	0.0164658
908.439	0.0163808
908.517	0.0165374
908.596	0.0165440
908.674	0.0163603
908.752	0.0164361
908.830	0.0166519
908.908	0.0166476
908.986	0.0164148
909.064	0.0163091
909.142	0.0165034
909.221	0.0165795
909.299	0.0164506
909.377	0.0163712
909.455	0.0164820
909.533	0.0164811
909.611	0.0165278
909.689	0.0165759
909.767	0.0165636
909.846	0.0165323
909.924	0.0164902
910.002	0.0164989
910.080	0.0165067
910.158	0.0164497
910.236	0.0164740
910.314	0.0165157
910.392	0.0165189
910.471	0.0164725
910.549	0.0163823
910.627	0.0164642
910.705	0.0164912
910.783	0.0164648
910.861	0.0164904
910.939	0.0165537
911.017	0.0163891
911.096	0.0165294
911.174	0.0164609
911.252	0.0163837
911.330	0.0164175
911.408	0.0164043
911.486	0.0164673
911.564	0.0164030
911.642	0.0164744
911.721	0.0165036
911.799	0.0164965
911.877	0.0165723
911.955	0.0163018
912.033	0.0164402
912.111	0.0165802
912.189	0.0165359
912.267	0.0163520
912.346	0.0164540
912.424	0.0164776
912.502	0.0165388
912.580	0.0165083
912.658	0.0164602
912.736	0.0163410
912.814	0.0162913
912.892	0.0164645
912.971	0.0164558
913.049	0.0164184
913.127	0.0164989
913.205	0.0164658
913.283	0.0162961
913.361	0.0165142
913.439	0.0164445
913.517	0.0164224
913.596	0.0165568
913.674	0.0166618
913.752	0.0165754
913.830	0.0164652
913.908	0.0165193
913.986	0.0166196
914.064	0.0165483
914.142	0.0166844
914.221	0.0166179
914.299	0.0165094
914.377	0.0165945
914.455	0.0166193
914.533	0.0165179
914.611	0.0166661
914.689	0.0165226
914.767	0.0165789
914.846	0.0167401
914.924	0.0166334
915.002	0.0166577
915.080	0.0165257
915.158	0.0164217
915.236	0.0166143
915.314	0.0166831
915.392	0.0165379
915.471	0.0167852
915.549	0.0166577
915.627	0.0165615
915.705	0.0165372
915.783	0.0165690
915.861	0.0165031
915.939	0.0164658
916.017	0.0165154
916.096	0.0166043
916.174	0.0164957
916.252	0.0164993
916.330	0.0166314
916.408	0.0165775
916.486	0.0166478
916.564	0.0166730
916.642	0.0167119
916.721	0.0166209
916.799	0.0166656
916.877	0.0167669
916.955	0.0166405
917.033	0.0166178
917.111	0.0165981
917.189	0.0167712
917.267	0.0166740
917.346	0.0166378
917.424	0.0167474
917.502	0.0166653
917.580	0.0166050
917.658	0.0167188
917.736	0.0167388
917.814	0.0166824
917.892	0.0165538
917.971	0.0165099
918.049	0.0165432
918.127	0.0165585
918.205	0.0165121
918.283	0.0166667
918.361	0.0165818
918.439	0.0164713
918.517	0.0164919
918.596	0.0165078
918.674	0.0163973
918.752	0.0163660
918.830	0.0164403
918.908	0.0164305
918.986	0.0164243
919.064	0.0164429
919.142	0.0164075
919.221	0.0163905
919.299	0.0164681
919.377	0.0164005
919.455	0.0162946
919.533	0.0163921
919.611	0.0162820
919.689	0.0162904
919.767	0.0164225
919.846	0.0163404
919.924	0.0163304
