06/29/2022	21:39:39	Ver.	4.1	UNKNOWN
Optical Delay	600.001752	Delta X		0.078125	Sweeps	1	Scan Rate	0/0
Coordinates	Axis 1	NaN	Axis 2	NaN	Axis 3	NaN	Axis 4	NaN	Axis 5	NaN	Axis 6	0.000000
TX Power	0.000000	RX Power	0.000000

600.002	0.0164539
600.080	0.0165052
600.158	0.0162769
600.236	0.0162928
600.314	0.0164839
600.392	0.0164097
600.471	0.0163787
600.549	0.0164229
600.627	0.0165388
600.705	0.0163623
600.783	0.0163943
600.861	0.0164681
600.939	0.0163660
601.017	0.0164101
601.096	0.0163830
601.174	0.0163992
601.252	0.0165076
601.330	0.0164697
601.408	0.0163009
601.486	0.0165543
601.564	0.0164073
601.642	0.0164519
601.721	0.0165199
601.799	0.0163472
601.877	0.0164793
601.955	0.0163810
602.033	0.0164671
602.111	0.0164952
602.189	0.0163995
602.267	0.0163949
602.346	0.0163568
602.424	0.0163770
602.502	0.0164446
602.580	0.0163195
602.658	0.0163329
602.736	0.0164889
602.814	0.0163838
602.892	0.0163385
602.971	0.0162643
603.049	0.0163304
603.127	0.0162715
603.205	0.0164158
603.283	0.0163479
603.361	0.0162190
603.439	0.0162531
603.517	0.0163828
603.596	0.0164952
603.674	0.0161850
603.752	0.0161993
603.830	0.0162253
603.908	0.0163644
603.986	0.0162920
604.064	0.0163170
604.142	0.0163061
604.221	0.0163105
604.299	0.0162926
604.377	0.0163181
604.455	0.0164116
604.533	0.0162322
604.611	0.0162595
604.689	0.0163065
604.767	0.0162940
604.846	0.0162360
604.924	0.0162505
605.002	0.0161720
605.080	0.0162656
605.158	0.0161803
605.236	0.0163790
605.314	0.0164053
605.392	0.0163644
605.471	0.0162986
605.549	0.0162492
605.627	0.0164331
605.705	0.0163297
605.783	0.0163154
605.861	0.0162612
605.939	0.0162409
606.017	0.0164258
606.096	0.0163964
606.174	0.0164275
606.252	0.0162910
606.330	0.0163721
606.408	0.0163078
606.486	0.0163687
606.564	0.0164075
606.642	0.0165300
606.721	0.0164792
606.799	0.0164232
606.877	0.0165380
606.955	0.0164081
607.033	0.0164149
607.111	0.0163798
607.189	0.0164407
607.267	0.0164423
607.346	0.0165141
607.424	0.0164570
607.502	0.0163183
607.580	0.0164275
607.658	0.0164873
607.736	0.0164089
607.814	0.0163583
607.892	0.0165604
607.971	0.0165329
608.049	0.0164165
608.127	0.0164319
608.205	0.0166354
608.283	0.0165256
608.361	0.0165441
608.439	0.0165392
608.517	0.0163879
608.596	0.0164775
608.674	0.0164230
608.752	0.0164542
608.830	0.0165728
608.908	0.0166294
608.986	0.0166279
609.064	0.0164572
609.142	0.0163822
609.221	0.0164563
609.299	0.0164220
609.377	0.0164613
609.455	0.0165640
609.533	0.0165791
609.611	0.0164413
609.689	0.0163828
609.767	0.0164408
609.846	0.0165450
609.924	0.0164306
610.002	0.0165078
610.080	0.0164789
610.158	0.0164381
610.236	0.0164742
610.314	0.0164899
610.392	0.0164417
610.471	0.0163516
610.549	0.0164240
610.627	0.0164511
610.705	0.0163487
610.783	0.0164027
610.861	0.0164555
610.939	0.0163757
611.017	0.0163132
611.096	0.0163834
611.174	0.0164171
611.252	0.0164372
611.330	0.0164954
611.408	0.0165331
611.486	0.0163444
611.564	0.0164679
611.642	0.0165015
611.721	0.0164397
611.799	0.0163790
611.877	0.0163768
611.955	0.0164030
612.033	0.0163790
612.111	0.0164157
612.189	0.0162733
612.267	0.0164822
612.346	0.0165463
612.424	0.0165061
612.502	0.0164988
612.580	0.0164141
612.658	0.0163947
612.736	0.0166575
612.814	0.0165620
612.892	0.0163809
612.971	0.0163184
613.049	0.0164990
613.127	0.0164603
613.205	0.0163353
613.283	0.0163226
613.361	0.0163581
613.439	0.0164072
613.517	0.0163678
613.596	0.0165385
613.674	0.0164625
613.752	0.0164452
613.830	0.0165152
613.908	0.0164363
613.986	0.0163302
614.064	0.0163071
614.142	0.0163190
614.221	0.0162939
614.299	0.0163863
614.377	0.0163792
614.455	0.0165051
614.533	0.0163934
614.611	0.0163934
614.689	0.0163528
614.767	0.0165333
614.846	0.0163844
614.924	0.0164570
615.002	0.0165694
615.080	0.0163753
615.158	0.0163113
615.236	0.0164829
615.314	0.0165255
615.392	0.0164329
615.471	0.0165919
615.549	0.0165333
615.627	0.0164927
615.705	0.0165741
615.783	0.0164611
615.861	0.0164420
615.939	0.0165764
616.017	0.0165405
616.096	0.0164536
616.174	0.0164785
616.252	0.0165990
616.330	0.0164548
616.408	0.0164613
616.486	0.0164594
616.564	0.0163692
616.642	0.0163592
616.721	0.0164474
616.799	0.0164250
616.877	0.0164412
616.955	0.0163497
617.033	0.0163591
617.111	0.0164646
617.189	0.0163543
617.267	0.0163936
617.346	0.0164037
617.424	0.0163374
617.502	0.0163110
617.580	0.0164094
617.658	0.0163464
617.736	0.0163105
617.814	0.0164007
617.892	0.0163833
617.971	0.0164265
618.049	0.0164423
618.127	0.0163427
618.205	0.0164207
618.283	0.0164101
618.361	0.0163761
618.439	0.0165437
618.517	0.0163541
618.596	0.0163293
618.674	0.0164690
618.752	0.0163965
618.830	0.0163264
618.908	0.0164735
618.986	0.0163596
619.064	0.0164466
619.142	0.0164797
619.221	0.0163857
619.299	0.0164667
619.377	0.0163776
619.455	0.0163395
619.533	0.0163615
619.611	0.0164323
619.689	0.0162135
619.767	0.0164330
619.846	0.0164777
619.924	0.0164218
620.002	0.0163769
620.080	0.0164032
620.158	0.0163902
620.236	0.0164208
620.314	0.0164281
620.392	0.0163686
620.471	0.0165120
620.549	0.0165607
620.627	0.0164414
620.705	0.0163209
620.783	0.0163726
620.861	0.0165083
620.939	0.0163728
621.017	0.0164096
621.096	0.0165579
621.174	0.0166396
621.252	0.0165291
621.330	0.0165579
621.408	0.0165549
621.486	0.0164639
621.564	0.0165402
621.642	0.0164340
621.721	0.0165045
621.799	0.0165027
621.877	0.0165701
621.955	0.0166208
622.033	0.0162640
622.111	0.0163595
622.189	0.0164574
622.267	0.0165259
622.346	0.0165610
622.424	0.0165021
622.502	0.0164349
622.580	0.0162392
622.658	0.0165248
622.736	0.0165022
622.814	0.0164053
622.892	0.0163718
622.971	0.0164498
623.049	0.0163765
623.127	0.0164590
623.205	0.0165696
623.283	0.0163962
623.361	0.0163543
623.439	0.0164802
623.517	0.0164257
623.596	0.0164081
623.674	0.0163667
623.752	0.0163068
623.830	0.0163361
623.908	0.0163046
623.986	0.0163872
624.064	0.0163500
624.142	0.0164233
624.221	0.0164223
624.299	0.0163779
624.377	0.0163036
624.455	0.0162512
624.533	0.0163955
624.611	0.0163248
624.689	0.0164866
624.767	0.0163447
624.846	0.0164109
624.924	0.0162475
625.002	0.0162856
625.080	0.0164205
625.158	0.0162817
625.236	0.0164140
625.314	0.0164594
625.392	0.0164117
625.471	0.0164063
625.549	0.0164312
625.627	0.0162932
625.705	0.0162762
625.783	0.0164978
625.861	0.0163107
625.939	0.0163721
626.017	0.0164038
626.096	0.0161950
626.174	0.0162902
626.252	0.0163773
626.330	0.0164526
626.408	0.0164111
626.486	0.0164248
626.564	0.0163287
626.642	0.0162428
626.721	0.0164064
626.799	0.0163936
626.877	0.0162730
626.955	0.0163795
627.033	0.0164175
627.111	0.0161871
627.189	0.0162068
627.267	0.0163312
627.346	0.0163908
627.424	0.0164265
627.502	0.0163126
627.580	0.0161972
627.658	0.0161326
627.736	0.0162685
627.814	0.0162839
627.892	0.0161355
627.971	0.0163904
628.049	0.0161417
628.127	0.0162511
628.205	0.0163838
628.283	0.0164120
628.361	0.0163245
628.439	0.0162835
628.517	0.0162845
628.596	0.0162489
628.674	0.0161903
628.752	0.0162948
628.830	0.0163017
628.908	0.0163042
628.986	0.0163017
629.064	0.0161932
629.142	0.0163705
629.221	0.0163482
629.299	0.0163687
629.377	0.0164090
629.455	0.0164763
629.533	0.0163113
629.611	0.0163224
629.689	0.0164218
629.767	0.0164603
629.846	0.0165090
629.924	0.0164024
630.002	0.0163867
630.080	0.0162960
630.158	0.0162872
630.236	0.0165459
630.314	0.0163895
630.392	0.0164564
630.471	0.0164808
630.549	0.0165283
630.627	0.0165493
630.705	0.0164375
630.783	0.0164874
630.861	0.0163824
630.939	0.0165250
631.017	0.0164577
631.096	0.0164713
631.174	0.0163140
631.252	0.0163873
631.330	0.0163667
631.408	0.0164139
631.486	0.0164423
631.564	0.0163187
631.642	0.0163020
631.721	0.0162732
631.799	0.0162585
631.877	0.0164886
631.955	0.0165416
632.033	0.0165074
632.111	0.0163713
632.189	0.0164214
632.267	0.0164995
632.346	0.0164841
632.424	0.0164741
632.502	0.0163049
632.580	0.0163708
632.658	0.0165517
632.736	0.0164842
632.814	0.0164580
632.892	0.0163371
632.971	0.0164119
633.049	0.0163896
633.127	0.0165188
633.205	0.0164668
633.283	0.0164684
633.361	0.0164460
633.439	0.0165151
633.517	0.0164605
633.596	0.0165078
633.674	0.0164484
633.752	0.0164980
633.830	0.0163943
633.908	0.0164954
633.986	0.0165640
634.064	0.0163400
634.142	0.0164137
634.221	0.0165586
634.299	0.0165007
634.377	0.0165730
634.455	0.0164602
634.533	0.0165435
634.611	0.0164655
634.689	0.0165108
634.767	0.0163891
634.846	0.0164819
634.924	0.0165616
635.002	0.0164040
635.080	0.0165077
635.158	0.0164506
635.236	0.0165121
635.314	0.0164845
635.392	0.0164761
635.471	0.0165612
635.549	0.0165222
635.627	0.0164374
635.705	0.0165195
635.783	0.0164542
635.861	0.0164135
635.939	0.0164321
636.017	0.0165227
636.096	0.0166335
636.174	0.0163636
636.252	0.0164578
636.330	0.0163502
636.408	0.0165984
636.486	0.0164737
636.564	0.0163880
636.642	0.0164712
636.721	0.0165118
636.799	0.0164682
636.877	0.0163856
636.955	0.0164849
637.033	0.0164896
637.111	0.0163496
637.189	0.0165823
637.267	0.0163443
637.346	0.0163522
637.424	0.0164641
637.502	0.0164792
637.580	0.0164334
637.658	0.0164328
637.736	0.0163818
637.814	0.0163591
637.892	0.0164996
637.971	0.0164303
638.049	0.0164658
638.127	0.0163853
638.205	0.0163549
638.283	0.0163507
638.361	0.0163149
638.439	0.0163631
638.517	0.0164029
638.596	0.0163251
638.674	0.0164117
638.752	0.0162961
638.830	0.0163982
638.908	0.0163108
638.986	0.0163900
639.064	0.0163381
639.142	0.0162653
639.221	0.0163977
639.299	0.0164302
639.377	0.0163062
639.455	0.0164500
639.533	0.0165037
639.611	0.0164288
639.689	0.0163491
639.767	0.0163206
639.846	0.0164821
639.924	0.0164063
640.002	0.0162767
640.080	0.0163641
640.158	0.0164803
640.236	0.0164635
640.314	0.0163536
640.392	0.0162907
640.471	0.0165055
640.549	0.0164264
640.627	0.0163197
640.705	0.0165038
640.783	0.0164391
640.861	0.0164539
640.939	0.0164580
641.017	0.0163688
641.096	0.0163771
641.174	0.0163326
641.252	0.0164087
641.330	0.0165131
641.408	0.0165499
641.486	0.0164196
641.564	0.0162428
641.642	0.0163083
641.721	0.0163609
641.799	0.0164161
641.877	0.0163351
641.955	0.0164489
642.033	0.0164935
642.111	0.0164725
642.189	0.0164551
642.267	0.0164383
642.346	0.0164556
642.424	0.0164310
642.502	0.0163879
642.580	0.0163708
642.658	0.0164362
642.736	0.0164798
642.814	0.0165238
642.892	0.0164095
642.971	0.0163570
643.049	0.0161960
643.127	0.0164638
643.205	0.0164108
643.283	0.0164426
643.361	0.0165645
643.439	0.0163827
643.517	0.0164108
643.596	0.0164826
643.674	0.0164021
643.752	0.0163420
643.830	0.0164202
643.908	0.0164175
643.986	0.0163208
644.064	0.0164809
644.142	0.0164420
644.221	0.0163900
644.299	0.0164068
644.377	0.0164577
644.455	0.0164135
644.533	0.0164005
644.611	0.0165012
644.689	0.0163454
644.767	0.0164101
644.846	0.0164529
644.924	0.0162369
645.002	0.0163711
645.080	0.0164346
645.158	0.0164872
645.236	0.0164459
645.314	0.0163394
645.392	0.0162856
645.471	0.0163590
645.549	0.0164091
645.627	0.0163955
645.705	0.0165576
645.783	0.0164481
645.861	0.0164073
645.939	0.0164413
646.017	0.0163702
646.096	0.0164865
646.174	0.0166253
646.252	0.0164175
646.330	0.0164445
646.408	0.0163328
646.486	0.0164133
646.564	0.0163672
646.642	0.0164379
646.721	0.0164799
646.799	0.0164063
646.877	0.0164420
646.955	0.0164507
647.033	0.0164244
647.111	0.0165726
647.189	0.0164169
647.267	0.0163309
647.346	0.0164566
647.424	0.0165199
647.502	0.0164918
647.580	0.0165398
647.658	0.0164729
647.736	0.0164716
647.814	0.0164594
647.892	0.0164951
647.971	0.0163850
648.049	0.0163947
648.127	0.0165182
648.205	0.0163615
648.283	0.0164604
648.361	0.0164495
648.439	0.0164926
648.517	0.0164590
648.596	0.0164520
648.674	0.0163534
648.752	0.0164075
648.830	0.0164712
648.908	0.0163824
648.986	0.0165487
649.064	0.0164830
649.142	0.0163760
649.221	0.0163156
649.299	0.0164656
649.377	0.0164360
649.455	0.0164846
649.533	0.0163184
649.611	0.0164428
649.689	0.0164260
649.767	0.0163280
649.846	0.0163483
649.924	0.0163091
650.002	0.0164268
650.080	0.0163583
650.158	0.0163592
650.236	0.0163210
650.314	0.0163639
650.392	0.0164162
650.471	0.0163995
650.549	0.0163284
650.627	0.0163304
650.705	0.0162858
650.783	0.0162878
650.861	0.0163654
650.939	0.0163055
651.017	0.0163478
651.096	0.0162717
651.174	0.0163120
651.252	0.0164249
651.330	0.0164657
651.408	0.0165016
651.486	0.0161822
651.564	0.0162920
651.642	0.0163455
651.721	0.0163023
651.799	0.0162508
651.877	0.0163299
651.955	0.0162888
652.033	0.0162910
652.111	0.0163976
652.189	0.0162646
652.267	0.0163470
652.346	0.0161903
652.424	0.0163153
652.502	0.0163719
652.580	0.0163730
652.658	0.0163607
652.736	0.0164111
652.814	0.0164613
652.892	0.0163603
652.971	0.0163428
653.049	0.0164306
653.127	0.0164593
653.205	0.0162701
653.283	0.0163638
653.361	0.0163123
653.439	0.0162916
653.517	0.0163590
653.596	0.0163651
653.674	0.0162928
653.752	0.0163011
653.830	0.0164278
653.908	0.0164501
653.986	0.0164288
654.064	0.0163332
654.142	0.0164210
654.221	0.0163750
654.299	0.0163368
654.377	0.0162978
654.455	0.0164574
654.533	0.0164680
654.611	0.0164606
654.689	0.0163889
654.767	0.0164889
654.846	0.0164455
654.924	0.0164217
655.002	0.0164840
655.080	0.0165074
655.158	0.0164506
655.236	0.0164223
655.314	0.0165597
655.392	0.0167239
655.471	0.0164259
655.549	0.0165701
655.627	0.0163947
655.705	0.0164135
655.783	0.0163676
655.861	0.0164591
655.939	0.0165297
656.017	0.0163996
656.096	0.0165098
656.174	0.0164487
656.252	0.0163354
656.330	0.0165022
656.408	0.0165897
656.486	0.0165599
656.564	0.0165237
656.642	0.0165292
656.721	0.0165081
656.799	0.0164886
656.877	0.0165391
656.955	0.0165165
657.033	0.0165472
657.111	0.0165643
657.189	0.0164304
657.267	0.0166155
657.346	0.0166460
657.424	0.0165192
657.502	0.0164075
657.580	0.0164719
657.658	0.0165439
657.736	0.0165446
657.814	0.0165701
657.892	0.0164937
657.971	0.0166438
658.049	0.0166275
658.127	0.0166248
658.205	0.0165195
658.283	0.0165051
658.361	0.0164043
658.439	0.0165942
658.517	0.0165090
658.596	0.0164974
658.674	0.0165015
658.752	0.0165901
658.830	0.0164214
658.908	0.0165488
658.986	0.0165174
659.064	0.0166384
659.142	0.0165385
659.221	0.0164017
659.299	0.0165274
659.377	0.0165946
659.455	0.0164499
659.533	0.0163858
659.611	0.0165033
659.689	0.0165141
659.767	0.0164867
659.846	0.0164067
659.924	0.0166015
660.002	0.0164695
660.080	0.0164675
660.158	0.0165441
660.236	0.0166023
660.314	0.0165166
660.392	0.0164330
660.471	0.0166846
660.549	0.0165624
660.627	0.0165273
660.705	0.0162965
660.783	0.0164559
660.861	0.0165501
660.939	0.0164688
661.017	0.0164554
661.096	0.0163843
661.174	0.0166081
661.252	0.0164413
661.330	0.0165430
661.408	0.0165639
661.486	0.0164088
661.564	0.0164428
661.642	0.0165392
661.721	0.0164442
661.799	0.0165162
661.877	0.0164741
661.955	0.0164212
662.033	0.0165649
662.111	0.0164919
662.189	0.0164781
662.267	0.0166443
662.346	0.0164323
662.424	0.0165268
662.502	0.0165675
662.580	0.0165396
662.658	0.0164753
662.736	0.0164880
662.814	0.0165253
662.892	0.0163166
662.971	0.0164961
663.049	0.0164651
663.127	0.0163789
663.205	0.0164180
663.283	0.0165006
663.361	0.0164182
663.439	0.0164185
663.517	0.0164152
663.596	0.0165348
663.674	0.0164983
663.752	0.0165697
663.830	0.0165459
663.908	0.0163642
663.986	0.0164394
664.064	0.0164080
664.142	0.0164963
664.221	0.0164485
664.299	0.0164017
664.377	0.0164864
664.455	0.0166036
664.533	0.0165004
664.611	0.0165269
664.689	0.0165010
664.767	0.0165500
664.846	0.0165865
664.924	0.0164027
665.002	0.0164993
665.080	0.0165054
665.158	0.0164725
665.236	0.0164983
665.314	0.0165903
665.392	0.0165587
665.471	0.0164997
665.549	0.0163725
665.627	0.0163222
665.705	0.0164821
665.783	0.0165492
665.861	0.0164788
665.939	0.0164317
666.017	0.0164996
666.096	0.0165126
666.174	0.0164314
666.252	0.0166037
666.330	0.0165528
666.408	0.0165449
666.486	0.0163852
666.564	0.0165086
666.642	0.0163745
666.721	0.0164837
666.799	0.0164651
666.877	0.0163733
666.955	0.0165239
667.033	0.0163323
667.111	0.0163560
667.189	0.0163355
667.267	0.0164037
667.346	0.0164008
667.424	0.0162571
667.502	0.0164672
667.580	0.0164518
667.658	0.0163381
667.736	0.0163586
667.814	0.0163540
667.892	0.0162025
667.971	0.0164355
668.049	0.0165081
668.127	0.0165141
668.205	0.0164258
668.283	0.0163898
668.361	0.0164504
668.439	0.0164737
668.517	0.0165118
668.596	0.0163458
668.674	0.0164513
668.752	0.0164322
668.830	0.0164746
668.908	0.0164494
668.986	0.0163847
669.064	0.0163605
669.142	0.0164749
669.221	0.0164996
669.299	0.0163424
669.377	0.0164580
669.455	0.0164589
669.533	0.0163362
669.611	0.0165358
669.689	0.0165728
669.767	0.0165054
669.846	0.0164740
669.924	0.0165671
670.002	0.0164401
670.080	0.0163665
670.158	0.0165033
670.236	0.0165115
670.314	0.0165769
670.392	0.0163898
670.471	0.0165021
670.549	0.0165099
670.627	0.0163229
670.705	0.0163486
670.783	0.0165192
670.861	0.0165621
670.939	0.0164279
671.017	0.0164341
671.096	0.0164408
671.174	0.0163611
671.252	0.0164102
671.330	0.0163568
671.408	0.0163763
671.486	0.0162830
671.564	0.0164934
671.642	0.0164770
671.721	0.0162933
671.799	0.0163366
671.877	0.0164205
671.955	0.0163821
672.033	0.0162515
672.111	0.0162405
672.189	0.0164212
672.267	0.0163731
672.346	0.0165090
672.424	0.0164681
672.502	0.0163565
672.580	0.0163273
672.658	0.0163177
672.736	0.0163890
672.814	0.0163708
672.892	0.0163065
672.971	0.0163929
673.049	0.0163199
673.127	0.0163707
673.205	0.0164878
673.283	0.0164504
673.361	0.0163112
673.439	0.0163930
673.517	0.0163636
673.596	0.0163239
673.674	0.0164352
673.752	0.0163854
673.830	0.0164388
673.908	0.0163189
673.986	0.0163686
674.064	0.0163599
674.142	0.0164226
674.221	0.0165549
674.299	0.0164176
674.377	0.0163620
674.455	0.0163165
674.533	0.0163379
674.611	0.0162783
674.689	0.0162618
674.767	0.0163774
674.846	0.0164171
674.924	0.0162772
675.002	0.0163460
675.080	0.0163042
675.158	0.0163500
675.236	0.0163124
675.314	0.0164438
675.392	0.0162778
675.471	0.0163287
675.549	0.0164066
675.627	0.0163114
675.705	0.0163616
675.783	0.0164278
675.861	0.0161504
675.939	0.0161877
676.017	0.0163293
676.096	0.0163361
676.174	0.0162732
676.252	0.0162335
676.330	0.0164814
676.408	0.0162413
676.486	0.0163896
676.564	0.0163013
676.642	0.0163041
676.721	0.0162630
676.799	0.0162745
676.877	0.0162934
676.955	0.0163297
677.033	0.0162795
677.111	0.0164200
677.189	0.0162528
677.267	0.0163153
677.346	0.0162785
677.424	0.0163383
677.502	0.0163450
677.580	0.0163998
677.658	0.0164511
677.736	0.0163407
677.814	0.0164227
677.892	0.0162939
677.971	0.0163533
678.049	0.0165314
678.127	0.0164813
678.205	0.0163796
678.283	0.0163193
678.361	0.0163711
678.439	0.0164435
678.517	0.0164208
678.596	0.0165041
678.674	0.0163617
678.752	0.0163469
678.830	0.0164711
678.908	0.0164284
678.986	0.0164973
679.064	0.0164742
679.142	0.0164233
679.221	0.0164966
679.299	0.0164708
679.377	0.0163271
679.455	0.0163711
679.533	0.0164481
679.611	0.0163013
679.689	0.0163696
679.767	0.0164230
679.846	0.0165011
679.924	0.0164251
680.002	0.0163953
680.080	0.0165498
680.158	0.0165662
680.236	0.0165515
680.314	0.0165131
680.392	0.0163792
680.471	0.0166483
680.549	0.0164481
680.627	0.0164397
680.705	0.0165385
680.783	0.0164690
680.861	0.0163246
680.939	0.0164525
681.017	0.0165057
681.096	0.0165018
681.174	0.0165335
681.252	0.0165156
681.330	0.0163097
681.408	0.0164834
681.486	0.0165464
681.564	0.0165208
681.642	0.0165276
681.721	0.0164915
681.799	0.0165383
681.877	0.0164688
681.955	0.0164857
682.033	0.0165864
682.111	0.0165337
682.189	0.0164870
682.267	0.0166179
682.346	0.0166092
682.424	0.0164771
682.502	0.0164255
682.580	0.0165751
682.658	0.0166031
682.736	0.0163799
682.814	0.0164195
682.892	0.0163993
682.971	0.0163959
683.049	0.0166170
683.127	0.0165897
683.205	0.0165973
683.283	0.0165381
683.361	0.0164609
683.439	0.0165488
683.517	0.0164869
683.596	0.0164805
683.674	0.0165955
683.752	0.0165057
683.830	0.0165572
683.908	0.0164422
683.986	0.0165304
684.064	0.0165517
684.142	0.0164848
684.221	0.0166016
684.299	0.0166133
684.377	0.0164681
684.455	0.0165462
684.533	0.0164294
684.611	0.0165555
684.689	0.0165370
684.767	0.0165491
684.846	0.0163069
684.924	0.0164003
685.002	0.0164906
685.080	0.0163628
685.158	0.0164394
685.236	0.0165775
685.314	0.0163699
685.392	0.0163769
685.471	0.0163505
685.549	0.0163969
685.627	0.0164157
685.705	0.0163776
685.783	0.0165634
685.861	0.0164271
685.939	0.0164198
686.017	0.0165553
686.096	0.0164246
686.174	0.0164925
686.252	0.0163958
686.330	0.0164657
686.408	0.0163806
686.486	0.0164261
686.564	0.0164582
686.642	0.0163931
686.721	0.0164097
686.799	0.0164181
686.877	0.0164903
686.955	0.0164423
687.033	0.0164238
687.111	0.0162719
687.189	0.0164996
687.267	0.0164175
687.346	0.0164519
687.424	0.0164249
687.502	0.0162737
687.580	0.0163418
687.658	0.0164554
687.736	0.0162967
687.814	0.0163026
687.892	0.0162373
687.971	0.0162116
688.049	0.0163149
688.127	0.0162541
688.205	0.0161971
688.283	0.0162054
688.361	0.0162373
688.439	0.0161874
688.517	0.0162801
688.596	0.0162604
688.674	0.0163292
688.752	0.0160899
688.830	0.0163123
688.908	0.0165219
688.986	0.0163577
689.064	0.0164207
689.142	0.0164793
689.221	0.0164326
689.299	0.0163462
689.377	0.0165757
689.455	0.0164872
689.533	0.0165293
689.611	0.0165601
689.689	0.0165150
689.767	0.0165739
689.846	0.0163027
689.924	0.0163351
690.002	0.0164029
690.080	0.0163689
690.158	0.0163435
690.236	0.0164164
690.314	0.0163490
690.392	0.0163223
690.471	0.0163808
690.549	0.0162902
690.627	0.0162596
690.705	0.0162389
690.783	0.0162041
690.861	0.0162801
690.939	0.0163465
691.017	0.0163320
691.096	0.0162481
691.174	0.0163982
691.252	0.0164178
691.330	0.0163738
691.408	0.0165091
691.486	0.0164032
691.564	0.0163495
691.642	0.0164387
691.721	0.0165552
691.799	0.0164583
691.877	0.0162557
691.955	0.0162957
692.033	0.0163562
692.111	0.0164659
692.189	0.0163597
692.267	0.0164158
692.346	0.0163316
692.424	0.0162525
692.502	0.0163304
692.580	0.0162569
692.658	0.0163636
692.736	0.0162758
692.814	0.0162298
692.892	0.0162167
692.971	0.0162445
693.049	0.0161362
693.127	0.0163876
693.205	0.0164761
693.283	0.0164251
693.361	0.0162921
693.439	0.0164285
693.517	0.0163268
693.596	0.0163258
693.674	0.0163428
693.752	0.0163983
693.830	0.0162595
693.908	0.0162625
693.986	0.0163589
694.064	0.0162871
694.142	0.0164111
694.221	0.0163773
694.299	0.0163711
694.377	0.0162618
694.455	0.0163185
694.533	0.0164138
694.611	0.0163635
694.689	0.0162531
694.767	0.0162801
694.846	0.0164260
694.924	0.0163904
695.002	0.0163078
695.080	0.0162788
695.158	0.0164259
695.236	0.0165485
695.314	0.0163888
695.392	0.0164161
695.471	0.0165435
695.549	0.0164822
695.627	0.0164910
695.705	0.0164885
695.783	0.0164538
695.861	0.0166129
695.939	0.0165200
696.017	0.0164598
696.096	0.0166312
696.174	0.0165356
696.252	0.0165413
696.330	0.0164112
696.408	0.0163240
696.486	0.0163912
696.564	0.0163818
696.642	0.0164027
696.721	0.0163380
696.799	0.0162632
696.877	0.0162835
696.955	0.0163058
697.033	0.0162984
697.111	0.0163595
697.189	0.0160531
697.267	0.0160923
697.346	0.0161112
697.424	0.0163328
697.502	0.0162992
697.580	0.0162869
697.658	0.0162381
697.736	0.0161975
697.814	0.0162151
697.892	0.0162915
697.971	0.0163065
698.049	0.0163052
698.127	0.0162408
698.205	0.0163103
698.283	0.0163910
698.361	0.0164092
698.439	0.0164032
698.517	0.0164059
698.596	0.0164391
698.674	0.0164540
698.752	0.0164989
698.830	0.0165340
698.908	0.0165218
698.986	0.0165008
699.064	0.0164446
699.142	0.0163720
699.221	0.0165031
699.299	0.0165775
699.377	0.0166132
699.455	0.0164792
699.533	0.0164996
699.611	0.0165193
699.689	0.0165303
699.767	0.0166606
699.846	0.0166213
699.924	0.0165258
700.002	0.0165475
700.080	0.0166206
700.158	0.0165947
700.236	0.0165665
700.314	0.0165756
700.392	0.0165761
700.471	0.0165968
700.549	0.0164414
700.627	0.0163869
700.705	0.0163376
700.783	0.0163502
700.861	0.0163486
700.939	0.0164479
701.017	0.0163030
701.096	0.0162475
701.174	0.0162951
701.252	0.0163322
701.330	0.0162453
701.408	0.0161498
701.486	0.0160732
701.564	0.0161064
701.642	0.0160358
701.721	0.0159192
701.799	0.0160345
701.877	0.0160773
701.955	0.0160303
702.033	0.0160444
702.111	0.0160285
702.189	0.0160628
702.267	0.0161950
702.346	0.0162166
702.424	0.0163184
702.502	0.0164252
702.580	0.0164024
702.658	0.0163885
702.736	0.0165144
702.814	0.0163245
702.892	0.0164587
702.971	0.0165287
703.049	0.0165827
703.127	0.0164977
703.205	0.0165956
703.283	0.0166382
703.361	0.0164913
703.439	0.0166502
703.517	0.0165728
703.596	0.0165240
703.674	0.0166367
703.752	0.0164139
703.830	0.0164327
703.908	0.0164253
703.986	0.0162821
704.064	0.0163577
704.142	0.0163544
704.221	0.0163753
704.299	0.0163597
704.377	0.0163711
704.455	0.0161918
704.533	0.0162869
704.611	0.0164245
704.689	0.0165927
704.767	0.0166225
704.846	0.0163615
704.924	0.0164822
705.002	0.0164964
705.080	0.0163819
705.158	0.0164746
705.236	0.0165984
705.314	0.0165930
705.392	0.0166661
705.471	0.0166013
705.549	0.0166488
705.627	0.0166321
705.705	0.0166362
705.783	0.0165646
705.861	0.0167625
705.939	0.0165328
706.017	0.0163871
706.096	0.0164293
706.174	0.0166021
706.252	0.0164265
706.330	0.0164622
706.408	0.0163983
706.486	0.0163000
706.564	0.0163593
706.642	0.0162607
706.721	0.0161958
706.799	0.0162209
706.877	0.0160871
706.955	0.0162431
707.033	0.0160969
707.111	0.0161223
707.189	0.0162859
707.267	0.0160132
707.346	0.0161897
707.424	0.0161355
707.502	0.0162801
707.580	0.0163226
707.658	0.0162324
707.736	0.0164587
707.814	0.0165932
707.892	0.0164928
707.971	0.0165224
708.049	0.0167017
708.127	0.0166346
708.205	0.0166696
708.283	0.0166231
708.361	0.0165886
708.439	0.0164986
708.517	0.0165929
708.596	0.0165269
708.674	0.0166080
708.752	0.0166431
708.830	0.0164795
708.908	0.0163319
708.986	0.0164425
709.064	0.0164957
709.142	0.0164011
709.221	0.0163645
709.299	0.0161796
709.377	0.0162246
709.455	0.0161704
709.533	0.0161771
709.611	0.0161771
709.689	0.0163539
709.767	0.0162595
709.846	0.0163364
709.924	0.0164506
710.002	0.0164173
710.080	0.0163326
710.158	0.0162912
710.236	0.0163380
710.314	0.0163972
710.392	0.0163441
710.471	0.0164844
710.549	0.0167058
710.627	0.0165658
710.705	0.0164902
710.783	0.0166159
710.861	0.0165469
710.939	0.0164878
711.017	0.0165470
711.096	0.0166599
711.174	0.0166053
711.252	0.0165510
711.330	0.0163922
711.408	0.0164458
711.486	0.0165471
711.564	0.0162679
711.642	0.0163322
711.721	0.0161711
711.799	0.0163017
711.877	0.0161098
711.955	0.0162861
712.033	0.0160969
712.111	0.0160500
712.189	0.0162352
712.267	0.0160384
712.346	0.0162744
712.424	0.0162798
712.502	0.0162453
712.580	0.0164116
712.658	0.0163039
712.736	0.0163301
712.814	0.0164025
712.892	0.0163419
712.971	0.0165198
713.049	0.0165605
713.127	0.0164606
713.205	0.0164389
713.283	0.0165863
713.361	0.0164059
713.439	0.0165968
713.517	0.0165598
713.596	0.0164485
713.674	0.0166254
713.752	0.0165892
713.830	0.0165433
713.908	0.0165997
713.986	0.0165512
714.064	0.0165918
714.142	0.0165055
714.221	0.0166593
714.299	0.0165430
714.377	0.0166228
714.455	0.0164681
714.533	0.0163966
714.611	0.0165044
714.689	0.0165662
714.767	0.0165148
714.846	0.0163982
714.924	0.0163503
715.002	0.0164579
715.080	0.0163670
715.158	0.0162574
715.236	0.0162558
715.314	0.0162617
715.392	0.0163432
715.471	0.0162874
715.549	0.0162621
715.627	0.0163486
715.705	0.0164632
715.783	0.0161827
715.861	0.0162885
715.939	0.0165356
716.017	0.0164069
716.096	0.0164339
716.174	0.0163608
716.252	0.0162828
716.330	0.0164791
716.408	0.0165899
716.486	0.0164388
716.564	0.0161922
716.642	0.0162481
716.721	0.0164506
716.799	0.0163069
716.877	0.0163410
716.955	0.0162785
717.033	0.0161571
717.111	0.0160549
717.189	0.0161039
717.267	0.0162290
717.346	0.0160587
717.424	0.0159995
717.502	0.0160540
717.580	0.0161871
717.658	0.0162109
717.736	0.0161879
717.814	0.0162708
717.892	0.0161936
717.971	0.0160909
718.049	0.0162500
718.127	0.0162048
718.205	0.0161176
718.283	0.0162484
718.361	0.0163538
718.439	0.0162336
718.517	0.0163877
718.596	0.0163876
718.674	0.0162971
718.752	0.0164481
718.830	0.0163708
718.908	0.0164444
718.986	0.0163699
719.064	0.0164198
719.142	0.0165309
719.221	0.0163041
719.299	0.0164017
719.377	0.0164145
719.455	0.0164284
719.533	0.0164342
719.611	0.0164659
719.689	0.0164613
719.767	0.0164506
719.846	0.0164790
719.924	0.0165462
720.002	0.0165199
720.080	0.0164161
720.158	0.0164564
720.236	0.0163712
720.314	0.0164970
720.392	0.0164411
720.471	0.0164911
720.549	0.0166418
720.627	0.0164575
720.705	0.0164730
720.783	0.0166509
720.861	0.0165478
720.939	0.0163966
721.017	0.0164513
721.096	0.0165428
721.174	0.0165539
721.252	0.0164558
721.330	0.0164794
721.408	0.0165015
721.486	0.0165104
721.564	0.0164912
721.642	0.0164849
721.721	0.0164539
721.799	0.0163660
721.877	0.0163367
721.955	0.0163998
722.033	0.0162895
722.111	0.0161926
722.189	0.0163096
722.267	0.0161702
722.346	0.0162634
722.424	0.0163007
722.502	0.0164468
722.580	0.0162848
722.658	0.0162011
722.736	0.0163596
722.814	0.0164359
722.892	0.0165100
722.971	0.0164484
723.049	0.0166524
723.127	0.0166466
723.205	0.0165941
723.283	0.0166982
723.361	0.0166586
723.439	0.0167338
723.517	0.0167200
723.596	0.0166422
723.674	0.0165677
723.752	0.0167606
723.830	0.0165023
723.908	0.0165260
723.986	0.0165079
724.064	0.0164027
724.142	0.0163800
724.221	0.0163005
724.299	0.0162521
724.377	0.0162460
724.455	0.0162337
724.533	0.0160587
724.611	0.0161230
724.689	0.0161246
724.767	0.0161792
724.846	0.0161206
724.924	0.0160215
725.002	0.0163120
725.080	0.0161870
725.158	0.0162727
725.236	0.0163649
725.314	0.0162653
725.392	0.0163560
725.471	0.0165613
725.549	0.0166193
725.627	0.0166259
725.705	0.0166238
725.783	0.0166219
725.861	0.0166550
725.939	0.0167680
726.017	0.0168266
726.096	0.0165119
726.174	0.0167225
726.252	0.0167090
726.330	0.0165398
726.408	0.0166361
726.486	0.0164879
726.564	0.0164471
726.642	0.0164079
726.721	0.0164830
726.799	0.0163445
726.877	0.0164757
726.955	0.0162465
727.033	0.0163200
727.111	0.0163477
727.189	0.0162555
727.267	0.0162990
727.346	0.0162907
727.424	0.0163345
727.502	0.0162633
727.580	0.0162263
727.658	0.0162962
727.736	0.0163575
727.814	0.0163818
727.892	0.0163188
727.971	0.0164416
728.049	0.0164362
728.127	0.0165800
728.205	0.0165131
728.283	0.0165561
728.361	0.0164359
728.439	0.0164782
728.517	0.0166325
728.596	0.0164397
728.674	0.0165195
728.752	0.0165220
728.830	0.0164243
728.908	0.0165530
728.986	0.0164840
729.064	0.0163226
729.142	0.0164188
729.221	0.0163021
729.299	0.0163346
729.377	0.0163651
729.455	0.0164098
729.533	0.0162756
729.611	0.0163904
729.689	0.0163226
729.767	0.0163588
729.846	0.0164550
729.924	0.0165115
730.002	0.0164124
730.080	0.0165244
730.158	0.0165675
730.236	0.0165432
730.314	0.0165147
730.392	0.0165996
730.471	0.0165228
730.549	0.0166508
730.627	0.0166161
730.705	0.0164849
730.783	0.0167890
730.861	0.0165534
730.939	0.0163934
731.017	0.0162885
731.096	0.0164011
731.174	0.0163147
731.252	0.0162107
731.330	0.0162175
731.408	0.0162780
731.486	0.0161301
731.564	0.0163398
731.642	0.0162151
731.721	0.0161121
731.799	0.0162138
731.877	0.0162541
731.955	0.0161953
732.033	0.0163165
732.111	0.0163905
732.189	0.0164870
732.267	0.0165417
732.346	0.0166249
732.424	0.0165264
732.502	0.0165784
732.580	0.0166035
732.658	0.0167233
732.736	0.0167052
732.814	0.0167520
732.892	0.0169402
732.971	0.0167787
733.049	0.0166490
733.127	0.0166477
733.205	0.0168309
733.283	0.0167421
733.361	0.0168111
733.439	0.0167152
733.517	0.0166098
733.596	0.0163488
733.674	0.0165944
733.752	0.0165695
733.830	0.0164658
733.908	0.0163342
733.986	0.0162626
734.064	0.0162635
734.142	0.0162054
734.221	0.0163033
734.299	0.0162849
734.377	0.0161519
734.455	0.0162919
734.533	0.0161009
734.611	0.0161014
734.689	0.0161436
734.767	0.0163171
734.846	0.0162750
734.924	0.0162047
735.002	0.0163564
735.080	0.0162464
735.158	0.0163204
735.236	0.0163197
735.314	0.0164354
735.392	0.0164596
735.471	0.0165147
735.549	0.0166007
735.627	0.0166479
735.705	0.0167963
735.783	0.0166027
735.861	0.0166590
735.939	0.0166624
736.017	0.0166624
736.096	0.0166505
736.174	0.0166440
736.252	0.0166234
736.330	0.0165410
736.408	0.0165235
736.486	0.0164163
736.564	0.0164098
736.642	0.0164410
736.721	0.0164824
736.799	0.0163338
736.877	0.0163414
736.955	0.0163167
737.033	0.0161095
737.111	0.0162441
737.189	0.0161497
737.267	0.0161084
737.346	0.0161106
737.424	0.0160126
737.502	0.0160754
737.580	0.0161353
737.658	0.0160446
737.736	0.0161204
737.814	0.0162495
737.892	0.0162052
737.971	0.0161821
738.049	0.0160074
738.127	0.0163102
738.205	0.0162173
738.283	0.0162331
738.361	0.0162241
738.439	0.0163161
738.517	0.0162613
738.596	0.0161719
738.674	0.0162115
738.752	0.0161024
738.830	0.0163322
738.908	0.0162289
738.986	0.0160778
739.064	0.0161572
739.142	0.0161957
739.221	0.0161241
739.299	0.0161805
739.377	0.0162016
739.455	0.0162871
739.533	0.0162219
739.611	0.0164407
739.689	0.0163915
739.767	0.0163068
739.846	0.0164210
739.924	0.0164951
740.002	0.0165742
740.080	0.0166855
740.158	0.0165201
740.236	0.0164654
740.314	0.0165849
740.392	0.0166697
740.471	0.0165222
740.549	0.0165884
740.627	0.0165608
740.705	0.0164941
740.783	0.0165147
740.861	0.0165126
740.939	0.0165337
741.017	0.0163972
741.096	0.0163493
741.174	0.0162870
741.252	0.0163747
741.330	0.0162766
741.408	0.0163217
741.486	0.0162916
741.564	0.0161776
741.642	0.0161945
741.721	0.0162583
741.799	0.0160036
741.877	0.0160225
741.955	0.0159397
742.033	0.0159618
742.111	0.0160854
742.189	0.0160456
742.267	0.0160546
742.346	0.0159077
742.424	0.0161028
742.502	0.0160471
742.580	0.0159552
742.658	0.0161439
742.736	0.0161531
742.814	0.0160721
742.892	0.0163380
742.971	0.0163473
743.049	0.0163884
743.127	0.0163889
743.205	0.0166331
743.283	0.0167478
743.361	0.0166908
743.439	0.0167337
743.517	0.0167493
743.596	0.0167811
743.674	0.0169281
743.752	0.0167455
743.830	0.0167260
743.908	0.0167683
743.986	0.0169741
744.064	0.0169158
744.142	0.0166927
744.221	0.0168044
744.299	0.0167149
744.377	0.0166342
744.455	0.0165770
744.533	0.0164874
744.611	0.0164133
744.689	0.0163964
744.767	0.0162872
744.846	0.0161421
744.924	0.0161691
745.002	0.0162360
745.080	0.0159918
745.158	0.0162163
745.236	0.0161903
745.314	0.0162038
745.392	0.0161069
745.471	0.0160666
745.549	0.0161784
745.627	0.0161960
745.705	0.0162141
745.783	0.0161342
745.861	0.0161933
745.939	0.0162067
746.017	0.0160686
746.096	0.0162698
746.174	0.0162598
746.252	0.0162650
746.330	0.0164305
746.408	0.0164919
746.486	0.0163332
746.564	0.0163553
746.642	0.0163898
746.721	0.0166248
746.799	0.0166174
746.877	0.0164661
746.955	0.0166919
747.033	0.0167004
747.111	0.0166670
747.189	0.0165578
747.267	0.0166517
747.346	0.0167914
747.424	0.0165327
747.502	0.0166387
747.580	0.0167031
747.658	0.0166193
747.736	0.0164895
747.814	0.0166048
747.892	0.0165115
747.971	0.0166031
748.049	0.0165042
748.127	0.0163269
748.205	0.0164662
748.283	0.0163005
748.361	0.0164201
748.439	0.0163153
748.517	0.0163328
748.596	0.0164762
748.674	0.0163367
748.752	0.0163711
748.830	0.0163446
748.908	0.0163879
748.986	0.0163383
749.064	0.0163946
749.142	0.0165488
749.221	0.0165248
749.299	0.0165789
749.377	0.0166695
749.455	0.0164053
749.533	0.0165982
749.611	0.0165081
749.689	0.0166076
749.767	0.0165663
749.846	0.0165515
749.924	0.0165186
750.002	0.0165298
750.080	0.0165439
750.158	0.0165126
750.236	0.0164219
750.314	0.0164870
750.392	0.0164633
750.471	0.0163612
750.549	0.0165201
750.627	0.0166633
750.705	0.0164745
750.783	0.0163290
750.861	0.0164713
750.939	0.0164141
751.017	0.0164292
751.096	0.0165429
751.174	0.0164842
751.252	0.0164090
751.330	0.0165685
751.408	0.0164244
751.486	0.0164333
751.564	0.0164287
751.642	0.0163324
751.721	0.0164436
751.799	0.0163985
751.877	0.0163146
751.955	0.0163430
752.033	0.0164211
752.111	0.0162598
752.189	0.0163719
752.267	0.0164258
752.346	0.0162555
752.424	0.0162234
752.502	0.0161956
752.580	0.0162768
752.658	0.0161500
752.736	0.0162167
752.814	0.0162188
752.892	0.0163496
752.971	0.0162985
753.049	0.0163684
753.127	0.0163903
753.205	0.0166067
753.283	0.0165075
753.361	0.0162741
753.439	0.0164984
753.517	0.0164985
753.596	0.0165643
753.674	0.0164439
753.752	0.0165368
753.830	0.0166670
753.908	0.0166949
753.986	0.0166270
754.064	0.0168413
754.142	0.0168010
754.221	0.0167809
754.299	0.0167737
754.377	0.0166408
754.455	0.0166371
754.533	0.0167692
754.611	0.0167006
754.689	0.0167548
754.767	0.0167649
754.846	0.0168034
754.924	0.0166993
755.002	0.0167553
755.080	0.0167197
755.158	0.0167732
755.236	0.0167517
755.314	0.0168620
755.392	0.0165826
755.471	0.0166640
755.549	0.0165555
755.627	0.0166726
755.705	0.0165491
755.783	0.0164794
755.861	0.0164137
755.939	0.0162557
756.017	0.0161575
756.096	0.0162558
756.174	0.0161150
756.252	0.0160272
756.330	0.0158954
756.408	0.0159621
756.486	0.0157333
756.564	0.0158650
756.642	0.0157840
756.721	0.0158945
756.799	0.0159017
756.877	0.0157540
756.955	0.0158220
757.033	0.0157568
757.111	0.0158969
757.189	0.0159947
757.267	0.0161215
757.346	0.0161717
757.424	0.0160674
757.502	0.0161107
757.580	0.0161162
757.658	0.0162142
757.736	0.0164481
757.814	0.0165930
757.892	0.0164987
757.971	0.0165784
758.049	0.0165347
758.127	0.0165107
758.205	0.0167027
758.283	0.0167484
758.361	0.0166331
758.439	0.0166552
758.517	0.0166165
758.596	0.0166174
758.674	0.0166273
758.752	0.0166580
758.830	0.0165497
758.908	0.0165630
758.986	0.0166389
759.064	0.0165243
759.142	0.0165191
759.221	0.0164346
759.299	0.0162831
759.377	0.0162624
759.455	0.0163584
759.533	0.0162720
759.611	0.0163164
759.689	0.0164027
759.767	0.0161895
759.846	0.0162445
759.924	0.0162317
760.002	0.0162568
760.080	0.0163494
760.158	0.0163483
760.236	0.0163596
760.314	0.0163197
760.392	0.0163174
760.471	0.0163946
760.549	0.0164623
760.627	0.0164707
760.705	0.0162392
760.783	0.0163620
760.861	0.0163242
760.939	0.0164032
761.017	0.0164662
761.096	0.0163488
761.174	0.0163332
761.252	0.0163095
761.330	0.0162955
761.408	0.0163987
761.486	0.0163325
761.564	0.0162706
761.642	0.0164019
761.721	0.0163033
761.799	0.0162619
761.877	0.0163136
761.955	0.0162483
762.033	0.0163110
762.111	0.0162652
762.189	0.0163395
762.267	0.0162914
762.346	0.0162405
762.424	0.0163277
762.502	0.0162428
762.580	0.0160831
762.658	0.0160705
762.736	0.0161031
762.814	0.0159707
762.892	0.0160711
762.971	0.0159927
763.049	0.0161425
763.127	0.0161404
763.205	0.0160616
763.283	0.0161476
763.361	0.0162276
763.439	0.0164189
763.517	0.0163459
763.596	0.0164924
763.674	0.0164160
763.752	0.0164651
763.830	0.0165167
763.908	0.0165298
763.986	0.0166422
764.064	0.0166936
764.142	0.0166489
764.221	0.0166895
764.299	0.0166271
764.377	0.0166276
764.455	0.0164557
764.533	0.0165531
764.611	0.0165126
764.689	0.0164899
764.767	0.0165221
764.846	0.0164060
764.924	0.0162876
765.002	0.0164316
765.080	0.0163799
765.158	0.0162796
765.236	0.0162526
765.314	0.0163627
765.392	0.0164613
765.471	0.0163798
765.549	0.0163536
765.627	0.0163780
765.705	0.0163913
765.783	0.0163514
765.861	0.0163995
765.939	0.0164774
766.017	0.0164922
766.096	0.0164564
766.174	0.0165228
766.252	0.0165078
766.330	0.0165518
766.408	0.0164725
766.486	0.0164392
766.564	0.0165553
766.642	0.0164597
766.721	0.0164346
766.799	0.0164820
766.877	0.0164584
766.955	0.0162911
767.033	0.0163638
767.111	0.0164300
767.189	0.0162870
767.267	0.0162873
767.346	0.0163248
767.424	0.0163677
767.502	0.0162016
767.580	0.0161252
767.658	0.0161909
767.736	0.0162134
767.814	0.0162048
767.892	0.0163129
767.971	0.0163104
768.049	0.0162242
768.127	0.0162824
768.205	0.0162418
768.283	0.0162566
768.361	0.0161858
768.439	0.0163747
768.517	0.0162167
768.596	0.0162230
768.674	0.0162749
768.752	0.0162325
768.830	0.0163966
768.908	0.0162539
768.986	0.0163123
769.064	0.0163642
769.142	0.0163390
769.221	0.0163064
769.299	0.0164135
769.377	0.0163718
769.455	0.0164479
769.533	0.0164868
769.611	0.0166631
769.689	0.0164804
769.767	0.0166377
769.846	0.0167188
769.924	0.0165269
770.002	0.0166264
770.080	0.0166325
770.158	0.0166875
770.236	0.0166518
770.314	0.0166065
770.392	0.0165162
770.471	0.0166355
770.549	0.0166985
770.627	0.0164806
770.705	0.0165112
770.783	0.0165112
770.861	0.0164907
770.939	0.0164695
771.017	0.0164940
771.096	0.0165807
771.174	0.0164915
771.252	0.0163218
771.330	0.0162614
771.408	0.0163779
771.486	0.0163206
771.564	0.0162569
771.642	0.0164413
771.721	0.0163074
771.799	0.0162916
771.877	0.0165340
771.955	0.0163972
772.033	0.0163399
772.111	0.0163288
772.189	0.0163836
772.267	0.0164259
772.346	0.0164178
772.424	0.0163278
772.502	0.0163569
772.580	0.0164084
772.658	0.0164085
772.736	0.0164462
772.814	0.0163535
772.892	0.0163689
772.971	0.0165466
773.049	0.0165949
773.127	0.0164294
773.205	0.0164211
773.283	0.0163396
773.361	0.0165287
773.439	0.0163821
773.517	0.0164619
773.596	0.0165659
773.674	0.0165688
773.752	0.0164695
773.830	0.0165618
773.908	0.0165326
773.986	0.0164438
774.064	0.0163943
774.142	0.0164744
774.221	0.0165467
774.299	0.0163972
774.377	0.0166636
774.455	0.0164962
774.533	0.0165322
774.611	0.0165557
774.689	0.0164313
774.767	0.0163206
774.846	0.0164084
774.924	0.0165810
775.002	0.0165032
775.080	0.0163869
775.158	0.0164846
775.236	0.0163097
775.314	0.0164596
775.392	0.0163508
775.471	0.0162978
775.549	0.0162962
775.627	0.0163331
775.705	0.0163909
775.783	0.0164080
775.861	0.0163086
775.939	0.0163652
776.017	0.0163183
776.096	0.0164725
776.174	0.0165661
776.252	0.0165097
776.330	0.0164863
776.408	0.0163840
776.486	0.0163788
776.564	0.0164105
776.642	0.0165205
776.721	0.0164195
776.799	0.0162835
776.877	0.0163297
776.955	0.0163348
777.033	0.0162337
777.111	0.0163106
777.189	0.0164809
777.267	0.0164822
777.346	0.0162223
777.424	0.0163044
777.502	0.0162840
777.580	0.0164754
777.658	0.0162769
777.736	0.0164088
777.814	0.0162971
777.892	0.0162836
777.971	0.0163132
778.049	0.0163640
778.127	0.0163039
778.205	0.0163005
778.283	0.0162831
778.361	0.0164130
778.439	0.0163934
778.517	0.0163647
778.596	0.0162775
778.674	0.0164015
778.752	0.0163851
778.830	0.0162887
778.908	0.0164551
778.986	0.0163406
779.064	0.0163446
779.142	0.0164697
779.221	0.0163988
779.299	0.0163514
779.377	0.0163102
779.455	0.0161681
779.533	0.0162295
779.611	0.0162127
779.689	0.0162930
779.767	0.0163129
779.846	0.0163049
779.924	0.0162876
780.002	0.0162898
780.080	0.0162425
780.158	0.0162344
780.236	0.0162932
780.314	0.0163953
780.392	0.0162400
780.471	0.0163020
780.549	0.0164223
780.627	0.0164354
780.705	0.0164153
780.783	0.0164370
780.861	0.0162870
780.939	0.0164052
781.017	0.0164181
781.096	0.0163110
781.174	0.0164592
781.252	0.0164172
781.330	0.0163395
781.408	0.0164436
781.486	0.0160910
781.564	0.0162635
781.642	0.0163663
781.721	0.0163451
781.799	0.0162321
781.877	0.0161116
781.955	0.0163358
782.033	0.0163107
782.111	0.0161928
782.189	0.0162817
782.267	0.0162910
782.346	0.0163133
782.424	0.0163639
782.502	0.0163905
782.580	0.0162994
782.658	0.0163715
782.736	0.0164709
782.814	0.0163572
782.892	0.0163947
782.971	0.0164402
783.049	0.0163740
783.127	0.0163165
783.205	0.0163454
783.283	0.0164310
783.361	0.0163803
783.439	0.0162537
783.517	0.0163822
783.596	0.0163325
783.674	0.0164565
783.752	0.0162499
783.830	0.0161996
783.908	0.0161916
783.986	0.0163432
784.064	0.0162717
784.142	0.0161578
784.221	0.0162611
784.299	0.0164262
784.377	0.0163266
784.455	0.0162304
784.533	0.0163384
784.611	0.0161902
784.689	0.0163616
784.767	0.0162920
784.846	0.0163418
784.924	0.0165285
785.002	0.0164139
785.080	0.0163152
785.158	0.0164224
785.236	0.0164577
785.314	0.0163622
785.392	0.0165016
785.471	0.0164313
785.549	0.0164285
785.627	0.0164902
785.705	0.0165154
785.783	0.0162991
785.861	0.0163278
785.939	0.0165482
786.017	0.0165818
786.096	0.0165005
786.174	0.0164848
786.252	0.0164601
786.330	0.0164328
786.408	0.0164906
786.486	0.0164381
786.564	0.0165633
786.642	0.0165322
786.721	0.0164703
786.799	0.0164178
786.877	0.0164272
786.955	0.0164884
787.033	0.0165068
787.111	0.0165110
787.189	0.0164340
787.267	0.0164337
787.346	0.0164550
787.424	0.0165958
787.502	0.0164073
787.580	0.0166100
787.658	0.0164454
787.736	0.0165787
787.814	0.0165639
787.892	0.0165532
787.971	0.0164818
788.049	0.0164265
788.127	0.0164059
788.205	0.0165398
788.283	0.0165858
788.361	0.0164335
788.439	0.0165325
788.517	0.0165146
788.596	0.0166829
788.674	0.0164417
788.752	0.0164945
788.830	0.0164658
788.908	0.0164157
788.986	0.0166023
789.064	0.0164936
789.142	0.0165574
789.221	0.0164829
789.299	0.0164848
789.377	0.0164862
789.455	0.0165395
789.533	0.0164436
789.611	0.0165307
789.689	0.0164633
789.767	0.0165066
789.846	0.0164101
789.924	0.0164359
790.002	0.0165861
790.080	0.0165171
790.158	0.0163915
790.236	0.0163788
790.314	0.0165126
790.392	0.0165987
790.471	0.0164226
790.549	0.0164823
790.627	0.0165366
790.705	0.0165688
790.783	0.0164211
790.861	0.0164112
790.939	0.0165064
791.017	0.0165283
791.096	0.0164075
791.174	0.0164629
791.252	0.0163984
791.330	0.0163432
791.408	0.0163778
791.486	0.0164124
791.564	0.0164472
791.642	0.0164418
791.721	0.0163483
791.799	0.0163393
791.877	0.0164503
791.955	0.0162968
792.033	0.0163661
792.111	0.0163293
792.189	0.0162995
792.267	0.0164278
792.346	0.0164495
792.424	0.0161833
792.502	0.0163647
792.580	0.0164197
792.658	0.0164028
792.736	0.0163682
792.814	0.0164044
792.892	0.0165035
792.971	0.0164780
793.049	0.0165300
793.127	0.0164470
793.205	0.0164196
793.283	0.0164445
793.361	0.0163173
793.439	0.0165826
793.517	0.0163644
793.596	0.0165145
793.674	0.0166963
793.752	0.0165460
793.830	0.0165063
793.908	0.0165448
793.986	0.0165885
794.064	0.0166248
794.142	0.0164477
794.221	0.0164682
794.299	0.0166290
794.377	0.0164986
794.455	0.0163490
794.533	0.0164587
794.611	0.0166158
794.689	0.0165882
794.767	0.0163317
794.846	0.0163127
794.924	0.0161909
795.002	0.0162109
795.080	0.0163805
795.158	0.0163163
795.236	0.0164188
795.314	0.0163018
795.392	0.0162680
795.471	0.0164439
795.549	0.0164299
795.627	0.0165104
795.705	0.0164364
795.783	0.0163911
795.861	0.0165166
795.939	0.0165768
796.017	0.0164069
796.096	0.0165034
796.174	0.0165438
796.252	0.0165166
796.330	0.0166798
796.408	0.0165812
796.486	0.0165868
796.564	0.0166289
796.642	0.0166107
796.721	0.0165342
796.799	0.0167133
796.877	0.0164539
796.955	0.0167151
797.033	0.0166690
797.111	0.0165996
797.189	0.0165821
797.267	0.0165309
797.346	0.0164306
797.424	0.0164537
797.502	0.0164228
797.580	0.0163958
797.658	0.0166489
797.736	0.0164830
797.814	0.0164795
797.892	0.0164671
797.971	0.0163824
798.049	0.0163915
798.127	0.0165218
798.205	0.0164639
798.283	0.0163330
798.361	0.0163097
798.439	0.0165617
798.517	0.0165395
798.596	0.0164272
798.674	0.0165009
798.752	0.0164211
798.830	0.0164654
798.908	0.0163113
798.986	0.0163858
799.064	0.0165889
799.142	0.0164178
799.221	0.0163666
799.299	0.0165669
799.377	0.0164959
799.455	0.0164420
799.533	0.0164512
799.611	0.0165181
799.689	0.0164277
799.767	0.0164072
799.846	0.0164616
799.924	0.0165099
800.002	0.0165006
800.080	0.0165331
800.158	0.0165135
800.236	0.0164952
800.314	0.0164924
800.392	0.0164082
800.471	0.0165038
800.549	0.0163384
800.627	0.0163887
800.705	0.0164287
800.783	0.0163918
800.861	0.0163619
800.939	0.0164274
801.017	0.0165276
801.096	0.0163927
801.174	0.0162518
801.252	0.0164614
801.330	0.0163812
801.408	0.0163828
801.486	0.0164181
801.564	0.0164767
801.642	0.0164130
801.721	0.0164800
801.799	0.0165165
801.877	0.0164665
801.955	0.0164529
802.033	0.0164883
802.111	0.0165360
802.189	0.0165495
802.267	0.0164996
802.346	0.0164460
802.424	0.0164909
802.502	0.0163818
802.580	0.0163315
802.658	0.0163661
802.736	0.0164553
802.814	0.0162582
802.892	0.0163270
802.971	0.0163658
803.049	0.0161787
803.127	0.0162771
803.205	0.0162256
803.283	0.0162771
803.361	0.0163249
803.439	0.0162160
803.517	0.0163965
803.596	0.0163018
803.674	0.0162058
803.752	0.0162987
803.830	0.0164043
803.908	0.0162994
803.986	0.0162530
804.064	0.0164102
804.142	0.0163487
804.221	0.0163583
804.299	0.0163818
804.377	0.0163192
804.455	0.0163669
804.533	0.0163324
804.611	0.0163451
804.689	0.0164576
804.767	0.0164129
804.846	0.0164159
804.924	0.0163373
805.002	0.0164230
805.080	0.0165370
805.158	0.0164367
805.236	0.0163039
805.314	0.0163466
805.392	0.0164594
805.471	0.0164392
805.549	0.0163989
805.627	0.0163489
805.705	0.0164005
805.783	0.0163930
805.861	0.0162650
805.939	0.0163868
806.017	0.0164292
806.096	0.0163946
806.174	0.0163840
806.252	0.0163279
806.330	0.0163359
806.408	0.0164171
806.486	0.0165291
806.564	0.0164122
806.642	0.0163792
806.721	0.0163954
806.799	0.0164030
806.877	0.0163271
806.955	0.0163830
807.033	0.0163239
807.111	0.0163538
807.189	0.0162056
807.267	0.0163413
807.346	0.0163354
807.424	0.0163943
807.502	0.0163908
807.580	0.0162737
807.658	0.0163528
807.736	0.0163521
807.814	0.0163365
807.892	0.0161871
807.971	0.0162531
808.049	0.0164179
808.127	0.0164362
808.205	0.0163865
808.283	0.0164355
808.361	0.0162874
808.439	0.0164094
808.517	0.0164507
808.596	0.0164813
808.674	0.0163247
808.752	0.0163390
808.830	0.0163818
808.908	0.0162999
808.986	0.0164620
809.064	0.0164585
809.142	0.0164079
809.221	0.0164037
809.299	0.0163775
809.377	0.0164143
809.455	0.0166022
809.533	0.0165289
809.611	0.0165112
809.689	0.0165709
809.767	0.0164018
809.846	0.0165070
809.924	0.0163735
810.002	0.0163830
810.080	0.0165621
810.158	0.0164584
810.236	0.0165422
810.314	0.0163969
810.392	0.0165327
810.471	0.0165737
810.549	0.0163934
810.627	0.0165826
810.705	0.0165800
810.783	0.0165939
810.861	0.0165322
810.939	0.0165013
811.017	0.0166206
811.096	0.0165781
811.174	0.0165425
811.252	0.0165705
811.330	0.0164359
811.408	0.0165449
811.486	0.0165080
811.564	0.0166052
811.642	0.0164912
811.721	0.0165274
811.799	0.0163795
811.877	0.0165162
811.955	0.0164886
812.033	0.0163956
812.111	0.0164358
812.189	0.0166211
812.267	0.0164541
812.346	0.0163360
812.424	0.0165049
812.502	0.0163585
812.580	0.0163967
812.658	0.0164183
812.736	0.0163532
812.814	0.0164088
812.892	0.0163238
812.971	0.0163017
813.049	0.0163631
813.127	0.0163811
813.205	0.0163380
813.283	0.0163367
813.361	0.0163902
813.439	0.0163830
813.517	0.0163345
813.596	0.0163347
813.674	0.0163749
813.752	0.0163847
813.830	0.0163478
813.908	0.0161538
813.986	0.0163836
814.064	0.0163873
814.142	0.0163887
814.221	0.0164144
814.299	0.0163738
814.377	0.0164902
814.455	0.0164354
814.533	0.0162884
814.611	0.0164577
814.689	0.0163535
814.767	0.0164492
814.846	0.0163486
814.924	0.0163284
815.002	0.0164208
815.080	0.0162598
815.158	0.0162999
815.236	0.0164120
815.314	0.0163845
815.392	0.0163686
815.471	0.0164820
815.549	0.0163584
815.627	0.0162473
815.705	0.0164807
815.783	0.0166043
815.861	0.0163006
815.939	0.0164114
816.017	0.0164961
816.096	0.0163892
816.174	0.0164316
816.252	0.0163431
816.330	0.0163450
816.408	0.0164407
816.486	0.0163935
816.564	0.0163686
816.642	0.0163884
816.721	0.0164525
816.799	0.0163241
816.877	0.0163840
816.955	0.0164146
817.033	0.0163751
817.111	0.0163824
817.189	0.0164651
817.267	0.0162875
817.346	0.0163506
817.424	0.0164999
817.502	0.0163782
817.580	0.0162361
817.658	0.0163697
817.736	0.0164452
817.814	0.0163831
817.892	0.0164404
817.971	0.0165741
818.049	0.0164845
818.127	0.0164247
818.205	0.0164178
818.283	0.0163790
818.361	0.0164213
818.439	0.0165084
818.517	0.0164735
818.596	0.0165270
818.674	0.0165829
818.752	0.0164533
818.830	0.0163767
818.908	0.0165314
818.986	0.0165435
819.064	0.0164491
819.142	0.0164703
819.221	0.0164845
819.299	0.0164890
819.377	0.0165651
819.455	0.0164110
819.533	0.0164669
819.611	0.0165543
819.689	0.0165673
819.767	0.0164670
819.846	0.0165271
819.924	0.0164910
820.002	0.0165603
820.080	0.0165317
820.158	0.0164349
820.236	0.0166661
820.314	0.0164986
820.392	0.0164989
820.471	0.0163837
820.549	0.0166433
820.627	0.0165533
820.705	0.0164581
820.783	0.0164436
820.861	0.0164942
820.939	0.0166859
821.017	0.0164619
821.096	0.0164792
821.174	0.0165737
821.252	0.0165386
821.330	0.0165626
821.408	0.0165585
821.486	0.0165045
821.564	0.0166440
821.642	0.0164948
821.721	0.0164614
821.799	0.0165292
821.877	0.0164163
821.955	0.0164848
822.033	0.0165135
822.111	0.0164471
822.189	0.0165134
822.267	0.0165225
822.346	0.0165539
822.424	0.0164771
822.502	0.0164207
822.580	0.0165292
822.658	0.0165177
822.736	0.0162888
822.814	0.0164278
822.892	0.0166107
822.971	0.0165157
823.049	0.0164959
823.127	0.0165544
823.205	0.0165517
823.283	0.0164983
823.361	0.0166387
823.439	0.0165989
823.517	0.0165705
823.596	0.0165079
823.674	0.0165727
823.752	0.0164835
823.830	0.0164070
823.908	0.0164880
823.986	0.0165373
824.064	0.0162773
824.142	0.0164870
824.221	0.0163813
824.299	0.0164752
824.377	0.0164231
824.455	0.0164686
824.533	0.0165384
824.611	0.0164788
824.689	0.0165523
824.767	0.0163589
824.846	0.0165633
824.924	0.0164550
825.002	0.0164026
825.080	0.0163685
825.158	0.0164464
825.236	0.0164747
825.314	0.0164637
825.392	0.0164157
825.471	0.0163133
825.549	0.0163453
825.627	0.0163647
825.705	0.0162782
825.783	0.0166480
825.861	0.0164288
825.939	0.0165106
826.017	0.0162486
826.096	0.0164130
826.174	0.0164940
826.252	0.0163826
826.330	0.0164327
826.408	0.0164547
826.486	0.0165460
826.564	0.0164969
826.642	0.0164296
826.721	0.0164867
826.799	0.0165999
826.877	0.0164648
826.955	0.0164577
827.033	0.0165562
827.111	0.0164987
827.189	0.0165788
827.267	0.0163718
827.346	0.0163905
827.424	0.0165088
827.502	0.0165981
827.580	0.0164453
827.658	0.0164864
827.736	0.0163541
827.814	0.0164996
827.892	0.0164365
827.971	0.0163628
828.049	0.0165235
828.127	0.0163595
828.205	0.0164602
828.283	0.0164551
828.361	0.0163721
828.439	0.0163265
828.517	0.0165859
828.596	0.0165363
828.674	0.0164619
828.752	0.0165828
828.830	0.0165465
828.908	0.0165630
828.986	0.0164690
829.064	0.0165140
829.142	0.0165000
829.221	0.0165375
829.299	0.0163448
829.377	0.0164637
829.455	0.0166210
829.533	0.0165745
829.611	0.0165914
829.689	0.0166252
829.767	0.0164433
829.846	0.0164718
829.924	0.0165228
830.002	0.0164534
830.080	0.0164806
830.158	0.0164500
830.236	0.0163804
830.314	0.0163795
830.392	0.0163812
830.471	0.0162598
830.549	0.0163971
830.627	0.0164193
830.705	0.0163138
830.783	0.0164059
830.861	0.0163300
830.939	0.0164364
831.017	0.0163699
831.096	0.0162833
831.174	0.0163719
831.252	0.0164822
831.330	0.0163433
831.408	0.0161815
831.486	0.0163844
831.564	0.0163603
831.642	0.0163506
831.721	0.0163790
831.799	0.0164719
831.877	0.0163830
831.955	0.0163700
832.033	0.0164229
832.111	0.0164325
832.189	0.0165105
832.267	0.0164867
832.346	0.0163091
832.424	0.0163541
832.502	0.0164660
832.580	0.0163287
832.658	0.0164642
832.736	0.0165385
832.814	0.0162370
832.892	0.0164713
832.971	0.0163306
833.049	0.0162916
833.127	0.0164618
833.205	0.0164113
833.283	0.0164039
833.361	0.0162288
833.439	0.0162802
833.517	0.0163544
833.596	0.0163228
833.674	0.0163673
833.752	0.0162214
833.830	0.0163033
833.908	0.0163631
833.986	0.0164188
834.064	0.0162683
834.142	0.0162323
834.221	0.0162347
834.299	0.0163326
834.377	0.0161968
834.455	0.0164275
834.533	0.0163528
834.611	0.0163007
834.689	0.0162666
834.767	0.0164265
834.846	0.0162777
834.924	0.0163315
835.002	0.0164056
835.080	0.0162354
835.158	0.0161711
835.236	0.0163493
835.314	0.0162447
835.392	0.0161844
835.471	0.0163365
835.549	0.0163517
835.627	0.0163226
835.705	0.0162417
835.783	0.0163075
835.861	0.0164468
835.939	0.0162187
836.017	0.0163013
836.096	0.0163913
836.174	0.0163231
836.252	0.0164841
836.330	0.0163670
836.408	0.0163438
836.486	0.0164424
836.564	0.0164100
836.642	0.0162270
836.721	0.0164071
836.799	0.0163594
836.877	0.0161734
836.955	0.0163596
837.033	0.0163087
837.111	0.0163151
837.189	0.0164463
837.267	0.0162535
837.346	0.0162589
837.424	0.0162669
837.502	0.0162434
837.580	0.0162643
837.658	0.0162605
837.736	0.0162726
837.814	0.0163858
837.892	0.0163552
837.971	0.0163201
838.049	0.0162874
838.127	0.0163561
838.205	0.0162814
838.283	0.0162982
838.361	0.0164231
838.439	0.0164449
838.517	0.0164303
838.596	0.0164005
838.674	0.0164097
838.752	0.0164380
838.830	0.0163946
838.908	0.0163766
838.986	0.0163644
839.064	0.0164384
839.142	0.0164137
839.221	0.0163226
839.299	0.0162904
839.377	0.0164489
839.455	0.0163189
839.533	0.0163361
839.611	0.0164156
839.689	0.0163375
839.767	0.0164785
839.846	0.0163375
839.924	0.0163956
840.002	0.0163627
840.080	0.0162972
840.158	0.0163202
840.236	0.0164494
840.314	0.0165064
840.392	0.0164878
840.471	0.0162785
840.549	0.0162737
840.627	0.0162608
840.705	0.0164310
840.783	0.0163201
840.861	0.0162646
840.939	0.0163499
841.017	0.0163750
841.096	0.0163599
841.174	0.0163538
841.252	0.0163953
841.330	0.0163454
841.408	0.0164574
841.486	0.0163810
841.564	0.0162155
841.642	0.0162694
841.721	0.0162671
841.799	0.0163256
841.877	0.0161928
841.955	0.0163516
842.033	0.0164297
842.111	0.0162932
842.189	0.0162998
842.267	0.0164256
842.346	0.0164128
842.424	0.0163586
842.502	0.0164774
842.580	0.0162727
842.658	0.0163760
842.736	0.0162244
842.814	0.0163863
842.892	0.0163600
842.971	0.0163814
843.049	0.0164097
843.127	0.0164964
843.205	0.0164536
843.283	0.0163556
843.361	0.0163193
843.439	0.0164236
843.517	0.0164924
843.596	0.0162479
843.674	0.0162333
843.752	0.0164118
843.830	0.0163668
843.908	0.0163732
843.986	0.0164930
844.064	0.0162864
844.142	0.0163641
844.221	0.0164139
844.299	0.0163578
844.377	0.0164566
844.455	0.0164445
844.533	0.0164742
844.611	0.0163571
844.689	0.0164423
844.767	0.0163933
844.846	0.0163595
844.924	0.0164876
845.002	0.0163622
845.080	0.0164954
845.158	0.0165654
845.236	0.0164834
845.314	0.0163872
845.392	0.0163913
845.471	0.0162958
845.549	0.0163918
845.627	0.0165073
845.705	0.0164038
845.783	0.0165298
845.861	0.0164143
845.939	0.0162932
846.017	0.0164205
846.096	0.0165465
846.174	0.0163951
846.252	0.0163446
846.330	0.0163861
846.408	0.0163552
846.486	0.0163198
846.564	0.0164304
846.642	0.0163222
846.721	0.0162270
846.799	0.0164297
846.877	0.0165427
846.955	0.0164535
847.033	0.0163107
847.111	0.0162579
847.189	0.0162699
847.267	0.0163613
847.346	0.0163087
847.424	0.0163089
847.502	0.0162979
847.580	0.0164096
847.658	0.0163956
847.736	0.0164008
847.814	0.0163864
847.892	0.0162464
847.971	0.0164090
848.049	0.0162366
848.127	0.0163315
848.205	0.0164733
848.283	0.0164324
848.361	0.0164815
848.439	0.0162930
848.517	0.0163860
848.596	0.0162736
848.674	0.0162919
848.752	0.0162399
848.830	0.0164124
848.908	0.0164525
848.986	0.0162721
849.064	0.0163195
849.142	0.0163938
849.221	0.0163429
849.299	0.0162997
849.377	0.0164371
849.455	0.0164974
849.533	0.0163086
849.611	0.0163972
849.689	0.0164449
849.767	0.0162413
849.846	0.0162555
849.924	0.0163003
850.002	0.0163507
850.080	0.0165409
850.158	0.0164153
850.236	0.0163180
850.314	0.0162323
850.392	0.0162483
850.471	0.0163674
850.549	0.0165417
850.627	0.0165628
850.705	0.0162285
850.783	0.0164581
850.861	0.0164871
850.939	0.0166499
851.017	0.0164887
851.096	0.0165474
851.174	0.0165067
851.252	0.0165326
851.330	0.0165234
851.408	0.0166019
851.486	0.0163706
851.564	0.0165087
851.642	0.0165200
851.721	0.0165049
851.799	0.0165494
851.877	0.0164382
851.955	0.0164980
852.033	0.0164669
852.111	0.0164063
852.189	0.0164545
852.267	0.0164351
852.346	0.0163706
852.424	0.0163281
852.502	0.0165545
852.580	0.0164330
852.658	0.0163407
852.736	0.0163362
852.814	0.0165605
852.892	0.0164396
852.971	0.0164355
853.049	0.0165579
853.127	0.0163546
853.205	0.0163659
853.283	0.0164185
853.361	0.0163799
853.439	0.0164223
853.517	0.0164822
853.596	0.0164312
853.674	0.0163989
853.752	0.0164233
853.830	0.0164027
853.908	0.0164922
853.986	0.0164469
854.064	0.0163656
854.142	0.0163625
854.221	0.0163813
854.299	0.0164285
854.377	0.0164386
854.455	0.0164606
854.533	0.0165098
854.611	0.0164912
854.689	0.0164954
854.767	0.0165366
854.846	0.0164908
854.924	0.0165275
855.002	0.0165981
855.080	0.0165450
855.158	0.0165331
855.236	0.0163847
855.314	0.0165812
855.392	0.0164423
855.471	0.0164546
855.549	0.0165203
855.627	0.0164417
855.705	0.0165810
855.783	0.0165327
855.861	0.0164970
855.939	0.0163583
856.017	0.0165309
856.096	0.0163385
856.174	0.0164788
856.252	0.0164783
856.330	0.0163876
856.408	0.0163949
856.486	0.0164343
856.564	0.0163815
856.642	0.0163049
856.721	0.0163881
856.799	0.0163993
856.877	0.0162851
856.955	0.0162778
857.033	0.0164753
857.111	0.0161772
857.189	0.0164177
857.267	0.0164855
857.346	0.0163687
857.424	0.0163662
857.502	0.0163111
857.580	0.0164622
857.658	0.0164479
857.736	0.0164584
857.814	0.0162086
857.892	0.0164107
857.971	0.0163251
858.049	0.0161416
858.127	0.0163432
858.205	0.0163618
858.283	0.0162702
858.361	0.0161663
858.439	0.0163518
858.517	0.0163065
858.596	0.0161539
858.674	0.0161906
858.752	0.0161832
858.830	0.0162916
858.908	0.0164450
858.986	0.0162604
859.064	0.0162305
859.142	0.0163170
859.221	0.0162591
859.299	0.0163339
859.377	0.0163297
859.455	0.0163755
859.533	0.0162728
859.611	0.0163114
859.689	0.0163565
859.767	0.0162811
859.846	0.0163974
859.924	0.0164168
860.002	0.0163975
860.080	0.0164297
860.158	0.0162831
860.236	0.0163100
860.314	0.0163095
860.392	0.0164850
860.471	0.0165660
860.549	0.0164015
860.627	0.0164268
860.705	0.0164141
860.783	0.0162859
860.861	0.0163813
860.939	0.0163588
861.017	0.0164041
861.096	0.0163390
861.174	0.0162761
861.252	0.0164065
861.330	0.0164825
861.408	0.0163869
861.486	0.0163095
861.564	0.0162918
861.642	0.0163544
861.721	0.0164011
861.799	0.0162202
861.877	0.0163272
861.955	0.0163042
862.033	0.0162706
862.111	0.0163622
862.189	0.0162551
862.267	0.0163561
862.346	0.0163414
862.424	0.0164294
862.502	0.0163535
862.580	0.0163080
862.658	0.0162542
862.736	0.0163661
862.814	0.0162842
862.892	0.0163638
862.971	0.0164220
863.049	0.0162270
863.127	0.0164051
863.205	0.0163499
863.283	0.0163336
863.361	0.0162977
863.439	0.0162260
863.517	0.0164040
863.596	0.0163749
863.674	0.0164238
863.752	0.0162794
863.830	0.0164176
863.908	0.0164063
863.986	0.0163731
864.064	0.0162664
864.142	0.0163834
864.221	0.0163353
864.299	0.0163805
864.377	0.0163666
864.455	0.0163301
864.533	0.0162699
864.611	0.0164883
864.689	0.0163901
864.767	0.0165365
864.846	0.0163959
864.924	0.0164291
865.002	0.0163535
865.080	0.0163286
865.158	0.0164199
865.236	0.0163076
865.314	0.0163548
865.392	0.0164063
865.471	0.0164409
865.549	0.0163219
865.627	0.0163969
865.705	0.0164169
865.783	0.0164268
865.861	0.0164027
865.939	0.0163162
866.017	0.0163408
866.096	0.0163449
866.174	0.0163360
866.252	0.0163695
866.330	0.0162571
866.408	0.0163448
866.486	0.0161834
866.564	0.0162762
866.642	0.0163836
866.721	0.0162951
866.799	0.0164020
866.877	0.0163676
866.955	0.0163374
867.033	0.0163043
867.111	0.0165087
867.189	0.0164926
867.267	0.0164025
867.346	0.0165359
867.424	0.0163724
867.502	0.0164955
867.580	0.0164884
867.658	0.0164777
867.736	0.0164342
867.814	0.0164152
867.892	0.0164755
867.971	0.0163762
868.049	0.0164427
868.127	0.0164799
868.205	0.0164619
868.283	0.0164446
868.361	0.0164444
868.439	0.0163773
868.517	0.0163812
868.596	0.0164005
868.674	0.0163977
868.752	0.0164566
868.830	0.0164099
868.908	0.0163251
868.986	0.0164018
869.064	0.0163591
869.142	0.0163276
869.221	0.0163482
869.299	0.0164405
869.377	0.0164386
869.455	0.0163090
869.533	0.0164879
869.611	0.0163801
869.689	0.0164957
869.767	0.0164443
869.846	0.0165134
869.924	0.0164484
870.002	0.0165408
870.080	0.0164504
870.158	0.0164993
870.236	0.0165455
870.314	0.0164409
870.392	0.0165507
870.471	0.0165378
870.549	0.0166595
870.627	0.0165254
870.705	0.0163797
870.783	0.0164900
870.861	0.0165001
870.939	0.0164257
871.017	0.0163461
871.096	0.0165585
871.174	0.0165334
871.252	0.0164893
871.330	0.0165691
871.408	0.0166184
871.486	0.0164267
871.564	0.0167100
871.642	0.0166260
871.721	0.0166120
871.799	0.0166346
871.877	0.0166289
871.955	0.0164330
872.033	0.0166650
872.111	0.0164925
872.189	0.0165346
872.267	0.0165432
872.346	0.0165026
872.424	0.0164754
872.502	0.0164730
872.580	0.0163561
872.658	0.0164283
872.736	0.0164902
872.814	0.0163555
872.892	0.0164815
872.971	0.0164001
873.049	0.0162851
873.127	0.0165140
873.205	0.0163914
873.283	0.0164032
873.361	0.0163062
873.439	0.0164402
873.517	0.0163893
873.596	0.0164351
873.674	0.0162526
873.752	0.0164233
873.830	0.0164116
873.908	0.0165184
873.986	0.0165150
874.064	0.0164776
874.142	0.0164148
874.221	0.0162949
874.299	0.0164714
874.377	0.0164639
874.455	0.0164073
874.533	0.0164359
874.611	0.0163380
874.689	0.0165350
874.767	0.0165572
874.846	0.0164043
874.924	0.0164451
875.002	0.0165356
875.080	0.0164468
875.158	0.0164732
875.236	0.0164146
875.314	0.0164486
875.392	0.0165365
875.471	0.0164189
875.549	0.0164645
875.627	0.0164473
875.705	0.0165673
875.783	0.0163810
875.861	0.0165118
875.939	0.0164668
876.017	0.0164470
876.096	0.0163840
876.174	0.0163814
876.252	0.0164715
876.330	0.0163878
876.408	0.0163495
876.486	0.0163290
876.564	0.0163634
876.642	0.0162559
876.721	0.0162219
876.799	0.0163639
876.877	0.0163230
876.955	0.0162885
877.033	0.0163857
877.111	0.0163206
877.189	0.0163545
877.267	0.0163526
877.346	0.0163037
877.424	0.0162706
877.502	0.0162068
877.580	0.0164256
877.658	0.0162836
877.736	0.0163246
877.814	0.0162438
877.892	0.0163148
877.971	0.0162810
878.049	0.0162846
878.127	0.0162500
878.205	0.0163108
878.283	0.0164247
878.361	0.0161905
878.439	0.0163683
878.517	0.0163876
878.596	0.0162429
878.674	0.0161853
878.752	0.0162894
878.830	0.0163963
878.908	0.0163978
878.986	0.0164452
879.064	0.0164217
879.142	0.0164319
879.221	0.0163345
879.299	0.0163129
879.377	0.0164378
879.455	0.0164827
879.533	0.0164330
879.611	0.0164320
879.689	0.0162604
879.767	0.0164443
879.846	0.0163712
879.924	0.0164478
880.002	0.0164327
880.080	0.0163564
880.158	0.0163415
880.236	0.0162655
880.314	0.0163396
880.392	0.0164028
880.471	0.0162087
880.549	0.0163100
880.627	0.0163568
880.705	0.0162820
880.783	0.0161588
880.861	0.0161764
880.939	0.0161509
881.017	0.0162961
881.096	0.0162271
881.174	0.0161964
881.252	0.0162592
881.330	0.0162479
881.408	0.0162538
881.486	0.0162230
881.564	0.0161839
881.642	0.0163155
881.721	0.0162643
881.799	0.0162619
881.877	0.0163236
881.955	0.0164132
882.033	0.0162466
882.111	0.0162670
882.189	0.0163539
882.267	0.0163078
882.346	0.0163876
882.424	0.0163004
882.502	0.0162775
882.580	0.0162307
882.658	0.0163289
882.736	0.0162345
882.814	0.0163414
882.892	0.0163326
882.971	0.0162213
883.049	0.0162623
883.127	0.0163186
883.205	0.0163546
883.283	0.0162547
883.361	0.0163418
883.439	0.0163618
883.517	0.0162170
883.596	0.0162775
883.674	0.0162635
883.752	0.0163166
883.830	0.0163077
883.908	0.0162516
883.986	0.0162844
884.064	0.0162899
884.142	0.0163265
884.221	0.0163197
884.299	0.0163977
884.377	0.0162966
884.455	0.0162489
884.533	0.0163020
884.611	0.0162861
884.689	0.0163165
884.767	0.0162882
884.846	0.0162744
884.924	0.0162141
885.002	0.0163823
885.080	0.0163081
885.158	0.0163332
885.236	0.0163649
885.314	0.0165047
885.392	0.0162603
885.471	0.0164880
885.549	0.0164317
885.627	0.0164227
885.705	0.0164201
885.783	0.0163522
885.861	0.0164029
885.939	0.0163596
886.017	0.0164651
886.096	0.0165472
886.174	0.0164525
886.252	0.0164568
886.330	0.0165597
886.408	0.0165018
886.486	0.0165846
886.564	0.0165424
886.642	0.0165401
886.721	0.0165941
886.799	0.0164686
886.877	0.0166042
886.955	0.0165452
887.033	0.0165380
887.111	0.0164236
887.189	0.0167120
887.267	0.0166280
887.346	0.0165731
887.424	0.0165264
887.502	0.0163181
887.580	0.0165346
887.658	0.0166256
887.736	0.0164686
887.814	0.0165005
887.892	0.0164952
887.971	0.0164250
888.049	0.0164608
888.127	0.0164803
888.205	0.0163165
888.283	0.0164971
888.361	0.0162676
888.439	0.0162839
888.517	0.0163802
888.596	0.0165182
888.674	0.0164877
888.752	0.0165643
888.830	0.0164045
888.908	0.0164609
888.986	0.0165068
889.064	0.0164902
889.142	0.0165479
889.221	0.0165331
889.299	0.0163685
889.377	0.0162984
889.455	0.0164375
889.533	0.0164797
889.611	0.0165086
889.689	0.0165276
889.767	0.0165041
889.846	0.0165727
889.924	0.0166371
890.002	0.0164989
890.080	0.0164185
890.158	0.0167226
890.236	0.0165026
890.314	0.0164915
890.392	0.0164695
890.471	0.0164720
890.549	0.0166106
890.627	0.0164815
890.705	0.0165156
890.783	0.0164093
890.861	0.0165129
890.939	0.0165947
891.017	0.0165647
891.096	0.0164834
891.174	0.0164417
891.252	0.0165017
891.330	0.0165981
891.408	0.0167046
891.486	0.0165543
891.564	0.0165916
891.642	0.0165896
891.721	0.0166495
891.799	0.0165976
891.877	0.0166793
891.955	0.0166229
892.033	0.0166224
892.111	0.0165198
892.189	0.0165577
892.267	0.0165919
892.346	0.0165898
892.424	0.0164234
892.502	0.0164895
892.580	0.0164379
892.658	0.0165086
892.736	0.0166739
892.814	0.0165461
892.892	0.0164397
892.971	0.0163692
893.049	0.0164676
893.127	0.0166576
893.205	0.0165575
893.283	0.0164963
893.361	0.0167759
893.439	0.0165775
893.517	0.0164882
893.596	0.0165977
893.674	0.0167799
893.752	0.0165243
893.830	0.0167884
893.908	0.0166164
893.986	0.0168096
894.064	0.0165588
894.142	0.0167462
894.221	0.0167786
894.299	0.0167078
894.377	0.0167735
894.455	0.0166122
894.533	0.0165942
894.611	0.0166888
894.689	0.0166660
894.767	0.0167620
894.846	0.0166512
894.924	0.0166022
895.002	0.0167738
895.080	0.0166966
895.158	0.0166705
895.236	0.0165653
895.314	0.0163589
895.392	0.0164552
895.471	0.0164984
895.549	0.0165267
895.627	0.0165359
895.705	0.0164479
895.783	0.0164312
895.861	0.0163772
895.939	0.0164101
896.017	0.0164341
896.096	0.0164098
896.174	0.0164420
896.252	0.0163850
896.330	0.0163753
896.408	0.0163686
896.486	0.0163969
896.564	0.0164604
896.642	0.0163506
896.721	0.0163604
896.799	0.0164310
896.877	0.0165132
896.955	0.0164661
897.033	0.0163139
897.111	0.0164332
897.189	0.0164749
897.267	0.0164249
897.346	0.0164188
897.424	0.0163637
897.502	0.0164244
897.580	0.0164976
897.658	0.0163805
897.736	0.0163562
897.814	0.0163860
897.892	0.0163878
897.971	0.0163403
898.049	0.0163489
898.127	0.0163213
898.205	0.0164011
898.283	0.0164683
898.361	0.0163432
898.439	0.0163748
898.517	0.0163393
898.596	0.0162254
898.674	0.0163201
898.752	0.0163770
898.830	0.0164919
898.908	0.0165190
898.986	0.0162738
899.064	0.0164038
899.142	0.0162107
899.221	0.0163732
899.299	0.0165229
899.377	0.0163842
899.455	0.0161871
899.533	0.0164062
899.611	0.0163923
899.689	0.0163675
899.767	0.0163959
899.846	0.0163785
899.924	0.0163846
900.002	0.0163725
900.080	0.0163308
900.158	0.0162827
900.236	0.0162879
900.314	0.0163957
900.392	0.0163113
900.471	0.0163733
900.549	0.0162730
900.627	0.0164083
900.705	0.0164292
900.783	0.0163558
900.861	0.0163356
900.939	0.0162775
901.017	0.0163189
901.096	0.0164893
901.174	0.0163277
901.252	0.0164025
901.330	0.0163992
901.408	0.0164918
901.486	0.0164974
901.564	0.0165714
901.642	0.0164199
901.721	0.0165137
901.799	0.0165829
901.877	0.0164704
901.955	0.0164288
902.033	0.0166164
902.111	0.0166775
902.189	0.0165681
902.267	0.0165419
902.346	0.0164706
902.424	0.0165562
902.502	0.0164775
902.580	0.0164889
902.658	0.0166548
902.736	0.0166317
902.814	0.0165295
902.892	0.0163669
902.971	0.0164786
903.049	0.0164430
903.127	0.0163785
903.205	0.0162659
903.283	0.0164209
903.361	0.0165079
903.439	0.0164390
903.517	0.0164617
903.596	0.0163612
903.674	0.0164402
903.752	0.0163581
903.830	0.0163548
903.908	0.0164035
903.986	0.0162613
904.064	0.0163635
904.142	0.0164880
904.221	0.0165736
904.299	0.0163940
904.377	0.0164919
904.455	0.0164114
904.533	0.0164211
904.611	0.0165429
904.689	0.0164047
904.767	0.0163818
904.846	0.0165491
904.924	0.0163718
905.002	0.0163337
905.080	0.0164568
905.158	0.0165077
905.236	0.0163322
905.314	0.0163554
905.392	0.0164092
905.471	0.0163258
905.549	0.0164396
905.627	0.0163583
905.705	0.0161604
905.783	0.0161826
905.861	0.0162030
905.939	0.0161473
906.017	0.0161469
906.096	0.0161426
906.174	0.0162248
906.252	0.0162347
906.330	0.0160708
906.408	0.0162017
906.486	0.0161648
906.564	0.0160702
906.642	0.0162045
906.721	0.0161903
906.799	0.0161585
906.877	0.0163183
906.955	0.0162157
907.033	0.0161050
907.111	0.0162350
907.189	0.0162946
907.267	0.0162932
907.346	0.0162598
907.424	0.0161671
907.502	0.0162884
907.580	0.0163421
907.658	0.0163060
907.736	0.0162263
907.814	0.0162990
907.892	0.0162695
907.971	0.0162331
908.049	0.0163292
908.127	0.0161527
908.205	0.0163290
908.283	0.0163184
908.361	0.0162885
908.439	0.0163413
908.517	0.0162375
908.596	0.0162575
908.674	0.0162135
908.752	0.0164167
908.830	0.0162160
908.908	0.0161405
908.986	0.0164671
909.064	0.0163319
909.142	0.0162228
909.221	0.0163751
909.299	0.0164262
909.377	0.0162955
909.455	0.0162010
909.533	0.0163617
909.611	0.0164162
909.689	0.0164250
909.767	0.0163501
909.846	0.0163280
909.924	0.0165524
910.002	0.0164272
910.080	0.0163139
910.158	0.0164998
910.236	0.0164847
910.314	0.0162878
910.392	0.0164877
910.471	0.0164680
910.549	0.0164491
910.627	0.0165514
910.705	0.0166199
910.783	0.0164498
910.861	0.0163882
910.939	0.0164484
911.017	0.0162827
911.096	0.0164436
911.174	0.0164610
911.252	0.0165615
911.330	0.0165230
911.408	0.0164202
911.486	0.0163702
911.564	0.0164621
911.642	0.0165603
911.721	0.0165372
911.799	0.0164041
911.877	0.0164459
911.955	0.0165033
912.033	0.0165034
912.111	0.0165791
912.189	0.0163712
912.267	0.0164403
912.346	0.0164320
912.424	0.0164402
912.502	0.0165651
912.580	0.0164610
912.658	0.0165611
912.736	0.0163747
912.814	0.0164915
912.892	0.0165113
912.971	0.0164024
913.049	0.0163036
913.127	0.0164389
913.205	0.0164265
913.283	0.0166081
913.361	0.0166113
913.439	0.0164346
913.517	0.0164351
913.596	0.0165027
913.674	0.0165331
913.752	0.0165596
913.830	0.0164845
913.908	0.0165327
913.986	0.0165843
914.064	0.0166514
914.142	0.0165318
914.221	0.0164592
914.299	0.0165681
914.377	0.0166196
914.455	0.0165236
914.533	0.0165820
914.611	0.0164904
914.689	0.0164766
914.767	0.0164954
914.846	0.0164746
914.924	0.0165482
915.002	0.0165586
915.080	0.0165810
915.158	0.0164651
915.236	0.0164755
915.314	0.0165383
915.392	0.0164021
915.471	0.0164500
915.549	0.0164437
915.627	0.0164856
915.705	0.0165028
915.783	0.0165270
915.861	0.0165585
915.939	0.0164527
916.017	0.0165578
916.096	0.0165286
916.174	0.0165480
916.252	0.0164411
916.330	0.0165930
916.408	0.0165617
916.486	0.0165725
916.564	0.0165625
916.642	0.0165157
916.721	0.0166805
916.799	0.0165632
916.877	0.0166139
916.955	0.0166158
917.033	0.0166309
917.111	0.0166115
917.189	0.0164498
917.267	0.0165312
917.346	0.0166588
917.424	0.0166509
917.502	0.0165994
917.580	0.0167591
917.658	0.0165613
917.736	0.0165994
917.814	0.0166422
917.892	0.0167215
917.971	0.0165474
918.049	0.0165649
918.127	0.0166556
918.205	0.0166265
918.283	0.0166746
918.361	0.0165612
918.439	0.0165719
918.517	0.0165328
918.596	0.0165805
918.674	0.0164787
918.752	0.0166216
918.830	0.0165422
918.908	0.0166646
918.986	0.0166125
919.064	0.0165736
919.142	0.0166033
919.221	0.0165540
919.299	0.0166282
919.377	0.0165887
919.455	0.0166017
919.533	0.0166281
919.611	0.0165999
919.689	0.0164862
919.767	0.0166406
919.846	0.0167259
919.924	0.0164750
