06/29/2022	21:47:10	Ver.	4.1	UNKNOWN
Optical Delay	600.001752	Delta X		0.078125	Sweeps	1	Scan Rate	0/0
Coordinates	Axis 1	NaN	Axis 2	NaN	Axis 3	NaN	Axis 4	NaN	Axis 5	NaN	Axis 6	0.000000
TX Power	0.000000	RX Power	0.000000

600.002	0.0158591
600.080	0.0156940
600.158	0.0157056
600.236	0.0157680
600.314	0.0157164
600.392	0.0157862
600.471	0.0158384
600.549	0.0160023
600.627	0.0161738
600.705	0.0162758
600.783	0.0163905
600.861	0.0164485
600.939	0.0165855
601.017	0.0164902
601.096	0.0164478
601.174	0.0164684
601.252	0.0163497
601.330	0.0165620
601.408	0.0165888
601.486	0.0165513
601.564	0.0167370
601.642	0.0166688
601.721	0.0168271
601.799	0.0167737
601.877	0.0168722
601.955	0.0167987
602.033	0.0168436
602.111	0.0171203
602.189	0.0172859
602.267	0.0173615
602.346	0.0175803
602.424	0.0176853
602.502	0.0180318
602.580	0.0180165
602.658	0.0180678
602.736	0.0180332
602.814	0.0177144
602.892	0.0170808
602.971	0.0162840
603.049	0.0151335
603.127	0.0139320
603.205	0.0129206
603.283	0.0121323
603.361	0.0116147
603.439	0.0113647
603.517	0.0115121
603.596	0.0121406
603.674	0.0128148
603.752	0.0135804
603.830	0.0142852
603.908	0.0148628
603.986	0.0156713
604.064	0.0161330
604.142	0.0165218
604.221	0.0166370
604.299	0.0167813
604.377	0.0168509
604.455	0.0167213
604.533	0.0163354
604.611	0.0160719
604.689	0.0158315
604.767	0.0157487
604.846	0.0155880
604.924	0.0156331
605.002	0.0153334
605.080	0.0151603
605.158	0.0151598
605.236	0.0148781
605.314	0.0147439
605.392	0.0146384
605.471	0.0145315
605.549	0.0144689
605.627	0.0147237
605.705	0.0148177
605.783	0.0150242
605.861	0.0154144
605.939	0.0156507
606.017	0.0157466
606.096	0.0159487
606.174	0.0159538
606.252	0.0160016
606.330	0.0160188
606.408	0.0160212
606.486	0.0163129
606.564	0.0163660
606.642	0.0165822
606.721	0.0167747
606.799	0.0170277
606.877	0.0171942
606.955	0.0172050
607.033	0.0172529
607.111	0.0172946
607.189	0.0172243
607.267	0.0173236
607.346	0.0175098
607.424	0.0174216
607.502	0.0175888
607.580	0.0176157
607.658	0.0176654
607.736	0.0176540
607.814	0.0176627
607.892	0.0175430
607.971	0.0176071
608.049	0.0175085
608.127	0.0174814
608.205	0.0173306
608.283	0.0173663
608.361	0.0174105
608.439	0.0172958
608.517	0.0173529
608.596	0.0172157
608.674	0.0172967
608.752	0.0171436
608.830	0.0171459
608.908	0.0168723
608.986	0.0167202
609.064	0.0166595
609.142	0.0163792
609.221	0.0164082
609.299	0.0163584
609.377	0.0163103
609.455	0.0163509
609.533	0.0163404
609.611	0.0162360
609.689	0.0161902
609.767	0.0162119
609.846	0.0163470
609.924	0.0163293
610.002	0.0162190
610.080	0.0160953
610.158	0.0162408
610.236	0.0161087
610.314	0.0160102
610.392	0.0159336
610.471	0.0158757
610.549	0.0158381
610.627	0.0156999
610.705	0.0156152
610.783	0.0154362
610.861	0.0153846
610.939	0.0152341
611.017	0.0150819
611.096	0.0151263
611.174	0.0151878
611.252	0.0149316
611.330	0.0150024
611.408	0.0148895
611.486	0.0149828
611.564	0.0150106
611.642	0.0149438
611.721	0.0148933
611.799	0.0149856
611.877	0.0150121
611.955	0.0149362
612.033	0.0150215
612.111	0.0150062
612.189	0.0151528
612.267	0.0151650
612.346	0.0150618
612.424	0.0150866
612.502	0.0150262
612.580	0.0149229
612.658	0.0147501
612.736	0.0148199
612.814	0.0147017
612.892	0.0146925
612.971	0.0146455
613.049	0.0145438
613.127	0.0144366
613.205	0.0145528
613.283	0.0146383
613.361	0.0148220
613.439	0.0148711
613.517	0.0148911
613.596	0.0152757
613.674	0.0151929
613.752	0.0154176
613.830	0.0155187
613.908	0.0157049
613.986	0.0160260
614.064	0.0161389
614.142	0.0162943
614.221	0.0163447
614.299	0.0162708
614.377	0.0162049
614.455	0.0157560
614.533	0.0153454
614.611	0.0147008
614.689	0.0143441
614.767	0.0140043
614.846	0.0138253
614.924	0.0137337
615.002	0.0138362
615.080	0.0142517
615.158	0.0146005
615.236	0.0149693
615.314	0.0152999
615.392	0.0155648
615.471	0.0158650
615.549	0.0160843
615.627	0.0160925
615.705	0.0163107
615.783	0.0164791
615.861	0.0162030
615.939	0.0162402
616.017	0.0161542
616.096	0.0162340
616.174	0.0161624
616.252	0.0161401
616.330	0.0162070
616.408	0.0160140
616.486	0.0160668
616.564	0.0159890
616.642	0.0158900
616.721	0.0158784
616.799	0.0159270
616.877	0.0157323
616.955	0.0157724
617.033	0.0158521
617.111	0.0158681
617.189	0.0158173
617.267	0.0161151
617.346	0.0159503
617.424	0.0158553
617.502	0.0160986
617.580	0.0161835
617.658	0.0161558
617.736	0.0162130
617.814	0.0162028
617.892	0.0163769
617.971	0.0162622
618.049	0.0164660
618.127	0.0164757
618.205	0.0164772
618.283	0.0164852
618.361	0.0164822
618.439	0.0165818
618.517	0.0165038
618.596	0.0164588
618.674	0.0166301
618.752	0.0167329
618.830	0.0167222
618.908	0.0167486
618.986	0.0169093
619.064	0.0168901
619.142	0.0168797
619.221	0.0168320
619.299	0.0167672
619.377	0.0167918
619.455	0.0167078
619.533	0.0168491
619.611	0.0168111
619.689	0.0167020
619.767	0.0166724
619.846	0.0164223
619.924	0.0163246
620.002	0.0162576
620.080	0.0161716
620.158	0.0161596
620.236	0.0161388
620.314	0.0161778
620.392	0.0162788
620.471	0.0162135
620.549	0.0161932
620.627	0.0162099
620.705	0.0162209
620.783	0.0163921
620.861	0.0163065
620.939	0.0162133
621.017	0.0163266
621.096	0.0162464
621.174	0.0161785
621.252	0.0163246
621.330	0.0161597
621.408	0.0161005
621.486	0.0161260
621.564	0.0160304
621.642	0.0159835
621.721	0.0158833
621.799	0.0159479
621.877	0.0158602
621.955	0.0159279
622.033	0.0159334
622.111	0.0159800
622.189	0.0159739
622.267	0.0158389
622.346	0.0159024
622.424	0.0159399
622.502	0.0160053
622.580	0.0160898
622.658	0.0160591
622.736	0.0161438
622.814	0.0162389
622.892	0.0163221
622.971	0.0162025
623.049	0.0163475
623.127	0.0162092
623.205	0.0161589
623.283	0.0163087
623.361	0.0159837
623.439	0.0162805
623.517	0.0162217
623.596	0.0160970
623.674	0.0161035
623.752	0.0162001
623.830	0.0161086
623.908	0.0161796
623.986	0.0161950
624.064	0.0163088
624.142	0.0163924
624.221	0.0163882
624.299	0.0162782
624.377	0.0160892
624.455	0.0158395
624.533	0.0155830
624.611	0.0154945
624.689	0.0152193
624.767	0.0151085
624.846	0.0150032
624.924	0.0147941
625.002	0.0148362
625.080	0.0151164
625.158	0.0149858
625.236	0.0151701
625.314	0.0153803
625.392	0.0155675
625.471	0.0154345
625.549	0.0155313
625.627	0.0157041
625.705	0.0156599
625.783	0.0157675
625.861	0.0158505
625.939	0.0160265
626.017	0.0159466
626.096	0.0159235
626.174	0.0159259
626.252	0.0157110
626.330	0.0156755
626.408	0.0157608
626.486	0.0155187
626.564	0.0156426
626.642	0.0154703
626.721	0.0155232
626.799	0.0154492
626.877	0.0154786
626.955	0.0153698
627.033	0.0153389
627.111	0.0154028
627.189	0.0153798
627.267	0.0154290
627.346	0.0154525
627.424	0.0154240
627.502	0.0155531
627.580	0.0155266
627.658	0.0156492
627.736	0.0155898
627.814	0.0154897
627.892	0.0156377
627.971	0.0156121
628.049	0.0157563
628.127	0.0158778
628.205	0.0159912
628.283	0.0160999
628.361	0.0164080
628.439	0.0161845
628.517	0.0164646
628.596	0.0164479
628.674	0.0165031
628.752	0.0165175
628.830	0.0166299
628.908	0.0167884
628.986	0.0168105
629.064	0.0167006
629.142	0.0167750
629.221	0.0168629
629.299	0.0169086
629.377	0.0169730
629.455	0.0170268
629.533	0.0169158
629.611	0.0168410
629.689	0.0170238
629.767	0.0170786
629.846	0.0170712
629.924	0.0170060
630.002	0.0169612
630.080	0.0168742
630.158	0.0169490
630.236	0.0168176
630.314	0.0166140
630.392	0.0165958
630.471	0.0165446
630.549	0.0165498
630.627	0.0165154
630.705	0.0166483
630.783	0.0166185
630.861	0.0165256
630.939	0.0165625
631.017	0.0166535
631.096	0.0167052
631.174	0.0166699
631.252	0.0167904
631.330	0.0168002
631.408	0.0166660
631.486	0.0168044
631.564	0.0166026
631.642	0.0168774
631.721	0.0169297
631.799	0.0167667
631.877	0.0167505
631.955	0.0166152
632.033	0.0166009
632.111	0.0164278
632.189	0.0165381
632.267	0.0164466
632.346	0.0164387
632.424	0.0161886
632.502	0.0161619
632.580	0.0160539
632.658	0.0160938
632.736	0.0161938
632.814	0.0160374
632.892	0.0158762
632.971	0.0157478
633.049	0.0158431
633.127	0.0158169
633.205	0.0156797
633.283	0.0157404
633.361	0.0157887
633.439	0.0157479
633.517	0.0155697
633.596	0.0154705
633.674	0.0155397
633.752	0.0153244
633.830	0.0151250
633.908	0.0149306
633.986	0.0149945
634.064	0.0146643
634.142	0.0148802
634.221	0.0148019
634.299	0.0148508
634.377	0.0148249
634.455	0.0150172
634.533	0.0149971
634.611	0.0152305
634.689	0.0151723
634.767	0.0151634
634.846	0.0151688
634.924	0.0152788
635.002	0.0151757
635.080	0.0151738
635.158	0.0152453
635.236	0.0152900
635.314	0.0151907
635.392	0.0152480
635.471	0.0153407
635.549	0.0152274
635.627	0.0153546
635.705	0.0155510
635.783	0.0155627
635.861	0.0154545
635.939	0.0154765
636.017	0.0156177
636.096	0.0156030
636.174	0.0156980
636.252	0.0158615
636.330	0.0157357
636.408	0.0156184
636.486	0.0157220
636.564	0.0158819
636.642	0.0158788
636.721	0.0158752
636.799	0.0158099
636.877	0.0157540
636.955	0.0156679
637.033	0.0157593
637.111	0.0157584
637.189	0.0159457
637.267	0.0157972
637.346	0.0159641
637.424	0.0159380
637.502	0.0159843
637.580	0.0161121
637.658	0.0159580
637.736	0.0159710
637.814	0.0159854
637.892	0.0159782
637.971	0.0159882
638.049	0.0159673
638.127	0.0160081
638.205	0.0159382
638.283	0.0158712
638.361	0.0159594
638.439	0.0158463
638.517	0.0158211
638.596	0.0158422
638.674	0.0158377
638.752	0.0158327
638.830	0.0159074
638.908	0.0157961
638.986	0.0159747
639.064	0.0159309
639.142	0.0157979
639.221	0.0158765
639.299	0.0159981
639.377	0.0158104
639.455	0.0158099
639.533	0.0158881
639.611	0.0158456
639.689	0.0157141
639.767	0.0157208
639.846	0.0157970
639.924	0.0157319
640.002	0.0156762
640.080	0.0158144
640.158	0.0159109
640.236	0.0157465
640.314	0.0157697
640.392	0.0158936
640.471	0.0159117
640.549	0.0159557
640.627	0.0160239
640.705	0.0162077
640.783	0.0161451
640.861	0.0160266
640.939	0.0160099
641.017	0.0162056
641.096	0.0162484
641.174	0.0160513
641.252	0.0159541
641.330	0.0159956
641.408	0.0160484
641.486	0.0159861
641.564	0.0158894
641.642	0.0158652
641.721	0.0159956
641.799	0.0160014
641.877	0.0160091
641.955	0.0160674
642.033	0.0161083
642.111	0.0161155
642.189	0.0161568
642.267	0.0162354
642.346	0.0160955
642.424	0.0159612
642.502	0.0159526
642.580	0.0159532
642.658	0.0158121
642.736	0.0155833
642.814	0.0155760
642.892	0.0156094
642.971	0.0154299
643.049	0.0155768
643.127	0.0155894
643.205	0.0155202
643.283	0.0156165
643.361	0.0156635
643.439	0.0157148
643.517	0.0156754
643.596	0.0155546
643.674	0.0155776
643.752	0.0155359
643.830	0.0156480
643.908	0.0155904
643.986	0.0155276
644.064	0.0156863
644.142	0.0156403
644.221	0.0156570
644.299	0.0156422
644.377	0.0157101
644.455	0.0156794
644.533	0.0158490
644.611	0.0157922
644.689	0.0157043
644.767	0.0156623
644.846	0.0155827
644.924	0.0156119
645.002	0.0157384
645.080	0.0157283
645.158	0.0156516
645.236	0.0156964
645.314	0.0157479
645.392	0.0159006
645.471	0.0157304
645.549	0.0157589
645.627	0.0158537
645.705	0.0158912
645.783	0.0159602
645.861	0.0158166
645.939	0.0158974
646.017	0.0159949
646.096	0.0159378
646.174	0.0159412
646.252	0.0160294
646.330	0.0159675
646.408	0.0160041
646.486	0.0159285
646.564	0.0161006
646.642	0.0159315
646.721	0.0161754
646.799	0.0161237
646.877	0.0161169
646.955	0.0161794
647.033	0.0162431
647.111	0.0163436
647.189	0.0161974
647.267	0.0162758
647.346	0.0164193
647.424	0.0162786
647.502	0.0161387
647.580	0.0160857
647.658	0.0160496
647.736	0.0160054
647.814	0.0160351
647.892	0.0160675
647.971	0.0160722
648.049	0.0161311
648.127	0.0161048
648.205	0.0160514
648.283	0.0159415
648.361	0.0161183
648.439	0.0161551
648.517	0.0159756
648.596	0.0160090
648.674	0.0160937
648.752	0.0159572
648.830	0.0161784
648.908	0.0160584
648.986	0.0160551
649.064	0.0159350
649.142	0.0158792
649.221	0.0160090
649.299	0.0160605
649.377	0.0159685
649.455	0.0161600
649.533	0.0160386
649.611	0.0161099
649.689	0.0161012
649.767	0.0162700
649.846	0.0163138
649.924	0.0162124
650.002	0.0163203
650.080	0.0160442
650.158	0.0162137
650.236	0.0162206
650.314	0.0161491
650.392	0.0162940
650.471	0.0162781
650.549	0.0162595
650.627	0.0163277
650.705	0.0163470
650.783	0.0162642
650.861	0.0163129
650.939	0.0162853
651.017	0.0162652
651.096	0.0161945
651.174	0.0162732
651.252	0.0160837
651.330	0.0161589
651.408	0.0161042
651.486	0.0161519
651.564	0.0159617
651.642	0.0161464
651.721	0.0161097
651.799	0.0160651
651.877	0.0161044
651.955	0.0163285
652.033	0.0163558
652.111	0.0164023
652.189	0.0165627
652.267	0.0165528
652.346	0.0163512
652.424	0.0163521
652.502	0.0165506
652.580	0.0163608
652.658	0.0163211
652.736	0.0161970
652.814	0.0160244
652.892	0.0160026
652.971	0.0161036
653.049	0.0160014
653.127	0.0160844
653.205	0.0160477
653.283	0.0161383
653.361	0.0161895
653.439	0.0159974
653.517	0.0161061
653.596	0.0160082
653.674	0.0161732
653.752	0.0162367
653.830	0.0160659
653.908	0.0161362
653.986	0.0161414
654.064	0.0161153
654.142	0.0160325
654.221	0.0160558
654.299	0.0161301
654.377	0.0160678
654.455	0.0161658
654.533	0.0161401
654.611	0.0161169
654.689	0.0161118
654.767	0.0161697
654.846	0.0163622
654.924	0.0162807
655.002	0.0164318
655.080	0.0165192
655.158	0.0164137
655.236	0.0164081
655.314	0.0165149
655.392	0.0165651
655.471	0.0164839
655.549	0.0165275
655.627	0.0165494
655.705	0.0164403
655.783	0.0163435
655.861	0.0163642
655.939	0.0163652
656.017	0.0163666
656.096	0.0164742
656.174	0.0163525
656.252	0.0162479
656.330	0.0163330
656.408	0.0163362
656.486	0.0161759
656.564	0.0163564
656.642	0.0162908
656.721	0.0162405
656.799	0.0163066
656.877	0.0163623
656.955	0.0163993
657.033	0.0162606
657.111	0.0163692
657.189	0.0162943
657.267	0.0162879
657.346	0.0163420
657.424	0.0162786
657.502	0.0163857
657.580	0.0164099
657.658	0.0162606
657.736	0.0163105
657.814	0.0164275
657.892	0.0163902
657.971	0.0163083
658.049	0.0163023
658.127	0.0163730
658.205	0.0161898
658.283	0.0162271
658.361	0.0161781
658.439	0.0160662
658.517	0.0161295
658.596	0.0161703
658.674	0.0160696
658.752	0.0160500
658.830	0.0160206
658.908	0.0160740
658.986	0.0158996
659.064	0.0157765
659.142	0.0158112
659.221	0.0157808
659.299	0.0154751
659.377	0.0155240
659.455	0.0154213
659.533	0.0153862
659.611	0.0152776
659.689	0.0153033
659.767	0.0152334
659.846	0.0151661
659.924	0.0150944
660.002	0.0151714
660.080	0.0151677
660.158	0.0151617
660.236	0.0152516
660.314	0.0154654
660.392	0.0153391
660.471	0.0153653
660.549	0.0153381
660.627	0.0154466
660.705	0.0154916
660.783	0.0152538
660.861	0.0154939
660.939	0.0152675
661.017	0.0152184
661.096	0.0151337
661.174	0.0151685
661.252	0.0150935
661.330	0.0150681
661.408	0.0148609
661.486	0.0150611
661.564	0.0151259
661.642	0.0150770
661.721	0.0150668
661.799	0.0152420
661.877	0.0153036
661.955	0.0154504
662.033	0.0154880
662.111	0.0154171
662.189	0.0155020
662.267	0.0156862
662.346	0.0157067
662.424	0.0156194
662.502	0.0156579
662.580	0.0155885
662.658	0.0156387
662.736	0.0157809
662.814	0.0157916
662.892	0.0156506
662.971	0.0157654
663.049	0.0158519
663.127	0.0160291
663.205	0.0160705
663.283	0.0161508
663.361	0.0160999
663.439	0.0161140
663.517	0.0161754
663.596	0.0162387
663.674	0.0163811
663.752	0.0163742
663.830	0.0164156
663.908	0.0165938
663.986	0.0164764
664.064	0.0166530
664.142	0.0167809
664.221	0.0168812
664.299	0.0169077
664.377	0.0168974
664.455	0.0171031
664.533	0.0168653
664.611	0.0167487
664.689	0.0168492
664.767	0.0168667
664.846	0.0167133
664.924	0.0169550
665.002	0.0167048
665.080	0.0166099
665.158	0.0165347
665.236	0.0166647
665.314	0.0166788
665.392	0.0166740
665.471	0.0165954
665.549	0.0165610
665.627	0.0164971
665.705	0.0166590
665.783	0.0165922
665.861	0.0166258
665.939	0.0165274
666.017	0.0165828
666.096	0.0164706
666.174	0.0165080
666.252	0.0163895
666.330	0.0163412
666.408	0.0162022
666.486	0.0162302
666.564	0.0162443
666.642	0.0164082
666.721	0.0161395
666.799	0.0160125
666.877	0.0161771
666.955	0.0160643
667.033	0.0161014
667.111	0.0161501
667.189	0.0161137
667.267	0.0159925
667.346	0.0158742
667.424	0.0160519
667.502	0.0161081
667.580	0.0160953
667.658	0.0161795
667.736	0.0161285
667.814	0.0160846
667.892	0.0159676
667.971	0.0160901
668.049	0.0160493
668.127	0.0159922
668.205	0.0160963
668.283	0.0161429
668.361	0.0160770
668.439	0.0161476
668.517	0.0161893
668.596	0.0161801
668.674	0.0163361
668.752	0.0162173
668.830	0.0161126
668.908	0.0163210
668.986	0.0163335
669.064	0.0163261
669.142	0.0161864
669.221	0.0160073
669.299	0.0160753
669.377	0.0162206
669.455	0.0161306
669.533	0.0160258
669.611	0.0160529
669.689	0.0159299
669.767	0.0159449
669.846	0.0159491
669.924	0.0159884
670.002	0.0159045
670.080	0.0158391
670.158	0.0158118
670.236	0.0157256
670.314	0.0159127
670.392	0.0157007
670.471	0.0156149
670.549	0.0156878
670.627	0.0155652
670.705	0.0156591
670.783	0.0156213
670.861	0.0154620
670.939	0.0156622
671.017	0.0156084
671.096	0.0155531
671.174	0.0156806
671.252	0.0156548
671.330	0.0156017
671.408	0.0157540
671.486	0.0155382
671.564	0.0155439
671.642	0.0157413
671.721	0.0156200
671.799	0.0156470
671.877	0.0157117
671.955	0.0156966
672.033	0.0156423
672.111	0.0156076
672.189	0.0154066
672.267	0.0155302
672.346	0.0157179
672.424	0.0156445
672.502	0.0156425
672.580	0.0156208
672.658	0.0156913
672.736	0.0156026
672.814	0.0156557
672.892	0.0156202
672.971	0.0156515
673.049	0.0157514
673.127	0.0156819
673.205	0.0157529
673.283	0.0157249
673.361	0.0157137
673.439	0.0158126
673.517	0.0156751
673.596	0.0156966
673.674	0.0157899
673.752	0.0158252
673.830	0.0160181
673.908	0.0158667
673.986	0.0159095
674.064	0.0158337
674.142	0.0160135
674.221	0.0159035
674.299	0.0159216
674.377	0.0159471
674.455	0.0159431
674.533	0.0159906
674.611	0.0159861
674.689	0.0159465
674.767	0.0159482
674.846	0.0159845
674.924	0.0159469
675.002	0.0159758
675.080	0.0161407
675.158	0.0160439
675.236	0.0160217
675.314	0.0160444
675.392	0.0160506
675.471	0.0161132
675.549	0.0161794
675.627	0.0161496
675.705	0.0162766
675.783	0.0162587
675.861	0.0163189
675.939	0.0162910
676.017	0.0162817
676.096	0.0163429
676.174	0.0162105
676.252	0.0162492
676.330	0.0162119
676.408	0.0162426
676.486	0.0163047
676.564	0.0162373
676.642	0.0163274
676.721	0.0160409
676.799	0.0162201
676.877	0.0162720
676.955	0.0162926
677.033	0.0161335
677.111	0.0160932
677.189	0.0161107
677.267	0.0160392
677.346	0.0160387
677.424	0.0160389
677.502	0.0161351
677.580	0.0158861
677.658	0.0158718
677.736	0.0159579
677.814	0.0160458
677.892	0.0158359
677.971	0.0157262
678.049	0.0159688
678.127	0.0157751
678.205	0.0159171
678.283	0.0158663
678.361	0.0157256
678.439	0.0156875
678.517	0.0157254
678.596	0.0159380
678.674	0.0159798
678.752	0.0156741
678.830	0.0157200
678.908	0.0158395
678.986	0.0157526
679.064	0.0158566
679.142	0.0157082
679.221	0.0157674
679.299	0.0157968
679.377	0.0157396
679.455	0.0157941
679.533	0.0157931
679.611	0.0157687
679.689	0.0155922
679.767	0.0158213
679.846	0.0158281
679.924	0.0157927
680.002	0.0158434
680.080	0.0158535
680.158	0.0161575
680.236	0.0160010
680.314	0.0159907
680.392	0.0160328
680.471	0.0159827
680.549	0.0160237
680.627	0.0162089
680.705	0.0162009
680.783	0.0161385
680.861	0.0161307
680.939	0.0162968
681.017	0.0161993
681.096	0.0162650
681.174	0.0163070
681.252	0.0163526
681.330	0.0164551
681.408	0.0162601
681.486	0.0162727
681.564	0.0162030
681.642	0.0161499
681.721	0.0161717
681.799	0.0162107
681.877	0.0160867
681.955	0.0161257
682.033	0.0160924
682.111	0.0160475
682.189	0.0161969
682.267	0.0160202
682.346	0.0160622
682.424	0.0160605
682.502	0.0161675
682.580	0.0161185
682.658	0.0160249
682.736	0.0160076
682.814	0.0161600
682.892	0.0161330
682.971	0.0161501
683.049	0.0160720
683.127	0.0161127
683.205	0.0159352
683.283	0.0159969
683.361	0.0160537
683.439	0.0161063
683.517	0.0160016
683.596	0.0159602
683.674	0.0158691
683.752	0.0158964
683.830	0.0158647
683.908	0.0155886
683.986	0.0156156
684.064	0.0156065
684.142	0.0156535
684.221	0.0156461
684.299	0.0153549
684.377	0.0153438
684.455	0.0153972
684.533	0.0152316
684.611	0.0151586
684.689	0.0151398
684.767	0.0150868
684.846	0.0150534
684.924	0.0153967
685.002	0.0152161
685.080	0.0151955
685.158	0.0152764
685.236	0.0153675
685.314	0.0154421
685.392	0.0153487
685.471	0.0153725
685.549	0.0154152
685.627	0.0153555
685.705	0.0153362
685.783	0.0152958
685.861	0.0151734
685.939	0.0151163
686.017	0.0151721
686.096	0.0151884
686.174	0.0150792
686.252	0.0151817
686.330	0.0152110
686.408	0.0153027
686.486	0.0153486
686.564	0.0154604
686.642	0.0155701
686.721	0.0157178
686.799	0.0158120
686.877	0.0158746
686.955	0.0159601
687.033	0.0160986
687.111	0.0161693
687.189	0.0161546
687.267	0.0162026
687.346	0.0162397
687.424	0.0163100
687.502	0.0163132
687.580	0.0161858
687.658	0.0163031
687.736	0.0162639
687.814	0.0162531
687.892	0.0161366
687.971	0.0161731
688.049	0.0160371
688.127	0.0159455
688.205	0.0161358
688.283	0.0161411
688.361	0.0160168
688.439	0.0159839
688.517	0.0160468
688.596	0.0160505
688.674	0.0162365
688.752	0.0161375
688.830	0.0160973
688.908	0.0162758
688.986	0.0162850
689.064	0.0162949
689.142	0.0164134
689.221	0.0164149
689.299	0.0164558
689.377	0.0164492
689.455	0.0165409
689.533	0.0166074
689.611	0.0166618
689.689	0.0164976
689.767	0.0164796
689.846	0.0166241
689.924	0.0165259
690.002	0.0166541
690.080	0.0166512
690.158	0.0165463
690.236	0.0164683
690.314	0.0164846
690.392	0.0165830
690.471	0.0165859
690.549	0.0166276
690.627	0.0165215
690.705	0.0166293
690.783	0.0164426
690.861	0.0165154
690.939	0.0167085
691.017	0.0165816
691.096	0.0166130
691.174	0.0166609
691.252	0.0165121
691.330	0.0166676
691.408	0.0166484
691.486	0.0165844
691.564	0.0165782
691.642	0.0166201
691.721	0.0165112
691.799	0.0164477
691.877	0.0164916
691.955	0.0164530
692.033	0.0164834
692.111	0.0165274
692.189	0.0163117
692.267	0.0164193
692.346	0.0164621
692.424	0.0163536
692.502	0.0163927
692.580	0.0164669
692.658	0.0163940
692.736	0.0163844
692.814	0.0162987
692.892	0.0163564
692.971	0.0164339
693.049	0.0163833
693.127	0.0163040
693.205	0.0162770
693.283	0.0161613
693.361	0.0161703
693.439	0.0161951
693.517	0.0160313
693.596	0.0160548
693.674	0.0160124
693.752	0.0160361
693.830	0.0161344
693.908	0.0159942
693.986	0.0160180
694.064	0.0160408
694.142	0.0159533
694.221	0.0160297
694.299	0.0159226
694.377	0.0158828
694.455	0.0158392
694.533	0.0158517
694.611	0.0158218
694.689	0.0157101
694.767	0.0157450
694.846	0.0157782
694.924	0.0156912
695.002	0.0156666
695.080	0.0157099
695.158	0.0155399
695.236	0.0154308
695.314	0.0153675
695.392	0.0153004
695.471	0.0152606
695.549	0.0152287
695.627	0.0152930
695.705	0.0150887
695.783	0.0151083
695.861	0.0151607
695.939	0.0151611
696.017	0.0150206
696.096	0.0149801
696.174	0.0149648
696.252	0.0149232
696.330	0.0151707
696.408	0.0149873
696.486	0.0150900
696.564	0.0152773
696.642	0.0151461
696.721	0.0151635
696.799	0.0153078
696.877	0.0153618
696.955	0.0153297
697.033	0.0154285
697.111	0.0153812
697.189	0.0154223
697.267	0.0154679
697.346	0.0156949
697.424	0.0155962
697.502	0.0155657
697.580	0.0155772
697.658	0.0154929
697.736	0.0155194
697.814	0.0156827
697.892	0.0158750
697.971	0.0157318
698.049	0.0156810
698.127	0.0156971
698.205	0.0157352
698.283	0.0157806
698.361	0.0158205
698.439	0.0159568
698.517	0.0158830
698.596	0.0158065
698.674	0.0159450
698.752	0.0160419
698.830	0.0157980
698.908	0.0157304
698.986	0.0157442
699.064	0.0157604
699.142	0.0157922
699.221	0.0158232
699.299	0.0157770
699.377	0.0157997
699.455	0.0156876
699.533	0.0157894
699.611	0.0156864
699.689	0.0156365
699.767	0.0159663
699.846	0.0157870
699.924	0.0158124
700.002	0.0157906
700.080	0.0157027
700.158	0.0157432
700.236	0.0157522
700.314	0.0157539
700.392	0.0158174
700.471	0.0158137
700.549	0.0156564
700.627	0.0157913
700.705	0.0158615
700.783	0.0158599
700.861	0.0156506
700.939	0.0157191
701.017	0.0157252
701.096	0.0157656
701.174	0.0157708
701.252	0.0158878
701.330	0.0158841
701.408	0.0159911
701.486	0.0159855
701.564	0.0159919
701.642	0.0161473
701.721	0.0159978
701.799	0.0161238
701.877	0.0161176
701.955	0.0161795
702.033	0.0162514
702.111	0.0161282
702.189	0.0162496
702.267	0.0160755
702.346	0.0161728
702.424	0.0161861
702.502	0.0161098
702.580	0.0160423
702.658	0.0160930
702.736	0.0160554
702.814	0.0160396
702.892	0.0159745
702.971	0.0158820
703.049	0.0158928
703.127	0.0158501
703.205	0.0157773
703.283	0.0158647
703.361	0.0158023
703.439	0.0156725
703.517	0.0158560
703.596	0.0160341
703.674	0.0158954
703.752	0.0159265
703.830	0.0159676
703.908	0.0159809
703.986	0.0161397
704.064	0.0160492
704.142	0.0161633
704.221	0.0163026
704.299	0.0161871
704.377	0.0161391
704.455	0.0162241
704.533	0.0163379
704.611	0.0162421
704.689	0.0161849
704.767	0.0160458
704.846	0.0162172
704.924	0.0161019
705.002	0.0160638
705.080	0.0160422
705.158	0.0158907
705.236	0.0160509
705.314	0.0159987
705.392	0.0159482
705.471	0.0159436
705.549	0.0160601
705.627	0.0158755
705.705	0.0159213
705.783	0.0160352
705.861	0.0161144
705.939	0.0160781
706.017	0.0159855
706.096	0.0158956
706.174	0.0158849
706.252	0.0160770
706.330	0.0159585
706.408	0.0160189
706.486	0.0158743
706.564	0.0158457
706.642	0.0157766
706.721	0.0158137
706.799	0.0158153
706.877	0.0158578
706.955	0.0157293
707.033	0.0155254
707.111	0.0156452
707.189	0.0155690
707.267	0.0155965
707.346	0.0155284
707.424	0.0156198
707.502	0.0156870
707.580	0.0156287
707.658	0.0156731
707.736	0.0157265
707.814	0.0157768
707.892	0.0159023
707.971	0.0159428
708.049	0.0161367
708.127	0.0160293
708.205	0.0160915
708.283	0.0161772
708.361	0.0162401
708.439	0.0164221
708.517	0.0164006
708.596	0.0162537
708.674	0.0162782
708.752	0.0163725
708.830	0.0162215
708.908	0.0162146
708.986	0.0162428
709.064	0.0162241
709.142	0.0160575
709.221	0.0161526
709.299	0.0161094
709.377	0.0159784
709.455	0.0160999
709.533	0.0158958
709.611	0.0158427
709.689	0.0156669
709.767	0.0157574
709.846	0.0157149
709.924	0.0155559
710.002	0.0156700
710.080	0.0156347
710.158	0.0155338
710.236	0.0155884
710.314	0.0157517
710.392	0.0156104
710.471	0.0157848
710.549	0.0157240
710.627	0.0157083
710.705	0.0156745
710.783	0.0156934
710.861	0.0157423
710.939	0.0156965
711.017	0.0156780
711.096	0.0157165
711.174	0.0157919
711.252	0.0156966
711.330	0.0158257
711.408	0.0158260
711.486	0.0160046
711.564	0.0159947
711.642	0.0159975
711.721	0.0160873
711.799	0.0160766
711.877	0.0160996
711.955	0.0159197
712.033	0.0159512
712.111	0.0159589
712.189	0.0159873
712.267	0.0161756
712.346	0.0159952
712.424	0.0159982
712.502	0.0159313
712.580	0.0157655
712.658	0.0158966
712.736	0.0158939
712.814	0.0158300
712.892	0.0159708
712.971	0.0158238
713.049	0.0157952
713.127	0.0158080
713.205	0.0157696
713.283	0.0158690
713.361	0.0158278
713.439	0.0159004
713.517	0.0158389
713.596	0.0158848
713.674	0.0158143
713.752	0.0158421
713.830	0.0158613
713.908	0.0159649
713.986	0.0158871
714.064	0.0159552
714.142	0.0159467
714.221	0.0159706
714.299	0.0159742
714.377	0.0161005
714.455	0.0158934
714.533	0.0160269
714.611	0.0161563
714.689	0.0160168
714.767	0.0160963
714.846	0.0162630
714.924	0.0162045
715.002	0.0162891
715.080	0.0164316
715.158	0.0163736
715.236	0.0164613
715.314	0.0164347
715.392	0.0163829
715.471	0.0164729
715.549	0.0164201
715.627	0.0165175
715.705	0.0166785
715.783	0.0166656
715.861	0.0165440
715.939	0.0165385
716.017	0.0166939
716.096	0.0166422
716.174	0.0166686
716.252	0.0165929
716.330	0.0165972
716.408	0.0166341
716.486	0.0166908
716.564	0.0167373
716.642	0.0165684
716.721	0.0165886
716.799	0.0166498
716.877	0.0165155
716.955	0.0165620
717.033	0.0165499
717.111	0.0164850
717.189	0.0164332
717.267	0.0163848
717.346	0.0162612
717.424	0.0162553
717.502	0.0162214
717.580	0.0161101
717.658	0.0160079
717.736	0.0159380
717.814	0.0159380
717.892	0.0160268
717.971	0.0158411
718.049	0.0158698
718.127	0.0157429
718.205	0.0156964
718.283	0.0156283
718.361	0.0155499
718.439	0.0154860
718.517	0.0155078
718.596	0.0155080
718.674	0.0152596
718.752	0.0153511
718.830	0.0153528
718.908	0.0154000
718.986	0.0152976
719.064	0.0153335
719.142	0.0153001
719.221	0.0152934
719.299	0.0151986
719.377	0.0153158
719.455	0.0152151
719.533	0.0153856
719.611	0.0154162
719.689	0.0153371
719.767	0.0152673
719.846	0.0153474
719.924	0.0155993
720.002	0.0155691
720.080	0.0155746
720.158	0.0156561
720.236	0.0157727
720.314	0.0156514
720.392	0.0156773
720.471	0.0155978
720.549	0.0158006
720.627	0.0156013
720.705	0.0155304
720.783	0.0155312
720.861	0.0156034
720.939	0.0156085
721.017	0.0155001
721.096	0.0156225
721.174	0.0153996
721.252	0.0155714
721.330	0.0156149
721.408	0.0155140
721.486	0.0155740
721.564	0.0156811
721.642	0.0155933
721.721	0.0156722
721.799	0.0155972
721.877	0.0157888
721.955	0.0159226
722.033	0.0158459
722.111	0.0159593
722.189	0.0158826
722.267	0.0159724
722.346	0.0160338
722.424	0.0158372
722.502	0.0159535
722.580	0.0160429
722.658	0.0159357
722.736	0.0160753
722.814	0.0160346
722.892	0.0159821
722.971	0.0160187
723.049	0.0161717
723.127	0.0161397
723.205	0.0160966
723.283	0.0162656
723.361	0.0163508
723.439	0.0162556
723.517	0.0163177
723.596	0.0163721
723.674	0.0163268
723.752	0.0163213
723.830	0.0162366
723.908	0.0161932
723.986	0.0163047
724.064	0.0162141
724.142	0.0160645
724.221	0.0160851
724.299	0.0161161
724.377	0.0161292
724.455	0.0160485
724.533	0.0159221
724.611	0.0158987
724.689	0.0158791
724.767	0.0160630
724.846	0.0159975
724.924	0.0158662
725.002	0.0158149
725.080	0.0158901
725.158	0.0159476
725.236	0.0158180
725.314	0.0159670
725.392	0.0159531
725.471	0.0158794
725.549	0.0160310
725.627	0.0158736
725.705	0.0158374
725.783	0.0158876
725.861	0.0159217
725.939	0.0159447
726.017	0.0159637
726.096	0.0161352
726.174	0.0159135
726.252	0.0159647
726.330	0.0160414
726.408	0.0159745
726.486	0.0160984
726.564	0.0161279
726.642	0.0160993
726.721	0.0161011
726.799	0.0161050
726.877	0.0160500
726.955	0.0160889
727.033	0.0160174
727.111	0.0160412
727.189	0.0159568
727.267	0.0159392
727.346	0.0160197
727.424	0.0160420
727.502	0.0159797
727.580	0.0159074
727.658	0.0159869
727.736	0.0159760
727.814	0.0160185
727.892	0.0159759
727.971	0.0159909
728.049	0.0159617
728.127	0.0159767
728.205	0.0159988
728.283	0.0161820
728.361	0.0161182
728.439	0.0161555
728.517	0.0162810
728.596	0.0162933
728.674	0.0163285
728.752	0.0163626
728.830	0.0162447
728.908	0.0162853
728.986	0.0163655
729.064	0.0163583
729.142	0.0162841
729.221	0.0163650
729.299	0.0162793
729.377	0.0163651
729.455	0.0162895
729.533	0.0162790
729.611	0.0162640
729.689	0.0162656
729.767	0.0163765
729.846	0.0162077
729.924	0.0162978
730.002	0.0162985
730.080	0.0163773
730.158	0.0163579
730.236	0.0163092
730.314	0.0163322
730.392	0.0164346
730.471	0.0164935
730.549	0.0164577
730.627	0.0163541
730.705	0.0165074
730.783	0.0165237
730.861	0.0163928
730.939	0.0164888
731.017	0.0164806
731.096	0.0163240
731.174	0.0163456
731.252	0.0163982
731.330	0.0163396
731.408	0.0163123
731.486	0.0161649
731.564	0.0162114
731.642	0.0162476
731.721	0.0162847
731.799	0.0162391
731.877	0.0162435
731.955	0.0162269
732.033	0.0162061
732.111	0.0162611
732.189	0.0161614
732.267	0.0161918
732.346	0.0161476
732.424	0.0162691
732.502	0.0162283
732.580	0.0161618
732.658	0.0162111
732.736	0.0160763
732.814	0.0162263
732.892	0.0161584
732.971	0.0161646
733.049	0.0162741
733.127	0.0162022
733.205	0.0161812
733.283	0.0161797
733.361	0.0161916
733.439	0.0162897
733.517	0.0162180
733.596	0.0161880
733.674	0.0163189
733.752	0.0162305
733.830	0.0161396
733.908	0.0161124
733.986	0.0162231
734.064	0.0163009
734.142	0.0162022
734.221	0.0161421
734.299	0.0161303
734.377	0.0163568
734.455	0.0162015
734.533	0.0162453
734.611	0.0164105
734.689	0.0163774
734.767	0.0163037
734.846	0.0163586
734.924	0.0163596
735.002	0.0165185
735.080	0.0165176
735.158	0.0164506
735.236	0.0164554
735.314	0.0163026
735.392	0.0164697
735.471	0.0164214
735.549	0.0162610
735.627	0.0162995
735.705	0.0161475
735.783	0.0161875
735.861	0.0160895
735.939	0.0160802
736.017	0.0161290
736.096	0.0160544
736.174	0.0161449
736.252	0.0161623
736.330	0.0160739
736.408	0.0161633
736.486	0.0161002
736.564	0.0160442
736.642	0.0161491
736.721	0.0159615
736.799	0.0161223
736.877	0.0160506
736.955	0.0160660
737.033	0.0160123
737.111	0.0159020
737.189	0.0158418
737.267	0.0159381
737.346	0.0160713
737.424	0.0160255
737.502	0.0157941
737.580	0.0159136
737.658	0.0159769
737.736	0.0160017
737.814	0.0158594
737.892	0.0160011
737.971	0.0158546
738.049	0.0159877
738.127	0.0161028
738.205	0.0159568
738.283	0.0159789
738.361	0.0160489
738.439	0.0158529
738.517	0.0161035
738.596	0.0160393
738.674	0.0159718
738.752	0.0159158
738.830	0.0160479
738.908	0.0160921
738.986	0.0159054
739.064	0.0161233
739.142	0.0160238
739.221	0.0159681
739.299	0.0158881
739.377	0.0159735
739.455	0.0159657
739.533	0.0158720
739.611	0.0158922
739.689	0.0157635
739.767	0.0158987
739.846	0.0158092
739.924	0.0158429
740.002	0.0158413
740.080	0.0158181
740.158	0.0158215
740.236	0.0158920
740.314	0.0158790
740.392	0.0158842
740.471	0.0159894
740.549	0.0160823
740.627	0.0161611
740.705	0.0161346
740.783	0.0161771
740.861	0.0162798
740.939	0.0162483
741.017	0.0162977
741.096	0.0163646
741.174	0.0164530
741.252	0.0163602
741.330	0.0166238
741.408	0.0165659
741.486	0.0163763
741.564	0.0166807
741.642	0.0165938
741.721	0.0166337
741.799	0.0165694
741.877	0.0165514
741.955	0.0164159
742.033	0.0163319
742.111	0.0163343
742.189	0.0162948
742.267	0.0162049
742.346	0.0161356
742.424	0.0162059
742.502	0.0160178
742.580	0.0159231
742.658	0.0158835
742.736	0.0157410
742.814	0.0158047
742.892	0.0157863
742.971	0.0158624
743.049	0.0157758
743.127	0.0156694
743.205	0.0158187
743.283	0.0157909
743.361	0.0159543
743.439	0.0157263
743.517	0.0159371
743.596	0.0158237
743.674	0.0157407
743.752	0.0158112
743.830	0.0157671
743.908	0.0159061
743.986	0.0157831
744.064	0.0158659
744.142	0.0157732
744.221	0.0157352
744.299	0.0158137
744.377	0.0156915
744.455	0.0155926
744.533	0.0157242
744.611	0.0156880
744.689	0.0156457
744.767	0.0157304
744.846	0.0156109
744.924	0.0156355
745.002	0.0156107
745.080	0.0156252
745.158	0.0155690
745.236	0.0156876
745.314	0.0155278
745.392	0.0154366
745.471	0.0155286
745.549	0.0155682
745.627	0.0154797
745.705	0.0154716
745.783	0.0154701
745.861	0.0154014
745.939	0.0154834
746.017	0.0156084
746.096	0.0154225
746.174	0.0154971
746.252	0.0155907
746.330	0.0157208
746.408	0.0156503
746.486	0.0156012
746.564	0.0155370
746.642	0.0156223
746.721	0.0156211
746.799	0.0154382
746.877	0.0156391
746.955	0.0157050
747.033	0.0155065
747.111	0.0155283
747.189	0.0155070
747.267	0.0155243
747.346	0.0153041
747.424	0.0153625
747.502	0.0154687
747.580	0.0155260
747.658	0.0155506
747.736	0.0154409
747.814	0.0153767
747.892	0.0155163
747.971	0.0155708
748.049	0.0154786
748.127	0.0154877
748.205	0.0155235
748.283	0.0154347
748.361	0.0155267
748.439	0.0156423
748.517	0.0156184
748.596	0.0158249
748.674	0.0157883
748.752	0.0156742
748.830	0.0157999
748.908	0.0157472
748.986	0.0157305
749.064	0.0158519
749.142	0.0158336
749.221	0.0157887
749.299	0.0159169
749.377	0.0159752
749.455	0.0157487
749.533	0.0159143
749.611	0.0158202
749.689	0.0158369
749.767	0.0158321
749.846	0.0159161
749.924	0.0157896
750.002	0.0159126
750.080	0.0159632
750.158	0.0159118
750.236	0.0158700
750.314	0.0160478
750.392	0.0162376
750.471	0.0162709
750.549	0.0163657
750.627	0.0161526
750.705	0.0164538
750.783	0.0165701
750.861	0.0163564
750.939	0.0166182
751.017	0.0166290
751.096	0.0166848
751.174	0.0167036
751.252	0.0166753
751.330	0.0166273
751.408	0.0166187
751.486	0.0165472
751.564	0.0165913
751.642	0.0166168
751.721	0.0165809
751.799	0.0164964
751.877	0.0164925
751.955	0.0167625
752.033	0.0167135
752.111	0.0166606
752.189	0.0167875
752.267	0.0169693
752.346	0.0168256
752.424	0.0168425
752.502	0.0167176
752.580	0.0169863
752.658	0.0171057
752.736	0.0170546
752.814	0.0169328
752.892	0.0170718
752.971	0.0169553
753.049	0.0169997
753.127	0.0169029
753.205	0.0168169
753.283	0.0168176
753.361	0.0169664
753.439	0.0166584
753.517	0.0166289
753.596	0.0166148
753.674	0.0165707
753.752	0.0164656
753.830	0.0163724
753.908	0.0163161
753.986	0.0162708
754.064	0.0163654
754.142	0.0162845
754.221	0.0162481
754.299	0.0162831
754.377	0.0161982
754.455	0.0162730
754.533	0.0163973
754.611	0.0162988
754.689	0.0163838
754.767	0.0163168
754.846	0.0163194
754.924	0.0164190
755.002	0.0163843
755.080	0.0162019
755.158	0.0162379
755.236	0.0162479
755.314	0.0162322
755.392	0.0160915
755.471	0.0159948
755.549	0.0162241
755.627	0.0160755
755.705	0.0158804
755.783	0.0157784
755.861	0.0157980
755.939	0.0157202
756.017	0.0157954
756.096	0.0157885
756.174	0.0156506
756.252	0.0158120
756.330	0.0157164
756.408	0.0157485
756.486	0.0157672
756.564	0.0158343
756.642	0.0156843
756.721	0.0157913
756.799	0.0158617
756.877	0.0158829
756.955	0.0160761
757.033	0.0160892
757.111	0.0161003
757.189	0.0160524
757.267	0.0161882
757.346	0.0162278
757.424	0.0161774
757.502	0.0160687
757.580	0.0161269
757.658	0.0161481
757.736	0.0160334
757.814	0.0160973
757.892	0.0160650
757.971	0.0161031
758.049	0.0161046
758.127	0.0160877
758.205	0.0161161
758.283	0.0161477
758.361	0.0161332
758.439	0.0163461
758.517	0.0162857
758.596	0.0164004
758.674	0.0164884
758.752	0.0166647
758.830	0.0165781
758.908	0.0165421
758.986	0.0164490
759.064	0.0164789
759.142	0.0164198
759.221	0.0163668
759.299	0.0161922
759.377	0.0160223
759.455	0.0160574
759.533	0.0159309
759.611	0.0159753
759.689	0.0157280
759.767	0.0155158
759.846	0.0154901
759.924	0.0154430
760.002	0.0153746
760.080	0.0153261
760.158	0.0152865
760.236	0.0152617
760.314	0.0151116
760.392	0.0153967
760.471	0.0152970
760.549	0.0152029
760.627	0.0151464
760.705	0.0152561
760.783	0.0154227
760.861	0.0152596
760.939	0.0154543
761.017	0.0156055
761.096	0.0155724
761.174	0.0157272
761.252	0.0159190
761.330	0.0159104
761.408	0.0159766
761.486	0.0160427
761.564	0.0161131
761.642	0.0162114
761.721	0.0163144
761.799	0.0163599
761.877	0.0163615
761.955	0.0164708
762.033	0.0165151
762.111	0.0164678
762.189	0.0165456
762.267	0.0165982
762.346	0.0164243
762.424	0.0164750
762.502	0.0163953
762.580	0.0165680
762.658	0.0165817
762.736	0.0165338
762.814	0.0165500
762.892	0.0165639
762.971	0.0165078
763.049	0.0165560
763.127	0.0163731
763.205	0.0162923
763.283	0.0162849
763.361	0.0163350
763.439	0.0160783
763.517	0.0160247
763.596	0.0160781
763.674	0.0159742
763.752	0.0158578
763.830	0.0156956
763.908	0.0155553
763.986	0.0155267
764.064	0.0155866
764.142	0.0154747
764.221	0.0154405
764.299	0.0153893
764.377	0.0153587
764.455	0.0154409
764.533	0.0155006
764.611	0.0154234
764.689	0.0153609
764.767	0.0154194
764.846	0.0154588
764.924	0.0155009
765.002	0.0155875
765.080	0.0154273
765.158	0.0155258
765.236	0.0156409
765.314	0.0155680
765.392	0.0155300
765.471	0.0157182
765.549	0.0156193
765.627	0.0157481
765.705	0.0158801
765.783	0.0157740
765.861	0.0159177
765.939	0.0158830
766.017	0.0159029
766.096	0.0158150
766.174	0.0158569
766.252	0.0157882
766.330	0.0159175
766.408	0.0158423
766.486	0.0158109
766.564	0.0159492
766.642	0.0159549
766.721	0.0159557
766.799	0.0159657
766.877	0.0160368
766.955	0.0160447
767.033	0.0159119
767.111	0.0160122
767.189	0.0160473
767.267	0.0160663
767.346	0.0160928
767.424	0.0162247
767.502	0.0161469
767.580	0.0160068
767.658	0.0160912
767.736	0.0161016
767.814	0.0161572
767.892	0.0160894
767.971	0.0160455
768.049	0.0161637
768.127	0.0161773
768.205	0.0160103
768.283	0.0160550
768.361	0.0160767
768.439	0.0159646
768.517	0.0160249
768.596	0.0159158
768.674	0.0158495
768.752	0.0158807
768.830	0.0159541
768.908	0.0159178
768.986	0.0158688
769.064	0.0158227
769.142	0.0159634
769.221	0.0160307
769.299	0.0159533
769.377	0.0158606
769.455	0.0158991
769.533	0.0157372
769.611	0.0158455
769.689	0.0158849
769.767	0.0158344
769.846	0.0159268
769.924	0.0157806
770.002	0.0158971
770.080	0.0157503
770.158	0.0157164
770.236	0.0157108
770.314	0.0157284
770.392	0.0158315
770.471	0.0157769
770.549	0.0157481
770.627	0.0158489
770.705	0.0157542
770.783	0.0157913
770.861	0.0157041
770.939	0.0158184
771.017	0.0158108
771.096	0.0158498
771.174	0.0157477
771.252	0.0158552
771.330	0.0156873
771.408	0.0157464
771.486	0.0159434
771.564	0.0157730
771.642	0.0156570
771.721	0.0155493
771.799	0.0157130
771.877	0.0157538
771.955	0.0156983
772.033	0.0155739
772.111	0.0155291
772.189	0.0156260
772.267	0.0155994
772.346	0.0155511
772.424	0.0157550
772.502	0.0158045
772.580	0.0158525
772.658	0.0156448
772.736	0.0157671
772.814	0.0158540
772.892	0.0158087
772.971	0.0157671
773.049	0.0158911
773.127	0.0159994
773.205	0.0158018
773.283	0.0158046
773.361	0.0158661
773.439	0.0159657
773.517	0.0157963
773.596	0.0158064
773.674	0.0158476
773.752	0.0158307
773.830	0.0158944
773.908	0.0158505
773.986	0.0157815
774.064	0.0156953
774.142	0.0158654
774.221	0.0158642
774.299	0.0157531
774.377	0.0158454
774.455	0.0158762
774.533	0.0158818
774.611	0.0159947
774.689	0.0159240
774.767	0.0158960
774.846	0.0158690
774.924	0.0159131
775.002	0.0159554
775.080	0.0158571
775.158	0.0158496
775.236	0.0158717
775.314	0.0157938
775.392	0.0156524
775.471	0.0157693
775.549	0.0158092
775.627	0.0156539
775.705	0.0155884
775.783	0.0154862
775.861	0.0155023
775.939	0.0155576
776.017	0.0154256
776.096	0.0153741
776.174	0.0152740
776.252	0.0152581
776.330	0.0154401
776.408	0.0154092
776.486	0.0153594
776.564	0.0152261
776.642	0.0153805
776.721	0.0154823
776.799	0.0154063
776.877	0.0154887
776.955	0.0156043
777.033	0.0156750
777.111	0.0156652
777.189	0.0158003
777.267	0.0157911
777.346	0.0158398
777.424	0.0158178
777.502	0.0158401
777.580	0.0158839
777.658	0.0159087
777.736	0.0159516
777.814	0.0161289
777.892	0.0161660
777.971	0.0160267
778.049	0.0162153
778.127	0.0161250
778.205	0.0161668
778.283	0.0161397
778.361	0.0160442
778.439	0.0160708
778.517	0.0162658
778.596	0.0164493
778.674	0.0163464
778.752	0.0162804
778.830	0.0166532
778.908	0.0165992
778.986	0.0165980
779.064	0.0167464
779.142	0.0166393
779.221	0.0166446
779.299	0.0168661
779.377	0.0167780
779.455	0.0166293
779.533	0.0164349
779.611	0.0165193
779.689	0.0165247
779.767	0.0165554
779.846	0.0164769
779.924	0.0162714
780.002	0.0162713
780.080	0.0163751
780.158	0.0161787
780.236	0.0163064
780.314	0.0162867
780.392	0.0161460
780.471	0.0163023
780.549	0.0163174
780.627	0.0162132
780.705	0.0163411
780.783	0.0163467
780.861	0.0163268
780.939	0.0163998
781.017	0.0162300
781.096	0.0162092
781.174	0.0160780
781.252	0.0157546
781.330	0.0155715
781.408	0.0154945
781.486	0.0153307
781.564	0.0151524
781.642	0.0149562
781.721	0.0150060
781.799	0.0149588
781.877	0.0148422
781.955	0.0149491
782.033	0.0150497
782.111	0.0149709
782.189	0.0152253
782.267	0.0153445
782.346	0.0155212
782.424	0.0156973
782.502	0.0157104
782.580	0.0159364
782.658	0.0160021
782.736	0.0161386
782.814	0.0161785
782.892	0.0163507
782.971	0.0164207
783.049	0.0164613
783.127	0.0166656
783.205	0.0168243
783.283	0.0167773
783.361	0.0170087
783.439	0.0169801
783.517	0.0168875
783.596	0.0169495
783.674	0.0168208
783.752	0.0168414
783.830	0.0168792
783.908	0.0167159
783.986	0.0164967
784.064	0.0164476
784.142	0.0165734
784.221	0.0163815
784.299	0.0161197
784.377	0.0159621
784.455	0.0159207
784.533	0.0159137
784.611	0.0156393
784.689	0.0155375
784.767	0.0154671
784.846	0.0154517
784.924	0.0153602
785.002	0.0153032
785.080	0.0153108
785.158	0.0151709
785.236	0.0153423
785.314	0.0151720
785.392	0.0153047
785.471	0.0152781
785.549	0.0153130
785.627	0.0153446
785.705	0.0153331
785.783	0.0153587
785.861	0.0153545
785.939	0.0153853
786.017	0.0154109
786.096	0.0155293
786.174	0.0154923
786.252	0.0155724
786.330	0.0154916
786.408	0.0154404
786.486	0.0155769
786.564	0.0156347
786.642	0.0154781
786.721	0.0155495
786.799	0.0155329
786.877	0.0155452
786.955	0.0154530
787.033	0.0154510
787.111	0.0155479
787.189	0.0155690
787.267	0.0155344
787.346	0.0155592
787.424	0.0154180
787.502	0.0153551
787.580	0.0155346
787.658	0.0155538
787.736	0.0155518
787.814	0.0153718
787.892	0.0153239
787.971	0.0154085
788.049	0.0154322
788.127	0.0156596
788.205	0.0155080
788.283	0.0155540
788.361	0.0155407
788.439	0.0156464
788.517	0.0155555
788.596	0.0154707
788.674	0.0155736
788.752	0.0155966
788.830	0.0155970
788.908	0.0156464
788.986	0.0155104
789.064	0.0154368
789.142	0.0154604
789.221	0.0153902
789.299	0.0154243
789.377	0.0153652
789.455	0.0152058
789.533	0.0152517
789.611	0.0152572
789.689	0.0151241
789.767	0.0151473
789.846	0.0152160
789.924	0.0153541
790.002	0.0151175
790.080	0.0152005
790.158	0.0152869
790.236	0.0152073
790.314	0.0153724
790.392	0.0155050
790.471	0.0155621
790.549	0.0155649
790.627	0.0155850
790.705	0.0155663
790.783	0.0158125
790.861	0.0159604
790.939	0.0157953
791.017	0.0157838
791.096	0.0159214
791.174	0.0160113
791.252	0.0159772
791.330	0.0161250
791.408	0.0161514
791.486	0.0162351
791.564	0.0162832
791.642	0.0161887
791.721	0.0164384
791.799	0.0164080
791.877	0.0163606
791.955	0.0164194
792.033	0.0164832
792.111	0.0163651
792.189	0.0165185
792.267	0.0166437
792.346	0.0165262
792.424	0.0163766
792.502	0.0163918
792.580	0.0164307
792.658	0.0164127
792.736	0.0164053
792.814	0.0163872
792.892	0.0163189
792.971	0.0161061
793.049	0.0161723
793.127	0.0161974
793.205	0.0161024
793.283	0.0159405
793.361	0.0162306
793.439	0.0159700
793.517	0.0159886
793.596	0.0162724
793.674	0.0162103
793.752	0.0161799
793.830	0.0162594
793.908	0.0162555
793.986	0.0163054
794.064	0.0163864
794.142	0.0165587
794.221	0.0165292
794.299	0.0166157
794.377	0.0165881
794.455	0.0167059
794.533	0.0166009
794.611	0.0165644
794.689	0.0164879
794.767	0.0164545
794.846	0.0163174
794.924	0.0161674
795.002	0.0161363
795.080	0.0161349
795.158	0.0162272
795.236	0.0162687
795.314	0.0162826
795.392	0.0163428
795.471	0.0163527
795.549	0.0164655
795.627	0.0165030
795.705	0.0164697
795.783	0.0163890
795.861	0.0163622
795.939	0.0163483
796.017	0.0161365
796.096	0.0161116
796.174	0.0160875
796.252	0.0157444
796.330	0.0157408
796.408	0.0157940
796.486	0.0155304
796.564	0.0156825
796.642	0.0155946
796.721	0.0156264
796.799	0.0155845
796.877	0.0156780
796.955	0.0157552
797.033	0.0155771
797.111	0.0157317
797.189	0.0155010
797.267	0.0156317
797.346	0.0157677
797.424	0.0156682
797.502	0.0156430
797.580	0.0155810
797.658	0.0157409
797.736	0.0158169
797.814	0.0157972
797.892	0.0158816
797.971	0.0159480
798.049	0.0160945
798.127	0.0160715
798.205	0.0158956
798.283	0.0160034
798.361	0.0162073
798.439	0.0162160
798.517	0.0161804
798.596	0.0161781
798.674	0.0162077
798.752	0.0160563
798.830	0.0162447
798.908	0.0163209
798.986	0.0164439
799.064	0.0163435
799.142	0.0164347
799.221	0.0164524
799.299	0.0164710
799.377	0.0164388
799.455	0.0163219
799.533	0.0164092
799.611	0.0164112
799.689	0.0164190
799.767	0.0162694
799.846	0.0161996
799.924	0.0162991
800.002	0.0161584
800.080	0.0162012
800.158	0.0161598
800.236	0.0161590
800.314	0.0159686
800.392	0.0161111
800.471	0.0162518
800.549	0.0161330
800.627	0.0159639
800.705	0.0159543
800.783	0.0160590
800.861	0.0159582
800.939	0.0160194
801.017	0.0159308
801.096	0.0160513
801.174	0.0159854
801.252	0.0158503
801.330	0.0160023
801.408	0.0159836
801.486	0.0160272
801.564	0.0160521
801.642	0.0160396
801.721	0.0161026
801.799	0.0161603
801.877	0.0161156
801.955	0.0159845
802.033	0.0160415
802.111	0.0160036
802.189	0.0161323
802.267	0.0162202
802.346	0.0160100
802.424	0.0159090
802.502	0.0158218
802.580	0.0157871
802.658	0.0158646
802.736	0.0157311
802.814	0.0155968
802.892	0.0155647
802.971	0.0154676
803.049	0.0153829
803.127	0.0155261
803.205	0.0155548
803.283	0.0154059
803.361	0.0153040
803.439	0.0154480
803.517	0.0154851
803.596	0.0154517
803.674	0.0152909
803.752	0.0154044
803.830	0.0153961
803.908	0.0153170
803.986	0.0154019
804.064	0.0152904
804.142	0.0154284
804.221	0.0152832
804.299	0.0153467
804.377	0.0153670
804.455	0.0152278
804.533	0.0151933
804.611	0.0152857
804.689	0.0153042
804.767	0.0152560
804.846	0.0153279
804.924	0.0153841
805.002	0.0154320
805.080	0.0154690
805.158	0.0156049
805.236	0.0154789
805.314	0.0157502
805.392	0.0156563
805.471	0.0156471
805.549	0.0158496
805.627	0.0158955
805.705	0.0159347
805.783	0.0159470
805.861	0.0159206
805.939	0.0160789
806.017	0.0161094
806.096	0.0160451
806.174	0.0159770
806.252	0.0159378
806.330	0.0159235
806.408	0.0160548
806.486	0.0160184
806.564	0.0159799
806.642	0.0159283
806.721	0.0160873
806.799	0.0160723
806.877	0.0162954
806.955	0.0164065
807.033	0.0163052
807.111	0.0163599
807.189	0.0161812
807.267	0.0162862
807.346	0.0163613
807.424	0.0164085
807.502	0.0161879
807.580	0.0163197
807.658	0.0162112
807.736	0.0162679
807.814	0.0161165
807.892	0.0160287
807.971	0.0158704
808.049	0.0160017
808.127	0.0160664
808.205	0.0158946
808.283	0.0158244
808.361	0.0157996
808.439	0.0156989
808.517	0.0156964
808.596	0.0155633
808.674	0.0156609
808.752	0.0155563
808.830	0.0156716
808.908	0.0156557
808.986	0.0154719
809.064	0.0156499
809.142	0.0157837
809.221	0.0157024
809.299	0.0157851
809.377	0.0157276
809.455	0.0159312
809.533	0.0159844
809.611	0.0160224
809.689	0.0160141
809.767	0.0161158
809.846	0.0161379
809.924	0.0162421
810.002	0.0161134
810.080	0.0162486
810.158	0.0160719
810.236	0.0160580
810.314	0.0161442
810.392	0.0162048
810.471	0.0161969
810.549	0.0161504
810.627	0.0160504
810.705	0.0161446
810.783	0.0161111
810.861	0.0160207
810.939	0.0158904
811.017	0.0160384
811.096	0.0160286
811.174	0.0158616
811.252	0.0159189
811.330	0.0159975
811.408	0.0159155
811.486	0.0159016
811.564	0.0159211
811.642	0.0159278
811.721	0.0158366
811.799	0.0159177
811.877	0.0157650
811.955	0.0159339
812.033	0.0159007
812.111	0.0157478
812.189	0.0157343
812.267	0.0157165
812.346	0.0157796
812.424	0.0158375
812.502	0.0157795
812.580	0.0157605
812.658	0.0156170
812.736	0.0155997
812.814	0.0155618
812.892	0.0155264
812.971	0.0155210
813.049	0.0155810
813.127	0.0153942
813.205	0.0154123
813.283	0.0154199
813.361	0.0155853
813.439	0.0155338
813.517	0.0155515
813.596	0.0155317
813.674	0.0155698
813.752	0.0156777
813.830	0.0157421
813.908	0.0157455
813.986	0.0158267
814.064	0.0159649
814.142	0.0158166
814.221	0.0157188
814.299	0.0159056
814.377	0.0159657
814.455	0.0158711
814.533	0.0158109
814.611	0.0159187
814.689	0.0160546
814.767	0.0160049
814.846	0.0160130
814.924	0.0159188
815.002	0.0158425
815.080	0.0158400
815.158	0.0158695
815.236	0.0158739
815.314	0.0159109
815.392	0.0161034
815.471	0.0161361
815.549	0.0159139
815.627	0.0160838
815.705	0.0162051
815.783	0.0161171
815.861	0.0162312
815.939	0.0161245
816.017	0.0162615
816.096	0.0162971
816.174	0.0162531
816.252	0.0162239
816.330	0.0161425
816.408	0.0160783
816.486	0.0162337
816.564	0.0162646
816.642	0.0161379
816.721	0.0161465
816.799	0.0161176
816.877	0.0161529
816.955	0.0161388
817.033	0.0161182
817.111	0.0163023
817.189	0.0161807
817.267	0.0161964
817.346	0.0161381
817.424	0.0163515
817.502	0.0161157
817.580	0.0160036
817.658	0.0162156
817.736	0.0162236
817.814	0.0159814
817.892	0.0162291
817.971	0.0162349
818.049	0.0160297
818.127	0.0161308
818.205	0.0161418
818.283	0.0161237
818.361	0.0161032
818.439	0.0162461
818.517	0.0161906
818.596	0.0159641
818.674	0.0161406
818.752	0.0161597
818.830	0.0161562
818.908	0.0163002
818.986	0.0162424
819.064	0.0162458
819.142	0.0161928
819.221	0.0161513
819.299	0.0163203
819.377	0.0162301
819.455	0.0162816
819.533	0.0162390
819.611	0.0163421
819.689	0.0163424
819.767	0.0163023
819.846	0.0163944
819.924	0.0162334
820.002	0.0162820
820.080	0.0162603
820.158	0.0162926
820.236	0.0161845
820.314	0.0162622
820.392	0.0163695
820.471	0.0164315
820.549	0.0162669
820.627	0.0162010
820.705	0.0162885
820.783	0.0162932
820.861	0.0162225
820.939	0.0162873
821.017	0.0162065
821.096	0.0160464
821.174	0.0160386
821.252	0.0159892
821.330	0.0161481
821.408	0.0161649
821.486	0.0160976
821.564	0.0160226
821.642	0.0160029
821.721	0.0159090
821.799	0.0160190
821.877	0.0158093
821.955	0.0158772
822.033	0.0159435
822.111	0.0159658
822.189	0.0159354
822.267	0.0159869
822.346	0.0159203
822.424	0.0158852
822.502	0.0159541
822.580	0.0159558
822.658	0.0159387
822.736	0.0159510
822.814	0.0160003
822.892	0.0159444
822.971	0.0160269
823.049	0.0159252
823.127	0.0159556
823.205	0.0158773
823.283	0.0158972
823.361	0.0158233
823.439	0.0159511
823.517	0.0159185
823.596	0.0160040
823.674	0.0157484
823.752	0.0160033
823.830	0.0159721
823.908	0.0160106
823.986	0.0160227
824.064	0.0159722
824.142	0.0160605
824.221	0.0159499
824.299	0.0161492
824.377	0.0161356
824.455	0.0160201
824.533	0.0160687
824.611	0.0159800
824.689	0.0160329
824.767	0.0159161
824.846	0.0159142
824.924	0.0159660
825.002	0.0159985
825.080	0.0161100
825.158	0.0160349
825.236	0.0162514
825.314	0.0161124
825.392	0.0161416
825.471	0.0161691
825.549	0.0162914
825.627	0.0162916
825.705	0.0162598
825.783	0.0164186
825.861	0.0162513
825.939	0.0162846
826.017	0.0163313
826.096	0.0162547
826.174	0.0162380
826.252	0.0163672
826.330	0.0161974
826.408	0.0162842
826.486	0.0160696
826.564	0.0159550
826.642	0.0159886
826.721	0.0159809
826.799	0.0158206
826.877	0.0157634
826.955	0.0157624
827.033	0.0157253
827.111	0.0157016
827.189	0.0156562
827.267	0.0157388
827.346	0.0155983
827.424	0.0158079
827.502	0.0157558
827.580	0.0158447
827.658	0.0160562
827.736	0.0158869
827.814	0.0158327
827.892	0.0158841
827.971	0.0160001
828.049	0.0161948
828.127	0.0161958
828.205	0.0159718
828.283	0.0160245
828.361	0.0160162
828.439	0.0159814
828.517	0.0160575
828.596	0.0158807
828.674	0.0159339
828.752	0.0158240
828.830	0.0158038
828.908	0.0156704
828.986	0.0157135
829.064	0.0156754
829.142	0.0155597
829.221	0.0154870
829.299	0.0155972
829.377	0.0154916
829.455	0.0155472
829.533	0.0155694
829.611	0.0155599
829.689	0.0155225
829.767	0.0156554
829.846	0.0156487
829.924	0.0155974
830.002	0.0157302
830.080	0.0157904
830.158	0.0158353
830.236	0.0158154
830.314	0.0159000
830.392	0.0159499
830.471	0.0160774
830.549	0.0160881
830.627	0.0160029
830.705	0.0163132
830.783	0.0163371
830.861	0.0162606
830.939	0.0162281
831.017	0.0163860
831.096	0.0163760
831.174	0.0161246
831.252	0.0163822
831.330	0.0162778
831.408	0.0162514
831.486	0.0163184
831.564	0.0162766
831.642	0.0162246
831.721	0.0161607
831.799	0.0161804
831.877	0.0162503
831.955	0.0162022
832.033	0.0161674
832.111	0.0161346
832.189	0.0160863
832.267	0.0160517
832.346	0.0161507
832.424	0.0160846
832.502	0.0160561
832.580	0.0161044
832.658	0.0161029
832.736	0.0160428
832.814	0.0161616
832.892	0.0158855
832.971	0.0159368
833.049	0.0160696
833.127	0.0160756
833.205	0.0160098
833.283	0.0160050
833.361	0.0160155
833.439	0.0159984
833.517	0.0159646
833.596	0.0160042
833.674	0.0158851
833.752	0.0158812
833.830	0.0158552
833.908	0.0159230
833.986	0.0158905
834.064	0.0160077
834.142	0.0159133
834.221	0.0159856
834.299	0.0159895
834.377	0.0159984
834.455	0.0160588
834.533	0.0159749
834.611	0.0157957
834.689	0.0159321
834.767	0.0160810
834.846	0.0160223
834.924	0.0159956
835.002	0.0159740
835.080	0.0160783
835.158	0.0162552
835.236	0.0162109
835.314	0.0159631
835.392	0.0161965
835.471	0.0161863
835.549	0.0162327
835.627	0.0161111
835.705	0.0162179
835.783	0.0163778
835.861	0.0163512
835.939	0.0160780
836.017	0.0161121
836.096	0.0163225
836.174	0.0163374
836.252	0.0161713
836.330	0.0162605
836.408	0.0163250
836.486	0.0161899
836.564	0.0161530
836.642	0.0161156
836.721	0.0159946
836.799	0.0160425
836.877	0.0161164
836.955	0.0160493
837.033	0.0159341
837.111	0.0159044
837.189	0.0157596
837.267	0.0157929
837.346	0.0158073
837.424	0.0158066
837.502	0.0157584
837.580	0.0157429
837.658	0.0157277
837.736	0.0158309
837.814	0.0158518
837.892	0.0158438
837.971	0.0157763
838.049	0.0158576
838.127	0.0159019
838.205	0.0159669
838.283	0.0159959
838.361	0.0160008
838.439	0.0160576
838.517	0.0161362
838.596	0.0160722
838.674	0.0159362
838.752	0.0161588
838.830	0.0159897
838.908	0.0158935
838.986	0.0159510
839.064	0.0159066
839.142	0.0159865
839.221	0.0159301
839.299	0.0157183
839.377	0.0157191
839.455	0.0156977
839.533	0.0156031
839.611	0.0158200
839.689	0.0157324
839.767	0.0158320
839.846	0.0156305
839.924	0.0156668
840.002	0.0156742
840.080	0.0158138
840.158	0.0157549
840.236	0.0158034
840.314	0.0158543
840.392	0.0156773
840.471	0.0159353
840.549	0.0158727
840.627	0.0158695
840.705	0.0159525
840.783	0.0159312
840.861	0.0159224
840.939	0.0159898
841.017	0.0158264
841.096	0.0161572
841.174	0.0159426
841.252	0.0161639
841.330	0.0161319
841.408	0.0159775
841.486	0.0161089
841.564	0.0161295
841.642	0.0159937
841.721	0.0160632
841.799	0.0160815
841.877	0.0160612
841.955	0.0159823
842.033	0.0159951
842.111	0.0159074
842.189	0.0159940
842.267	0.0160442
842.346	0.0160828
842.424	0.0158840
842.502	0.0159750
842.580	0.0158333
842.658	0.0160172
842.736	0.0161035
842.814	0.0159441
842.892	0.0160446
842.971	0.0161595
843.049	0.0160417
843.127	0.0161378
843.205	0.0159234
843.283	0.0160504
843.361	0.0162282
843.439	0.0160434
843.517	0.0161768
843.596	0.0160774
843.674	0.0160367
843.752	0.0161642
843.830	0.0160279
843.908	0.0161491
843.986	0.0160207
844.064	0.0161176
844.142	0.0160243
844.221	0.0160290
844.299	0.0159051
844.377	0.0160323
844.455	0.0160252
844.533	0.0161272
844.611	0.0160844
844.689	0.0161279
844.767	0.0161320
844.846	0.0160796
844.924	0.0162207
845.002	0.0162483
845.080	0.0162227
845.158	0.0162412
845.236	0.0162732
845.314	0.0162016
845.392	0.0162563
845.471	0.0162627
845.549	0.0162498
845.627	0.0162841
845.705	0.0162519
845.783	0.0162296
845.861	0.0162431
845.939	0.0161817
846.017	0.0162078
846.096	0.0160960
846.174	0.0161317
846.252	0.0161371
846.330	0.0159888
846.408	0.0162337
846.486	0.0161600
846.564	0.0161595
846.642	0.0162799
846.721	0.0162083
846.799	0.0161716
846.877	0.0161233
846.955	0.0161307
847.033	0.0161572
847.111	0.0160521
847.189	0.0160771
847.267	0.0160931
847.346	0.0160684
847.424	0.0160046
847.502	0.0161302
847.580	0.0161395
847.658	0.0158262
847.736	0.0160115
847.814	0.0158598
847.892	0.0158954
847.971	0.0159830
848.049	0.0159715
848.127	0.0159267
848.205	0.0158005
848.283	0.0158785
848.361	0.0157949
848.439	0.0158160
848.517	0.0157716
848.596	0.0157768
848.674	0.0159337
848.752	0.0157999
848.830	0.0159023
848.908	0.0159378
848.986	0.0159190
849.064	0.0159201
849.142	0.0160139
849.221	0.0160968
849.299	0.0160873
849.377	0.0160394
849.455	0.0160098
849.533	0.0161223
849.611	0.0161321
849.689	0.0162223
849.767	0.0160559
849.846	0.0162035
849.924	0.0161613
850.002	0.0161040
850.080	0.0161594
850.158	0.0162083
850.236	0.0161970
850.314	0.0162380
850.392	0.0163058
850.471	0.0162383
850.549	0.0161760
850.627	0.0162503
850.705	0.0162679
850.783	0.0162637
850.861	0.0162341
850.939	0.0163083
851.017	0.0163750
851.096	0.0162271
851.174	0.0162364
851.252	0.0162366
851.330	0.0161240
851.408	0.0160612
851.486	0.0161220
851.564	0.0160762
851.642	0.0161574
851.721	0.0159619
851.799	0.0159702
851.877	0.0160154
851.955	0.0159341
852.033	0.0158550
852.111	0.0156979
852.189	0.0157527
852.267	0.0156952
852.346	0.0155899
852.424	0.0157652
852.502	0.0157030
852.580	0.0155829
852.658	0.0157013
852.736	0.0157233
852.814	0.0156268
852.892	0.0155314
852.971	0.0155979
853.049	0.0155325
853.127	0.0155084
853.205	0.0154409
853.283	0.0154997
853.361	0.0153175
853.439	0.0153127
853.517	0.0153605
853.596	0.0152699
853.674	0.0151472
853.752	0.0151557
853.830	0.0153508
853.908	0.0153409
853.986	0.0152499
854.064	0.0152200
854.142	0.0153443
854.221	0.0154006
854.299	0.0154993
854.377	0.0155609
854.455	0.0156448
854.533	0.0154945
854.611	0.0155359
854.689	0.0155765
854.767	0.0156581
854.846	0.0157493
854.924	0.0156564
855.002	0.0157896
855.080	0.0157710
855.158	0.0156781
855.236	0.0157194
855.314	0.0157263
855.392	0.0156870
855.471	0.0155773
855.549	0.0156985
855.627	0.0156830
855.705	0.0157431
855.783	0.0156720
855.861	0.0156165
855.939	0.0157799
856.017	0.0156914
856.096	0.0156377
856.174	0.0155584
856.252	0.0157310
856.330	0.0158575
856.408	0.0158550
856.486	0.0159206
856.564	0.0158507
856.642	0.0159200
856.721	0.0159206
856.799	0.0161208
856.877	0.0160386
856.955	0.0160244
857.033	0.0161512
857.111	0.0162498
857.189	0.0163690
857.267	0.0162286
857.346	0.0162432
857.424	0.0164497
857.502	0.0163078
857.580	0.0164628
857.658	0.0164553
857.736	0.0166074
857.814	0.0167359
857.892	0.0166180
857.971	0.0167526
858.049	0.0167100
858.127	0.0169580
858.205	0.0170592
858.283	0.0170786
858.361	0.0171165
858.439	0.0170415
858.517	0.0171669
858.596	0.0172795
858.674	0.0173585
858.752	0.0173744
858.830	0.0174033
858.908	0.0173159
858.986	0.0172907
859.064	0.0175623
859.142	0.0174441
859.221	0.0174741
859.299	0.0172915
859.377	0.0172094
859.455	0.0173222
859.533	0.0173872
859.611	0.0172612
859.689	0.0171904
859.767	0.0170136
859.846	0.0168105
859.924	0.0167999
860.002	0.0167712
860.080	0.0167312
860.158	0.0165749
860.236	0.0164790
860.314	0.0162866
860.392	0.0162650
860.471	0.0162608
860.549	0.0161417
860.627	0.0160692
860.705	0.0160181
860.783	0.0160172
860.861	0.0158234
860.939	0.0158078
861.017	0.0157762
861.096	0.0157629
861.174	0.0155169
861.252	0.0154794
861.330	0.0155031
861.408	0.0155087
861.486	0.0154902
861.564	0.0156350
861.642	0.0154359
861.721	0.0153864
861.799	0.0154094
861.877	0.0153664
861.955	0.0153130
862.033	0.0154498
862.111	0.0153406
862.189	0.0152766
862.267	0.0154204
862.346	0.0153696
862.424	0.0153718
862.502	0.0153365
862.580	0.0152905
862.658	0.0153951
862.736	0.0152969
862.814	0.0154068
862.892	0.0153658
862.971	0.0152034
863.049	0.0153296
863.127	0.0152918
863.205	0.0152744
863.283	0.0152124
863.361	0.0150896
863.439	0.0150108
863.517	0.0150658
863.596	0.0151986
863.674	0.0149266
863.752	0.0149731
863.830	0.0150931
863.908	0.0150687
863.986	0.0150124
864.064	0.0150871
864.142	0.0150110
864.221	0.0149876
864.299	0.0150611
864.377	0.0150968
864.455	0.0151649
864.533	0.0150663
864.611	0.0151478
864.689	0.0152281
864.767	0.0153003
864.846	0.0153463
864.924	0.0153072
865.002	0.0153606
865.080	0.0154983
865.158	0.0154404
865.236	0.0154792
865.314	0.0155527
865.392	0.0157403
865.471	0.0156444
865.549	0.0158387
865.627	0.0158644
865.705	0.0159087
865.783	0.0158134
865.861	0.0157850
865.939	0.0158404
866.017	0.0157867
866.096	0.0157222
866.174	0.0158761
866.252	0.0159031
866.330	0.0159206
866.408	0.0157720
866.486	0.0158565
866.564	0.0159288
866.642	0.0159375
866.721	0.0161107
866.799	0.0159923
866.877	0.0159462
866.955	0.0159318
867.033	0.0159889
867.111	0.0160359
867.189	0.0159646
867.267	0.0161220
867.346	0.0162229
867.424	0.0162458
867.502	0.0162578
867.580	0.0162731
867.658	0.0165183
867.736	0.0162592
867.814	0.0162273
867.892	0.0163743
867.971	0.0164229
868.049	0.0164407
868.127	0.0163244
868.205	0.0163129
868.283	0.0163436
868.361	0.0162887
868.439	0.0163395
868.517	0.0162067
868.596	0.0162793
868.674	0.0163949
868.752	0.0162559
868.830	0.0162300
868.908	0.0163004
868.986	0.0162676
869.064	0.0162049
869.142	0.0162306
869.221	0.0164481
869.299	0.0164964
869.377	0.0163762
869.455	0.0163126
869.533	0.0165205
869.611	0.0163849
869.689	0.0164778
869.767	0.0165408
869.846	0.0164663
869.924	0.0163987
870.002	0.0164782
870.080	0.0163884
870.158	0.0162204
870.236	0.0163691
870.314	0.0164080
870.392	0.0162826
870.471	0.0162850
870.549	0.0162741
870.627	0.0162457
870.705	0.0163464
870.783	0.0161993
870.861	0.0161447
870.939	0.0161543
871.017	0.0160644
871.096	0.0162086
871.174	0.0162543
871.252	0.0162814
871.330	0.0163264
871.408	0.0161288
871.486	0.0161395
871.564	0.0161233
871.642	0.0161230
871.721	0.0162157
871.799	0.0161380
871.877	0.0161561
871.955	0.0160870
872.033	0.0160212
872.111	0.0159232
872.189	0.0157383
872.267	0.0159151
872.346	0.0158992
872.424	0.0159007
872.502	0.0158240
872.580	0.0158382
872.658	0.0156892
872.736	0.0158486
872.814	0.0158955
872.892	0.0158041
872.971	0.0157954
873.049	0.0157766
873.127	0.0157381
873.205	0.0158493
873.283	0.0157434
873.361	0.0157767
873.439	0.0159228
873.517	0.0159103
873.596	0.0158963
873.674	0.0158737
873.752	0.0158628
873.830	0.0159888
873.908	0.0158488
873.986	0.0160325
874.064	0.0159918
874.142	0.0158695
874.221	0.0159989
874.299	0.0160173
874.377	0.0158852
874.455	0.0159458
874.533	0.0160104
874.611	0.0160138
874.689	0.0158861
874.767	0.0160799
874.846	0.0160909
874.924	0.0161102
875.002	0.0159296
875.080	0.0159534
875.158	0.0160760
875.236	0.0160640
875.314	0.0161704
875.392	0.0161354
875.471	0.0161156
875.549	0.0159269
875.627	0.0160215
875.705	0.0159952
875.783	0.0159039
875.861	0.0159235
875.939	0.0158369
876.017	0.0158939
876.096	0.0159287
876.174	0.0159818
876.252	0.0160193
876.330	0.0159463
876.408	0.0159269
876.486	0.0158437
876.564	0.0157956
876.642	0.0160052
876.721	0.0158307
876.799	0.0159296
876.877	0.0159074
876.955	0.0158135
877.033	0.0157900
877.111	0.0156886
877.189	0.0157648
877.267	0.0157036
877.346	0.0156255
877.424	0.0155260
877.502	0.0156622
877.580	0.0154324
877.658	0.0154453
877.736	0.0153871
877.814	0.0154153
877.892	0.0154526
877.971	0.0154122
878.049	0.0154379
878.127	0.0153670
878.205	0.0154345
878.283	0.0154203
878.361	0.0155735
878.439	0.0154448
878.517	0.0155875
878.596	0.0155138
878.674	0.0154375
878.752	0.0154042
878.830	0.0156756
878.908	0.0155782
878.986	0.0157011
879.064	0.0156348
879.142	0.0157514
879.221	0.0157669
879.299	0.0158414
879.377	0.0159370
879.455	0.0160379
879.533	0.0158960
879.611	0.0159705
879.689	0.0161003
879.767	0.0163152
879.846	0.0162184
879.924	0.0162294
880.002	0.0161851
880.080	0.0163114
880.158	0.0163790
880.236	0.0164438
880.314	0.0163091
880.392	0.0163434
880.471	0.0163905
880.549	0.0162606
880.627	0.0161434
880.705	0.0162271
880.783	0.0162020
880.861	0.0163910
880.939	0.0163033
881.017	0.0162193
881.096	0.0163471
881.174	0.0162697
881.252	0.0161289
881.330	0.0163867
881.408	0.0162675
881.486	0.0162122
881.564	0.0162926
881.642	0.0162303
881.721	0.0162144
881.799	0.0161864
881.877	0.0162839
881.955	0.0163075
882.033	0.0160582
882.111	0.0160509
882.189	0.0159488
882.267	0.0159071
882.346	0.0159401
882.424	0.0158780
882.502	0.0159764
882.580	0.0158170
882.658	0.0157199
882.736	0.0157504
882.814	0.0156519
882.892	0.0156946
882.971	0.0158058
883.049	0.0157905
883.127	0.0158178
883.205	0.0159142
883.283	0.0159702
883.361	0.0158984
883.439	0.0160421
883.517	0.0161118
883.596	0.0161755
883.674	0.0161990
883.752	0.0164963
883.830	0.0165068
883.908	0.0163498
883.986	0.0165057
884.064	0.0163260
884.142	0.0165619
884.221	0.0165115
884.299	0.0164081
884.377	0.0165564
884.455	0.0165377
884.533	0.0163792
884.611	0.0165475
884.689	0.0164328
884.767	0.0163728
884.846	0.0163845
884.924	0.0163850
885.002	0.0162064
885.080	0.0159666
885.158	0.0160330
885.236	0.0162139
885.314	0.0160694
885.392	0.0161179
885.471	0.0160147
885.549	0.0158647
885.627	0.0159010
885.705	0.0157787
885.783	0.0159600
885.861	0.0158479
885.939	0.0158321
886.017	0.0157510
886.096	0.0158458
886.174	0.0158833
886.252	0.0159080
886.330	0.0157516
886.408	0.0156439
886.486	0.0157476
886.564	0.0156543
886.642	0.0156850
886.721	0.0157545
886.799	0.0156068
886.877	0.0154388
886.955	0.0155545
887.033	0.0155482
887.111	0.0154901
887.189	0.0155020
887.267	0.0155524
887.346	0.0155089
887.424	0.0153647
887.502	0.0153565
887.580	0.0155542
887.658	0.0152965
887.736	0.0154322
887.814	0.0154416
887.892	0.0154193
887.971	0.0153319
888.049	0.0153985
888.127	0.0153371
888.205	0.0152157
888.283	0.0153771
888.361	0.0154140
888.439	0.0154506
888.517	0.0154177
888.596	0.0153737
888.674	0.0155222
888.752	0.0156329
888.830	0.0155021
888.908	0.0155162
888.986	0.0155859
889.064	0.0155558
889.142	0.0155688
889.221	0.0156048
889.299	0.0156952
889.377	0.0157776
889.455	0.0157574
889.533	0.0157170
889.611	0.0156989
889.689	0.0157316
889.767	0.0157404
889.846	0.0159141
889.924	0.0159110
890.002	0.0158721
890.080	0.0158988
890.158	0.0159422
890.236	0.0160413
890.314	0.0159375
890.392	0.0160748
890.471	0.0159850
890.549	0.0159904
890.627	0.0160036
890.705	0.0159929
890.783	0.0161050
890.861	0.0160765
890.939	0.0159382
891.017	0.0160946
891.096	0.0159839
891.174	0.0160291
891.252	0.0161687
891.330	0.0160928
891.408	0.0161569
891.486	0.0160858
891.564	0.0161361
891.642	0.0159660
891.721	0.0160904
891.799	0.0161017
891.877	0.0160686
891.955	0.0160621
892.033	0.0160983
892.111	0.0160683
892.189	0.0161427
892.267	0.0159489
892.346	0.0160211
892.424	0.0161259
892.502	0.0159428
892.580	0.0159359
892.658	0.0161715
892.736	0.0161292
892.814	0.0161286
892.892	0.0161334
892.971	0.0160718
893.049	0.0161371
893.127	0.0161758
893.205	0.0161634
893.283	0.0161722
893.361	0.0162834
893.439	0.0162070
893.517	0.0161404
893.596	0.0161472
893.674	0.0161296
893.752	0.0162050
893.830	0.0162436
893.908	0.0163078
893.986	0.0161877
894.064	0.0162717
894.142	0.0163911
894.221	0.0162677
894.299	0.0163068
894.377	0.0162838
894.455	0.0160685
894.533	0.0162378
894.611	0.0161818
894.689	0.0161560
894.767	0.0162710
894.846	0.0162161
894.924	0.0159798
895.002	0.0159481
895.080	0.0162083
895.158	0.0162157
895.236	0.0160597
895.314	0.0160555
895.392	0.0161301
895.471	0.0161877
895.549	0.0161034
895.627	0.0161362
895.705	0.0160518
895.783	0.0160746
895.861	0.0161400
895.939	0.0160641
896.017	0.0159872
896.096	0.0159387
896.174	0.0160049
896.252	0.0159962
896.330	0.0159403
896.408	0.0158055
896.486	0.0158144
896.564	0.0157272
896.642	0.0159063
896.721	0.0159193
896.799	0.0156907
896.877	0.0157510
896.955	0.0158017
897.033	0.0157634
897.111	0.0156319
897.189	0.0156556
897.267	0.0154978
897.346	0.0155305
897.424	0.0156147
897.502	0.0156207
897.580	0.0156120
897.658	0.0155652
897.736	0.0155892
897.814	0.0156435
897.892	0.0156655
897.971	0.0155925
898.049	0.0158447
898.127	0.0158992
898.205	0.0157558
898.283	0.0158517
898.361	0.0159192
898.439	0.0159099
898.517	0.0160130
898.596	0.0159451
898.674	0.0159938
898.752	0.0160971
898.830	0.0160201
898.908	0.0161810
898.986	0.0161871
899.064	0.0161858
899.142	0.0161575
899.221	0.0160313
899.299	0.0161761
899.377	0.0161987
899.455	0.0160561
899.533	0.0160891
899.611	0.0161868
899.689	0.0162299
899.767	0.0161591
899.846	0.0160993
899.924	0.0162014
900.002	0.0161182
900.080	0.0160618
900.158	0.0160873
900.236	0.0162126
900.314	0.0161102
900.392	0.0161597
900.471	0.0161706
900.549	0.0161611
900.627	0.0160338
900.705	0.0159705
900.783	0.0160291
900.861	0.0160993
900.939	0.0160486
901.017	0.0159874
901.096	0.0160838
901.174	0.0160429
901.252	0.0158986
901.330	0.0159052
901.408	0.0161377
901.486	0.0161246
901.564	0.0159364
901.642	0.0160002
901.721	0.0159696
901.799	0.0160077
901.877	0.0160066
901.955	0.0159134
902.033	0.0159286
902.111	0.0159387
902.189	0.0158387
902.267	0.0159171
902.346	0.0159527
902.424	0.0158553
902.502	0.0159930
902.580	0.0160281
902.658	0.0160276
902.736	0.0159766
902.814	0.0159999
902.892	0.0158076
902.971	0.0158172
903.049	0.0159650
903.127	0.0159480
903.205	0.0160236
903.283	0.0158308
903.361	0.0156608
903.439	0.0159637
903.517	0.0158940
903.596	0.0158222
903.674	0.0158454
903.752	0.0158002
903.830	0.0157750
903.908	0.0158077
903.986	0.0158917
904.064	0.0157700
904.142	0.0156718
904.221	0.0157121
904.299	0.0157360
904.377	0.0157315
904.455	0.0157143
904.533	0.0157137
904.611	0.0156622
904.689	0.0156815
904.767	0.0156738
904.846	0.0157047
904.924	0.0157314
905.002	0.0157373
905.080	0.0158305
905.158	0.0158097
905.236	0.0158296
905.314	0.0159102
905.392	0.0158002
905.471	0.0158631
905.549	0.0160442
905.627	0.0157313
905.705	0.0159412
905.783	0.0158596
905.861	0.0158414
905.939	0.0158163
906.017	0.0157391
906.096	0.0157198
906.174	0.0158124
906.252	0.0157426
906.330	0.0157774
906.408	0.0156731
906.486	0.0155832
906.564	0.0157391
906.642	0.0156047
906.721	0.0157998
906.799	0.0157423
906.877	0.0157458
906.955	0.0158672
907.033	0.0157739
907.111	0.0157946
907.189	0.0158220
907.267	0.0157745
907.346	0.0156608
907.424	0.0158965
907.502	0.0158949
907.580	0.0158049
907.658	0.0157097
907.736	0.0158362
907.814	0.0156609
907.892	0.0157740
907.971	0.0158316
908.049	0.0158508
908.127	0.0159270
908.205	0.0158698
908.283	0.0158562
908.361	0.0156668
908.439	0.0155698
908.517	0.0154938
908.596	0.0156584
908.674	0.0155502
908.752	0.0155310
908.830	0.0154852
908.908	0.0154583
908.986	0.0153400
909.064	0.0154214
909.142	0.0153331
909.221	0.0153539
909.299	0.0154393
909.377	0.0154480
909.455	0.0155461
909.533	0.0154134
909.611	0.0154895
909.689	0.0156741
909.767	0.0156066
909.846	0.0157632
909.924	0.0158548
910.002	0.0158755
910.080	0.0159606
910.158	0.0161511
910.236	0.0161226
910.314	0.0162333
910.392	0.0163560
910.471	0.0163640
910.549	0.0165343
910.627	0.0167124
910.705	0.0165707
910.783	0.0167669
910.861	0.0168723
910.939	0.0169388
911.017	0.0168111
911.096	0.0170021
911.174	0.0170084
911.252	0.0170889
911.330	0.0171514
911.408	0.0169699
911.486	0.0169331
911.564	0.0169255
911.642	0.0170351
911.721	0.0169969
911.799	0.0167578
911.877	0.0168060
911.955	0.0168272
912.033	0.0168900
912.111	0.0167839
912.189	0.0169487
912.267	0.0167838
912.346	0.0168442
912.424	0.0166959
912.502	0.0167995
912.580	0.0168033
912.658	0.0167102
912.736	0.0166453
912.814	0.0166852
912.892	0.0167123
912.971	0.0166969
913.049	0.0166030
913.127	0.0165551
913.205	0.0164971
913.283	0.0163104
913.361	0.0162260
913.439	0.0163155
913.517	0.0160964
913.596	0.0159974
913.674	0.0159972
913.752	0.0159962
913.830	0.0159021
913.908	0.0157690
913.986	0.0157862
914.064	0.0157909
914.142	0.0158026
914.221	0.0158514
914.299	0.0156805
914.377	0.0158195
914.455	0.0157501
914.533	0.0156765
914.611	0.0157922
914.689	0.0158061
914.767	0.0157683
914.846	0.0156647
914.924	0.0159428
915.002	0.0158305
915.080	0.0157020
915.158	0.0157283
915.236	0.0157226
915.314	0.0155665
915.392	0.0157805
915.471	0.0157995
915.549	0.0155953
915.627	0.0157330
915.705	0.0156763
915.783	0.0155989
915.861	0.0155108
915.939	0.0155934
916.017	0.0156501
916.096	0.0156683
916.174	0.0158092
916.252	0.0157846
916.330	0.0157265
916.408	0.0157811
916.486	0.0158607
916.564	0.0158166
916.642	0.0160625
916.721	0.0159586
916.799	0.0159319
916.877	0.0159171
916.955	0.0159391
917.033	0.0158437
917.111	0.0157614
917.189	0.0158373
917.267	0.0157313
917.346	0.0154781
917.424	0.0154199
917.502	0.0154379
917.580	0.0155615
917.658	0.0156635
917.736	0.0154276
917.814	0.0155553
917.892	0.0156189
917.971	0.0154171
918.049	0.0156439
918.127	0.0155580
918.205	0.0155997
918.283	0.0156600
918.361	0.0158812
918.439	0.0157846
918.517	0.0157529
918.596	0.0158561
918.674	0.0158444
918.752	0.0160803
918.830	0.0161526
918.908	0.0160065
918.986	0.0159840
919.064	0.0161646
919.142	0.0161172
919.221	0.0161162
919.299	0.0160419
919.377	0.0160261
919.455	0.0160381
919.533	0.0160322
919.611	0.0159866
919.689	0.0161344
919.767	0.0160637
919.846	0.0160859
919.924	0.0160407
