06/29/2022	21:09:13	Ver.	4.1	UNKNOWN
Optical Delay	629.995835	Delta X		0.078125	Sweeps	1	Scan Rate	0/0
Coordinates	Axis 1	NaN	Axis 2	NaN	Axis 3	NaN	Axis 4	NaN	Axis 5	NaN	Axis 6	0.000000
TX Power	0.000000	RX Power	0.000000

629.996	0.0168795
630.074	0.0168954
630.152	0.0168897
630.230	0.0168436
630.308	0.0168524
630.386	0.0167833
630.465	0.0169048
630.543	0.0168511
630.621	0.0167796
630.699	0.0168687
630.777	0.0169375
630.855	0.0168292
630.933	0.0168301
631.011	0.0168593
631.090	0.0169476
631.168	0.0169721
631.246	0.0169632
631.324	0.0168016
631.402	0.0168130
631.480	0.0168761
631.558	0.0168972
631.636	0.0168451
631.715	0.0168764
631.793	0.0169190
631.871	0.0168980
631.949	0.0169324
632.027	0.0168507
632.105	0.0168584
632.183	0.0169253
632.261	0.0167697
632.340	0.0168130
632.418	0.0168915
632.496	0.0167419
632.574	0.0169310
632.652	0.0168648
632.730	0.0167884
632.808	0.0169332
632.886	0.0168658
632.965	0.0169305
633.043	0.0169111
633.121	0.0168834
633.199	0.0168457
633.277	0.0168129
633.355	0.0168513
633.433	0.0168292
633.511	0.0167024
633.590	0.0169205
633.668	0.0168885
633.746	0.0168843
633.824	0.0169498
633.902	0.0168853
633.980	0.0168031
634.058	0.0168916
634.136	0.0169697
634.215	0.0168159
634.293	0.0168092
634.371	0.0169330
634.449	0.0169118
634.527	0.0168516
634.605	0.0168094
634.683	0.0168595
634.761	0.0168231
634.840	0.0168532
634.918	0.0169978
634.996	0.0169519
635.074	0.0168384
635.152	0.0168721
635.230	0.0168919
635.308	0.0168433
635.386	0.0169467
635.465	0.0169071
635.543	0.0168427
635.621	0.0168557
635.699	0.0168984
635.777	0.0167984
635.855	0.0168449
635.933	0.0169000
636.011	0.0169545
636.090	0.0169254
636.168	0.0169662
636.246	0.0167901
636.324	0.0168884
636.402	0.0169441
636.480	0.0169002
636.558	0.0169197
636.636	0.0168652
636.715	0.0167783
636.793	0.0168586
636.871	0.0169416
636.949	0.0168559
637.027	0.0167953
637.105	0.0167509
637.183	0.0168456
637.261	0.0168668
637.340	0.0168573
637.418	0.0168897
637.496	0.0167368
637.574	0.0167487
637.652	0.0167889
637.730	0.0168549
637.808	0.0168970
637.886	0.0168169
637.965	0.0168966
638.043	0.0168150
638.121	0.0169267
638.199	0.0168264
638.277	0.0168314
638.355	0.0169229
638.433	0.0169109
638.511	0.0168085
638.590	0.0169991
638.668	0.0168581
638.746	0.0169303
638.824	0.0168541
638.902	0.0169072
638.980	0.0169382
639.058	0.0170282
639.136	0.0168052
639.215	0.0167908
639.293	0.0167451
639.371	0.0168884
639.449	0.0170282
639.527	0.0169859
639.605	0.0168491
639.683	0.0168162
639.761	0.0170118
639.840	0.0168235
639.918	0.0169387
639.996	0.0168102
640.074	0.0166940
640.152	0.0167748
640.230	0.0169244
640.308	0.0167470
640.386	0.0168658
640.465	0.0168956
640.543	0.0169600
640.621	0.0168456
640.699	0.0169580
640.777	0.0168408
640.855	0.0170101
640.933	0.0168420
641.011	0.0169798
641.090	0.0169768
641.168	0.0168092
641.246	0.0167509
641.324	0.0169352
641.402	0.0169778
641.480	0.0168704
641.558	0.0168507
641.636	0.0169033
641.715	0.0169428
641.793	0.0169617
641.871	0.0169743
641.949	0.0168665
642.027	0.0168814
642.105	0.0168366
642.183	0.0168523
642.261	0.0167918
642.340	0.0169123
642.418	0.0169465
642.496	0.0168979
642.574	0.0169468
642.652	0.0168017
642.730	0.0168082
642.808	0.0170261
642.886	0.0168959
642.965	0.0168815
643.043	0.0168035
643.121	0.0168165
643.199	0.0169626
643.277	0.0169331
643.355	0.0168161
643.433	0.0168945
643.511	0.0167064
643.590	0.0168646
643.668	0.0170601
643.746	0.0168803
643.824	0.0168262
643.902	0.0168656
643.980	0.0169205
644.058	0.0168990
644.136	0.0167673
644.215	0.0169378
644.293	0.0170090
644.371	0.0168914
644.449	0.0169460
644.527	0.0168817
644.605	0.0168726
644.683	0.0169148
644.761	0.0169879
644.840	0.0169659
644.918	0.0170027
644.996	0.0168368
645.074	0.0169582
645.152	0.0169649
645.230	0.0169070
645.308	0.0169093
645.386	0.0168993
645.465	0.0168468
645.543	0.0167764
645.621	0.0168690
645.699	0.0169189
645.777	0.0169272
645.855	0.0169311
645.933	0.0169760
646.011	0.0168790
646.090	0.0168880
646.168	0.0168433
646.246	0.0169817
646.324	0.0168312
646.402	0.0167978
646.480	0.0168240
646.558	0.0168397
646.636	0.0168623
646.715	0.0168608
646.793	0.0169912
646.871	0.0169232
646.949	0.0168900
647.027	0.0168592
647.105	0.0168704
647.183	0.0170315
647.261	0.0168385
647.340	0.0168487
647.418	0.0168901
647.496	0.0169256
647.574	0.0169558
647.652	0.0167625
647.730	0.0167674
647.808	0.0169224
647.886	0.0168039
647.965	0.0168467
648.043	0.0170041
648.121	0.0169771
648.199	0.0169611
648.277	0.0169374
648.355	0.0168573
648.433	0.0168768
648.511	0.0169019
648.590	0.0169043
648.668	0.0169841
648.746	0.0167994
648.824	0.0168178
648.902	0.0168405
648.980	0.0169434
649.058	0.0168906
649.136	0.0168450
649.215	0.0168333
649.293	0.0168640
649.371	0.0170168
649.449	0.0168069
649.527	0.0169647
649.605	0.0169049
649.683	0.0169400
649.761	0.0169988
649.840	0.0169893
649.918	0.0170629
649.996	0.0168029
650.074	0.0168781
650.152	0.0168764
650.230	0.0168470
650.308	0.0169421
650.386	0.0169450
650.465	0.0170782
650.543	0.0168841
650.621	0.0170164
650.699	0.0169463
650.777	0.0167747
650.855	0.0168494
650.933	0.0169537
651.011	0.0170391
651.090	0.0168521
651.168	0.0167938
651.246	0.0168848
651.324	0.0169255
651.402	0.0167940
651.480	0.0168231
651.558	0.0167149
651.636	0.0169012
651.715	0.0168773
651.793	0.0168865
651.871	0.0168658
651.949	0.0168902
652.027	0.0169596
652.105	0.0169490
652.183	0.0169004
652.261	0.0167929
652.340	0.0169092
652.418	0.0168106
652.496	0.0168895
652.574	0.0168175
652.652	0.0168826
652.730	0.0169122
652.808	0.0168340
652.886	0.0167276
652.965	0.0169514
653.043	0.0169987
653.121	0.0169095
653.199	0.0168778
653.277	0.0169661
653.355	0.0168255
653.433	0.0167951
653.511	0.0169646
653.590	0.0168653
653.668	0.0168301
653.746	0.0169383
653.824	0.0169958
653.902	0.0168519
653.980	0.0168732
654.058	0.0169641
654.136	0.0168591
654.215	0.0169675
654.293	0.0170152
654.371	0.0168758
654.449	0.0168365
654.527	0.0167775
654.605	0.0168237
654.683	0.0169576
654.761	0.0169436
654.840	0.0168413
654.918	0.0168451
654.996	0.0169601
655.074	0.0168936
655.152	0.0169273
655.230	0.0168543
655.308	0.0169159
655.386	0.0168150
655.465	0.0168525
655.543	0.0167648
655.621	0.0169199
655.699	0.0168258
655.777	0.0169979
655.855	0.0168830
655.933	0.0168893
656.011	0.0168826
656.090	0.0168810
656.168	0.0168130
656.246	0.0169911
656.324	0.0168385
656.402	0.0168043
656.480	0.0168210
656.558	0.0168287
656.636	0.0169650
656.715	0.0168958
656.793	0.0169478
656.871	0.0169396
656.949	0.0168334
657.027	0.0167586
657.105	0.0169151
657.183	0.0170554
657.261	0.0168058
657.340	0.0170299
657.418	0.0168670
657.496	0.0168726
657.574	0.0168619
657.652	0.0167757
657.730	0.0169163
657.808	0.0169200
657.886	0.0169170
657.965	0.0168368
658.043	0.0168749
658.121	0.0170235
658.199	0.0168429
658.277	0.0169434
658.355	0.0168383
658.433	0.0168124
658.511	0.0170311
658.590	0.0169657
658.668	0.0170504
658.746	0.0170374
658.824	0.0170132
658.902	0.0169613
658.980	0.0168343
659.058	0.0169044
659.136	0.0169320
659.215	0.0169112
659.293	0.0168426
659.371	0.0168982
659.449	0.0169620
659.527	0.0169420
659.605	0.0168730
659.683	0.0169560
659.761	0.0169852
659.840	0.0169106
659.918	0.0168596
659.996	0.0168813
660.074	0.0169158
660.152	0.0168609
660.230	0.0168787
660.308	0.0168246
660.386	0.0169923
660.465	0.0168520
660.543	0.0169147
660.621	0.0169243
660.699	0.0169891
660.777	0.0169588
660.855	0.0169633
660.933	0.0168346
661.011	0.0169266
661.090	0.0170698
661.168	0.0170277
661.246	0.0170383
661.324	0.0169199
661.402	0.0168903
661.480	0.0169498
661.558	0.0169445
661.636	0.0169239
661.715	0.0168517
661.793	0.0168944
661.871	0.0169458
661.949	0.0170735
662.027	0.0170071
662.105	0.0170038
662.183	0.0168607
662.261	0.0169397
662.340	0.0169714
662.418	0.0169825
662.496	0.0169954
662.574	0.0168886
662.652	0.0168307
662.730	0.0169024
662.808	0.0169286
662.886	0.0168879
662.965	0.0168423
663.043	0.0168970
663.121	0.0169025
663.199	0.0169736
663.277	0.0168094
663.355	0.0169657
663.433	0.0168713
663.511	0.0168858
663.590	0.0169547
663.668	0.0169643
663.746	0.0169385
663.824	0.0169755
663.902	0.0170406
663.980	0.0169350
664.058	0.0168513
664.136	0.0168847
664.215	0.0169707
664.293	0.0169802
664.371	0.0169116
664.449	0.0169249
664.527	0.0169093
664.605	0.0169107
664.683	0.0169504
664.761	0.0169402
664.840	0.0170258
664.918	0.0170181
664.996	0.0168771
665.074	0.0167937
665.152	0.0168765
665.230	0.0169350
665.308	0.0169486
665.386	0.0169537
665.465	0.0169620
665.543	0.0169978
665.621	0.0169612
665.699	0.0168517
665.777	0.0168527
665.855	0.0168903
665.933	0.0169656
666.011	0.0168365
666.090	0.0169676
666.168	0.0169476
666.246	0.0169408
666.324	0.0169789
666.402	0.0168775
666.480	0.0169028
666.558	0.0169149
666.636	0.0169740
666.715	0.0168843
666.793	0.0168869
666.871	0.0169215
666.949	0.0169221
667.027	0.0169485
667.105	0.0168121
667.183	0.0168140
667.261	0.0169319
667.340	0.0168098
667.418	0.0169551
667.496	0.0169870
667.574	0.0169981
667.652	0.0168711
667.730	0.0168160
667.808	0.0169144
667.886	0.0169055
667.965	0.0169180
668.043	0.0168641
668.121	0.0168619
668.199	0.0168277
668.277	0.0168612
668.355	0.0169647
668.433	0.0169459
668.511	0.0168642
668.590	0.0169957
668.668	0.0168636
668.746	0.0168712
668.824	0.0168729
668.902	0.0168636
668.980	0.0168596
669.058	0.0168137
669.136	0.0169578
669.215	0.0170128
669.293	0.0169173
669.371	0.0168610
669.449	0.0168813
669.527	0.0169059
669.605	0.0170249
669.683	0.0168385
669.761	0.0169038
669.840	0.0167854
669.918	0.0169132
669.996	0.0169720
670.074	0.0169770
670.152	0.0168595
670.230	0.0169437
670.308	0.0168306
670.386	0.0168507
670.465	0.0168822
670.543	0.0169151
670.621	0.0168382
670.699	0.0169595
670.777	0.0167791
670.855	0.0168331
670.933	0.0169261
671.011	0.0168255
671.090	0.0168961
671.168	0.0168797
671.246	0.0168761
671.324	0.0169418
671.402	0.0168885
671.480	0.0168501
671.558	0.0169167
671.636	0.0168966
671.715	0.0169685
671.793	0.0168688
671.871	0.0167892
671.949	0.0168636
672.027	0.0167328
672.105	0.0169681
672.183	0.0169573
672.261	0.0168021
672.340	0.0169324
672.418	0.0170396
672.496	0.0169222
672.574	0.0168380
672.652	0.0169325
672.730	0.0169429
672.808	0.0167335
672.886	0.0168358
672.965	0.0169611
673.043	0.0168922
673.121	0.0168023
673.199	0.0169380
673.277	0.0169067
673.355	0.0169209
673.433	0.0168555
673.511	0.0168725
673.590	0.0168042
673.668	0.0168963
673.746	0.0169112
673.824	0.0168043
673.902	0.0169808
673.980	0.0169141
674.058	0.0170042
674.136	0.0168514
674.215	0.0168896
674.293	0.0169416
674.371	0.0169935
674.449	0.0168357
674.527	0.0169274
674.605	0.0168535
674.683	0.0169507
674.761	0.0169730
674.840	0.0168469
674.918	0.0167919
674.996	0.0169211
675.074	0.0168727
675.152	0.0169228
675.230	0.0167777
675.308	0.0168296
675.386	0.0169955
675.465	0.0168903
675.543	0.0168147
675.621	0.0167683
675.699	0.0168708
675.777	0.0168702
675.855	0.0168398
675.933	0.0167787
676.011	0.0168166
676.090	0.0168813
676.168	0.0168378
676.246	0.0167487
676.324	0.0169646
676.402	0.0169007
676.480	0.0167554
676.558	0.0169449
676.636	0.0170090
676.715	0.0169374
676.793	0.0169286
676.871	0.0168373
676.949	0.0169567
677.027	0.0170825
677.105	0.0168759
677.183	0.0168528
677.261	0.0167706
677.340	0.0168605
677.418	0.0169228
677.496	0.0169347
677.574	0.0169344
677.652	0.0169862
677.730	0.0168480
677.808	0.0169128
677.886	0.0168742
677.965	0.0168620
678.043	0.0170235
678.121	0.0169191
678.199	0.0169571
678.277	0.0169608
678.355	0.0169406
678.433	0.0170959
678.511	0.0169691
678.590	0.0168546
678.668	0.0169851
678.746	0.0170395
678.824	0.0168130
678.902	0.0168176
678.980	0.0168653
679.058	0.0170771
679.136	0.0168716
679.215	0.0169509
679.293	0.0169155
679.371	0.0168775
679.449	0.0169918
679.527	0.0168439
679.605	0.0169570
679.683	0.0170069
679.761	0.0168081
679.840	0.0169594
679.918	0.0168182
679.996	0.0169419
680.074	0.0169284
680.152	0.0168576
680.230	0.0169369
680.308	0.0168892
680.386	0.0169893
680.465	0.0168615
680.543	0.0168423
680.621	0.0169525
680.699	0.0170103
680.777	0.0169034
680.855	0.0169956
680.933	0.0170074
681.011	0.0169840
681.090	0.0169646
681.168	0.0170002
681.246	0.0169037
681.324	0.0169263
681.402	0.0170259
681.480	0.0170145
681.558	0.0168463
681.636	0.0168584
681.715	0.0168847
681.793	0.0167989
681.871	0.0167801
681.949	0.0168978
682.027	0.0170854
682.105	0.0168183
682.183	0.0168404
682.261	0.0168773
682.340	0.0168712
682.418	0.0168523
682.496	0.0169296
682.574	0.0168646
682.652	0.0170515
682.730	0.0169673
682.808	0.0167934
682.886	0.0168842
682.965	0.0168351
683.043	0.0169632
683.121	0.0169112
683.199	0.0169770
683.277	0.0168951
683.355	0.0168684
683.433	0.0169601
683.511	0.0167876
683.590	0.0168420
683.668	0.0167937
683.746	0.0169032
683.824	0.0168601
683.902	0.0169476
683.980	0.0168652
684.058	0.0170079
684.136	0.0169380
684.215	0.0169098
684.293	0.0168415
684.371	0.0168403
684.449	0.0168549
684.527	0.0168890
684.605	0.0169705
684.683	0.0169304
684.761	0.0169305
684.840	0.0169279
684.918	0.0168839
684.996	0.0169731
685.074	0.0168893
685.152	0.0167845
685.230	0.0169247
685.308	0.0169540
685.386	0.0168958
685.465	0.0167989
685.543	0.0168519
685.621	0.0169107
685.699	0.0168239
685.777	0.0169465
685.855	0.0169650
685.933	0.0168674
686.011	0.0166299
686.090	0.0169266
686.168	0.0168774
686.246	0.0167374
686.324	0.0166689
686.402	0.0169313
686.480	0.0168488
686.558	0.0169013
686.636	0.0168366
686.715	0.0168897
686.793	0.0169360
686.871	0.0169508
686.949	0.0168177
687.027	0.0170808
687.105	0.0169294
687.183	0.0167705
687.261	0.0169646
687.340	0.0169324
687.418	0.0168089
687.496	0.0168932
687.574	0.0168533
687.652	0.0169130
687.730	0.0169135
687.808	0.0168700
687.886	0.0169311
687.965	0.0169652
688.043	0.0167964
688.121	0.0168753
688.199	0.0169073
688.277	0.0169612
688.355	0.0169250
688.433	0.0169010
688.511	0.0169125
688.590	0.0170054
688.668	0.0170423
688.746	0.0169298
688.824	0.0168584
688.902	0.0168720
688.980	0.0170525
689.058	0.0168861
689.136	0.0168642
689.215	0.0168097
689.293	0.0169760
689.371	0.0169298
689.449	0.0169440
689.527	0.0168873
689.605	0.0167890
689.683	0.0169469
689.761	0.0169257
689.840	0.0169122
689.918	0.0168480
689.996	0.0168466
690.074	0.0169244
690.152	0.0169841
690.230	0.0168767
690.308	0.0167656
690.386	0.0168694
690.465	0.0168307
690.543	0.0169048
690.621	0.0170210
690.699	0.0168880
690.777	0.0168014
690.855	0.0167489
690.933	0.0168715
691.011	0.0168497
691.090	0.0168993
691.168	0.0169058
691.246	0.0168768
691.324	0.0168909
691.402	0.0169236
691.480	0.0170023
691.558	0.0169234
691.636	0.0167795
691.715	0.0168575
691.793	0.0168543
691.871	0.0168497
691.949	0.0169894
692.027	0.0169587
692.105	0.0169291
692.183	0.0169542
692.261	0.0168223
692.340	0.0169746
692.418	0.0170885
692.496	0.0168782
692.574	0.0169917
692.652	0.0168882
692.730	0.0169063
692.808	0.0170569
692.886	0.0168739
692.965	0.0168843
693.043	0.0169811
693.121	0.0168948
693.199	0.0167909
693.277	0.0168880
693.355	0.0168887
693.433	0.0168020
693.511	0.0168398
693.590	0.0170699
693.668	0.0169930
693.746	0.0169347
693.824	0.0169069
693.902	0.0169813
693.980	0.0168800
694.058	0.0170522
694.136	0.0169573
694.215	0.0168099
694.293	0.0169256
694.371	0.0169688
694.449	0.0169852
694.527	0.0169900
694.605	0.0168895
694.683	0.0169739
694.761	0.0169531
694.840	0.0168448
694.918	0.0169174
694.996	0.0168682
695.074	0.0169471
695.152	0.0169183
695.230	0.0168602
695.308	0.0168880
695.386	0.0169328
695.465	0.0169033
695.543	0.0168954
695.621	0.0169350
695.699	0.0170003
695.777	0.0169084
695.855	0.0170660
695.933	0.0169147
696.011	0.0167965
696.090	0.0169688
696.168	0.0169904
696.246	0.0170135
696.324	0.0169312
696.402	0.0169011
696.480	0.0170251
696.558	0.0168125
696.636	0.0167513
696.715	0.0168970
696.793	0.0170348
696.871	0.0170441
696.949	0.0169289
697.027	0.0168870
697.105	0.0168800
697.183	0.0169491
697.261	0.0169363
697.340	0.0168576
697.418	0.0168201
697.496	0.0168801
697.574	0.0169669
697.652	0.0167994
697.730	0.0169382
697.808	0.0169686
697.886	0.0168929
697.965	0.0167961
698.043	0.0169027
698.121	0.0169776
698.199	0.0169287
698.277	0.0170311
698.355	0.0167876
698.433	0.0168223
698.511	0.0170218
698.590	0.0168233
698.668	0.0168581
698.746	0.0168623
698.824	0.0168969
698.902	0.0168989
698.980	0.0169067
699.058	0.0168481
699.136	0.0167955
699.215	0.0169842
699.293	0.0169318
699.371	0.0169891
699.449	0.0170322
699.527	0.0168100
699.605	0.0166456
699.683	0.0169137
699.761	0.0169674
699.840	0.0168592
699.918	0.0168153
699.996	0.0168887
700.074	0.0168388
700.152	0.0168545
700.230	0.0168561
700.308	0.0167961
700.386	0.0168285
700.465	0.0169128
700.543	0.0167417
700.621	0.0167448
700.699	0.0168491
700.777	0.0167873
700.855	0.0168941
700.933	0.0168237
701.011	0.0168884
701.090	0.0168192
701.168	0.0168237
701.246	0.0168386
701.324	0.0168357
701.402	0.0170093
701.480	0.0169349
701.558	0.0167653
701.636	0.0166737
701.715	0.0170028
701.793	0.0169684
701.871	0.0169465
701.949	0.0169006
702.027	0.0168423
702.105	0.0167383
702.183	0.0166687
702.261	0.0167527
702.340	0.0168245
702.418	0.0168897
702.496	0.0169245
702.574	0.0168294
702.652	0.0167566
702.730	0.0167126
702.808	0.0167460
702.886	0.0170058
702.965	0.0168354
703.043	0.0168563
703.121	0.0168076
703.199	0.0169374
703.277	0.0168076
703.355	0.0168454
703.433	0.0167773
703.511	0.0167808
703.590	0.0168961
703.668	0.0168658
703.746	0.0169042
703.824	0.0168615
703.902	0.0168604
703.980	0.0168453
704.058	0.0168025
704.136	0.0167932
704.215	0.0169350
704.293	0.0168779
704.371	0.0167143
704.449	0.0168153
704.527	0.0168247
704.605	0.0168881
704.683	0.0168700
704.761	0.0168576
704.840	0.0169289
704.918	0.0169115
704.996	0.0168256
705.074	0.0168531
705.152	0.0168874
705.230	0.0168269
705.308	0.0168374
705.386	0.0166518
705.465	0.0169685
705.543	0.0168366
705.621	0.0168121
705.699	0.0168111
705.777	0.0169275
705.855	0.0169080
705.933	0.0169238
706.011	0.0169571
706.090	0.0168680
706.168	0.0169010
706.246	0.0168564
706.324	0.0168384
706.402	0.0170522
706.480	0.0169209
706.558	0.0170360
706.636	0.0169096
706.715	0.0170332
706.793	0.0169983
706.871	0.0169296
706.949	0.0169244
707.027	0.0169609
707.105	0.0170811
707.183	0.0169267
707.261	0.0169072
707.340	0.0168625
707.418	0.0169684
707.496	0.0169086
707.574	0.0170338
707.652	0.0169811
707.730	0.0167921
707.808	0.0168649
707.886	0.0170161
707.965	0.0170301
708.043	0.0169861
708.121	0.0167989
708.199	0.0169520
708.277	0.0169447
708.355	0.0169771
708.433	0.0169163
708.511	0.0170415
708.590	0.0169298
708.668	0.0169524
708.746	0.0169888
708.824	0.0169872
708.902	0.0169246
708.980	0.0168710
709.058	0.0168559
709.136	0.0169337
709.215	0.0167850
709.293	0.0168237
709.371	0.0169200
709.449	0.0166832
709.527	0.0168896
709.605	0.0169039
709.683	0.0168335
709.761	0.0168893
709.840	0.0167132
709.918	0.0168038
709.996	0.0167720
710.074	0.0168350
710.152	0.0168395
710.230	0.0168204
710.308	0.0169454
710.386	0.0167312
710.465	0.0169318
710.543	0.0168395
710.621	0.0168169
710.699	0.0168333
710.777	0.0167850
710.855	0.0167661
710.933	0.0169280
711.011	0.0169710
711.090	0.0169292
711.168	0.0169933
711.246	0.0169567
711.324	0.0170081
711.402	0.0169962
711.480	0.0170306
711.558	0.0170623
711.636	0.0170176
711.715	0.0171475
711.793	0.0171213
711.871	0.0170531
711.949	0.0170150
712.027	0.0171208
712.105	0.0171426
712.183	0.0172646
712.261	0.0172518
712.340	0.0170595
712.418	0.0171872
712.496	0.0170564
712.574	0.0169737
712.652	0.0169354
712.730	0.0169076
712.808	0.0167966
712.886	0.0168494
712.965	0.0166974
713.043	0.0165366
713.121	0.0164639
713.199	0.0164529
713.277	0.0162803
713.355	0.0162592
713.433	0.0162491
713.511	0.0163406
713.590	0.0162371
713.668	0.0162804
713.746	0.0164770
713.824	0.0164092
713.902	0.0164719
713.980	0.0168021
714.058	0.0169354
714.136	0.0171411
714.215	0.0172134
714.293	0.0174464
714.371	0.0177480
714.449	0.0177682
714.527	0.0179639
714.605	0.0180927
714.683	0.0182503
714.761	0.0183625
714.840	0.0182524
714.918	0.0181882
714.996	0.0182865
715.074	0.0181472
715.152	0.0179782
715.230	0.0177683
715.308	0.0176152
715.386	0.0171656
715.465	0.0169884
715.543	0.0165371
715.621	0.0162113
715.699	0.0157833
715.777	0.0153815
715.855	0.0150234
715.933	0.0147404
716.011	0.0144241
716.090	0.0141431
716.168	0.0140556
716.246	0.0140214
716.324	0.0140185
716.402	0.0139630
716.480	0.0144816
716.558	0.0146373
716.636	0.0150107
716.715	0.0156255
716.793	0.0160503
716.871	0.0165881
716.949	0.0171642
717.027	0.0176199
717.105	0.0182980
717.183	0.0186420
717.261	0.0190370
717.340	0.0195210
717.418	0.0197433
717.496	0.0198270
717.574	0.0200526
717.652	0.0201410
717.730	0.0200405
717.808	0.0199078
717.886	0.0199370
717.965	0.0197194
718.043	0.0195651
718.121	0.0193712
718.199	0.0192959
718.277	0.0190890
718.355	0.0188334
718.433	0.0184966
718.511	0.0182931
718.590	0.0181017
718.668	0.0176003
718.746	0.0173360
718.824	0.0168016
718.902	0.0161579
718.980	0.0157265
719.058	0.0149728
719.136	0.0144021
719.215	0.0138191
719.293	0.0133401
719.371	0.0126595
719.449	0.0120231
719.527	0.0118380
719.605	0.0115988
719.683	0.0115373
719.761	0.0118916
719.840	0.0121928
719.918	0.0126782
719.996	0.0132809
720.074	0.0140888
720.152	0.0148000
720.230	0.0155426
720.308	0.0167087
720.386	0.0176292
720.465	0.0185194
720.543	0.0195014
720.621	0.0203236
720.699	0.0207432
720.777	0.0213281
720.855	0.0216663
720.933	0.0218546
721.011	0.0220425
721.090	0.0218965
721.168	0.0216379
721.246	0.0212708
721.324	0.0206271
721.402	0.0201211
721.480	0.0195370
721.558	0.0191399
721.636	0.0184473
721.715	0.0176949
721.793	0.0171971
721.871	0.0166985
721.949	0.0161185
722.027	0.0156314
722.105	0.0152905
722.183	0.0148505
722.261	0.0144714
722.340	0.0144099
722.418	0.0140867
722.496	0.0139159
722.574	0.0140030
722.652	0.0139925
722.730	0.0144368
722.808	0.0145884
722.886	0.0148013
722.965	0.0153261
723.043	0.0156101
723.121	0.0159901
723.199	0.0165690
723.277	0.0170840
723.355	0.0173660
723.433	0.0177517
723.511	0.0182897
723.590	0.0185691
723.668	0.0188985
723.746	0.0191756
723.824	0.0193395
723.902	0.0193750
723.980	0.0193219
724.058	0.0193411
724.136	0.0190906
724.215	0.0187636
724.293	0.0184476
724.371	0.0180148
724.449	0.0175189
724.527	0.0171116
724.605	0.0166718
724.683	0.0161953
724.761	0.0156982
724.840	0.0150919
724.918	0.0147764
724.996	0.0143601
725.074	0.0139429
725.152	0.0137650
725.230	0.0133695
725.308	0.0133905
725.386	0.0131493
725.465	0.0132167
725.543	0.0132181
725.621	0.0134944
725.699	0.0138354
725.777	0.0142680
725.855	0.0148743
725.933	0.0155029
726.011	0.0161736
726.090	0.0170045
726.168	0.0177514
726.246	0.0185609
726.324	0.0193383
726.402	0.0202171
726.480	0.0206866
726.558	0.0211565
726.636	0.0215759
726.715	0.0217402
726.793	0.0219257
726.871	0.0218433
726.949	0.0213867
727.027	0.0211217
727.105	0.0205138
727.183	0.0199688
727.261	0.0192126
727.340	0.0185133
727.418	0.0177332
727.496	0.0169781
727.574	0.0161646
727.652	0.0153764
727.730	0.0147935
727.808	0.0141463
727.886	0.0138028
727.965	0.0134818
728.043	0.0133142
728.121	0.0132631
728.199	0.0132928
728.277	0.0134213
728.355	0.0134838
728.433	0.0139236
728.511	0.0142812
728.590	0.0146658
728.668	0.0150574
728.746	0.0154425
728.824	0.0158552
728.902	0.0163105
728.980	0.0168223
729.058	0.0170575
729.136	0.0174001
729.215	0.0176568
729.293	0.0180353
729.371	0.0181238
729.449	0.0182824
729.527	0.0185088
729.605	0.0185268
729.683	0.0185653
729.761	0.0184975
729.840	0.0185372
729.918	0.0185879
729.996	0.0183637
730.074	0.0181165
730.152	0.0181164
730.230	0.0177457
730.308	0.0174901
730.386	0.0174004
730.465	0.0171100
730.543	0.0167846
730.621	0.0165188
730.699	0.0162668
730.777	0.0162018
730.855	0.0160188
730.933	0.0156871
731.011	0.0155602
731.090	0.0154089
731.168	0.0153515
731.246	0.0153751
731.324	0.0154557
731.402	0.0155900
731.480	0.0157760
731.558	0.0160143
731.636	0.0161605
731.715	0.0165215
731.793	0.0169218
731.871	0.0173724
731.949	0.0178603
732.027	0.0180903
732.105	0.0182641
732.183	0.0186713
732.261	0.0186399
732.340	0.0186824
732.418	0.0188349
732.496	0.0186550
732.574	0.0184376
732.652	0.0184437
732.730	0.0182294
732.808	0.0181069
732.886	0.0179449
732.965	0.0176059
733.043	0.0175203
733.121	0.0172507
733.199	0.0170954
733.277	0.0168798
733.355	0.0168378
733.433	0.0167377
733.511	0.0164758
733.590	0.0163121
733.668	0.0161880
733.746	0.0159969
733.824	0.0158500
733.902	0.0158770
733.980	0.0157556
734.058	0.0157237
734.136	0.0158546
734.215	0.0157526
734.293	0.0158862
734.371	0.0159468
734.449	0.0159516
734.527	0.0160860
734.605	0.0161031
734.683	0.0161894
734.761	0.0164075
734.840	0.0165260
734.918	0.0167487
734.996	0.0169366
735.074	0.0171247
735.152	0.0171965
735.230	0.0172348
735.308	0.0172995
735.386	0.0173861
735.465	0.0174952
735.543	0.0175734
735.621	0.0176017
735.699	0.0175021
735.777	0.0176145
735.855	0.0173956
735.933	0.0171301
736.011	0.0169819
736.090	0.0169947
736.168	0.0167892
736.246	0.0165116
736.324	0.0164493
736.402	0.0163334
736.480	0.0163287
736.558	0.0163219
736.636	0.0161686
736.715	0.0162339
736.793	0.0162482
736.871	0.0164149
736.949	0.0163648
737.027	0.0164518
737.105	0.0164949
737.183	0.0167082
737.261	0.0169854
737.340	0.0169177
737.418	0.0172234
737.496	0.0173093
737.574	0.0173988
737.652	0.0174977
737.730	0.0175044
737.808	0.0175630
737.886	0.0174431
737.965	0.0174210
738.043	0.0175139
738.121	0.0172579
738.199	0.0172290
738.277	0.0170923
738.355	0.0170105
738.433	0.0170358
738.511	0.0170417
738.590	0.0167805
738.668	0.0169037
738.746	0.0168314
738.824	0.0165199
738.902	0.0165018
738.980	0.0164194
739.058	0.0165154
739.136	0.0163368
739.215	0.0164217
739.293	0.0164151
739.371	0.0164692
739.449	0.0166496
739.527	0.0166624
739.605	0.0167755
739.683	0.0169527
739.761	0.0171465
739.840	0.0172104
739.918	0.0173609
739.996	0.0173785
740.074	0.0174546
740.152	0.0175841
740.230	0.0176162
740.308	0.0175299
740.386	0.0175153
740.465	0.0175789
740.543	0.0175538
740.621	0.0173267
740.699	0.0171265
740.777	0.0170721
740.855	0.0169417
740.933	0.0166660
741.011	0.0166061
741.090	0.0165282
741.168	0.0163203
741.246	0.0162287
741.324	0.0161804
741.402	0.0163771
741.480	0.0163702
741.558	0.0163289
741.636	0.0162409
741.715	0.0164661
741.793	0.0165562
741.871	0.0165041
741.949	0.0166053
742.027	0.0164523
742.105	0.0166019
742.183	0.0166793
742.261	0.0166605
742.340	0.0166190
742.418	0.0167580
742.496	0.0169587
742.574	0.0169099
742.652	0.0169510
742.730	0.0169337
742.808	0.0169268
742.886	0.0169210
742.965	0.0169112
743.043	0.0169250
743.121	0.0168102
743.199	0.0169319
743.277	0.0168795
743.355	0.0168461
743.433	0.0168322
743.511	0.0169658
743.590	0.0169732
743.668	0.0168258
743.746	0.0168269
743.824	0.0168594
743.902	0.0168173
743.980	0.0168222
744.058	0.0167710
744.136	0.0167488
744.215	0.0168928
744.293	0.0169283
744.371	0.0169595
744.449	0.0170490
744.527	0.0170839
744.605	0.0170137
744.683	0.0171522
744.761	0.0170448
744.840	0.0172081
744.918	0.0172109
744.996	0.0171775
745.074	0.0171758
745.152	0.0172066
745.230	0.0172060
745.308	0.0172542
745.386	0.0171944
745.465	0.0172773
745.543	0.0173724
745.621	0.0171733
745.699	0.0171386
745.777	0.0172346
745.855	0.0171609
745.933	0.0170081
746.011	0.0169665
746.090	0.0169236
746.168	0.0168909
746.246	0.0167973
746.324	0.0167239
746.402	0.0167480
746.480	0.0164992
746.558	0.0165006
746.636	0.0164703
746.715	0.0164887
746.793	0.0164568
746.871	0.0164304
746.949	0.0164370
747.027	0.0164297
747.105	0.0165728
747.183	0.0165894
747.261	0.0166717
747.340	0.0167780
747.418	0.0166611
747.496	0.0168004
747.574	0.0168282
747.652	0.0170369
747.730	0.0169936
747.808	0.0170078
747.886	0.0169398
747.965	0.0170486
748.043	0.0170013
748.121	0.0169033
748.199	0.0169800
748.277	0.0170130
748.355	0.0170657
748.433	0.0170364
748.511	0.0169880
748.590	0.0170237
748.668	0.0170078
748.746	0.0169678
748.824	0.0170522
748.902	0.0171460
748.980	0.0171523
749.058	0.0170368
749.136	0.0170762
749.215	0.0170376
749.293	0.0170199
749.371	0.0171181
749.449	0.0170242
749.527	0.0168996
749.605	0.0169788
749.683	0.0168594
749.761	0.0168741
749.840	0.0169273
749.918	0.0169259
749.996	0.0169239
750.074	0.0168438
750.152	0.0167614
750.230	0.0165848
750.308	0.0166106
750.386	0.0166699
750.465	0.0163924
750.543	0.0164749
750.621	0.0163748
750.699	0.0163606
750.777	0.0163633
750.855	0.0163176
750.933	0.0162759
751.011	0.0162375
751.090	0.0163185
751.168	0.0164425
751.246	0.0163927
751.324	0.0163745
751.402	0.0166003
751.480	0.0166476
751.558	0.0165067
751.636	0.0166927
751.715	0.0168887
751.793	0.0170500
751.871	0.0171388
751.949	0.0171922
752.027	0.0173989
752.105	0.0173734
752.183	0.0173939
752.261	0.0174861
752.340	0.0174710
752.418	0.0174988
752.496	0.0175050
752.574	0.0176058
752.652	0.0175491
752.730	0.0174555
752.808	0.0174648
752.886	0.0172234
752.965	0.0172505
753.043	0.0171669
753.121	0.0172249
753.199	0.0171625
753.277	0.0169376
753.355	0.0170528
753.433	0.0169538
753.511	0.0167849
753.590	0.0167542
753.668	0.0166256
753.746	0.0167615
753.824	0.0166421
753.902	0.0166679
753.980	0.0167070
754.058	0.0165608
754.136	0.0165523
754.215	0.0165459
754.293	0.0164320
754.371	0.0164343
754.449	0.0164766
754.527	0.0164674
754.605	0.0168521
754.683	0.0165346
754.761	0.0167246
754.840	0.0166975
754.918	0.0167610
754.996	0.0167822
755.074	0.0168668
755.152	0.0170390
755.230	0.0171239
755.308	0.0171428
755.386	0.0170194
755.465	0.0172290
755.543	0.0173013
755.621	0.0172673
755.699	0.0172920
755.777	0.0173473
755.855	0.0172781
755.933	0.0172356
756.011	0.0172177
756.090	0.0170888
756.168	0.0172007
756.246	0.0170174
756.324	0.0168677
756.402	0.0168245
756.480	0.0167547
756.558	0.0167479
756.636	0.0167616
756.715	0.0165549
756.793	0.0164527
756.871	0.0165589
756.949	0.0165666
757.027	0.0163627
757.105	0.0166540
757.183	0.0167465
757.261	0.0166628
757.340	0.0168143
757.418	0.0170139
757.496	0.0171045
757.574	0.0170489
757.652	0.0173120
757.730	0.0173286
757.808	0.0173508
757.886	0.0173253
757.965	0.0172647
758.043	0.0173982
758.121	0.0173470
758.199	0.0172463
758.277	0.0172450
758.355	0.0171914
758.433	0.0170620
758.511	0.0170132
758.590	0.0167717
758.668	0.0165855
758.746	0.0166554
758.824	0.0165899
758.902	0.0163537
758.980	0.0163042
759.058	0.0163635
759.136	0.0163375
759.215	0.0162859
759.293	0.0163206
759.371	0.0163367
759.449	0.0162859
759.527	0.0164774
759.605	0.0164677
759.683	0.0164414
759.761	0.0164587
759.840	0.0166497
759.918	0.0168295
759.996	0.0168236
760.074	0.0169824
760.152	0.0168908
760.230	0.0171110
760.308	0.0172308
760.386	0.0173378
760.465	0.0173041
760.543	0.0172987
760.621	0.0174350
760.699	0.0175539
760.777	0.0174792
760.855	0.0175170
760.933	0.0174919
761.011	0.0174393
761.090	0.0173100
761.168	0.0173212
761.246	0.0172479
761.324	0.0170998
761.402	0.0170564
761.480	0.0169147
761.558	0.0167292
761.636	0.0168030
761.715	0.0165765
761.793	0.0166393
761.871	0.0163717
761.949	0.0163406
762.027	0.0162396
762.105	0.0161285
762.183	0.0161786
762.261	0.0162328
762.340	0.0162376
762.418	0.0161720
762.496	0.0163374
762.574	0.0163905
762.652	0.0164869
762.730	0.0164916
762.808	0.0165651
762.886	0.0166261
762.965	0.0166940
763.043	0.0168570
763.121	0.0171017
763.199	0.0169490
763.277	0.0170316
763.355	0.0170576
763.433	0.0172732
763.511	0.0173371
763.590	0.0172480
763.668	0.0173492
763.746	0.0173083
763.824	0.0172008
763.902	0.0173990
763.980	0.0171966
764.058	0.0171967
764.136	0.0171317
764.215	0.0170251
764.293	0.0167640
764.371	0.0167965
764.449	0.0167793
764.527	0.0167302
764.605	0.0165868
764.683	0.0166220
764.761	0.0165264
764.840	0.0164980
764.918	0.0166235
764.996	0.0164795
765.074	0.0164888
765.152	0.0165363
765.230	0.0165102
765.308	0.0165370
765.386	0.0166119
765.465	0.0166177
765.543	0.0167312
765.621	0.0168296
765.699	0.0167970
765.777	0.0168848
765.855	0.0170497
765.933	0.0169642
766.011	0.0170523
766.090	0.0171597
766.168	0.0172610
766.246	0.0173814
766.324	0.0173588
766.402	0.0174214
766.480	0.0173583
766.558	0.0172794
766.636	0.0174160
766.715	0.0172253
766.793	0.0172823
766.871	0.0169994
766.949	0.0171353
767.027	0.0170342
767.105	0.0168628
767.183	0.0169221
767.261	0.0165739
767.340	0.0166335
767.418	0.0165872
767.496	0.0165163
767.574	0.0163684
767.652	0.0162212
767.730	0.0164067
767.808	0.0162746
767.886	0.0162834
767.965	0.0162251
768.043	0.0164539
768.121	0.0163673
768.199	0.0165247
768.277	0.0167162
768.355	0.0166385
768.433	0.0165546
768.511	0.0168174
768.590	0.0169880
768.668	0.0169299
768.746	0.0170446
768.824	0.0171671
768.902	0.0172944
768.980	0.0171574
769.058	0.0171868
769.136	0.0172513
769.215	0.0172778
769.293	0.0173360
769.371	0.0172977
769.449	0.0173955
769.527	0.0172347
769.605	0.0172896
769.683	0.0172935
769.761	0.0172182
769.840	0.0172581
769.918	0.0172270
769.996	0.0172720
770.074	0.0170914
770.152	0.0171328
770.230	0.0171238
770.308	0.0171112
770.386	0.0170000
770.465	0.0170605
770.543	0.0170033
770.621	0.0167709
770.699	0.0169023
770.777	0.0167641
770.855	0.0168426
770.933	0.0166318
771.011	0.0168053
771.090	0.0166479
771.168	0.0166895
771.246	0.0167188
771.324	0.0167368
771.402	0.0167652
771.480	0.0167898
771.558	0.0166625
771.636	0.0167184
771.715	0.0166859
771.793	0.0167608
771.871	0.0166955
771.949	0.0167809
772.027	0.0168121
772.105	0.0167974
772.183	0.0167500
772.261	0.0167240
772.340	0.0167297
772.418	0.0167521
772.496	0.0167798
772.574	0.0166042
772.652	0.0169364
772.730	0.0169002
772.808	0.0166592
772.886	0.0167282
772.965	0.0169111
773.043	0.0168788
773.121	0.0168898
773.199	0.0169402
773.277	0.0169003
773.355	0.0169102
773.433	0.0169997
773.511	0.0168742
773.590	0.0169968
773.668	0.0169356
773.746	0.0169228
773.824	0.0170625
773.902	0.0169049
773.980	0.0170095
774.058	0.0171021
774.136	0.0169650
774.215	0.0170047
774.293	0.0169485
774.371	0.0169593
774.449	0.0168639
774.527	0.0170695
774.605	0.0169929
774.683	0.0167561
774.761	0.0168407
774.840	0.0170034
774.918	0.0168794
774.996	0.0169829
775.074	0.0168967
775.152	0.0168961
775.230	0.0170920
775.308	0.0168738
775.386	0.0168774
775.465	0.0170537
775.543	0.0169313
775.621	0.0169625
775.699	0.0168726
775.777	0.0167471
775.855	0.0168665
775.933	0.0167667
776.011	0.0166669
776.090	0.0168044
776.168	0.0167594
776.246	0.0168071
776.324	0.0165783
776.402	0.0168160
776.480	0.0167484
776.558	0.0167770
776.636	0.0166449
776.715	0.0167171
776.793	0.0167120
776.871	0.0166949
776.949	0.0167439
777.027	0.0168125
777.105	0.0167494
777.183	0.0168532
777.261	0.0168188
777.340	0.0169536
777.418	0.0168661
777.496	0.0168986
777.574	0.0169275
777.652	0.0168887
777.730	0.0171265
777.808	0.0170438
777.886	0.0168903
777.965	0.0168586
778.043	0.0169930
778.121	0.0168829
778.199	0.0169234
778.277	0.0168347
778.355	0.0167933
778.433	0.0168483
778.511	0.0168393
778.590	0.0167894
778.668	0.0169183
778.746	0.0168452
778.824	0.0168232
778.902	0.0167957
778.980	0.0168930
779.058	0.0169344
779.136	0.0168665
779.215	0.0168112
779.293	0.0169656
779.371	0.0170631
779.449	0.0168905
779.527	0.0167222
779.605	0.0168433
779.683	0.0168864
779.761	0.0169532
779.840	0.0169157
779.918	0.0169999
779.996	0.0169372
780.074	0.0170388
780.152	0.0170820
780.230	0.0169256
780.308	0.0169795
780.386	0.0170565
780.465	0.0170934
780.543	0.0170007
780.621	0.0169810
780.699	0.0170576
780.777	0.0171405
780.855	0.0171802
780.933	0.0170404
781.011	0.0169802
781.090	0.0170280
781.168	0.0171384
781.246	0.0169042
781.324	0.0169557
781.402	0.0170151
781.480	0.0169144
781.558	0.0166490
781.636	0.0168231
781.715	0.0167496
781.793	0.0167616
781.871	0.0167107
781.949	0.0167771
782.027	0.0166740
782.105	0.0167765
782.183	0.0167136
782.261	0.0167308
782.340	0.0167635
782.418	0.0167250
782.496	0.0168610
782.574	0.0168288
782.652	0.0169147
782.730	0.0170169
782.808	0.0169878
782.886	0.0170480
782.965	0.0171554
783.043	0.0171003
783.121	0.0171542
783.199	0.0171026
783.277	0.0173968
783.355	0.0174196
783.433	0.0171764
783.511	0.0173409
783.590	0.0174416
783.668	0.0172688
783.746	0.0172640
783.824	0.0172230
783.902	0.0173479
783.980	0.0172096
784.058	0.0171687
784.136	0.0170771
784.215	0.0170070
784.293	0.0171020
784.371	0.0168896
784.449	0.0168755
784.527	0.0169225
784.605	0.0168053
784.683	0.0168575
784.761	0.0166406
784.840	0.0167908
784.918	0.0166517
784.996	0.0165668
785.074	0.0165913
785.152	0.0165542
785.230	0.0165243
785.308	0.0165982
785.386	0.0164035
785.465	0.0164596
785.543	0.0166110
785.621	0.0166633
785.699	0.0166538
785.777	0.0168215
785.855	0.0166627
785.933	0.0167129
786.011	0.0168050
786.090	0.0168948
786.168	0.0169983
786.246	0.0170174
786.324	0.0170794
786.402	0.0171309
786.480	0.0171589
786.558	0.0171574
786.636	0.0170491
786.715	0.0170902
786.793	0.0170792
786.871	0.0171677
786.949	0.0171563
787.027	0.0169864
787.105	0.0170632
787.183	0.0171966
787.261	0.0169945
787.340	0.0168905
787.418	0.0169318
787.496	0.0168182
787.574	0.0170082
787.652	0.0168041
787.730	0.0167535
787.808	0.0167654
787.886	0.0167326
787.965	0.0167934
788.043	0.0167493
788.121	0.0167298
788.199	0.0167200
788.277	0.0166565
788.355	0.0166038
788.433	0.0166364
788.511	0.0168205
788.590	0.0167204
788.668	0.0165953
788.746	0.0166827
788.824	0.0167222
788.902	0.0166381
788.980	0.0165366
789.058	0.0167921
789.136	0.0168021
789.215	0.0167773
789.293	0.0167988
789.371	0.0168422
789.449	0.0169594
789.527	0.0170754
789.605	0.0169153
789.683	0.0170347
789.761	0.0170573
789.840	0.0171577
789.918	0.0172424
789.996	0.0171853
790.074	0.0170582
790.152	0.0171777
790.230	0.0170757
790.308	0.0170541
790.386	0.0169715
790.465	0.0168732
790.543	0.0169360
790.621	0.0169609
790.699	0.0169765
790.777	0.0168478
790.855	0.0168351
790.933	0.0167347
791.011	0.0166149
791.090	0.0166724
791.168	0.0166813
791.246	0.0167442
791.324	0.0167564
791.402	0.0167381
791.480	0.0167877
791.558	0.0167043
791.636	0.0168629
791.715	0.0168970
791.793	0.0167632
791.871	0.0168346
791.949	0.0170822
792.027	0.0169773
792.105	0.0171619
792.183	0.0171629
792.261	0.0169846
792.340	0.0168801
792.418	0.0169576
792.496	0.0170586
792.574	0.0170655
792.652	0.0170215
792.730	0.0169009
792.808	0.0169949
792.886	0.0170001
792.965	0.0168742
793.043	0.0169080
793.121	0.0167725
793.199	0.0168302
793.277	0.0168188
793.355	0.0168219
793.433	0.0169051
793.511	0.0167230
793.590	0.0168441
793.668	0.0169370
793.746	0.0168642
793.824	0.0169472
793.902	0.0168738
793.980	0.0168781
794.058	0.0169354
794.136	0.0170354
794.215	0.0168271
794.293	0.0169732
794.371	0.0170333
794.449	0.0169718
794.527	0.0169415
794.605	0.0168904
794.683	0.0169458
794.761	0.0170383
794.840	0.0168928
794.918	0.0169169
794.996	0.0170245
795.074	0.0169621
795.152	0.0168921
795.230	0.0167886
795.308	0.0167926
795.386	0.0167592
795.465	0.0169743
795.543	0.0168795
795.621	0.0168669
795.699	0.0167860
795.777	0.0167603
795.855	0.0166902
795.933	0.0168211
796.011	0.0166737
796.090	0.0167118
796.168	0.0167706
796.246	0.0166734
796.324	0.0167509
796.402	0.0166072
796.480	0.0167535
796.558	0.0168112
796.636	0.0168198
796.715	0.0168602
796.793	0.0168865
796.871	0.0169262
796.949	0.0168485
797.027	0.0169024
797.105	0.0169498
797.183	0.0169480
797.261	0.0168973
797.340	0.0169435
797.418	0.0170242
797.496	0.0170971
797.574	0.0170047
797.652	0.0169228
797.730	0.0170267
797.808	0.0169404
797.886	0.0170428
797.965	0.0170298
798.043	0.0169865
798.121	0.0169204
798.199	0.0168474
798.277	0.0169448
798.355	0.0169187
798.433	0.0167944
798.511	0.0168401
798.590	0.0166994
798.668	0.0167629
798.746	0.0167940
798.824	0.0167666
798.902	0.0167825
798.980	0.0166542
799.058	0.0167768
799.136	0.0168539
799.215	0.0168613
799.293	0.0169290
799.371	0.0170304
799.449	0.0169539
799.527	0.0171027
799.605	0.0169345
799.683	0.0171194
799.761	0.0171407
799.840	0.0170638
799.918	0.0170269
799.996	0.0170709
800.074	0.0170310
800.152	0.0171156
800.230	0.0169835
800.308	0.0171394
800.386	0.0169415
800.465	0.0169920
800.543	0.0170438
800.621	0.0170134
800.699	0.0170101
800.777	0.0169042
800.855	0.0169927
800.933	0.0170165
801.011	0.0169189
801.090	0.0167845
801.168	0.0170324
801.246	0.0170447
801.324	0.0168242
801.402	0.0169006
801.480	0.0167384
801.558	0.0167309
801.636	0.0168214
801.715	0.0169029
801.793	0.0168407
801.871	0.0167619
801.949	0.0168787
802.027	0.0168182
802.105	0.0168159
802.183	0.0167801
802.261	0.0167900
802.340	0.0168103
802.418	0.0168111
802.496	0.0168571
802.574	0.0168623
802.652	0.0168942
802.730	0.0168551
802.808	0.0168494
802.886	0.0168176
802.965	0.0168197
803.043	0.0170139
803.121	0.0168538
803.199	0.0169683
803.277	0.0168314
803.355	0.0168723
803.433	0.0169994
803.511	0.0169947
803.590	0.0169478
803.668	0.0169733
803.746	0.0169147
803.824	0.0169177
803.902	0.0169866
803.980	0.0168680
804.058	0.0170273
804.136	0.0168569
804.215	0.0170329
804.293	0.0170202
804.371	0.0170151
804.449	0.0170438
804.527	0.0170119
804.605	0.0169980
804.683	0.0168914
804.761	0.0170439
804.840	0.0170070
804.918	0.0168976
804.996	0.0170734
805.074	0.0170152
805.152	0.0168663
805.230	0.0170578
805.308	0.0171114
805.386	0.0170135
805.465	0.0170157
805.543	0.0168306
805.621	0.0168298
805.699	0.0168978
805.777	0.0169962
805.855	0.0169074
805.933	0.0168503
806.011	0.0168821
806.090	0.0168783
806.168	0.0168945
806.246	0.0167475
806.324	0.0168765
806.402	0.0168967
806.480	0.0168548
806.558	0.0168427
806.636	0.0168661
806.715	0.0170194
806.793	0.0167442
806.871	0.0169765
806.949	0.0169150
807.027	0.0168332
807.105	0.0168343
807.183	0.0169315
807.261	0.0168876
807.340	0.0168023
807.418	0.0168732
807.496	0.0168179
807.574	0.0168520
807.652	0.0169342
807.730	0.0169536
807.808	0.0170448
807.886	0.0170602
807.965	0.0169807
808.043	0.0170184
808.121	0.0168668
808.199	0.0169489
808.277	0.0169356
808.355	0.0169563
808.433	0.0169984
808.511	0.0168433
808.590	0.0170087
808.668	0.0169930
808.746	0.0168587
808.824	0.0168365
808.902	0.0168022
808.980	0.0169323
809.058	0.0169431
809.136	0.0167538
809.215	0.0167970
809.293	0.0166623
809.371	0.0167139
809.449	0.0167216
809.527	0.0167387
809.605	0.0167654
809.683	0.0167068
809.761	0.0166458
809.840	0.0165184
809.918	0.0166235
809.996	0.0167307
810.074	0.0167393
810.152	0.0167105
810.230	0.0165214
810.308	0.0167081
810.386	0.0168988
810.465	0.0168956
810.543	0.0169485
810.621	0.0167638
810.699	0.0169412
810.777	0.0168423
810.855	0.0170373
810.933	0.0171635
811.011	0.0170827
811.090	0.0169860
811.168	0.0171284
811.246	0.0170049
811.324	0.0172433
811.402	0.0170546
811.480	0.0171143
811.558	0.0171311
811.636	0.0170424
811.715	0.0170165
811.793	0.0169215
811.871	0.0170442
811.949	0.0170119
812.027	0.0167850
812.105	0.0166348
812.183	0.0166586
812.261	0.0166409
812.340	0.0167239
812.418	0.0165625
812.496	0.0165131
812.574	0.0164873
812.652	0.0164277
812.730	0.0164724
812.808	0.0164460
812.886	0.0163059
812.965	0.0164584
813.043	0.0165137
813.121	0.0165378
813.199	0.0166047
813.277	0.0167342
813.355	0.0165991
813.433	0.0167483
813.511	0.0168851
813.590	0.0169360
813.668	0.0170577
813.746	0.0170879
813.824	0.0172157
813.902	0.0173318
813.980	0.0174108
814.058	0.0174604
814.136	0.0175111
814.215	0.0175398
814.293	0.0173753
814.371	0.0174504
814.449	0.0175705
814.527	0.0175970
814.605	0.0176043
814.683	0.0174841
814.761	0.0174592
814.840	0.0175523
814.918	0.0172902
814.996	0.0172784
815.074	0.0172255
815.152	0.0171561
815.230	0.0170422
815.308	0.0169363
815.386	0.0167866
815.465	0.0168312
815.543	0.0164715
815.621	0.0162785
815.699	0.0163444
815.777	0.0162701
815.855	0.0161253
815.933	0.0159220
816.011	0.0160568
816.090	0.0159145
816.168	0.0159743
816.246	0.0160060
816.324	0.0160958
816.402	0.0159077
816.480	0.0160669
816.558	0.0163056
816.636	0.0162865
816.715	0.0163287
816.793	0.0165144
816.871	0.0166278
816.949	0.0168889
817.027	0.0169366
817.105	0.0171402
817.183	0.0172799
817.261	0.0173949
817.340	0.0174225
817.418	0.0176433
817.496	0.0176531
817.574	0.0177190
817.652	0.0177461
817.730	0.0178368
817.808	0.0175730
817.886	0.0177121
817.965	0.0176932
818.043	0.0175944
818.121	0.0174711
818.199	0.0174430
818.277	0.0173663
818.355	0.0171640
818.433	0.0171126
818.511	0.0168729
818.590	0.0170031
818.668	0.0168027
818.746	0.0167999
818.824	0.0167524
818.902	0.0166730
818.980	0.0165228
819.058	0.0164983
819.136	0.0162672
819.215	0.0163419
819.293	0.0165968
819.371	0.0164361
819.449	0.0163063
819.527	0.0165542
819.605	0.0166362
819.683	0.0165636
819.761	0.0166447
819.840	0.0166695
819.918	0.0167647
819.996	0.0169839
820.074	0.0170375
820.152	0.0169664
820.230	0.0171713
820.308	0.0170703
820.386	0.0171048
820.465	0.0171100
820.543	0.0170886
820.621	0.0170729
820.699	0.0170863
820.777	0.0168704
820.855	0.0170082
820.933	0.0169988
821.011	0.0166837
821.090	0.0168683
821.168	0.0167126
821.246	0.0166589
821.324	0.0166145
821.402	0.0166898
821.480	0.0166930
821.558	0.0164745
821.636	0.0164993
821.715	0.0165728
821.793	0.0165878
821.871	0.0165897
821.949	0.0166176
822.027	0.0165608
822.105	0.0165789
822.183	0.0166972
822.261	0.0165911
822.340	0.0167651
822.418	0.0168829
822.496	0.0168597
822.574	0.0171240
822.652	0.0170488
822.730	0.0170336
822.808	0.0171723
822.886	0.0173613
822.965	0.0173349
823.043	0.0172771
823.121	0.0174590
823.199	0.0173019
823.277	0.0172285
823.355	0.0174228
823.433	0.0174716
823.511	0.0173914
823.590	0.0171925
823.668	0.0171958
823.746	0.0172910
823.824	0.0171227
823.902	0.0170921
823.980	0.0170242
824.058	0.0170753
824.136	0.0169668
824.215	0.0170095
824.293	0.0167357
824.371	0.0167442
824.449	0.0167474
824.527	0.0167902
824.605	0.0166468
824.683	0.0166801
824.761	0.0166833
824.840	0.0166402
824.918	0.0165635
824.996	0.0165817
825.074	0.0165173
825.152	0.0164637
825.230	0.0165348
825.308	0.0165093
825.386	0.0165393
825.465	0.0164529
825.543	0.0166053
825.621	0.0165825
825.699	0.0166028
825.777	0.0165297
825.855	0.0165475
825.933	0.0167210
826.011	0.0168013
826.090	0.0167654
826.168	0.0168336
826.246	0.0168420
826.324	0.0167953
826.402	0.0169408
826.480	0.0169540
826.558	0.0170683
826.636	0.0170346
826.715	0.0169624
826.793	0.0170216
826.871	0.0170131
826.949	0.0171423
827.027	0.0171287
827.105	0.0170173
827.183	0.0169234
827.261	0.0168614
827.340	0.0170093
827.418	0.0168798
827.496	0.0169163
827.574	0.0168868
827.652	0.0168649
827.730	0.0170287
827.808	0.0168207
827.886	0.0168981
827.965	0.0168929
828.043	0.0169439
828.121	0.0169465
828.199	0.0168382
828.277	0.0169638
828.355	0.0170425
828.433	0.0170370
828.511	0.0167739
828.590	0.0168537
828.668	0.0168767
828.746	0.0168614
828.824	0.0170198
828.902	0.0168821
828.980	0.0169479
829.058	0.0169235
829.136	0.0168613
829.215	0.0169962
829.293	0.0170932
829.371	0.0170689
829.449	0.0170406
829.527	0.0170066
829.605	0.0170415
829.683	0.0169643
829.761	0.0170927
829.840	0.0171074
829.918	0.0169792
829.996	0.0169521
830.074	0.0169892
830.152	0.0169775
830.230	0.0170602
830.308	0.0171114
830.386	0.0170068
830.465	0.0169591
830.543	0.0169533
830.621	0.0168752
830.699	0.0167828
830.777	0.0168626
830.855	0.0168609
830.933	0.0169093
831.011	0.0168514
831.090	0.0167752
831.168	0.0167146
831.246	0.0167210
831.324	0.0167817
831.402	0.0166908
831.480	0.0166496
831.558	0.0168375
831.636	0.0165510
831.715	0.0167039
831.793	0.0167971
831.871	0.0166485
831.949	0.0166265
832.027	0.0166782
832.105	0.0167577
832.183	0.0168548
832.261	0.0165604
832.340	0.0167365
832.418	0.0167704
832.496	0.0168314
832.574	0.0168566
832.652	0.0169228
832.730	0.0167825
832.808	0.0168639
832.886	0.0170080
832.965	0.0168770
833.043	0.0170242
833.121	0.0168989
833.199	0.0169198
833.277	0.0169379
833.355	0.0170147
833.433	0.0170041
833.511	0.0168731
833.590	0.0169582
833.668	0.0170988
833.746	0.0170047
833.824	0.0168981
833.902	0.0170255
833.980	0.0170427
834.058	0.0169569
834.136	0.0168597
834.215	0.0168858
834.293	0.0168546
834.371	0.0169112
834.449	0.0169534
834.527	0.0167908
834.605	0.0169721
834.683	0.0168231
834.761	0.0168600
834.840	0.0167561
834.918	0.0168298
834.996	0.0167863
835.074	0.0169415
835.152	0.0166737
835.230	0.0167924
835.308	0.0166853
835.386	0.0168243
835.465	0.0166637
835.543	0.0167527
835.621	0.0168355
835.699	0.0168586
835.777	0.0168146
835.855	0.0167988
835.933	0.0169703
836.011	0.0169559
836.090	0.0169437
836.168	0.0169594
836.246	0.0169241
836.324	0.0170913
836.402	0.0170737
836.480	0.0170821
836.558	0.0170071
836.636	0.0168938
836.715	0.0168561
836.793	0.0168870
836.871	0.0168269
836.949	0.0169779
837.027	0.0169347
837.105	0.0168938
837.183	0.0168597
837.261	0.0167759
837.340	0.0168348
837.418	0.0167990
837.496	0.0167778
837.574	0.0168328
837.652	0.0168168
837.730	0.0168941
837.808	0.0169026
837.886	0.0168185
837.965	0.0168629
838.043	0.0168216
838.121	0.0168214
838.199	0.0168796
838.277	0.0168039
838.355	0.0168853
838.433	0.0167464
838.511	0.0166911
838.590	0.0167491
838.668	0.0167007
838.746	0.0168215
838.824	0.0168030
838.902	0.0169781
838.980	0.0168893
839.058	0.0170265
839.136	0.0168567
839.215	0.0169373
839.293	0.0168772
839.371	0.0168501
839.449	0.0169026
839.527	0.0168262
839.605	0.0169213
839.683	0.0169261
839.761	0.0169231
839.840	0.0165952
839.918	0.0167388
839.996	0.0167730
840.074	0.0167218
840.152	0.0167344
840.230	0.0166191
840.308	0.0168024
840.386	0.0166447
840.465	0.0165416
840.543	0.0168182
840.621	0.0166660
840.699	0.0167427
840.777	0.0167388
840.855	0.0166870
840.933	0.0167559
841.011	0.0167169
841.090	0.0168139
841.168	0.0168816
841.246	0.0167976
841.324	0.0169474
841.402	0.0169239
841.480	0.0168450
841.558	0.0169885
841.636	0.0170069
841.715	0.0170396
841.793	0.0170625
841.871	0.0171410
841.949	0.0170642
842.027	0.0169874
842.105	0.0170535
842.183	0.0170638
842.261	0.0171204
842.340	0.0170022
842.418	0.0170106
842.496	0.0170106
842.574	0.0169911
842.652	0.0169056
842.730	0.0168919
842.808	0.0167303
842.886	0.0168515
842.965	0.0167789
843.043	0.0168539
843.121	0.0168061
843.199	0.0165799
843.277	0.0166573
843.355	0.0165942
843.433	0.0168044
843.511	0.0166007
843.590	0.0165573
843.668	0.0165871
843.746	0.0167794
843.824	0.0167110
843.902	0.0167500
843.980	0.0166769
844.058	0.0168025
844.136	0.0169164
844.215	0.0167924
844.293	0.0168408
844.371	0.0169189
844.449	0.0169885
844.527	0.0169647
844.605	0.0170510
844.683	0.0171733
844.761	0.0171819
844.840	0.0171063
844.918	0.0169824
844.996	0.0170476
845.074	0.0172017
845.152	0.0172337
845.230	0.0172067
845.308	0.0170729
845.386	0.0172003
845.465	0.0170828
845.543	0.0171468
845.621	0.0171807
845.699	0.0170811
845.777	0.0169839
845.855	0.0170721
845.933	0.0170705
846.011	0.0171439
846.090	0.0170335
846.168	0.0169542
846.246	0.0167957
846.324	0.0167944
846.402	0.0168787
846.480	0.0166914
846.558	0.0167809
846.636	0.0168228
846.715	0.0166425
846.793	0.0166643
846.871	0.0166786
846.949	0.0165804
847.027	0.0165504
847.105	0.0165522
847.183	0.0166080
847.261	0.0165769
847.340	0.0166250
847.418	0.0166528
847.496	0.0166870
847.574	0.0166333
847.652	0.0166720
847.730	0.0168084
847.808	0.0168755
847.886	0.0170843
847.965	0.0170162
848.043	0.0168874
848.121	0.0168605
848.199	0.0170489
848.277	0.0170438
848.355	0.0169378
848.433	0.0170309
848.511	0.0170560
848.590	0.0170562
848.668	0.0171004
848.746	0.0171635
848.824	0.0170702
848.902	0.0170515
848.980	0.0170330
849.058	0.0170864
849.136	0.0170228
849.215	0.0169765
849.293	0.0170301
849.371	0.0169174
849.449	0.0169408
849.527	0.0170973
849.605	0.0169221
849.683	0.0169106
849.761	0.0168082
849.840	0.0167333
849.918	0.0168844
849.996	0.0167828
850.074	0.0166591
850.152	0.0167191
850.230	0.0166969
850.308	0.0167675
850.386	0.0167704
850.465	0.0167439
850.543	0.0167858
850.621	0.0167353
850.699	0.0167364
850.777	0.0168066
850.855	0.0169067
850.933	0.0168514
851.011	0.0167635
851.090	0.0168571
851.168	0.0170108
851.246	0.0170994
851.324	0.0170147
851.402	0.0170450
851.480	0.0171494
851.558	0.0171287
851.636	0.0169850
851.715	0.0170526
851.793	0.0170693
851.871	0.0169648
851.949	0.0170342
852.027	0.0170564
852.105	0.0168875
852.183	0.0168591
852.261	0.0170065
852.340	0.0168262
852.418	0.0165925
852.496	0.0168526
852.574	0.0168422
852.652	0.0167436
852.730	0.0165889
852.808	0.0166901
852.886	0.0166111
852.965	0.0166625
853.043	0.0166342
853.121	0.0166824
853.199	0.0167181
853.277	0.0166901
853.355	0.0167435
853.433	0.0168469
853.511	0.0169361
853.590	0.0170887
853.668	0.0168010
853.746	0.0169698
853.824	0.0170721
853.902	0.0170466
853.980	0.0171790
854.058	0.0170029
854.136	0.0171197
854.215	0.0171623
854.293	0.0172438
854.371	0.0172225
854.449	0.0171278
854.527	0.0170547
854.605	0.0172318
854.683	0.0170297
854.761	0.0172304
854.840	0.0171324
854.918	0.0170441
854.996	0.0169962
855.074	0.0169522
855.152	0.0168470
855.230	0.0169629
855.308	0.0167379
855.386	0.0169241
855.465	0.0167557
855.543	0.0167688
855.621	0.0169541
855.699	0.0166907
855.777	0.0167559
855.855	0.0167576
855.933	0.0167841
856.011	0.0166875
856.090	0.0168488
856.168	0.0167149
856.246	0.0167103
856.324	0.0168060
856.402	0.0166838
856.480	0.0167168
856.558	0.0167688
856.636	0.0168444
856.715	0.0168367
856.793	0.0168784
856.871	0.0168864
856.949	0.0169040
857.027	0.0169057
857.105	0.0170517
857.183	0.0168663
857.261	0.0168821
857.340	0.0170647
857.418	0.0169723
857.496	0.0168567
857.574	0.0169672
857.652	0.0169939
857.730	0.0169671
857.808	0.0168774
857.886	0.0169479
857.965	0.0169701
858.043	0.0167712
858.121	0.0168401
858.199	0.0168491
858.277	0.0169128
858.355	0.0167136
858.433	0.0167924
858.511	0.0167882
858.590	0.0167776
858.668	0.0167413
858.746	0.0167037
858.824	0.0168114
858.902	0.0168785
858.980	0.0167280
859.058	0.0167239
859.136	0.0167793
859.215	0.0168748
859.293	0.0168993
859.371	0.0168049
859.449	0.0169736
859.527	0.0169373
859.605	0.0169650
859.683	0.0169779
859.761	0.0167956
859.840	0.0167994
859.918	0.0169587
859.996	0.0170952
860.074	0.0168902
860.152	0.0168874
860.230	0.0170401
860.308	0.0169868
860.386	0.0170255
860.465	0.0170864
860.543	0.0169414
860.621	0.0168640
860.699	0.0170605
860.777	0.0168564
860.855	0.0168115
860.933	0.0168262
861.011	0.0169934
861.090	0.0168597
861.168	0.0168574
861.246	0.0168539
861.324	0.0168282
861.402	0.0167752
861.480	0.0166639
861.558	0.0167119
861.636	0.0167120
861.715	0.0167746
861.793	0.0167081
861.871	0.0166852
861.949	0.0168204
862.027	0.0169120
862.105	0.0168032
862.183	0.0168267
862.261	0.0167570
862.340	0.0168651
862.418	0.0169724
862.496	0.0168268
862.574	0.0167632
862.652	0.0168154
862.730	0.0169398
862.808	0.0168765
862.886	0.0168956
862.965	0.0169683
863.043	0.0167965
863.121	0.0169794
863.199	0.0167770
863.277	0.0168810
863.355	0.0169052
863.433	0.0168035
863.511	0.0168378
863.590	0.0168391
863.668	0.0168176
863.746	0.0167857
863.824	0.0168636
863.902	0.0169196
863.980	0.0168636
864.058	0.0168743
864.136	0.0169469
864.215	0.0167955
864.293	0.0167674
864.371	0.0169877
864.449	0.0168435
864.527	0.0168235
864.605	0.0167390
864.683	0.0169221
864.761	0.0169460
864.840	0.0169345
864.918	0.0170097
864.996	0.0168816
865.074	0.0168813
865.152	0.0169997
865.230	0.0170291
865.308	0.0170921
865.386	0.0170635
865.465	0.0170052
865.543	0.0171159
865.621	0.0171685
865.699	0.0170831
865.777	0.0170963
865.855	0.0170656
865.933	0.0169559
866.011	0.0170274
866.090	0.0169779
866.168	0.0168646
866.246	0.0169302
866.324	0.0169711
866.402	0.0168952
866.480	0.0167798
866.558	0.0167451
866.636	0.0167212
866.715	0.0168336
866.793	0.0167467
866.871	0.0167130
866.949	0.0167210
867.027	0.0166857
867.105	0.0166055
867.183	0.0167195
867.261	0.0168745
867.340	0.0168472
867.418	0.0167289
867.496	0.0168325
867.574	0.0168847
867.652	0.0169800
867.730	0.0168565
867.808	0.0168154
867.886	0.0170378
867.965	0.0169637
868.043	0.0169686
868.121	0.0170261
868.199	0.0169552
868.277	0.0169897
868.355	0.0169936
868.433	0.0169615
868.511	0.0170589
868.590	0.0169984
868.668	0.0169847
868.746	0.0170088
868.824	0.0170171
868.902	0.0169370
868.980	0.0170715
869.058	0.0169419
869.136	0.0168176
869.215	0.0170552
869.293	0.0169656
869.371	0.0168913
869.449	0.0169654
869.527	0.0169527
869.605	0.0169398
869.683	0.0169557
869.761	0.0167671
869.840	0.0167226
869.918	0.0167796
869.996	0.0167866
870.074	0.0169615
870.152	0.0167899
870.230	0.0169633
870.308	0.0170391
870.386	0.0169353
870.465	0.0169276
870.543	0.0169247
870.621	0.0168626
870.699	0.0169347
870.777	0.0168347
870.855	0.0170955
870.933	0.0170438
871.011	0.0169414
871.090	0.0170471
871.168	0.0169701
871.246	0.0169119
871.324	0.0170208
871.402	0.0170078
871.480	0.0169617
871.558	0.0169121
871.636	0.0168021
871.715	0.0169003
871.793	0.0168001
871.871	0.0170057
871.949	0.0167905
872.027	0.0168080
872.105	0.0167519
872.183	0.0168501
872.261	0.0169003
872.340	0.0169409
872.418	0.0168513
872.496	0.0167319
872.574	0.0168304
872.652	0.0167109
872.730	0.0168040
872.808	0.0168011
872.886	0.0168972
872.965	0.0169102
873.043	0.0169670
873.121	0.0167841
873.199	0.0169006
873.277	0.0169843
873.355	0.0169499
873.433	0.0168990
873.511	0.0170263
873.590	0.0171355
873.668	0.0170236
873.746	0.0169128
873.824	0.0171679
873.902	0.0170987
873.980	0.0170254
874.058	0.0169868
874.136	0.0171143
874.215	0.0170442
874.293	0.0170761
874.371	0.0170728
874.449	0.0169765
874.527	0.0170047
874.605	0.0168665
874.683	0.0168999
874.761	0.0169878
874.840	0.0169089
874.918	0.0169238
874.996	0.0168650
875.074	0.0167009
875.152	0.0168202
875.230	0.0168140
875.308	0.0167900
875.386	0.0166750
875.465	0.0168648
875.543	0.0169241
875.621	0.0168491
875.699	0.0165861
875.777	0.0168178
875.855	0.0169574
875.933	0.0168246
876.011	0.0169187
876.090	0.0166921
876.168	0.0168255
876.246	0.0169687
876.324	0.0170745
876.402	0.0168917
876.480	0.0169221
876.558	0.0170000
876.636	0.0170395
876.715	0.0169030
876.793	0.0171150
876.871	0.0171377
876.949	0.0171036
877.027	0.0170175
877.105	0.0171439
877.183	0.0171177
877.261	0.0171503
877.340	0.0170550
877.418	0.0170979
877.496	0.0171033
877.574	0.0170470
877.652	0.0170759
877.730	0.0170188
877.808	0.0170372
877.886	0.0168954
877.965	0.0168327
878.043	0.0168948
878.121	0.0169124
878.199	0.0168582
878.277	0.0168714
878.355	0.0169503
878.433	0.0167959
878.511	0.0168360
878.590	0.0168192
878.668	0.0167559
878.746	0.0167305
878.824	0.0167862
878.902	0.0167382
878.980	0.0166909
879.058	0.0168373
879.136	0.0167333
879.215	0.0166931
879.293	0.0168932
879.371	0.0168146
879.449	0.0167501
879.527	0.0168185
879.605	0.0167595
879.683	0.0167957
879.761	0.0167310
879.840	0.0168997
879.918	0.0168134
879.996	0.0168462
880.074	0.0168254
880.152	0.0168757
880.230	0.0168551
880.308	0.0168591
880.386	0.0168693
880.465	0.0170015
880.543	0.0169390
880.621	0.0169389
880.699	0.0169128
880.777	0.0169576
880.855	0.0168423
880.933	0.0168520
881.011	0.0170894
881.090	0.0170428
881.168	0.0170392
881.246	0.0169607
881.324	0.0169749
881.402	0.0167860
881.480	0.0168892
881.558	0.0169137
881.636	0.0169884
881.715	0.0168842
881.793	0.0169221
881.871	0.0168120
881.949	0.0169314
882.027	0.0167910
882.105	0.0168088
882.183	0.0168726
882.261	0.0169492
882.340	0.0167380
882.418	0.0168105
882.496	0.0169063
882.574	0.0168579
882.652	0.0168674
882.730	0.0168877
882.808	0.0168459
882.886	0.0167783
882.965	0.0168385
883.043	0.0169397
883.121	0.0168658
883.199	0.0168838
883.277	0.0167328
883.355	0.0169727
883.433	0.0168640
883.511	0.0167657
883.590	0.0167655
883.668	0.0167428
883.746	0.0169075
883.824	0.0168736
883.902	0.0169638
883.980	0.0168693
884.058	0.0168931
884.136	0.0168472
884.215	0.0168097
884.293	0.0168722
884.371	0.0169673
884.449	0.0168928
884.527	0.0168796
884.605	0.0168117
884.683	0.0168121
884.761	0.0169209
884.840	0.0169312
884.918	0.0169573
884.996	0.0169537
885.074	0.0169144
885.152	0.0169775
885.230	0.0168864
885.308	0.0169286
885.386	0.0168710
885.465	0.0169239
885.543	0.0169833
885.621	0.0170560
885.699	0.0169303
885.777	0.0169139
885.855	0.0169973
885.933	0.0169320
886.011	0.0169703
886.090	0.0170634
886.168	0.0169524
886.246	0.0169792
886.324	0.0169952
886.402	0.0169761
886.480	0.0170337
886.558	0.0171055
886.636	0.0168845
886.715	0.0169576
886.793	0.0169908
886.871	0.0170735
886.949	0.0169315
887.027	0.0169460
887.105	0.0170193
887.183	0.0169695
887.261	0.0169898
887.340	0.0169504
887.418	0.0169084
887.496	0.0169223
887.574	0.0169620
887.652	0.0168295
887.730	0.0168809
887.808	0.0168388
887.886	0.0169753
887.965	0.0168829
888.043	0.0168998
888.121	0.0168207
888.199	0.0169334
888.277	0.0169572
888.355	0.0169505
888.433	0.0168632
888.511	0.0169417
888.590	0.0168641
888.668	0.0167680
888.746	0.0169304
888.824	0.0169847
888.902	0.0169329
888.980	0.0168737
889.058	0.0168256
889.136	0.0167439
889.215	0.0169505
889.293	0.0170060
889.371	0.0170054
889.449	0.0169270
889.527	0.0168791
889.605	0.0169954
889.683	0.0168470
889.761	0.0168737
889.840	0.0169028
889.918	0.0170146
889.996	0.0170416
890.074	0.0169303
890.152	0.0167822
890.230	0.0168730
890.308	0.0167677
890.386	0.0167989
890.465	0.0168282
890.543	0.0168422
890.621	0.0168084
890.699	0.0169093
890.777	0.0168690
890.855	0.0168694
890.933	0.0169741
891.011	0.0167966
891.090	0.0167455
891.168	0.0169828
891.246	0.0169680
891.324	0.0169089
891.402	0.0169019
891.480	0.0169555
891.558	0.0168838
891.636	0.0167967
891.715	0.0170251
891.793	0.0169038
891.871	0.0169073
891.949	0.0169962
892.027	0.0168015
892.105	0.0169055
892.183	0.0168418
892.261	0.0170401
892.340	0.0168596
892.418	0.0169064
892.496	0.0168349
892.574	0.0168005
892.652	0.0167980
892.730	0.0169015
892.808	0.0168923
892.886	0.0167715
892.965	0.0169827
893.043	0.0168165
893.121	0.0168285
893.199	0.0168604
893.277	0.0167532
893.355	0.0168260
893.433	0.0168887
893.511	0.0167970
893.590	0.0167940
893.668	0.0167775
893.746	0.0167827
893.824	0.0170354
893.902	0.0169825
893.980	0.0168420
894.058	0.0169612
894.136	0.0169564
894.215	0.0168204
894.293	0.0169791
894.371	0.0169708
894.449	0.0169268
894.527	0.0169098
894.605	0.0170185
894.683	0.0169863
894.761	0.0169679
894.840	0.0168927
894.918	0.0170824
894.996	0.0171172
895.074	0.0168848
895.152	0.0168908
895.230	0.0169811
895.308	0.0168074
895.386	0.0168955
895.465	0.0168836
895.543	0.0168799
895.621	0.0168520
895.699	0.0167948
895.777	0.0168539
895.855	0.0169054
895.933	0.0169798
896.011	0.0168351
896.090	0.0168432
896.168	0.0168975
896.246	0.0170096
896.324	0.0169146
896.402	0.0168330
896.480	0.0168047
896.558	0.0170464
896.636	0.0168752
896.715	0.0169519
896.793	0.0169312
896.871	0.0169302
896.949	0.0169762
897.027	0.0169824
897.105	0.0168519
897.183	0.0169671
897.261	0.0170084
897.340	0.0169720
897.418	0.0168381
897.496	0.0169859
897.574	0.0167583
897.652	0.0167963
897.730	0.0169334
897.808	0.0168091
897.886	0.0166928
897.965	0.0167158
898.043	0.0167400
898.121	0.0166525
898.199	0.0168642
898.277	0.0168901
898.355	0.0168087
898.433	0.0168271
898.511	0.0167918
898.590	0.0168907
898.668	0.0166988
898.746	0.0167702
898.824	0.0169165
898.902	0.0167102
898.980	0.0169466
899.058	0.0168391
899.136	0.0167258
899.215	0.0169595
899.293	0.0169454
899.371	0.0169605
899.449	0.0169397
899.527	0.0169653
899.605	0.0169434
899.683	0.0168890
899.761	0.0169269
899.840	0.0169654
899.918	0.0170196
899.996	0.0170003
900.074	0.0169440
900.152	0.0170652
900.230	0.0169346
900.308	0.0168610
900.386	0.0169685
900.465	0.0170187
900.543	0.0168222
900.621	0.0168755
900.699	0.0168479
900.777	0.0167531
900.855	0.0169231
900.933	0.0168549
901.011	0.0167716
901.090	0.0167880
901.168	0.0169574
901.246	0.0168673
901.324	0.0167301
901.402	0.0167402
901.480	0.0167764
901.558	0.0167036
901.636	0.0166877
901.715	0.0168555
901.793	0.0168956
901.871	0.0168668
901.949	0.0167976
902.027	0.0169173
902.105	0.0169915
902.183	0.0169735
902.261	0.0168687
902.340	0.0169843
902.418	0.0169350
902.496	0.0170414
902.574	0.0168656
902.652	0.0169047
902.730	0.0170467
902.808	0.0169840
902.886	0.0171284
902.965	0.0169643
903.043	0.0169326
903.121	0.0169978
903.199	0.0169724
903.277	0.0170155
903.355	0.0170599
903.433	0.0170119
903.511	0.0169942
903.590	0.0171744
903.668	0.0169505
903.746	0.0171404
903.824	0.0169424
903.902	0.0169627
903.980	0.0169501
904.058	0.0169145
904.136	0.0169019
904.215	0.0168647
904.293	0.0168060
904.371	0.0168839
904.449	0.0167937
904.527	0.0168900
904.605	0.0167744
904.683	0.0166339
904.761	0.0167740
904.840	0.0167225
904.918	0.0169378
904.996	0.0168206
905.074	0.0166666
905.152	0.0168764
905.230	0.0169188
905.308	0.0169051
905.386	0.0167373
905.465	0.0170193
905.543	0.0169351
905.621	0.0170210
905.699	0.0170996
905.777	0.0170318
905.855	0.0169421
905.933	0.0169966
906.011	0.0170057
906.090	0.0169249
906.168	0.0169531
906.246	0.0169629
906.324	0.0170889
906.402	0.0170243
906.480	0.0169910
906.558	0.0169937
906.636	0.0168237
906.715	0.0168064
906.793	0.0167516
906.871	0.0167625
906.949	0.0166135
907.027	0.0166779
907.105	0.0166388
907.183	0.0166702
907.261	0.0166478
907.340	0.0166838
907.418	0.0166113
907.496	0.0167362
907.574	0.0166597
907.652	0.0168240
907.730	0.0167104
907.808	0.0166605
907.886	0.0168584
907.965	0.0169208
908.043	0.0167867
908.121	0.0168293
908.199	0.0169671
908.277	0.0170618
908.355	0.0170898
908.433	0.0170401
908.511	0.0171732
908.590	0.0172752
908.668	0.0172565
908.746	0.0171442
908.824	0.0172314
908.902	0.0172070
908.980	0.0171472
909.058	0.0170994
909.136	0.0171770
909.215	0.0171297
909.293	0.0170157
909.371	0.0170721
909.449	0.0171037
909.527	0.0169559
909.605	0.0169090
909.683	0.0167458
909.761	0.0167815
909.840	0.0168538
909.918	0.0167339
909.996	0.0166254
910.074	0.0167117
910.152	0.0166461
910.230	0.0165993
910.308	0.0165635
910.386	0.0166634
910.465	0.0166462
910.543	0.0165863
910.621	0.0165527
910.699	0.0165516
910.777	0.0164545
910.855	0.0164046
910.933	0.0165884
911.011	0.0165198
911.090	0.0166159
911.168	0.0166224
911.246	0.0166154
911.324	0.0166027
911.402	0.0166108
911.480	0.0168678
911.558	0.0170156
911.636	0.0170466
911.715	0.0170596
911.793	0.0170428
911.871	0.0172059
911.949	0.0172660
912.027	0.0172650
912.105	0.0174405
912.183	0.0176067
912.261	0.0174789
912.340	0.0175488
912.418	0.0175568
912.496	0.0174978
912.574	0.0175288
912.652	0.0173139
912.730	0.0171159
912.808	0.0171299
912.886	0.0170434
912.965	0.0169027
913.043	0.0167897
913.121	0.0166868
913.199	0.0165115
913.277	0.0164159
913.355	0.0163050
913.433	0.0163912
913.511	0.0165199
913.590	0.0164552
913.668	0.0163354
913.746	0.0163696
913.824	0.0164909
913.902	0.0165719
913.980	0.0166602
914.058	0.0165887
914.136	0.0166171
914.215	0.0166776
914.293	0.0167599
914.371	0.0166053
914.449	0.0167535
914.527	0.0168240
914.605	0.0167805
914.683	0.0169062
914.761	0.0168694
914.840	0.0171059
914.918	0.0171276
914.996	0.0169321
915.074	0.0171987
915.152	0.0172095
915.230	0.0172292
915.308	0.0171805
915.386	0.0173456
915.465	0.0173701
915.543	0.0174139
915.621	0.0171474
915.699	0.0171478
915.777	0.0171114
915.855	0.0168887
915.933	0.0169901
916.011	0.0168785
916.090	0.0167344
916.168	0.0167194
916.246	0.0166446
916.324	0.0165234
916.402	0.0165086
916.480	0.0165844
916.558	0.0164982
916.636	0.0165724
916.715	0.0166571
916.793	0.0166404
916.871	0.0166019
916.949	0.0166234
917.027	0.0167529
917.105	0.0166866
917.183	0.0167498
917.261	0.0168614
917.340	0.0168029
917.418	0.0168485
917.496	0.0168580
917.574	0.0166978
917.652	0.0166570
917.730	0.0167117
917.808	0.0168671
917.886	0.0167510
917.965	0.0168655
918.043	0.0169057
918.121	0.0169634
918.199	0.0169825
918.277	0.0170010
918.355	0.0170716
918.433	0.0172406
918.511	0.0171273
918.590	0.0171255
918.668	0.0170547
918.746	0.0171749
918.824	0.0169591
918.902	0.0169034
918.980	0.0167862
919.058	0.0168622
919.136	0.0169313
919.215	0.0168224
919.293	0.0166601
919.371	0.0167931
919.449	0.0166691
919.527	0.0166752
919.605	0.0166664
919.683	0.0167245
919.761	0.0167288
919.840	0.0166985
919.918	0.0167060
919.996	0.0167719
920.074	0.0165862
920.152	0.0168167
920.230	0.0167883
920.308	0.0169396
920.386	0.0168909
920.465	0.0169586
920.543	0.0168002
920.621	0.0169377
920.699	0.0168940
920.777	0.0167950
920.855	0.0169259
920.933	0.0168967
921.011	0.0167810
921.090	0.0169362
921.168	0.0170189
921.246	0.0168639
921.324	0.0169216
921.402	0.0168896
921.480	0.0167999
921.558	0.0169444
921.636	0.0168949
921.715	0.0168940
921.793	0.0169699
921.871	0.0169744
921.949	0.0169208
922.027	0.0169053
922.105	0.0169714
922.183	0.0168311
922.261	0.0167078
922.340	0.0168494
922.418	0.0168818
922.496	0.0167314
922.574	0.0167143
922.652	0.0167508
922.730	0.0167065
922.808	0.0166297
922.886	0.0167693
922.965	0.0166221
923.043	0.0167551
923.121	0.0168121
923.199	0.0167501
923.277	0.0167779
923.355	0.0168072
923.433	0.0168141
923.511	0.0167190
923.590	0.0168533
923.668	0.0168001
923.746	0.0169742
923.824	0.0167352
923.902	0.0168475
923.980	0.0168595
924.058	0.0169955
924.136	0.0169231
924.215	0.0168938
924.293	0.0168712
924.371	0.0169547
924.449	0.0170129
924.527	0.0169947
924.605	0.0170132
924.683	0.0170238
924.761	0.0170913
924.840	0.0170705
924.918	0.0169791
924.996	0.0168958
925.074	0.0170751
925.152	0.0171358
925.230	0.0170048
925.308	0.0169446
925.386	0.0170208
925.465	0.0167853
925.543	0.0169776
925.621	0.0169680
925.699	0.0169167
925.777	0.0169185
925.855	0.0167901
925.933	0.0168476
926.011	0.0169807
926.090	0.0167324
926.168	0.0167435
926.246	0.0168548
926.324	0.0167269
926.402	0.0167943
926.480	0.0168764
926.558	0.0167807
926.636	0.0168533
926.715	0.0167442
926.793	0.0167811
926.871	0.0169650
926.949	0.0166557
927.027	0.0166852
927.105	0.0168518
927.183	0.0167682
927.261	0.0168217
927.340	0.0169769
927.418	0.0167503
927.496	0.0168232
927.574	0.0169172
927.652	0.0169920
927.730	0.0168224
927.808	0.0168941
927.886	0.0169416
927.965	0.0168607
928.043	0.0171062
928.121	0.0169545
928.199	0.0169881
928.277	0.0171312
928.355	0.0169815
928.433	0.0169789
928.511	0.0170403
928.590	0.0172547
928.668	0.0170610
928.746	0.0169671
928.824	0.0169128
928.902	0.0170024
928.980	0.0169878
929.058	0.0168255
929.136	0.0168125
929.215	0.0168439
929.293	0.0166891
929.371	0.0167391
929.449	0.0167717
929.527	0.0166797
929.605	0.0166777
929.683	0.0166105
929.761	0.0165722
929.840	0.0165195
929.918	0.0165584
929.996	0.0165871
930.074	0.0165754
930.152	0.0166779
930.230	0.0166586
930.308	0.0167357
930.386	0.0166655
930.465	0.0164608
930.543	0.0166035
930.621	0.0167721
930.699	0.0167757
930.777	0.0169171
930.855	0.0169128
930.933	0.0168458
931.011	0.0167703
931.090	0.0169116
931.168	0.0170114
931.246	0.0169170
931.324	0.0169235
931.402	0.0170026
931.480	0.0169721
931.558	0.0170355
931.636	0.0170112
931.715	0.0170348
931.793	0.0170650
931.871	0.0169831
931.949	0.0169495
932.027	0.0170329
932.105	0.0169286
932.183	0.0169077
932.261	0.0170285
932.340	0.0169350
932.418	0.0168068
932.496	0.0169633
932.574	0.0168398
932.652	0.0167984
932.730	0.0168661
932.808	0.0168318
932.886	0.0167793
932.965	0.0169009
933.043	0.0168535
933.121	0.0168735
933.199	0.0168267
933.277	0.0168221
933.355	0.0167747
933.433	0.0167353
933.511	0.0168855
933.590	0.0167893
933.668	0.0169559
933.746	0.0170084
933.824	0.0169823
933.902	0.0168391
933.980	0.0167747
934.058	0.0169009
934.136	0.0169460
934.215	0.0169241
934.293	0.0169038
934.371	0.0167552
934.449	0.0167319
934.527	0.0169066
934.605	0.0167867
934.683	0.0167767
934.761	0.0169816
934.840	0.0169399
934.918	0.0168637
934.996	0.0168335
935.074	0.0168903
935.152	0.0167784
935.230	0.0168163
935.308	0.0167860
935.386	0.0168577
935.465	0.0168695
935.543	0.0170572
935.621	0.0169659
935.699	0.0168681
935.777	0.0168241
935.855	0.0169663
935.933	0.0170365
936.011	0.0168900
936.090	0.0168762
936.168	0.0169215
936.246	0.0168523
936.324	0.0168112
936.402	0.0169662
936.480	0.0169011
936.558	0.0169785
936.636	0.0168410
936.715	0.0168797
936.793	0.0169830
936.871	0.0170249
936.949	0.0167313
937.027	0.0167850
937.105	0.0168621
937.183	0.0169276
937.261	0.0168050
937.340	0.0168248
937.418	0.0167815
937.496	0.0167852
937.574	0.0168628
937.652	0.0168545
937.730	0.0168562
937.808	0.0167479
937.886	0.0168871
937.965	0.0168052
938.043	0.0166942
938.121	0.0167169
938.199	0.0169377
938.277	0.0168700
938.355	0.0168393
938.433	0.0166681
938.511	0.0167770
938.590	0.0168558
938.668	0.0170448
938.746	0.0168759
938.824	0.0167995
938.902	0.0167500
938.980	0.0168918
939.058	0.0169307
939.136	0.0169888
939.215	0.0168990
939.293	0.0169904
939.371	0.0169627
939.449	0.0168807
939.527	0.0167474
939.605	0.0170318
939.683	0.0169373
939.761	0.0168510
939.840	0.0169942
939.918	0.0169955
939.996	0.0168166
940.074	0.0168047
940.152	0.0168159
940.230	0.0168636
940.308	0.0169843
940.386	0.0169552
940.465	0.0169532
940.543	0.0169196
940.621	0.0168847
940.699	0.0169356
940.777	0.0170200
940.855	0.0169363
940.933	0.0170360
941.011	0.0168908
941.090	0.0168569
941.168	0.0167456
941.246	0.0169450
941.324	0.0169460
941.402	0.0169823
941.480	0.0169514
941.558	0.0169340
941.636	0.0169733
941.715	0.0168405
941.793	0.0168633
941.871	0.0167984
941.949	0.0169650
942.027	0.0169097
942.105	0.0169647
942.183	0.0168907
942.261	0.0170211
942.340	0.0170426
942.418	0.0168629
942.496	0.0168488
942.574	0.0167715
942.652	0.0167533
942.730	0.0169006
942.808	0.0168571
942.886	0.0168801
942.965	0.0168573
943.043	0.0168252
943.121	0.0167867
943.199	0.0167072
943.277	0.0169737
943.355	0.0167259
943.433	0.0168135
943.511	0.0168114
943.590	0.0168318
943.668	0.0168079
943.746	0.0167493
943.824	0.0168699
943.902	0.0168394
943.980	0.0169389
944.058	0.0168262
944.136	0.0170190
944.215	0.0169286
944.293	0.0168979
944.371	0.0169060
944.449	0.0170033
944.527	0.0169791
944.605	0.0168997
944.683	0.0170650
944.761	0.0170454
944.840	0.0169692
944.918	0.0169246
944.996	0.0168043
945.074	0.0170104
945.152	0.0170351
945.230	0.0169727
945.308	0.0170438
945.386	0.0170927
945.465	0.0168691
945.543	0.0168547
945.621	0.0169157
945.699	0.0169204
945.777	0.0167500
945.855	0.0168109
945.933	0.0168707
946.011	0.0168275
946.090	0.0167811
946.168	0.0167796
946.246	0.0167577
946.324	0.0167947
946.402	0.0166663
946.480	0.0168624
946.558	0.0170152
946.636	0.0167690
946.715	0.0167631
946.793	0.0170753
946.871	0.0169630
946.949	0.0168726
947.027	0.0168966
947.105	0.0169251
947.183	0.0169127
947.261	0.0170081
947.340	0.0169344
947.418	0.0169196
947.496	0.0169144
947.574	0.0170647
947.652	0.0170617
947.730	0.0168671
947.808	0.0169434
947.886	0.0169698
947.965	0.0169926
948.043	0.0169657
948.121	0.0169643
948.199	0.0170330
948.277	0.0169697
948.355	0.0169634
948.433	0.0169520
948.511	0.0169344
948.590	0.0169309
948.668	0.0169437
948.746	0.0168558
948.824	0.0168002
948.902	0.0168063
948.980	0.0168968
949.058	0.0168051
949.136	0.0167698
949.215	0.0169501
949.293	0.0169025
949.371	0.0168680
949.449	0.0167656
949.527	0.0168665
949.605	0.0168069
949.683	0.0168020
949.761	0.0169195
949.840	0.0167593
949.918	0.0167253
