06/29/2022	21:10:08	Ver.	4.1	UNKNOWN
Optical Delay	629.995835	Delta X		0.078125	Sweeps	1	Scan Rate	0/0
Coordinates	Axis 1	NaN	Axis 2	NaN	Axis 3	NaN	Axis 4	NaN	Axis 5	NaN	Axis 6	0.000000
TX Power	0.000000	RX Power	0.000000

629.996	0.0169059
630.074	0.0169260
630.152	0.0169364
630.230	0.0169997
630.308	0.0168463
630.386	0.0169212
630.465	0.0168645
630.543	0.0169779
630.621	0.0170868
630.699	0.0169269
630.777	0.0169515
630.855	0.0168941
630.933	0.0169694
631.011	0.0167633
631.090	0.0168873
631.168	0.0167886
631.246	0.0169575
631.324	0.0167865
631.402	0.0168861
631.480	0.0169762
631.558	0.0168793
631.636	0.0168775
631.715	0.0169506
631.793	0.0169076
631.871	0.0168394
631.949	0.0168523
632.027	0.0169722
632.105	0.0168893
632.183	0.0169000
632.261	0.0169178
632.340	0.0168336
632.418	0.0169683
632.496	0.0170049
632.574	0.0169123
632.652	0.0170008
632.730	0.0170011
632.808	0.0168390
632.886	0.0168735
632.965	0.0170003
633.043	0.0168890
633.121	0.0168401
633.199	0.0168961
633.277	0.0168760
633.355	0.0167679
633.433	0.0168768
633.511	0.0170473
633.590	0.0170122
633.668	0.0169718
633.746	0.0169147
633.824	0.0168120
633.902	0.0168977
633.980	0.0169250
634.058	0.0170430
634.136	0.0170575
634.215	0.0168868
634.293	0.0169430
634.371	0.0167252
634.449	0.0169617
634.527	0.0168376
634.605	0.0168802
634.683	0.0168840
634.761	0.0170379
634.840	0.0169299
634.918	0.0168626
634.996	0.0170219
635.074	0.0168972
635.152	0.0170356
635.230	0.0168121
635.308	0.0167586
635.386	0.0169287
635.465	0.0169023
635.543	0.0170570
635.621	0.0169138
635.699	0.0168980
635.777	0.0170020
635.855	0.0169426
635.933	0.0168555
636.011	0.0168855
636.090	0.0169891
636.168	0.0169511
636.246	0.0168938
636.324	0.0169121
636.402	0.0168974
636.480	0.0170086
636.558	0.0170120
636.636	0.0169698
636.715	0.0168690
636.793	0.0168305
636.871	0.0169324
636.949	0.0170148
637.027	0.0169282
637.105	0.0168706
637.183	0.0168639
637.261	0.0168942
637.340	0.0169038
637.418	0.0169617
637.496	0.0170580
637.574	0.0169827
637.652	0.0167845
637.730	0.0168797
637.808	0.0169056
637.886	0.0170119
637.965	0.0168399
638.043	0.0169337
638.121	0.0168900
638.199	0.0170551
638.277	0.0170336
638.355	0.0168939
638.433	0.0168438
638.511	0.0169966
638.590	0.0169796
638.668	0.0168197
638.746	0.0168919
638.824	0.0169019
638.902	0.0169524
638.980	0.0167790
639.058	0.0169373
639.136	0.0170910
639.215	0.0170815
639.293	0.0169021
639.371	0.0169260
639.449	0.0169641
639.527	0.0169342
639.605	0.0168355
639.683	0.0168781
639.761	0.0169244
639.840	0.0168981
639.918	0.0169820
639.996	0.0169493
640.074	0.0168945
640.152	0.0169547
640.230	0.0169096
640.308	0.0168610
640.386	0.0169987
640.465	0.0169800
640.543	0.0168629
640.621	0.0170544
640.699	0.0170480
640.777	0.0169841
640.855	0.0169165
640.933	0.0168939
641.011	0.0169886
641.090	0.0170856
641.168	0.0171117
641.246	0.0169843
641.324	0.0170187
641.402	0.0169946
641.480	0.0168872
641.558	0.0169035
641.636	0.0170863
641.715	0.0170287
641.793	0.0169186
641.871	0.0169859
641.949	0.0168471
642.027	0.0170837
642.105	0.0169869
642.183	0.0169304
642.261	0.0169874
642.340	0.0169781
642.418	0.0169009
642.496	0.0169628
642.574	0.0169656
642.652	0.0169554
642.730	0.0169290
642.808	0.0169950
642.886	0.0170237
642.965	0.0170023
643.043	0.0170979
643.121	0.0170195
643.199	0.0168478
643.277	0.0168962
643.355	0.0169580
643.433	0.0170006
643.511	0.0169323
643.590	0.0169658
643.668	0.0170008
643.746	0.0170393
643.824	0.0169434
643.902	0.0170019
643.980	0.0169971
644.058	0.0168414
644.136	0.0169147
644.215	0.0168948
644.293	0.0170909
644.371	0.0169587
644.449	0.0170915
644.527	0.0170914
644.605	0.0170329
644.683	0.0169547
644.761	0.0169923
644.840	0.0169919
644.918	0.0170468
644.996	0.0168660
645.074	0.0170398
645.152	0.0170699
645.230	0.0170099
645.308	0.0169431
645.386	0.0169285
645.465	0.0170866
645.543	0.0168844
645.621	0.0169061
645.699	0.0170370
645.777	0.0170017
645.855	0.0169472
645.933	0.0169804
646.011	0.0169992
646.090	0.0168655
646.168	0.0168960
646.246	0.0168943
646.324	0.0169684
646.402	0.0169043
646.480	0.0168455
646.558	0.0169279
646.636	0.0169492
646.715	0.0170155
646.793	0.0169683
646.871	0.0168664
646.949	0.0169767
647.027	0.0170958
647.105	0.0170499
647.183	0.0169413
647.261	0.0169617
647.340	0.0169192
647.418	0.0169231
647.496	0.0169516
647.574	0.0169551
647.652	0.0169466
647.730	0.0169706
647.808	0.0169598
647.886	0.0170746
647.965	0.0169720
648.043	0.0168710
648.121	0.0168241
648.199	0.0170392
648.277	0.0168629
648.355	0.0169084
648.433	0.0170207
648.511	0.0168578
648.590	0.0169043
648.668	0.0170801
648.746	0.0168848
648.824	0.0169794
648.902	0.0169603
648.980	0.0168234
649.058	0.0168638
649.136	0.0169420
649.215	0.0169131
649.293	0.0168986
649.371	0.0169197
649.449	0.0168968
649.527	0.0168867
649.605	0.0169242
649.683	0.0169212
649.761	0.0169865
649.840	0.0168591
649.918	0.0170244
649.996	0.0169401
650.074	0.0167969
650.152	0.0168652
650.230	0.0169366
650.308	0.0167737
650.386	0.0169836
650.465	0.0169611
650.543	0.0170819
650.621	0.0171060
650.699	0.0169039
650.777	0.0168598
650.855	0.0168892
650.933	0.0169225
651.011	0.0168683
651.090	0.0169309
651.168	0.0169801
651.246	0.0168356
651.324	0.0169678
651.402	0.0169721
651.480	0.0170684
651.558	0.0169158
651.636	0.0170459
651.715	0.0169572
651.793	0.0170320
651.871	0.0169670
651.949	0.0169115
652.027	0.0170020
652.105	0.0169803
652.183	0.0169144
652.261	0.0168776
652.340	0.0169258
652.418	0.0169861
652.496	0.0169201
652.574	0.0168959
652.652	0.0168665
652.730	0.0169238
652.808	0.0169749
652.886	0.0168949
652.965	0.0168114
653.043	0.0169917
653.121	0.0169792
653.199	0.0169029
653.277	0.0169004
653.355	0.0168967
653.433	0.0169760
653.511	0.0168662
653.590	0.0168893
653.668	0.0169092
653.746	0.0169696
653.824	0.0168748
653.902	0.0169369
653.980	0.0169923
654.058	0.0169889
654.136	0.0169805
654.215	0.0168785
654.293	0.0169714
654.371	0.0169084
654.449	0.0168304
654.527	0.0168663
654.605	0.0169991
654.683	0.0170898
654.761	0.0169280
654.840	0.0168996
654.918	0.0169336
654.996	0.0168994
655.074	0.0170288
655.152	0.0169846
655.230	0.0169702
655.308	0.0169501
655.386	0.0168672
655.465	0.0170225
655.543	0.0169829
655.621	0.0168961
655.699	0.0168623
655.777	0.0169525
655.855	0.0169991
655.933	0.0170016
656.011	0.0169015
656.090	0.0169164
656.168	0.0168780
656.246	0.0168986
656.324	0.0168928
656.402	0.0169733
656.480	0.0170071
656.558	0.0169576
656.636	0.0168211
656.715	0.0169299
656.793	0.0170353
656.871	0.0168934
656.949	0.0169178
657.027	0.0169186
657.105	0.0169441
657.183	0.0169462
657.261	0.0170206
657.340	0.0168204
657.418	0.0167943
657.496	0.0170749
657.574	0.0169727
657.652	0.0167698
657.730	0.0169762
657.808	0.0169386
657.886	0.0168655
657.965	0.0170730
658.043	0.0170412
658.121	0.0170129
658.199	0.0171157
658.277	0.0168909
658.355	0.0168851
658.433	0.0169425
658.511	0.0168584
658.590	0.0167838
658.668	0.0170448
658.746	0.0170681
658.824	0.0167932
658.902	0.0169657
658.980	0.0169076
659.058	0.0169506
659.136	0.0170962
659.215	0.0169135
659.293	0.0170309
659.371	0.0169177
659.449	0.0168570
659.527	0.0169180
659.605	0.0169855
659.683	0.0169455
659.761	0.0169300
659.840	0.0169301
659.918	0.0168945
659.996	0.0169777
660.074	0.0169053
660.152	0.0168758
660.230	0.0168878
660.308	0.0169646
660.386	0.0168191
660.465	0.0170855
660.543	0.0169678
660.621	0.0169028
660.699	0.0169877
660.777	0.0170014
660.855	0.0169224
660.933	0.0169457
661.011	0.0169846
661.090	0.0169302
661.168	0.0169502
661.246	0.0169856
661.324	0.0169691
661.402	0.0168964
661.480	0.0168861
661.558	0.0169007
661.636	0.0169166
661.715	0.0169753
661.793	0.0168995
661.871	0.0167671
661.949	0.0168948
662.027	0.0169212
662.105	0.0170818
662.183	0.0170044
662.261	0.0169096
662.340	0.0169518
662.418	0.0170090
662.496	0.0170093
662.574	0.0168819
662.652	0.0169219
662.730	0.0170471
662.808	0.0168388
662.886	0.0170193
662.965	0.0169775
663.043	0.0167999
663.121	0.0169131
663.199	0.0169077
663.277	0.0170790
663.355	0.0169762
663.433	0.0170113
663.511	0.0169667
663.590	0.0170072
663.668	0.0169875
663.746	0.0168903
663.824	0.0168779
663.902	0.0171076
663.980	0.0170704
664.058	0.0168398
664.136	0.0170447
664.215	0.0171130
664.293	0.0170345
664.371	0.0169127
664.449	0.0169913
664.527	0.0169577
664.605	0.0169104
664.683	0.0169627
664.761	0.0169936
664.840	0.0170811
664.918	0.0170352
664.996	0.0168549
665.074	0.0168813
665.152	0.0171471
665.230	0.0169133
665.308	0.0168732
665.386	0.0168600
665.465	0.0169640
665.543	0.0170984
665.621	0.0168802
665.699	0.0169628
665.777	0.0170031
665.855	0.0171474
665.933	0.0170103
666.011	0.0169683
666.090	0.0169447
666.168	0.0169125
666.246	0.0169173
666.324	0.0170622
666.402	0.0169362
666.480	0.0169258
666.558	0.0169900
666.636	0.0170092
666.715	0.0169122
666.793	0.0169227
666.871	0.0169070
666.949	0.0168987
667.027	0.0170378
667.105	0.0170382
667.183	0.0169207
667.261	0.0170477
667.340	0.0169509
667.418	0.0169247
667.496	0.0169489
667.574	0.0170258
667.652	0.0169985
667.730	0.0170347
667.808	0.0168714
667.886	0.0169183
667.965	0.0168837
668.043	0.0169536
668.121	0.0170170
668.199	0.0169120
668.277	0.0168451
668.355	0.0169685
668.433	0.0171109
668.511	0.0169366
668.590	0.0169565
668.668	0.0170198
668.746	0.0170429
668.824	0.0169660
668.902	0.0168581
668.980	0.0169890
669.058	0.0169965
669.136	0.0170100
669.215	0.0168728
669.293	0.0170193
669.371	0.0170128
669.449	0.0169935
669.527	0.0168303
669.605	0.0170000
669.683	0.0169778
669.761	0.0168484
669.840	0.0169848
669.918	0.0170080
669.996	0.0169458
670.074	0.0168022
670.152	0.0170271
670.230	0.0168990
670.308	0.0168027
670.386	0.0170483
670.465	0.0169580
670.543	0.0169634
670.621	0.0167876
670.699	0.0170461
670.777	0.0169122
670.855	0.0169907
670.933	0.0169602
671.011	0.0170137
671.090	0.0168576
671.168	0.0169025
671.246	0.0170948
671.324	0.0169267
671.402	0.0169271
671.480	0.0169025
671.558	0.0171195
671.636	0.0168871
671.715	0.0170882
671.793	0.0168131
671.871	0.0170348
671.949	0.0169049
672.027	0.0169569
672.105	0.0169153
672.183	0.0170191
672.261	0.0169728
672.340	0.0169067
672.418	0.0169678
672.496	0.0169980
672.574	0.0169028
672.652	0.0170633
672.730	0.0169506
672.808	0.0168987
672.886	0.0169524
672.965	0.0168801
673.043	0.0169515
673.121	0.0168634
673.199	0.0169167
673.277	0.0168950
673.355	0.0169331
673.433	0.0170787
673.511	0.0169143
673.590	0.0168207
673.668	0.0169334
673.746	0.0169842
673.824	0.0170380
673.902	0.0169687
673.980	0.0170189
674.058	0.0168752
674.136	0.0168430
674.215	0.0169626
674.293	0.0171358
674.371	0.0169392
674.449	0.0170311
674.527	0.0169970
674.605	0.0169949
674.683	0.0169576
674.761	0.0170090
674.840	0.0170058
674.918	0.0170030
674.996	0.0169981
675.074	0.0169091
675.152	0.0170372
675.230	0.0170207
675.308	0.0169243
675.386	0.0168944
675.465	0.0171085
675.543	0.0171706
675.621	0.0168829
675.699	0.0169534
675.777	0.0169199
675.855	0.0170844
675.933	0.0170261
676.011	0.0170155
676.090	0.0170129
676.168	0.0171244
676.246	0.0169798
676.324	0.0169623
676.402	0.0169865
676.480	0.0169480
676.558	0.0168925
676.636	0.0169579
676.715	0.0169998
676.793	0.0169869
676.871	0.0169315
676.949	0.0170930
677.027	0.0168684
677.105	0.0169763
677.183	0.0170253
677.261	0.0170408
677.340	0.0169104
677.418	0.0169437
677.496	0.0170264
677.574	0.0170020
677.652	0.0170844
677.730	0.0170000
677.808	0.0170274
677.886	0.0170354
677.965	0.0169736
678.043	0.0169061
678.121	0.0169819
678.199	0.0170438
678.277	0.0168922
678.355	0.0171146
678.433	0.0169428
678.511	0.0169348
678.590	0.0169757
678.668	0.0169362
678.746	0.0170168
678.824	0.0168001
678.902	0.0168816
678.980	0.0168497
679.058	0.0170839
679.136	0.0168044
679.215	0.0168913
679.293	0.0168398
679.371	0.0168521
679.449	0.0170216
679.527	0.0168491
679.605	0.0169619
679.683	0.0168832
679.761	0.0169341
679.840	0.0169981
679.918	0.0169902
679.996	0.0170264
680.074	0.0170506
680.152	0.0168394
680.230	0.0169599
680.308	0.0168726
680.386	0.0168768
680.465	0.0169725
680.543	0.0169163
680.621	0.0169047
680.699	0.0169904
680.777	0.0168975
680.855	0.0169052
680.933	0.0168782
681.011	0.0170352
681.090	0.0168902
681.168	0.0169059
681.246	0.0169605
681.324	0.0171118
681.402	0.0169630
681.480	0.0170925
681.558	0.0170255
681.636	0.0168965
681.715	0.0170150
681.793	0.0170111
681.871	0.0170390
681.949	0.0169611
682.027	0.0168284
682.105	0.0170381
682.183	0.0169344
682.261	0.0169210
682.340	0.0168349
682.418	0.0167373
682.496	0.0168369
682.574	0.0169572
682.652	0.0168600
682.730	0.0169698
682.808	0.0168266
682.886	0.0169769
682.965	0.0168842
683.043	0.0169221
683.121	0.0169341
683.199	0.0169070
683.277	0.0170287
683.355	0.0169175
683.433	0.0168664
683.511	0.0169151
683.590	0.0169894
683.668	0.0170763
683.746	0.0168952
683.824	0.0170541
683.902	0.0169946
683.980	0.0170363
684.058	0.0169356
684.136	0.0168809
684.215	0.0168635
684.293	0.0170728
684.371	0.0169996
684.449	0.0169017
684.527	0.0169626
684.605	0.0170965
684.683	0.0169629
684.761	0.0168710
684.840	0.0169460
684.918	0.0168919
684.996	0.0167928
685.074	0.0168858
685.152	0.0169010
685.230	0.0170036
685.308	0.0169157
685.386	0.0170010
685.465	0.0169711
685.543	0.0169488
685.621	0.0169847
685.699	0.0168259
685.777	0.0169562
685.855	0.0169179
685.933	0.0169709
686.011	0.0170004
686.090	0.0170010
686.168	0.0168797
686.246	0.0169377
686.324	0.0169617
686.402	0.0169507
686.480	0.0169717
686.558	0.0169498
686.636	0.0170216
686.715	0.0170137
686.793	0.0169390
686.871	0.0169440
686.949	0.0169676
687.027	0.0170472
687.105	0.0170657
687.183	0.0168990
687.261	0.0169175
687.340	0.0168853
687.418	0.0169619
687.496	0.0169778
687.574	0.0168420
687.652	0.0169080
687.730	0.0170227
687.808	0.0170326
687.886	0.0169663
687.965	0.0170300
688.043	0.0169922
688.121	0.0170870
688.199	0.0169564
688.277	0.0168787
688.355	0.0168676
688.433	0.0170085
688.511	0.0170327
688.590	0.0169841
688.668	0.0170293
688.746	0.0170562
688.824	0.0169030
688.902	0.0168961
688.980	0.0169438
689.058	0.0169691
689.136	0.0168672
689.215	0.0170110
689.293	0.0170326
689.371	0.0170921
689.449	0.0169751
689.527	0.0169542
689.605	0.0169862
689.683	0.0169699
689.761	0.0170260
689.840	0.0169499
689.918	0.0170329
689.996	0.0170244
690.074	0.0169783
690.152	0.0169803
690.230	0.0168951
690.308	0.0170195
690.386	0.0169682
690.465	0.0171217
690.543	0.0170599
690.621	0.0168663
690.699	0.0169347
690.777	0.0169900
690.855	0.0170685
690.933	0.0169115
691.011	0.0170266
691.090	0.0170526
691.168	0.0170145
691.246	0.0170898
691.324	0.0170579
691.402	0.0168871
691.480	0.0169620
691.558	0.0169905
691.636	0.0171322
691.715	0.0169501
691.793	0.0170719
691.871	0.0169454
691.949	0.0169692
692.027	0.0168240
692.105	0.0169123
692.183	0.0170552
692.261	0.0170918
692.340	0.0169198
692.418	0.0169790
692.496	0.0170175
692.574	0.0170361
692.652	0.0169888
692.730	0.0169218
692.808	0.0169416
692.886	0.0170160
692.965	0.0168893
693.043	0.0169431
693.121	0.0169703
693.199	0.0170634
693.277	0.0170340
693.355	0.0169410
693.433	0.0171052
693.511	0.0171609
693.590	0.0170157
693.668	0.0167545
693.746	0.0169797
693.824	0.0169489
693.902	0.0170028
693.980	0.0170306
694.058	0.0170171
694.136	0.0169948
694.215	0.0168867
694.293	0.0169407
694.371	0.0170798
694.449	0.0169233
694.527	0.0169516
694.605	0.0169060
694.683	0.0169873
694.761	0.0170550
694.840	0.0170674
694.918	0.0169428
694.996	0.0170375
695.074	0.0169144
695.152	0.0169369
695.230	0.0168058
695.308	0.0169084
695.386	0.0170822
695.465	0.0169748
695.543	0.0169084
695.621	0.0170610
695.699	0.0170209
695.777	0.0168637
695.855	0.0170026
695.933	0.0170774
696.011	0.0170219
696.090	0.0168449
696.168	0.0168696
696.246	0.0169618
696.324	0.0169972
696.402	0.0169040
696.480	0.0170062
696.558	0.0168679
696.636	0.0169070
696.715	0.0169912
696.793	0.0170290
696.871	0.0169083
696.949	0.0170489
697.027	0.0169206
697.105	0.0169495
697.183	0.0170985
697.261	0.0170037
697.340	0.0169901
697.418	0.0169122
697.496	0.0170961
697.574	0.0170161
697.652	0.0169608
697.730	0.0169762
697.808	0.0169275
697.886	0.0169172
697.965	0.0168601
698.043	0.0169527
698.121	0.0169756
698.199	0.0171311
698.277	0.0170308
698.355	0.0170177
698.433	0.0168880
698.511	0.0168470
698.590	0.0170141
698.668	0.0168777
698.746	0.0170167
698.824	0.0170091
698.902	0.0169110
698.980	0.0168987
699.058	0.0169354
699.136	0.0169911
699.215	0.0168570
699.293	0.0168430
699.371	0.0169250
699.449	0.0168764
699.527	0.0169641
699.605	0.0169878
699.683	0.0169567
699.761	0.0169634
699.840	0.0169958
699.918	0.0168530
699.996	0.0168509
700.074	0.0168939
700.152	0.0168951
700.230	0.0170152
700.308	0.0169035
700.386	0.0168481
700.465	0.0168667
700.543	0.0170396
700.621	0.0170175
700.699	0.0169567
700.777	0.0169772
700.855	0.0168621
700.933	0.0168929
701.011	0.0169855
701.090	0.0169670
701.168	0.0169167
701.246	0.0169949
701.324	0.0169962
701.402	0.0168979
701.480	0.0169884
701.558	0.0168623
701.636	0.0169606
701.715	0.0169808
701.793	0.0169760
701.871	0.0170326
701.949	0.0168243
702.027	0.0168704
702.105	0.0169411
702.183	0.0169216
702.261	0.0170177
702.340	0.0168796
702.418	0.0168407
702.496	0.0169234
702.574	0.0168784
702.652	0.0169381
702.730	0.0168291
702.808	0.0168425
702.886	0.0168666
702.965	0.0169807
703.043	0.0167757
703.121	0.0168540
703.199	0.0168182
703.277	0.0169015
703.355	0.0169743
703.433	0.0169582
703.511	0.0169643
703.590	0.0171690
703.668	0.0169071
703.746	0.0168600
703.824	0.0169061
703.902	0.0169941
703.980	0.0169884
704.058	0.0168522
704.136	0.0169331
704.215	0.0169891
704.293	0.0169994
704.371	0.0168637
704.449	0.0168571
704.527	0.0170814
704.605	0.0168233
704.683	0.0169260
704.761	0.0169913
704.840	0.0169699
704.918	0.0169198
704.996	0.0168800
705.074	0.0167982
705.152	0.0169337
705.230	0.0169855
705.308	0.0169817
705.386	0.0168553
705.465	0.0169572
705.543	0.0169429
705.621	0.0168843
705.699	0.0168456
705.777	0.0168887
705.855	0.0169552
705.933	0.0168993
706.011	0.0168327
706.090	0.0169144
706.168	0.0167446
706.246	0.0169646
706.324	0.0170490
706.402	0.0169345
706.480	0.0169838
706.558	0.0169521
706.636	0.0168908
706.715	0.0169510
706.793	0.0170772
706.871	0.0169302
706.949	0.0169168
707.027	0.0169160
707.105	0.0169234
707.183	0.0170300
707.261	0.0168680
707.340	0.0169392
707.418	0.0170358
707.496	0.0169009
707.574	0.0170551
707.652	0.0169595
707.730	0.0169757
707.808	0.0170191
707.886	0.0168395
707.965	0.0168599
708.043	0.0169897
708.121	0.0168509
708.199	0.0168232
708.277	0.0170408
708.355	0.0169270
708.433	0.0169220
708.511	0.0169535
708.590	0.0168919
708.668	0.0168688
708.746	0.0169184
708.824	0.0169503
708.902	0.0167990
708.980	0.0169904
709.058	0.0170179
709.136	0.0169497
709.215	0.0168417
709.293	0.0169475
709.371	0.0169176
709.449	0.0170560
709.527	0.0170647
709.605	0.0169746
709.683	0.0170059
709.761	0.0169218
709.840	0.0170564
709.918	0.0169204
709.996	0.0171328
710.074	0.0170356
710.152	0.0169762
710.230	0.0168973
710.308	0.0169649
710.386	0.0170634
710.465	0.0169479
710.543	0.0170781
710.621	0.0169844
710.699	0.0169939
710.777	0.0169790
710.855	0.0170395
710.933	0.0170826
711.011	0.0172005
711.090	0.0171390
711.168	0.0172401
711.246	0.0171436
711.324	0.0173415
711.402	0.0171750
711.480	0.0170457
711.558	0.0170789
711.636	0.0171176
711.715	0.0169046
711.793	0.0169505
711.871	0.0170036
711.949	0.0169079
712.027	0.0168139
712.105	0.0169016
712.183	0.0165933
712.261	0.0165504
712.340	0.0166556
712.418	0.0166604
712.496	0.0164509
712.574	0.0165053
712.652	0.0165514
712.730	0.0163896
712.808	0.0164053
712.886	0.0164030
712.965	0.0163551
713.043	0.0165225
713.121	0.0166344
713.199	0.0167218
713.277	0.0168318
713.355	0.0168939
713.433	0.0170885
713.511	0.0172256
713.590	0.0172614
713.668	0.0174886
713.746	0.0176539
713.824	0.0178179
713.902	0.0177711
713.980	0.0179057
714.058	0.0180240
714.136	0.0181358
714.215	0.0182085
714.293	0.0181426
714.371	0.0181264
714.449	0.0180515
714.527	0.0179308
714.605	0.0177193
714.683	0.0175689
714.761	0.0173314
714.840	0.0170540
714.918	0.0167899
714.996	0.0165195
715.074	0.0162292
715.152	0.0158808
715.230	0.0155974
715.308	0.0152851
715.386	0.0149133
715.465	0.0146402
715.543	0.0144891
715.621	0.0141829
715.699	0.0142163
715.777	0.0144152
715.855	0.0145409
715.933	0.0147050
716.011	0.0150384
716.090	0.0155421
716.168	0.0158764
716.246	0.0163985
716.324	0.0168398
716.402	0.0172332
716.480	0.0178791
716.558	0.0182897
716.636	0.0185597
716.715	0.0188375
716.793	0.0191814
716.871	0.0193513
716.949	0.0195546
717.027	0.0195827
717.105	0.0194187
717.183	0.0194869
717.261	0.0194315
717.340	0.0191796
717.418	0.0190910
717.496	0.0189846
717.574	0.0188773
717.652	0.0185784
717.730	0.0185539
717.808	0.0185846
717.886	0.0183938
717.965	0.0184653
718.043	0.0183028
718.121	0.0182008
718.199	0.0181515
718.277	0.0178586
718.355	0.0175835
718.433	0.0172120
718.511	0.0166753
718.590	0.0161964
718.668	0.0156620
718.746	0.0149646
718.824	0.0143475
718.902	0.0136684
718.980	0.0131677
719.058	0.0125655
719.136	0.0121642
719.215	0.0119139
719.293	0.0117899
719.371	0.0117612
719.449	0.0119054
719.527	0.0123100
719.605	0.0127807
719.683	0.0135516
719.761	0.0141841
719.840	0.0150237
719.918	0.0158037
719.996	0.0169012
720.074	0.0180526
720.152	0.0189812
720.230	0.0196371
720.308	0.0204217
720.386	0.0210509
720.465	0.0215536
720.543	0.0217267
720.621	0.0220705
720.699	0.0219221
720.777	0.0216096
720.855	0.0213396
720.933	0.0209983
721.011	0.0205283
721.090	0.0200161
721.168	0.0197018
721.246	0.0191081
721.324	0.0187147
721.402	0.0183944
721.480	0.0181950
721.558	0.0179309
721.636	0.0178450
721.715	0.0178307
721.793	0.0177750
721.871	0.0175413
721.949	0.0176184
722.027	0.0174526
722.105	0.0170140
722.183	0.0166232
722.261	0.0163258
722.340	0.0157059
722.418	0.0152106
722.496	0.0143867
722.574	0.0138638
722.652	0.0134212
722.730	0.0129243
722.808	0.0124824
722.886	0.0122638
722.965	0.0122793
723.043	0.0124369
723.121	0.0126997
723.199	0.0131464
723.277	0.0137237
723.355	0.0144896
723.433	0.0153420
723.511	0.0159501
723.590	0.0169104
723.668	0.0175281
723.746	0.0183652
723.824	0.0190276
723.902	0.0193746
723.980	0.0198386
724.058	0.0201088
724.136	0.0202614
724.215	0.0200489
724.293	0.0198216
724.371	0.0194964
724.449	0.0192802
724.527	0.0188630
724.605	0.0185012
724.683	0.0179782
724.761	0.0175916
724.840	0.0172437
724.918	0.0171689
724.996	0.0167779
725.074	0.0164403
725.152	0.0161679
725.230	0.0158797
725.308	0.0157046
725.386	0.0155070
725.465	0.0153922
725.543	0.0153234
725.621	0.0152530
725.699	0.0151752
725.777	0.0152220
725.855	0.0152451
725.933	0.0154002
726.011	0.0155268
726.090	0.0157952
726.168	0.0160175
726.246	0.0163445
726.324	0.0167840
726.402	0.0171446
726.480	0.0176132
726.558	0.0180755
726.636	0.0183397
726.715	0.0187163
726.793	0.0190059
726.871	0.0192844
726.949	0.0192790
727.027	0.0194035
727.105	0.0193858
727.183	0.0192799
727.261	0.0189736
727.340	0.0188866
727.418	0.0187242
727.496	0.0184965
727.574	0.0182369
727.652	0.0179286
727.730	0.0177246
727.808	0.0176175
727.886	0.0169731
727.965	0.0168312
728.043	0.0165475
728.121	0.0159828
728.199	0.0158440
728.277	0.0154548
728.355	0.0149870
728.433	0.0148176
728.511	0.0146604
728.590	0.0144698
728.668	0.0140836
728.746	0.0140756
728.824	0.0140629
728.902	0.0141775
728.980	0.0142489
729.058	0.0144836
729.136	0.0146708
729.215	0.0150946
729.293	0.0154605
729.371	0.0158958
729.449	0.0164433
729.527	0.0169830
729.605	0.0174641
729.683	0.0179720
729.761	0.0185060
729.840	0.0188572
729.918	0.0190609
729.996	0.0192577
730.074	0.0193207
730.152	0.0194559
730.230	0.0192813
730.308	0.0189751
730.386	0.0188004
730.465	0.0183704
730.543	0.0178861
730.621	0.0174463
730.699	0.0170512
730.777	0.0165614
730.855	0.0165800
730.933	0.0163664
731.011	0.0161800
731.090	0.0162103
731.168	0.0163097
731.246	0.0164358
731.324	0.0163329
731.402	0.0165398
731.480	0.0168697
731.558	0.0169648
731.636	0.0171049
731.715	0.0172143
731.793	0.0171910
731.871	0.0172009
731.949	0.0174268
732.027	0.0173581
732.105	0.0173231
732.183	0.0171068
732.261	0.0170542
732.340	0.0171324
732.418	0.0171597
732.496	0.0171255
732.574	0.0171386
732.652	0.0171622
732.730	0.0172356
732.808	0.0173312
732.886	0.0175443
732.965	0.0176665
733.043	0.0177130
733.121	0.0177289
733.199	0.0179868
733.277	0.0178612
733.355	0.0179585
733.433	0.0176794
733.511	0.0174849
733.590	0.0174075
733.668	0.0169638
733.746	0.0166308
733.824	0.0163955
733.902	0.0161004
733.980	0.0158775
734.058	0.0157043
734.136	0.0154049
734.215	0.0152248
734.293	0.0150483
734.371	0.0150902
734.449	0.0152512
734.527	0.0152035
734.605	0.0152583
734.683	0.0155522
734.761	0.0155930
734.840	0.0156909
734.918	0.0160837
734.996	0.0163335
735.074	0.0166439
735.152	0.0167854
735.230	0.0171328
735.308	0.0174922
735.386	0.0177504
735.465	0.0178282
735.543	0.0180458
735.621	0.0183977
735.699	0.0183694
735.777	0.0183138
735.855	0.0182493
735.933	0.0181435
736.011	0.0180909
736.090	0.0179721
736.168	0.0179345
736.246	0.0177567
736.324	0.0175161
736.402	0.0173069
736.480	0.0170669
736.558	0.0169291
736.636	0.0167800
736.715	0.0166651
736.793	0.0165016
736.871	0.0164615
736.949	0.0163505
737.027	0.0163036
737.105	0.0163900
737.183	0.0164047
737.261	0.0162815
737.340	0.0162499
737.418	0.0164108
737.496	0.0163411
737.574	0.0164640
737.652	0.0161816
737.730	0.0163869
737.808	0.0163285
737.886	0.0165536
737.965	0.0164613
738.043	0.0164857
738.121	0.0166743
738.199	0.0167586
738.277	0.0168693
738.355	0.0168539
738.433	0.0172000
738.511	0.0174567
738.590	0.0175716
738.668	0.0177185
738.746	0.0177648
738.824	0.0178912
738.902	0.0177477
738.980	0.0177554
739.058	0.0177518
739.136	0.0176819
739.215	0.0175095
739.293	0.0173409
739.371	0.0173690
739.449	0.0172919
739.527	0.0172875
739.605	0.0171255
739.683	0.0171141
739.761	0.0170679
739.840	0.0170509
739.918	0.0172031
739.996	0.0170457
740.074	0.0169849
740.152	0.0170679
740.230	0.0169318
740.308	0.0169028
740.386	0.0167303
740.465	0.0168873
740.543	0.0166579
740.621	0.0166580
740.699	0.0166891
740.777	0.0166820
740.855	0.0164983
740.933	0.0164892
741.011	0.0163734
741.090	0.0163044
741.168	0.0162125
741.246	0.0159452
741.324	0.0162018
741.402	0.0161446
741.480	0.0162072
741.558	0.0160618
741.636	0.0162050
741.715	0.0163447
741.793	0.0164146
741.871	0.0166020
741.949	0.0166618
742.027	0.0168828
742.105	0.0168635
742.183	0.0168820
742.261	0.0170895
742.340	0.0169275
742.418	0.0170926
742.496	0.0172059
742.574	0.0173363
742.652	0.0173257
742.730	0.0173341
742.808	0.0172632
742.886	0.0172510
742.965	0.0174179
743.043	0.0172932
743.121	0.0173409
743.199	0.0173207
743.277	0.0171176
743.355	0.0171381
743.433	0.0172560
743.511	0.0172952
743.590	0.0174136
743.668	0.0172694
743.746	0.0174779
743.824	0.0173324
743.902	0.0174208
743.980	0.0173875
744.058	0.0174799
744.136	0.0173013
744.215	0.0172205
744.293	0.0171651
744.371	0.0172591
744.449	0.0171455
744.527	0.0170370
744.605	0.0169176
744.683	0.0167668
744.761	0.0166129
744.840	0.0166174
744.918	0.0167059
744.996	0.0165237
745.074	0.0164801
745.152	0.0166046
745.230	0.0165125
745.308	0.0167073
745.386	0.0167702
745.465	0.0167542
745.543	0.0169221
745.621	0.0168690
745.699	0.0168938
745.777	0.0168806
745.855	0.0169785
745.933	0.0170120
746.011	0.0170385
746.090	0.0171664
746.168	0.0171080
746.246	0.0171712
746.324	0.0170297
746.402	0.0170016
746.480	0.0170937
746.558	0.0171124
746.636	0.0170876
746.715	0.0170211
746.793	0.0168567
746.871	0.0170647
746.949	0.0170483
747.027	0.0169584
747.105	0.0169761
747.183	0.0167922
747.261	0.0166167
747.340	0.0168738
747.418	0.0167163
747.496	0.0165207
747.574	0.0167152
747.652	0.0167434
747.730	0.0166341
747.808	0.0167707
747.886	0.0168138
747.965	0.0169652
748.043	0.0168379
748.121	0.0170039
748.199	0.0171201
748.277	0.0170935
748.355	0.0171359
748.433	0.0172047
748.511	0.0172853
748.590	0.0172209
748.668	0.0172968
748.746	0.0172511
748.824	0.0171020
748.902	0.0171160
748.980	0.0171330
749.058	0.0171172
749.136	0.0170297
749.215	0.0169775
749.293	0.0170325
749.371	0.0169352
749.449	0.0169707
749.527	0.0166795
749.605	0.0168475
749.683	0.0167809
749.761	0.0168258
749.840	0.0168115
749.918	0.0169270
749.996	0.0167758
750.074	0.0167260
750.152	0.0168480
750.230	0.0166309
750.308	0.0166940
750.386	0.0166964
750.465	0.0167361
750.543	0.0165770
750.621	0.0164364
750.699	0.0165495
750.777	0.0166348
750.855	0.0163052
750.933	0.0165640
751.011	0.0166312
751.090	0.0164682
751.168	0.0166828
751.246	0.0166415
751.324	0.0168945
751.402	0.0167823
751.480	0.0167926
751.558	0.0170191
751.636	0.0170209
751.715	0.0171451
751.793	0.0171901
751.871	0.0172500
751.949	0.0172222
752.027	0.0175037
752.105	0.0175572
752.183	0.0174668
752.261	0.0175748
752.340	0.0175341
752.418	0.0175115
752.496	0.0174673
752.574	0.0174674
752.652	0.0174820
752.730	0.0171879
752.808	0.0171855
752.886	0.0171648
752.965	0.0170252
753.043	0.0168554
753.121	0.0169198
753.199	0.0169646
753.277	0.0168251
753.355	0.0167158
753.433	0.0168021
753.511	0.0166895
753.590	0.0166722
753.668	0.0166621
753.746	0.0166985
753.824	0.0165931
753.902	0.0166498
753.980	0.0165549
754.058	0.0166966
754.136	0.0165574
754.215	0.0166264
754.293	0.0166964
754.371	0.0165821
754.449	0.0165952
754.527	0.0167988
754.605	0.0167590
754.683	0.0168761
754.761	0.0167852
754.840	0.0166754
754.918	0.0168675
754.996	0.0169707
755.074	0.0170311
755.152	0.0171005
755.230	0.0171149
755.308	0.0173879
755.386	0.0173335
755.465	0.0172485
755.543	0.0173437
755.621	0.0173222
755.699	0.0173283
755.777	0.0173154
755.855	0.0173174
755.933	0.0173158
756.011	0.0173277
756.090	0.0172282
756.168	0.0171293
756.246	0.0172128
756.324	0.0172127
756.402	0.0170606
756.480	0.0170187
756.558	0.0170484
756.636	0.0170264
756.715	0.0168604
756.793	0.0169763
756.871	0.0170020
756.949	0.0170440
757.027	0.0168667
757.105	0.0169117
757.183	0.0168243
757.261	0.0168420
757.340	0.0167943
757.418	0.0167167
757.496	0.0168490
757.574	0.0165955
757.652	0.0165466
757.730	0.0167284
757.808	0.0165707
757.886	0.0164450
757.965	0.0164542
758.043	0.0164384
758.121	0.0164436
758.199	0.0165025
758.277	0.0163309
758.355	0.0165828
758.433	0.0167928
758.511	0.0166103
758.590	0.0167877
758.668	0.0167828
758.746	0.0169122
758.824	0.0171200
758.902	0.0170363
758.980	0.0171431
759.058	0.0174189
759.136	0.0172952
759.215	0.0173407
759.293	0.0173444
759.371	0.0172772
759.449	0.0171504
759.527	0.0171896
759.605	0.0170792
759.683	0.0170553
759.761	0.0169381
759.840	0.0170288
759.918	0.0169520
759.996	0.0168779
760.074	0.0169055
760.152	0.0169234
760.230	0.0168653
760.308	0.0169569
760.386	0.0169849
760.465	0.0169997
760.543	0.0170476
760.621	0.0169901
760.699	0.0171202
760.777	0.0172466
760.855	0.0172016
760.933	0.0171869
761.011	0.0172095
761.090	0.0171736
761.168	0.0170979
761.246	0.0170228
761.324	0.0170176
761.402	0.0169895
761.480	0.0168743
761.558	0.0168358
761.636	0.0167712
761.715	0.0165804
761.793	0.0166309
761.871	0.0165897
761.949	0.0165723
762.027	0.0164953
762.105	0.0164645
762.183	0.0164609
762.261	0.0164438
762.340	0.0165012
762.418	0.0167213
762.496	0.0165583
762.574	0.0166344
762.652	0.0167281
762.730	0.0168675
762.808	0.0168526
762.886	0.0168735
762.965	0.0169495
763.043	0.0169547
763.121	0.0170500
763.199	0.0170304
763.277	0.0171467
763.355	0.0170117
763.433	0.0170589
763.511	0.0171310
763.590	0.0171322
763.668	0.0170136
763.746	0.0172507
763.824	0.0171201
763.902	0.0171947
763.980	0.0170790
764.058	0.0172301
764.136	0.0169758
764.215	0.0170700
764.293	0.0170734
764.371	0.0170419
764.449	0.0169883
764.527	0.0168549
764.605	0.0168528
764.683	0.0168696
764.761	0.0168419
764.840	0.0167609
764.918	0.0167492
764.996	0.0166869
765.074	0.0166491
765.152	0.0164543
765.230	0.0167198
765.308	0.0166480
765.386	0.0167399
765.465	0.0167972
765.543	0.0169433
765.621	0.0168141
765.699	0.0168591
765.777	0.0169461
765.855	0.0169885
765.933	0.0171276
766.011	0.0171688
766.090	0.0171835
766.168	0.0173190
766.246	0.0172168
766.324	0.0172713
766.402	0.0171358
766.480	0.0171619
766.558	0.0172160
766.636	0.0170604
766.715	0.0171160
766.793	0.0172174
766.871	0.0169863
766.949	0.0169418
767.027	0.0169074
767.105	0.0168307
767.183	0.0169236
767.261	0.0168619
767.340	0.0169267
767.418	0.0168210
767.496	0.0167636
767.574	0.0168995
767.652	0.0168805
767.730	0.0168533
767.808	0.0169015
767.886	0.0169893
767.965	0.0169414
768.043	0.0168835
768.121	0.0168690
768.199	0.0167967
768.277	0.0169192
768.355	0.0169206
768.433	0.0167702
768.511	0.0168253
768.590	0.0167680
768.668	0.0166533
768.746	0.0166571
768.824	0.0167571
768.902	0.0168401
768.980	0.0168702
769.058	0.0169122
769.136	0.0169478
769.215	0.0170719
769.293	0.0170741
769.371	0.0172544
769.449	0.0173611
769.527	0.0173997
769.605	0.0175595
769.683	0.0175060
769.761	0.0175383
769.840	0.0175806
769.918	0.0175704
769.996	0.0175320
770.074	0.0176643
770.152	0.0176414
770.230	0.0174950
770.308	0.0174443
770.386	0.0173289
770.465	0.0172729
770.543	0.0170881
770.621	0.0169340
770.699	0.0168517
770.777	0.0166851
770.855	0.0167687
770.933	0.0166702
771.011	0.0166913
771.090	0.0166510
771.168	0.0164375
771.246	0.0165181
771.324	0.0164328
771.402	0.0164390
771.480	0.0164830
771.558	0.0163807
771.636	0.0165449
771.715	0.0165016
771.793	0.0164826
771.871	0.0165099
771.949	0.0165333
772.027	0.0166146
772.105	0.0165064
772.183	0.0164527
772.261	0.0167980
772.340	0.0167475
772.418	0.0168445
772.496	0.0169313
772.574	0.0169662
772.652	0.0171480
772.730	0.0171652
772.808	0.0172607
772.886	0.0172564
772.965	0.0175060
773.043	0.0173978
773.121	0.0174664
773.199	0.0175159
773.277	0.0174269
773.355	0.0173275
773.433	0.0173883
773.511	0.0174059
773.590	0.0174359
773.668	0.0173519
773.746	0.0172985
773.824	0.0173329
773.902	0.0170932
773.980	0.0168768
774.058	0.0169131
774.136	0.0168534
774.215	0.0167474
774.293	0.0167938
774.371	0.0165977
774.449	0.0166975
774.527	0.0166720
774.605	0.0167678
774.683	0.0166261
774.761	0.0167039
774.840	0.0167513
774.918	0.0166483
774.996	0.0168486
775.074	0.0166862
775.152	0.0167198
775.230	0.0168110
775.308	0.0168758
775.386	0.0167719
775.465	0.0167959
775.543	0.0167783
775.621	0.0167992
775.699	0.0168050
775.777	0.0166803
775.855	0.0166543
775.933	0.0168961
776.011	0.0167392
776.090	0.0168211
776.168	0.0167531
776.246	0.0168167
776.324	0.0168818
776.402	0.0170015
776.480	0.0169120
776.558	0.0169129
776.636	0.0168802
776.715	0.0169465
776.793	0.0170778
776.871	0.0172306
776.949	0.0172778
777.027	0.0172199
777.105	0.0171577
777.183	0.0172923
777.261	0.0172377
777.340	0.0172992
777.418	0.0169569
777.496	0.0170973
777.574	0.0172229
777.652	0.0170791
777.730	0.0170280
777.808	0.0169550
777.886	0.0169932
777.965	0.0169347
778.043	0.0169888
778.121	0.0168914
778.199	0.0168604
778.277	0.0169683
778.355	0.0169363
778.433	0.0168894
778.511	0.0169868
778.590	0.0170499
778.668	0.0170431
778.746	0.0169749
778.824	0.0168444
778.902	0.0170811
778.980	0.0169115
779.058	0.0168218
779.136	0.0169763
779.215	0.0168903
779.293	0.0168858
779.371	0.0169534
779.449	0.0170061
779.527	0.0169146
779.605	0.0169932
779.683	0.0169313
779.761	0.0168761
779.840	0.0171258
779.918	0.0171816
779.996	0.0171740
780.074	0.0172103
780.152	0.0172905
780.230	0.0173098
780.308	0.0173937
780.386	0.0173578
780.465	0.0173293
780.543	0.0170551
780.621	0.0171347
780.699	0.0171017
780.777	0.0171835
780.855	0.0169289
780.933	0.0169665
781.011	0.0169332
781.090	0.0168536
781.168	0.0166864
781.246	0.0165519
781.324	0.0166653
781.402	0.0165306
781.480	0.0166819
781.558	0.0166351
781.636	0.0166674
781.715	0.0168039
781.793	0.0167326
781.871	0.0167422
781.949	0.0168585
782.027	0.0167306
782.105	0.0167414
782.183	0.0169122
782.261	0.0169067
782.340	0.0170232
782.418	0.0171336
782.496	0.0170865
782.574	0.0170213
782.652	0.0171242
782.730	0.0171088
782.808	0.0171849
782.886	0.0171653
782.965	0.0171124
783.043	0.0171114
783.121	0.0173400
783.199	0.0173215
783.277	0.0172878
783.355	0.0172237
783.433	0.0171264
783.511	0.0172581
783.590	0.0172063
783.668	0.0172593
783.746	0.0171474
783.824	0.0172021
783.902	0.0172414
783.980	0.0172290
784.058	0.0171053
784.136	0.0170627
784.215	0.0170442
784.293	0.0170537
784.371	0.0168589
784.449	0.0168709
784.527	0.0167267
784.605	0.0169216
784.683	0.0165374
784.761	0.0165378
784.840	0.0166757
784.918	0.0167169
784.996	0.0164851
785.074	0.0165339
785.152	0.0164473
785.230	0.0165485
785.308	0.0164952
785.386	0.0165546
785.465	0.0166823
785.543	0.0167620
785.621	0.0168700
785.699	0.0168590
785.777	0.0168382
785.855	0.0169770
785.933	0.0169830
786.011	0.0170535
786.090	0.0170731
786.168	0.0171165
786.246	0.0169990
786.324	0.0170261
786.402	0.0171623
786.480	0.0171423
786.558	0.0172939
786.636	0.0172411
786.715	0.0172050
786.793	0.0170751
786.871	0.0172112
786.949	0.0172246
787.027	0.0171615
787.105	0.0172785
787.183	0.0171329
787.261	0.0170995
787.340	0.0171246
787.418	0.0169712
787.496	0.0170872
787.574	0.0171196
787.652	0.0171014
787.730	0.0169588
787.808	0.0170228
787.886	0.0169753
787.965	0.0169330
788.043	0.0168037
788.121	0.0166971
788.199	0.0167628
788.277	0.0166122
788.355	0.0166697
788.433	0.0166694
788.511	0.0166818
788.590	0.0165413
788.668	0.0164932
788.746	0.0166606
788.824	0.0166068
788.902	0.0165344
788.980	0.0166449
789.058	0.0167026
789.136	0.0167460
789.215	0.0167930
789.293	0.0168311
789.371	0.0168145
789.449	0.0170531
789.527	0.0169947
789.605	0.0171215
789.683	0.0171064
789.761	0.0172156
789.840	0.0171671
789.918	0.0171469
789.996	0.0171724
790.074	0.0173385
790.152	0.0172343
790.230	0.0173097
790.308	0.0172684
790.386	0.0171609
790.465	0.0172677
790.543	0.0172601
790.621	0.0170829
790.699	0.0172052
790.777	0.0169794
790.855	0.0171484
790.933	0.0169859
791.011	0.0169553
791.090	0.0169987
791.168	0.0168717
791.246	0.0167406
791.324	0.0167429
791.402	0.0167339
791.480	0.0167822
791.558	0.0166463
791.636	0.0166177
791.715	0.0166043
791.793	0.0166384
791.871	0.0166200
791.949	0.0166446
792.027	0.0166486
792.105	0.0166990
792.183	0.0166685
792.261	0.0168658
792.340	0.0168613
792.418	0.0170124
792.496	0.0169216
792.574	0.0170153
792.652	0.0171365
792.730	0.0170900
792.808	0.0172485
792.886	0.0172085
792.965	0.0171513
793.043	0.0172052
793.121	0.0171596
793.199	0.0173812
793.277	0.0173073
793.355	0.0173127
793.433	0.0172137
793.511	0.0171841
793.590	0.0170528
793.668	0.0170514
793.746	0.0169514
793.824	0.0170348
793.902	0.0170949
793.980	0.0169623
794.058	0.0170504
794.136	0.0168589
794.215	0.0168464
794.293	0.0168632
794.371	0.0168320
794.449	0.0169151
794.527	0.0169148
794.605	0.0168698
794.683	0.0169455
794.761	0.0168729
794.840	0.0167323
794.918	0.0168335
794.996	0.0168379
795.074	0.0168420
795.152	0.0167239
795.230	0.0168295
795.308	0.0165836
795.386	0.0166962
795.465	0.0167165
795.543	0.0168784
795.621	0.0168044
795.699	0.0168751
795.777	0.0168110
795.855	0.0168385
795.933	0.0169263
796.011	0.0169930
796.090	0.0169568
796.168	0.0169524
796.246	0.0168953
796.324	0.0170036
796.402	0.0169854
796.480	0.0170859
796.558	0.0170062
796.636	0.0170433
796.715	0.0170142
796.793	0.0169968
796.871	0.0169773
796.949	0.0169647
797.027	0.0168361
797.105	0.0169145
797.183	0.0169780
797.261	0.0169263
797.340	0.0169135
797.418	0.0169423
797.496	0.0169019
797.574	0.0169287
797.652	0.0168909
797.730	0.0169003
797.808	0.0168676
797.886	0.0169998
797.965	0.0168693
798.043	0.0169823
798.121	0.0169387
798.199	0.0168076
798.277	0.0168465
798.355	0.0168098
798.433	0.0167066
798.511	0.0167937
798.590	0.0166273
798.668	0.0167314
798.746	0.0167830
798.824	0.0168542
798.902	0.0167352
798.980	0.0167606
799.058	0.0167030
799.136	0.0167850
799.215	0.0167719
799.293	0.0168090
799.371	0.0169376
799.449	0.0168687
799.527	0.0169774
799.605	0.0170650
799.683	0.0171203
799.761	0.0171625
799.840	0.0170636
799.918	0.0170142
799.996	0.0170906
800.074	0.0171682
800.152	0.0171449
800.230	0.0172521
800.308	0.0172137
800.386	0.0168848
800.465	0.0170515
800.543	0.0169586
800.621	0.0170423
800.699	0.0171193
800.777	0.0170506
800.855	0.0168639
800.933	0.0167416
801.011	0.0169884
801.090	0.0169691
801.168	0.0168420
801.246	0.0168480
801.324	0.0168864
801.402	0.0169322
801.480	0.0167828
801.558	0.0168893
801.636	0.0167653
801.715	0.0168993
801.793	0.0169302
801.871	0.0167638
801.949	0.0168022
802.027	0.0166681
802.105	0.0168552
802.183	0.0168380
802.261	0.0167867
802.340	0.0166541
802.418	0.0168848
802.496	0.0168087
802.574	0.0168360
802.652	0.0168262
802.730	0.0169051
802.808	0.0169048
802.886	0.0169842
802.965	0.0170609
803.043	0.0169604
803.121	0.0171312
803.199	0.0171521
803.277	0.0170727
803.355	0.0171551
803.433	0.0170415
803.511	0.0171342
803.590	0.0171384
803.668	0.0171951
803.746	0.0172086
803.824	0.0172789
803.902	0.0171552
803.980	0.0172223
804.058	0.0171523
804.136	0.0171389
804.215	0.0171503
804.293	0.0170530
804.371	0.0171284
804.449	0.0171134
804.527	0.0171157
804.605	0.0170056
804.683	0.0169769
804.761	0.0169064
804.840	0.0167027
804.918	0.0168935
804.996	0.0167263
805.074	0.0167538
805.152	0.0165788
805.230	0.0168186
805.308	0.0167099
805.386	0.0167587
805.465	0.0166812
805.543	0.0167741
805.621	0.0166471
805.699	0.0167419
805.777	0.0167055
805.855	0.0168007
805.933	0.0168462
806.011	0.0167475
806.090	0.0167982
806.168	0.0170242
806.246	0.0169397
806.324	0.0168932
806.402	0.0170969
806.480	0.0169796
806.558	0.0168835
806.636	0.0169603
806.715	0.0170403
806.793	0.0171204
806.871	0.0171348
806.949	0.0171478
807.027	0.0170805
807.105	0.0170332
807.183	0.0170501
807.261	0.0171290
807.340	0.0170976
807.418	0.0171198
807.496	0.0170054
807.574	0.0171782
807.652	0.0170462
807.730	0.0169214
807.808	0.0170218
807.886	0.0170766
807.965	0.0170192
808.043	0.0168831
808.121	0.0170221
808.199	0.0169289
808.277	0.0169393
808.355	0.0169601
808.433	0.0169764
808.511	0.0168442
808.590	0.0168985
808.668	0.0170784
808.746	0.0168683
808.824	0.0169883
808.902	0.0169193
808.980	0.0168767
809.058	0.0168423
809.136	0.0169453
809.215	0.0167709
809.293	0.0168027
809.371	0.0168329
809.449	0.0168141
809.527	0.0168430
809.605	0.0168680
809.683	0.0168251
809.761	0.0167883
809.840	0.0169681
809.918	0.0169711
809.996	0.0170146
810.074	0.0168342
810.152	0.0169221
810.230	0.0170203
810.308	0.0171452
810.386	0.0170160
810.465	0.0172406
810.543	0.0173149
810.621	0.0172934
810.699	0.0171638
810.777	0.0171905
810.855	0.0173363
810.933	0.0171201
811.011	0.0172998
811.090	0.0171272
811.168	0.0169744
811.246	0.0170425
811.324	0.0169556
811.402	0.0170039
811.480	0.0169498
811.558	0.0167847
811.636	0.0167412
811.715	0.0167178
811.793	0.0167519
811.871	0.0167198
811.949	0.0164856
812.027	0.0166210
812.105	0.0164557
812.183	0.0165290
812.261	0.0165704
812.340	0.0166150
812.418	0.0165482
812.496	0.0166357
812.574	0.0167561
812.652	0.0168345
812.730	0.0167839
812.808	0.0166963
812.886	0.0168081
812.965	0.0169610
813.043	0.0168944
813.121	0.0170573
813.199	0.0170095
813.277	0.0170519
813.355	0.0172057
813.433	0.0172067
813.511	0.0171750
813.590	0.0173344
813.668	0.0173260
813.746	0.0174544
813.824	0.0174061
813.902	0.0174947
813.980	0.0174329
814.058	0.0175068
814.136	0.0174972
814.215	0.0175070
814.293	0.0175879
814.371	0.0176578
814.449	0.0176075
814.527	0.0174619
814.605	0.0173727
814.683	0.0174438
814.761	0.0173034
814.840	0.0170840
814.918	0.0169680
814.996	0.0170117
815.074	0.0167313
815.152	0.0164481
815.230	0.0166041
815.308	0.0163839
815.386	0.0161195
815.465	0.0159792
815.543	0.0159170
815.621	0.0158733
815.699	0.0158012
815.777	0.0157014
815.855	0.0157281
815.933	0.0158764
816.011	0.0157418
816.090	0.0158817
816.168	0.0159866
816.246	0.0160795
816.324	0.0162410
816.402	0.0163756
816.480	0.0166150
816.558	0.0167313
816.636	0.0169053
816.715	0.0170221
816.793	0.0172022
816.871	0.0174849
816.949	0.0175533
817.027	0.0175691
817.105	0.0177171
817.183	0.0177949
817.261	0.0179748
817.340	0.0179557
817.418	0.0178857
817.496	0.0180415
817.574	0.0179809
817.652	0.0180847
817.730	0.0179859
817.808	0.0177966
817.886	0.0178320
817.965	0.0177235
818.043	0.0175691
818.121	0.0174675
818.199	0.0174767
818.277	0.0172919
818.355	0.0171837
818.433	0.0169885
818.511	0.0168877
818.590	0.0167409
818.668	0.0165120
818.746	0.0165808
818.824	0.0164390
818.902	0.0161828
818.980	0.0161876
819.058	0.0161153
819.136	0.0160735
819.215	0.0159657
819.293	0.0160414
819.371	0.0160196
819.449	0.0160569
819.527	0.0161713
819.605	0.0161641
819.683	0.0162511
819.761	0.0162969
819.840	0.0165703
819.918	0.0165838
819.996	0.0167316
820.074	0.0168895
820.152	0.0170000
820.230	0.0170621
820.308	0.0170210
820.386	0.0171529
820.465	0.0171328
820.543	0.0172458
820.621	0.0172572
820.699	0.0172535
820.777	0.0172656
820.855	0.0172703
820.933	0.0172610
821.011	0.0173396
821.090	0.0172383
821.168	0.0172153
821.246	0.0169948
821.324	0.0170393
821.402	0.0171456
821.480	0.0170348
821.558	0.0168659
821.636	0.0169431
821.715	0.0170511
821.793	0.0169687
821.871	0.0169944
821.949	0.0169114
822.027	0.0167210
822.105	0.0168481
822.183	0.0169537
822.261	0.0168546
822.340	0.0170159
822.418	0.0168906
822.496	0.0167895
822.574	0.0168497
822.652	0.0170564
822.730	0.0168179
822.808	0.0168584
822.886	0.0169222
822.965	0.0169832
823.043	0.0169408
823.121	0.0169836
823.199	0.0169592
823.277	0.0169946
823.355	0.0170577
823.433	0.0169918
823.511	0.0170547
823.590	0.0171329
823.668	0.0170339
823.746	0.0170813
823.824	0.0172598
823.902	0.0171551
823.980	0.0171581
824.058	0.0170990
824.136	0.0171911
824.215	0.0172855
824.293	0.0171066
824.371	0.0170202
824.449	0.0169787
824.527	0.0168307
824.605	0.0168180
824.683	0.0168906
824.761	0.0166808
824.840	0.0164891
824.918	0.0165893
824.996	0.0165285
825.074	0.0165430
825.152	0.0164822
825.230	0.0165719
825.308	0.0164117
825.386	0.0163773
825.465	0.0165332
825.543	0.0164499
825.621	0.0165583
825.699	0.0166196
825.777	0.0167097
825.855	0.0166562
825.933	0.0167828
826.011	0.0167064
826.090	0.0168877
826.168	0.0168903
826.246	0.0169018
826.324	0.0170619
826.402	0.0169244
826.480	0.0168514
826.558	0.0170110
826.636	0.0170049
826.715	0.0171264
826.793	0.0171388
826.871	0.0171456
826.949	0.0171175
827.027	0.0172380
827.105	0.0171488
827.183	0.0171604
827.261	0.0173077
827.340	0.0172065
827.418	0.0172041
827.496	0.0172611
827.574	0.0170666
827.652	0.0173210
827.730	0.0171194
827.808	0.0170186
827.886	0.0169683
827.965	0.0170683
828.043	0.0170858
828.121	0.0171233
828.199	0.0168694
828.277	0.0169411
828.355	0.0169888
828.433	0.0169899
828.511	0.0168478
828.590	0.0168731
828.668	0.0168204
828.746	0.0169508
828.824	0.0167847
828.902	0.0167799
828.980	0.0169170
829.058	0.0169627
829.136	0.0167838
829.215	0.0169917
829.293	0.0170054
829.371	0.0169417
829.449	0.0169436
829.527	0.0170311
829.605	0.0169828
829.683	0.0170222
829.761	0.0170240
829.840	0.0170138
829.918	0.0170573
829.996	0.0170715
830.074	0.0169994
830.152	0.0169843
830.230	0.0170168
830.308	0.0169115
830.386	0.0169584
830.465	0.0171243
830.543	0.0168888
830.621	0.0168528
830.699	0.0169072
830.777	0.0167801
830.855	0.0168467
830.933	0.0167204
831.011	0.0167896
831.090	0.0167918
831.168	0.0167052
831.246	0.0167142
831.324	0.0166721
831.402	0.0168882
831.480	0.0166639
831.558	0.0167350
831.636	0.0169141
831.715	0.0167497
831.793	0.0169099
831.871	0.0168659
831.949	0.0168074
832.027	0.0168519
832.105	0.0168567
832.183	0.0170000
832.261	0.0170103
832.340	0.0167909
832.418	0.0171177
832.496	0.0169061
832.574	0.0170783
832.652	0.0169430
832.730	0.0170142
832.808	0.0170918
832.886	0.0169662
832.965	0.0170712
833.043	0.0171746
833.121	0.0171347
833.199	0.0170072
833.277	0.0170402
833.355	0.0171536
833.433	0.0170921
833.511	0.0169337
833.590	0.0169903
833.668	0.0170383
833.746	0.0169721
833.824	0.0170612
833.902	0.0169930
833.980	0.0171111
834.058	0.0170751
834.136	0.0168150
834.215	0.0168091
834.293	0.0169037
834.371	0.0169046
834.449	0.0168919
834.527	0.0168191
834.605	0.0167790
834.683	0.0168470
834.761	0.0166631
834.840	0.0168124
834.918	0.0168216
834.996	0.0167882
835.074	0.0169437
835.152	0.0168301
835.230	0.0167699
835.308	0.0168861
835.386	0.0168121
835.465	0.0168123
835.543	0.0168906
835.621	0.0167613
835.699	0.0169596
835.777	0.0169348
835.855	0.0168963
835.933	0.0169844
836.011	0.0169450
836.090	0.0168703
836.168	0.0169796
836.246	0.0168706
836.324	0.0169612
836.402	0.0171253
836.480	0.0168179
836.558	0.0169439
836.636	0.0169337
836.715	0.0170236
836.793	0.0169001
836.871	0.0170010
836.949	0.0169702
837.027	0.0169763
837.105	0.0168473
837.183	0.0168805
837.261	0.0170552
837.340	0.0168046
837.418	0.0168492
837.496	0.0169563
837.574	0.0166950
837.652	0.0168772
837.730	0.0169011
837.808	0.0168947
837.886	0.0168201
837.965	0.0169865
838.043	0.0168388
838.121	0.0169308
838.199	0.0169659
838.277	0.0169579
838.355	0.0168535
838.433	0.0170097
838.511	0.0170850
838.590	0.0169511
838.668	0.0170379
838.746	0.0170797
838.824	0.0168916
838.902	0.0171061
838.980	0.0170213
839.058	0.0170050
839.136	0.0170762
839.215	0.0170259
839.293	0.0169366
839.371	0.0169970
839.449	0.0169053
839.527	0.0168305
839.605	0.0168221
839.683	0.0169339
839.761	0.0168601
839.840	0.0168536
839.918	0.0168463
839.996	0.0167034
840.074	0.0168388
840.152	0.0168819
840.230	0.0169089
840.308	0.0166328
840.386	0.0167619
840.465	0.0168952
840.543	0.0168358
840.621	0.0168321
840.699	0.0169714
840.777	0.0168486
840.855	0.0169926
840.933	0.0169862
841.011	0.0169386
841.090	0.0170174
841.168	0.0169187
841.246	0.0168280
841.324	0.0168474
841.402	0.0169311
841.480	0.0169627
841.558	0.0170580
841.636	0.0169549
841.715	0.0169521
841.793	0.0169398
841.871	0.0169920
841.949	0.0168346
842.027	0.0169665
842.105	0.0170177
842.183	0.0168675
842.261	0.0168753
842.340	0.0168021
842.418	0.0168692
842.496	0.0168419
842.574	0.0168047
842.652	0.0167854
842.730	0.0169423
842.808	0.0168420
842.886	0.0167243
842.965	0.0167063
843.043	0.0167285
843.121	0.0167254
843.199	0.0168731
843.277	0.0166759
843.355	0.0167646
843.433	0.0168237
843.511	0.0168943
843.590	0.0167977
843.668	0.0169592
843.746	0.0168894
843.824	0.0169505
843.902	0.0171058
843.980	0.0170505
844.058	0.0170734
844.136	0.0170460
844.215	0.0170928
844.293	0.0171207
844.371	0.0171435
844.449	0.0170771
844.527	0.0171177
844.605	0.0170856
844.683	0.0171943
844.761	0.0171014
844.840	0.0170851
844.918	0.0170602
844.996	0.0171545
845.074	0.0170970
845.152	0.0170605
845.230	0.0171786
845.308	0.0171231
845.386	0.0170646
845.465	0.0171664
845.543	0.0170943
845.621	0.0171139
845.699	0.0171057
845.777	0.0169196
845.855	0.0169904
845.933	0.0168496
846.011	0.0168822
846.090	0.0167650
846.168	0.0167149
846.246	0.0167236
846.324	0.0167840
846.402	0.0165325
846.480	0.0166212
846.558	0.0165257
846.636	0.0165726
846.715	0.0166243
846.793	0.0165426
846.871	0.0164822
846.949	0.0165915
847.027	0.0167085
847.105	0.0166404
847.183	0.0165093
847.261	0.0166679
847.340	0.0167644
847.418	0.0167310
847.496	0.0166237
847.574	0.0168482
847.652	0.0168506
847.730	0.0168748
847.808	0.0167784
847.886	0.0170248
847.965	0.0170005
848.043	0.0169664
848.121	0.0171016
848.199	0.0171358
848.277	0.0171182
848.355	0.0170798
848.433	0.0172723
848.511	0.0172824
848.590	0.0172108
848.668	0.0172733
848.746	0.0173823
848.824	0.0171464
848.902	0.0171812
848.980	0.0173259
849.058	0.0171687
849.136	0.0170484
849.215	0.0170743
849.293	0.0171458
849.371	0.0169876
849.449	0.0169526
849.527	0.0168820
849.605	0.0166752
849.683	0.0168023
849.761	0.0167129
849.840	0.0165965
849.918	0.0166213
849.996	0.0167078
850.074	0.0165830
850.152	0.0165935
850.230	0.0166998
850.308	0.0167529
850.386	0.0167010
850.465	0.0166009
850.543	0.0167619
850.621	0.0167484
850.699	0.0167056
850.777	0.0168893
850.855	0.0169509
850.933	0.0169125
851.011	0.0170184
851.090	0.0171431
851.168	0.0169555
851.246	0.0170364
851.324	0.0170536
851.402	0.0169388
851.480	0.0169331
851.558	0.0171557
851.636	0.0172482
851.715	0.0170454
851.793	0.0170663
851.871	0.0171039
851.949	0.0172040
852.027	0.0170889
852.105	0.0169867
852.183	0.0170279
852.261	0.0170616
852.340	0.0169036
852.418	0.0170636
852.496	0.0168887
852.574	0.0169573
852.652	0.0167946
852.730	0.0166974
852.808	0.0167847
852.886	0.0166585
852.965	0.0166735
853.043	0.0168661
853.121	0.0167696
853.199	0.0167329
853.277	0.0167032
853.355	0.0167051
853.433	0.0167847
853.511	0.0167212
853.590	0.0168745
853.668	0.0168904
853.746	0.0168034
853.824	0.0168532
853.902	0.0170953
853.980	0.0170174
854.058	0.0170177
854.136	0.0170240
854.215	0.0171046
854.293	0.0171632
854.371	0.0171130
854.449	0.0172057
854.527	0.0171866
854.605	0.0171140
854.683	0.0171968
854.761	0.0171591
854.840	0.0170956
854.918	0.0171787
854.996	0.0171632
855.074	0.0172159
855.152	0.0170900
855.230	0.0170406
855.308	0.0169946
855.386	0.0169287
855.465	0.0169484
855.543	0.0168272
855.621	0.0167980
855.699	0.0169224
855.777	0.0168313
855.855	0.0167135
855.933	0.0166709
856.011	0.0168465
856.090	0.0166884
856.168	0.0167413
856.246	0.0167548
856.324	0.0166255
856.402	0.0168004
856.480	0.0167046
856.558	0.0167324
856.636	0.0166978
856.715	0.0168838
856.793	0.0166729
856.871	0.0168215
856.949	0.0168011
857.027	0.0168462
857.105	0.0168492
857.183	0.0169570
857.261	0.0169548
857.340	0.0169262
857.418	0.0169805
857.496	0.0169437
857.574	0.0169328
857.652	0.0171219
857.730	0.0172793
857.808	0.0170376
857.886	0.0170610
857.965	0.0171575
858.043	0.0170079
858.121	0.0169453
858.199	0.0171410
858.277	0.0171503
858.355	0.0171322
858.433	0.0170082
858.511	0.0170638
858.590	0.0170013
858.668	0.0170116
858.746	0.0170167
858.824	0.0171095
858.902	0.0170570
858.980	0.0169312
859.058	0.0169365
859.136	0.0169671
859.215	0.0168767
859.293	0.0168413
859.371	0.0169338
859.449	0.0168201
859.527	0.0167051
859.605	0.0167077
859.683	0.0168433
859.761	0.0168074
859.840	0.0168638
859.918	0.0167892
859.996	0.0168012
860.074	0.0166831
860.152	0.0168661
860.230	0.0168826
860.308	0.0168880
860.386	0.0168726
860.465	0.0169211
860.543	0.0168623
860.621	0.0169051
860.699	0.0169729
860.777	0.0169804
860.855	0.0169455
860.933	0.0171313
861.011	0.0168485
861.090	0.0170258
861.168	0.0169476
861.246	0.0169822
861.324	0.0169690
861.402	0.0169205
861.480	0.0168032
861.558	0.0167525
861.636	0.0169460
861.715	0.0169810
861.793	0.0168241
861.871	0.0168036
861.949	0.0169222
862.027	0.0169019
862.105	0.0168037
862.183	0.0168978
862.261	0.0168825
862.340	0.0167306
862.418	0.0168871
862.496	0.0168700
862.574	0.0169672
862.652	0.0169027
862.730	0.0169505
862.808	0.0168546
862.886	0.0168686
862.965	0.0169383
863.043	0.0169257
863.121	0.0167554
863.199	0.0169724
863.277	0.0170879
863.355	0.0169205
863.433	0.0169616
863.511	0.0171492
863.590	0.0169868
863.668	0.0170326
863.746	0.0170983
863.824	0.0169961
863.902	0.0169711
863.980	0.0169221
864.058	0.0169486
864.136	0.0170425
864.215	0.0170179
864.293	0.0170298
864.371	0.0170280
864.449	0.0168304
864.527	0.0170399
864.605	0.0170886
864.683	0.0169830
864.761	0.0170001
864.840	0.0169615
864.918	0.0169669
864.996	0.0169079
865.074	0.0169036
865.152	0.0171758
865.230	0.0169661
865.308	0.0168903
865.386	0.0169895
865.465	0.0168146
865.543	0.0169394
865.621	0.0169408
865.699	0.0169109
865.777	0.0170655
865.855	0.0170844
865.933	0.0170704
866.011	0.0169376
866.090	0.0169479
866.168	0.0169306
866.246	0.0168033
866.324	0.0169877
866.402	0.0169091
866.480	0.0168590
866.558	0.0169417
866.636	0.0169901
866.715	0.0167804
866.793	0.0168757
866.871	0.0168448
866.949	0.0167852
867.027	0.0168803
867.105	0.0168804
867.183	0.0168288
867.261	0.0168935
867.340	0.0168768
867.418	0.0170049
867.496	0.0169241
867.574	0.0168991
867.652	0.0169901
867.730	0.0169328
867.808	0.0171079
867.886	0.0169810
867.965	0.0169276
868.043	0.0170539
868.121	0.0169848
868.199	0.0170345
868.277	0.0170882
868.355	0.0171077
868.433	0.0171423
868.511	0.0170540
868.590	0.0170604
868.668	0.0170175
868.746	0.0169765
868.824	0.0170417
868.902	0.0169589
868.980	0.0170083
869.058	0.0168401
869.136	0.0169837
869.215	0.0168598
869.293	0.0169817
869.371	0.0167847
869.449	0.0169794
869.527	0.0168500
869.605	0.0168697
869.683	0.0168256
869.761	0.0168245
869.840	0.0168913
869.918	0.0168378
869.996	0.0168256
870.074	0.0168938
870.152	0.0168050
870.230	0.0169694
870.308	0.0167132
870.386	0.0168430
870.465	0.0168562
870.543	0.0169098
870.621	0.0169900
870.699	0.0168434
870.777	0.0169930
870.855	0.0169944
870.933	0.0170094
871.011	0.0169621
871.090	0.0170373
871.168	0.0170360
871.246	0.0169888
871.324	0.0170304
871.402	0.0170697
871.480	0.0170372
871.558	0.0170018
871.636	0.0170847
871.715	0.0168354
871.793	0.0167726
871.871	0.0169029
871.949	0.0169574
872.027	0.0168043
872.105	0.0169008
872.183	0.0169129
872.261	0.0169675
872.340	0.0168728
872.418	0.0167716
872.496	0.0168910
872.574	0.0167527
872.652	0.0169285
872.730	0.0167672
872.808	0.0166662
872.886	0.0167843
872.965	0.0168639
873.043	0.0169041
873.121	0.0169392
873.199	0.0170351
873.277	0.0170232
873.355	0.0169377
873.433	0.0170169
873.511	0.0170283
873.590	0.0170111
873.668	0.0171681
873.746	0.0170786
873.824	0.0170796
873.902	0.0170695
873.980	0.0172534
874.058	0.0171695
874.136	0.0171296
874.215	0.0171901
874.293	0.0170195
874.371	0.0169798
874.449	0.0170007
874.527	0.0169748
874.605	0.0168972
874.683	0.0170314
874.761	0.0169308
874.840	0.0169401
874.918	0.0168729
874.996	0.0170040
875.074	0.0169560
875.152	0.0167786
875.230	0.0168472
875.308	0.0169710
875.386	0.0167924
875.465	0.0168647
875.543	0.0168992
875.621	0.0169549
875.699	0.0169227
875.777	0.0169806
875.855	0.0168703
875.933	0.0169755
876.011	0.0170512
876.090	0.0169739
876.168	0.0169836
876.246	0.0169888
876.324	0.0169476
876.402	0.0170493
876.480	0.0170224
876.558	0.0169345
876.636	0.0170596
876.715	0.0170773
876.793	0.0171828
876.871	0.0170721
876.949	0.0171335
877.027	0.0171812
877.105	0.0170889
877.183	0.0169656
877.261	0.0171680
877.340	0.0170908
877.418	0.0171516
877.496	0.0170286
877.574	0.0170148
877.652	0.0171084
877.730	0.0170514
877.808	0.0170673
877.886	0.0169742
877.965	0.0169942
878.043	0.0169542
878.121	0.0168539
878.199	0.0169199
878.277	0.0168884
878.355	0.0168177
878.433	0.0168594
878.511	0.0168456
878.590	0.0167072
878.668	0.0168536
878.746	0.0169200
878.824	0.0168217
878.902	0.0167803
878.980	0.0167756
879.058	0.0168217
879.136	0.0167431
879.215	0.0167618
879.293	0.0167401
879.371	0.0168044
879.449	0.0170207
879.527	0.0168597
879.605	0.0169166
879.683	0.0168864
879.761	0.0167611
879.840	0.0168564
879.918	0.0170822
879.996	0.0170198
880.074	0.0169244
880.152	0.0171195
880.230	0.0170255
880.308	0.0170087
880.386	0.0169704
880.465	0.0170245
880.543	0.0170961
880.621	0.0171259
880.699	0.0172438
880.777	0.0170306
880.855	0.0170280
880.933	0.0169862
881.011	0.0169999
881.090	0.0171670
881.168	0.0171005
881.246	0.0169748
881.324	0.0170138
881.402	0.0170023
881.480	0.0169559
881.558	0.0169405
881.636	0.0170119
881.715	0.0170113
881.793	0.0169644
881.871	0.0167970
881.949	0.0169071
882.027	0.0168900
882.105	0.0169308
882.183	0.0167858
882.261	0.0169347
882.340	0.0168195
882.418	0.0168082
882.496	0.0169557
882.574	0.0165945
882.652	0.0167587
882.730	0.0167726
882.808	0.0168645
882.886	0.0168237
882.965	0.0168849
883.043	0.0169209
883.121	0.0169007
883.199	0.0168480
883.277	0.0168821
883.355	0.0168948
883.433	0.0170016
883.511	0.0169195
883.590	0.0169728
883.668	0.0169949
883.746	0.0169582
883.824	0.0170752
883.902	0.0169138
883.980	0.0169920
884.058	0.0171062
884.136	0.0169834
884.215	0.0171131
884.293	0.0170084
884.371	0.0169492
884.449	0.0169442
884.527	0.0170064
884.605	0.0169389
884.683	0.0170309
884.761	0.0170050
884.840	0.0169193
884.918	0.0168977
884.996	0.0169840
885.074	0.0170486
885.152	0.0171198
885.230	0.0169719
885.308	0.0170087
885.386	0.0170279
885.465	0.0170319
885.543	0.0170943
885.621	0.0170147
885.699	0.0170291
885.777	0.0169630
885.855	0.0170253
885.933	0.0170132
886.011	0.0171575
886.090	0.0169950
886.168	0.0170175
886.246	0.0169514
886.324	0.0168886
886.402	0.0169200
886.480	0.0169294
886.558	0.0169720
886.636	0.0169559
886.715	0.0169166
886.793	0.0169453
886.871	0.0169068
886.949	0.0168739
887.027	0.0169050
887.105	0.0170747
887.183	0.0169852
887.261	0.0171021
887.340	0.0169771
887.418	0.0169916
887.496	0.0171070
887.574	0.0170525
887.652	0.0170718
887.730	0.0168340
887.808	0.0170927
887.886	0.0170850
887.965	0.0169794
888.043	0.0168745
888.121	0.0169264
888.199	0.0170432
888.277	0.0169008
888.355	0.0169386
888.433	0.0169788
888.511	0.0169543
888.590	0.0169324
888.668	0.0170618
888.746	0.0169124
888.824	0.0168644
888.902	0.0170194
888.980	0.0170707
889.058	0.0169135
889.136	0.0169579
889.215	0.0169249
889.293	0.0168785
889.371	0.0168988
889.449	0.0169889
889.527	0.0170434
889.605	0.0169778
889.683	0.0168718
889.761	0.0170169
889.840	0.0169493
889.918	0.0169327
889.996	0.0169618
890.074	0.0170681
890.152	0.0169925
890.230	0.0170705
890.308	0.0169405
890.386	0.0170379
890.465	0.0170089
890.543	0.0169556
890.621	0.0169299
890.699	0.0170189
890.777	0.0169046
890.855	0.0169299
890.933	0.0169865
891.011	0.0168403
891.090	0.0168281
891.168	0.0169090
891.246	0.0170542
891.324	0.0168693
891.402	0.0168508
891.480	0.0167573
891.558	0.0168391
891.636	0.0170036
891.715	0.0169194
891.793	0.0169772
891.871	0.0169564
891.949	0.0167109
892.027	0.0169636
892.105	0.0169995
892.183	0.0168450
892.261	0.0169489
892.340	0.0170141
892.418	0.0169329
892.496	0.0169678
892.574	0.0169341
892.652	0.0169401
892.730	0.0169282
892.808	0.0169236
892.886	0.0168366
892.965	0.0169907
893.043	0.0168891
893.121	0.0169227
893.199	0.0168819
893.277	0.0169569
893.355	0.0168956
893.433	0.0169312
893.511	0.0170857
893.590	0.0169478
893.668	0.0168937
893.746	0.0170303
893.824	0.0170580
893.902	0.0171068
893.980	0.0169575
894.058	0.0170770
894.136	0.0170369
894.215	0.0170207
894.293	0.0170541
894.371	0.0169927
894.449	0.0172098
894.527	0.0171146
894.605	0.0169376
894.683	0.0169265
894.761	0.0170486
894.840	0.0170383
894.918	0.0170547
894.996	0.0169867
895.074	0.0169852
895.152	0.0169374
895.230	0.0168950
895.308	0.0168643
895.386	0.0170943
895.465	0.0168082
895.543	0.0168941
895.621	0.0167853
895.699	0.0169019
895.777	0.0169601
895.855	0.0168594
895.933	0.0169146
896.011	0.0169518
896.090	0.0168909
896.168	0.0167410
896.246	0.0167870
896.324	0.0169473
896.402	0.0169946
896.480	0.0170175
896.558	0.0169360
896.636	0.0169252
896.715	0.0169732
896.793	0.0169572
896.871	0.0169111
896.949	0.0168864
897.027	0.0170576
897.105	0.0169957
897.183	0.0169634
897.261	0.0170722
897.340	0.0169961
897.418	0.0170293
897.496	0.0169160
897.574	0.0169000
897.652	0.0168835
897.730	0.0169559
897.808	0.0167178
897.886	0.0168914
897.965	0.0168321
898.043	0.0169110
898.121	0.0168417
898.199	0.0167641
898.277	0.0167793
898.355	0.0168832
898.433	0.0167500
898.511	0.0169455
898.590	0.0169444
898.668	0.0169214
898.746	0.0169858
898.824	0.0168300
898.902	0.0168696
898.980	0.0169521
899.058	0.0169127
899.136	0.0168417
899.215	0.0170248
899.293	0.0169021
899.371	0.0169204
899.449	0.0168812
899.527	0.0171380
899.605	0.0169418
899.683	0.0169969
899.761	0.0172019
899.840	0.0169088
899.918	0.0169516
899.996	0.0168790
900.074	0.0168780
900.152	0.0169413
900.230	0.0169266
900.308	0.0169238
900.386	0.0169571
900.465	0.0169261
900.543	0.0168896
900.621	0.0169530
900.699	0.0169224
900.777	0.0169330
900.855	0.0169105
900.933	0.0168781
901.011	0.0168880
901.090	0.0169290
901.168	0.0168564
901.246	0.0168520
901.324	0.0168338
901.402	0.0168713
901.480	0.0167735
901.558	0.0166877
901.636	0.0168009
901.715	0.0167854
901.793	0.0168684
901.871	0.0167406
901.949	0.0168486
902.027	0.0169487
902.105	0.0168826
902.183	0.0167697
902.261	0.0168315
902.340	0.0168858
902.418	0.0167402
902.496	0.0168607
902.574	0.0170174
902.652	0.0169144
902.730	0.0169116
902.808	0.0168896
902.886	0.0170848
902.965	0.0170271
903.043	0.0170730
903.121	0.0170267
903.199	0.0170365
903.277	0.0168806
903.355	0.0169375
903.433	0.0171244
903.511	0.0168766
903.590	0.0169098
903.668	0.0168835
903.746	0.0169527
903.824	0.0169468
903.902	0.0168892
903.980	0.0169032
904.058	0.0167986
904.136	0.0167838
904.215	0.0169485
904.293	0.0168965
904.371	0.0167449
904.449	0.0168248
904.527	0.0167418
904.605	0.0169807
904.683	0.0168275
904.761	0.0168829
904.840	0.0167984
904.918	0.0168649
904.996	0.0169738
905.074	0.0168372
905.152	0.0170869
905.230	0.0169708
905.308	0.0170708
905.386	0.0168781
905.465	0.0170808
905.543	0.0169245
905.621	0.0170252
905.699	0.0170470
905.777	0.0170123
905.855	0.0169186
905.933	0.0169695
906.011	0.0169351
906.090	0.0169926
906.168	0.0168790
906.246	0.0168467
906.324	0.0169180
906.402	0.0170419
906.480	0.0169235
906.558	0.0168739
906.636	0.0168542
906.715	0.0167705
906.793	0.0169732
906.871	0.0168434
906.949	0.0165879
907.027	0.0168568
907.105	0.0167405
907.183	0.0168100
907.261	0.0167451
907.340	0.0167292
907.418	0.0168106
907.496	0.0169242
907.574	0.0169048
907.652	0.0170037
907.730	0.0170174
907.808	0.0170042
907.886	0.0170063
907.965	0.0170355
908.043	0.0169756
908.121	0.0170627
908.199	0.0170076
908.277	0.0170323
908.355	0.0171550
908.433	0.0170889
908.511	0.0171591
908.590	0.0169542
908.668	0.0168652
908.746	0.0170917
908.824	0.0171056
908.902	0.0169526
908.980	0.0170344
909.058	0.0169972
909.136	0.0168559
909.215	0.0168737
909.293	0.0169138
909.371	0.0169537
909.449	0.0169882
909.527	0.0168961
909.605	0.0167915
909.683	0.0167657
909.761	0.0167665
909.840	0.0167789
909.918	0.0168145
909.996	0.0169199
910.074	0.0168225
910.152	0.0167748
910.230	0.0168211
910.308	0.0168909
910.386	0.0166599
910.465	0.0168063
910.543	0.0166364
910.621	0.0165760
910.699	0.0166174
910.777	0.0166399
910.855	0.0166379
910.933	0.0165945
911.011	0.0166473
911.090	0.0167146
911.168	0.0167618
911.246	0.0169083
911.324	0.0169808
911.402	0.0170238
911.480	0.0169962
911.558	0.0171449
911.636	0.0173509
911.715	0.0173439
911.793	0.0174889
911.871	0.0174133
911.949	0.0175814
912.027	0.0175661
912.105	0.0176408
912.183	0.0174775
912.261	0.0174819
912.340	0.0173815
912.418	0.0172153
912.496	0.0170520
912.574	0.0171046
912.652	0.0169782
912.730	0.0167966
912.808	0.0167773
912.886	0.0168173
912.965	0.0166194
913.043	0.0165287
913.121	0.0164782
913.199	0.0165622
913.277	0.0164864
913.355	0.0164776
913.433	0.0165128
913.511	0.0166398
913.590	0.0165504
913.668	0.0166304
913.746	0.0166350
913.824	0.0165432
913.902	0.0166802
913.980	0.0166328
914.058	0.0167394
914.136	0.0166511
914.215	0.0167577
914.293	0.0167265
914.371	0.0168580
914.449	0.0168628
914.527	0.0166972
914.605	0.0169198
914.683	0.0169084
914.761	0.0169133
914.840	0.0169440
914.918	0.0172319
914.996	0.0171297
915.074	0.0172520
915.152	0.0174102
915.230	0.0174271
915.308	0.0174789
915.386	0.0175057
915.465	0.0176568
915.543	0.0174157
915.621	0.0175080
915.699	0.0173351
915.777	0.0174656
915.855	0.0173463
915.933	0.0172146
916.011	0.0169691
916.090	0.0170705
916.168	0.0169164
916.246	0.0167198
916.324	0.0166920
916.402	0.0166146
916.480	0.0165794
916.558	0.0164590
916.636	0.0164323
916.715	0.0163712
916.793	0.0161977
916.871	0.0164693
916.949	0.0164251
917.027	0.0164046
917.105	0.0165051
917.183	0.0165816
917.261	0.0165572
917.340	0.0165591
917.418	0.0166444
917.496	0.0166062
917.574	0.0167772
917.652	0.0167960
917.730	0.0169209
917.808	0.0169926
917.886	0.0170314
917.965	0.0170988
918.043	0.0170835
918.121	0.0171732
918.199	0.0171545
918.277	0.0172189
918.355	0.0172249
918.433	0.0171264
918.511	0.0172460
918.590	0.0172812
918.668	0.0171068
918.746	0.0171223
918.824	0.0171949
918.902	0.0171252
918.980	0.0169778
919.058	0.0171663
919.136	0.0170872
919.215	0.0170016
919.293	0.0170079
919.371	0.0170185
919.449	0.0170168
919.527	0.0169138
919.605	0.0169563
919.683	0.0168085
919.761	0.0168005
919.840	0.0167629
919.918	0.0167757
919.996	0.0167432
920.074	0.0168879
920.152	0.0167249
920.230	0.0167023
920.308	0.0167022
920.386	0.0167279
920.465	0.0167165
920.543	0.0167637
920.621	0.0167348
920.699	0.0166078
920.777	0.0168611
920.855	0.0167297
920.933	0.0167223
921.011	0.0168252
921.090	0.0167365
921.168	0.0168464
921.246	0.0169315
921.324	0.0169183
921.402	0.0169231
921.480	0.0170101
921.558	0.0169572
921.636	0.0169301
921.715	0.0169811
921.793	0.0170805
921.871	0.0168806
921.949	0.0168614
922.027	0.0170329
922.105	0.0168081
922.183	0.0166876
922.261	0.0167288
922.340	0.0168044
922.418	0.0167439
922.496	0.0167326
922.574	0.0168757
922.652	0.0167285
922.730	0.0169263
922.808	0.0169211
922.886	0.0168901
922.965	0.0169583
923.043	0.0169769
923.121	0.0170732
923.199	0.0169994
923.277	0.0170860
923.355	0.0170246
923.433	0.0170518
923.511	0.0168909
923.590	0.0169625
923.668	0.0167620
923.746	0.0167582
923.824	0.0170156
923.902	0.0168346
923.980	0.0165668
924.058	0.0167739
924.136	0.0167294
924.215	0.0167646
924.293	0.0167908
924.371	0.0168989
924.449	0.0169881
924.527	0.0169702
924.605	0.0169082
924.683	0.0170456
924.761	0.0171358
924.840	0.0171639
924.918	0.0170447
924.996	0.0170738
925.074	0.0171703
925.152	0.0171764
925.230	0.0170858
925.308	0.0171237
925.386	0.0171564
925.465	0.0171415
925.543	0.0169844
925.621	0.0170810
925.699	0.0169595
925.777	0.0168452
925.855	0.0170219
925.933	0.0169450
926.011	0.0169024
926.090	0.0168239
926.168	0.0168626
926.246	0.0168764
926.324	0.0168757
926.402	0.0167873
926.480	0.0167319
926.558	0.0168388
926.636	0.0167921
926.715	0.0168860
926.793	0.0168378
926.871	0.0167419
926.949	0.0167769
927.027	0.0167903
927.105	0.0168696
927.183	0.0168073
927.261	0.0167534
927.340	0.0166689
927.418	0.0168770
927.496	0.0168936
927.574	0.0168608
927.652	0.0170866
927.730	0.0169760
927.808	0.0169730
927.886	0.0172519
927.965	0.0170464
928.043	0.0169804
928.121	0.0170365
928.199	0.0170455
928.277	0.0169469
928.355	0.0170130
928.433	0.0170248
928.511	0.0170219
928.590	0.0170531
928.668	0.0169873
928.746	0.0168898
928.824	0.0171079
928.902	0.0170619
928.980	0.0170039
929.058	0.0168938
929.136	0.0169614
929.215	0.0170330
929.293	0.0169108
929.371	0.0168398
929.449	0.0168085
929.527	0.0167691
929.605	0.0167489
929.683	0.0167425
929.761	0.0166315
929.840	0.0167214
929.918	0.0166264
929.996	0.0165307
930.074	0.0165237
930.152	0.0166171
930.230	0.0166055
930.308	0.0167740
930.386	0.0167941
930.465	0.0167626
930.543	0.0166275
930.621	0.0167220
930.699	0.0168488
930.777	0.0169652
930.855	0.0169195
930.933	0.0169506
931.011	0.0171146
931.090	0.0170110
931.168	0.0170303
931.246	0.0171951
931.324	0.0171951
931.402	0.0171742
931.480	0.0171752
931.558	0.0172954
931.636	0.0173038
931.715	0.0173016
931.793	0.0173016
931.871	0.0172032
931.949	0.0173192
932.027	0.0172427
932.105	0.0170734
932.183	0.0171883
932.261	0.0171278
932.340	0.0172393
932.418	0.0169881
932.496	0.0169351
932.574	0.0169617
932.652	0.0169661
932.730	0.0169928
932.808	0.0169353
932.886	0.0167918
932.965	0.0166828
933.043	0.0167105
933.121	0.0167924
933.199	0.0167676
933.277	0.0169065
933.355	0.0168002
933.433	0.0166314
933.511	0.0167033
933.590	0.0168441
933.668	0.0168525
933.746	0.0168418
933.824	0.0167902
933.902	0.0169453
933.980	0.0168727
934.058	0.0169351
934.136	0.0169361
934.215	0.0169889
934.293	0.0168770
934.371	0.0169389
934.449	0.0170071
934.527	0.0169038
934.605	0.0169157
934.683	0.0170464
934.761	0.0169534
934.840	0.0169324
934.918	0.0170845
934.996	0.0170713
935.074	0.0168806
935.152	0.0170273
935.230	0.0170945
935.308	0.0169755
935.386	0.0171086
935.465	0.0169882
935.543	0.0170322
935.621	0.0169753
935.699	0.0170979
935.777	0.0169114
935.855	0.0170740
935.933	0.0170575
936.011	0.0169116
936.090	0.0169308
936.168	0.0169643
936.246	0.0169947
936.324	0.0167817
936.402	0.0168198
936.480	0.0168489
936.558	0.0168349
936.636	0.0168285
936.715	0.0167893
936.793	0.0168747
936.871	0.0168394
936.949	0.0167720
937.027	0.0168432
937.105	0.0168370
937.183	0.0168426
937.261	0.0168964
937.340	0.0169226
937.418	0.0168633
937.496	0.0168916
937.574	0.0170949
937.652	0.0169571
937.730	0.0168604
937.808	0.0169860
937.886	0.0168317
937.965	0.0169509
938.043	0.0169877
938.121	0.0170361
938.199	0.0170769
938.277	0.0170327
938.355	0.0169704
938.433	0.0169901
938.511	0.0169992
938.590	0.0170051
938.668	0.0169995
938.746	0.0171104
938.824	0.0171153
938.902	0.0170383
938.980	0.0169426
939.058	0.0170545
939.136	0.0170702
939.215	0.0169645
939.293	0.0169870
939.371	0.0169843
939.449	0.0169265
939.527	0.0170129
939.605	0.0169440
939.683	0.0169235
939.761	0.0169305
939.840	0.0169523
939.918	0.0168032
939.996	0.0169445
940.074	0.0169456
940.152	0.0169870
940.230	0.0170366
940.308	0.0167123
940.386	0.0168469
940.465	0.0169382
940.543	0.0170004
940.621	0.0170113
940.699	0.0168635
940.777	0.0170026
940.855	0.0169969
940.933	0.0170105
941.011	0.0170844
941.090	0.0169814
941.168	0.0169404
941.246	0.0169390
941.324	0.0169875
941.402	0.0169398
941.480	0.0170144
941.558	0.0169497
941.636	0.0171123
941.715	0.0170016
941.793	0.0169565
941.871	0.0170854
941.949	0.0170853
942.027	0.0170204
942.105	0.0169217
942.183	0.0171214
942.261	0.0169818
942.340	0.0169664
942.418	0.0169014
942.496	0.0169519
942.574	0.0168097
942.652	0.0168887
942.730	0.0168339
942.808	0.0169249
942.886	0.0169122
942.965	0.0168533
943.043	0.0169276
943.121	0.0168068
943.199	0.0168479
943.277	0.0169076
943.355	0.0168409
943.433	0.0167070
943.511	0.0168685
943.590	0.0168346
943.668	0.0169415
943.746	0.0167665
943.824	0.0168589
943.902	0.0170219
943.980	0.0169506
944.058	0.0169400
944.136	0.0170079
944.215	0.0169736
944.293	0.0169887
944.371	0.0170747
944.449	0.0170876
944.527	0.0169763
944.605	0.0169810
944.683	0.0170301
944.761	0.0169901
944.840	0.0170645
944.918	0.0171030
944.996	0.0170971
945.074	0.0169206
945.152	0.0170375
945.230	0.0170978
945.308	0.0170769
945.386	0.0170902
945.465	0.0169570
945.543	0.0169229
945.621	0.0170816
945.699	0.0170649
945.777	0.0169740
945.855	0.0168684
945.933	0.0170130
946.011	0.0171109
946.090	0.0169542
946.168	0.0168713
946.246	0.0168520
946.324	0.0169477
946.402	0.0168548
946.480	0.0169424
946.558	0.0169005
946.636	0.0168980
946.715	0.0168106
946.793	0.0167328
946.871	0.0169775
946.949	0.0168981
947.027	0.0169028
947.105	0.0168592
947.183	0.0170047
947.261	0.0168891
947.340	0.0168617
947.418	0.0170187
947.496	0.0170025
947.574	0.0169466
947.652	0.0169916
947.730	0.0170058
947.808	0.0169994
947.886	0.0169212
947.965	0.0170502
948.043	0.0172220
948.121	0.0171048
948.199	0.0170006
948.277	0.0170262
948.355	0.0169533
948.433	0.0170089
948.511	0.0170467
948.590	0.0170278
948.668	0.0169280
948.746	0.0168369
948.824	0.0171097
948.902	0.0170346
948.980	0.0169426
949.058	0.0170100
949.136	0.0168907
949.215	0.0168466
949.293	0.0169048
949.371	0.0168416
949.449	0.0168925
949.527	0.0168772
949.605	0.0169166
949.683	0.0167735
949.761	0.0169061
949.840	0.0168233
949.918	0.0169221
