06/29/2022	21:13:13	Ver.	4.1	UNKNOWN
Optical Delay	629.995835	Delta X		0.078125	Sweeps	1	Scan Rate	0/0
Coordinates	Axis 1	NaN	Axis 2	NaN	Axis 3	NaN	Axis 4	NaN	Axis 5	NaN	Axis 6	0.000000
TX Power	0.000000	RX Power	0.000000

629.996	0.0152261
630.074	0.0151794
630.152	0.0153127
630.230	0.0152518
630.308	0.0151277
630.386	0.0152415
630.465	0.0152510
630.543	0.0152415
630.621	0.0151914
630.699	0.0151433
630.777	0.0152000
630.855	0.0152064
630.933	0.0153422
631.011	0.0153716
631.090	0.0152986
631.168	0.0154099
631.246	0.0152899
631.324	0.0152476
631.402	0.0151919
631.480	0.0151855
631.558	0.0153569
631.636	0.0152550
631.715	0.0150927
631.793	0.0152953
631.871	0.0152956
631.949	0.0152523
632.027	0.0151996
632.105	0.0152226
632.183	0.0152876
632.261	0.0152358
632.340	0.0153541
632.418	0.0151086
632.496	0.0151774
632.574	0.0151331
632.652	0.0152627
632.730	0.0152915
632.808	0.0151625
632.886	0.0151676
632.965	0.0152657
633.043	0.0151630
633.121	0.0152962
633.199	0.0153340
633.277	0.0151691
633.355	0.0152150
633.433	0.0151721
633.511	0.0152166
633.590	0.0153142
633.668	0.0151937
633.746	0.0152761
633.824	0.0151141
633.902	0.0153124
633.980	0.0151186
634.058	0.0151601
634.136	0.0152842
634.215	0.0152666
634.293	0.0150465
634.371	0.0152570
634.449	0.0152800
634.527	0.0151676
634.605	0.0151529
634.683	0.0151113
634.761	0.0151524
634.840	0.0151492
634.918	0.0152488
634.996	0.0152936
635.074	0.0153266
635.152	0.0153476
635.230	0.0152156
635.308	0.0152457
635.386	0.0152359
635.465	0.0151733
635.543	0.0152161
635.621	0.0152193
635.699	0.0152404
635.777	0.0153837
635.855	0.0151560
635.933	0.0151160
636.011	0.0152915
636.090	0.0152776
636.168	0.0151490
636.246	0.0151658
636.324	0.0152441
636.402	0.0152093
636.480	0.0152001
636.558	0.0152895
636.636	0.0152449
636.715	0.0151865
636.793	0.0152243
636.871	0.0154028
636.949	0.0152176
637.027	0.0152391
637.105	0.0151613
637.183	0.0151908
637.261	0.0152530
637.340	0.0151926
637.418	0.0151856
637.496	0.0152398
637.574	0.0151757
637.652	0.0150978
637.730	0.0152051
637.808	0.0153220
637.886	0.0152641
637.965	0.0152132
638.043	0.0152451
638.121	0.0152323
638.199	0.0152351
638.277	0.0153368
638.355	0.0152087
638.433	0.0151980
638.511	0.0153101
638.590	0.0152579
638.668	0.0152634
638.746	0.0153046
638.824	0.0151585
638.902	0.0151550
638.980	0.0152760
639.058	0.0151733
639.136	0.0152795
639.215	0.0154095
639.293	0.0151152
639.371	0.0152597
639.449	0.0153255
639.527	0.0151607
639.605	0.0151612
639.683	0.0152226
639.761	0.0153255
639.840	0.0152551
639.918	0.0151988
639.996	0.0153299
640.074	0.0153069
640.152	0.0152535
640.230	0.0150941
640.308	0.0152187
640.386	0.0152675
640.465	0.0152024
640.543	0.0151988
640.621	0.0152171
640.699	0.0151840
640.777	0.0151384
640.855	0.0152204
640.933	0.0150681
641.011	0.0152309
641.090	0.0152406
641.168	0.0151585
641.246	0.0151329
641.324	0.0151176
641.402	0.0152247
641.480	0.0151845
641.558	0.0152934
641.636	0.0151093
641.715	0.0152284
641.793	0.0152222
641.871	0.0152116
641.949	0.0152355
642.027	0.0152232
642.105	0.0151879
642.183	0.0152769
642.261	0.0152480
642.340	0.0152473
642.418	0.0153014
642.496	0.0151839
642.574	0.0153064
642.652	0.0151798
642.730	0.0152377
642.808	0.0152921
642.886	0.0151968
642.965	0.0151508
643.043	0.0153056
643.121	0.0151612
643.199	0.0152933
643.277	0.0150922
643.355	0.0150559
643.433	0.0151746
643.511	0.0151724
643.590	0.0152345
643.668	0.0152551
643.746	0.0151389
643.824	0.0151832
643.902	0.0151007
643.980	0.0152012
644.058	0.0150695
644.136	0.0152679
644.215	0.0152558
644.293	0.0153130
644.371	0.0151667
644.449	0.0151676
644.527	0.0151122
644.605	0.0151812
644.683	0.0152170
644.761	0.0150986
644.840	0.0152567
644.918	0.0151511
644.996	0.0151719
645.074	0.0153179
645.152	0.0153041
645.230	0.0152794
645.308	0.0152684
645.386	0.0152394
645.465	0.0152001
645.543	0.0152466
645.621	0.0152186
645.699	0.0153387
645.777	0.0150912
645.855	0.0151366
645.933	0.0153049
646.011	0.0154236
646.090	0.0151956
646.168	0.0152133
646.246	0.0152655
646.324	0.0152532
646.402	0.0152885
646.480	0.0151749
646.558	0.0151822
646.636	0.0151410
646.715	0.0152004
646.793	0.0152357
646.871	0.0152098
646.949	0.0152370
647.027	0.0152348
647.105	0.0152022
647.183	0.0152277
647.261	0.0153207
647.340	0.0151084
647.418	0.0151725
647.496	0.0152707
647.574	0.0152126
647.652	0.0150732
647.730	0.0153048
647.808	0.0153815
647.886	0.0151405
647.965	0.0151936
648.043	0.0153170
648.121	0.0152227
648.199	0.0152800
648.277	0.0151958
648.355	0.0152216
648.433	0.0151669
648.511	0.0152011
648.590	0.0152831
648.668	0.0151027
648.746	0.0152392
648.824	0.0153291
648.902	0.0152443
648.980	0.0150520
649.058	0.0151921
649.136	0.0152444
649.215	0.0151454
649.293	0.0152228
649.371	0.0151596
649.449	0.0151927
649.527	0.0152106
649.605	0.0151877
649.683	0.0152691
649.761	0.0152048
649.840	0.0152553
649.918	0.0154205
649.996	0.0152280
650.074	0.0152126
650.152	0.0152676
650.230	0.0151909
650.308	0.0152236
650.386	0.0152306
650.465	0.0152467
650.543	0.0152223
650.621	0.0151755
650.699	0.0152540
650.777	0.0151679
650.855	0.0152551
650.933	0.0152440
651.011	0.0151619
651.090	0.0151851
651.168	0.0153078
651.246	0.0152995
651.324	0.0153219
651.402	0.0152711
651.480	0.0152281
651.558	0.0151476
651.636	0.0153841
651.715	0.0153151
651.793	0.0153136
651.871	0.0153021
651.949	0.0151566
652.027	0.0152168
652.105	0.0152753
652.183	0.0152328
652.261	0.0153123
652.340	0.0152547
652.418	0.0153056
652.496	0.0151693
652.574	0.0153049
652.652	0.0153512
652.730	0.0151642
652.808	0.0152947
652.886	0.0152985
652.965	0.0153111
653.043	0.0152553
653.121	0.0152424
653.199	0.0152232
653.277	0.0153635
653.355	0.0151657
653.433	0.0151130
653.511	0.0152304
653.590	0.0152174
653.668	0.0152933
653.746	0.0152332
653.824	0.0152757
653.902	0.0152235
653.980	0.0153235
654.058	0.0153047
654.136	0.0152650
654.215	0.0153503
654.293	0.0152337
654.371	0.0153400
654.449	0.0152486
654.527	0.0154371
654.605	0.0154918
654.683	0.0152186
654.761	0.0153727
654.840	0.0154362
654.918	0.0154121
654.996	0.0153592
655.074	0.0153867
655.152	0.0152856
655.230	0.0152155
655.308	0.0152801
655.386	0.0152436
655.465	0.0153156
655.543	0.0153321
655.621	0.0153149
655.699	0.0152327
655.777	0.0152646
655.855	0.0153053
655.933	0.0153288
656.011	0.0152938
656.090	0.0153929
656.168	0.0153335
656.246	0.0152504
656.324	0.0152789
656.402	0.0152479
656.480	0.0153563
656.558	0.0152559
656.636	0.0152433
656.715	0.0151786
656.793	0.0152447
656.871	0.0153344
656.949	0.0152917
657.027	0.0151219
657.105	0.0153126
657.183	0.0152155
657.261	0.0152827
657.340	0.0153070
657.418	0.0151226
657.496	0.0152716
657.574	0.0151699
657.652	0.0152370
657.730	0.0152280
657.808	0.0152351
657.886	0.0152997
657.965	0.0153098
658.043	0.0153288
658.121	0.0152398
658.199	0.0152578
658.277	0.0152010
658.355	0.0153349
658.433	0.0153262
658.511	0.0153751
658.590	0.0151861
658.668	0.0153222
658.746	0.0153516
658.824	0.0152625
658.902	0.0153033
658.980	0.0153423
659.058	0.0152435
659.136	0.0153080
659.215	0.0152238
659.293	0.0152192
659.371	0.0151970
659.449	0.0152867
659.527	0.0152522
659.605	0.0153281
659.683	0.0152872
659.761	0.0151847
659.840	0.0151980
659.918	0.0152746
659.996	0.0152666
660.074	0.0151596
660.152	0.0151955
660.230	0.0152747
660.308	0.0151249
660.386	0.0151624
660.465	0.0152209
660.543	0.0151746
660.621	0.0152036
660.699	0.0151891
660.777	0.0152817
660.855	0.0152282
660.933	0.0152875
661.011	0.0152328
661.090	0.0152211
661.168	0.0153447
661.246	0.0151717
661.324	0.0153016
661.402	0.0151728
661.480	0.0151310
661.558	0.0151717
661.636	0.0153712
661.715	0.0152778
661.793	0.0152750
661.871	0.0152542
661.949	0.0151716
662.027	0.0153172
662.105	0.0151775
662.183	0.0151653
662.261	0.0153182
662.340	0.0152462
662.418	0.0151639
662.496	0.0152429
662.574	0.0153615
662.652	0.0151655
662.730	0.0151112
662.808	0.0152978
662.886	0.0152409
662.965	0.0153115
663.043	0.0153270
663.121	0.0151833
663.199	0.0152225
663.277	0.0153230
663.355	0.0151900
663.433	0.0152265
663.511	0.0153728
663.590	0.0153617
663.668	0.0152394
663.746	0.0151190
663.824	0.0153280
663.902	0.0153604
663.980	0.0152113
664.058	0.0151942
664.136	0.0151759
664.215	0.0152889
664.293	0.0152363
664.371	0.0152556
664.449	0.0154059
664.527	0.0151105
664.605	0.0153416
664.683	0.0151141
664.761	0.0152333
664.840	0.0151621
664.918	0.0151343
664.996	0.0151762
665.074	0.0152630
665.152	0.0152210
665.230	0.0151967
665.308	0.0151726
665.386	0.0151633
665.465	0.0152908
665.543	0.0151662
665.621	0.0153056
665.699	0.0152335
665.777	0.0152593
665.855	0.0152694
665.933	0.0151908
666.011	0.0151716
666.090	0.0150907
666.168	0.0152567
666.246	0.0152453
666.324	0.0152023
666.402	0.0151772
666.480	0.0153442
666.558	0.0151504
666.636	0.0151752
666.715	0.0153134
666.793	0.0152367
666.871	0.0153668
666.949	0.0151716
667.027	0.0152702
667.105	0.0152422
667.183	0.0151463
667.261	0.0153871
667.340	0.0152241
667.418	0.0151964
667.496	0.0152576
667.574	0.0152673
667.652	0.0152616
667.730	0.0151963
667.808	0.0151674
667.886	0.0151157
667.965	0.0152854
668.043	0.0153213
668.121	0.0150992
668.199	0.0152081
668.277	0.0153973
668.355	0.0153797
668.433	0.0152798
668.511	0.0152979
668.590	0.0151161
668.668	0.0151536
668.746	0.0151721
668.824	0.0153424
668.902	0.0152289
668.980	0.0151428
669.058	0.0152927
669.136	0.0152393
669.215	0.0152374
669.293	0.0152820
669.371	0.0152359
669.449	0.0152650
669.527	0.0152060
669.605	0.0153659
669.683	0.0152384
669.761	0.0152120
669.840	0.0152285
669.918	0.0152850
669.996	0.0152338
670.074	0.0151930
670.152	0.0153802
670.230	0.0151108
670.308	0.0151995
670.386	0.0152863
670.465	0.0152919
670.543	0.0152590
670.621	0.0151623
670.699	0.0152106
670.777	0.0153564
670.855	0.0151723
670.933	0.0152089
671.011	0.0151167
671.090	0.0152517
671.168	0.0153426
671.246	0.0152100
671.324	0.0153249
671.402	0.0152525
671.480	0.0152390
671.558	0.0153446
671.636	0.0152650
671.715	0.0152496
671.793	0.0152592
671.871	0.0153515
671.949	0.0151941
672.027	0.0151965
672.105	0.0152780
672.183	0.0152798
672.261	0.0153027
672.340	0.0153321
672.418	0.0152683
672.496	0.0153922
672.574	0.0153831
672.652	0.0152976
672.730	0.0153362
672.808	0.0152178
672.886	0.0152395
672.965	0.0151900
673.043	0.0151253
673.121	0.0152328
673.199	0.0151979
673.277	0.0151336
673.355	0.0152819
673.433	0.0151616
673.511	0.0153158
673.590	0.0151588
673.668	0.0151992
673.746	0.0152676
673.824	0.0152664
673.902	0.0150703
673.980	0.0153127
674.058	0.0154102
674.136	0.0152003
674.215	0.0152267
674.293	0.0152104
674.371	0.0153143
674.449	0.0151564
674.527	0.0153605
674.605	0.0151305
674.683	0.0152438
674.761	0.0152217
674.840	0.0152008
674.918	0.0152784
674.996	0.0152388
675.074	0.0152000
675.152	0.0150941
675.230	0.0152089
675.308	0.0154135
675.386	0.0151865
675.465	0.0153089
675.543	0.0151751
675.621	0.0152392
675.699	0.0152298
675.777	0.0152654
675.855	0.0153762
675.933	0.0151589
676.011	0.0151717
676.090	0.0152158
676.168	0.0152661
676.246	0.0153754
676.324	0.0152361
676.402	0.0152293
676.480	0.0152530
676.558	0.0153096
676.636	0.0150937
676.715	0.0152831
676.793	0.0152781
676.871	0.0152967
676.949	0.0152741
677.027	0.0152596
677.105	0.0151513
677.183	0.0152882
677.261	0.0152821
677.340	0.0153312
677.418	0.0152858
677.496	0.0152729
677.574	0.0152116
677.652	0.0152445
677.730	0.0153844
677.808	0.0153398
677.886	0.0152023
677.965	0.0150813
678.043	0.0153742
678.121	0.0153299
678.199	0.0152589
678.277	0.0151711
678.355	0.0152399
678.433	0.0152552
678.511	0.0150269
678.590	0.0151563
678.668	0.0151302
678.746	0.0151585
678.824	0.0151933
678.902	0.0152097
678.980	0.0153031
679.058	0.0151336
679.136	0.0152509
679.215	0.0151620
679.293	0.0152515
679.371	0.0152389
679.449	0.0152283
679.527	0.0152321
679.605	0.0153374
679.683	0.0152422
679.761	0.0153025
679.840	0.0153065
679.918	0.0152424
679.996	0.0151775
680.074	0.0153362
680.152	0.0152850
680.230	0.0152779
680.308	0.0151563
680.386	0.0151592
680.465	0.0152301
680.543	0.0152415
680.621	0.0151936
680.699	0.0152254
680.777	0.0153027
680.855	0.0153009
680.933	0.0152920
681.011	0.0151228
681.090	0.0151165
681.168	0.0152420
681.246	0.0152191
681.324	0.0153477
681.402	0.0153045
681.480	0.0153004
681.558	0.0151800
681.636	0.0153120
681.715	0.0153056
681.793	0.0151653
681.871	0.0151309
681.949	0.0151555
682.027	0.0151859
682.105	0.0152904
682.183	0.0152731
682.261	0.0152258
682.340	0.0152366
682.418	0.0151995
682.496	0.0152761
682.574	0.0152191
682.652	0.0152372
682.730	0.0152215
682.808	0.0152708
682.886	0.0152271
682.965	0.0150901
683.043	0.0152387
683.121	0.0152474
683.199	0.0152525
683.277	0.0153133
683.355	0.0151223
683.433	0.0152789
683.511	0.0152513
683.590	0.0151786
683.668	0.0151658
683.746	0.0153154
683.824	0.0154290
683.902	0.0151978
683.980	0.0151553
684.058	0.0151963
684.136	0.0152629
684.215	0.0153463
684.293	0.0153164
684.371	0.0151835
684.449	0.0152935
684.527	0.0152749
684.605	0.0151645
684.683	0.0152780
684.761	0.0152768
684.840	0.0152107
684.918	0.0151582
684.996	0.0152238
685.074	0.0152159
685.152	0.0151954
685.230	0.0152271
685.308	0.0154417
685.386	0.0153069
685.465	0.0152436
685.543	0.0152164
685.621	0.0152087
685.699	0.0152155
685.777	0.0152396
685.855	0.0153929
685.933	0.0152699
686.011	0.0151677
686.090	0.0153428
686.168	0.0152699
686.246	0.0154260
686.324	0.0152327
686.402	0.0151868
686.480	0.0152765
686.558	0.0152341
686.636	0.0153157
686.715	0.0153330
686.793	0.0150649
686.871	0.0153384
686.949	0.0152705
687.027	0.0151034
687.105	0.0151559
687.183	0.0153432
687.261	0.0152205
687.340	0.0151546
687.418	0.0153482
687.496	0.0151880
687.574	0.0151911
687.652	0.0152745
687.730	0.0152694
687.808	0.0152664
687.886	0.0151781
687.965	0.0152010
688.043	0.0152151
688.121	0.0152502
688.199	0.0152910
688.277	0.0152944
688.355	0.0152643
688.433	0.0151990
688.511	0.0152055
688.590	0.0152043
688.668	0.0152654
688.746	0.0153799
688.824	0.0154506
688.902	0.0151347
688.980	0.0151489
689.058	0.0152960
689.136	0.0152813
689.215	0.0153484
689.293	0.0152654
689.371	0.0153363
689.449	0.0151473
689.527	0.0150941
689.605	0.0152355
689.683	0.0153025
689.761	0.0152635
689.840	0.0152764
689.918	0.0151802
689.996	0.0152428
690.074	0.0151306
690.152	0.0151720
690.230	0.0153606
690.308	0.0152032
690.386	0.0152103
690.465	0.0153069
690.543	0.0151873
690.621	0.0151008
690.699	0.0153181
690.777	0.0153210
690.855	0.0151623
690.933	0.0151904
691.011	0.0153663
691.090	0.0151221
691.168	0.0151510
691.246	0.0153822
691.324	0.0152181
691.402	0.0153674
691.480	0.0153024
691.558	0.0152624
691.636	0.0153570
691.715	0.0152598
691.793	0.0152639
691.871	0.0151472
691.949	0.0152035
692.027	0.0152223
692.105	0.0152369
692.183	0.0151570
692.261	0.0151926
692.340	0.0153462
692.418	0.0152984
692.496	0.0152094
692.574	0.0151740
692.652	0.0152611
692.730	0.0151778
692.808	0.0152493
692.886	0.0152903
692.965	0.0153197
693.043	0.0152620
693.121	0.0152743
693.199	0.0153055
693.277	0.0151726
693.355	0.0151677
693.433	0.0153040
693.511	0.0152233
693.590	0.0152221
693.668	0.0152385
693.746	0.0151664
693.824	0.0153275
693.902	0.0153364
693.980	0.0152970
694.058	0.0152771
694.136	0.0150130
694.215	0.0153180
694.293	0.0152673
694.371	0.0152064
694.449	0.0152567
694.527	0.0152557
694.605	0.0151842
694.683	0.0152181
694.761	0.0152109
694.840	0.0151268
694.918	0.0152002
694.996	0.0151783
695.074	0.0152707
695.152	0.0151446
695.230	0.0152567
695.308	0.0153384
695.386	0.0153349
695.465	0.0153996
695.543	0.0152162
695.621	0.0151501
695.699	0.0151855
695.777	0.0153205
695.855	0.0152589
695.933	0.0152425
696.011	0.0153239
696.090	0.0152551
696.168	0.0151648
696.246	0.0150973
696.324	0.0152073
696.402	0.0152063
696.480	0.0152382
696.558	0.0152812
696.636	0.0153503
696.715	0.0152177
696.793	0.0151850
696.871	0.0152835
696.949	0.0152243
697.027	0.0152551
697.105	0.0153004
697.183	0.0152258
697.261	0.0151755
697.340	0.0151889
697.418	0.0153125
697.496	0.0153387
697.574	0.0151667
697.652	0.0151697
697.730	0.0151242
697.808	0.0151695
697.886	0.0152730
697.965	0.0152412
698.043	0.0153686
698.121	0.0152619
698.199	0.0151336
698.277	0.0152256
698.355	0.0151770
698.433	0.0153542
698.511	0.0153154
698.590	0.0152318
698.668	0.0151772
698.746	0.0152328
698.824	0.0151283
698.902	0.0153722
698.980	0.0152641
699.058	0.0151284
699.136	0.0151770
699.215	0.0152923
699.293	0.0152185
699.371	0.0151963
699.449	0.0152540
699.527	0.0152769
699.605	0.0153015
699.683	0.0152691
699.761	0.0152566
699.840	0.0152734
699.918	0.0152144
699.996	0.0152630
700.074	0.0152757
700.152	0.0152759
700.230	0.0151227
700.308	0.0152493
700.386	0.0153098
700.465	0.0151115
700.543	0.0152711
700.621	0.0151667
700.699	0.0151681
700.777	0.0152383
700.855	0.0152290
700.933	0.0153632
701.011	0.0152193
701.090	0.0152242
701.168	0.0151599
701.246	0.0150841
701.324	0.0152540
701.402	0.0151839
701.480	0.0151463
701.558	0.0152114
701.636	0.0151559
701.715	0.0151659
701.793	0.0150555
701.871	0.0151694
701.949	0.0152222
702.027	0.0152004
702.105	0.0152644
702.183	0.0151402
702.261	0.0152166
702.340	0.0150710
702.418	0.0151530
702.496	0.0151852
702.574	0.0150963
702.652	0.0152401
702.730	0.0153143
702.808	0.0152739
702.886	0.0151529
702.965	0.0151697
703.043	0.0151051
703.121	0.0152000
703.199	0.0152120
703.277	0.0151514
703.355	0.0151294
703.433	0.0151937
703.511	0.0151117
703.590	0.0153101
703.668	0.0152560
703.746	0.0153460
703.824	0.0154327
703.902	0.0153535
703.980	0.0152539
704.058	0.0150837
704.136	0.0152362
704.215	0.0153726
704.293	0.0152069
704.371	0.0151875
704.449	0.0151466
704.527	0.0152576
704.605	0.0152028
704.683	0.0152038
704.761	0.0151833
704.840	0.0154027
704.918	0.0153210
704.996	0.0153452
705.074	0.0153057
705.152	0.0154065
705.230	0.0154069
705.308	0.0153666
705.386	0.0153120
705.465	0.0154148
705.543	0.0152716
705.621	0.0153641
705.699	0.0152083
705.777	0.0151860
705.855	0.0151838
705.933	0.0152309
706.011	0.0152055
706.090	0.0150595
706.168	0.0151959
706.246	0.0151114
706.324	0.0151765
706.402	0.0150980
706.480	0.0152649
706.558	0.0152531
706.636	0.0152362
706.715	0.0151993
706.793	0.0150748
706.871	0.0151836
706.949	0.0151582
707.027	0.0153493
707.105	0.0150562
707.183	0.0151009
707.261	0.0152814
707.340	0.0150835
707.418	0.0151165
707.496	0.0152043
707.574	0.0151275
707.652	0.0150810
707.730	0.0151971
707.808	0.0152673
707.886	0.0151379
707.965	0.0150971
708.043	0.0152451
708.121	0.0153402
708.199	0.0153450
708.277	0.0152332
708.355	0.0152668
708.433	0.0151427
708.511	0.0151464
708.590	0.0151996
708.668	0.0151794
708.746	0.0151234
708.824	0.0152073
708.902	0.0152493
708.980	0.0152676
709.058	0.0153967
709.136	0.0153958
709.215	0.0154245
709.293	0.0153779
709.371	0.0153822
709.449	0.0153690
709.527	0.0153437
709.605	0.0152512
709.683	0.0151814
709.761	0.0152650
709.840	0.0151075
709.918	0.0150590
709.996	0.0151138
710.074	0.0150823
710.152	0.0150646
710.230	0.0151672
710.308	0.0151766
710.386	0.0151087
710.465	0.0152127
710.543	0.0151833
710.621	0.0151260
710.699	0.0152746
710.777	0.0152533
710.855	0.0152611
710.933	0.0152911
711.011	0.0151691
711.090	0.0152605
711.168	0.0152209
711.246	0.0152107
711.324	0.0152301
711.402	0.0152059
711.480	0.0152016
711.558	0.0151891
711.636	0.0153007
711.715	0.0151746
711.793	0.0149963
711.871	0.0153934
711.949	0.0154331
712.027	0.0156103
712.105	0.0154980
712.183	0.0155246
712.261	0.0155759
712.340	0.0156701
712.418	0.0155895
712.496	0.0157562
712.574	0.0157082
712.652	0.0155959
712.730	0.0155687
712.808	0.0156205
712.886	0.0155975
712.965	0.0156280
713.043	0.0158443
713.121	0.0156552
713.199	0.0156195
713.277	0.0157455
713.355	0.0156509
713.433	0.0155501
713.511	0.0154025
713.590	0.0152273
713.668	0.0151748
713.746	0.0149013
713.824	0.0147973
713.902	0.0145721
713.980	0.0143410
714.058	0.0143728
714.136	0.0141632
714.215	0.0141467
714.293	0.0140901
714.371	0.0142370
714.449	0.0140656
714.527	0.0140578
714.605	0.0142644
714.683	0.0145379
714.761	0.0145724
714.840	0.0147306
714.918	0.0149578
714.996	0.0152146
715.074	0.0153736
715.152	0.0155096
715.230	0.0157204
715.308	0.0157740
715.386	0.0158434
715.465	0.0159590
715.543	0.0160561
715.621	0.0160375
715.699	0.0161090
715.777	0.0162435
715.855	0.0162004
715.933	0.0162232
716.011	0.0163494
716.090	0.0160763
716.168	0.0161927
716.246	0.0163678
716.324	0.0161234
716.402	0.0160822
716.480	0.0160149
716.558	0.0159927
716.636	0.0159894
716.715	0.0157738
716.793	0.0155869
716.871	0.0156297
716.949	0.0156165
717.027	0.0153951
717.105	0.0155441
717.183	0.0156654
717.261	0.0158350
717.340	0.0158327
717.418	0.0156996
717.496	0.0159175
717.574	0.0158086
717.652	0.0157224
717.730	0.0156688
717.808	0.0153522
717.886	0.0150785
717.965	0.0147475
718.043	0.0143258
718.121	0.0138789
718.199	0.0134467
718.277	0.0129758
718.355	0.0125301
718.433	0.0122673
718.511	0.0118579
718.590	0.0117781
718.668	0.0117961
718.746	0.0118674
718.824	0.0119729
718.902	0.0121896
718.980	0.0125129
719.058	0.0130128
719.136	0.0133929
719.215	0.0138220
719.293	0.0144977
719.371	0.0152780
719.449	0.0159210
719.527	0.0165079
719.605	0.0170641
719.683	0.0175201
719.761	0.0178112
719.840	0.0181745
719.918	0.0183984
719.996	0.0185146
720.074	0.0185242
720.152	0.0186416
720.230	0.0184910
720.308	0.0183078
720.386	0.0179609
720.465	0.0177684
720.543	0.0175361
720.621	0.0171752
720.699	0.0167802
720.777	0.0162217
720.855	0.0160032
720.933	0.0157103
721.011	0.0153781
721.090	0.0151810
721.168	0.0149744
721.246	0.0148477
721.324	0.0150415
721.402	0.0149316
721.480	0.0148914
721.558	0.0151357
721.636	0.0153207
721.715	0.0155136
721.793	0.0156710
721.871	0.0158755
721.949	0.0160854
722.027	0.0161359
722.105	0.0161147
722.183	0.0161143
722.261	0.0160330
722.340	0.0159468
722.418	0.0155820
722.496	0.0152480
722.574	0.0149535
722.652	0.0144762
722.730	0.0141697
722.808	0.0136016
722.886	0.0129697
722.965	0.0123879
723.043	0.0116383
723.121	0.0113187
723.199	0.0107208
723.277	0.0104111
723.355	0.0101117
723.433	0.00979836
723.511	0.0100264
723.590	0.0101284
723.668	0.0104919
723.746	0.0110548
723.824	0.0118281
723.902	0.0125053
723.980	0.0133154
724.058	0.0142860
724.136	0.0152258
724.215	0.0160923
724.293	0.0170419
724.371	0.0178545
724.449	0.0186874
724.527	0.0190727
724.605	0.0195107
724.683	0.0198406
724.761	0.0200029
724.840	0.0198965
724.918	0.0199185
724.996	0.0196879
725.074	0.0194202
725.152	0.0190988
725.230	0.0186442
725.308	0.0183902
725.386	0.0179134
725.465	0.0175129
725.543	0.0171323
725.621	0.0165842
725.699	0.0163181
725.777	0.0160310
725.855	0.0157798
725.933	0.0155501
726.011	0.0156156
726.090	0.0155428
726.168	0.0153300
726.246	0.0155549
726.324	0.0156362
726.402	0.0158358
726.480	0.0158630
726.558	0.0159425
726.636	0.0160955
726.715	0.0160598
726.793	0.0160912
726.871	0.0160915
726.949	0.0158720
727.027	0.0157404
727.105	0.0154555
727.183	0.0152110
727.261	0.0150400
727.340	0.0145134
727.418	0.0140694
727.496	0.0134886
727.574	0.0129795
727.652	0.0124384
727.730	0.0119887
727.808	0.0113847
727.886	0.0109550
727.965	0.0106103
728.043	0.0102499
728.121	0.0101359
728.199	0.00980339
728.277	0.00999191
728.355	0.0102274
728.433	0.0105379
728.511	0.0109787
728.590	0.0117770
728.668	0.0124858
728.746	0.0132005
728.824	0.0139056
728.902	0.0148209
728.980	0.0155872
729.058	0.0163557
729.136	0.0171702
729.215	0.0177402
729.293	0.0182378
729.371	0.0185434
729.449	0.0187652
729.527	0.0189795
729.605	0.0188771
729.683	0.0189806
729.761	0.0186165
729.840	0.0183549
729.918	0.0182626
729.996	0.0178326
730.074	0.0176845
730.152	0.0174196
730.230	0.0171512
730.308	0.0169934
730.386	0.0168994
730.465	0.0168036
730.543	0.0168122
730.621	0.0166951
730.699	0.0167995
730.777	0.0168151
730.855	0.0168815
730.933	0.0169505
731.011	0.0169262
731.090	0.0167772
731.168	0.0166811
731.246	0.0164778
731.324	0.0163312
731.402	0.0159932
731.480	0.0157893
731.558	0.0154004
731.636	0.0151485
731.715	0.0146729
731.793	0.0142605
731.871	0.0138712
731.949	0.0134665
732.027	0.0132374
732.105	0.0130167
732.183	0.0127321
732.261	0.0125494
732.340	0.0122195
732.418	0.0121329
732.496	0.0121298
732.574	0.0121500
732.652	0.0122787
732.730	0.0121035
732.808	0.0124391
732.886	0.0126559
732.965	0.0130406
733.043	0.0133717
733.121	0.0135558
733.199	0.0139632
733.277	0.0145400
733.355	0.0148969
733.433	0.0155211
733.511	0.0159866
733.590	0.0162600
733.668	0.0168083
733.746	0.0171833
733.824	0.0174005
733.902	0.0175494
733.980	0.0176626
734.058	0.0175487
734.136	0.0172897
734.215	0.0169399
734.293	0.0167066
734.371	0.0163722
734.449	0.0161483
734.527	0.0157240
734.605	0.0153499
734.683	0.0149622
734.761	0.0147482
734.840	0.0144851
734.918	0.0143366
734.996	0.0143357
735.074	0.0143506
735.152	0.0143683
735.230	0.0145161
735.308	0.0148066
735.386	0.0150491
735.465	0.0152600
735.543	0.0154674
735.621	0.0156187
735.699	0.0158688
735.777	0.0159817
735.855	0.0161753
735.933	0.0161002
736.011	0.0161754
736.090	0.0159775
736.168	0.0158587
736.246	0.0158051
736.324	0.0154126
736.402	0.0151291
736.480	0.0150415
736.558	0.0146370
736.636	0.0144905
736.715	0.0142162
736.793	0.0140263
736.871	0.0139928
736.949	0.0139542
737.027	0.0138813
737.105	0.0140733
737.183	0.0142513
737.261	0.0144428
737.340	0.0144934
737.418	0.0146223
737.496	0.0149141
737.574	0.0152721
737.652	0.0154802
737.730	0.0158069
737.808	0.0160944
737.886	0.0164074
737.965	0.0166097
738.043	0.0167773
738.121	0.0168903
738.199	0.0169867
738.277	0.0170287
738.355	0.0169044
738.433	0.0168752
738.511	0.0166130
738.590	0.0164690
738.668	0.0161486
738.746	0.0159491
738.824	0.0157649
738.902	0.0153311
738.980	0.0149999
739.058	0.0148849
739.136	0.0147167
739.215	0.0147327
739.293	0.0147339
739.371	0.0145535
739.449	0.0148296
739.527	0.0147739
739.605	0.0148067
739.683	0.0149443
739.761	0.0148114
739.840	0.0149434
739.918	0.0149497
739.996	0.0149254
740.074	0.0148048
740.152	0.0146879
740.230	0.0146853
740.308	0.0147032
740.386	0.0143670
740.465	0.0142957
740.543	0.0142844
740.621	0.0142203
740.699	0.0141228
740.777	0.0140636
740.855	0.0143504
740.933	0.0142381
741.011	0.0143282
741.090	0.0144954
741.168	0.0145526
741.246	0.0145325
741.324	0.0148164
741.402	0.0148946
741.480	0.0149068
741.558	0.0150404
741.636	0.0152039
741.715	0.0154022
741.793	0.0153773
741.871	0.0152902
741.949	0.0155521
742.027	0.0156533
742.105	0.0157483
742.183	0.0158723
742.261	0.0159995
742.340	0.0161963
742.418	0.0162805
742.496	0.0160725
742.574	0.0162814
742.652	0.0162482
742.730	0.0162338
742.808	0.0160963
742.886	0.0160205
742.965	0.0160752
743.043	0.0158492
743.121	0.0155880
743.199	0.0155735
743.277	0.0153945
743.355	0.0152369
743.433	0.0150901
743.511	0.0150018
743.590	0.0149291
743.668	0.0149377
743.746	0.0150229
743.824	0.0150677
743.902	0.0152257
743.980	0.0152467
744.058	0.0154248
744.136	0.0156467
744.215	0.0157026
744.293	0.0158588
744.371	0.0158522
744.449	0.0158978
744.527	0.0157098
744.605	0.0156928
744.683	0.0156184
744.761	0.0154993
744.840	0.0154453
744.918	0.0151427
744.996	0.0149167
745.074	0.0148998
745.152	0.0148189
745.230	0.0145590
745.308	0.0144656
745.386	0.0145055
745.465	0.0143842
745.543	0.0143410
745.621	0.0142341
745.699	0.0143191
745.777	0.0145523
745.855	0.0145577
745.933	0.0147179
746.011	0.0148502
746.090	0.0149446
746.168	0.0150761
746.246	0.0152045
746.324	0.0152700
746.402	0.0153464
746.480	0.0155163
746.558	0.0155525
746.636	0.0153457
746.715	0.0154250
746.793	0.0154552
746.871	0.0154196
746.949	0.0152125
747.027	0.0150890
747.105	0.0151048
747.183	0.0152452
747.261	0.0151389
747.340	0.0152547
747.418	0.0152388
747.496	0.0153376
747.574	0.0154073
747.652	0.0155196
747.730	0.0155299
747.808	0.0156277
747.886	0.0156140
747.965	0.0157474
748.043	0.0158775
748.121	0.0159921
748.199	0.0159072
748.277	0.0159991
748.355	0.0161078
748.433	0.0160144
748.511	0.0160108
748.590	0.0159153
748.668	0.0158653
748.746	0.0157409
748.824	0.0157385
748.902	0.0154610
748.980	0.0153220
749.058	0.0152246
749.136	0.0151741
749.215	0.0151479
749.293	0.0149905
749.371	0.0149103
749.449	0.0147339
749.527	0.0147451
749.605	0.0146741
749.683	0.0146487
749.761	0.0146229
749.840	0.0147088
749.918	0.0146992
749.996	0.0145450
750.074	0.0146368
750.152	0.0146507
750.230	0.0145538
750.308	0.0146935
750.386	0.0147630
750.465	0.0148808
750.543	0.0149440
750.621	0.0150362
750.699	0.0150735
750.777	0.0150510
750.855	0.0152474
750.933	0.0151939
751.011	0.0152692
751.090	0.0153527
751.168	0.0154436
751.246	0.0154099
751.324	0.0154037
751.402	0.0154263
751.480	0.0154913
751.558	0.0154359
751.636	0.0154623
751.715	0.0153364
751.793	0.0153502
751.871	0.0154796
751.949	0.0154408
752.027	0.0155614
752.105	0.0154897
752.183	0.0154057
752.261	0.0154980
752.340	0.0155696
752.418	0.0156701
752.496	0.0158958
752.574	0.0158901
752.652	0.0159226
752.730	0.0161323
752.808	0.0161750
752.886	0.0162261
752.965	0.0163047
753.043	0.0162940
753.121	0.0161087
753.199	0.0162770
753.277	0.0160658
753.355	0.0159315
753.433	0.0157767
753.511	0.0154926
753.590	0.0152087
753.668	0.0150401
753.746	0.0149107
753.824	0.0146770
753.902	0.0144092
753.980	0.0141230
754.058	0.0142187
754.136	0.0139503
754.215	0.0140044
754.293	0.0138941
754.371	0.0140081
754.449	0.0140099
754.527	0.0142533
754.605	0.0143993
754.683	0.0146217
754.761	0.0145636
754.840	0.0148051
754.918	0.0150377
754.996	0.0151120
755.074	0.0152168
755.152	0.0153485
755.230	0.0154990
755.308	0.0156492
755.386	0.0154803
755.465	0.0155880
755.543	0.0156576
755.621	0.0158511
755.699	0.0157960
755.777	0.0157626
755.855	0.0156897
755.933	0.0155598
756.011	0.0157097
756.090	0.0156226
756.168	0.0153964
756.246	0.0153386
756.324	0.0154865
756.402	0.0153765
756.480	0.0154324
756.558	0.0150851
756.636	0.0152169
756.715	0.0151507
756.793	0.0151521
756.871	0.0152529
756.949	0.0151761
757.027	0.0151752
757.105	0.0151641
757.183	0.0152535
757.261	0.0152954
757.340	0.0154183
757.418	0.0155335
757.496	0.0155665
757.574	0.0153935
757.652	0.0155377
757.730	0.0155559
757.808	0.0154510
757.886	0.0152567
757.965	0.0153948
758.043	0.0153232
758.121	0.0153212
758.199	0.0151629
758.277	0.0150825
758.355	0.0149738
758.433	0.0148449
758.511	0.0147757
758.590	0.0147397
758.668	0.0145880
758.746	0.0145310
758.824	0.0145059
758.902	0.0144999
758.980	0.0144611
759.058	0.0143958
759.136	0.0143851
759.215	0.0145241
759.293	0.0144569
759.371	0.0146407
759.449	0.0146783
759.527	0.0148624
759.605	0.0150907
759.683	0.0152010
759.761	0.0154114
759.840	0.0155372
759.918	0.0156913
759.996	0.0158321
760.074	0.0160668
760.152	0.0161093
760.230	0.0160881
760.308	0.0162885
760.386	0.0162474
760.465	0.0162863
760.543	0.0161885
760.621	0.0161026
760.699	0.0162189
760.777	0.0160242
760.855	0.0159166
760.933	0.0158468
761.011	0.0157135
761.090	0.0156216
761.168	0.0154926
761.246	0.0154766
761.324	0.0153259
761.402	0.0151716
761.480	0.0152003
761.558	0.0151038
761.636	0.0149989
761.715	0.0148380
761.793	0.0147169
761.871	0.0147355
761.949	0.0147388
762.027	0.0146379
762.105	0.0147014
762.183	0.0145845
762.261	0.0146280
762.340	0.0146027
762.418	0.0145863
762.496	0.0145303
762.574	0.0145342
762.652	0.0144884
762.730	0.0145959
762.808	0.0147420
762.886	0.0147008
762.965	0.0147916
763.043	0.0149321
763.121	0.0150285
763.199	0.0151276
763.277	0.0153416
763.355	0.0153316
763.433	0.0154856
763.511	0.0154717
763.590	0.0155411
763.668	0.0156339
763.746	0.0155982
763.824	0.0156133
763.902	0.0155444
763.980	0.0156068
764.058	0.0156285
764.136	0.0155434
764.215	0.0155670
764.293	0.0155282
764.371	0.0156231
764.449	0.0155775
764.527	0.0153988
764.605	0.0153338
764.683	0.0154359
764.761	0.0153925
764.840	0.0154379
764.918	0.0152868
764.996	0.0153765
765.074	0.0153859
765.152	0.0153288
765.230	0.0153728
765.308	0.0154098
765.386	0.0154782
765.465	0.0153407
765.543	0.0155191
765.621	0.0154917
765.699	0.0153717
765.777	0.0152994
765.855	0.0152437
765.933	0.0154882
766.011	0.0151900
766.090	0.0152238
766.168	0.0151138
766.246	0.0151784
766.324	0.0150346
766.402	0.0149197
766.480	0.0150577
766.558	0.0149661
766.636	0.0148917
766.715	0.0147448
766.793	0.0147020
766.871	0.0147127
766.949	0.0147256
767.027	0.0145515
767.105	0.0145959
767.183	0.0146491
767.261	0.0145356
767.340	0.0143916
767.418	0.0144415
767.496	0.0145216
767.574	0.0145150
767.652	0.0146743
767.730	0.0147186
767.808	0.0147089
767.886	0.0148518
767.965	0.0150143
768.043	0.0151793
768.121	0.0153949
768.199	0.0154120
768.277	0.0155286
768.355	0.0157535
768.433	0.0158781
768.511	0.0159712
768.590	0.0159882
768.668	0.0160184
768.746	0.0161534
768.824	0.0162121
768.902	0.0162688
768.980	0.0161958
769.058	0.0162542
769.136	0.0161323
769.215	0.0160680
769.293	0.0159859
769.371	0.0158211
769.449	0.0159038
769.527	0.0155778
769.605	0.0156474
769.683	0.0154771
769.761	0.0154139
769.840	0.0152725
769.918	0.0150624
769.996	0.0149962
770.074	0.0149637
770.152	0.0147442
770.230	0.0146568
770.308	0.0146964
770.386	0.0145044
770.465	0.0143484
770.543	0.0146534
770.621	0.0146194
770.699	0.0143535
770.777	0.0142970
770.855	0.0144424
770.933	0.0144112
771.011	0.0145187
771.090	0.0146593
771.168	0.0146548
771.246	0.0146341
771.324	0.0147724
771.402	0.0149468
771.480	0.0148461
771.558	0.0150458
771.636	0.0151879
771.715	0.0151579
771.793	0.0152684
771.871	0.0152798
771.949	0.0153654
772.027	0.0153957
772.105	0.0154294
772.183	0.0154666
772.261	0.0155219
772.340	0.0155096
772.418	0.0156634
772.496	0.0155238
772.574	0.0153674
772.652	0.0154406
772.730	0.0154943
772.808	0.0154568
772.886	0.0156303
772.965	0.0155031
773.043	0.0155314
773.121	0.0157209
773.199	0.0155827
773.277	0.0156815
773.355	0.0156503
773.433	0.0157030
773.511	0.0156825
773.590	0.0157967
773.668	0.0158545
773.746	0.0158920
773.824	0.0160529
773.902	0.0158149
773.980	0.0158190
774.058	0.0158030
774.136	0.0158380
774.215	0.0156920
774.293	0.0155332
774.371	0.0155418
774.449	0.0153545
774.527	0.0152367
774.605	0.0150758
774.683	0.0152582
774.761	0.0148518
774.840	0.0147051
774.918	0.0147018
774.996	0.0144323
775.074	0.0143703
775.152	0.0144109
775.230	0.0141804
775.308	0.0142937
775.386	0.0142612
775.465	0.0141568
775.543	0.0142851
775.621	0.0143475
775.699	0.0145047
775.777	0.0143871
775.855	0.0146455
775.933	0.0146996
776.011	0.0147679
776.090	0.0149824
776.168	0.0149799
776.246	0.0150903
776.324	0.0150510
776.402	0.0153679
776.480	0.0154626
776.558	0.0156384
776.636	0.0155558
776.715	0.0156672
776.793	0.0157661
776.871	0.0158175
776.949	0.0159888
777.027	0.0158670
777.105	0.0159097
777.183	0.0159335
777.261	0.0159908
777.340	0.0160397
777.418	0.0159248
777.496	0.0160665
777.574	0.0159245
777.652	0.0159308
777.730	0.0157041
777.808	0.0157214
777.886	0.0157674
777.965	0.0156323
778.043	0.0155968
778.121	0.0154231
778.199	0.0155947
778.277	0.0154688
778.355	0.0153304
778.433	0.0153454
778.511	0.0152943
778.590	0.0152235
778.668	0.0152483
778.746	0.0152821
778.824	0.0150300
778.902	0.0149409
778.980	0.0150145
779.058	0.0152019
779.136	0.0152078
779.215	0.0149487
779.293	0.0149821
779.371	0.0150356
779.449	0.0150081
779.527	0.0150271
779.605	0.0150966
779.683	0.0149029
779.761	0.0149924
779.840	0.0148120
779.918	0.0148022
779.996	0.0149387
780.074	0.0148890
780.152	0.0147600
780.230	0.0147244
780.308	0.0149570
780.386	0.0147430
780.465	0.0148911
780.543	0.0149693
780.621	0.0148917
780.699	0.0150264
780.777	0.0148482
780.855	0.0150951
780.933	0.0151323
781.011	0.0151038
781.090	0.0151956
781.168	0.0152647
781.246	0.0153618
781.324	0.0153775
781.402	0.0153713
781.480	0.0155014
781.558	0.0155492
781.636	0.0155025
781.715	0.0156050
781.793	0.0155625
781.871	0.0156204
781.949	0.0155798
782.027	0.0156226
782.105	0.0157661
782.183	0.0156696
782.261	0.0158118
782.340	0.0154924
782.418	0.0156593
782.496	0.0154953
782.574	0.0155819
782.652	0.0155611
782.730	0.0154484
782.808	0.0154072
782.886	0.0154293
782.965	0.0153586
783.043	0.0152563
783.121	0.0152131
783.199	0.0151573
783.277	0.0152099
783.355	0.0152035
783.433	0.0150195
783.511	0.0150800
783.590	0.0150938
783.668	0.0148292
783.746	0.0148549
783.824	0.0148618
783.902	0.0147993
783.980	0.0148431
784.058	0.0147369
784.136	0.0148616
784.215	0.0148107
784.293	0.0147653
784.371	0.0148108
784.449	0.0148270
784.527	0.0147697
784.605	0.0148254
784.683	0.0150053
784.761	0.0150175
784.840	0.0150639
784.918	0.0149118
784.996	0.0150217
785.074	0.0152737
785.152	0.0151303
785.230	0.0152566
785.308	0.0152615
785.386	0.0153231
785.465	0.0153538
785.543	0.0154221
785.621	0.0155435
785.699	0.0155392
785.777	0.0154265
785.855	0.0155900
785.933	0.0155044
786.011	0.0156410
786.090	0.0156851
786.168	0.0155112
786.246	0.0156191
786.324	0.0156861
786.402	0.0156238
786.480	0.0155332
786.558	0.0154804
786.636	0.0155825
786.715	0.0155799
786.793	0.0155142
786.871	0.0153712
786.949	0.0154774
787.027	0.0154175
787.105	0.0153979
787.183	0.0152906
787.261	0.0152416
787.340	0.0152838
787.418	0.0153297
787.496	0.0151942
787.574	0.0151376
787.652	0.0149969
787.730	0.0151198
787.808	0.0152003
787.886	0.0150856
787.965	0.0151007
788.043	0.0150073
788.121	0.0150160
788.199	0.0149731
788.277	0.0148102
788.355	0.0148898
788.433	0.0149698
788.511	0.0149837
788.590	0.0149733
788.668	0.0150087
788.746	0.0149671
788.824	0.0149857
788.902	0.0149320
788.980	0.0149876
789.058	0.0150497
789.136	0.0149879
789.215	0.0150632
789.293	0.0150357
789.371	0.0151163
789.449	0.0150951
789.527	0.0150780
789.605	0.0152474
789.683	0.0150889
789.761	0.0152918
789.840	0.0152605
789.918	0.0153638
789.996	0.0154765
790.074	0.0153431
790.152	0.0153903
790.230	0.0154350
790.308	0.0153589
790.386	0.0154088
790.465	0.0155521
790.543	0.0154723
790.621	0.0154273
790.699	0.0154566
790.777	0.0155035
790.855	0.0155114
790.933	0.0155236
791.011	0.0153518
791.090	0.0153058
791.168	0.0152592
791.246	0.0153143
791.324	0.0152357
791.402	0.0152026
791.480	0.0150632
791.558	0.0150740
791.636	0.0150640
791.715	0.0150751
791.793	0.0150703
791.871	0.0150381
791.949	0.0149100
792.027	0.0150263
792.105	0.0151318
792.183	0.0152016
792.261	0.0153125
792.340	0.0151743
792.418	0.0152650
792.496	0.0153539
792.574	0.0154229
792.652	0.0153999
792.730	0.0154485
792.808	0.0152466
792.886	0.0152869
792.965	0.0154070
793.043	0.0153035
793.121	0.0152071
793.199	0.0152261
793.277	0.0152627
793.355	0.0153197
793.433	0.0151571
793.511	0.0150594
793.590	0.0151013
793.668	0.0150291
793.746	0.0150725
793.824	0.0149784
793.902	0.0150340
793.980	0.0151630
794.058	0.0152046
794.136	0.0152911
794.215	0.0151070
794.293	0.0152215
794.371	0.0151881
794.449	0.0152867
794.527	0.0151502
794.605	0.0152361
794.683	0.0153697
794.761	0.0151721
794.840	0.0153701
794.918	0.0152993
794.996	0.0153694
795.074	0.0153747
795.152	0.0153143
795.230	0.0154275
795.308	0.0153816
795.386	0.0153349
795.465	0.0155208
795.543	0.0154696
795.621	0.0153481
795.699	0.0153249
795.777	0.0153106
795.855	0.0151154
795.933	0.0152887
796.011	0.0152637
796.090	0.0151451
796.168	0.0151337
796.246	0.0152306
796.324	0.0150953
796.402	0.0149648
796.480	0.0151473
796.558	0.0151017
796.636	0.0150595
796.715	0.0151348
796.793	0.0149812
796.871	0.0150005
796.949	0.0150654
797.027	0.0151828
797.105	0.0152679
797.183	0.0151578
797.261	0.0152824
797.340	0.0151980
797.418	0.0153316
797.496	0.0152155
797.574	0.0153304
797.652	0.0153392
797.730	0.0153895
797.808	0.0153723
797.886	0.0154337
797.965	0.0153421
798.043	0.0153220
798.121	0.0152838
798.199	0.0153079
798.277	0.0152814
798.355	0.0152552
798.433	0.0153301
798.511	0.0152856
798.590	0.0152178
798.668	0.0153497
798.746	0.0152723
798.824	0.0150605
798.902	0.0151967
798.980	0.0151508
799.058	0.0152582
799.136	0.0151388
799.215	0.0151434
799.293	0.0152271
799.371	0.0152165
799.449	0.0150787
799.527	0.0152935
799.605	0.0152529
799.683	0.0152464
799.761	0.0153593
799.840	0.0151723
799.918	0.0152242
799.996	0.0152496
800.074	0.0152477
800.152	0.0152630
800.230	0.0152078
800.308	0.0152495
800.386	0.0153542
800.465	0.0152509
800.543	0.0151300
800.621	0.0151585
800.699	0.0150959
800.777	0.0150966
800.855	0.0149177
800.933	0.0151518
801.011	0.0151545
801.090	0.0150571
801.168	0.0150033
801.246	0.0150401
801.324	0.0150671
801.402	0.0150995
801.480	0.0151698
801.558	0.0150819
801.636	0.0152274
801.715	0.0151263
801.793	0.0151521
801.871	0.0152549
801.949	0.0152744
802.027	0.0153095
802.105	0.0151850
802.183	0.0151821
802.261	0.0154268
802.340	0.0152316
802.418	0.0152982
802.496	0.0153991
802.574	0.0155518
802.652	0.0154761
802.730	0.0153188
802.808	0.0153793
802.886	0.0153887
802.965	0.0155391
803.043	0.0153522
803.121	0.0153687
803.199	0.0153677
803.277	0.0153979
803.355	0.0153207
803.433	0.0153380
803.511	0.0153300
803.590	0.0152101
803.668	0.0154041
803.746	0.0152782
803.824	0.0153303
803.902	0.0153645
803.980	0.0153122
804.058	0.0153000
804.136	0.0153438
804.215	0.0153773
804.293	0.0152554
804.371	0.0153286
804.449	0.0153806
804.527	0.0152827
804.605	0.0152198
804.683	0.0152711
804.761	0.0150897
804.840	0.0152297
804.918	0.0151938
804.996	0.0151394
805.074	0.0152830
805.152	0.0153059
805.230	0.0151220
805.308	0.0150574
805.386	0.0151270
805.465	0.0152160
805.543	0.0152031
805.621	0.0152144
805.699	0.0151109
805.777	0.0150848
805.855	0.0151644
805.933	0.0151136
806.011	0.0151499
806.090	0.0151414
806.168	0.0152184
806.246	0.0152663
806.324	0.0152029
806.402	0.0151476
806.480	0.0150307
806.558	0.0151316
806.636	0.0151506
806.715	0.0150617
806.793	0.0151971
806.871	0.0151616
806.949	0.0152326
807.027	0.0151992
807.105	0.0150643
807.183	0.0152834
807.261	0.0153150
807.340	0.0150876
807.418	0.0153128
807.496	0.0151645
807.574	0.0152365
807.652	0.0152933
807.730	0.0153005
807.808	0.0152490
807.886	0.0153978
807.965	0.0152859
808.043	0.0152540
808.121	0.0152416
808.199	0.0153188
808.277	0.0154030
808.355	0.0154470
808.433	0.0152967
808.511	0.0154208
808.590	0.0154863
808.668	0.0152933
808.746	0.0153566
808.824	0.0153881
808.902	0.0153009
808.980	0.0155000
809.058	0.0154980
809.136	0.0153539
809.215	0.0153039
809.293	0.0153350
809.371	0.0153780
809.449	0.0154099
809.527	0.0152218
809.605	0.0153622
809.683	0.0152756
809.761	0.0152575
809.840	0.0152173
809.918	0.0152243
809.996	0.0153725
810.074	0.0153230
810.152	0.0152599
810.230	0.0152417
810.308	0.0151707
810.386	0.0151278
810.465	0.0152737
810.543	0.0151049
810.621	0.0150545
810.699	0.0150988
810.777	0.0151292
810.855	0.0149795
810.933	0.0150120
811.011	0.0150285
811.090	0.0149364
811.168	0.0150430
811.246	0.0149620
811.324	0.0151115
811.402	0.0150817
811.480	0.0150911
811.558	0.0150646
811.636	0.0149352
811.715	0.0151086
811.793	0.0151571
811.871	0.0151441
811.949	0.0151774
812.027	0.0152074
812.105	0.0151904
812.183	0.0152686
812.261	0.0153078
812.340	0.0152746
812.418	0.0154631
812.496	0.0155223
812.574	0.0154564
812.652	0.0154798
812.730	0.0154756
812.808	0.0155222
812.886	0.0155198
812.965	0.0156692
813.043	0.0156444
813.121	0.0155429
813.199	0.0154892
813.277	0.0156184
813.355	0.0155459
813.433	0.0156299
813.511	0.0154810
813.590	0.0155742
813.668	0.0155280
813.746	0.0154386
813.824	0.0153771
813.902	0.0151652
813.980	0.0151859
814.058	0.0152093
814.136	0.0151367
814.215	0.0151119
814.293	0.0150030
814.371	0.0149371
814.449	0.0148002
814.527	0.0147598
814.605	0.0147430
814.683	0.0147237
814.761	0.0147049
814.840	0.0146433
814.918	0.0146716
814.996	0.0147418
815.074	0.0147000
815.152	0.0145438
815.230	0.0145392
815.308	0.0145559
815.386	0.0148757
815.465	0.0147035
815.543	0.0148240
815.621	0.0147775
815.699	0.0150119
815.777	0.0149256
815.855	0.0148057
815.933	0.0151235
816.011	0.0151920
816.090	0.0152596
816.168	0.0152753
816.246	0.0154756
816.324	0.0156170
816.402	0.0155945
816.480	0.0156223
816.558	0.0157136
816.636	0.0157213
816.715	0.0157098
816.793	0.0158387
816.871	0.0158018
816.949	0.0159355
817.027	0.0158725
817.105	0.0159149
817.183	0.0158396
817.261	0.0158642
817.340	0.0158366
817.418	0.0157125
817.496	0.0156719
817.574	0.0156592
817.652	0.0156765
817.730	0.0156179
817.808	0.0156930
817.886	0.0155360
817.965	0.0154295
818.043	0.0155016
818.121	0.0155073
818.199	0.0154620
818.277	0.0151939
818.355	0.0152937
818.433	0.0151688
818.511	0.0152213
818.590	0.0151684
818.668	0.0152490
818.746	0.0150938
818.824	0.0150104
818.902	0.0149820
818.980	0.0149460
819.058	0.0148788
819.136	0.0147398
819.215	0.0146632
819.293	0.0144896
819.371	0.0145939
819.449	0.0144336
819.527	0.0144168
819.605	0.0144363
819.683	0.0143111
819.761	0.0141803
819.840	0.0142554
819.918	0.0142872
819.996	0.0143404
820.074	0.0143417
820.152	0.0144702
820.230	0.0145074
820.308	0.0144260
820.386	0.0144946
820.465	0.0148273
820.543	0.0147904
820.621	0.0149726
820.699	0.0151492
820.777	0.0152205
820.855	0.0154227
820.933	0.0154743
821.011	0.0156942
821.090	0.0157991
821.168	0.0160124
821.246	0.0160711
821.324	0.0160686
821.402	0.0162280
821.480	0.0162671
821.558	0.0160714
821.636	0.0162430
821.715	0.0163609
821.793	0.0162524
821.871	0.0161703
821.949	0.0161073
822.027	0.0161119
822.105	0.0160717
822.183	0.0161661
822.261	0.0161076
822.340	0.0159408
822.418	0.0158492
822.496	0.0157323
822.574	0.0155981
822.652	0.0155959
822.730	0.0156830
822.808	0.0153188
822.886	0.0153347
822.965	0.0153448
823.043	0.0152713
823.121	0.0151686
823.199	0.0151795
823.277	0.0150971
823.355	0.0149356
823.433	0.0148645
823.511	0.0149010
823.590	0.0148342
823.668	0.0148144
823.746	0.0145603
823.824	0.0146222
823.902	0.0146461
823.980	0.0144794
824.058	0.0146018
824.136	0.0145501
824.215	0.0145392
824.293	0.0145110
824.371	0.0144992
824.449	0.0144007
824.527	0.0143397
824.605	0.0144552
824.683	0.0144263
824.761	0.0144902
824.840	0.0144931
824.918	0.0144394
824.996	0.0145764
825.074	0.0148011
825.152	0.0147893
825.230	0.0148376
825.308	0.0148770
825.386	0.0151050
825.465	0.0151448
825.543	0.0152263
825.621	0.0153958
825.699	0.0154655
825.777	0.0155416
825.855	0.0157420
825.933	0.0158981
826.011	0.0159688
826.090	0.0159443
826.168	0.0159364
826.246	0.0159962
826.324	0.0162556
826.402	0.0160416
826.480	0.0160577
826.558	0.0161442
826.636	0.0162663
826.715	0.0159577
826.793	0.0160711
826.871	0.0160581
826.949	0.0161327
827.027	0.0159805
827.105	0.0158697
827.183	0.0158408
827.261	0.0154887
827.340	0.0155555
827.418	0.0157109
827.496	0.0155721
827.574	0.0155340
827.652	0.0154517
827.730	0.0154777
827.808	0.0153255
827.886	0.0152245
827.965	0.0153710
828.043	0.0152849
828.121	0.0151968
828.199	0.0151075
828.277	0.0150032
828.355	0.0150361
828.433	0.0148118
828.511	0.0147873
828.590	0.0147936
828.668	0.0147446
828.746	0.0147334
828.824	0.0147038
828.902	0.0147080
828.980	0.0146365
829.058	0.0146603
829.136	0.0146134
829.215	0.0146816
829.293	0.0147375
829.371	0.0148144
829.449	0.0147707
829.527	0.0148045
829.605	0.0148926
829.683	0.0150961
829.761	0.0150603
829.840	0.0151093
829.918	0.0151437
829.996	0.0152338
830.074	0.0152972
830.152	0.0152937
830.230	0.0153854
830.308	0.0154293
830.386	0.0154398
830.465	0.0154070
830.543	0.0153295
830.621	0.0152936
830.699	0.0153735
830.777	0.0153146
830.855	0.0154697
830.933	0.0152549
831.011	0.0151870
831.090	0.0153766
831.168	0.0154509
831.246	0.0155709
831.324	0.0153976
831.402	0.0153423
831.480	0.0151381
831.558	0.0153491
831.636	0.0153825
831.715	0.0153790
831.793	0.0153970
831.871	0.0153042
831.949	0.0154028
832.027	0.0153353
832.105	0.0154436
832.183	0.0154286
832.261	0.0152951
832.340	0.0153065
832.418	0.0153135
832.496	0.0154538
832.574	0.0152367
832.652	0.0152280
832.730	0.0152859
832.808	0.0152823
832.886	0.0152884
832.965	0.0151410
833.043	0.0152009
833.121	0.0151143
833.199	0.0152117
833.277	0.0151244
833.355	0.0152196
833.433	0.0152784
833.511	0.0153483
833.590	0.0152741
833.668	0.0155118
833.746	0.0153870
833.824	0.0155975
833.902	0.0155297
833.980	0.0153864
834.058	0.0154698
834.136	0.0155117
834.215	0.0154600
834.293	0.0154985
834.371	0.0155801
834.449	0.0153796
834.527	0.0153825
834.605	0.0153123
834.683	0.0153309
834.761	0.0153137
834.840	0.0153978
834.918	0.0152063
834.996	0.0153269
835.074	0.0151381
835.152	0.0152184
835.230	0.0151974
835.308	0.0152115
835.386	0.0152361
835.465	0.0152309
835.543	0.0152443
835.621	0.0151344
835.699	0.0152395
835.777	0.0151858
835.855	0.0150185
835.933	0.0151458
836.011	0.0150474
836.090	0.0149947
836.168	0.0150587
836.246	0.0150385
836.324	0.0150460
836.402	0.0150238
836.480	0.0149645
836.558	0.0149792
836.636	0.0150042
836.715	0.0150095
836.793	0.0149151
836.871	0.0149669
836.949	0.0150487
837.027	0.0151080
837.105	0.0151369
837.183	0.0151524
837.261	0.0152759
837.340	0.0152457
837.418	0.0152002
837.496	0.0153242
837.574	0.0152203
837.652	0.0151640
837.730	0.0153168
837.808	0.0154965
837.886	0.0155660
837.965	0.0154453
838.043	0.0154992
838.121	0.0154636
838.199	0.0153738
838.277	0.0155905
838.355	0.0154953
838.433	0.0155400
838.511	0.0154343
838.590	0.0153816
838.668	0.0153611
838.746	0.0154548
838.824	0.0153903
838.902	0.0152986
838.980	0.0152997
839.058	0.0152959
839.136	0.0152651
839.215	0.0152250
839.293	0.0152654
839.371	0.0152569
839.449	0.0151914
839.527	0.0153657
839.605	0.0151255
839.683	0.0153015
839.761	0.0152969
839.840	0.0152630
839.918	0.0152883
839.996	0.0153096
840.074	0.0154037
840.152	0.0154717
840.230	0.0151823
840.308	0.0152207
840.386	0.0152809
840.465	0.0153381
840.543	0.0152435
840.621	0.0152518
840.699	0.0151842
840.777	0.0151736
840.855	0.0152645
840.933	0.0150244
841.011	0.0150558
841.090	0.0150958
841.168	0.0151476
841.246	0.0151221
841.324	0.0151220
841.402	0.0151459
841.480	0.0150385
841.558	0.0149085
841.636	0.0151028
841.715	0.0151507
841.793	0.0149889
841.871	0.0150945
841.949	0.0150098
842.027	0.0150305
842.105	0.0152181
842.183	0.0152457
842.261	0.0152277
842.340	0.0151173
842.418	0.0152477
842.496	0.0152637
842.574	0.0153459
842.652	0.0152422
842.730	0.0152050
842.808	0.0153558
842.886	0.0154800
842.965	0.0153858
843.043	0.0154658
843.121	0.0154010
843.199	0.0153418
843.277	0.0153144
843.355	0.0155933
843.433	0.0153432
843.511	0.0152373
843.590	0.0153441
843.668	0.0154092
843.746	0.0153271
843.824	0.0152814
843.902	0.0151731
843.980	0.0151963
844.058	0.0153759
844.136	0.0153262
844.215	0.0153709
844.293	0.0153104
844.371	0.0152715
844.449	0.0153711
844.527	0.0153706
844.605	0.0154920
844.683	0.0154278
844.761	0.0154521
844.840	0.0153512
844.918	0.0152898
844.996	0.0154758
845.074	0.0153632
845.152	0.0152312
845.230	0.0154221
845.308	0.0153259
845.386	0.0153098
845.465	0.0151787
845.543	0.0151798
845.621	0.0151975
845.699	0.0151227
845.777	0.0151465
845.855	0.0150317
845.933	0.0150159
846.011	0.0149995
846.090	0.0149626
846.168	0.0149433
846.246	0.0150969
846.324	0.0150137
846.402	0.0148667
846.480	0.0149528
846.558	0.0149335
846.636	0.0150047
846.715	0.0149319
846.793	0.0149384
846.871	0.0150372
846.949	0.0150060
847.027	0.0150935
847.105	0.0151407
847.183	0.0152146
847.261	0.0151820
847.340	0.0151045
847.418	0.0152536
847.496	0.0153071
847.574	0.0153050
847.652	0.0152836
847.730	0.0152880
847.808	0.0154576
847.886	0.0155864
847.965	0.0154462
848.043	0.0153821
848.121	0.0153429
848.199	0.0155691
848.277	0.0155415
848.355	0.0155360
848.433	0.0155079
848.511	0.0153448
848.590	0.0154817
848.668	0.0154323
848.746	0.0154337
848.824	0.0153599
848.902	0.0154057
848.980	0.0154108
849.058	0.0154163
849.136	0.0152744
849.215	0.0153300
849.293	0.0153877
849.371	0.0154317
849.449	0.0153801
849.527	0.0152498
849.605	0.0152281
849.683	0.0152647
849.761	0.0153934
849.840	0.0153634
849.918	0.0152433
849.996	0.0153383
850.074	0.0152697
850.152	0.0152817
850.230	0.0153386
850.308	0.0152750
850.386	0.0151515
850.465	0.0153090
850.543	0.0152757
850.621	0.0151793
850.699	0.0150872
850.777	0.0151759
850.855	0.0150404
850.933	0.0149213
851.011	0.0150970
851.090	0.0149793
851.168	0.0150333
851.246	0.0152159
851.324	0.0150706
851.402	0.0151947
851.480	0.0152160
851.558	0.0150823
851.636	0.0151763
851.715	0.0151226
851.793	0.0152279
851.871	0.0153072
851.949	0.0152826
852.027	0.0154046
852.105	0.0152790
852.183	0.0153231
852.261	0.0154285
852.340	0.0154558
852.418	0.0153487
852.496	0.0155440
852.574	0.0154414
852.652	0.0153727
852.730	0.0154182
852.808	0.0154115
852.886	0.0155315
852.965	0.0154130
853.043	0.0154044
853.121	0.0154690
853.199	0.0153761
853.277	0.0154773
853.355	0.0153851
853.433	0.0153168
853.511	0.0153256
853.590	0.0154604
853.668	0.0154356
853.746	0.0153381
853.824	0.0153220
853.902	0.0153809
853.980	0.0153634
854.058	0.0152918
854.136	0.0153252
854.215	0.0154059
854.293	0.0153750
854.371	0.0151836
854.449	0.0152596
854.527	0.0152225
854.605	0.0152167
854.683	0.0152182
854.761	0.0151751
854.840	0.0150436
854.918	0.0151497
854.996	0.0150845
855.074	0.0151369
855.152	0.0151035
855.230	0.0150860
855.308	0.0150494
855.386	0.0149454
855.465	0.0149957
855.543	0.0149111
855.621	0.0148769
855.699	0.0149270
855.777	0.0149116
855.855	0.0149562
855.933	0.0150024
856.011	0.0150160
856.090	0.0151389
856.168	0.0150095
856.246	0.0150693
856.324	0.0152364
856.402	0.0151141
856.480	0.0151160
856.558	0.0153038
856.636	0.0151380
856.715	0.0151941
856.793	0.0152927
856.871	0.0154119
856.949	0.0153555
857.027	0.0153494
857.105	0.0153459
857.183	0.0153961
857.261	0.0153265
857.340	0.0154449
857.418	0.0154776
857.496	0.0154842
857.574	0.0154321
857.652	0.0155019
857.730	0.0154842
857.808	0.0152924
857.886	0.0153988
857.965	0.0154368
858.043	0.0155157
858.121	0.0155489
858.199	0.0154358
858.277	0.0154173
858.355	0.0154264
858.433	0.0154573
858.511	0.0154898
858.590	0.0154602
858.668	0.0154131
858.746	0.0153520
858.824	0.0153772
858.902	0.0152418
858.980	0.0152271
859.058	0.0153442
859.136	0.0151410
859.215	0.0151413
859.293	0.0150049
859.371	0.0150916
859.449	0.0152530
859.527	0.0152967
859.605	0.0150322
859.683	0.0152348
859.761	0.0151132
859.840	0.0152066
859.918	0.0150965
859.996	0.0151848
860.074	0.0150796
860.152	0.0150332
860.230	0.0151168
860.308	0.0150954
860.386	0.0151340
860.465	0.0152320
860.543	0.0150344
860.621	0.0149966
860.699	0.0150544
860.777	0.0151015
860.855	0.0151705
860.933	0.0149702
861.011	0.0150549
861.090	0.0149072
861.168	0.0151250
861.246	0.0150471
861.324	0.0151197
861.402	0.0151438
861.480	0.0150632
861.558	0.0151309
861.636	0.0152664
861.715	0.0152698
861.793	0.0153513
861.871	0.0152000
861.949	0.0153793
862.027	0.0152864
862.105	0.0153007
862.183	0.0153822
862.261	0.0153377
862.340	0.0154842
862.418	0.0153355
862.496	0.0153739
862.574	0.0154678
862.652	0.0155317
862.730	0.0155352
862.808	0.0153039
862.886	0.0154960
862.965	0.0154191
863.043	0.0154700
863.121	0.0153944
863.199	0.0154453
863.277	0.0153678
863.355	0.0153193
863.433	0.0153348
863.511	0.0153717
863.590	0.0154880
863.668	0.0153186
863.746	0.0152519
863.824	0.0152789
863.902	0.0151093
863.980	0.0151624
864.058	0.0151224
864.136	0.0150759
864.215	0.0151605
864.293	0.0151288
864.371	0.0151615
864.449	0.0151546
864.527	0.0151292
864.605	0.0151893
864.683	0.0153297
864.761	0.0151711
864.840	0.0151234
864.918	0.0149647
864.996	0.0152514
865.074	0.0151773
865.152	0.0152375
865.230	0.0151819
865.308	0.0151955
865.386	0.0152786
865.465	0.0152961
865.543	0.0152377
865.621	0.0152168
865.699	0.0152777
865.777	0.0153210
865.855	0.0153053
865.933	0.0151437
866.011	0.0151897
866.090	0.0150724
866.168	0.0152067
866.246	0.0152024
866.324	0.0151580
866.402	0.0149958
866.480	0.0152629
866.558	0.0153421
866.636	0.0151906
866.715	0.0151257
866.793	0.0152709
866.871	0.0152886
866.949	0.0152053
867.027	0.0152100
867.105	0.0152789
867.183	0.0151466
867.261	0.0152156
867.340	0.0151531
867.418	0.0152842
867.496	0.0153781
867.574	0.0154471
867.652	0.0153918
867.730	0.0153397
867.808	0.0153436
867.886	0.0154986
867.965	0.0154421
868.043	0.0155041
868.121	0.0154054
868.199	0.0153763
868.277	0.0155007
868.355	0.0154162
868.433	0.0153006
868.511	0.0153426
868.590	0.0152969
868.668	0.0151978
868.746	0.0152735
868.824	0.0152660
868.902	0.0152136
868.980	0.0152789
869.058	0.0152230
869.136	0.0152379
869.215	0.0151659
869.293	0.0150861
869.371	0.0151944
869.449	0.0151636
869.527	0.0150800
869.605	0.0152175
869.683	0.0152956
869.761	0.0151272
869.840	0.0150763
869.918	0.0151859
869.996	0.0151269
870.074	0.0151550
870.152	0.0150598
870.230	0.0150520
870.308	0.0153040
870.386	0.0151646
870.465	0.0150993
870.543	0.0150517
870.621	0.0152856
870.699	0.0153104
870.777	0.0150789
870.855	0.0152362
870.933	0.0152053
871.011	0.0153246
871.090	0.0152055
871.168	0.0152612
871.246	0.0153036
871.324	0.0153297
871.402	0.0152972
871.480	0.0152296
871.558	0.0152419
871.636	0.0152645
871.715	0.0152110
871.793	0.0151661
871.871	0.0152085
871.949	0.0152453
872.027	0.0150772
872.105	0.0152504
872.183	0.0152657
872.261	0.0153971
872.340	0.0151888
872.418	0.0152233
872.496	0.0153780
872.574	0.0152583
872.652	0.0152153
872.730	0.0152489
872.808	0.0152026
872.886	0.0151750
872.965	0.0152193
873.043	0.0152785
873.121	0.0152457
873.199	0.0153832
873.277	0.0153245
873.355	0.0151733
873.433	0.0152639
873.511	0.0152290
873.590	0.0152496
873.668	0.0154946
873.746	0.0153834
873.824	0.0153779
873.902	0.0152295
873.980	0.0152274
874.058	0.0151475
874.136	0.0151130
874.215	0.0153542
874.293	0.0152216
874.371	0.0153842
874.449	0.0152747
874.527	0.0153240
874.605	0.0154322
874.683	0.0152518
874.761	0.0152698
874.840	0.0152960
874.918	0.0153028
874.996	0.0151449
875.074	0.0151257
875.152	0.0152648
875.230	0.0152798
875.308	0.0153121
875.386	0.0151976
875.465	0.0153062
875.543	0.0152894
875.621	0.0153162
875.699	0.0153990
875.777	0.0153185
875.855	0.0152904
875.933	0.0152943
876.011	0.0152985
876.090	0.0151311
876.168	0.0152789
876.246	0.0154029
876.324	0.0153107
876.402	0.0152262
876.480	0.0154085
876.558	0.0151555
876.636	0.0151909
876.715	0.0152678
876.793	0.0153043
876.871	0.0151149
876.949	0.0152536
877.027	0.0152479
877.105	0.0152747
877.183	0.0151921
877.261	0.0151359
877.340	0.0151611
877.418	0.0151647
877.496	0.0151830
877.574	0.0151820
877.652	0.0151358
877.730	0.0151795
877.808	0.0151318
877.886	0.0152225
877.965	0.0153258
878.043	0.0153302
878.121	0.0153017
878.199	0.0151566
878.277	0.0152050
878.355	0.0153110
878.433	0.0154115
878.511	0.0154029
878.590	0.0153354
878.668	0.0152795
878.746	0.0152406
878.824	0.0153265
878.902	0.0152744
878.980	0.0153303
879.058	0.0151768
879.136	0.0151651
879.215	0.0151411
879.293	0.0152373
879.371	0.0152984
879.449	0.0153745
879.527	0.0152970
879.605	0.0152542
879.683	0.0152712
879.761	0.0152071
879.840	0.0152248
879.918	0.0153279
879.996	0.0152763
880.074	0.0154117
880.152	0.0153314
880.230	0.0152714
880.308	0.0153661
880.386	0.0153497
880.465	0.0155624
880.543	0.0154687
880.621	0.0153616
880.699	0.0154347
880.777	0.0154820
880.855	0.0154647
880.933	0.0154310
881.011	0.0153303
881.090	0.0153657
881.168	0.0153542
881.246	0.0152666
881.324	0.0153572
881.402	0.0153516
881.480	0.0151660
881.558	0.0150535
881.636	0.0152785
881.715	0.0150858
881.793	0.0151518
881.871	0.0150556
881.949	0.0149887
882.027	0.0150773
882.105	0.0152205
882.183	0.0151272
882.261	0.0151506
882.340	0.0150582
882.418	0.0151110
882.496	0.0152011
882.574	0.0152036
882.652	0.0150674
882.730	0.0149517
882.808	0.0151851
882.886	0.0152412
882.965	0.0152604
883.043	0.0151234
883.121	0.0151861
883.199	0.0151154
883.277	0.0151424
883.355	0.0152676
883.433	0.0151640
883.511	0.0152741
883.590	0.0152960
883.668	0.0151154
883.746	0.0151876
883.824	0.0151777
883.902	0.0151572
883.980	0.0152038
884.058	0.0150985
884.136	0.0151997
884.215	0.0152741
884.293	0.0151276
884.371	0.0152586
884.449	0.0153094
884.527	0.0152180
884.605	0.0153583
884.683	0.0153244
884.761	0.0153474
884.840	0.0152360
884.918	0.0154009
884.996	0.0153309
885.074	0.0154041
885.152	0.0153875
885.230	0.0153713
885.308	0.0154607
885.386	0.0153298
885.465	0.0152563
885.543	0.0154199
885.621	0.0154109
885.699	0.0153260
885.777	0.0152632
885.855	0.0152092
885.933	0.0151498
886.011	0.0151470
886.090	0.0152015
886.168	0.0151087
886.246	0.0150623
886.324	0.0151121
886.402	0.0151441
886.480	0.0151918
886.558	0.0151460
886.636	0.0149701
886.715	0.0150304
886.793	0.0152038
886.871	0.0151649
886.949	0.0151725
887.027	0.0153465
887.105	0.0151065
887.183	0.0152188
887.261	0.0152347
887.340	0.0152664
887.418	0.0153049
887.496	0.0152837
887.574	0.0152015
887.652	0.0152003
887.730	0.0152645
887.808	0.0152864
887.886	0.0152667
887.965	0.0152092
888.043	0.0153239
888.121	0.0152872
888.199	0.0151079
888.277	0.0152059
888.355	0.0153185
888.433	0.0151443
888.511	0.0151704
888.590	0.0151614
888.668	0.0151222
888.746	0.0151413
888.824	0.0151402
888.902	0.0152100
888.980	0.0153063
889.058	0.0151416
889.136	0.0152505
889.215	0.0154070
889.293	0.0153416
889.371	0.0154077
889.449	0.0154243
889.527	0.0153073
889.605	0.0154784
889.683	0.0153252
889.761	0.0155322
889.840	0.0154494
889.918	0.0154753
889.996	0.0155730
890.074	0.0154160
890.152	0.0154092
890.230	0.0154092
890.308	0.0152782
890.386	0.0152789
890.465	0.0152523
890.543	0.0151820
890.621	0.0150549
890.699	0.0150847
890.777	0.0151334
890.855	0.0152819
890.933	0.0152493
891.011	0.0149522
891.090	0.0151656
891.168	0.0150932
891.246	0.0151881
891.324	0.0151315
891.402	0.0151237
891.480	0.0150192
891.558	0.0151577
891.636	0.0151824
891.715	0.0151893
891.793	0.0153467
891.871	0.0152498
891.949	0.0152645
892.027	0.0152876
892.105	0.0153362
892.183	0.0152119
892.261	0.0152248
892.340	0.0154955
892.418	0.0153839
892.496	0.0153289
892.574	0.0151285
892.652	0.0151886
892.730	0.0152557
892.808	0.0151389
892.886	0.0151642
892.965	0.0151367
893.043	0.0151212
893.121	0.0151126
893.199	0.0150937
893.277	0.0152705
893.355	0.0151126
893.433	0.0149959
893.511	0.0150249
893.590	0.0150323
893.668	0.0151244
893.746	0.0150891
893.824	0.0151876
893.902	0.0152188
893.980	0.0152699
894.058	0.0152685
894.136	0.0152605
894.215	0.0154426
894.293	0.0153278
894.371	0.0154906
894.449	0.0152805
894.527	0.0153127
894.605	0.0153729
894.683	0.0153672
894.761	0.0152833
894.840	0.0153384
894.918	0.0153871
894.996	0.0153315
895.074	0.0152019
895.152	0.0150891
895.230	0.0152645
895.308	0.0151971
895.386	0.0152184
895.465	0.0150224
895.543	0.0151431
895.621	0.0151540
895.699	0.0150587
895.777	0.0151151
895.855	0.0151444
895.933	0.0151087
896.011	0.0150561
896.090	0.0151363
896.168	0.0152180
896.246	0.0150710
896.324	0.0151546
896.402	0.0151846
896.480	0.0153497
896.558	0.0153183
896.636	0.0151405
896.715	0.0153847
896.793	0.0155019
896.871	0.0154258
896.949	0.0153972
897.027	0.0152740
897.105	0.0153699
897.183	0.0154077
897.261	0.0153610
897.340	0.0153399
897.418	0.0152634
897.496	0.0152364
897.574	0.0154038
897.652	0.0153105
897.730	0.0151348
897.808	0.0151874
897.886	0.0151159
897.965	0.0152005
898.043	0.0152020
898.121	0.0152227
898.199	0.0152849
898.277	0.0150279
898.355	0.0150890
898.433	0.0151797
898.511	0.0151221
898.590	0.0152618
898.668	0.0152464
898.746	0.0151144
898.824	0.0152161
898.902	0.0153594
898.980	0.0153761
899.058	0.0153219
899.136	0.0152976
899.215	0.0153881
899.293	0.0153831
899.371	0.0152003
899.449	0.0152936
899.527	0.0152779
899.605	0.0152456
899.683	0.0152535
899.761	0.0152863
899.840	0.0151862
899.918	0.0151596
899.996	0.0153815
900.074	0.0152873
900.152	0.0150516
900.230	0.0151959
900.308	0.0151475
900.386	0.0151274
900.465	0.0152335
900.543	0.0151779
900.621	0.0152753
900.699	0.0151233
900.777	0.0151735
900.855	0.0152955
900.933	0.0151579
901.011	0.0151764
901.090	0.0152554
901.168	0.0151872
901.246	0.0151118
901.324	0.0152876
901.402	0.0152339
901.480	0.0151741
901.558	0.0152499
901.636	0.0152593
901.715	0.0153080
901.793	0.0153266
901.871	0.0153740
901.949	0.0153925
902.027	0.0152812
902.105	0.0153436
902.183	0.0152790
902.261	0.0153393
902.340	0.0154194
902.418	0.0152326
902.496	0.0153555
902.574	0.0154057
902.652	0.0152281
902.730	0.0154658
902.808	0.0152361
902.886	0.0153096
902.965	0.0153513
903.043	0.0153412
903.121	0.0152182
903.199	0.0152335
903.277	0.0152029
903.355	0.0153812
903.433	0.0152645
903.511	0.0151431
903.590	0.0153082
903.668	0.0153394
903.746	0.0151855
903.824	0.0152751
903.902	0.0153281
903.980	0.0153157
904.058	0.0154076
904.136	0.0153333
904.215	0.0152618
904.293	0.0152621
904.371	0.0152679
904.449	0.0152942
904.527	0.0153374
904.605	0.0151676
904.683	0.0150558
904.761	0.0152003
904.840	0.0151720
904.918	0.0153161
904.996	0.0151004
905.074	0.0151507
905.152	0.0151642
905.230	0.0151900
905.308	0.0151773
905.386	0.0150785
905.465	0.0150299
905.543	0.0150683
905.621	0.0151522
905.699	0.0151715
905.777	0.0151013
905.855	0.0151134
905.933	0.0151674
906.011	0.0152583
906.090	0.0151090
906.168	0.0151909
906.246	0.0151649
906.324	0.0152854
906.402	0.0154268
906.480	0.0153079
906.558	0.0154164
906.636	0.0154191
906.715	0.0154053
906.793	0.0155017
906.871	0.0153703
906.949	0.0155267
907.027	0.0154082
907.105	0.0154503
907.183	0.0154446
907.261	0.0155069
907.340	0.0153620
907.418	0.0154141
907.496	0.0153728
907.574	0.0152965
907.652	0.0153391
907.730	0.0153477
907.808	0.0153310
907.886	0.0152254
907.965	0.0151589
908.043	0.0151821
908.121	0.0152026
908.199	0.0150909
908.277	0.0152295
908.355	0.0150812
908.433	0.0150837
908.511	0.0151639
908.590	0.0151228
908.668	0.0151356
908.746	0.0150888
908.824	0.0151996
908.902	0.0151788
908.980	0.0151064
909.058	0.0151311
909.136	0.0152267
909.215	0.0151724
909.293	0.0153208
909.371	0.0152641
909.449	0.0152213
909.527	0.0151230
909.605	0.0151947
909.683	0.0151244
909.761	0.0150263
909.840	0.0150271
909.918	0.0149856
909.996	0.0149163
910.074	0.0148922
910.152	0.0149111
910.230	0.0149734
910.308	0.0148779
910.386	0.0149779
910.465	0.0151427
910.543	0.0151800
910.621	0.0149629
910.699	0.0151511
910.777	0.0151305
910.855	0.0152953
910.933	0.0153909
911.011	0.0153781
911.090	0.0154591
911.168	0.0155003
911.246	0.0155873
911.324	0.0155404
911.402	0.0156078
911.480	0.0155636
911.558	0.0155844
911.636	0.0153539
911.715	0.0154769
911.793	0.0154936
911.871	0.0154947
911.949	0.0154301
912.027	0.0152429
912.105	0.0152173
912.183	0.0151942
912.261	0.0150349
912.340	0.0150542
912.418	0.0150702
912.496	0.0149131
912.574	0.0148851
912.652	0.0148990
912.730	0.0148414
912.808	0.0150147
912.886	0.0148592
912.965	0.0149505
913.043	0.0149397
913.121	0.0150158
913.199	0.0149864
913.277	0.0150655
913.355	0.0151015
913.433	0.0151812
913.511	0.0151344
913.590	0.0153619
913.668	0.0152989
913.746	0.0153430
913.824	0.0153347
913.902	0.0153226
913.980	0.0153429
914.058	0.0153228
914.136	0.0151923
914.215	0.0153498
914.293	0.0152216
914.371	0.0152929
914.449	0.0152100
914.527	0.0151305
914.605	0.0150330
914.683	0.0149731
914.761	0.0149129
914.840	0.0150440
914.918	0.0149676
914.996	0.0149322
915.074	0.0151287
915.152	0.0149747
915.230	0.0151848
915.308	0.0149303
915.386	0.0151871
915.465	0.0152033
915.543	0.0153677
915.621	0.0153730
915.699	0.0153674
915.777	0.0153888
915.855	0.0155415
915.933	0.0155558
916.011	0.0156218
916.090	0.0156038
916.168	0.0156139
916.246	0.0155862
916.324	0.0155668
916.402	0.0156929
916.480	0.0156070
916.558	0.0155074
916.636	0.0155077
916.715	0.0155107
916.793	0.0154662
916.871	0.0153597
916.949	0.0151919
917.027	0.0152692
917.105	0.0151302
917.183	0.0151316
917.261	0.0149242
917.340	0.0148585
917.418	0.0148643
917.496	0.0148571
917.574	0.0147734
917.652	0.0147697
917.730	0.0148045
917.808	0.0148459
917.886	0.0149519
917.965	0.0148843
918.043	0.0149947
918.121	0.0151134
918.199	0.0150822
918.277	0.0152963
918.355	0.0152408
918.433	0.0153427
918.511	0.0153898
918.590	0.0153845
918.668	0.0154717
918.746	0.0155836
918.824	0.0154424
918.902	0.0155317
918.980	0.0156429
919.058	0.0155552
919.136	0.0155000
919.215	0.0155305
919.293	0.0153941
919.371	0.0154370
919.449	0.0153263
919.527	0.0152844
919.605	0.0153172
919.683	0.0153534
919.761	0.0152680
919.840	0.0149799
919.918	0.0150246
919.996	0.0151335
920.074	0.0150871
920.152	0.0150924
920.230	0.0152184
920.308	0.0151312
920.386	0.0152453
920.465	0.0152348
920.543	0.0153549
920.621	0.0153510
920.699	0.0154644
920.777	0.0155355
920.855	0.0155186
920.933	0.0155766
921.011	0.0154472
921.090	0.0154975
921.168	0.0154305
921.246	0.0153172
921.324	0.0153207
921.402	0.0153523
921.480	0.0151791
921.558	0.0152162
921.636	0.0151979
921.715	0.0149602
921.793	0.0150070
921.871	0.0149513
921.949	0.0148823
922.027	0.0150333
922.105	0.0148634
922.183	0.0150069
922.261	0.0150234
922.340	0.0150794
922.418	0.0151562
922.496	0.0150631
922.574	0.0151989
922.652	0.0152407
922.730	0.0152951
922.808	0.0152872
922.886	0.0153268
922.965	0.0154604
923.043	0.0153830
923.121	0.0153539
923.199	0.0153369
923.277	0.0153143
923.355	0.0155639
923.433	0.0154947
923.511	0.0153467
923.590	0.0152188
923.668	0.0153717
923.746	0.0153251
923.824	0.0152831
923.902	0.0152188
923.980	0.0153278
924.058	0.0151913
924.136	0.0153251
924.215	0.0153189
924.293	0.0152512
924.371	0.0151165
924.449	0.0151864
924.527	0.0153249
924.605	0.0152779
924.683	0.0153277
924.761	0.0151266
924.840	0.0152811
924.918	0.0153482
924.996	0.0153106
925.074	0.0152751
925.152	0.0152406
925.230	0.0153731
925.308	0.0152290
925.386	0.0152168
925.465	0.0152657
925.543	0.0153064
925.621	0.0155086
925.699	0.0152616
925.777	0.0151830
925.855	0.0150793
925.933	0.0150814
926.011	0.0150626
926.090	0.0151836
926.168	0.0153120
926.246	0.0151156
926.324	0.0150020
926.402	0.0150928
926.480	0.0150784
926.558	0.0150780
926.636	0.0150749
926.715	0.0152232
926.793	0.0152341
926.871	0.0153545
926.949	0.0152912
927.027	0.0154066
927.105	0.0153230
927.183	0.0154339
927.261	0.0154270
927.340	0.0155638
927.418	0.0153590
927.496	0.0153039
927.574	0.0153637
927.652	0.0155083
927.730	0.0154212
927.808	0.0153313
927.886	0.0153320
927.965	0.0153812
928.043	0.0152050
928.121	0.0151964
928.199	0.0152192
928.277	0.0153243
928.355	0.0152570
928.433	0.0151958
928.511	0.0151672
928.590	0.0152941
928.668	0.0151917
928.746	0.0151318
928.824	0.0150031
928.902	0.0149886
928.980	0.0151044
929.058	0.0151689
929.136	0.0150793
929.215	0.0151714
929.293	0.0150784
929.371	0.0150048
929.449	0.0151121
929.527	0.0151401
929.605	0.0150861
929.683	0.0150643
929.761	0.0153314
929.840	0.0153146
929.918	0.0152148
929.996	0.0153428
930.074	0.0152386
930.152	0.0153116
930.230	0.0155037
930.308	0.0154391
930.386	0.0153658
930.465	0.0153922
930.543	0.0155158
930.621	0.0154331
930.699	0.0153632
930.777	0.0153798
930.855	0.0154860
930.933	0.0154301
931.011	0.0154180
931.090	0.0153831
931.168	0.0154568
931.246	0.0153413
931.324	0.0153279
931.402	0.0153314
931.480	0.0153433
931.558	0.0154312
931.636	0.0152905
931.715	0.0152940
931.793	0.0153512
931.871	0.0154704
931.949	0.0153426
932.027	0.0152840
932.105	0.0151672
932.183	0.0152321
932.261	0.0152625
932.340	0.0151570
932.418	0.0151377
932.496	0.0152641
932.574	0.0152509
932.652	0.0151600
932.730	0.0151330
932.808	0.0151435
932.886	0.0152248
932.965	0.0152588
933.043	0.0152000
933.121	0.0151824
933.199	0.0151385
933.277	0.0151247
933.355	0.0151118
933.433	0.0149951
933.511	0.0150629
933.590	0.0151669
933.668	0.0150650
933.746	0.0151324
933.824	0.0151052
933.902	0.0150814
933.980	0.0152418
934.058	0.0151083
934.136	0.0151728
934.215	0.0152155
934.293	0.0152686
934.371	0.0152065
934.449	0.0152146
934.527	0.0152990
934.605	0.0152164
934.683	0.0153226
934.761	0.0153968
934.840	0.0152296
934.918	0.0153209
934.996	0.0152529
935.074	0.0153979
935.152	0.0153716
935.230	0.0153662
935.308	0.0153210
935.386	0.0152567
935.465	0.0153635
935.543	0.0153603
935.621	0.0153840
935.699	0.0153680
935.777	0.0153381
935.855	0.0153330
935.933	0.0152749
936.011	0.0154508
936.090	0.0154314
936.168	0.0154276
936.246	0.0152679
936.324	0.0152977
936.402	0.0151445
936.480	0.0153077
936.558	0.0152686
936.636	0.0152022
936.715	0.0152055
936.793	0.0152197
936.871	0.0151503
936.949	0.0151736
937.027	0.0151041
937.105	0.0151765
937.183	0.0151165
937.261	0.0151188
937.340	0.0151881
937.418	0.0152207
937.496	0.0151903
937.574	0.0151740
937.652	0.0151799
937.730	0.0150999
937.808	0.0150919
937.886	0.0152412
937.965	0.0152387
938.043	0.0151212
938.121	0.0151123
938.199	0.0151369
938.277	0.0151950
938.355	0.0150118
938.433	0.0151284
938.511	0.0153010
938.590	0.0152013
938.668	0.0151661
938.746	0.0152518
938.824	0.0151187
938.902	0.0152251
938.980	0.0152826
939.058	0.0154071
939.136	0.0153637
939.215	0.0153408
939.293	0.0152487
939.371	0.0153782
939.449	0.0154585
939.527	0.0154090
939.605	0.0153436
939.683	0.0154019
939.761	0.0154009
939.840	0.0154697
939.918	0.0152702
939.996	0.0152885
940.074	0.0152597
940.152	0.0153305
940.230	0.0152761
940.308	0.0152564
940.386	0.0151519
940.465	0.0151276
940.543	0.0153092
940.621	0.0152341
940.699	0.0152734
940.777	0.0151034
940.855	0.0151405
940.933	0.0150249
941.011	0.0150106
941.090	0.0151962
941.168	0.0150492
941.246	0.0151243
941.324	0.0152151
941.402	0.0151028
941.480	0.0152411
941.558	0.0151031
941.636	0.0153330
941.715	0.0152510
941.793	0.0151582
941.871	0.0152543
941.949	0.0152776
942.027	0.0153191
942.105	0.0152187
942.183	0.0153042
942.261	0.0153070
942.340	0.0153046
942.418	0.0150703
942.496	0.0151012
942.574	0.0153813
942.652	0.0152199
942.730	0.0151909
942.808	0.0153146
942.886	0.0152225
942.965	0.0152663
943.043	0.0151690
943.121	0.0152847
943.199	0.0152999
943.277	0.0152435
943.355	0.0152161
943.433	0.0152258
943.511	0.0153301
943.590	0.0153856
943.668	0.0153455
943.746	0.0153741
943.824	0.0152728
943.902	0.0153562
943.980	0.0152824
944.058	0.0153395
944.136	0.0154250
944.215	0.0154776
944.293	0.0154095
944.371	0.0152486
944.449	0.0153587
944.527	0.0154135
944.605	0.0152982
944.683	0.0153659
944.761	0.0152855
944.840	0.0153093
944.918	0.0154200
944.996	0.0153445
945.074	0.0154939
945.152	0.0153629
945.230	0.0154267
945.308	0.0153170
945.386	0.0151874
945.465	0.0152444
945.543	0.0152432
945.621	0.0152203
945.699	0.0152305
945.777	0.0152776
945.855	0.0151519
945.933	0.0152425
946.011	0.0152386
946.090	0.0151321
946.168	0.0153304
946.246	0.0153143
946.324	0.0153135
946.402	0.0152296
946.480	0.0153403
946.558	0.0152451
946.636	0.0150931
946.715	0.0152383
946.793	0.0152287
946.871	0.0153346
946.949	0.0152571
947.027	0.0153657
947.105	0.0152119
947.183	0.0151661
947.261	0.0152403
947.340	0.0151523
947.418	0.0152119
947.496	0.0152343
947.574	0.0152400
947.652	0.0150687
947.730	0.0153390
947.808	0.0152998
947.886	0.0152637
947.965	0.0151287
948.043	0.0151817
948.121	0.0152474
948.199	0.0152929
948.277	0.0152149
948.355	0.0153639
948.433	0.0154809
948.511	0.0153736
948.590	0.0154123
948.668	0.0152670
948.746	0.0152196
948.824	0.0153346
948.902	0.0152852
948.980	0.0151875
949.058	0.0152684
949.136	0.0152603
949.215	0.0152618
949.293	0.0153284
949.371	0.0152381
949.449	0.0152830
949.527	0.0151366
949.605	0.0152032
949.683	0.0152436
949.761	0.0153413
949.840	0.0151485
949.918	0.0152126
