06/29/2022	21:14:18	Ver.	4.1	UNKNOWN
Optical Delay	629.995835	Delta X		0.078125	Sweeps	1	Scan Rate	0/0
Coordinates	Axis 1	NaN	Axis 2	NaN	Axis 3	NaN	Axis 4	NaN	Axis 5	NaN	Axis 6	0.000000
TX Power	0.000000	RX Power	0.000000

629.996	0.0155421
630.074	0.0155294
630.152	0.0156168
630.230	0.0155082
630.308	0.0155273
630.386	0.0156247
630.465	0.0155771
630.543	0.0154875
630.621	0.0157612
630.699	0.0156319
630.777	0.0154611
630.855	0.0155134
630.933	0.0155293
631.011	0.0156496
631.090	0.0155486
631.168	0.0155756
631.246	0.0154659
631.324	0.0154603
631.402	0.0155910
631.480	0.0154585
631.558	0.0155023
631.636	0.0154700
631.715	0.0154888
631.793	0.0155944
631.871	0.0154662
631.949	0.0156036
632.027	0.0154977
632.105	0.0154230
632.183	0.0155034
632.261	0.0155745
632.340	0.0155451
632.418	0.0154575
632.496	0.0155669
632.574	0.0155810
632.652	0.0154725
632.730	0.0156126
632.808	0.0154536
632.886	0.0154322
632.965	0.0155376
633.043	0.0154219
633.121	0.0155644
633.199	0.0155550
633.277	0.0156344
633.355	0.0155766
633.433	0.0155338
633.511	0.0155229
633.590	0.0155975
633.668	0.0155111
633.746	0.0155331
633.824	0.0156168
633.902	0.0156390
633.980	0.0155173
634.058	0.0156113
634.136	0.0156140
634.215	0.0155076
634.293	0.0156059
634.371	0.0155397
634.449	0.0155946
634.527	0.0156188
634.605	0.0155445
634.683	0.0155127
634.761	0.0154943
634.840	0.0155779
634.918	0.0154795
634.996	0.0157531
635.074	0.0155147
635.152	0.0156671
635.230	0.0155384
635.308	0.0157053
635.386	0.0156169
635.465	0.0155518
635.543	0.0155174
635.621	0.0154877
635.699	0.0155539
635.777	0.0155138
635.855	0.0155299
635.933	0.0156577
636.011	0.0154580
636.090	0.0155419
636.168	0.0154449
636.246	0.0154272
636.324	0.0155299
636.402	0.0156039
636.480	0.0154643
636.558	0.0156013
636.636	0.0156171
636.715	0.0155014
636.793	0.0152906
636.871	0.0156264
636.949	0.0155767
637.027	0.0155076
637.105	0.0154947
637.183	0.0155030
637.261	0.0155556
637.340	0.0156516
637.418	0.0154254
637.496	0.0154845
637.574	0.0154698
637.652	0.0155626
637.730	0.0153949
637.808	0.0154064
637.886	0.0155666
637.965	0.0155998
638.043	0.0155108
638.121	0.0155856
638.199	0.0156226
638.277	0.0155409
638.355	0.0155701
638.433	0.0156100
638.511	0.0154900
638.590	0.0155194
638.668	0.0155276
638.746	0.0153943
638.824	0.0153799
638.902	0.0154812
638.980	0.0154404
639.058	0.0155384
639.136	0.0153894
639.215	0.0156100
639.293	0.0155368
639.371	0.0154392
639.449	0.0157384
639.527	0.0156088
639.605	0.0155096
639.683	0.0154405
639.761	0.0155841
639.840	0.0155589
639.918	0.0156092
639.996	0.0155149
640.074	0.0155498
640.152	0.0156319
640.230	0.0153793
640.308	0.0154496
640.386	0.0155009
640.465	0.0156035
640.543	0.0155817
640.621	0.0157050
640.699	0.0154836
640.777	0.0155109
640.855	0.0156607
640.933	0.0155855
641.011	0.0155358
641.090	0.0154838
641.168	0.0156445
641.246	0.0155826
641.324	0.0156268
641.402	0.0154836
641.480	0.0155421
641.558	0.0157338
641.636	0.0156387
641.715	0.0154456
641.793	0.0155022
641.871	0.0156019
641.949	0.0155666
642.027	0.0154993
642.105	0.0156293
642.183	0.0155710
642.261	0.0154701
642.340	0.0156005
642.418	0.0154011
642.496	0.0155117
642.574	0.0154989
642.652	0.0156568
642.730	0.0155560
642.808	0.0155167
642.886	0.0155853
642.965	0.0154535
643.043	0.0153734
643.121	0.0155530
643.199	0.0155753
643.277	0.0156022
643.355	0.0154794
643.433	0.0155949
643.511	0.0155320
643.590	0.0154700
643.668	0.0155106
643.746	0.0156684
643.824	0.0155309
643.902	0.0155869
643.980	0.0154443
644.058	0.0154893
644.136	0.0155828
644.215	0.0155400
644.293	0.0154525
644.371	0.0156067
644.449	0.0157162
644.527	0.0155755
644.605	0.0156002
644.683	0.0156903
644.761	0.0156491
644.840	0.0155173
644.918	0.0155685
644.996	0.0155673
645.074	0.0156762
645.152	0.0154855
645.230	0.0156668
645.308	0.0155614
645.386	0.0156808
645.465	0.0156062
645.543	0.0155595
645.621	0.0156654
645.699	0.0155721
645.777	0.0154569
645.855	0.0155505
645.933	0.0156018
646.011	0.0155767
646.090	0.0154370
646.168	0.0154991
646.246	0.0155463
646.324	0.0154293
646.402	0.0155264
646.480	0.0156283
646.558	0.0155563
646.636	0.0154663
646.715	0.0155293
646.793	0.0155350
646.871	0.0155234
646.949	0.0155067
647.027	0.0156715
647.105	0.0154253
647.183	0.0154349
647.261	0.0156176
647.340	0.0154440
647.418	0.0154594
647.496	0.0155759
647.574	0.0156837
647.652	0.0155743
647.730	0.0154806
647.808	0.0155093
647.886	0.0154355
647.965	0.0154035
648.043	0.0155632
648.121	0.0154434
648.199	0.0153498
648.277	0.0154824
648.355	0.0156066
648.433	0.0154045
648.511	0.0155024
648.590	0.0154008
648.668	0.0154852
648.746	0.0155583
648.824	0.0154707
648.902	0.0155408
648.980	0.0155684
649.058	0.0154623
649.136	0.0154210
649.215	0.0155509
649.293	0.0155960
649.371	0.0156105
649.449	0.0155965
649.527	0.0155598
649.605	0.0154962
649.683	0.0155755
649.761	0.0155080
649.840	0.0156281
649.918	0.0155605
649.996	0.0154882
650.074	0.0154694
650.152	0.0155689
650.230	0.0156223
650.308	0.0155900
650.386	0.0156028
650.465	0.0154192
650.543	0.0155776
650.621	0.0154852
650.699	0.0155750
650.777	0.0155243
650.855	0.0155949
650.933	0.0154317
651.011	0.0155808
651.090	0.0155483
651.168	0.0154574
651.246	0.0154785
651.324	0.0155182
651.402	0.0156732
651.480	0.0154534
651.558	0.0154136
651.636	0.0155000
651.715	0.0155347
651.793	0.0155669
651.871	0.0155394
651.949	0.0155367
652.027	0.0154228
652.105	0.0155112
652.183	0.0155433
652.261	0.0155545
652.340	0.0154232
652.418	0.0154943
652.496	0.0154623
652.574	0.0155709
652.652	0.0155385
652.730	0.0155825
652.808	0.0156104
652.886	0.0155257
652.965	0.0155740
653.043	0.0154208
653.121	0.0153368
653.199	0.0155462
653.277	0.0155660
653.355	0.0154520
653.433	0.0154614
653.511	0.0155144
653.590	0.0154680
653.668	0.0154919
653.746	0.0153854
653.824	0.0156770
653.902	0.0155063
653.980	0.0155709
654.058	0.0155493
654.136	0.0156084
654.215	0.0155845
654.293	0.0153540
654.371	0.0155194
654.449	0.0155478
654.527	0.0155347
654.605	0.0155212
654.683	0.0154047
654.761	0.0154242
654.840	0.0154738
654.918	0.0154845
654.996	0.0155576
655.074	0.0155212
655.152	0.0155183
655.230	0.0155318
655.308	0.0155070
655.386	0.0154195
655.465	0.0155087
655.543	0.0155533
655.621	0.0154596
655.699	0.0155946
655.777	0.0154941
655.855	0.0155746
655.933	0.0153072
656.011	0.0156455
656.090	0.0155226
656.168	0.0156320
656.246	0.0155510
656.324	0.0153989
656.402	0.0154137
656.480	0.0154520
656.558	0.0155274
656.636	0.0155321
656.715	0.0154620
656.793	0.0154344
656.871	0.0155405
656.949	0.0156522
657.027	0.0153870
657.105	0.0155823
657.183	0.0157447
657.261	0.0154168
657.340	0.0155753
657.418	0.0155589
657.496	0.0155837
657.574	0.0155260
657.652	0.0154208
657.730	0.0155013
657.808	0.0155629
657.886	0.0154933
657.965	0.0154226
658.043	0.0153623
658.121	0.0155592
658.199	0.0155308
658.277	0.0155261
658.355	0.0156583
658.433	0.0154129
658.511	0.0154099
658.590	0.0155826
658.668	0.0154682
658.746	0.0155729
658.824	0.0156047
658.902	0.0156016
658.980	0.0155299
659.058	0.0156548
659.136	0.0155508
659.215	0.0155607
659.293	0.0154960
659.371	0.0156395
659.449	0.0154825
659.527	0.0155604
659.605	0.0154961
659.683	0.0155453
659.761	0.0154814
659.840	0.0155241
659.918	0.0156069
659.996	0.0155602
660.074	0.0154926
660.152	0.0154733
660.230	0.0155629
660.308	0.0154573
660.386	0.0154609
660.465	0.0154515
660.543	0.0154843
660.621	0.0155013
660.699	0.0155142
660.777	0.0155464
660.855	0.0155103
660.933	0.0154995
661.011	0.0153843
661.090	0.0155147
661.168	0.0154223
661.246	0.0155935
661.324	0.0155569
661.402	0.0155740
661.480	0.0156119
661.558	0.0155700
661.636	0.0154707
661.715	0.0155743
661.793	0.0154733
661.871	0.0155743
661.949	0.0155921
662.027	0.0155344
662.105	0.0154927
662.183	0.0155409
662.261	0.0154868
662.340	0.0155759
662.418	0.0154478
662.496	0.0154964
662.574	0.0153661
662.652	0.0154787
662.730	0.0154416
662.808	0.0153855
662.886	0.0155526
662.965	0.0154538
663.043	0.0154361
663.121	0.0154525
663.199	0.0155315
663.277	0.0154453
663.355	0.0154770
663.433	0.0155995
663.511	0.0155159
663.590	0.0156862
663.668	0.0155724
663.746	0.0154682
663.824	0.0154784
663.902	0.0154855
663.980	0.0154311
664.058	0.0154507
664.136	0.0155474
664.215	0.0156281
664.293	0.0154247
664.371	0.0155306
664.449	0.0156752
664.527	0.0155898
664.605	0.0156328
664.683	0.0154665
664.761	0.0154925
664.840	0.0155769
664.918	0.0156403
664.996	0.0155062
665.074	0.0156672
665.152	0.0155945
665.230	0.0154695
665.308	0.0156210
665.386	0.0156033
665.465	0.0155075
665.543	0.0155486
665.621	0.0156930
665.699	0.0155063
665.777	0.0154640
665.855	0.0155471
665.933	0.0154582
666.011	0.0155618
666.090	0.0156036
666.168	0.0154848
666.246	0.0154717
666.324	0.0153872
666.402	0.0155210
666.480	0.0155591
666.558	0.0154546
666.636	0.0155004
666.715	0.0156689
666.793	0.0155488
666.871	0.0155515
666.949	0.0154321
667.027	0.0154713
667.105	0.0156088
667.183	0.0154962
667.261	0.0154261
667.340	0.0154836
667.418	0.0155672
667.496	0.0154178
667.574	0.0154824
667.652	0.0154586
667.730	0.0154915
667.808	0.0155978
667.886	0.0153139
667.965	0.0154858
668.043	0.0154464
668.121	0.0155682
668.199	0.0156591
668.277	0.0155000
668.355	0.0154340
668.433	0.0153930
668.511	0.0155042
668.590	0.0154662
668.668	0.0155959
668.746	0.0155380
668.824	0.0155701
668.902	0.0156535
668.980	0.0154760
669.058	0.0155678
669.136	0.0154983
669.215	0.0154243
669.293	0.0154913
669.371	0.0155416
669.449	0.0154898
669.527	0.0155539
669.605	0.0155548
669.683	0.0154671
669.761	0.0155077
669.840	0.0153792
669.918	0.0154791
669.996	0.0154197
670.074	0.0154062
670.152	0.0155179
670.230	0.0155494
670.308	0.0156243
670.386	0.0154106
670.465	0.0155814
670.543	0.0156534
670.621	0.0155402
670.699	0.0154755
670.777	0.0155909
670.855	0.0155480
670.933	0.0155184
671.011	0.0153651
671.090	0.0154836
671.168	0.0155247
671.246	0.0155659
671.324	0.0155776
671.402	0.0155763
671.480	0.0155650
671.558	0.0154651
671.636	0.0156171
671.715	0.0154778
671.793	0.0155085
671.871	0.0155907
671.949	0.0155960
672.027	0.0155259
672.105	0.0154267
672.183	0.0154185
672.261	0.0155344
672.340	0.0153728
672.418	0.0154798
672.496	0.0155018
672.574	0.0154263
672.652	0.0154728
672.730	0.0155192
672.808	0.0154782
672.886	0.0154790
672.965	0.0155082
673.043	0.0155398
673.121	0.0155569
673.199	0.0155349
673.277	0.0155493
673.355	0.0154980
673.433	0.0155406
673.511	0.0155339
673.590	0.0154443
673.668	0.0154152
673.746	0.0153646
673.824	0.0154126
673.902	0.0154982
673.980	0.0155048
674.058	0.0156493
674.136	0.0154829
674.215	0.0154378
674.293	0.0155114
674.371	0.0154624
674.449	0.0155421
674.527	0.0155339
674.605	0.0155577
674.683	0.0154815
674.761	0.0155421
674.840	0.0153899
674.918	0.0155296
674.996	0.0154559
675.074	0.0155579
675.152	0.0154800
675.230	0.0153837
675.308	0.0154533
675.386	0.0156030
675.465	0.0153887
675.543	0.0154200
675.621	0.0155323
675.699	0.0154952
675.777	0.0153675
675.855	0.0156122
675.933	0.0154563
676.011	0.0155032
676.090	0.0154947
676.168	0.0154778
676.246	0.0155673
676.324	0.0155759
676.402	0.0155701
676.480	0.0154919
676.558	0.0154614
676.636	0.0155183
676.715	0.0157087
676.793	0.0155587
676.871	0.0155866
676.949	0.0155276
677.027	0.0156509
677.105	0.0155625
677.183	0.0154763
677.261	0.0155590
677.340	0.0154966
677.418	0.0156750
677.496	0.0155874
677.574	0.0154705
677.652	0.0154804
677.730	0.0155370
677.808	0.0156242
677.886	0.0155498
677.965	0.0154607
678.043	0.0153985
678.121	0.0154714
678.199	0.0155652
678.277	0.0156557
678.355	0.0155300
678.433	0.0154355
678.511	0.0155206
678.590	0.0155055
678.668	0.0155949
678.746	0.0155659
678.824	0.0155862
678.902	0.0154809
678.980	0.0155966
679.058	0.0154340
679.136	0.0153860
679.215	0.0155077
679.293	0.0155798
679.371	0.0153996
679.449	0.0154863
679.527	0.0154417
679.605	0.0155463
679.683	0.0154865
679.761	0.0156357
679.840	0.0154517
679.918	0.0154918
679.996	0.0154731
680.074	0.0154682
680.152	0.0155896
680.230	0.0154658
680.308	0.0154713
680.386	0.0154808
680.465	0.0155665
680.543	0.0154053
680.621	0.0155151
680.699	0.0154309
680.777	0.0154598
680.855	0.0155695
680.933	0.0154819
681.011	0.0153947
681.090	0.0155828
681.168	0.0155602
681.246	0.0154778
681.324	0.0154478
681.402	0.0154826
681.480	0.0154604
681.558	0.0154379
681.636	0.0154868
681.715	0.0154787
681.793	0.0155753
681.871	0.0153583
681.949	0.0155054
682.027	0.0155367
682.105	0.0154239
682.183	0.0154015
682.261	0.0154855
682.340	0.0155070
682.418	0.0154130
682.496	0.0154818
682.574	0.0155215
682.652	0.0155948
682.730	0.0153867
682.808	0.0154426
682.886	0.0155391
682.965	0.0154931
683.043	0.0153781
683.121	0.0154835
683.199	0.0155565
683.277	0.0155826
683.355	0.0155686
683.433	0.0154237
683.511	0.0155549
683.590	0.0156088
683.668	0.0155315
683.746	0.0154486
683.824	0.0154781
683.902	0.0154839
683.980	0.0155275
684.058	0.0154951
684.136	0.0155429
684.215	0.0155655
684.293	0.0154189
684.371	0.0154338
684.449	0.0153511
684.527	0.0155719
684.605	0.0155716
684.683	0.0156059
684.761	0.0155559
684.840	0.0154404
684.918	0.0154952
684.996	0.0154711
685.074	0.0154060
685.152	0.0154868
685.230	0.0155580
685.308	0.0155301
685.386	0.0154826
685.465	0.0155978
685.543	0.0154985
685.621	0.0155042
685.699	0.0154156
685.777	0.0156503
685.855	0.0155595
685.933	0.0155294
686.011	0.0155533
686.090	0.0156086
686.168	0.0156154
686.246	0.0153699
686.324	0.0153995
686.402	0.0154963
686.480	0.0156497
686.558	0.0154971
686.636	0.0156142
686.715	0.0155762
686.793	0.0154172
686.871	0.0155693
686.949	0.0156326
687.027	0.0154870
687.105	0.0153554
687.183	0.0155816
687.261	0.0155547
687.340	0.0153960
687.418	0.0154729
687.496	0.0154948
687.574	0.0154265
687.652	0.0154730
687.730	0.0155176
687.808	0.0154594
687.886	0.0154498
687.965	0.0154583
688.043	0.0155238
688.121	0.0154695
688.199	0.0156052
688.277	0.0155206
688.355	0.0154167
688.433	0.0154898
688.511	0.0154955
688.590	0.0155694
688.668	0.0153991
688.746	0.0154629
688.824	0.0154186
688.902	0.0155067
688.980	0.0154849
689.058	0.0155796
689.136	0.0154308
689.215	0.0154159
689.293	0.0155322
689.371	0.0154058
689.449	0.0155025
689.527	0.0156247
689.605	0.0154497
689.683	0.0153901
689.761	0.0154962
689.840	0.0155168
689.918	0.0154538
689.996	0.0155457
690.074	0.0155139
690.152	0.0154854
690.230	0.0154772
690.308	0.0154918
690.386	0.0153926
690.465	0.0154810
690.543	0.0155301
690.621	0.0154038
690.699	0.0155778
690.777	0.0155923
690.855	0.0156269
690.933	0.0155109
691.011	0.0153391
691.090	0.0155019
691.168	0.0154964
691.246	0.0154832
691.324	0.0154735
691.402	0.0155159
691.480	0.0155916
691.558	0.0155897
691.636	0.0154809
691.715	0.0153596
691.793	0.0154971
691.871	0.0154333
691.949	0.0154293
692.027	0.0155101
692.105	0.0155560
692.183	0.0156213
692.261	0.0154945
692.340	0.0153870
692.418	0.0155533
692.496	0.0155009
692.574	0.0155325
692.652	0.0155938
692.730	0.0154761
692.808	0.0155088
692.886	0.0155383
692.965	0.0154951
693.043	0.0154174
693.121	0.0154322
693.199	0.0155910
693.277	0.0155071
693.355	0.0155124
693.433	0.0155064
693.511	0.0157087
693.590	0.0154333
693.668	0.0153416
693.746	0.0154823
693.824	0.0154843
693.902	0.0154741
693.980	0.0154433
694.058	0.0154262
694.136	0.0154808
694.215	0.0156516
694.293	0.0154934
694.371	0.0154955
694.449	0.0155595
694.527	0.0155802
694.605	0.0154527
694.683	0.0154996
694.761	0.0154965
694.840	0.0155379
694.918	0.0155122
694.996	0.0154221
695.074	0.0153343
695.152	0.0155244
695.230	0.0156285
695.308	0.0153983
695.386	0.0155053
695.465	0.0154102
695.543	0.0155560
695.621	0.0155187
695.699	0.0154681
695.777	0.0154734
695.855	0.0154052
695.933	0.0156043
696.011	0.0156483
696.090	0.0155184
696.168	0.0154158
696.246	0.0153220
696.324	0.0155208
696.402	0.0156050
696.480	0.0154652
696.558	0.0154500
696.636	0.0155795
696.715	0.0154990
696.793	0.0156067
696.871	0.0154466
696.949	0.0155283
697.027	0.0155038
697.105	0.0154927
697.183	0.0155438
697.261	0.0154073
697.340	0.0154230
697.418	0.0156471
697.496	0.0154062
697.574	0.0153567
697.652	0.0155061
697.730	0.0154791
697.808	0.0154524
697.886	0.0154285
697.965	0.0154877
698.043	0.0154424
698.121	0.0154807
698.199	0.0154831
698.277	0.0154446
698.355	0.0154601
698.433	0.0154952
698.511	0.0154372
698.590	0.0154419
698.668	0.0154434
698.746	0.0154063
698.824	0.0155692
698.902	0.0154501
698.980	0.0154881
699.058	0.0154443
699.136	0.0154342
699.215	0.0153475
699.293	0.0154889
699.371	0.0154596
699.449	0.0154359
699.527	0.0155309
699.605	0.0154577
699.683	0.0156445
699.761	0.0156362
699.840	0.0153939
699.918	0.0153571
699.996	0.0154831
700.074	0.0154660
700.152	0.0153374
700.230	0.0154365
700.308	0.0154243
700.386	0.0154345
700.465	0.0153854
700.543	0.0154156
700.621	0.0155595
700.699	0.0155732
700.777	0.0154953
700.855	0.0154562
700.933	0.0155273
701.011	0.0155760
701.090	0.0154739
701.168	0.0154597
701.246	0.0154752
701.324	0.0155082
701.402	0.0155908
701.480	0.0155428
701.558	0.0154369
701.636	0.0154758
701.715	0.0154735
701.793	0.0154893
701.871	0.0153377
701.949	0.0154374
702.027	0.0155304
702.105	0.0156234
702.183	0.0154587
702.261	0.0154877
702.340	0.0157091
702.418	0.0155210
702.496	0.0156895
702.574	0.0154372
702.652	0.0156604
702.730	0.0155377
702.808	0.0154092
702.886	0.0155195
702.965	0.0153796
703.043	0.0155019
703.121	0.0155364
703.199	0.0153418
703.277	0.0154388
703.355	0.0153419
703.433	0.0154552
703.511	0.0154819
703.590	0.0154444
703.668	0.0153870
703.746	0.0153802
703.824	0.0155978
703.902	0.0154612
703.980	0.0153571
704.058	0.0154944
704.136	0.0153208
704.215	0.0154227
704.293	0.0154080
704.371	0.0153599
704.449	0.0153444
704.527	0.0153181
704.605	0.0153482
704.683	0.0152725
704.761	0.0152121
704.840	0.0153080
704.918	0.0152818
704.996	0.0154284
705.074	0.0154074
705.152	0.0154367
705.230	0.0155963
705.308	0.0153794
705.386	0.0153516
705.465	0.0154230
705.543	0.0154465
705.621	0.0154110
705.699	0.0153677
705.777	0.0153953
705.855	0.0152976
705.933	0.0154957
706.011	0.0154224
706.090	0.0156036
706.168	0.0156460
706.246	0.0155216
706.324	0.0156241
706.402	0.0157633
706.480	0.0155990
706.558	0.0155238
706.636	0.0154704
706.715	0.0155434
706.793	0.0154941
706.871	0.0153166
706.949	0.0153738
707.027	0.0153113
707.105	0.0154192
707.183	0.0154789
707.261	0.0154375
707.340	0.0155856
707.418	0.0154905
707.496	0.0155312
707.574	0.0155014
707.652	0.0156860
707.730	0.0155802
707.808	0.0157223
707.886	0.0157198
707.965	0.0156133
708.043	0.0155518
708.121	0.0155641
708.199	0.0157558
708.277	0.0154917
708.355	0.0155840
708.433	0.0155739
708.511	0.0153725
708.590	0.0153757
708.668	0.0153492
708.746	0.0152889
708.824	0.0153406
708.902	0.0153514
708.980	0.0152016
709.058	0.0155344
709.136	0.0153676
709.215	0.0153391
709.293	0.0154046
709.371	0.0153819
709.449	0.0153652
709.527	0.0154572
709.605	0.0153012
709.683	0.0154920
709.761	0.0153230
709.840	0.0151849
709.918	0.0153347
709.996	0.0153850
710.074	0.0153646
710.152	0.0153267
710.230	0.0154554
710.308	0.0155840
710.386	0.0157213
710.465	0.0157848
710.543	0.0158144
710.621	0.0157347
710.699	0.0157647
710.777	0.0157347
710.855	0.0157349
710.933	0.0156322
711.011	0.0156084
711.090	0.0156996
711.168	0.0157354
711.246	0.0156972
711.324	0.0156693
711.402	0.0156678
711.480	0.0157127
711.558	0.0156583
711.636	0.0157497
711.715	0.0157731
711.793	0.0155979
711.871	0.0155091
711.949	0.0155043
712.027	0.0156211
712.105	0.0158100
712.183	0.0156474
712.261	0.0155020
712.340	0.0154641
712.418	0.0154505
712.496	0.0153319
712.574	0.0152222
712.652	0.0151538
712.730	0.0151725
712.808	0.0149591
712.886	0.0149416
712.965	0.0148618
713.043	0.0149851
713.121	0.0148557
713.199	0.0150724
713.277	0.0150909
713.355	0.0149846
713.433	0.0150805
713.511	0.0151327
713.590	0.0151549
713.668	0.0150333
713.746	0.0151837
713.824	0.0152101
713.902	0.0152195
713.980	0.0153963
714.058	0.0154063
714.136	0.0155146
714.215	0.0155761
714.293	0.0157255
714.371	0.0160413
714.449	0.0160130
714.527	0.0161758
714.605	0.0163280
714.683	0.0164293
714.761	0.0163828
714.840	0.0164346
714.918	0.0163235
714.996	0.0163611
715.074	0.0161563
715.152	0.0160806
715.230	0.0159510
715.308	0.0157458
715.386	0.0156876
715.465	0.0157417
715.543	0.0156432
715.621	0.0155761
715.699	0.0156152
715.777	0.0156445
715.855	0.0158201
715.933	0.0157939
716.011	0.0158812
716.090	0.0159306
716.168	0.0158471
716.246	0.0160770
716.324	0.0161568
716.402	0.0158889
716.480	0.0158846
716.558	0.0158516
716.636	0.0157474
716.715	0.0156068
716.793	0.0153635
716.871	0.0152083
716.949	0.0147465
717.027	0.0146204
717.105	0.0142572
717.183	0.0141366
717.261	0.0138515
717.340	0.0136794
717.418	0.0135088
717.496	0.0134723
717.574	0.0132095
717.652	0.0133451
717.730	0.0134547
717.808	0.0133979
717.886	0.0136357
717.965	0.0138183
718.043	0.0139825
718.121	0.0141616
718.199	0.0143059
718.277	0.0145599
718.355	0.0149954
718.433	0.0152525
718.511	0.0154958
718.590	0.0159512
718.668	0.0162227
718.746	0.0166978
718.824	0.0169951
718.902	0.0172506
718.980	0.0176478
719.058	0.0179382
719.136	0.0180093
719.215	0.0178678
719.293	0.0178965
719.371	0.0179081
719.449	0.0176492
719.527	0.0176307
719.605	0.0175852
719.683	0.0173307
719.761	0.0168432
719.840	0.0168394
719.918	0.0164357
719.996	0.0162293
720.074	0.0160121
720.152	0.0156918
720.230	0.0154659
720.308	0.0152009
720.386	0.0150631
720.465	0.0149849
720.543	0.0151578
720.621	0.0152578
720.699	0.0152438
720.777	0.0153221
720.855	0.0156539
720.933	0.0159332
721.011	0.0158282
721.090	0.0159661
721.168	0.0161169
721.246	0.0162369
721.324	0.0161639
721.402	0.0161938
721.480	0.0160464
721.558	0.0157236
721.636	0.0153550
721.715	0.0152004
721.793	0.0148581
721.871	0.0145018
721.949	0.0140120
722.027	0.0137351
722.105	0.0134918
722.183	0.0131710
722.261	0.0128044
722.340	0.0126231
722.418	0.0124123
722.496	0.0124595
722.574	0.0123816
722.652	0.0123773
722.730	0.0122336
722.808	0.0125032
722.886	0.0124409
722.965	0.0126459
723.043	0.0129424
723.121	0.0131474
723.199	0.0134514
723.277	0.0137991
723.355	0.0142368
723.433	0.0146612
723.511	0.0153323
723.590	0.0158053
723.668	0.0163536
723.746	0.0169006
723.824	0.0173782
723.902	0.0178046
723.980	0.0185248
724.058	0.0188918
724.136	0.0190987
724.215	0.0193822
724.293	0.0196152
724.371	0.0196127
724.449	0.0195361
724.527	0.0194511
724.605	0.0191344
724.683	0.0188170
724.761	0.0185791
724.840	0.0180365
724.918	0.0176907
724.996	0.0172855
725.074	0.0168626
725.152	0.0162809
725.230	0.0159365
725.308	0.0157893
725.386	0.0153800
725.465	0.0151492
725.543	0.0149858
725.621	0.0149773
725.699	0.0149193
725.777	0.0149952
725.855	0.0150407
725.933	0.0153304
726.011	0.0152299
726.090	0.0155598
726.168	0.0157815
726.246	0.0158447
726.324	0.0159201
726.402	0.0158901
726.480	0.0159048
726.558	0.0157668
726.636	0.0157120
726.715	0.0154506
726.793	0.0151185
726.871	0.0146865
726.949	0.0145304
727.027	0.0139906
727.105	0.0134951
727.183	0.0131040
727.261	0.0126141
727.340	0.0121589
727.418	0.0118003
727.496	0.0113998
727.574	0.0110625
727.652	0.0109109
727.730	0.0108005
727.808	0.0108633
727.886	0.0110137
727.965	0.0111571
728.043	0.0114909
728.121	0.0119752
728.199	0.0125297
728.277	0.0130287
728.355	0.0135667
728.433	0.0142209
728.511	0.0148997
728.590	0.0154510
728.668	0.0160238
728.746	0.0164118
728.824	0.0171511
728.902	0.0176486
728.980	0.0180794
729.058	0.0184172
729.136	0.0187151
729.215	0.0191486
729.293	0.0193949
729.371	0.0196731
729.449	0.0197970
729.527	0.0196906
729.605	0.0197549
729.683	0.0197108
729.761	0.0193805
729.840	0.0192535
729.918	0.0188829
729.996	0.0184196
730.074	0.0180689
730.152	0.0177629
730.230	0.0174384
730.308	0.0169466
730.386	0.0167013
730.465	0.0163754
730.543	0.0162662
730.621	0.0162109
730.699	0.0158998
730.777	0.0158192
730.855	0.0158032
730.933	0.0156639
731.011	0.0155704
731.090	0.0154447
731.168	0.0153710
731.246	0.0153568
731.324	0.0153162
731.402	0.0151403
731.480	0.0149271
731.558	0.0149549
731.636	0.0145168
731.715	0.0144480
731.793	0.0141989
731.871	0.0141023
731.949	0.0139110
732.027	0.0136001
732.105	0.0133728
732.183	0.0132396
732.261	0.0130484
732.340	0.0127934
732.418	0.0126426
732.496	0.0125170
732.574	0.0124369
732.652	0.0124074
732.730	0.0125318
732.808	0.0126333
732.886	0.0128607
732.965	0.0129388
733.043	0.0130934
733.121	0.0135793
733.199	0.0138207
733.277	0.0141318
733.355	0.0145889
733.433	0.0148465
733.511	0.0152362
733.590	0.0156549
733.668	0.0160162
733.746	0.0163394
733.824	0.0165163
733.902	0.0167270
733.980	0.0167832
734.058	0.0170571
734.136	0.0169565
734.215	0.0169479
734.293	0.0170102
734.371	0.0170496
734.449	0.0171364
734.527	0.0170576
734.605	0.0169598
734.683	0.0171552
734.761	0.0170502
734.840	0.0170678
734.918	0.0172630
734.996	0.0171242
735.074	0.0170488
735.152	0.0173278
735.230	0.0171259
735.308	0.0172369
735.386	0.0173701
735.465	0.0171827
735.543	0.0171361
735.621	0.0169736
735.699	0.0168204
735.777	0.0167143
735.855	0.0166361
735.933	0.0163261
736.011	0.0161679
736.090	0.0159907
736.168	0.0156831
736.246	0.0154988
736.324	0.0153983
736.402	0.0150311
736.480	0.0150506
736.558	0.0148287
736.636	0.0146037
736.715	0.0145830
736.793	0.0144903
736.871	0.0142237
736.949	0.0141051
737.027	0.0142291
737.105	0.0137578
737.183	0.0136559
737.261	0.0135415
737.340	0.0134212
737.418	0.0134025
737.496	0.0135361
737.574	0.0136248
737.652	0.0137012
737.730	0.0138702
737.808	0.0142096
737.886	0.0146082
737.965	0.0151307
738.043	0.0154558
738.121	0.0158716
738.199	0.0164125
738.277	0.0166825
738.355	0.0168635
738.433	0.0172388
738.511	0.0174498
738.590	0.0174422
738.668	0.0175064
738.746	0.0174789
738.824	0.0174393
738.902	0.0172102
738.980	0.0169032
739.058	0.0166366
739.136	0.0163232
739.215	0.0159092
739.293	0.0155045
739.371	0.0152460
739.449	0.0147745
739.527	0.0144950
739.605	0.0141057
739.683	0.0137815
739.761	0.0137070
739.840	0.0136672
739.918	0.0136655
739.996	0.0136982
740.074	0.0139028
740.152	0.0140953
740.230	0.0143182
740.308	0.0146905
740.386	0.0149137
740.465	0.0152623
740.543	0.0155762
740.621	0.0160409
740.699	0.0164024
740.777	0.0164565
740.855	0.0166685
740.933	0.0168578
741.011	0.0168507
741.090	0.0168153
741.168	0.0167932
741.246	0.0167013
741.324	0.0162960
741.402	0.0161736
741.480	0.0160471
741.558	0.0156237
741.636	0.0153661
741.715	0.0151187
741.793	0.0149719
741.871	0.0147810
741.949	0.0148766
742.027	0.0143458
742.105	0.0144632
742.183	0.0145316
742.261	0.0144432
742.340	0.0147920
742.418	0.0150496
742.496	0.0151612
742.574	0.0153075
742.652	0.0154769
742.730	0.0157738
742.808	0.0160378
742.886	0.0162560
742.965	0.0163280
743.043	0.0165305
743.121	0.0165403
743.199	0.0167025
743.277	0.0168239
743.355	0.0168472
743.433	0.0169055
743.511	0.0169006
743.590	0.0166698
743.668	0.0166732
743.746	0.0165261
743.824	0.0163992
743.902	0.0162005
743.980	0.0162315
744.058	0.0159631
744.136	0.0156207
744.215	0.0154650
744.293	0.0152910
744.371	0.0150890
744.449	0.0148904
744.527	0.0146616
744.605	0.0143496
744.683	0.0142995
744.761	0.0140310
744.840	0.0137879
744.918	0.0137627
744.996	0.0137803
745.074	0.0138975
745.152	0.0139720
745.230	0.0142327
745.308	0.0144564
745.386	0.0146952
745.465	0.0149656
745.543	0.0151903
745.621	0.0154329
745.699	0.0158257
745.777	0.0157911
745.855	0.0160799
745.933	0.0160363
746.011	0.0161246
746.090	0.0160670
746.168	0.0161909
746.246	0.0160195
746.324	0.0159162
746.402	0.0157912
746.480	0.0157075
746.558	0.0158279
746.636	0.0154739
746.715	0.0154720
746.793	0.0152086
746.871	0.0153258
746.949	0.0152512
747.027	0.0153129
747.105	0.0154254
747.183	0.0154671
747.261	0.0155294
747.340	0.0155372
747.418	0.0156662
747.496	0.0156890
747.574	0.0157584
747.652	0.0159650
747.730	0.0160490
747.808	0.0158952
747.886	0.0159437
747.965	0.0159321
748.043	0.0159522
748.121	0.0158754
748.199	0.0157368
748.277	0.0156644
748.355	0.0157124
748.433	0.0157395
748.511	0.0157730
748.590	0.0157862
748.668	0.0157698
748.746	0.0158197
748.824	0.0156782
748.902	0.0156306
748.980	0.0154568
749.058	0.0153960
749.136	0.0153480
749.215	0.0153333
749.293	0.0153864
749.371	0.0154250
749.449	0.0152000
749.527	0.0151093
749.605	0.0151600
749.683	0.0150680
749.761	0.0149989
749.840	0.0149236
749.918	0.0149315
749.996	0.0149379
750.074	0.0148711
750.152	0.0151664
750.230	0.0151938
750.308	0.0151002
750.386	0.0151158
750.465	0.0152228
750.543	0.0154119
750.621	0.0153903
750.699	0.0155176
750.777	0.0154157
750.855	0.0154028
750.933	0.0153154
751.011	0.0154233
751.090	0.0154116
751.168	0.0152196
751.246	0.0154054
751.324	0.0154354
751.402	0.0154327
751.480	0.0155614
751.558	0.0156210
751.636	0.0156660
751.715	0.0157848
751.793	0.0158455
751.871	0.0160956
751.949	0.0161387
752.027	0.0162795
752.105	0.0163800
752.183	0.0165787
752.261	0.0164758
752.340	0.0164993
752.418	0.0165427
752.496	0.0164174
752.574	0.0164326
752.652	0.0162117
752.730	0.0159972
752.808	0.0157970
752.886	0.0157201
752.965	0.0155462
753.043	0.0153487
753.121	0.0151445
753.199	0.0151035
753.277	0.0150645
753.355	0.0150544
753.433	0.0150455
753.511	0.0150555
753.590	0.0149981
753.668	0.0151489
753.746	0.0151923
753.824	0.0153896
753.902	0.0154281
753.980	0.0155128
754.058	0.0154691
754.136	0.0155004
754.215	0.0155069
754.293	0.0155180
754.371	0.0154707
754.449	0.0154276
754.527	0.0153860
754.605	0.0154004
754.683	0.0152489
754.761	0.0152260
754.840	0.0152129
754.918	0.0151489
754.996	0.0152395
755.074	0.0151993
755.152	0.0151533
755.230	0.0152462
755.308	0.0151932
755.386	0.0152722
755.465	0.0152712
755.543	0.0150958
755.621	0.0151792
755.699	0.0151710
755.777	0.0151952
755.855	0.0151665
755.933	0.0151978
756.011	0.0150889
756.090	0.0153506
756.168	0.0152288
756.246	0.0151614
756.324	0.0154102
756.402	0.0153793
756.480	0.0155164
756.558	0.0156467
756.636	0.0157474
756.715	0.0157945
756.793	0.0158512
756.871	0.0159646
756.949	0.0161888
757.027	0.0164476
757.105	0.0161889
757.183	0.0162384
757.261	0.0163658
757.340	0.0163830
757.418	0.0163895
757.496	0.0165726
757.574	0.0164335
757.652	0.0163043
757.730	0.0163302
757.808	0.0160097
757.886	0.0158006
757.965	0.0157710
758.043	0.0154990
758.121	0.0153458
758.199	0.0151583
758.277	0.0149549
758.355	0.0148107
758.433	0.0147268
758.511	0.0145925
758.590	0.0145093
758.668	0.0143963
758.746	0.0143633
758.824	0.0142964
758.902	0.0144308
758.980	0.0146784
759.058	0.0147544
759.136	0.0149189
759.215	0.0151100
759.293	0.0153445
759.371	0.0155140
759.449	0.0159001
759.527	0.0158963
759.605	0.0160400
759.683	0.0161009
759.761	0.0161277
759.840	0.0164568
759.918	0.0164807
759.996	0.0163442
760.074	0.0163351
760.152	0.0163886
760.230	0.0163033
760.308	0.0163689
760.386	0.0161486
760.465	0.0160110
760.543	0.0158383
760.621	0.0159590
760.699	0.0157185
760.777	0.0155536
760.855	0.0154552
760.933	0.0152907
761.011	0.0151030
761.090	0.0150001
761.168	0.0147997
761.246	0.0149367
761.324	0.0148501
761.402	0.0148061
761.480	0.0148104
761.558	0.0148167
761.636	0.0147849
761.715	0.0147935
761.793	0.0151254
761.871	0.0151290
761.949	0.0152755
762.027	0.0153899
762.105	0.0155123
762.183	0.0156834
762.261	0.0158311
762.340	0.0159520
762.418	0.0159057
762.496	0.0159750
762.574	0.0161633
762.652	0.0162886
762.730	0.0162975
762.808	0.0161415
762.886	0.0161438
762.965	0.0159779
763.043	0.0160316
763.121	0.0157406
763.199	0.0156321
763.277	0.0153394
763.355	0.0152499
763.433	0.0149330
763.511	0.0148723
763.590	0.0148197
763.668	0.0146091
763.746	0.0145494
763.824	0.0144391
763.902	0.0144793
763.980	0.0144876
764.058	0.0146072
764.136	0.0146938
764.215	0.0148713
764.293	0.0150437
764.371	0.0152899
764.449	0.0153979
764.527	0.0155087
764.605	0.0158130
764.683	0.0159837
764.761	0.0161367
764.840	0.0163065
764.918	0.0164536
764.996	0.0164914
765.074	0.0165616
765.152	0.0164298
765.230	0.0165524
765.308	0.0163201
765.386	0.0162408
765.465	0.0162075
765.543	0.0160789
765.621	0.0159261
765.699	0.0157121
765.777	0.0157128
765.855	0.0156955
765.933	0.0152451
766.011	0.0152415
766.090	0.0150168
766.168	0.0148950
766.246	0.0149728
766.324	0.0149787
766.402	0.0148140
766.480	0.0148112
766.558	0.0146544
766.636	0.0147224
766.715	0.0148250
766.793	0.0148618
766.871	0.0148398
766.949	0.0149062
767.027	0.0148905
767.105	0.0148486
767.183	0.0151316
767.261	0.0151855
767.340	0.0152657
767.418	0.0154012
767.496	0.0156021
767.574	0.0156866
767.652	0.0156872
767.730	0.0158421
767.808	0.0159002
767.886	0.0159533
767.965	0.0159385
768.043	0.0161781
768.121	0.0162508
768.199	0.0161900
768.277	0.0159901
768.355	0.0160945
768.433	0.0160857
768.511	0.0159658
768.590	0.0158604
768.668	0.0158028
768.746	0.0158268
768.824	0.0157225
768.902	0.0157187
768.980	0.0156929
769.058	0.0154070
769.136	0.0154233
769.215	0.0153957
769.293	0.0154150
769.371	0.0151801
769.449	0.0151822
769.527	0.0152326
769.605	0.0152720
769.683	0.0151482
769.761	0.0150961
769.840	0.0151782
769.918	0.0152937
769.996	0.0152521
770.074	0.0152620
770.152	0.0153593
770.230	0.0155780
770.308	0.0156329
770.386	0.0155008
770.465	0.0154587
770.543	0.0156306
770.621	0.0155817
770.699	0.0155647
770.777	0.0155573
770.855	0.0156808
770.933	0.0155251
771.011	0.0156149
771.090	0.0154091
771.168	0.0153118
771.246	0.0153835
771.324	0.0153876
771.402	0.0153422
771.480	0.0151686
771.558	0.0153406
771.636	0.0151871
771.715	0.0151831
771.793	0.0152596
771.871	0.0150728
771.949	0.0152947
772.027	0.0150657
772.105	0.0152303
772.183	0.0153625
772.261	0.0153562
772.340	0.0153864
772.418	0.0154008
772.496	0.0154175
772.574	0.0156021
772.652	0.0157413
772.730	0.0157048
772.808	0.0158479
772.886	0.0157455
772.965	0.0159627
773.043	0.0160262
773.121	0.0159234
773.199	0.0161015
773.277	0.0162398
773.355	0.0160937
773.433	0.0160393
773.511	0.0160173
773.590	0.0160289
773.668	0.0160372
773.746	0.0160551
773.824	0.0158597
773.902	0.0159569
773.980	0.0158240
774.058	0.0156555
774.136	0.0155058
774.215	0.0154222
774.293	0.0152162
774.371	0.0151402
774.449	0.0151903
774.527	0.0151968
774.605	0.0150333
774.683	0.0147370
774.761	0.0148016
774.840	0.0148840
774.918	0.0148277
774.996	0.0148552
775.074	0.0148933
775.152	0.0150364
775.230	0.0149583
775.308	0.0150190
775.386	0.0151552
775.465	0.0153313
775.543	0.0152319
775.621	0.0153158
775.699	0.0153668
775.777	0.0155236
775.855	0.0156653
775.933	0.0156293
776.011	0.0156210
776.090	0.0157644
776.168	0.0158035
776.246	0.0157896
776.324	0.0157735
776.402	0.0157888
776.480	0.0158331
776.558	0.0159023
776.636	0.0160270
776.715	0.0158712
776.793	0.0157933
776.871	0.0157938
776.949	0.0158658
777.027	0.0155845
777.105	0.0158077
777.183	0.0155465
777.261	0.0156198
777.340	0.0155913
777.418	0.0156904
777.496	0.0156709
777.574	0.0156484
777.652	0.0156013
777.730	0.0157249
777.808	0.0155358
777.886	0.0157042
777.965	0.0157759
778.043	0.0157394
778.121	0.0156630
778.199	0.0157446
778.277	0.0157244
778.355	0.0157223
778.433	0.0158112
778.511	0.0157211
778.590	0.0157582
778.668	0.0157018
778.746	0.0156947
778.824	0.0156944
778.902	0.0156684
778.980	0.0156760
779.058	0.0156799
779.136	0.0154237
779.215	0.0153676
779.293	0.0154739
779.371	0.0152969
779.449	0.0151897
779.527	0.0151679
779.605	0.0150790
779.683	0.0151022
779.761	0.0150191
779.840	0.0150164
779.918	0.0148094
779.996	0.0147493
780.074	0.0148433
780.152	0.0149824
780.230	0.0150696
780.308	0.0150767
780.386	0.0150197
780.465	0.0149271
780.543	0.0150300
780.621	0.0152940
780.699	0.0153847
780.777	0.0152168
780.855	0.0154514
780.933	0.0155284
781.011	0.0154034
781.090	0.0156653
781.168	0.0156224
781.246	0.0157566
781.324	0.0157618
781.402	0.0158477
781.480	0.0161427
781.558	0.0161040
781.636	0.0160847
781.715	0.0160517
781.793	0.0159692
781.871	0.0162480
781.949	0.0161234
782.027	0.0161591
782.105	0.0160555
782.183	0.0160556
782.261	0.0159857
782.340	0.0160047
782.418	0.0159555
782.496	0.0158512
782.574	0.0156914
782.652	0.0156342
782.730	0.0159092
782.808	0.0156818
782.886	0.0156633
782.965	0.0155318
783.043	0.0154247
783.121	0.0152817
783.199	0.0152686
783.277	0.0153021
783.355	0.0150914
783.433	0.0150082
783.511	0.0150292
783.590	0.0150722
783.668	0.0150574
783.746	0.0150719
783.824	0.0150143
783.902	0.0149613
783.980	0.0150901
784.058	0.0150253
784.136	0.0151351
784.215	0.0149877
784.293	0.0150998
784.371	0.0151469
784.449	0.0151735
784.527	0.0152871
784.605	0.0152797
784.683	0.0154861
784.761	0.0155524
784.840	0.0154768
784.918	0.0155888
784.996	0.0155402
785.074	0.0155888
785.152	0.0156998
785.230	0.0155992
785.308	0.0157107
785.386	0.0157313
785.465	0.0155328
785.543	0.0156916
785.621	0.0157092
785.699	0.0157220
785.777	0.0156747
785.855	0.0156930
785.933	0.0155640
786.011	0.0156744
786.090	0.0156139
786.168	0.0155931
786.246	0.0155690
786.324	0.0156057
786.402	0.0156741
786.480	0.0156147
786.558	0.0155363
786.636	0.0154597
786.715	0.0154499
786.793	0.0156165
786.871	0.0156470
786.949	0.0155037
787.027	0.0154158
787.105	0.0156316
787.183	0.0156821
787.261	0.0155574
787.340	0.0156110
787.418	0.0155539
787.496	0.0156616
787.574	0.0156474
787.652	0.0155763
787.730	0.0155704
787.808	0.0155684
787.886	0.0156365
787.965	0.0155598
788.043	0.0154137
788.121	0.0154694
788.199	0.0153996
788.277	0.0154394
788.355	0.0153433
788.433	0.0152854
788.511	0.0152560
788.590	0.0154259
788.668	0.0153418
788.746	0.0152251
788.824	0.0152071
788.902	0.0152320
788.980	0.0152681
789.058	0.0152780
789.136	0.0152677
789.215	0.0151753
789.293	0.0152219
789.371	0.0151727
789.449	0.0151826
789.527	0.0152186
789.605	0.0153447
789.683	0.0153236
789.761	0.0154532
789.840	0.0154042
789.918	0.0154524
789.996	0.0155318
790.074	0.0154340
790.152	0.0154290
790.230	0.0154108
790.308	0.0155965
790.386	0.0156335
790.465	0.0155046
790.543	0.0155360
790.621	0.0155775
790.699	0.0156091
790.777	0.0156720
790.855	0.0156568
790.933	0.0157312
791.011	0.0156576
791.090	0.0155412
791.168	0.0157736
791.246	0.0156812
791.324	0.0156631
791.402	0.0157294
791.480	0.0156733
791.558	0.0156858
791.636	0.0157109
791.715	0.0156580
791.793	0.0156671
791.871	0.0157700
791.949	0.0156602
792.027	0.0156140
792.105	0.0155923
792.183	0.0157015
792.261	0.0155508
792.340	0.0153842
792.418	0.0155181
792.496	0.0155759
792.574	0.0155376
792.652	0.0153782
792.730	0.0155216
792.808	0.0153603
792.886	0.0153227
792.965	0.0153763
793.043	0.0154488
793.121	0.0153430
793.199	0.0153490
793.277	0.0152035
793.355	0.0151571
793.433	0.0151974
793.511	0.0153840
793.590	0.0152935
793.668	0.0153205
793.746	0.0155224
793.824	0.0153953
793.902	0.0152755
793.980	0.0152792
794.058	0.0155037
794.136	0.0154934
794.215	0.0154189
794.293	0.0153762
794.371	0.0154229
794.449	0.0153584
794.527	0.0155816
794.605	0.0155515
794.683	0.0155634
794.761	0.0155789
794.840	0.0155460
794.918	0.0154458
794.996	0.0156400
795.074	0.0157329
795.152	0.0155731
795.230	0.0156103
795.308	0.0156241
795.386	0.0157056
795.465	0.0156492
795.543	0.0156863
795.621	0.0156069
795.699	0.0156733
795.777	0.0157702
795.855	0.0157962
795.933	0.0157422
796.011	0.0157075
796.090	0.0155010
796.168	0.0154267
796.246	0.0155695
796.324	0.0154569
796.402	0.0154341
796.480	0.0155416
796.558	0.0154612
796.636	0.0156277
796.715	0.0155519
796.793	0.0153391
796.871	0.0154492
796.949	0.0155554
797.027	0.0154996
797.105	0.0154793
797.183	0.0155080
797.261	0.0155126
797.340	0.0156253
797.418	0.0153100
797.496	0.0155348
797.574	0.0154908
797.652	0.0156871
797.730	0.0155418
797.808	0.0154006
797.886	0.0153519
797.965	0.0154414
798.043	0.0153197
798.121	0.0155380
798.199	0.0153809
798.277	0.0154746
798.355	0.0153889
798.433	0.0154388
798.511	0.0154691
798.590	0.0154699
798.668	0.0153802
798.746	0.0154735
798.824	0.0154682
798.902	0.0156704
798.980	0.0155505
799.058	0.0154787
799.136	0.0154790
799.215	0.0156652
799.293	0.0155933
799.371	0.0157220
799.449	0.0158158
799.527	0.0155804
799.605	0.0155990
799.683	0.0156697
799.761	0.0157007
799.840	0.0157391
799.918	0.0157996
799.996	0.0155870
800.074	0.0155606
800.152	0.0156814
800.230	0.0154470
800.308	0.0155283
800.386	0.0155376
800.465	0.0155252
800.543	0.0156333
800.621	0.0154616
800.699	0.0155801
800.777	0.0154636
800.855	0.0154133
800.933	0.0153352
801.011	0.0154871
801.090	0.0153181
801.168	0.0154330
801.246	0.0154100
801.324	0.0153253
801.402	0.0154659
801.480	0.0153141
801.558	0.0152335
801.636	0.0153718
801.715	0.0155181
801.793	0.0155579
801.871	0.0154511
801.949	0.0155074
802.027	0.0154462
802.105	0.0155837
802.183	0.0155968
802.261	0.0157842
802.340	0.0156483
802.418	0.0156687
802.496	0.0157310
802.574	0.0156676
802.652	0.0157079
802.730	0.0157896
802.808	0.0157045
802.886	0.0157137
802.965	0.0156755
803.043	0.0156885
803.121	0.0155370
803.199	0.0156367
803.277	0.0155885
803.355	0.0155744
803.433	0.0155233
803.511	0.0155346
803.590	0.0155407
803.668	0.0154859
803.746	0.0155527
803.824	0.0156062
803.902	0.0155180
803.980	0.0155194
804.058	0.0156254
804.136	0.0156207
804.215	0.0155828
804.293	0.0156201
804.371	0.0156755
804.449	0.0155520
804.527	0.0155097
804.605	0.0155701
804.683	0.0155257
804.761	0.0155836
804.840	0.0154580
804.918	0.0154848
804.996	0.0153334
805.074	0.0155733
805.152	0.0154245
805.230	0.0155357
805.308	0.0155013
805.386	0.0153059
805.465	0.0153178
805.543	0.0152544
805.621	0.0154368
805.699	0.0153291
805.777	0.0152905
805.855	0.0153146
805.933	0.0152948
806.011	0.0153704
806.090	0.0153064
806.168	0.0154906
806.246	0.0154799
806.324	0.0154435
806.402	0.0155354
806.480	0.0154121
806.558	0.0154836
806.636	0.0156026
806.715	0.0154789
806.793	0.0154956
806.871	0.0154665
806.949	0.0156602
807.027	0.0156557
807.105	0.0155650
807.183	0.0156144
807.261	0.0156770
807.340	0.0155910
807.418	0.0156100
807.496	0.0155581
807.574	0.0156799
807.652	0.0156873
807.730	0.0156227
807.808	0.0155928
807.886	0.0154625
807.965	0.0155270
808.043	0.0154515
808.121	0.0157090
808.199	0.0156834
808.277	0.0155929
808.355	0.0155827
808.433	0.0155650
808.511	0.0156032
808.590	0.0156336
808.668	0.0156385
808.746	0.0155539
808.824	0.0155442
808.902	0.0156356
808.980	0.0155738
809.058	0.0155888
809.136	0.0156332
809.215	0.0155817
809.293	0.0153913
809.371	0.0153826
809.449	0.0155008
809.527	0.0153233
809.605	0.0154228
809.683	0.0154308
809.761	0.0152856
809.840	0.0153561
809.918	0.0153203
809.996	0.0152859
810.074	0.0153683
810.152	0.0153745
810.230	0.0153862
810.308	0.0153246
810.386	0.0154192
810.465	0.0155360
810.543	0.0154256
810.621	0.0152996
810.699	0.0153705
810.777	0.0153715
810.855	0.0154263
810.933	0.0155473
811.011	0.0154024
811.090	0.0154946
811.168	0.0155003
811.246	0.0153754
811.324	0.0155551
811.402	0.0157441
811.480	0.0156355
811.558	0.0157314
811.636	0.0157234
811.715	0.0156668
811.793	0.0155817
811.871	0.0156519
811.949	0.0156306
812.027	0.0155480
812.105	0.0157355
812.183	0.0157555
812.261	0.0155854
812.340	0.0155474
812.418	0.0155341
812.496	0.0155985
812.574	0.0155030
812.652	0.0154825
812.730	0.0153664
812.808	0.0152642
812.886	0.0153416
812.965	0.0153975
813.043	0.0153589
813.121	0.0153091
813.199	0.0153326
813.277	0.0153136
813.355	0.0153082
813.433	0.0152187
813.511	0.0153829
813.590	0.0154485
813.668	0.0152406
813.746	0.0152057
813.824	0.0153566
813.902	0.0152164
813.980	0.0153173
814.058	0.0153809
814.136	0.0152431
814.215	0.0152155
814.293	0.0152670
814.371	0.0151974
814.449	0.0152968
814.527	0.0151444
814.605	0.0152045
814.683	0.0152208
814.761	0.0152569
814.840	0.0153218
814.918	0.0154144
814.996	0.0153452
815.074	0.0154986
815.152	0.0154647
815.230	0.0155000
815.308	0.0156275
815.386	0.0155976
815.465	0.0156739
815.543	0.0157309
815.621	0.0157876
815.699	0.0157880
815.777	0.0158337
815.855	0.0158549
815.933	0.0160049
816.011	0.0158364
816.090	0.0159357
816.168	0.0160630
816.246	0.0158385
816.324	0.0158392
816.402	0.0159145
816.480	0.0159412
816.558	0.0157111
816.636	0.0157467
816.715	0.0157806
816.793	0.0157561
816.871	0.0157402
816.949	0.0155646
817.027	0.0155848
817.105	0.0156377
817.183	0.0155354
817.261	0.0155169
817.340	0.0155131
817.418	0.0155777
817.496	0.0156713
817.574	0.0153071
817.652	0.0154002
817.730	0.0154391
817.808	0.0154610
817.886	0.0151244
817.965	0.0153941
818.043	0.0152552
818.121	0.0151319
818.199	0.0151343
818.277	0.0150127
818.355	0.0150243
818.433	0.0150753
818.511	0.0149884
818.590	0.0148504
818.668	0.0148370
818.746	0.0148889
818.824	0.0147529
818.902	0.0148025
818.980	0.0148771
819.058	0.0149139
819.136	0.0148103
819.215	0.0147753
819.293	0.0148348
819.371	0.0148717
819.449	0.0150020
819.527	0.0150932
819.605	0.0150729
819.683	0.0150110
819.761	0.0151675
819.840	0.0153275
819.918	0.0152736
819.996	0.0153933
820.074	0.0154465
820.152	0.0154861
820.230	0.0158154
820.308	0.0158226
820.386	0.0158582
820.465	0.0159398
820.543	0.0159110
820.621	0.0158878
820.699	0.0160575
820.777	0.0160659
820.855	0.0160585
820.933	0.0162740
821.011	0.0163145
821.090	0.0162418
821.168	0.0161616
821.246	0.0161661
821.324	0.0162311
821.402	0.0161247
821.480	0.0161073
821.558	0.0161713
821.636	0.0160931
821.715	0.0160844
821.793	0.0161433
821.871	0.0160722
821.949	0.0159138
822.027	0.0158945
822.105	0.0159499
822.183	0.0157541
822.261	0.0157666
822.340	0.0155765
822.418	0.0155292
822.496	0.0155060
822.574	0.0153616
822.652	0.0153365
822.730	0.0153143
822.808	0.0149956
822.886	0.0151429
822.965	0.0152658
823.043	0.0151248
823.121	0.0150912
823.199	0.0150995
823.277	0.0151021
823.355	0.0149170
823.433	0.0149258
823.511	0.0149073
823.590	0.0148507
823.668	0.0147619
823.746	0.0148778
823.824	0.0149577
823.902	0.0148623
823.980	0.0148900
824.058	0.0147327
824.136	0.0146845
824.215	0.0147375
824.293	0.0145045
824.371	0.0148003
824.449	0.0147681
824.527	0.0147231
824.605	0.0148637
824.683	0.0149109
824.761	0.0149692
824.840	0.0150281
824.918	0.0152063
824.996	0.0153735
825.074	0.0153779
825.152	0.0156607
825.230	0.0157840
825.308	0.0158872
825.386	0.0158839
825.465	0.0160135
825.543	0.0161054
825.621	0.0162248
825.699	0.0164091
825.777	0.0164344
825.855	0.0163203
825.933	0.0163647
826.011	0.0164750
826.090	0.0164670
826.168	0.0165275
826.246	0.0165408
826.324	0.0164143
826.402	0.0165034
826.480	0.0163930
826.558	0.0164360
826.636	0.0163480
826.715	0.0163788
826.793	0.0161544
826.871	0.0162294
826.949	0.0160616
827.027	0.0160999
827.105	0.0159919
827.183	0.0158546
827.261	0.0157338
827.340	0.0157991
827.418	0.0157338
827.496	0.0155613
827.574	0.0155502
827.652	0.0153965
827.730	0.0153933
827.808	0.0153771
827.886	0.0151708
827.965	0.0150789
828.043	0.0150443
828.121	0.0149961
828.199	0.0150457
828.277	0.0149317
828.355	0.0149388
828.433	0.0149968
828.511	0.0147908
828.590	0.0147662
828.668	0.0148008
828.746	0.0146570
828.824	0.0147974
828.902	0.0147334
828.980	0.0145152
829.058	0.0146865
829.136	0.0148260
829.215	0.0146601
829.293	0.0148045
829.371	0.0147399
829.449	0.0148661
829.527	0.0149455
829.605	0.0150330
829.683	0.0151304
829.761	0.0152789
829.840	0.0152782
829.918	0.0152665
829.996	0.0155096
830.074	0.0155742
830.152	0.0156054
830.230	0.0156075
830.308	0.0155682
830.386	0.0158379
830.465	0.0159063
830.543	0.0158437
830.621	0.0159725
830.699	0.0160581
830.777	0.0159296
830.855	0.0159977
830.933	0.0160972
831.011	0.0160410
831.090	0.0159496
831.168	0.0160788
831.246	0.0160784
831.324	0.0160217
831.402	0.0160119
831.480	0.0160997
831.558	0.0158433
831.636	0.0160648
831.715	0.0160101
831.793	0.0158996
831.871	0.0159937
831.949	0.0157888
832.027	0.0158807
832.105	0.0159052
832.183	0.0158376
832.261	0.0158967
832.340	0.0157949
832.418	0.0157909
832.496	0.0156815
832.574	0.0156764
832.652	0.0156519
832.730	0.0155061
832.808	0.0154488
832.886	0.0153887
832.965	0.0154711
833.043	0.0154293
833.121	0.0151324
833.199	0.0151802
833.277	0.0152327
833.355	0.0152101
833.433	0.0150642
833.511	0.0150746
833.590	0.0150720
833.668	0.0149955
833.746	0.0148112
833.824	0.0150651
833.902	0.0151216
833.980	0.0149397
834.058	0.0150542
834.136	0.0150999
834.215	0.0151801
834.293	0.0151882
834.371	0.0152335
834.449	0.0151749
834.527	0.0153680
834.605	0.0152836
834.683	0.0152750
834.761	0.0154266
834.840	0.0153837
834.918	0.0155118
834.996	0.0156029
835.074	0.0156258
835.152	0.0155607
835.230	0.0155597
835.308	0.0155432
835.386	0.0155791
835.465	0.0156020
835.543	0.0154682
835.621	0.0153793
835.699	0.0155068
835.777	0.0155186
835.855	0.0153442
835.933	0.0154922
836.011	0.0154052
836.090	0.0153986
836.168	0.0153971
836.246	0.0152435
836.324	0.0152780
836.402	0.0154166
836.480	0.0154413
836.558	0.0155125
836.636	0.0155964
836.715	0.0155801
836.793	0.0157193
836.871	0.0156354
836.949	0.0157507
837.027	0.0157706
837.105	0.0156129
837.183	0.0156402
837.261	0.0157864
837.340	0.0157284
837.418	0.0158330
837.496	0.0158131
837.574	0.0157999
837.652	0.0156467
837.730	0.0155996
837.808	0.0156460
837.886	0.0156709
837.965	0.0155962
838.043	0.0155240
838.121	0.0155384
838.199	0.0155123
838.277	0.0155233
838.355	0.0155251
838.433	0.0153970
838.511	0.0154224
838.590	0.0154610
838.668	0.0155557
838.746	0.0153223
838.824	0.0153289
838.902	0.0153879
838.980	0.0154574
839.058	0.0154642
839.136	0.0155791
839.215	0.0156318
839.293	0.0156503
839.371	0.0155954
839.449	0.0156600
839.527	0.0155414
839.605	0.0156886
839.683	0.0156917
839.761	0.0155978
839.840	0.0156425
839.918	0.0156701
839.996	0.0155441
840.074	0.0155284
840.152	0.0154814
840.230	0.0154608
840.308	0.0154508
840.386	0.0154755
840.465	0.0154024
840.543	0.0153899
840.621	0.0156317
840.699	0.0153850
840.777	0.0152403
840.855	0.0153757
840.933	0.0152485
841.011	0.0151827
841.090	0.0152917
841.168	0.0151879
841.246	0.0152229
841.324	0.0152241
841.402	0.0151717
841.480	0.0152659
841.558	0.0152774
841.636	0.0151923
841.715	0.0152699
841.793	0.0154012
841.871	0.0152952
841.949	0.0153249
842.027	0.0154459
842.105	0.0154948
842.183	0.0156215
842.261	0.0155058
842.340	0.0155772
842.418	0.0155117
842.496	0.0155244
842.574	0.0157072
842.652	0.0154195
842.730	0.0156222
842.808	0.0155611
842.886	0.0156998
842.965	0.0157768
843.043	0.0156361
843.121	0.0156268
843.199	0.0155943
843.277	0.0156019
843.355	0.0155993
843.433	0.0156882
843.511	0.0154999
843.590	0.0155944
843.668	0.0155985
843.746	0.0155838
843.824	0.0156682
843.902	0.0155862
843.980	0.0156544
844.058	0.0155810
844.136	0.0156269
844.215	0.0157229
844.293	0.0155715
844.371	0.0155714
844.449	0.0158588
844.527	0.0155496
844.605	0.0155561
844.683	0.0156001
844.761	0.0156047
844.840	0.0155377
844.918	0.0154459
844.996	0.0154762
845.074	0.0155112
845.152	0.0155227
845.230	0.0154820
845.308	0.0154636
845.386	0.0154292
845.465	0.0154564
845.543	0.0153378
845.621	0.0152723
845.699	0.0152499
845.777	0.0153111
845.855	0.0151799
845.933	0.0153153
846.011	0.0154068
846.090	0.0151495
846.168	0.0153131
846.246	0.0153322
846.324	0.0154303
846.402	0.0151869
846.480	0.0153587
846.558	0.0151440
846.636	0.0153295
846.715	0.0155291
846.793	0.0154137
846.871	0.0152908
846.949	0.0154829
847.027	0.0156225
847.105	0.0155078
847.183	0.0155677
847.261	0.0156560
847.340	0.0155862
847.418	0.0156705
847.496	0.0157256
847.574	0.0157653
847.652	0.0158373
847.730	0.0155806
847.808	0.0159207
847.886	0.0157497
847.965	0.0157336
848.043	0.0159397
848.121	0.0156554
848.199	0.0157187
848.277	0.0157107
848.355	0.0155111
848.433	0.0155948
848.511	0.0156073
848.590	0.0155679
848.668	0.0154935
848.746	0.0154827
848.824	0.0156007
848.902	0.0154840
848.980	0.0153640
849.058	0.0155849
849.136	0.0154580
849.215	0.0154675
849.293	0.0153722
849.371	0.0156242
849.449	0.0157053
849.527	0.0154086
849.605	0.0154308
849.683	0.0154815
849.761	0.0155903
849.840	0.0155646
849.918	0.0153487
849.996	0.0154600
850.074	0.0155356
850.152	0.0155129
850.230	0.0155768
850.308	0.0155285
850.386	0.0152713
850.465	0.0154360
850.543	0.0152468
850.621	0.0154382
850.699	0.0153181
850.777	0.0152237
850.855	0.0151923
850.933	0.0153143
851.011	0.0153436
851.090	0.0152823
851.168	0.0153142
851.246	0.0151901
851.324	0.0152193
851.402	0.0151759
851.480	0.0154076
851.558	0.0153928
851.636	0.0152436
851.715	0.0154421
851.793	0.0154390
851.871	0.0155714
851.949	0.0154737
852.027	0.0155598
852.105	0.0156934
852.183	0.0156750
852.261	0.0155770
852.340	0.0156802
852.418	0.0157352
852.496	0.0156063
852.574	0.0156657
852.652	0.0157392
852.730	0.0155419
852.808	0.0155474
852.886	0.0156081
852.965	0.0157591
853.043	0.0157010
853.121	0.0155437
853.199	0.0156678
853.277	0.0156136
853.355	0.0155363
853.433	0.0155305
853.511	0.0155471
853.590	0.0156112
853.668	0.0155899
853.746	0.0155014
853.824	0.0153878
853.902	0.0156278
853.980	0.0155271
854.058	0.0155354
854.136	0.0156205
854.215	0.0154697
854.293	0.0155713
854.371	0.0154487
854.449	0.0153942
854.527	0.0155085
854.605	0.0154803
854.683	0.0154250
854.761	0.0153915
854.840	0.0152750
854.918	0.0152890
854.996	0.0151380
855.074	0.0151965
855.152	0.0151432
855.230	0.0152451
855.308	0.0151197
855.386	0.0151405
855.465	0.0151057
855.543	0.0152009
855.621	0.0152349
855.699	0.0150990
855.777	0.0151558
855.855	0.0154632
855.933	0.0154745
856.011	0.0153055
856.090	0.0153987
856.168	0.0153212
856.246	0.0154492
856.324	0.0155699
856.402	0.0156704
856.480	0.0157375
856.558	0.0158186
856.636	0.0155925
856.715	0.0157236
856.793	0.0158923
856.871	0.0158163
856.949	0.0157656
857.027	0.0156915
857.105	0.0158955
857.183	0.0157550
857.261	0.0158483
857.340	0.0157229
857.418	0.0157242
857.496	0.0156728
857.574	0.0156796
857.652	0.0156067
857.730	0.0156173
857.808	0.0156273
857.886	0.0155351
857.965	0.0154577
858.043	0.0156100
858.121	0.0155167
858.199	0.0155413
858.277	0.0155368
858.355	0.0154375
858.433	0.0155558
858.511	0.0154599
858.590	0.0156086
858.668	0.0155938
858.746	0.0155657
858.824	0.0155356
858.902	0.0154110
858.980	0.0156268
859.058	0.0154897
859.136	0.0154099
859.215	0.0154790
859.293	0.0155105
859.371	0.0154652
859.449	0.0154493
859.527	0.0153761
859.605	0.0154421
859.683	0.0154077
859.761	0.0152577
859.840	0.0153201
859.918	0.0151821
859.996	0.0151949
860.074	0.0152613
860.152	0.0151053
860.230	0.0152744
860.308	0.0153420
860.386	0.0151426
860.465	0.0151279
860.543	0.0153349
860.621	0.0153790
860.699	0.0151038
860.777	0.0153861
860.855	0.0154476
860.933	0.0154536
861.011	0.0153803
861.090	0.0154749
861.168	0.0156113
861.246	0.0156718
861.324	0.0156593
861.402	0.0156166
861.480	0.0157931
861.558	0.0156995
861.636	0.0158368
861.715	0.0159005
861.793	0.0160159
861.871	0.0159205
861.949	0.0158099
862.027	0.0158426
862.105	0.0158723
862.183	0.0160278
862.261	0.0159049
862.340	0.0159640
862.418	0.0158948
862.496	0.0158932
862.574	0.0157742
862.652	0.0155764
862.730	0.0156003
862.808	0.0155175
862.886	0.0156400
862.965	0.0155096
863.043	0.0152914
863.121	0.0154243
863.199	0.0154662
863.277	0.0154343
863.355	0.0154333
863.433	0.0154764
863.511	0.0153532
863.590	0.0152162
863.668	0.0153794
863.746	0.0154985
863.824	0.0154714
863.902	0.0155108
863.980	0.0154782
864.058	0.0154331
864.136	0.0155092
864.215	0.0156155
864.293	0.0154857
864.371	0.0154803
864.449	0.0155869
864.527	0.0154522
864.605	0.0154208
864.683	0.0155780
864.761	0.0155524
864.840	0.0154714
864.918	0.0154399
864.996	0.0155395
865.074	0.0153072
865.152	0.0152840
865.230	0.0153677
865.308	0.0153046
865.386	0.0152873
865.465	0.0153320
865.543	0.0151423
865.621	0.0152055
865.699	0.0152346
865.777	0.0150877
865.855	0.0151375
865.933	0.0152283
866.011	0.0151973
866.090	0.0152084
866.168	0.0153437
866.246	0.0153812
866.324	0.0154105
866.402	0.0155161
866.480	0.0155144
866.558	0.0154699
866.636	0.0154520
866.715	0.0156216
866.793	0.0157247
866.871	0.0156850
866.949	0.0156432
867.027	0.0156854
867.105	0.0156913
867.183	0.0158215
867.261	0.0158887
867.340	0.0157837
867.418	0.0158326
867.496	0.0158575
867.574	0.0156191
867.652	0.0159023
867.730	0.0158474
867.808	0.0156631
867.886	0.0156618
867.965	0.0156540
868.043	0.0157203
868.121	0.0155930
868.199	0.0154226
868.277	0.0155256
868.355	0.0155588
868.433	0.0153482
868.511	0.0154694
868.590	0.0154775
868.668	0.0153620
868.746	0.0154436
868.824	0.0154792
868.902	0.0153013
868.980	0.0153093
869.058	0.0153452
869.136	0.0154554
869.215	0.0154024
869.293	0.0154672
869.371	0.0154345
869.449	0.0154224
869.527	0.0154653
869.605	0.0153432
869.683	0.0153283
869.761	0.0154972
869.840	0.0154891
869.918	0.0153642
869.996	0.0153951
870.074	0.0154423
870.152	0.0154965
870.230	0.0154294
870.308	0.0154459
870.386	0.0154554
870.465	0.0156502
870.543	0.0154214
870.621	0.0153603
870.699	0.0155366
870.777	0.0154813
870.855	0.0154130
870.933	0.0153677
871.011	0.0153374
871.090	0.0155016
871.168	0.0153310
871.246	0.0153149
871.324	0.0155193
871.402	0.0154457
871.480	0.0153996
871.558	0.0153935
871.636	0.0154333
871.715	0.0154836
871.793	0.0153231
871.871	0.0153053
871.949	0.0154850
872.027	0.0155148
872.105	0.0155680
872.183	0.0155309
872.261	0.0155019
872.340	0.0156242
872.418	0.0155557
872.496	0.0155064
872.574	0.0156317
872.652	0.0155700
872.730	0.0157291
872.808	0.0156502
872.886	0.0154982
872.965	0.0156344
873.043	0.0157220
873.121	0.0156184
873.199	0.0156654
873.277	0.0156068
873.355	0.0156218
873.433	0.0155946
873.511	0.0155664
873.590	0.0155843
873.668	0.0157594
873.746	0.0156311
873.824	0.0155061
873.902	0.0155048
873.980	0.0155211
874.058	0.0155413
874.136	0.0154185
874.215	0.0155686
874.293	0.0155228
874.371	0.0154029
874.449	0.0154871
874.527	0.0155070
874.605	0.0155138
874.683	0.0156728
874.761	0.0155148
874.840	0.0156762
874.918	0.0155486
874.996	0.0154005
875.074	0.0155701
875.152	0.0153828
875.230	0.0155087
875.308	0.0154698
875.386	0.0154246
875.465	0.0153641
875.543	0.0154862
875.621	0.0156116
875.699	0.0153470
875.777	0.0154610
875.855	0.0154650
875.933	0.0154168
876.011	0.0154929
876.090	0.0154592
876.168	0.0155344
876.246	0.0154326
876.324	0.0154491
876.402	0.0153989
876.480	0.0154621
876.558	0.0155243
876.636	0.0154747
876.715	0.0154781
876.793	0.0153999
876.871	0.0155176
876.949	0.0153810
877.027	0.0155692
877.105	0.0155562
877.183	0.0153598
877.261	0.0155347
877.340	0.0155089
877.418	0.0153995
877.496	0.0154862
877.574	0.0154475
877.652	0.0153748
877.730	0.0153420
877.808	0.0154346
877.886	0.0154996
877.965	0.0153512
878.043	0.0155141
878.121	0.0153086
878.199	0.0153523
878.277	0.0154664
878.355	0.0155648
878.433	0.0155530
878.511	0.0154531
878.590	0.0154601
878.668	0.0154741
878.746	0.0155521
878.824	0.0155473
878.902	0.0154350
878.980	0.0156641
879.058	0.0156643
879.136	0.0156322
879.215	0.0154981
879.293	0.0155484
879.371	0.0156495
879.449	0.0155506
879.527	0.0156600
879.605	0.0156293
879.683	0.0156470
879.761	0.0155849
879.840	0.0156419
879.918	0.0155774
879.996	0.0155544
880.074	0.0155201
880.152	0.0155279
880.230	0.0155508
880.308	0.0155627
880.386	0.0155115
880.465	0.0155556
880.543	0.0155394
880.621	0.0154500
880.699	0.0154559
880.777	0.0155890
880.855	0.0155269
880.933	0.0154393
881.011	0.0155936
881.090	0.0154379
881.168	0.0155000
881.246	0.0154566
881.324	0.0155415
881.402	0.0154190
881.480	0.0155371
881.558	0.0154696
881.636	0.0155602
881.715	0.0154721
881.793	0.0153892
881.871	0.0154690
881.949	0.0154558
882.027	0.0154330
882.105	0.0153995
882.183	0.0153629
882.261	0.0152404
882.340	0.0153513
882.418	0.0153619
882.496	0.0154395
882.574	0.0153706
882.652	0.0153161
882.730	0.0153091
882.808	0.0154096
882.886	0.0154276
882.965	0.0155074
883.043	0.0154383
883.121	0.0154753
883.199	0.0154277
883.277	0.0155555
883.355	0.0155412
883.433	0.0154809
883.511	0.0154736
883.590	0.0155453
883.668	0.0156142
883.746	0.0155955
883.824	0.0156089
883.902	0.0156777
883.980	0.0155376
884.058	0.0155642
884.136	0.0155969
884.215	0.0156133
884.293	0.0155999
884.371	0.0156194
884.449	0.0156409
884.527	0.0156366
884.605	0.0155607
884.683	0.0156941
884.761	0.0157390
884.840	0.0155703
884.918	0.0155630
884.996	0.0153857
885.074	0.0155899
885.152	0.0155856
885.230	0.0155826
885.308	0.0156014
885.386	0.0154472
885.465	0.0155007
885.543	0.0154044
885.621	0.0154485
885.699	0.0156228
885.777	0.0154532
885.855	0.0154904
885.933	0.0154942
886.011	0.0154840
886.090	0.0155775
886.168	0.0154756
886.246	0.0156300
886.324	0.0155248
886.402	0.0156525
886.480	0.0154794
886.558	0.0155037
886.636	0.0154379
886.715	0.0155034
886.793	0.0154089
886.871	0.0153914
886.949	0.0153078
887.027	0.0154384
887.105	0.0154498
887.183	0.0155070
887.261	0.0154116
887.340	0.0153307
887.418	0.0153124
887.496	0.0154441
887.574	0.0153572
887.652	0.0153857
887.730	0.0153885
887.808	0.0153133
887.886	0.0153506
887.965	0.0154378
888.043	0.0154842
888.121	0.0154952
888.199	0.0156190
888.277	0.0154877
888.355	0.0154920
888.433	0.0154769
888.511	0.0155430
888.590	0.0155291
888.668	0.0156667
888.746	0.0155309
888.824	0.0155291
888.902	0.0155138
888.980	0.0156649
889.058	0.0156892
889.136	0.0155535
889.215	0.0156025
889.293	0.0155716
889.371	0.0156110
889.449	0.0156736
889.527	0.0157143
889.605	0.0155679
889.683	0.0157028
889.761	0.0155544
889.840	0.0155663
889.918	0.0158640
889.996	0.0157178
890.074	0.0155580
890.152	0.0155571
890.230	0.0154711
890.308	0.0155327
890.386	0.0153399
890.465	0.0155381
890.543	0.0155160
890.621	0.0154680
890.699	0.0154095
890.777	0.0154129
890.855	0.0154552
890.933	0.0154012
891.011	0.0154565
891.090	0.0153743
891.168	0.0155038
891.246	0.0155139
891.324	0.0153838
891.402	0.0154376
891.480	0.0154289
891.558	0.0156159
891.636	0.0155846
891.715	0.0154236
891.793	0.0154097
891.871	0.0156001
891.949	0.0156378
892.027	0.0154403
892.105	0.0153938
892.183	0.0155994
892.261	0.0154755
892.340	0.0155164
892.418	0.0154221
892.496	0.0156068
892.574	0.0154435
892.652	0.0153930
892.730	0.0154165
892.808	0.0154094
892.886	0.0154252
892.965	0.0153728
893.043	0.0153992
893.121	0.0154538
893.199	0.0154939
893.277	0.0154833
893.355	0.0155394
893.433	0.0154208
893.511	0.0154433
893.590	0.0154785
893.668	0.0156609
893.746	0.0156008
893.824	0.0155564
893.902	0.0156689
893.980	0.0155356
894.058	0.0156611
894.136	0.0156391
894.215	0.0156328
894.293	0.0155716
894.371	0.0155823
894.449	0.0156733
894.527	0.0156357
894.605	0.0155196
894.683	0.0155451
894.761	0.0155403
894.840	0.0154568
894.918	0.0154433
894.996	0.0153493
895.074	0.0153786
895.152	0.0152636
895.230	0.0153392
895.308	0.0154128
895.386	0.0154057
895.465	0.0153275
895.543	0.0152784
895.621	0.0154805
895.699	0.0153428
895.777	0.0153265
895.855	0.0152983
895.933	0.0154456
896.011	0.0155549
896.090	0.0155378
896.168	0.0154581
896.246	0.0155809
896.324	0.0155441
896.402	0.0155946
896.480	0.0155795
896.558	0.0156235
896.636	0.0156353
896.715	0.0157308
896.793	0.0156561
896.871	0.0155882
896.949	0.0156245
897.027	0.0154655
897.105	0.0156734
897.183	0.0156876
897.261	0.0156721
897.340	0.0153292
897.418	0.0155251
897.496	0.0155048
897.574	0.0154072
897.652	0.0154964
897.730	0.0154922
897.808	0.0153997
897.886	0.0153439
897.965	0.0155186
898.043	0.0154292
898.121	0.0154900
898.199	0.0155198
898.277	0.0154752
898.355	0.0154318
898.433	0.0155450
898.511	0.0155072
898.590	0.0155483
898.668	0.0155183
898.746	0.0155860
898.824	0.0155498
898.902	0.0156720
898.980	0.0156075
899.058	0.0156657
899.136	0.0157005
899.215	0.0157478
899.293	0.0156312
899.371	0.0156464
899.449	0.0154691
899.527	0.0156441
899.605	0.0155843
899.683	0.0154881
899.761	0.0153968
899.840	0.0154849
899.918	0.0154717
899.996	0.0154377
900.074	0.0152769
900.152	0.0152196
900.230	0.0151559
900.308	0.0152750
900.386	0.0152235
900.465	0.0152853
900.543	0.0152482
900.621	0.0152518
900.699	0.0151909
900.777	0.0152882
900.855	0.0153693
900.933	0.0154660
901.011	0.0153747
901.090	0.0153881
901.168	0.0154716
901.246	0.0156572
901.324	0.0155005
901.402	0.0154833
901.480	0.0156069
901.558	0.0157299
901.636	0.0157130
901.715	0.0156416
901.793	0.0157087
901.871	0.0157063
901.949	0.0155592
902.027	0.0156939
902.105	0.0156113
902.183	0.0155704
902.261	0.0157751
902.340	0.0156535
902.418	0.0155756
902.496	0.0153900
902.574	0.0155965
902.652	0.0155572
902.730	0.0155245
902.808	0.0154108
902.886	0.0154967
902.965	0.0155057
903.043	0.0155558
903.121	0.0154288
903.199	0.0152937
903.277	0.0154446
903.355	0.0154602
903.433	0.0154581
903.511	0.0155938
903.590	0.0154481
903.668	0.0155142
903.746	0.0155068
903.824	0.0156056
903.902	0.0153749
903.980	0.0154642
904.058	0.0154519
904.136	0.0155761
904.215	0.0154490
904.293	0.0154984
904.371	0.0155244
904.449	0.0154543
904.527	0.0153651
904.605	0.0154752
904.683	0.0155125
904.761	0.0155264
904.840	0.0154146
904.918	0.0153912
904.996	0.0154756
905.074	0.0154365
905.152	0.0153606
905.230	0.0154993
905.308	0.0153881
905.386	0.0154225
905.465	0.0154379
905.543	0.0154849
905.621	0.0154617
905.699	0.0154845
905.777	0.0154421
905.855	0.0154150
905.933	0.0154839
906.011	0.0155871
906.090	0.0154626
906.168	0.0154973
906.246	0.0155844
906.324	0.0156329
906.402	0.0156468
906.480	0.0157974
906.558	0.0156033
906.636	0.0156176
906.715	0.0155631
906.793	0.0156411
906.871	0.0156512
906.949	0.0155401
907.027	0.0156196
907.105	0.0155478
907.183	0.0154663
907.261	0.0155106
907.340	0.0154890
907.418	0.0155152
907.496	0.0154374
907.574	0.0154515
907.652	0.0154600
907.730	0.0154156
907.808	0.0155170
907.886	0.0154523
907.965	0.0154632
908.043	0.0154492
908.121	0.0154543
908.199	0.0155229
908.277	0.0156800
908.355	0.0153883
908.433	0.0154497
908.511	0.0154312
908.590	0.0153896
908.668	0.0154539
908.746	0.0154123
908.824	0.0153882
908.902	0.0155181
908.980	0.0154974
909.058	0.0152730
909.136	0.0153909
909.215	0.0153315
909.293	0.0154887
909.371	0.0152774
909.449	0.0152943
909.527	0.0154926
909.605	0.0153856
909.683	0.0153264
909.761	0.0153377
909.840	0.0153895
909.918	0.0152296
909.996	0.0152935
910.074	0.0153484
910.152	0.0153046
910.230	0.0155052
910.308	0.0155403
910.386	0.0155276
910.465	0.0154790
910.543	0.0155682
910.621	0.0155815
910.699	0.0157364
910.777	0.0155947
910.855	0.0156418
910.933	0.0157481
911.011	0.0157279
911.090	0.0156114
911.168	0.0157223
911.246	0.0156689
911.324	0.0155102
911.402	0.0154884
911.480	0.0154120
911.558	0.0154987
911.636	0.0155450
911.715	0.0154534
911.793	0.0153922
911.871	0.0153114
911.949	0.0153613
912.027	0.0152443
912.105	0.0153278
912.183	0.0153568
912.261	0.0154368
912.340	0.0155144
912.418	0.0154671
912.496	0.0154465
912.574	0.0155373
912.652	0.0156091
912.730	0.0156530
912.808	0.0156036
912.886	0.0156360
912.965	0.0156611
913.043	0.0157040
913.121	0.0156709
913.199	0.0156855
913.277	0.0156489
913.355	0.0155748
913.433	0.0156023
913.511	0.0154754
913.590	0.0155734
913.668	0.0155151
913.746	0.0154316
913.824	0.0153541
913.902	0.0153394
913.980	0.0153114
914.058	0.0153590
914.136	0.0152779
914.215	0.0152766
914.293	0.0152013
914.371	0.0152689
914.449	0.0152874
914.527	0.0151886
914.605	0.0152637
914.683	0.0153394
914.761	0.0152473
914.840	0.0152831
914.918	0.0155188
914.996	0.0155717
915.074	0.0155191
915.152	0.0155319
915.230	0.0155676
915.308	0.0156326
915.386	0.0156205
915.465	0.0157074
915.543	0.0158361
915.621	0.0159633
915.699	0.0159119
915.777	0.0158601
915.855	0.0158622
915.933	0.0156516
916.011	0.0159807
916.090	0.0158135
916.168	0.0157648
916.246	0.0157372
916.324	0.0157317
916.402	0.0155907
916.480	0.0154608
916.558	0.0153565
916.636	0.0153383
916.715	0.0153201
916.793	0.0152586
916.871	0.0152657
916.949	0.0152665
917.027	0.0151171
917.105	0.0151299
917.183	0.0153264
917.261	0.0151780
917.340	0.0152546
917.418	0.0154226
917.496	0.0153480
917.574	0.0153051
917.652	0.0153326
917.730	0.0155825
917.808	0.0155348
917.886	0.0156944
917.965	0.0155334
918.043	0.0157002
918.121	0.0157265
918.199	0.0157800
918.277	0.0156615
918.355	0.0157045
918.433	0.0157439
918.511	0.0157607
918.590	0.0158102
918.668	0.0157471
918.746	0.0157375
918.824	0.0157328
918.902	0.0154421
918.980	0.0154710
919.058	0.0153734
919.136	0.0153937
919.215	0.0154684
919.293	0.0153816
919.371	0.0152054
919.449	0.0151523
919.527	0.0151178
919.605	0.0150871
919.683	0.0151376
919.761	0.0152648
919.840	0.0151431
919.918	0.0151888
919.996	0.0153333
920.074	0.0153152
920.152	0.0154171
920.230	0.0154405
920.308	0.0156391
920.386	0.0154135
920.465	0.0155276
920.543	0.0156902
920.621	0.0156868
920.699	0.0156154
920.777	0.0158006
920.855	0.0157993
920.933	0.0157793
921.011	0.0157945
921.090	0.0156196
921.168	0.0155770
921.246	0.0156361
921.324	0.0156773
921.402	0.0155747
921.480	0.0154636
921.558	0.0154067
921.636	0.0155389
921.715	0.0154028
921.793	0.0154852
921.871	0.0154224
921.949	0.0152723
922.027	0.0153864
922.105	0.0154130
922.183	0.0152377
922.261	0.0153387
922.340	0.0154176
922.418	0.0154220
922.496	0.0153365
922.574	0.0153491
922.652	0.0154180
922.730	0.0154179
922.808	0.0154144
922.886	0.0154651
922.965	0.0155264
923.043	0.0153274
923.121	0.0154744
923.199	0.0156356
923.277	0.0154460
923.355	0.0154265
923.433	0.0156218
923.511	0.0156547
923.590	0.0156155
923.668	0.0156068
923.746	0.0155878
923.824	0.0154762
923.902	0.0155926
923.980	0.0156263
924.058	0.0154916
924.136	0.0155389
924.215	0.0154693
924.293	0.0155155
924.371	0.0152953
924.449	0.0155726
924.527	0.0154512
924.605	0.0154333
924.683	0.0155012
924.761	0.0153789
924.840	0.0154169
924.918	0.0153105
924.996	0.0152981
925.074	0.0155270
925.152	0.0154298
925.230	0.0153146
925.308	0.0154060
925.386	0.0154757
925.465	0.0155254
925.543	0.0154449
925.621	0.0153918
925.699	0.0154329
925.777	0.0154335
925.855	0.0156253
925.933	0.0155564
926.011	0.0155751
926.090	0.0154749
926.168	0.0154755
926.246	0.0154629
926.324	0.0153142
926.402	0.0153880
926.480	0.0154829
926.558	0.0155399
926.636	0.0153766
926.715	0.0154588
926.793	0.0155627
926.871	0.0154708
926.949	0.0155210
927.027	0.0155608
927.105	0.0154758
927.183	0.0155406
927.261	0.0154040
927.340	0.0154800
927.418	0.0154549
927.496	0.0154597
927.574	0.0154404
927.652	0.0154687
927.730	0.0154135
927.808	0.0154885
927.886	0.0152906
927.965	0.0153038
928.043	0.0154743
928.121	0.0155276
928.199	0.0154012
928.277	0.0152880
928.355	0.0154088
928.433	0.0154347
928.511	0.0153979
928.590	0.0155220
928.668	0.0154018
928.746	0.0154234
928.824	0.0154357
928.902	0.0153397
928.980	0.0153596
929.058	0.0155127
929.136	0.0154327
929.215	0.0153803
929.293	0.0153223
929.371	0.0154166
929.449	0.0153684
929.527	0.0154826
929.605	0.0154630
929.683	0.0155458
929.761	0.0154808
929.840	0.0156207
929.918	0.0156303
929.996	0.0156031
930.074	0.0156026
930.152	0.0156537
930.230	0.0156489
930.308	0.0157931
930.386	0.0157139
930.465	0.0157111
930.543	0.0155821
930.621	0.0157285
930.699	0.0157638
930.777	0.0154417
930.855	0.0154357
930.933	0.0155260
931.011	0.0155470
931.090	0.0153303
931.168	0.0154604
931.246	0.0155341
931.324	0.0154173
931.402	0.0154131
931.480	0.0153788
931.558	0.0153658
931.636	0.0154326
931.715	0.0154533
931.793	0.0154688
931.871	0.0153597
931.949	0.0154497
932.027	0.0154181
932.105	0.0155145
932.183	0.0155348
932.261	0.0156252
932.340	0.0154604
932.418	0.0155161
932.496	0.0155032
932.574	0.0155513
932.652	0.0154173
932.730	0.0153719
932.808	0.0155859
932.886	0.0154224
932.965	0.0154723
933.043	0.0154062
933.121	0.0154834
933.199	0.0154238
933.277	0.0153217
933.355	0.0152340
933.433	0.0153490
933.511	0.0153584
933.590	0.0153569
933.668	0.0152818
933.746	0.0154547
933.824	0.0153484
933.902	0.0155450
933.980	0.0155261
934.058	0.0152467
934.136	0.0154905
934.215	0.0156931
934.293	0.0153555
934.371	0.0154912
934.449	0.0156559
934.527	0.0157537
934.605	0.0155538
934.683	0.0155960
934.761	0.0157547
934.840	0.0158467
934.918	0.0156310
934.996	0.0156464
935.074	0.0157635
935.152	0.0156441
935.230	0.0156261
935.308	0.0156395
935.386	0.0156413
935.465	0.0156332
935.543	0.0156447
935.621	0.0155919
935.699	0.0155185
935.777	0.0157877
935.855	0.0155278
935.933	0.0154401
936.011	0.0155138
936.090	0.0153955
936.168	0.0155370
936.246	0.0154859
936.324	0.0154425
936.402	0.0154038
936.480	0.0154014
936.558	0.0153271
936.636	0.0153237
936.715	0.0152854
936.793	0.0152797
936.871	0.0153503
936.949	0.0152680
937.027	0.0154218
937.105	0.0153869
937.183	0.0154476
937.261	0.0153940
937.340	0.0155132
937.418	0.0155622
937.496	0.0155153
937.574	0.0155438
937.652	0.0155034
937.730	0.0155919
937.808	0.0155599
937.886	0.0155779
937.965	0.0156119
938.043	0.0156699
938.121	0.0153951
938.199	0.0153465
938.277	0.0155148
938.355	0.0154880
938.433	0.0154543
938.511	0.0153182
938.590	0.0154300
938.668	0.0154236
938.746	0.0154888
938.824	0.0156073
938.902	0.0154543
938.980	0.0155044
939.058	0.0154126
939.136	0.0154710
939.215	0.0156075
939.293	0.0154510
939.371	0.0154372
939.449	0.0155302
939.527	0.0155029
939.605	0.0155194
939.683	0.0154552
939.761	0.0154144
939.840	0.0154770
939.918	0.0154118
939.996	0.0154752
940.074	0.0153806
940.152	0.0153188
940.230	0.0154561
940.308	0.0153691
940.386	0.0154652
940.465	0.0155606
940.543	0.0155061
940.621	0.0155809
940.699	0.0156184
940.777	0.0156220
940.855	0.0155444
940.933	0.0155718
941.011	0.0155890
941.090	0.0156033
941.168	0.0155646
941.246	0.0156036
941.324	0.0154496
941.402	0.0154742
941.480	0.0153990
941.558	0.0154356
941.636	0.0153360
941.715	0.0151537
941.793	0.0153048
941.871	0.0152708
941.949	0.0153838
942.027	0.0152505
942.105	0.0152910
942.183	0.0153680
942.261	0.0153294
942.340	0.0154500
942.418	0.0155898
942.496	0.0154963
942.574	0.0153491
942.652	0.0153683
942.730	0.0155337
942.808	0.0154466
942.886	0.0157163
942.965	0.0155665
943.043	0.0155462
943.121	0.0156630
943.199	0.0155716
943.277	0.0156208
943.355	0.0155511
943.433	0.0157392
943.511	0.0157069
943.590	0.0157050
943.668	0.0157011
943.746	0.0155543
943.824	0.0157439
943.902	0.0157139
943.980	0.0157059
944.058	0.0155408
944.136	0.0157024
944.215	0.0155341
944.293	0.0155546
944.371	0.0155481
944.449	0.0157053
944.527	0.0154872
944.605	0.0153130
944.683	0.0154456
944.761	0.0154861
944.840	0.0154922
944.918	0.0154510
944.996	0.0153911
945.074	0.0153228
945.152	0.0153171
945.230	0.0154044
945.308	0.0154150
945.386	0.0154602
945.465	0.0154674
945.543	0.0155242
945.621	0.0154670
945.699	0.0155046
945.777	0.0155621
945.855	0.0155677
945.933	0.0154440
946.011	0.0156226
946.090	0.0155819
946.168	0.0155431
946.246	0.0155952
946.324	0.0154440
946.402	0.0154907
946.480	0.0154970
946.558	0.0153731
946.636	0.0153461
946.715	0.0154198
946.793	0.0153248
946.871	0.0153217
946.949	0.0153566
947.027	0.0153986
947.105	0.0153934
947.183	0.0153352
947.261	0.0153942
947.340	0.0153682
947.418	0.0154362
947.496	0.0153566
947.574	0.0154237
947.652	0.0154423
947.730	0.0155375
947.808	0.0155096
947.886	0.0155772
947.965	0.0154351
948.043	0.0155720
948.121	0.0156520
948.199	0.0154803
948.277	0.0155387
948.355	0.0155962
948.433	0.0156351
948.511	0.0156585
948.590	0.0156417
948.668	0.0156654
948.746	0.0156053
948.824	0.0155943
948.902	0.0156420
948.980	0.0157216
949.058	0.0156110
949.136	0.0155768
949.215	0.0157851
949.293	0.0155825
949.371	0.0155888
949.449	0.0155647
949.527	0.0156348
949.605	0.0155208
949.683	0.0155402
949.761	0.0156099
949.840	0.0153867
949.918	0.0153696
