06/29/2022	21:16:08	Ver.	4.1	UNKNOWN
Optical Delay	629.995835	Delta X		0.078125	Sweeps	1	Scan Rate	0/0
Coordinates	Axis 1	NaN	Axis 2	NaN	Axis 3	NaN	Axis 4	NaN	Axis 5	NaN	Axis 6	0.000000
TX Power	0.000000	RX Power	0.000000

629.996	0.0152761
630.074	0.0152439
630.152	0.0152843
630.230	0.0153559
630.308	0.0153097
630.386	0.0153529
630.465	0.0152426
630.543	0.0152849
630.621	0.0153303
630.699	0.0153423
630.777	0.0152555
630.855	0.0151076
630.933	0.0154298
631.011	0.0152588
631.090	0.0152756
631.168	0.0152548
631.246	0.0154021
631.324	0.0153636
631.402	0.0153348
631.480	0.0152297
631.558	0.0153316
631.636	0.0151846
631.715	0.0153800
631.793	0.0151690
631.871	0.0153383
631.949	0.0152788
632.027	0.0152364
632.105	0.0153979
632.183	0.0151614
632.261	0.0153062
632.340	0.0153676
632.418	0.0154134
632.496	0.0153844
632.574	0.0154162
632.652	0.0153223
632.730	0.0151818
632.808	0.0152755
632.886	0.0153957
632.965	0.0152911
633.043	0.0153630
633.121	0.0153704
633.199	0.0153624
633.277	0.0154355
633.355	0.0152897
633.433	0.0153473
633.511	0.0152934
633.590	0.0153827
633.668	0.0153604
633.746	0.0152460
633.824	0.0151952
633.902	0.0153232
633.980	0.0152525
634.058	0.0153104
634.136	0.0152209
634.215	0.0153188
634.293	0.0152659
634.371	0.0153072
634.449	0.0152394
634.527	0.0153929
634.605	0.0153732
634.683	0.0153230
634.761	0.0153726
634.840	0.0154409
634.918	0.0153717
634.996	0.0152912
635.074	0.0152220
635.152	0.0153053
635.230	0.0153107
635.308	0.0153722
635.386	0.0153343
635.465	0.0152643
635.543	0.0153159
635.621	0.0152037
635.699	0.0153217
635.777	0.0152464
635.855	0.0153387
635.933	0.0152874
636.011	0.0153860
636.090	0.0151443
636.168	0.0151932
636.246	0.0154040
636.324	0.0153626
636.402	0.0153020
636.480	0.0152130
636.558	0.0154197
636.636	0.0153493
636.715	0.0153680
636.793	0.0154312
636.871	0.0153097
636.949	0.0152778
637.027	0.0151478
637.105	0.0154062
637.183	0.0152193
637.261	0.0153130
637.340	0.0152419
637.418	0.0153111
637.496	0.0152246
637.574	0.0152719
637.652	0.0153475
637.730	0.0152517
637.808	0.0153133
637.886	0.0153663
637.965	0.0152538
638.043	0.0152923
638.121	0.0153680
638.199	0.0152715
638.277	0.0153696
638.355	0.0153814
638.433	0.0153524
638.511	0.0153204
638.590	0.0154496
638.668	0.0152104
638.746	0.0151851
638.824	0.0153854
638.902	0.0153879
638.980	0.0152075
639.058	0.0152454
639.136	0.0152294
639.215	0.0153188
639.293	0.0152766
639.371	0.0153374
639.449	0.0153754
639.527	0.0152298
639.605	0.0153596
639.683	0.0153485
639.761	0.0153899
639.840	0.0152977
639.918	0.0151997
639.996	0.0153133
640.074	0.0152473
640.152	0.0152752
640.230	0.0153892
640.308	0.0153317
640.386	0.0152667
640.465	0.0153963
640.543	0.0152321
640.621	0.0153871
640.699	0.0154021
640.777	0.0153218
640.855	0.0152168
640.933	0.0151571
641.011	0.0152524
641.090	0.0152547
641.168	0.0152641
641.246	0.0153220
641.324	0.0153857
641.402	0.0153363
641.480	0.0153365
641.558	0.0152319
641.636	0.0153532
641.715	0.0153191
641.793	0.0152883
641.871	0.0152885
641.949	0.0152874
642.027	0.0152805
642.105	0.0154811
642.183	0.0152966
642.261	0.0153239
642.340	0.0154288
642.418	0.0153397
642.496	0.0153317
642.574	0.0154233
642.652	0.0153977
642.730	0.0154181
642.808	0.0153228
642.886	0.0153249
642.965	0.0151821
643.043	0.0152685
643.121	0.0154453
643.199	0.0154541
643.277	0.0151856
643.355	0.0153445
643.433	0.0153372
643.511	0.0154137
643.590	0.0153114
643.668	0.0152930
643.746	0.0154838
643.824	0.0152635
643.902	0.0153499
643.980	0.0153073
644.058	0.0153479
644.136	0.0153838
644.215	0.0152695
644.293	0.0154457
644.371	0.0153129
644.449	0.0153507
644.527	0.0151704
644.605	0.0152782
644.683	0.0153445
644.761	0.0152881
644.840	0.0154115
644.918	0.0152583
644.996	0.0151682
645.074	0.0153938
645.152	0.0152284
645.230	0.0153749
645.308	0.0153346
645.386	0.0152937
645.465	0.0153345
645.543	0.0153401
645.621	0.0153472
645.699	0.0153973
645.777	0.0153769
645.855	0.0153327
645.933	0.0152941
646.011	0.0152879
646.090	0.0153134
646.168	0.0153544
646.246	0.0152349
646.324	0.0153555
646.402	0.0153065
646.480	0.0154725
646.558	0.0152213
646.636	0.0153356
646.715	0.0152898
646.793	0.0153514
646.871	0.0153442
646.949	0.0153318
647.027	0.0152075
647.105	0.0153252
647.183	0.0153100
647.261	0.0153239
647.340	0.0154666
647.418	0.0153304
647.496	0.0153236
647.574	0.0151830
647.652	0.0152573
647.730	0.0154836
647.808	0.0153769
647.886	0.0152451
647.965	0.0152931
648.043	0.0153462
648.121	0.0153030
648.199	0.0152854
648.277	0.0153356
648.355	0.0153532
648.433	0.0153526
648.511	0.0153206
648.590	0.0153942
648.668	0.0152976
648.746	0.0153829
648.824	0.0153008
648.902	0.0152639
648.980	0.0154301
649.058	0.0153577
649.136	0.0152535
649.215	0.0152924
649.293	0.0152224
649.371	0.0152750
649.449	0.0152455
649.527	0.0153209
649.605	0.0153264
649.683	0.0153149
649.761	0.0152719
649.840	0.0152882
649.918	0.0153471
649.996	0.0153619
650.074	0.0152688
650.152	0.0153468
650.230	0.0152714
650.308	0.0152609
650.386	0.0152564
650.465	0.0152685
650.543	0.0153780
650.621	0.0153268
650.699	0.0153468
650.777	0.0153781
650.855	0.0151455
650.933	0.0153159
651.011	0.0153993
651.090	0.0152623
651.168	0.0152827
651.246	0.0154092
651.324	0.0153841
651.402	0.0153470
651.480	0.0153094
651.558	0.0153420
651.636	0.0153447
651.715	0.0153866
651.793	0.0154469
651.871	0.0152824
651.949	0.0152793
652.027	0.0154574
652.105	0.0154082
652.183	0.0152237
652.261	0.0152210
652.340	0.0153220
652.418	0.0153123
652.496	0.0152158
652.574	0.0153727
652.652	0.0152753
652.730	0.0151984
652.808	0.0153539
652.886	0.0154453
652.965	0.0152311
653.043	0.0152042
653.121	0.0152371
653.199	0.0155093
653.277	0.0153040
653.355	0.0152573
653.433	0.0153271
653.511	0.0152728
653.590	0.0152269
653.668	0.0153439
653.746	0.0153632
653.824	0.0152166
653.902	0.0152467
653.980	0.0152149
654.058	0.0153349
654.136	0.0153251
654.215	0.0152938
654.293	0.0153188
654.371	0.0154498
654.449	0.0154738
654.527	0.0153543
654.605	0.0153043
654.683	0.0153650
654.761	0.0154211
654.840	0.0153653
654.918	0.0153462
654.996	0.0153156
655.074	0.0154062
655.152	0.0153567
655.230	0.0153938
655.308	0.0152966
655.386	0.0153112
655.465	0.0152838
655.543	0.0154203
655.621	0.0153659
655.699	0.0153741
655.777	0.0152288
655.855	0.0153403
655.933	0.0153005
656.011	0.0154822
656.090	0.0153392
656.168	0.0152773
656.246	0.0152241
656.324	0.0151048
656.402	0.0153534
656.480	0.0152644
656.558	0.0152734
656.636	0.0153556
656.715	0.0151974
656.793	0.0153572
656.871	0.0152966
656.949	0.0152308
657.027	0.0152813
657.105	0.0154478
657.183	0.0154236
657.261	0.0154010
657.340	0.0153513
657.418	0.0152103
657.496	0.0154749
657.574	0.0153014
657.652	0.0152699
657.730	0.0153266
657.808	0.0152169
657.886	0.0152398
657.965	0.0152919
658.043	0.0153342
658.121	0.0152416
658.199	0.0153620
658.277	0.0153188
658.355	0.0152749
658.433	0.0153757
658.511	0.0153138
658.590	0.0153120
658.668	0.0152186
658.746	0.0153130
658.824	0.0153070
658.902	0.0151779
658.980	0.0152393
659.058	0.0153244
659.136	0.0151929
659.215	0.0154285
659.293	0.0153133
659.371	0.0152599
659.449	0.0153210
659.527	0.0152895
659.605	0.0153614
659.683	0.0152708
659.761	0.0152869
659.840	0.0151958
659.918	0.0153622
659.996	0.0152877
660.074	0.0154179
660.152	0.0152357
660.230	0.0152757
660.308	0.0153355
660.386	0.0154244
660.465	0.0153933
660.543	0.0153909
660.621	0.0152816
660.699	0.0153352
660.777	0.0152901
660.855	0.0153387
660.933	0.0153520
661.011	0.0154697
661.090	0.0154810
661.168	0.0152693
661.246	0.0154492
661.324	0.0153537
661.402	0.0152366
661.480	0.0153632
661.558	0.0153526
661.636	0.0152979
661.715	0.0151992
661.793	0.0151780
661.871	0.0153706
661.949	0.0153720
662.027	0.0152604
662.105	0.0153604
662.183	0.0152331
662.261	0.0152421
662.340	0.0153370
662.418	0.0152795
662.496	0.0153012
662.574	0.0152891
662.652	0.0154232
662.730	0.0152783
662.808	0.0152895
662.886	0.0153569
662.965	0.0153442
663.043	0.0152024
663.121	0.0152775
663.199	0.0152242
663.277	0.0152795
663.355	0.0153219
663.433	0.0151655
663.511	0.0153767
663.590	0.0153771
663.668	0.0152100
663.746	0.0153173
663.824	0.0153334
663.902	0.0153674
663.980	0.0152748
664.058	0.0152577
664.136	0.0153665
664.215	0.0152470
664.293	0.0154285
664.371	0.0153428
664.449	0.0152352
664.527	0.0153856
664.605	0.0152232
664.683	0.0151351
664.761	0.0152494
664.840	0.0152558
664.918	0.0154048
664.996	0.0153699
665.074	0.0153024
665.152	0.0151981
665.230	0.0152786
665.308	0.0153767
665.386	0.0151994
665.465	0.0154403
665.543	0.0153435
665.621	0.0153619
665.699	0.0153217
665.777	0.0152076
665.855	0.0152606
665.933	0.0154382
666.011	0.0153455
666.090	0.0152613
666.168	0.0152880
666.246	0.0153117
666.324	0.0154744
666.402	0.0153448
666.480	0.0152600
666.558	0.0152473
666.636	0.0153522
666.715	0.0153079
666.793	0.0152952
666.871	0.0153877
666.949	0.0152558
667.027	0.0151604
667.105	0.0152085
667.183	0.0153150
667.261	0.0153256
667.340	0.0152052
667.418	0.0152708
667.496	0.0152251
667.574	0.0152922
667.652	0.0154865
667.730	0.0153063
667.808	0.0152210
667.886	0.0151768
667.965	0.0153548
668.043	0.0152021
668.121	0.0151740
668.199	0.0153107
668.277	0.0152291
668.355	0.0153245
668.433	0.0153260
668.511	0.0152673
668.590	0.0153384
668.668	0.0152622
668.746	0.0152994
668.824	0.0153372
668.902	0.0153636
668.980	0.0151972
669.058	0.0151548
669.136	0.0153148
669.215	0.0152966
669.293	0.0153837
669.371	0.0152760
669.449	0.0152789
669.527	0.0151907
669.605	0.0151480
669.683	0.0152406
669.761	0.0153155
669.840	0.0152543
669.918	0.0153962
669.996	0.0152766
670.074	0.0152003
670.152	0.0153007
670.230	0.0153469
670.308	0.0152341
670.386	0.0152100
670.465	0.0153709
670.543	0.0153807
670.621	0.0152756
670.699	0.0151860
670.777	0.0152925
670.855	0.0154232
670.933	0.0153042
671.011	0.0153143
671.090	0.0153545
671.168	0.0153159
671.246	0.0153024
671.324	0.0152483
671.402	0.0153262
671.480	0.0152458
671.558	0.0153398
671.636	0.0152733
671.715	0.0153221
671.793	0.0153359
671.871	0.0153807
671.949	0.0153768
672.027	0.0153606
672.105	0.0153901
672.183	0.0153240
672.261	0.0153766
672.340	0.0153526
672.418	0.0151991
672.496	0.0153561
672.574	0.0153590
672.652	0.0153147
672.730	0.0152347
672.808	0.0152833
672.886	0.0153152
672.965	0.0152529
673.043	0.0152332
673.121	0.0153564
673.199	0.0153931
673.277	0.0153373
673.355	0.0152975
673.433	0.0152895
673.511	0.0153366
673.590	0.0151790
673.668	0.0153420
673.746	0.0153590
673.824	0.0153550
673.902	0.0152042
673.980	0.0152665
674.058	0.0154149
674.136	0.0154038
674.215	0.0153918
674.293	0.0151968
674.371	0.0151434
674.449	0.0152862
674.527	0.0153484
674.605	0.0152892
674.683	0.0153336
674.761	0.0152416
674.840	0.0151879
674.918	0.0153326
674.996	0.0154003
675.074	0.0153494
675.152	0.0153239
675.230	0.0152779
675.308	0.0154025
675.386	0.0152437
675.465	0.0151831
675.543	0.0152606
675.621	0.0153134
675.699	0.0153109
675.777	0.0153214
675.855	0.0153049
675.933	0.0152817
676.011	0.0151637
676.090	0.0152751
676.168	0.0153020
676.246	0.0153371
676.324	0.0152979
676.402	0.0154009
676.480	0.0152293
676.558	0.0152888
676.636	0.0153041
676.715	0.0152526
676.793	0.0153576
676.871	0.0152222
676.949	0.0153257
677.027	0.0153131
677.105	0.0153300
677.183	0.0152457
677.261	0.0152997
677.340	0.0152192
677.418	0.0153522
677.496	0.0153002
677.574	0.0152643
677.652	0.0152666
677.730	0.0153360
677.808	0.0152383
677.886	0.0153307
677.965	0.0153120
678.043	0.0152194
678.121	0.0152512
678.199	0.0152935
678.277	0.0152080
678.355	0.0152218
678.433	0.0152647
678.511	0.0154189
678.590	0.0154204
678.668	0.0153191
678.746	0.0153587
678.824	0.0153091
678.902	0.0152763
678.980	0.0152608
679.058	0.0154307
679.136	0.0153689
679.215	0.0153000
679.293	0.0153176
679.371	0.0152678
679.449	0.0152789
679.527	0.0153848
679.605	0.0152925
679.683	0.0153618
679.761	0.0151855
679.840	0.0151862
679.918	0.0152943
679.996	0.0153857
680.074	0.0153465
680.152	0.0153806
680.230	0.0152536
680.308	0.0152442
680.386	0.0152114
680.465	0.0151687
680.543	0.0152808
680.621	0.0153995
680.699	0.0153490
680.777	0.0154001
680.855	0.0152633
680.933	0.0153063
681.011	0.0153064
681.090	0.0153507
681.168	0.0153661
681.246	0.0153119
681.324	0.0153459
681.402	0.0152923
681.480	0.0152838
681.558	0.0153396
681.636	0.0152641
681.715	0.0153503
681.793	0.0153622
681.871	0.0153905
681.949	0.0151875
682.027	0.0153159
682.105	0.0152423
682.183	0.0154052
682.261	0.0153873
682.340	0.0153503
682.418	0.0153700
682.496	0.0152415
682.574	0.0153329
682.652	0.0154050
682.730	0.0152962
682.808	0.0152233
682.886	0.0152729
682.965	0.0153209
683.043	0.0154436
683.121	0.0153413
683.199	0.0152991
683.277	0.0152299
683.355	0.0151889
683.433	0.0152750
683.511	0.0153206
683.590	0.0152386
683.668	0.0153290
683.746	0.0153057
683.824	0.0151940
683.902	0.0151537
683.980	0.0152801
684.058	0.0153263
684.136	0.0151788
684.215	0.0153728
684.293	0.0153778
684.371	0.0152377
684.449	0.0153457
684.527	0.0153701
684.605	0.0152274
684.683	0.0153312
684.761	0.0151623
684.840	0.0152277
684.918	0.0153485
684.996	0.0152816
685.074	0.0152212
685.152	0.0153099
685.230	0.0152635
685.308	0.0153191
685.386	0.0152087
685.465	0.0153098
685.543	0.0152711
685.621	0.0153234
685.699	0.0154227
685.777	0.0152276
685.855	0.0154259
685.933	0.0153580
686.011	0.0152232
686.090	0.0152171
686.168	0.0152275
686.246	0.0153711
686.324	0.0154501
686.402	0.0153254
686.480	0.0153303
686.558	0.0153979
686.636	0.0153383
686.715	0.0153733
686.793	0.0152409
686.871	0.0153568
686.949	0.0154984
687.027	0.0154777
687.105	0.0153592
687.183	0.0153735
687.261	0.0153548
687.340	0.0153582
687.418	0.0152892
687.496	0.0152741
687.574	0.0153892
687.652	0.0152734
687.730	0.0153415
687.808	0.0154375
687.886	0.0153938
687.965	0.0152334
688.043	0.0152481
688.121	0.0152854
688.199	0.0153325
688.277	0.0152581
688.355	0.0153525
688.433	0.0154576
688.511	0.0152679
688.590	0.0153787
688.668	0.0152660
688.746	0.0152464
688.824	0.0152707
688.902	0.0152406
688.980	0.0153622
689.058	0.0152152
689.136	0.0153419
689.215	0.0153606
689.293	0.0153556
689.371	0.0153359
689.449	0.0153825
689.527	0.0152917
689.605	0.0152106
689.683	0.0153466
689.761	0.0153012
689.840	0.0152431
689.918	0.0153234
689.996	0.0152545
690.074	0.0152745
690.152	0.0153737
690.230	0.0154278
690.308	0.0152374
690.386	0.0151771
690.465	0.0152074
690.543	0.0152702
690.621	0.0152235
690.699	0.0152312
690.777	0.0151374
690.855	0.0152989
690.933	0.0152354
691.011	0.0153168
691.090	0.0152634
691.168	0.0152451
691.246	0.0152609
691.324	0.0152557
691.402	0.0153801
691.480	0.0153362
691.558	0.0152994
691.636	0.0153053
691.715	0.0154600
691.793	0.0153570
691.871	0.0152642
691.949	0.0154877
692.027	0.0152063
692.105	0.0152042
692.183	0.0154630
692.261	0.0153521
692.340	0.0152618
692.418	0.0152377
692.496	0.0152152
692.574	0.0152061
692.652	0.0153033
692.730	0.0152506
692.808	0.0152973
692.886	0.0153697
692.965	0.0152648
693.043	0.0152888
693.121	0.0153311
693.199	0.0153605
693.277	0.0153055
693.355	0.0151655
693.433	0.0151717
693.511	0.0152668
693.590	0.0153215
693.668	0.0151941
693.746	0.0152001
693.824	0.0152815
693.902	0.0152605
693.980	0.0152232
694.058	0.0152179
694.136	0.0151924
694.215	0.0152634
694.293	0.0153582
694.371	0.0152589
694.449	0.0153394
694.527	0.0153985
694.605	0.0152100
694.683	0.0152887
694.761	0.0152456
694.840	0.0151701
694.918	0.0152978
694.996	0.0153769
695.074	0.0152170
695.152	0.0152746
695.230	0.0153614
695.308	0.0151820
695.386	0.0153040
695.465	0.0154470
695.543	0.0153456
695.621	0.0153333
695.699	0.0153738
695.777	0.0152138
695.855	0.0154358
695.933	0.0153960
696.011	0.0153742
696.090	0.0152476
696.168	0.0152640
696.246	0.0153502
696.324	0.0152045
696.402	0.0152583
696.480	0.0153635
696.558	0.0154201
696.636	0.0153363
696.715	0.0153175
696.793	0.0154289
696.871	0.0153446
696.949	0.0153979
697.027	0.0153532
697.105	0.0153504
697.183	0.0154314
697.261	0.0154183
697.340	0.0152370
697.418	0.0153580
697.496	0.0152415
697.574	0.0151715
697.652	0.0152275
697.730	0.0152024
697.808	0.0152173
697.886	0.0151622
697.965	0.0151312
698.043	0.0152612
698.121	0.0152473
698.199	0.0152101
698.277	0.0152636
698.355	0.0151755
698.433	0.0152644
698.511	0.0152808
698.590	0.0152576
698.668	0.0153567
698.746	0.0153344
698.824	0.0152125
698.902	0.0153244
698.980	0.0153252
699.058	0.0152275
699.136	0.0150944
699.215	0.0152477
699.293	0.0152097
699.371	0.0150547
699.449	0.0152161
699.527	0.0153328
699.605	0.0151834
699.683	0.0153191
699.761	0.0154379
699.840	0.0153165
699.918	0.0151220
699.996	0.0151565
700.074	0.0152230
700.152	0.0152436
700.230	0.0153006
700.308	0.0152351
700.386	0.0151808
700.465	0.0153841
700.543	0.0153513
700.621	0.0152327
700.699	0.0154449
700.777	0.0152956
700.855	0.0153245
700.933	0.0155195
701.011	0.0154547
701.090	0.0154456
701.168	0.0153916
701.246	0.0154025
701.324	0.0154163
701.402	0.0151682
701.480	0.0152072
701.558	0.0152456
701.636	0.0152455
701.715	0.0152522
701.793	0.0152532
701.871	0.0151293
701.949	0.0152029
702.027	0.0152906
702.105	0.0153500
702.183	0.0153748
702.261	0.0153340
702.340	0.0153244
702.418	0.0153624
702.496	0.0154510
702.574	0.0154302
702.652	0.0153691
702.730	0.0155620
702.808	0.0153309
702.886	0.0154650
702.965	0.0153471
703.043	0.0154626
703.121	0.0153766
703.199	0.0152583
703.277	0.0153716
703.355	0.0152171
703.433	0.0152389
703.511	0.0151878
703.590	0.0152157
703.668	0.0151785
703.746	0.0153479
703.824	0.0152876
703.902	0.0154079
703.980	0.0154241
704.058	0.0154180
704.136	0.0153233
704.215	0.0153479
704.293	0.0153342
704.371	0.0153085
704.449	0.0154303
704.527	0.0152704
704.605	0.0152174
704.683	0.0153630
704.761	0.0153809
704.840	0.0153502
704.918	0.0153738
704.996	0.0154821
705.074	0.0155255
705.152	0.0155537
705.230	0.0155524
705.308	0.0153855
705.386	0.0154942
705.465	0.0153848
705.543	0.0154150
705.621	0.0153445
705.699	0.0153487
705.777	0.0153218
705.855	0.0153268
705.933	0.0153380
706.011	0.0153155
706.090	0.0151937
706.168	0.0152989
706.246	0.0151992
706.324	0.0152103
706.402	0.0153875
706.480	0.0151709
706.558	0.0152497
706.636	0.0153786
706.715	0.0152161
706.793	0.0153639
706.871	0.0154289
706.949	0.0153860
707.027	0.0154395
707.105	0.0152730
707.183	0.0152045
707.261	0.0151460
707.340	0.0153524
707.418	0.0152135
707.496	0.0149272
707.574	0.0152343
707.652	0.0152920
707.730	0.0152695
707.808	0.0154236
707.886	0.0154911
707.965	0.0154975
708.043	0.0156340
708.121	0.0156474
708.199	0.0154066
708.277	0.0154533
708.355	0.0154227
708.433	0.0152845
708.511	0.0152028
708.590	0.0151066
708.668	0.0153403
708.746	0.0153706
708.824	0.0153337
708.902	0.0152676
708.980	0.0154526
709.058	0.0154964
709.136	0.0155350
709.215	0.0156286
709.293	0.0156473
709.371	0.0156849
709.449	0.0157809
709.527	0.0156696
709.605	0.0155276
709.683	0.0154372
709.761	0.0152814
709.840	0.0150881
709.918	0.0150097
709.996	0.0149482
710.074	0.0147762
710.152	0.0147380
710.230	0.0147054
710.308	0.0146561
710.386	0.0147949
710.465	0.0148315
710.543	0.0149708
710.621	0.0149075
710.699	0.0149684
710.777	0.0150794
710.855	0.0152174
710.933	0.0154857
711.011	0.0153696
711.090	0.0154365
711.168	0.0155623
711.246	0.0154614
711.324	0.0155236
711.402	0.0155132
711.480	0.0155290
711.558	0.0153907
711.636	0.0152944
711.715	0.0152544
711.793	0.0150388
711.871	0.0151594
711.949	0.0150739
712.027	0.0150417
712.105	0.0152589
712.183	0.0152794
712.261	0.0152337
712.340	0.0153551
712.418	0.0154518
712.496	0.0155891
712.574	0.0155342
712.652	0.0155404
712.730	0.0156791
712.808	0.0155760
712.886	0.0155663
712.965	0.0156783
713.043	0.0154384
713.121	0.0154890
713.199	0.0155801
713.277	0.0154001
713.355	0.0155159
713.433	0.0154610
713.511	0.0154617
713.590	0.0154644
713.668	0.0153483
713.746	0.0155145
713.824	0.0153231
713.902	0.0152769
713.980	0.0152770
714.058	0.0153503
714.136	0.0153379
714.215	0.0152802
714.293	0.0152465
714.371	0.0153174
714.449	0.0152702
714.527	0.0151881
714.605	0.0152431
714.683	0.0153223
714.761	0.0151906
714.840	0.0150908
714.918	0.0149654
714.996	0.0151188
715.074	0.0148322
715.152	0.0149385
715.230	0.0148233
715.308	0.0147906
715.386	0.0147993
715.465	0.0147826
715.543	0.0148203
715.621	0.0148423
715.699	0.0148858
715.777	0.0148866
715.855	0.0149249
715.933	0.0149746
716.011	0.0148716
716.090	0.0147288
716.168	0.0146495
716.246	0.0146837
716.324	0.0146043
716.402	0.0145799
716.480	0.0146556
716.558	0.0147289
716.636	0.0147301
716.715	0.0148816
716.793	0.0152032
716.871	0.0153817
716.949	0.0157082
717.027	0.0159881
717.105	0.0162350
717.183	0.0164214
717.261	0.0167117
717.340	0.0166876
717.418	0.0168167
717.496	0.0168088
717.574	0.0168261
717.652	0.0167995
717.730	0.0166470
717.808	0.0165142
717.886	0.0161221
717.965	0.0160787
718.043	0.0160069
718.121	0.0157552
718.199	0.0155257
718.277	0.0152826
718.355	0.0152583
718.433	0.0150977
718.511	0.0151546
718.590	0.0151393
718.668	0.0149827
718.746	0.0151636
718.824	0.0152382
718.902	0.0152855
718.980	0.0152863
719.058	0.0152819
719.136	0.0152634
719.215	0.0154565
719.293	0.0153201
719.371	0.0151218
719.449	0.0152438
719.527	0.0152536
719.605	0.0151159
719.683	0.0149324
719.761	0.0147928
719.840	0.0147946
719.918	0.0147533
719.996	0.0146906
720.074	0.0147341
720.152	0.0145553
720.230	0.0145621
720.308	0.0146200
720.386	0.0144198
720.465	0.0145858
720.543	0.0146611
720.621	0.0144917
720.699	0.0145743
720.777	0.0143797
720.855	0.0144609
720.933	0.0143916
721.011	0.0142334
721.090	0.0141140
721.168	0.0142651
721.246	0.0141764
721.324	0.0140609
721.402	0.0141319
721.480	0.0140637
721.558	0.0141222
721.636	0.0141874
721.715	0.0142732
721.793	0.0143648
721.871	0.0145059
721.949	0.0145597
722.027	0.0148688
722.105	0.0150706
722.183	0.0154055
722.261	0.0156303
722.340	0.0159232
722.418	0.0162046
722.496	0.0164857
722.574	0.0167865
722.652	0.0169244
722.730	0.0173260
722.808	0.0174773
722.886	0.0176809
722.965	0.0177377
723.043	0.0177631
723.121	0.0176644
723.199	0.0176237
723.277	0.0174034
723.355	0.0173857
723.433	0.0170845
723.511	0.0168438
723.590	0.0165852
723.668	0.0164172
723.746	0.0159301
723.824	0.0158550
723.902	0.0157919
723.980	0.0154841
724.058	0.0152421
724.136	0.0153373
724.215	0.0152644
724.293	0.0152660
724.371	0.0151172
724.449	0.0150650
724.527	0.0150726
724.605	0.0151252
724.683	0.0151534
724.761	0.0151550
724.840	0.0151690
724.918	0.0152931
724.996	0.0152748
725.074	0.0152678
725.152	0.0154166
725.230	0.0152733
725.308	0.0152492
725.386	0.0150654
725.465	0.0148163
725.543	0.0146320
725.621	0.0142500
725.699	0.0139936
725.777	0.0136200
725.855	0.0133304
725.933	0.0130200
726.011	0.0126896
726.090	0.0124149
726.168	0.0124313
726.246	0.0123191
726.324	0.0124656
726.402	0.0123230
726.480	0.0123940
726.558	0.0126515
726.636	0.0126992
726.715	0.0129511
726.793	0.0134731
726.871	0.0135904
726.949	0.0139074
727.027	0.0144636
727.105	0.0147624
727.183	0.0152113
727.261	0.0155283
727.340	0.0158968
727.418	0.0159929
727.496	0.0161798
727.574	0.0165247
727.652	0.0167999
727.730	0.0168836
727.808	0.0170200
727.886	0.0170913
727.965	0.0171300
728.043	0.0171189
728.121	0.0173299
728.199	0.0173533
728.277	0.0174121
728.355	0.0172660
728.433	0.0174017
728.511	0.0174793
728.590	0.0176871
728.668	0.0174994
728.746	0.0174809
728.824	0.0174056
728.902	0.0173399
728.980	0.0174561
729.058	0.0172809
729.136	0.0170882
729.215	0.0171082
729.293	0.0168860
729.371	0.0167028
729.449	0.0164910
729.527	0.0166334
729.605	0.0161086
729.683	0.0159805
729.761	0.0158073
729.840	0.0154893
729.918	0.0152972
729.996	0.0150279
730.074	0.0150988
730.152	0.0148416
730.230	0.0147028
730.308	0.0146017
730.386	0.0145062
730.465	0.0144477
730.543	0.0144572
730.621	0.0146140
730.699	0.0146475
730.777	0.0147308
730.855	0.0149238
730.933	0.0148418
731.011	0.0151138
731.090	0.0151578
731.168	0.0150883
731.246	0.0149322
731.324	0.0148203
731.402	0.0147594
731.480	0.0144728
731.558	0.0141330
731.636	0.0138262
731.715	0.0135285
731.793	0.0131866
731.871	0.0129063
731.949	0.0125060
732.027	0.0123641
732.105	0.0120616
732.183	0.0119107
732.261	0.0118859
732.340	0.0119272
732.418	0.0120331
732.496	0.0120833
732.574	0.0122948
732.652	0.0125145
732.730	0.0127133
732.808	0.0131903
732.886	0.0136672
732.965	0.0140681
733.043	0.0145238
733.121	0.0149158
733.199	0.0154120
733.277	0.0159682
733.355	0.0164488
733.433	0.0170042
733.511	0.0174046
733.590	0.0179408
733.668	0.0182836
733.746	0.0185249
733.824	0.0189462
733.902	0.0190303
733.980	0.0191805
734.058	0.0192581
734.136	0.0192725
734.215	0.0190205
734.293	0.0190304
734.371	0.0188243
734.449	0.0184403
734.527	0.0181790
734.605	0.0179832
734.683	0.0174991
734.761	0.0171590
734.840	0.0168085
734.918	0.0163930
734.996	0.0161427
735.074	0.0156745
735.152	0.0154013
735.230	0.0152285
735.308	0.0150083
735.386	0.0148367
735.465	0.0147271
735.543	0.0144993
735.621	0.0145733
735.699	0.0146782
735.777	0.0146608
735.855	0.0146957
735.933	0.0146301
736.011	0.0146494
736.090	0.0148344
736.168	0.0147135
736.246	0.0147655
736.324	0.0147966
736.402	0.0147213
736.480	0.0148444
736.558	0.0146518
736.636	0.0147036
736.715	0.0146509
736.793	0.0147063
736.871	0.0145672
736.949	0.0146941
737.027	0.0146298
737.105	0.0144732
737.183	0.0143635
737.261	0.0142892
737.340	0.0141682
737.418	0.0141518
737.496	0.0140738
737.574	0.0139169
737.652	0.0137125
737.730	0.0134978
737.808	0.0134385
737.886	0.0134556
737.965	0.0133071
738.043	0.0132053
738.121	0.0129646
738.199	0.0130311
738.277	0.0129547
738.355	0.0130713
738.433	0.0131225
738.511	0.0131484
738.590	0.0133315
738.668	0.0136700
738.746	0.0138974
738.824	0.0143668
738.902	0.0146671
738.980	0.0151543
739.058	0.0157169
739.136	0.0163651
739.215	0.0169144
739.293	0.0172349
739.371	0.0177436
739.449	0.0179919
739.527	0.0183287
739.605	0.0186388
739.683	0.0187467
739.761	0.0188504
739.840	0.0188480
739.918	0.0187162
739.996	0.0186045
740.074	0.0183243
740.152	0.0179479
740.230	0.0174231
740.308	0.0169932
740.386	0.0166200
740.465	0.0162215
740.543	0.0155447
740.621	0.0153568
740.699	0.0150093
740.777	0.0147968
740.855	0.0145113
740.933	0.0143594
741.011	0.0144031
741.090	0.0144833
741.168	0.0144500
741.246	0.0146729
741.324	0.0147429
741.402	0.0149719
741.480	0.0151735
741.558	0.0153058
741.636	0.0152939
741.715	0.0153240
741.793	0.0155682
741.871	0.0156748
741.949	0.0154263
742.027	0.0154050
742.105	0.0152625
742.183	0.0151241
742.261	0.0149457
742.340	0.0147344
742.418	0.0146747
742.496	0.0144646
742.574	0.0143433
742.652	0.0142999
742.730	0.0143445
742.808	0.0143751
742.886	0.0144286
742.965	0.0144743
743.043	0.0146243
743.121	0.0146080
743.199	0.0146854
743.277	0.0147427
743.355	0.0146516
743.433	0.0146577
743.511	0.0144521
743.590	0.0145424
743.668	0.0144973
743.746	0.0145046
743.824	0.0144669
743.902	0.0144277
743.980	0.0145762
744.058	0.0146387
744.136	0.0146627
744.215	0.0147980
744.293	0.0148733
744.371	0.0152088
744.449	0.0152380
744.527	0.0155315
744.605	0.0158195
744.683	0.0160216
744.761	0.0163003
744.840	0.0164175
744.918	0.0166104
744.996	0.0168326
745.074	0.0169572
745.152	0.0169279
745.230	0.0167188
745.308	0.0166778
745.386	0.0164643
745.465	0.0162446
745.543	0.0161184
745.621	0.0156566
745.699	0.0154345
745.777	0.0152593
745.855	0.0147872
745.933	0.0145492
746.011	0.0144839
746.090	0.0142519
746.168	0.0140940
746.246	0.0142474
746.324	0.0140671
746.402	0.0141407
746.480	0.0143855
746.558	0.0145102
746.636	0.0146367
746.715	0.0149395
746.793	0.0152151
746.871	0.0153656
746.949	0.0156207
747.027	0.0157788
747.105	0.0158324
747.183	0.0160297
747.261	0.0162247
747.340	0.0161822
747.418	0.0161311
747.496	0.0160085
747.574	0.0159569
747.652	0.0157877
747.730	0.0156606
747.808	0.0154363
747.886	0.0153046
747.965	0.0152566
748.043	0.0149368
748.121	0.0148185
748.199	0.0148695
748.277	0.0147259
748.355	0.0147053
748.433	0.0147376
748.511	0.0148283
748.590	0.0149619
748.668	0.0150394
748.746	0.0150446
748.824	0.0152921
748.902	0.0154568
748.980	0.0154362
749.058	0.0155068
749.136	0.0156458
749.215	0.0157793
749.293	0.0155847
749.371	0.0154192
749.449	0.0155315
749.527	0.0153806
749.605	0.0154237
749.683	0.0155042
749.761	0.0153132
749.840	0.0151900
749.918	0.0152390
749.996	0.0152111
750.074	0.0152480
750.152	0.0152116
750.230	0.0152326
750.308	0.0153093
750.386	0.0155060
750.465	0.0154739
750.543	0.0156213
750.621	0.0155298
750.699	0.0155181
750.777	0.0154865
750.855	0.0155057
750.933	0.0155206
751.011	0.0154462
751.090	0.0152138
751.168	0.0153833
751.246	0.0152378
751.324	0.0151031
751.402	0.0149159
751.480	0.0150068
751.558	0.0150159
751.636	0.0148855
751.715	0.0148193
751.793	0.0145959
751.871	0.0147218
751.949	0.0147071
752.027	0.0146385
752.105	0.0147418
752.183	0.0147263
752.261	0.0148497
752.340	0.0151044
752.418	0.0151241
752.496	0.0152268
752.574	0.0152620
752.652	0.0155032
752.730	0.0157366
752.808	0.0158433
752.886	0.0160273
752.965	0.0160181
753.043	0.0160711
753.121	0.0161400
753.199	0.0161062
753.277	0.0160406
753.355	0.0159364
753.433	0.0156905
753.511	0.0156290
753.590	0.0154986
753.668	0.0153839
753.746	0.0151827
753.824	0.0150275
753.902	0.0147857
753.980	0.0146605
754.058	0.0144646
754.136	0.0144023
754.215	0.0144073
754.293	0.0142645
754.371	0.0142145
754.449	0.0143771
754.527	0.0144065
754.605	0.0144647
754.683	0.0145404
754.761	0.0147610
754.840	0.0149993
754.918	0.0150889
754.996	0.0154146
755.074	0.0154776
755.152	0.0157608
755.230	0.0160342
755.308	0.0161431
755.386	0.0161993
755.465	0.0162910
755.543	0.0163519
755.621	0.0163706
755.699	0.0163605
755.777	0.0163120
755.855	0.0163258
755.933	0.0161724
756.011	0.0160834
756.090	0.0158016
756.168	0.0155627
756.246	0.0154067
756.324	0.0154537
756.402	0.0150298
756.480	0.0148193
756.558	0.0148061
756.636	0.0146896
756.715	0.0145798
756.793	0.0144215
756.871	0.0144025
756.949	0.0143091
757.027	0.0143489
757.105	0.0143406
757.183	0.0145270
757.261	0.0147077
757.340	0.0148661
757.418	0.0149356
757.496	0.0150495
757.574	0.0153316
757.652	0.0154696
757.730	0.0156634
757.808	0.0156412
757.886	0.0158606
757.965	0.0159803
758.043	0.0160790
758.121	0.0160876
758.199	0.0161877
758.277	0.0163734
758.355	0.0162566
758.433	0.0163022
758.511	0.0162001
758.590	0.0161607
758.668	0.0160388
758.746	0.0159814
758.824	0.0158171
758.902	0.0156851
758.980	0.0155965
759.058	0.0152885
759.136	0.0150854
759.215	0.0151498
759.293	0.0149187
759.371	0.0146546
759.449	0.0146754
759.527	0.0145580
759.605	0.0143777
759.683	0.0145189
759.761	0.0142555
759.840	0.0145982
759.918	0.0144539
759.996	0.0145564
760.074	0.0146193
760.152	0.0148048
760.230	0.0149715
760.308	0.0148891
760.386	0.0150772
760.465	0.0151671
760.543	0.0152301
760.621	0.0154816
760.699	0.0156208
760.777	0.0157883
760.855	0.0156458
760.933	0.0156042
761.011	0.0155608
761.090	0.0156276
761.168	0.0155795
761.246	0.0156494
761.324	0.0156002
761.402	0.0155506
761.480	0.0154831
761.558	0.0155771
761.636	0.0154980
761.715	0.0154446
761.793	0.0153806
761.871	0.0154710
761.949	0.0151391
762.027	0.0153895
762.105	0.0151322
762.183	0.0150007
762.261	0.0149674
762.340	0.0147702
762.418	0.0147140
762.496	0.0148309
762.574	0.0146770
762.652	0.0145412
762.730	0.0144233
762.808	0.0144479
762.886	0.0143880
762.965	0.0145438
763.043	0.0147890
763.121	0.0147217
763.199	0.0147832
763.277	0.0151493
763.355	0.0152934
763.433	0.0154178
763.511	0.0156409
763.590	0.0159110
763.668	0.0159492
763.746	0.0161936
763.824	0.0164583
763.902	0.0164556
763.980	0.0166485
764.058	0.0165575
764.136	0.0165382
764.215	0.0165007
764.293	0.0162289
764.371	0.0162257
764.449	0.0159930
764.527	0.0157871
764.605	0.0156329
764.683	0.0154382
764.761	0.0152039
764.840	0.0149295
764.918	0.0148155
764.996	0.0146606
765.074	0.0145734
765.152	0.0144756
765.230	0.0142475
765.308	0.0143013
765.386	0.0142731
765.465	0.0143637
765.543	0.0145277
765.621	0.0144304
765.699	0.0146283
765.777	0.0148134
765.855	0.0151180
765.933	0.0151480
766.011	0.0153373
766.090	0.0155843
766.168	0.0157210
766.246	0.0158118
766.324	0.0160337
766.402	0.0160989
766.480	0.0163110
766.558	0.0162817
766.636	0.0162580
766.715	0.0163338
766.793	0.0163527
766.871	0.0163263
766.949	0.0161391
767.027	0.0160619
767.105	0.0159146
767.183	0.0158023
767.261	0.0157146
767.340	0.0153484
767.418	0.0153401
767.496	0.0151127
767.574	0.0148189
767.652	0.0147296
767.730	0.0146028
767.808	0.0144339
767.886	0.0143998
767.965	0.0143323
768.043	0.0143888
768.121	0.0142198
768.199	0.0143399
768.277	0.0143183
768.355	0.0144258
768.433	0.0144423
768.511	0.0144407
768.590	0.0145343
768.668	0.0145482
768.746	0.0147780
768.824	0.0150689
768.902	0.0151685
768.980	0.0153261
769.058	0.0153789
769.136	0.0155294
769.215	0.0157320
769.293	0.0156892
769.371	0.0158688
769.449	0.0160767
769.527	0.0160895
769.605	0.0160493
769.683	0.0160384
769.761	0.0160545
769.840	0.0158639
769.918	0.0158552
769.996	0.0158266
770.074	0.0158720
770.152	0.0155347
770.230	0.0155617
770.308	0.0155337
770.386	0.0153907
770.465	0.0152606
770.543	0.0151644
770.621	0.0150765
770.699	0.0151849
770.777	0.0151323
770.855	0.0149789
770.933	0.0151259
771.011	0.0149235
771.090	0.0150117
771.168	0.0150912
771.246	0.0151493
771.324	0.0151412
771.402	0.0152039
771.480	0.0153600
771.558	0.0153252
771.636	0.0154218
771.715	0.0154578
771.793	0.0154130
771.871	0.0154651
771.949	0.0156284
772.027	0.0156750
772.105	0.0158330
772.183	0.0158125
772.261	0.0157526
772.340	0.0157080
772.418	0.0157136
772.496	0.0156960
772.574	0.0156828
772.652	0.0157698
772.730	0.0157602
772.808	0.0154736
772.886	0.0155064
772.965	0.0154059
773.043	0.0151981
773.121	0.0151785
773.199	0.0150561
773.277	0.0150465
773.355	0.0148333
773.433	0.0149352
773.511	0.0147179
773.590	0.0147470
773.668	0.0148229
773.746	0.0146879
773.824	0.0147435
773.902	0.0149581
773.980	0.0148288
774.058	0.0147922
774.136	0.0150468
774.215	0.0152819
774.293	0.0153076
774.371	0.0154072
774.449	0.0153775
774.527	0.0156995
774.605	0.0158311
774.683	0.0158051
774.761	0.0157310
774.840	0.0158791
774.918	0.0158035
774.996	0.0158690
775.074	0.0157952
775.152	0.0157423
775.230	0.0155914
775.308	0.0155723
775.386	0.0154401
775.465	0.0152822
775.543	0.0151933
775.621	0.0150353
775.699	0.0150017
775.777	0.0150082
775.855	0.0148405
775.933	0.0148476
776.011	0.0148479
776.090	0.0148023
776.168	0.0147533
776.246	0.0148456
776.324	0.0148988
776.402	0.0148917
776.480	0.0149437
776.558	0.0150756
776.636	0.0152197
776.715	0.0151630
776.793	0.0153992
776.871	0.0153158
776.949	0.0153837
777.027	0.0155478
777.105	0.0156803
777.183	0.0156611
777.261	0.0158601
777.340	0.0158915
777.418	0.0160734
777.496	0.0159753
777.574	0.0157267
777.652	0.0159888
777.730	0.0160233
777.808	0.0160355
777.886	0.0159698
777.965	0.0158987
778.043	0.0157654
778.121	0.0156938
778.199	0.0155716
778.277	0.0155530
778.355	0.0153484
778.433	0.0152306
778.511	0.0149161
778.590	0.0146893
778.668	0.0146848
778.746	0.0144883
778.824	0.0143941
778.902	0.0144462
778.980	0.0143513
779.058	0.0143463
779.136	0.0143249
779.215	0.0142649
779.293	0.0144094
779.371	0.0144239
779.449	0.0147267
779.527	0.0149749
779.605	0.0150655
779.683	0.0152779
779.761	0.0153275
779.840	0.0156968
779.918	0.0157641
779.996	0.0156933
780.074	0.0158286
780.152	0.0161320
780.230	0.0160047
780.308	0.0161064
780.386	0.0160577
780.465	0.0160689
780.543	0.0160088
780.621	0.0159228
780.699	0.0157870
780.777	0.0157378
780.855	0.0156164
780.933	0.0154291
781.011	0.0152148
781.090	0.0150767
781.168	0.0150899
781.246	0.0149989
781.324	0.0149373
781.402	0.0149160
781.480	0.0148445
781.558	0.0147565
781.636	0.0146904
781.715	0.0147530
781.793	0.0147036
781.871	0.0147901
781.949	0.0147477
782.027	0.0146987
782.105	0.0148975
782.183	0.0148424
782.261	0.0150643
782.340	0.0152722
782.418	0.0152226
782.496	0.0153037
782.574	0.0153696
782.652	0.0154043
782.730	0.0155753
782.808	0.0157281
782.886	0.0157016
782.965	0.0156636
783.043	0.0158121
783.121	0.0157345
783.199	0.0160001
783.277	0.0159525
783.355	0.0159325
783.433	0.0158435
783.511	0.0157330
783.590	0.0158984
783.668	0.0158315
783.746	0.0157829
783.824	0.0157908
783.902	0.0155484
783.980	0.0154018
784.058	0.0152619
784.136	0.0151768
784.215	0.0151204
784.293	0.0150509
784.371	0.0148426
784.449	0.0147728
784.527	0.0145981
784.605	0.0144980
784.683	0.0145280
784.761	0.0146106
784.840	0.0146857
784.918	0.0146007
784.996	0.0147137
785.074	0.0148170
785.152	0.0149550
785.230	0.0151392
785.308	0.0152176
785.386	0.0152026
785.465	0.0154230
785.543	0.0154843
785.621	0.0154759
785.699	0.0157014
785.777	0.0156903
785.855	0.0157570
785.933	0.0158754
786.011	0.0157907
786.090	0.0156288
786.168	0.0156286
786.246	0.0156843
786.324	0.0155373
786.402	0.0156869
786.480	0.0155406
786.558	0.0154131
786.636	0.0155077
786.715	0.0153758
786.793	0.0152637
786.871	0.0153472
786.949	0.0151705
787.027	0.0151160
787.105	0.0152692
787.183	0.0152132
787.261	0.0152278
787.340	0.0151800
787.418	0.0150238
787.496	0.0149271
787.574	0.0150488
787.652	0.0150302
787.730	0.0151628
787.808	0.0150110
787.886	0.0150334
787.965	0.0150131
788.043	0.0150894
788.121	0.0150002
788.199	0.0150710
788.277	0.0151585
788.355	0.0153005
788.433	0.0152004
788.511	0.0153105
788.590	0.0153654
788.668	0.0154720
788.746	0.0154698
788.824	0.0153363
788.902	0.0154852
788.980	0.0154765
789.058	0.0155578
789.136	0.0156085
789.215	0.0155360
789.293	0.0154960
789.371	0.0152790
789.449	0.0153939
789.527	0.0153432
789.605	0.0154839
789.683	0.0153294
789.761	0.0152280
789.840	0.0151612
789.918	0.0152296
789.996	0.0150477
790.074	0.0150089
790.152	0.0150835
790.230	0.0149908
790.308	0.0150355
790.386	0.0150792
790.465	0.0150826
790.543	0.0151671
790.621	0.0151625
790.699	0.0151305
790.777	0.0153019
790.855	0.0152096
790.933	0.0153445
791.011	0.0153709
791.090	0.0153530
791.168	0.0152766
791.246	0.0155676
791.324	0.0156631
791.402	0.0154523
791.480	0.0155879
791.558	0.0156507
791.636	0.0153720
791.715	0.0155189
791.793	0.0154510
791.871	0.0155395
791.949	0.0153794
792.027	0.0153517
792.105	0.0153266
792.183	0.0153194
792.261	0.0153569
792.340	0.0152514
792.418	0.0153786
792.496	0.0152769
792.574	0.0152215
792.652	0.0152289
792.730	0.0152087
792.808	0.0152924
792.886	0.0152659
792.965	0.0153117
793.043	0.0151167
793.121	0.0152472
793.199	0.0151623
793.277	0.0153284
793.355	0.0152123
793.433	0.0152816
793.511	0.0152294
793.590	0.0152703
793.668	0.0152436
793.746	0.0153774
793.824	0.0152108
793.902	0.0153880
793.980	0.0152927
794.058	0.0151970
794.136	0.0153078
794.215	0.0153277
794.293	0.0153059
794.371	0.0153118
794.449	0.0152837
794.527	0.0153255
794.605	0.0151763
794.683	0.0151923
794.761	0.0151756
794.840	0.0152686
794.918	0.0151626
794.996	0.0151064
795.074	0.0152863
795.152	0.0150984
795.230	0.0151220
795.308	0.0151250
795.386	0.0152113
795.465	0.0152584
795.543	0.0151179
795.621	0.0151613
795.699	0.0152586
795.777	0.0152823
795.855	0.0154510
795.933	0.0153907
796.011	0.0153674
796.090	0.0155173
796.168	0.0153649
796.246	0.0153990
796.324	0.0154620
796.402	0.0155344
796.480	0.0156035
796.558	0.0154741
796.636	0.0154940
796.715	0.0155029
796.793	0.0154620
796.871	0.0155455
796.949	0.0156035
797.027	0.0154595
797.105	0.0154690
797.183	0.0155231
797.261	0.0155226
797.340	0.0154568
797.418	0.0154552
797.496	0.0153572
797.574	0.0152736
797.652	0.0151487
797.730	0.0152812
797.808	0.0151984
797.886	0.0152367
797.965	0.0152573
798.043	0.0150911
798.121	0.0152251
798.199	0.0151685
798.277	0.0151745
798.355	0.0151912
798.433	0.0152666
798.511	0.0151551
798.590	0.0152357
798.668	0.0151729
798.746	0.0152494
798.824	0.0152289
798.902	0.0152284
798.980	0.0153153
799.058	0.0153368
799.136	0.0152357
799.215	0.0154319
799.293	0.0153583
799.371	0.0152900
799.449	0.0153597
799.527	0.0153732
799.605	0.0153270
799.683	0.0153961
799.761	0.0154149
799.840	0.0153949
799.918	0.0153048
799.996	0.0152987
800.074	0.0154406
800.152	0.0154008
800.230	0.0154772
800.308	0.0152623
800.386	0.0154994
800.465	0.0154279
800.543	0.0154460
800.621	0.0154481
800.699	0.0155103
800.777	0.0155392
800.855	0.0154958
800.933	0.0156638
801.011	0.0157449
801.090	0.0155254
801.168	0.0156210
801.246	0.0155044
801.324	0.0155364
801.402	0.0155276
801.480	0.0155643
801.558	0.0153329
801.636	0.0153957
801.715	0.0154588
801.793	0.0154884
801.871	0.0154051
801.949	0.0153371
802.027	0.0152538
802.105	0.0152744
802.183	0.0150683
802.261	0.0150230
802.340	0.0151917
802.418	0.0152333
802.496	0.0149981
802.574	0.0153086
802.652	0.0151791
802.730	0.0150800
802.808	0.0151006
802.886	0.0150794
802.965	0.0152120
803.043	0.0152451
803.121	0.0152655
803.199	0.0150258
803.277	0.0153341
803.355	0.0153674
803.433	0.0152042
803.511	0.0151752
803.590	0.0153259
803.668	0.0154665
803.746	0.0152751
803.824	0.0152738
803.902	0.0152394
803.980	0.0152768
804.058	0.0154424
804.136	0.0153262
804.215	0.0153759
804.293	0.0153120
804.371	0.0153399
804.449	0.0152096
804.527	0.0151299
804.605	0.0153699
804.683	0.0152541
804.761	0.0152499
804.840	0.0153015
804.918	0.0151879
804.996	0.0153098
805.074	0.0154414
805.152	0.0153277
805.230	0.0152823
805.308	0.0153271
805.386	0.0153494
805.465	0.0153844
805.543	0.0152728
805.621	0.0152814
805.699	0.0153072
805.777	0.0153780
805.855	0.0153918
805.933	0.0152936
806.011	0.0153395
806.090	0.0152231
806.168	0.0152842
806.246	0.0153963
806.324	0.0153052
806.402	0.0153677
806.480	0.0153704
806.558	0.0152668
806.636	0.0152171
806.715	0.0153959
806.793	0.0154511
806.871	0.0153533
806.949	0.0155022
807.027	0.0156522
807.105	0.0154951
807.183	0.0154109
807.261	0.0155323
807.340	0.0154554
807.418	0.0154829
807.496	0.0153245
807.574	0.0154270
807.652	0.0153555
807.730	0.0152274
807.808	0.0152416
807.886	0.0153744
807.965	0.0152834
808.043	0.0152653
808.121	0.0153516
808.199	0.0151144
808.277	0.0152075
808.355	0.0152374
808.433	0.0152447
808.511	0.0153040
808.590	0.0152385
808.668	0.0152452
808.746	0.0153401
808.824	0.0155011
808.902	0.0154446
808.980	0.0152823
809.058	0.0153927
809.136	0.0155235
809.215	0.0153902
809.293	0.0154853
809.371	0.0153646
809.449	0.0152890
809.527	0.0152415
809.605	0.0152692
809.683	0.0151575
809.761	0.0152786
809.840	0.0153161
809.918	0.0154297
809.996	0.0152213
810.074	0.0151583
810.152	0.0152140
810.230	0.0151440
810.308	0.0152666
810.386	0.0152464
810.465	0.0151909
810.543	0.0152184
810.621	0.0151886
810.699	0.0151334
810.777	0.0151530
810.855	0.0150987
810.933	0.0152303
811.011	0.0152653
811.090	0.0151691
811.168	0.0152814
811.246	0.0152283
811.324	0.0151532
811.402	0.0152115
811.480	0.0153906
811.558	0.0153900
811.636	0.0153113
811.715	0.0152618
811.793	0.0153432
811.871	0.0152688
811.949	0.0152668
812.027	0.0152947
812.105	0.0152370
812.183	0.0152892
812.261	0.0152944
812.340	0.0153139
812.418	0.0152118
812.496	0.0152631
812.574	0.0151736
812.652	0.0152486
812.730	0.0152145
812.808	0.0153775
812.886	0.0154005
812.965	0.0151835
813.043	0.0153189
813.121	0.0153782
813.199	0.0152085
813.277	0.0153288
813.355	0.0153093
813.433	0.0152724
813.511	0.0152392
813.590	0.0154041
813.668	0.0154794
813.746	0.0153452
813.824	0.0152959
813.902	0.0153721
813.980	0.0153551
814.058	0.0154728
814.136	0.0155305
814.215	0.0154890
814.293	0.0153629
814.371	0.0154205
814.449	0.0154237
814.527	0.0155064
814.605	0.0155308
814.683	0.0154485
814.761	0.0153993
814.840	0.0155091
814.918	0.0153729
814.996	0.0155159
815.074	0.0155520
815.152	0.0155152
815.230	0.0154623
815.308	0.0154102
815.386	0.0154688
815.465	0.0155499
815.543	0.0153915
815.621	0.0154418
815.699	0.0153239
815.777	0.0152124
815.855	0.0152404
815.933	0.0153308
816.011	0.0151144
816.090	0.0151434
816.168	0.0152048
816.246	0.0151122
816.324	0.0151198
816.402	0.0151090
816.480	0.0150224
816.558	0.0150228
816.636	0.0150218
816.715	0.0151002
816.793	0.0148849
816.871	0.0148373
816.949	0.0150291
817.027	0.0151741
817.105	0.0151103
817.183	0.0150739
817.261	0.0151579
817.340	0.0150876
817.418	0.0152121
817.496	0.0152431
817.574	0.0150548
817.652	0.0152023
817.730	0.0151621
817.808	0.0152756
817.886	0.0151107
817.965	0.0151012
818.043	0.0150468
818.121	0.0152171
818.199	0.0152996
818.277	0.0151729
818.355	0.0151878
818.433	0.0151040
818.511	0.0151435
818.590	0.0151609
818.668	0.0152293
818.746	0.0152560
818.824	0.0152583
818.902	0.0151071
818.980	0.0152924
819.058	0.0152393
819.136	0.0152777
819.215	0.0154344
819.293	0.0153788
819.371	0.0153642
819.449	0.0156261
819.527	0.0155122
819.605	0.0155249
819.683	0.0157123
819.761	0.0156372
819.840	0.0156657
819.918	0.0156693
819.996	0.0155411
820.074	0.0156316
820.152	0.0157945
820.230	0.0157549
820.308	0.0157384
820.386	0.0155547
820.465	0.0155593
820.543	0.0155898
820.621	0.0155961
820.699	0.0154829
820.777	0.0155106
820.855	0.0155421
820.933	0.0154317
821.011	0.0153822
821.090	0.0153685
821.168	0.0153178
821.246	0.0153437
821.324	0.0152919
821.402	0.0150665
821.480	0.0153136
821.558	0.0151952
821.636	0.0150837
821.715	0.0151044
821.793	0.0151237
821.871	0.0150245
821.949	0.0149831
822.027	0.0150123
822.105	0.0148860
822.183	0.0149218
822.261	0.0148878
822.340	0.0148922
822.418	0.0149250
822.496	0.0148952
822.574	0.0149414
822.652	0.0150131
822.730	0.0150246
822.808	0.0147684
822.886	0.0148919
822.965	0.0149271
823.043	0.0149023
823.121	0.0149577
823.199	0.0149069
823.277	0.0149841
823.355	0.0149516
823.433	0.0150458
823.511	0.0150218
823.590	0.0150030
823.668	0.0149928
823.746	0.0150750
823.824	0.0151864
823.902	0.0152232
823.980	0.0152684
824.058	0.0153062
824.136	0.0152406
824.215	0.0153677
824.293	0.0154940
824.371	0.0155753
824.449	0.0155828
824.527	0.0155746
824.605	0.0157458
824.683	0.0157927
824.761	0.0158212
824.840	0.0158736
824.918	0.0160468
824.996	0.0159364
825.074	0.0160625
825.152	0.0160269
825.230	0.0160319
825.308	0.0159166
825.386	0.0160094
825.465	0.0159158
825.543	0.0159274
825.621	0.0159301
825.699	0.0157873
825.777	0.0157567
825.855	0.0156966
825.933	0.0157365
826.011	0.0157598
826.090	0.0156812
826.168	0.0155324
826.246	0.0154025
826.324	0.0154403
826.402	0.0153425
826.480	0.0153918
826.558	0.0154357
826.636	0.0152200
826.715	0.0151057
826.793	0.0152160
826.871	0.0150797
826.949	0.0151317
827.027	0.0151676
827.105	0.0149850
827.183	0.0148658
827.261	0.0147629
827.340	0.0149830
827.418	0.0148772
827.496	0.0149155
827.574	0.0147650
827.652	0.0147481
827.730	0.0147699
827.808	0.0147114
827.886	0.0148785
827.965	0.0147400
828.043	0.0147999
828.121	0.0147474
828.199	0.0148132
828.277	0.0148396
828.355	0.0148656
828.433	0.0148627
828.511	0.0149674
828.590	0.0148257
828.668	0.0147729
828.746	0.0149207
828.824	0.0150510
828.902	0.0149258
828.980	0.0149361
829.058	0.0150253
829.136	0.0150433
829.215	0.0149976
829.293	0.0150127
829.371	0.0150226
829.449	0.0150298
829.527	0.0150281
829.605	0.0152585
829.683	0.0153325
829.761	0.0152880
829.840	0.0155434
829.918	0.0156890
829.996	0.0155531
830.074	0.0156640
830.152	0.0159138
830.230	0.0160321
830.308	0.0159915
830.386	0.0160274
830.465	0.0161487
830.543	0.0162636
830.621	0.0161319
830.699	0.0161996
830.777	0.0162726
830.855	0.0161973
830.933	0.0160982
831.011	0.0160941
831.090	0.0160725
831.168	0.0160539
831.246	0.0158783
831.324	0.0157564
831.402	0.0156571
831.480	0.0156769
831.558	0.0155745
831.636	0.0155553
831.715	0.0154201
831.793	0.0154140
831.871	0.0153411
831.949	0.0153297
832.027	0.0153051
832.105	0.0152612
832.183	0.0152390
832.261	0.0152728
832.340	0.0151389
832.418	0.0152087
832.496	0.0150638
832.574	0.0151102
832.652	0.0150754
832.730	0.0148978
832.808	0.0150240
832.886	0.0149638
832.965	0.0148499
833.043	0.0150045
833.121	0.0148219
833.199	0.0147874
833.277	0.0147667
833.355	0.0148038
833.433	0.0147656
833.511	0.0146582
833.590	0.0146903
833.668	0.0145106
833.746	0.0146035
833.824	0.0146587
833.902	0.0146195
833.980	0.0146476
834.058	0.0147665
834.136	0.0148090
834.215	0.0148820
834.293	0.0149159
834.371	0.0149597
834.449	0.0149232
834.527	0.0150403
834.605	0.0150286
834.683	0.0150905
834.761	0.0150511
834.840	0.0151869
834.918	0.0151347
834.996	0.0151078
835.074	0.0154868
835.152	0.0154871
835.230	0.0154169
835.308	0.0155118
835.386	0.0155002
835.465	0.0156291
835.543	0.0157265
835.621	0.0156110
835.699	0.0157886
835.777	0.0158686
835.855	0.0158621
835.933	0.0158888
836.011	0.0157871
836.090	0.0158634
836.168	0.0159682
836.246	0.0157816
836.324	0.0157895
836.402	0.0158793
836.480	0.0158111
836.558	0.0157883
836.636	0.0157227
836.715	0.0157090
836.793	0.0157095
836.871	0.0155740
836.949	0.0154889
837.027	0.0154234
837.105	0.0153951
837.183	0.0153519
837.261	0.0154193
837.340	0.0153005
837.418	0.0152283
837.496	0.0152611
837.574	0.0154162
837.652	0.0152445
837.730	0.0152288
837.808	0.0152850
837.886	0.0151862
837.965	0.0151766
838.043	0.0151630
838.121	0.0153449
838.199	0.0151176
838.277	0.0150716
838.355	0.0150113
838.433	0.0151079
838.511	0.0150411
838.590	0.0149335
838.668	0.0149237
838.746	0.0150465
838.824	0.0150571
838.902	0.0148289
838.980	0.0150154
839.058	0.0149640
839.136	0.0149967
839.215	0.0150884
839.293	0.0149884
839.371	0.0149844
839.449	0.0149258
839.527	0.0149507
839.605	0.0150416
839.683	0.0149586
839.761	0.0150716
839.840	0.0151028
839.918	0.0151385
839.996	0.0150114
840.074	0.0149564
840.152	0.0150799
840.230	0.0150427
840.308	0.0152681
840.386	0.0150845
840.465	0.0150076
840.543	0.0152180
840.621	0.0152651
840.699	0.0152171
840.777	0.0154303
840.855	0.0154400
840.933	0.0155443
841.011	0.0154658
841.090	0.0154742
841.168	0.0155900
841.246	0.0155940
841.324	0.0156403
841.402	0.0156882
841.480	0.0155879
841.558	0.0157407
841.636	0.0156360
841.715	0.0156789
841.793	0.0156527
841.871	0.0157076
841.949	0.0155501
842.027	0.0156514
842.105	0.0156466
842.183	0.0156185
842.261	0.0154665
842.340	0.0155499
842.418	0.0155517
842.496	0.0154955
842.574	0.0155784
842.652	0.0154913
842.730	0.0154085
842.808	0.0153056
842.886	0.0153340
842.965	0.0152839
843.043	0.0152769
843.121	0.0153081
843.199	0.0152640
843.277	0.0151496
843.355	0.0151756
843.433	0.0153153
843.511	0.0150945
843.590	0.0152202
843.668	0.0152082
843.746	0.0152138
843.824	0.0150249
843.902	0.0150256
843.980	0.0151199
844.058	0.0151550
844.136	0.0151715
844.215	0.0151083
844.293	0.0151229
844.371	0.0151279
844.449	0.0150740
844.527	0.0150623
844.605	0.0151846
844.683	0.0153255
844.761	0.0151826
844.840	0.0151518
844.918	0.0151742
844.996	0.0150919
845.074	0.0151114
845.152	0.0153228
845.230	0.0153474
845.308	0.0153725
845.386	0.0152383
845.465	0.0153805
845.543	0.0153707
845.621	0.0154260
845.699	0.0154037
845.777	0.0154425
845.855	0.0154997
845.933	0.0154568
846.011	0.0153117
846.090	0.0153722
846.168	0.0154175
846.246	0.0155171
846.324	0.0155173
846.402	0.0153880
846.480	0.0153603
846.558	0.0154710
846.636	0.0154353
846.715	0.0153990
846.793	0.0154504
846.871	0.0153380
846.949	0.0152393
847.027	0.0153300
847.105	0.0154076
847.183	0.0152605
847.261	0.0152121
847.340	0.0152837
847.418	0.0150600
847.496	0.0150833
847.574	0.0152879
847.652	0.0150954
847.730	0.0151418
847.808	0.0151910
847.886	0.0152483
847.965	0.0151965
848.043	0.0151710
848.121	0.0152879
848.199	0.0153888
848.277	0.0152528
848.355	0.0154070
848.433	0.0154449
848.511	0.0152696
848.590	0.0154283
848.668	0.0155039
848.746	0.0155550
848.824	0.0154700
848.902	0.0155997
848.980	0.0155006
849.058	0.0154348
849.136	0.0154182
849.215	0.0154436
849.293	0.0154822
849.371	0.0154520
849.449	0.0154527
849.527	0.0153474
849.605	0.0152959
849.683	0.0153547
849.761	0.0153431
849.840	0.0152065
849.918	0.0152654
849.996	0.0152141
850.074	0.0151884
850.152	0.0151799
850.230	0.0151843
850.308	0.0152641
850.386	0.0152200
850.465	0.0151591
850.543	0.0153281
850.621	0.0152074
850.699	0.0153365
850.777	0.0153110
850.855	0.0153178
850.933	0.0151798
851.011	0.0153731
851.090	0.0153745
851.168	0.0152887
851.246	0.0151905
851.324	0.0153179
851.402	0.0154551
851.480	0.0152807
851.558	0.0153532
851.636	0.0154364
851.715	0.0153657
851.793	0.0153584
851.871	0.0154537
851.949	0.0154877
852.027	0.0153011
852.105	0.0153555
852.183	0.0155044
852.261	0.0154221
852.340	0.0153812
852.418	0.0153471
852.496	0.0153905
852.574	0.0153823
852.652	0.0154308
852.730	0.0153492
852.808	0.0154565
852.886	0.0154281
852.965	0.0154115
853.043	0.0152199
853.121	0.0151887
853.199	0.0151282
853.277	0.0152052
853.355	0.0149989
853.433	0.0152000
853.511	0.0150846
853.590	0.0151299
853.668	0.0151758
853.746	0.0151502
853.824	0.0151189
853.902	0.0152195
853.980	0.0151229
854.058	0.0153415
854.136	0.0154053
854.215	0.0152956
854.293	0.0153351
854.371	0.0155351
854.449	0.0154086
854.527	0.0154905
854.605	0.0154995
854.683	0.0155819
854.761	0.0154527
854.840	0.0153602
854.918	0.0155661
854.996	0.0155479
855.074	0.0155424
855.152	0.0154168
855.230	0.0153817
855.308	0.0153992
855.386	0.0154778
855.465	0.0153335
855.543	0.0152756
855.621	0.0153854
855.699	0.0151877
855.777	0.0153075
855.855	0.0153338
855.933	0.0153085
856.011	0.0153420
856.090	0.0152508
856.168	0.0153665
856.246	0.0153595
856.324	0.0153624
856.402	0.0154479
856.480	0.0154104
856.558	0.0153954
856.636	0.0153527
856.715	0.0153925
856.793	0.0154755
856.871	0.0154028
856.949	0.0154154
857.027	0.0155274
857.105	0.0155437
857.183	0.0153796
857.261	0.0153551
857.340	0.0152029
857.418	0.0153345
857.496	0.0152995
857.574	0.0153243
857.652	0.0151137
857.730	0.0151686
857.808	0.0152753
857.886	0.0151369
857.965	0.0151408
858.043	0.0150645
858.121	0.0151981
858.199	0.0151449
858.277	0.0150588
858.355	0.0151715
858.433	0.0152377
858.511	0.0152409
858.590	0.0151482
858.668	0.0151281
858.746	0.0152134
858.824	0.0152077
858.902	0.0151476
858.980	0.0151069
859.058	0.0151224
859.136	0.0150901
859.215	0.0151261
859.293	0.0151394
859.371	0.0151933
859.449	0.0152775
859.527	0.0151999
859.605	0.0151818
859.683	0.0152882
859.761	0.0152644
859.840	0.0153312
859.918	0.0152886
859.996	0.0153623
860.074	0.0153833
860.152	0.0153871
860.230	0.0154547
860.308	0.0154230
860.386	0.0153749
860.465	0.0155144
860.543	0.0156033
860.621	0.0153879
860.699	0.0153490
860.777	0.0154189
860.855	0.0154111
860.933	0.0155304
861.011	0.0154720
861.090	0.0153489
861.168	0.0153696
861.246	0.0154191
861.324	0.0153706
861.402	0.0152522
861.480	0.0152673
861.558	0.0152547
861.636	0.0153725
861.715	0.0153407
861.793	0.0153066
861.871	0.0152655
861.949	0.0154830
862.027	0.0152476
862.105	0.0153601
862.183	0.0154427
862.261	0.0154404
862.340	0.0155662
862.418	0.0155399
862.496	0.0155991
862.574	0.0153120
862.652	0.0152966
862.730	0.0153286
862.808	0.0154731
862.886	0.0155243
862.965	0.0153243
863.043	0.0152459
863.121	0.0153096
863.199	0.0151999
863.277	0.0152875
863.355	0.0152665
863.433	0.0152374
863.511	0.0151826
863.590	0.0152267
863.668	0.0152705
863.746	0.0150401
863.824	0.0151878
863.902	0.0151234
863.980	0.0151437
864.058	0.0151058
864.136	0.0149863
864.215	0.0151151
864.293	0.0149268
864.371	0.0150819
864.449	0.0151452
864.527	0.0150972
864.605	0.0150496
864.683	0.0152801
864.761	0.0151749
864.840	0.0152128
864.918	0.0152908
864.996	0.0152335
865.074	0.0152035
865.152	0.0154062
865.230	0.0155128
865.308	0.0153781
865.386	0.0154571
865.465	0.0153852
865.543	0.0154704
865.621	0.0155711
865.699	0.0156225
865.777	0.0156475
865.855	0.0155927
865.933	0.0156631
866.011	0.0154536
866.090	0.0157188
866.168	0.0155627
866.246	0.0156499
866.324	0.0155742
866.402	0.0155315
866.480	0.0156453
866.558	0.0157504
866.636	0.0155074
866.715	0.0155113
866.793	0.0154926
866.871	0.0154070
866.949	0.0152792
867.027	0.0154524
867.105	0.0154071
867.183	0.0153768
867.261	0.0154095
867.340	0.0152803
867.418	0.0152718
867.496	0.0153797
867.574	0.0154148
867.652	0.0152113
867.730	0.0152400
867.808	0.0154655
867.886	0.0153202
867.965	0.0154176
868.043	0.0153607
868.121	0.0155007
868.199	0.0154693
868.277	0.0154192
868.355	0.0153822
868.433	0.0153883
868.511	0.0153806
868.590	0.0154671
868.668	0.0154909
868.746	0.0154522
868.824	0.0154527
868.902	0.0153963
868.980	0.0154279
869.058	0.0154227
869.136	0.0153944
869.215	0.0153238
869.293	0.0152462
869.371	0.0153411
869.449	0.0153436
869.527	0.0152559
869.605	0.0151688
869.683	0.0152599
869.761	0.0152957
869.840	0.0151031
869.918	0.0151135
869.996	0.0152188
870.074	0.0151493
870.152	0.0150757
870.230	0.0150747
870.308	0.0149911
870.386	0.0148830
870.465	0.0151295
870.543	0.0151252
870.621	0.0152258
870.699	0.0151472
870.777	0.0151476
870.855	0.0152863
870.933	0.0153189
871.011	0.0154404
871.090	0.0153526
871.168	0.0153272
871.246	0.0154438
871.324	0.0155422
871.402	0.0156013
871.480	0.0155080
871.558	0.0155146
871.636	0.0156187
871.715	0.0156781
871.793	0.0156761
871.871	0.0156313
871.949	0.0156509
872.027	0.0156583
872.105	0.0155358
872.183	0.0157713
872.261	0.0154847
872.340	0.0155882
872.418	0.0155277
872.496	0.0157330
872.574	0.0154666
872.652	0.0154128
872.730	0.0154599
872.808	0.0154694
872.886	0.0154781
872.965	0.0153951
873.043	0.0153751
873.121	0.0154540
873.199	0.0153191
873.277	0.0152995
873.355	0.0153030
873.433	0.0153044
873.511	0.0151994
873.590	0.0152748
873.668	0.0151476
873.746	0.0152505
873.824	0.0152612
873.902	0.0152477
873.980	0.0152868
874.058	0.0152227
874.136	0.0151921
874.215	0.0152945
874.293	0.0153135
874.371	0.0153247
874.449	0.0152551
874.527	0.0153146
874.605	0.0153374
874.683	0.0153220
874.761	0.0154825
874.840	0.0154475
874.918	0.0153593
874.996	0.0152855
875.074	0.0153391
875.152	0.0153425
875.230	0.0152419
875.308	0.0152512
875.386	0.0152102
875.465	0.0152247
875.543	0.0152584
875.621	0.0151575
875.699	0.0151792
875.777	0.0151343
875.855	0.0151933
875.933	0.0149442
876.011	0.0151308
876.090	0.0152976
876.168	0.0151418
876.246	0.0152914
876.324	0.0152251
876.402	0.0152319
876.480	0.0151346
876.558	0.0152663
876.636	0.0153374
876.715	0.0154321
876.793	0.0155026
876.871	0.0155028
876.949	0.0154533
877.027	0.0154063
877.105	0.0154180
877.183	0.0153901
877.261	0.0156741
877.340	0.0155187
877.418	0.0154292
877.496	0.0155088
877.574	0.0156133
877.652	0.0155302
877.730	0.0154991
877.808	0.0155032
877.886	0.0155231
877.965	0.0155458
878.043	0.0155048
878.121	0.0155353
878.199	0.0155898
878.277	0.0154716
878.355	0.0157191
878.433	0.0154182
878.511	0.0155035
878.590	0.0155579
878.668	0.0154790
878.746	0.0154404
878.824	0.0153447
878.902	0.0154780
878.980	0.0155377
879.058	0.0152314
879.136	0.0152454
879.215	0.0152509
879.293	0.0152544
879.371	0.0153579
879.449	0.0151325
879.527	0.0151076
879.605	0.0150853
879.683	0.0152094
879.761	0.0152139
879.840	0.0152502
879.918	0.0151510
879.996	0.0151717
880.074	0.0152126
880.152	0.0151836
880.230	0.0152380
880.308	0.0152657
880.386	0.0153825
880.465	0.0152982
880.543	0.0152659
880.621	0.0152699
880.699	0.0154124
880.777	0.0152971
880.855	0.0152158
880.933	0.0153989
881.011	0.0152893
881.090	0.0152112
881.168	0.0152052
881.246	0.0152807
881.324	0.0152944
881.402	0.0151394
881.480	0.0150877
881.558	0.0153170
881.636	0.0151730
881.715	0.0151679
881.793	0.0153880
881.871	0.0152354
881.949	0.0151875
882.027	0.0153069
882.105	0.0152692
882.183	0.0151950
882.261	0.0153879
882.340	0.0152636
882.418	0.0153558
882.496	0.0154565
882.574	0.0154276
882.652	0.0153006
882.730	0.0154037
882.808	0.0153826
882.886	0.0154709
882.965	0.0152790
883.043	0.0152480
883.121	0.0153823
883.199	0.0153321
883.277	0.0153529
883.355	0.0154333
883.433	0.0154660
883.511	0.0153392
883.590	0.0154375
883.668	0.0153481
883.746	0.0153751
883.824	0.0154153
883.902	0.0154971
883.980	0.0154936
884.058	0.0153636
884.136	0.0154223
884.215	0.0154351
884.293	0.0154121
884.371	0.0154703
884.449	0.0153722
884.527	0.0153356
884.605	0.0155685
884.683	0.0155029
884.761	0.0154388
884.840	0.0154266
884.918	0.0153111
884.996	0.0153572
885.074	0.0153593
885.152	0.0153165
885.230	0.0153309
885.308	0.0153092
885.386	0.0154267
885.465	0.0153233
885.543	0.0152061
885.621	0.0152310
885.699	0.0151847
885.777	0.0153069
885.855	0.0153590
885.933	0.0152689
886.011	0.0153899
886.090	0.0153194
886.168	0.0152628
886.246	0.0151794
886.324	0.0153120
886.402	0.0153378
886.480	0.0151949
886.558	0.0151616
886.636	0.0152756
886.715	0.0153159
886.793	0.0151913
886.871	0.0152502
886.949	0.0152283
887.027	0.0154117
887.105	0.0153666
887.183	0.0153636
887.261	0.0152641
887.340	0.0153299
887.418	0.0153080
887.496	0.0153719
887.574	0.0151635
887.652	0.0152898
887.730	0.0152991
887.808	0.0152814
887.886	0.0155068
887.965	0.0154766
888.043	0.0154239
888.121	0.0152917
888.199	0.0153507
888.277	0.0154202
888.355	0.0153490
888.433	0.0154385
888.511	0.0156532
888.590	0.0155391
888.668	0.0152965
888.746	0.0153709
888.824	0.0153427
888.902	0.0153601
888.980	0.0155051
889.058	0.0154410
889.136	0.0153483
889.215	0.0154063
889.293	0.0153764
889.371	0.0154362
889.449	0.0153133
889.527	0.0153461
889.605	0.0154187
889.683	0.0154464
889.761	0.0154528
889.840	0.0153791
889.918	0.0154641
889.996	0.0154510
890.074	0.0154620
890.152	0.0153432
890.230	0.0152901
890.308	0.0153205
890.386	0.0154565
890.465	0.0153422
890.543	0.0154270
890.621	0.0155060
890.699	0.0153979
890.777	0.0154202
890.855	0.0154194
890.933	0.0153971
891.011	0.0154990
891.090	0.0153843
891.168	0.0153973
891.246	0.0153584
891.324	0.0153644
891.402	0.0152602
891.480	0.0152911
891.558	0.0153321
891.636	0.0151750
891.715	0.0152354
891.793	0.0153156
891.871	0.0152506
891.949	0.0153054
892.027	0.0153960
892.105	0.0152478
892.183	0.0153152
892.261	0.0153179
892.340	0.0152755
892.418	0.0152391
892.496	0.0154355
892.574	0.0152422
892.652	0.0151835
892.730	0.0152216
892.808	0.0152976
892.886	0.0151634
892.965	0.0150973
893.043	0.0151895
893.121	0.0153468
893.199	0.0151202
893.277	0.0152457
893.355	0.0152542
893.433	0.0152890
893.511	0.0153371
893.590	0.0153004
893.668	0.0153949
893.746	0.0154615
893.824	0.0154770
893.902	0.0155361
893.980	0.0154909
894.058	0.0154518
894.136	0.0155497
894.215	0.0155651
894.293	0.0155666
894.371	0.0155561
894.449	0.0154552
894.527	0.0155247
894.605	0.0154694
894.683	0.0152834
894.761	0.0155538
894.840	0.0154152
894.918	0.0152278
894.996	0.0152767
895.074	0.0152618
895.152	0.0152988
895.230	0.0153446
895.308	0.0152024
895.386	0.0153219
895.465	0.0152855
895.543	0.0153103
895.621	0.0152850
895.699	0.0152917
895.777	0.0152602
895.855	0.0153256
895.933	0.0152290
896.011	0.0153181
896.090	0.0152808
896.168	0.0153294
896.246	0.0154221
896.324	0.0153920
896.402	0.0153479
896.480	0.0154386
896.558	0.0153117
896.636	0.0154230
896.715	0.0154604
896.793	0.0154588
896.871	0.0155696
896.949	0.0155424
897.027	0.0154888
897.105	0.0155561
897.183	0.0154636
897.261	0.0154527
897.340	0.0153615
897.418	0.0155997
897.496	0.0154344
897.574	0.0154774
897.652	0.0153663
897.730	0.0153621
897.808	0.0153423
897.886	0.0154101
897.965	0.0153978
898.043	0.0154247
898.121	0.0153761
898.199	0.0152463
898.277	0.0151435
898.355	0.0153111
898.433	0.0152647
898.511	0.0152295
898.590	0.0153471
898.668	0.0153416
898.746	0.0152380
898.824	0.0152327
898.902	0.0152563
898.980	0.0154491
899.058	0.0152855
899.136	0.0153957
899.215	0.0151273
899.293	0.0152962
899.371	0.0153997
899.449	0.0153505
899.527	0.0154070
899.605	0.0153732
899.683	0.0153201
899.761	0.0155492
899.840	0.0155053
899.918	0.0153132
899.996	0.0154677
900.074	0.0154474
900.152	0.0155373
900.230	0.0153539
900.308	0.0152505
900.386	0.0153382
900.465	0.0153957
900.543	0.0154840
900.621	0.0153926
900.699	0.0152950
900.777	0.0152943
900.855	0.0153560
900.933	0.0153176
901.011	0.0153031
901.090	0.0152814
901.168	0.0153812
901.246	0.0152538
901.324	0.0151266
901.402	0.0151909
901.480	0.0152631
901.558	0.0153111
901.636	0.0152389
901.715	0.0153306
901.793	0.0152538
901.871	0.0152068
901.949	0.0151990
902.027	0.0153490
902.105	0.0153233
902.183	0.0152902
902.261	0.0152940
902.340	0.0154074
902.418	0.0154462
902.496	0.0155825
902.574	0.0154475
902.652	0.0153695
902.730	0.0153519
902.808	0.0154626
902.886	0.0154597
902.965	0.0153526
903.043	0.0153503
903.121	0.0154536
903.199	0.0153997
903.277	0.0154858
903.355	0.0153675
903.433	0.0154156
903.511	0.0153706
903.590	0.0154466
903.668	0.0154284
903.746	0.0154917
903.824	0.0154556
903.902	0.0153073
903.980	0.0154302
904.058	0.0152923
904.136	0.0154574
904.215	0.0154968
904.293	0.0154527
904.371	0.0153175
904.449	0.0153521
904.527	0.0152866
904.605	0.0153731
904.683	0.0154138
904.761	0.0152502
904.840	0.0153175
904.918	0.0152068
904.996	0.0153082
905.074	0.0151950
905.152	0.0153346
905.230	0.0152064
905.308	0.0152876
905.386	0.0154231
905.465	0.0153566
905.543	0.0153198
905.621	0.0151712
905.699	0.0152288
905.777	0.0152773
905.855	0.0153976
905.933	0.0152579
906.011	0.0153345
906.090	0.0153680
906.168	0.0153088
906.246	0.0152599
906.324	0.0153404
906.402	0.0153686
906.480	0.0152830
906.558	0.0153199
906.636	0.0152728
906.715	0.0151501
906.793	0.0152243
906.871	0.0150854
906.949	0.0152695
907.027	0.0152942
907.105	0.0152678
907.183	0.0152524
907.261	0.0152422
907.340	0.0152291
907.418	0.0153308
907.496	0.0154284
907.574	0.0152030
907.652	0.0153833
907.730	0.0152817
907.808	0.0152382
907.886	0.0152785
907.965	0.0152211
908.043	0.0151777
908.121	0.0153425
908.199	0.0153036
908.277	0.0152161
908.355	0.0153249
908.433	0.0153786
908.511	0.0152773
908.590	0.0153637
908.668	0.0151659
908.746	0.0153424
908.824	0.0154139
908.902	0.0153568
908.980	0.0153208
909.058	0.0152763
909.136	0.0153274
909.215	0.0154630
909.293	0.0153629
909.371	0.0153284
909.449	0.0154491
909.527	0.0153629
909.605	0.0154303
909.683	0.0153777
909.761	0.0153514
909.840	0.0155262
909.918	0.0152863
909.996	0.0152611
910.074	0.0154009
910.152	0.0154705
910.230	0.0155187
910.308	0.0153796
910.386	0.0153684
910.465	0.0155148
910.543	0.0154770
910.621	0.0154121
910.699	0.0155260
910.777	0.0154440
910.855	0.0153985
910.933	0.0153359
911.011	0.0153343
911.090	0.0154486
911.168	0.0154512
911.246	0.0152644
911.324	0.0154744
911.402	0.0153400
911.480	0.0151594
911.558	0.0153399
911.636	0.0152668
911.715	0.0152848
911.793	0.0153629
911.871	0.0153422
911.949	0.0153223
912.027	0.0152507
912.105	0.0151743
912.183	0.0152654
912.261	0.0151307
912.340	0.0151958
912.418	0.0152292
912.496	0.0153320
912.574	0.0151533
912.652	0.0151324
912.730	0.0152465
912.808	0.0152248
912.886	0.0153419
912.965	0.0152335
913.043	0.0152131
913.121	0.0151472
913.199	0.0152992
913.277	0.0153202
913.355	0.0153894
913.433	0.0153587
913.511	0.0154218
913.590	0.0153726
913.668	0.0153905
913.746	0.0154948
913.824	0.0153603
913.902	0.0154282
913.980	0.0154186
914.058	0.0152922
914.136	0.0155192
914.215	0.0156013
914.293	0.0154196
914.371	0.0153037
914.449	0.0151799
914.527	0.0152396
914.605	0.0155147
914.683	0.0153886
914.761	0.0153320
914.840	0.0153550
914.918	0.0152251
914.996	0.0153647
915.074	0.0152926
915.152	0.0154292
915.230	0.0153136
915.308	0.0152281
915.386	0.0153568
915.465	0.0153574
915.543	0.0153620
915.621	0.0151890
915.699	0.0151865
915.777	0.0152080
915.855	0.0151337
915.933	0.0151890
916.011	0.0151892
916.090	0.0153484
916.168	0.0152765
916.246	0.0153136
916.324	0.0153089
916.402	0.0153236
916.480	0.0154408
916.558	0.0153925
916.636	0.0154898
916.715	0.0154781
916.793	0.0154324
916.871	0.0154362
916.949	0.0155111
917.027	0.0155803
917.105	0.0156052
917.183	0.0155429
917.261	0.0156224
917.340	0.0155019
917.418	0.0154720
917.496	0.0154269
917.574	0.0154030
917.652	0.0152220
917.730	0.0152738
917.808	0.0151163
917.886	0.0151189
917.965	0.0151520
918.043	0.0151001
918.121	0.0151601
918.199	0.0149669
918.277	0.0150350
918.355	0.0151021
918.433	0.0150777
918.511	0.0150551
918.590	0.0152308
918.668	0.0152438
918.746	0.0151708
918.824	0.0153530
918.902	0.0154808
918.980	0.0155646
919.058	0.0154049
919.136	0.0153741
919.215	0.0154790
919.293	0.0156180
919.371	0.0155480
919.449	0.0155861
919.527	0.0154713
919.605	0.0155868
919.683	0.0154996
919.761	0.0154610
919.840	0.0155507
919.918	0.0155817
919.996	0.0154820
920.074	0.0153862
920.152	0.0153767
920.230	0.0154395
920.308	0.0155353
920.386	0.0154977
920.465	0.0154327
920.543	0.0154333
920.621	0.0154852
920.699	0.0156100
920.777	0.0151318
920.855	0.0152969
920.933	0.0153682
921.011	0.0153110
921.090	0.0153851
921.168	0.0152922
921.246	0.0152520
921.324	0.0151208
921.402	0.0152655
921.480	0.0151969
921.558	0.0152096
921.636	0.0151600
921.715	0.0153023
921.793	0.0150952
921.871	0.0150969
921.949	0.0150349
922.027	0.0150018
922.105	0.0153448
922.183	0.0152443
922.261	0.0151521
922.340	0.0152847
922.418	0.0153262
922.496	0.0153657
922.574	0.0154488
922.652	0.0154405
922.730	0.0155631
922.808	0.0155438
922.886	0.0156128
922.965	0.0154808
923.043	0.0154954
923.121	0.0155162
923.199	0.0155614
923.277	0.0156045
923.355	0.0155070
923.433	0.0154078
923.511	0.0153767
923.590	0.0154756
923.668	0.0153082
923.746	0.0152448
923.824	0.0151254
923.902	0.0152296
923.980	0.0150327
924.058	0.0151601
924.136	0.0149319
924.215	0.0150047
924.293	0.0151289
924.371	0.0150079
924.449	0.0148602
924.527	0.0150653
924.605	0.0150346
924.683	0.0150954
924.761	0.0150298
924.840	0.0151555
924.918	0.0150857
924.996	0.0152653
925.074	0.0154362
925.152	0.0153424
925.230	0.0154550
925.308	0.0154678
925.386	0.0154855
925.465	0.0155908
925.543	0.0155722
925.621	0.0155315
925.699	0.0156332
925.777	0.0155497
925.855	0.0156923
925.933	0.0155142
926.011	0.0154221
926.090	0.0154261
926.168	0.0154259
926.246	0.0155505
926.324	0.0154463
926.402	0.0154260
926.480	0.0152905
926.558	0.0151885
926.636	0.0153278
926.715	0.0152838
926.793	0.0152074
926.871	0.0153175
926.949	0.0151044
927.027	0.0151519
927.105	0.0151854
927.183	0.0152682
927.261	0.0151474
927.340	0.0151501
927.418	0.0152554
927.496	0.0152985
927.574	0.0152262
927.652	0.0152991
927.730	0.0153714
927.808	0.0153949
927.886	0.0153637
927.965	0.0152690
928.043	0.0153547
928.121	0.0153357
928.199	0.0153570
928.277	0.0153848
928.355	0.0154805
928.433	0.0155063
928.511	0.0155197
928.590	0.0153835
928.668	0.0154514
928.746	0.0157314
928.824	0.0155102
928.902	0.0156098
928.980	0.0155003
929.058	0.0156939
929.136	0.0154012
929.215	0.0154234
929.293	0.0155663
929.371	0.0156212
929.449	0.0156044
929.527	0.0154142
929.605	0.0152618
929.683	0.0154167
929.761	0.0151884
929.840	0.0152393
929.918	0.0153180
929.996	0.0150488
930.074	0.0149801
930.152	0.0151039
930.230	0.0151255
930.308	0.0152065
930.386	0.0151564
930.465	0.0150344
930.543	0.0150592
930.621	0.0151091
930.699	0.0152247
930.777	0.0152081
930.855	0.0151698
930.933	0.0152477
931.011	0.0152240
931.090	0.0152368
931.168	0.0153463
931.246	0.0153981
931.324	0.0153522
931.402	0.0154368
931.480	0.0154456
931.558	0.0155088
931.636	0.0155399
931.715	0.0154666
931.793	0.0155690
931.871	0.0153872
931.949	0.0154304
932.027	0.0152576
932.105	0.0153846
932.183	0.0152792
932.261	0.0152160
932.340	0.0152113
932.418	0.0152014
932.496	0.0151897
932.574	0.0151758
932.652	0.0153129
932.730	0.0151991
932.808	0.0152027
932.886	0.0151965
932.965	0.0153116
933.043	0.0154579
933.121	0.0153593
933.199	0.0153378
933.277	0.0153387
933.355	0.0153693
933.433	0.0154571
933.511	0.0153987
933.590	0.0154807
933.668	0.0154710
933.746	0.0154421
933.824	0.0153837
933.902	0.0154772
933.980	0.0154128
934.058	0.0152612
934.136	0.0154201
934.215	0.0153471
934.293	0.0154269
934.371	0.0154545
934.449	0.0153552
934.527	0.0154311
934.605	0.0154356
934.683	0.0154437
934.761	0.0152956
934.840	0.0154732
934.918	0.0153070
934.996	0.0153928
935.074	0.0153259
935.152	0.0152906
935.230	0.0154117
935.308	0.0154394
935.386	0.0154105
935.465	0.0154478
935.543	0.0153118
935.621	0.0153295
935.699	0.0153627
935.777	0.0153532
935.855	0.0152986
935.933	0.0152476
936.011	0.0153911
936.090	0.0153249
936.168	0.0152161
936.246	0.0151902
936.324	0.0153575
936.402	0.0154176
936.480	0.0152298
936.558	0.0153548
936.636	0.0151642
936.715	0.0153246
936.793	0.0154579
936.871	0.0152637
936.949	0.0154490
937.027	0.0153156
937.105	0.0153470
937.183	0.0154132
937.261	0.0152633
937.340	0.0153062
937.418	0.0152370
937.496	0.0153218
937.574	0.0153340
937.652	0.0153094
937.730	0.0152185
937.808	0.0151105
937.886	0.0151646
937.965	0.0150410
938.043	0.0153236
938.121	0.0151615
938.199	0.0150195
938.277	0.0151704
938.355	0.0151078
938.433	0.0153121
938.511	0.0152865
938.590	0.0153707
938.668	0.0153761
938.746	0.0154861
938.824	0.0154850
938.902	0.0154480
938.980	0.0152573
939.058	0.0153551
939.136	0.0154560
939.215	0.0154575
939.293	0.0154186
939.371	0.0154063
939.449	0.0153658
939.527	0.0153245
939.605	0.0154829
939.683	0.0152551
939.761	0.0154002
939.840	0.0153675
939.918	0.0153564
939.996	0.0152001
940.074	0.0153191
940.152	0.0152521
940.230	0.0153168
940.308	0.0152161
940.386	0.0152609
940.465	0.0153255
940.543	0.0153618
940.621	0.0152462
940.699	0.0151859
940.777	0.0153579
940.855	0.0152840
940.933	0.0152750
941.011	0.0153006
941.090	0.0153220
941.168	0.0153780
941.246	0.0153829
941.324	0.0151460
941.402	0.0153212
941.480	0.0153777
941.558	0.0154091
941.636	0.0154504
941.715	0.0153643
941.793	0.0152925
941.871	0.0154636
941.949	0.0154254
942.027	0.0152989
942.105	0.0154182
942.183	0.0154556
942.261	0.0154192
942.340	0.0154347
942.418	0.0155348
942.496	0.0153609
942.574	0.0153379
942.652	0.0153846
942.730	0.0154302
942.808	0.0153744
942.886	0.0153653
942.965	0.0153359
943.043	0.0153571
943.121	0.0153815
943.199	0.0155055
943.277	0.0153990
943.355	0.0153257
943.433	0.0152686
943.511	0.0152663
943.590	0.0153535
943.668	0.0152094
943.746	0.0152647
943.824	0.0153767
943.902	0.0154311
943.980	0.0152940
944.058	0.0153564
944.136	0.0153823
944.215	0.0152865
944.293	0.0153815
944.371	0.0154105
944.449	0.0153801
944.527	0.0153326
944.605	0.0153969
944.683	0.0154170
944.761	0.0155446
944.840	0.0154637
944.918	0.0152747
944.996	0.0153669
945.074	0.0153055
945.152	0.0154109
945.230	0.0153573
945.308	0.0153387
945.386	0.0153069
945.465	0.0151586
945.543	0.0151672
945.621	0.0152325
945.699	0.0151367
945.777	0.0151795
945.855	0.0151695
945.933	0.0150975
946.011	0.0152007
946.090	0.0151087
946.168	0.0151794
946.246	0.0152328
946.324	0.0150846
946.402	0.0150214
946.480	0.0151703
946.558	0.0152187
946.636	0.0153120
946.715	0.0151871
946.793	0.0152332
946.871	0.0153687
946.949	0.0154350
947.027	0.0155444
947.105	0.0154115
947.183	0.0155119
947.261	0.0156261
947.340	0.0155804
947.418	0.0157249
947.496	0.0155806
947.574	0.0156297
947.652	0.0155190
947.730	0.0155793
947.808	0.0154228
947.886	0.0155813
947.965	0.0155112
948.043	0.0154462
948.121	0.0154203
948.199	0.0153655
948.277	0.0154131
948.355	0.0155582
948.433	0.0153704
948.511	0.0151598
948.590	0.0152837
948.668	0.0151694
948.746	0.0151653
948.824	0.0152695
948.902	0.0152003
948.980	0.0152329
949.058	0.0152871
949.136	0.0152621
949.215	0.0153205
949.293	0.0153126
949.371	0.0153067
949.449	0.0154245
949.527	0.0153963
949.605	0.0153717
949.683	0.0154198
949.761	0.0153577
949.840	0.0154212
949.918	0.0155155
