06/29/2022	21:16:28	Ver.	4.1	UNKNOWN
Optical Delay	629.995835	Delta X		0.078125	Sweeps	1	Scan Rate	0/0
Coordinates	Axis 1	NaN	Axis 2	NaN	Axis 3	NaN	Axis 4	NaN	Axis 5	NaN	Axis 6	0.000000
TX Power	0.000000	RX Power	0.000000

629.996	0.0154886
630.074	0.0155527
630.152	0.0155577
630.230	0.0154970
630.308	0.0153275
630.386	0.0155211
630.465	0.0155651
630.543	0.0154955
630.621	0.0154770
630.699	0.0154073
630.777	0.0154340
630.855	0.0154712
630.933	0.0155367
631.011	0.0155294
631.090	0.0155049
631.168	0.0155149
631.246	0.0155009
631.324	0.0155512
631.402	0.0154621
631.480	0.0154814
631.558	0.0154478
631.636	0.0154115
631.715	0.0156252
631.793	0.0154607
631.871	0.0155094
631.949	0.0154646
632.027	0.0156271
632.105	0.0154685
632.183	0.0154866
632.261	0.0154433
632.340	0.0153681
632.418	0.0154188
632.496	0.0156109
632.574	0.0154051
632.652	0.0154025
632.730	0.0153997
632.808	0.0154792
632.886	0.0154727
632.965	0.0155026
633.043	0.0154417
633.121	0.0154119
633.199	0.0155077
633.277	0.0155436
633.355	0.0153969
633.433	0.0155368
633.511	0.0155276
633.590	0.0154298
633.668	0.0156145
633.746	0.0155022
633.824	0.0153123
633.902	0.0155444
633.980	0.0155591
634.058	0.0154176
634.136	0.0154750
634.215	0.0156121
634.293	0.0154946
634.371	0.0155183
634.449	0.0154964
634.527	0.0153812
634.605	0.0154265
634.683	0.0155405
634.761	0.0155682
634.840	0.0155122
634.918	0.0156020
634.996	0.0155287
635.074	0.0153996
635.152	0.0155556
635.230	0.0154304
635.308	0.0155983
635.386	0.0155053
635.465	0.0154065
635.543	0.0154403
635.621	0.0156377
635.699	0.0154306
635.777	0.0153681
635.855	0.0153019
635.933	0.0154420
636.011	0.0153585
636.090	0.0154242
636.168	0.0154945
636.246	0.0154607
636.324	0.0154252
636.402	0.0156199
636.480	0.0153073
636.558	0.0154854
636.636	0.0154416
636.715	0.0154935
636.793	0.0155181
636.871	0.0154175
636.949	0.0153885
637.027	0.0155823
637.105	0.0154559
637.183	0.0154349
637.261	0.0154295
637.340	0.0155018
637.418	0.0154387
637.496	0.0155622
637.574	0.0154607
637.652	0.0154419
637.730	0.0154683
637.808	0.0154037
637.886	0.0154996
637.965	0.0156148
638.043	0.0155115
638.121	0.0154040
638.199	0.0155436
638.277	0.0154940
638.355	0.0154328
638.433	0.0155589
638.511	0.0155782
638.590	0.0155008
638.668	0.0156439
638.746	0.0154948
638.824	0.0155528
638.902	0.0155178
638.980	0.0154879
639.058	0.0154909
639.136	0.0155628
639.215	0.0154427
639.293	0.0154742
639.371	0.0155225
639.449	0.0153220
639.527	0.0154610
639.605	0.0155524
639.683	0.0155624
639.761	0.0155148
639.840	0.0154502
639.918	0.0155655
639.996	0.0155927
640.074	0.0156477
640.152	0.0156563
640.230	0.0154684
640.308	0.0154392
640.386	0.0155268
640.465	0.0156529
640.543	0.0154683
640.621	0.0154607
640.699	0.0154755
640.777	0.0155684
640.855	0.0153693
640.933	0.0154729
641.011	0.0155554
641.090	0.0156142
641.168	0.0156353
641.246	0.0154566
641.324	0.0154086
641.402	0.0155215
641.480	0.0154362
641.558	0.0155363
641.636	0.0154782
641.715	0.0155408
641.793	0.0155132
641.871	0.0155208
641.949	0.0156030
642.027	0.0155660
642.105	0.0155510
642.183	0.0156273
642.261	0.0155543
642.340	0.0154712
642.418	0.0154769
642.496	0.0154278
642.574	0.0155429
642.652	0.0154935
642.730	0.0154591
642.808	0.0154474
642.886	0.0155021
642.965	0.0155377
643.043	0.0154340
643.121	0.0155708
643.199	0.0156240
643.277	0.0155074
643.355	0.0154567
643.433	0.0154070
643.511	0.0154920
643.590	0.0153486
643.668	0.0156492
643.746	0.0154216
643.824	0.0154946
643.902	0.0155435
643.980	0.0155117
644.058	0.0154358
644.136	0.0154643
644.215	0.0155012
644.293	0.0155724
644.371	0.0153674
644.449	0.0155090
644.527	0.0155167
644.605	0.0155015
644.683	0.0155225
644.761	0.0156586
644.840	0.0155508
644.918	0.0154998
644.996	0.0155343
645.074	0.0155946
645.152	0.0155167
645.230	0.0154440
645.308	0.0155415
645.386	0.0153732
645.465	0.0153613
645.543	0.0155350
645.621	0.0155337
645.699	0.0154655
645.777	0.0156010
645.855	0.0156040
645.933	0.0156567
646.011	0.0155190
646.090	0.0154803
646.168	0.0154523
646.246	0.0155455
646.324	0.0154023
646.402	0.0155566
646.480	0.0155307
646.558	0.0153197
646.636	0.0154485
646.715	0.0155122
646.793	0.0154259
646.871	0.0155871
646.949	0.0154527
647.027	0.0155737
647.105	0.0153732
647.183	0.0154166
647.261	0.0155283
647.340	0.0154155
647.418	0.0153887
647.496	0.0156525
647.574	0.0155932
647.652	0.0155021
647.730	0.0155386
647.808	0.0154565
647.886	0.0154471
647.965	0.0155106
648.043	0.0154561
648.121	0.0154309
648.199	0.0154860
648.277	0.0155141
648.355	0.0153685
648.433	0.0155262
648.511	0.0155251
648.590	0.0154489
648.668	0.0155855
648.746	0.0154823
648.824	0.0154135
648.902	0.0154633
648.980	0.0153745
649.058	0.0154347
649.136	0.0155614
649.215	0.0154435
649.293	0.0154427
649.371	0.0155397
649.449	0.0154953
649.527	0.0156328
649.605	0.0155445
649.683	0.0154465
649.761	0.0154839
649.840	0.0155343
649.918	0.0155565
649.996	0.0155150
650.074	0.0154424
650.152	0.0154393
650.230	0.0155962
650.308	0.0154535
650.386	0.0155993
650.465	0.0153961
650.543	0.0153386
650.621	0.0154555
650.699	0.0155032
650.777	0.0155981
650.855	0.0154819
650.933	0.0154578
651.011	0.0155542
651.090	0.0154193
651.168	0.0153393
651.246	0.0154784
651.324	0.0154081
651.402	0.0154490
651.480	0.0155443
651.558	0.0154501
651.636	0.0154660
651.715	0.0153858
651.793	0.0155043
651.871	0.0154237
651.949	0.0153460
652.027	0.0154547
652.105	0.0154619
652.183	0.0153340
652.261	0.0154121
652.340	0.0154500
652.418	0.0154861
652.496	0.0154662
652.574	0.0155172
652.652	0.0153803
652.730	0.0153845
652.808	0.0154322
652.886	0.0155564
652.965	0.0155666
653.043	0.0155064
653.121	0.0154401
653.199	0.0155447
653.277	0.0153745
653.355	0.0154819
653.433	0.0154227
653.511	0.0153986
653.590	0.0154723
653.668	0.0156387
653.746	0.0154797
653.824	0.0153872
653.902	0.0154996
653.980	0.0155023
654.058	0.0154501
654.136	0.0155869
654.215	0.0156053
654.293	0.0155371
654.371	0.0153513
654.449	0.0155967
654.527	0.0155132
654.605	0.0154494
654.683	0.0154861
654.761	0.0154468
654.840	0.0154700
654.918	0.0156059
654.996	0.0153938
655.074	0.0154942
655.152	0.0156055
655.230	0.0155107
655.308	0.0155476
655.386	0.0154111
655.465	0.0154450
655.543	0.0155602
655.621	0.0154676
655.699	0.0155119
655.777	0.0154436
655.855	0.0154882
655.933	0.0156130
656.011	0.0155054
656.090	0.0155122
656.168	0.0154800
656.246	0.0156773
656.324	0.0154984
656.402	0.0155225
656.480	0.0155570
656.558	0.0154095
656.636	0.0155576
656.715	0.0155229
656.793	0.0153692
656.871	0.0154246
656.949	0.0155086
657.027	0.0154316
657.105	0.0154623
657.183	0.0154768
657.261	0.0153886
657.340	0.0153078
657.418	0.0155220
657.496	0.0154990
657.574	0.0154192
657.652	0.0155332
657.730	0.0154528
657.808	0.0153922
657.886	0.0154794
657.965	0.0153346
658.043	0.0153488
658.121	0.0155488
658.199	0.0154628
658.277	0.0155015
658.355	0.0154806
658.433	0.0154646
658.511	0.0154208
658.590	0.0155687
658.668	0.0154642
658.746	0.0154984
658.824	0.0155617
658.902	0.0154687
658.980	0.0154520
659.058	0.0155129
659.136	0.0155534
659.215	0.0156066
659.293	0.0154334
659.371	0.0154922
659.449	0.0154969
659.527	0.0154958
659.605	0.0154026
659.683	0.0155349
659.761	0.0154882
659.840	0.0154298
659.918	0.0155279
659.996	0.0155206
660.074	0.0153569
660.152	0.0155083
660.230	0.0155416
660.308	0.0155621
660.386	0.0154794
660.465	0.0154641
660.543	0.0154671
660.621	0.0154108
660.699	0.0154919
660.777	0.0156526
660.855	0.0152930
660.933	0.0155270
661.011	0.0154597
661.090	0.0153926
661.168	0.0155118
661.246	0.0154043
661.324	0.0154740
661.402	0.0155113
661.480	0.0154128
661.558	0.0154273
661.636	0.0155106
661.715	0.0153667
661.793	0.0154188
661.871	0.0154202
661.949	0.0155698
662.027	0.0155042
662.105	0.0153767
662.183	0.0153377
662.261	0.0154455
662.340	0.0154502
662.418	0.0154912
662.496	0.0154958
662.574	0.0154266
662.652	0.0153509
662.730	0.0155228
662.808	0.0152660
662.886	0.0154225
662.965	0.0154457
663.043	0.0154088
663.121	0.0154208
663.199	0.0154520
663.277	0.0155766
663.355	0.0154166
663.433	0.0154756
663.511	0.0154069
663.590	0.0154888
663.668	0.0154934
663.746	0.0153787
663.824	0.0155109
663.902	0.0154668
663.980	0.0154861
664.058	0.0154581
664.136	0.0153689
664.215	0.0154076
664.293	0.0155864
664.371	0.0155215
664.449	0.0154614
664.527	0.0155750
664.605	0.0153799
664.683	0.0153108
664.761	0.0152823
664.840	0.0155058
664.918	0.0155096
664.996	0.0154785
665.074	0.0154803
665.152	0.0154669
665.230	0.0155634
665.308	0.0155794
665.386	0.0154742
665.465	0.0153866
665.543	0.0154707
665.621	0.0152917
665.699	0.0154786
665.777	0.0154816
665.855	0.0155142
665.933	0.0154449
666.011	0.0154985
666.090	0.0155579
666.168	0.0155604
666.246	0.0154406
666.324	0.0154912
666.402	0.0154210
666.480	0.0153334
666.558	0.0153296
666.636	0.0154501
666.715	0.0154518
666.793	0.0153883
666.871	0.0154267
666.949	0.0153973
667.027	0.0155765
667.105	0.0154575
667.183	0.0154871
667.261	0.0156306
667.340	0.0156078
667.418	0.0153504
667.496	0.0154517
667.574	0.0153389
667.652	0.0153786
667.730	0.0153690
667.808	0.0156338
667.886	0.0154900
667.965	0.0153183
668.043	0.0154820
668.121	0.0156473
668.199	0.0155341
668.277	0.0152941
668.355	0.0154496
668.433	0.0155226
668.511	0.0155153
668.590	0.0153996
668.668	0.0154745
668.746	0.0156110
668.824	0.0155083
668.902	0.0153356
668.980	0.0155220
669.058	0.0155824
669.136	0.0155460
669.215	0.0155014
669.293	0.0154137
669.371	0.0156062
669.449	0.0155151
669.527	0.0154553
669.605	0.0153531
669.683	0.0154509
669.761	0.0156270
669.840	0.0154301
669.918	0.0154536
669.996	0.0154099
670.074	0.0154291
670.152	0.0154419
670.230	0.0154548
670.308	0.0154378
670.386	0.0155589
670.465	0.0155256
670.543	0.0155441
670.621	0.0153885
670.699	0.0155233
670.777	0.0154430
670.855	0.0154608
670.933	0.0154836
671.011	0.0152977
671.090	0.0155770
671.168	0.0155654
671.246	0.0154342
671.324	0.0154779
671.402	0.0154650
671.480	0.0155399
671.558	0.0154992
671.636	0.0154478
671.715	0.0154672
671.793	0.0154972
671.871	0.0155487
671.949	0.0155330
672.027	0.0154147
672.105	0.0153929
672.183	0.0154730
672.261	0.0154705
672.340	0.0154536
672.418	0.0154058
672.496	0.0154340
672.574	0.0153610
672.652	0.0154450
672.730	0.0154946
672.808	0.0154755
672.886	0.0154462
672.965	0.0154248
673.043	0.0154337
673.121	0.0154875
673.199	0.0154774
673.277	0.0153837
673.355	0.0154723
673.433	0.0155394
673.511	0.0155411
673.590	0.0155487
673.668	0.0153178
673.746	0.0154520
673.824	0.0154271
673.902	0.0155895
673.980	0.0156436
674.058	0.0152806
674.136	0.0153232
674.215	0.0155181
674.293	0.0155753
674.371	0.0154269
674.449	0.0154211
674.527	0.0153842
674.605	0.0155343
674.683	0.0155090
674.761	0.0154736
674.840	0.0153976
674.918	0.0154330
674.996	0.0156321
675.074	0.0154002
675.152	0.0154754
675.230	0.0154262
675.308	0.0155269
675.386	0.0155377
675.465	0.0155383
675.543	0.0155352
675.621	0.0154994
675.699	0.0154388
675.777	0.0154078
675.855	0.0155041
675.933	0.0154214
676.011	0.0155765
676.090	0.0155863
676.168	0.0154680
676.246	0.0155833
676.324	0.0154581
676.402	0.0154898
676.480	0.0155295
676.558	0.0154891
676.636	0.0156171
676.715	0.0153420
676.793	0.0154487
676.871	0.0154211
676.949	0.0153929
677.027	0.0155637
677.105	0.0154806
677.183	0.0154645
677.261	0.0154488
677.340	0.0155550
677.418	0.0154633
677.496	0.0154482
677.574	0.0155141
677.652	0.0155506
677.730	0.0157066
677.808	0.0155687
677.886	0.0154982
677.965	0.0155685
678.043	0.0154957
678.121	0.0154596
678.199	0.0154774
678.277	0.0155955
678.355	0.0154742
678.433	0.0154810
678.511	0.0154638
678.590	0.0154533
678.668	0.0155570
678.746	0.0155061
678.824	0.0156490
678.902	0.0153961
678.980	0.0154035
679.058	0.0154796
679.136	0.0155255
679.215	0.0156937
679.293	0.0155298
679.371	0.0153756
679.449	0.0154373
679.527	0.0155620
679.605	0.0155602
679.683	0.0156036
679.761	0.0154317
679.840	0.0153797
679.918	0.0154918
679.996	0.0156097
680.074	0.0155189
680.152	0.0154178
680.230	0.0154352
680.308	0.0155318
680.386	0.0154350
680.465	0.0154597
680.543	0.0154884
680.621	0.0153316
680.699	0.0153152
680.777	0.0155331
680.855	0.0155328
680.933	0.0154890
681.011	0.0154188
681.090	0.0155330
681.168	0.0155071
681.246	0.0154658
681.324	0.0155713
681.402	0.0155487
681.480	0.0155576
681.558	0.0155603
681.636	0.0156057
681.715	0.0156155
681.793	0.0155271
681.871	0.0155653
681.949	0.0154862
682.027	0.0156133
682.105	0.0155004
682.183	0.0156477
682.261	0.0155299
682.340	0.0155530
682.418	0.0155402
682.496	0.0156178
682.574	0.0155836
682.652	0.0154702
682.730	0.0155428
682.808	0.0155334
682.886	0.0155235
682.965	0.0155032
683.043	0.0153996
683.121	0.0154544
683.199	0.0155270
683.277	0.0154166
683.355	0.0156232
683.433	0.0154519
683.511	0.0155310
683.590	0.0153346
683.668	0.0153250
683.746	0.0156303
683.824	0.0155424
683.902	0.0154405
683.980	0.0154910
684.058	0.0156470
684.136	0.0154366
684.215	0.0155420
684.293	0.0155664
684.371	0.0153944
684.449	0.0155573
684.527	0.0155069
684.605	0.0155092
684.683	0.0154972
684.761	0.0156006
684.840	0.0155965
684.918	0.0154402
684.996	0.0154221
685.074	0.0154987
685.152	0.0155981
685.230	0.0155130
685.308	0.0155882
685.386	0.0155959
685.465	0.0156684
685.543	0.0155713
685.621	0.0154172
685.699	0.0154176
685.777	0.0155699
685.855	0.0155511
685.933	0.0154021
686.011	0.0154644
686.090	0.0154738
686.168	0.0155630
686.246	0.0154750
686.324	0.0155189
686.402	0.0154945
686.480	0.0154770
686.558	0.0155119
686.636	0.0155389
686.715	0.0154697
686.793	0.0155166
686.871	0.0155208
686.949	0.0155647
687.027	0.0152734
687.105	0.0154933
687.183	0.0156337
687.261	0.0154548
687.340	0.0154477
687.418	0.0154370
687.496	0.0154970
687.574	0.0154313
687.652	0.0154639
687.730	0.0155600
687.808	0.0154581
687.886	0.0154742
687.965	0.0154806
688.043	0.0154420
688.121	0.0154156
688.199	0.0154775
688.277	0.0155569
688.355	0.0154250
688.433	0.0155360
688.511	0.0154984
688.590	0.0154128
688.668	0.0153122
688.746	0.0153659
688.824	0.0154659
688.902	0.0155016
688.980	0.0154895
689.058	0.0155055
689.136	0.0155044
689.215	0.0154935
689.293	0.0154215
689.371	0.0154909
689.449	0.0154450
689.527	0.0154287
689.605	0.0155205
689.683	0.0154445
689.761	0.0154852
689.840	0.0155761
689.918	0.0154717
689.996	0.0154823
690.074	0.0154494
690.152	0.0154661
690.230	0.0155689
690.308	0.0154802
690.386	0.0153494
690.465	0.0154781
690.543	0.0155132
690.621	0.0154177
690.699	0.0154592
690.777	0.0155757
690.855	0.0154884
690.933	0.0153805
691.011	0.0154849
691.090	0.0155586
691.168	0.0154998
691.246	0.0154021
691.324	0.0154227
691.402	0.0155640
691.480	0.0154965
691.558	0.0155183
691.636	0.0153606
691.715	0.0154262
691.793	0.0155304
691.871	0.0155518
691.949	0.0154896
692.027	0.0154903
692.105	0.0153201
692.183	0.0154279
692.261	0.0154246
692.340	0.0154379
692.418	0.0153898
692.496	0.0154643
692.574	0.0154325
692.652	0.0155236
692.730	0.0154420
692.808	0.0155588
692.886	0.0154976
692.965	0.0155644
693.043	0.0154771
693.121	0.0152387
693.199	0.0154736
693.277	0.0153333
693.355	0.0153872
693.433	0.0154889
693.511	0.0154218
693.590	0.0153695
693.668	0.0154036
693.746	0.0154871
693.824	0.0154392
693.902	0.0153876
693.980	0.0154713
694.058	0.0154617
694.136	0.0154539
694.215	0.0155439
694.293	0.0154427
694.371	0.0154807
694.449	0.0154627
694.527	0.0155074
694.605	0.0154561
694.683	0.0154932
694.761	0.0154828
694.840	0.0156960
694.918	0.0155102
694.996	0.0155228
695.074	0.0154345
695.152	0.0155123
695.230	0.0154517
695.308	0.0154545
695.386	0.0155028
695.465	0.0153866
695.543	0.0154399
695.621	0.0154729
695.699	0.0154890
695.777	0.0155709
695.855	0.0154981
695.933	0.0155289
696.011	0.0154503
696.090	0.0155707
696.168	0.0155720
696.246	0.0155497
696.324	0.0155589
696.402	0.0155304
696.480	0.0154912
696.558	0.0154888
696.636	0.0153931
696.715	0.0153821
696.793	0.0155055
696.871	0.0154485
696.949	0.0156113
697.027	0.0154636
697.105	0.0154953
697.183	0.0154660
697.261	0.0153517
697.340	0.0154515
697.418	0.0156104
697.496	0.0154586
697.574	0.0154672
697.652	0.0154990
697.730	0.0154813
697.808	0.0155330
697.886	0.0154564
697.965	0.0154298
698.043	0.0155093
698.121	0.0154977
698.199	0.0153934
698.277	0.0154182
698.355	0.0154065
698.433	0.0153809
698.511	0.0153077
698.590	0.0153747
698.668	0.0154550
698.746	0.0155317
698.824	0.0155364
698.902	0.0154439
698.980	0.0155591
699.058	0.0156552
699.136	0.0154650
699.215	0.0153383
699.293	0.0153409
699.371	0.0152923
699.449	0.0154125
699.527	0.0154834
699.605	0.0155264
699.683	0.0154932
699.761	0.0154671
699.840	0.0154887
699.918	0.0154688
699.996	0.0156041
700.074	0.0158024
700.152	0.0156215
700.230	0.0156150
700.308	0.0156107
700.386	0.0155702
700.465	0.0154756
700.543	0.0153796
700.621	0.0153600
700.699	0.0153156
700.777	0.0152144
700.855	0.0153085
700.933	0.0154161
701.011	0.0155815
701.090	0.0155719
701.168	0.0154173
701.246	0.0154671
701.324	0.0156142
701.402	0.0155119
701.480	0.0154427
701.558	0.0154562
701.636	0.0157425
701.715	0.0154969
701.793	0.0154588
701.871	0.0155399
701.949	0.0154829
702.027	0.0156631
702.105	0.0156635
702.183	0.0155859
702.261	0.0154897
702.340	0.0154459
702.418	0.0154056
702.496	0.0154339
702.574	0.0153204
702.652	0.0154478
702.730	0.0154543
702.808	0.0154800
702.886	0.0153075
702.965	0.0155692
703.043	0.0157341
703.121	0.0156652
703.199	0.0156841
703.277	0.0156061
703.355	0.0155247
703.433	0.0155102
703.511	0.0154255
703.590	0.0152754
703.668	0.0153765
703.746	0.0155362
703.824	0.0154665
703.902	0.0155389
703.980	0.0157828
704.058	0.0156200
704.136	0.0156554
704.215	0.0157493
704.293	0.0156644
704.371	0.0158307
704.449	0.0156879
704.527	0.0156820
704.605	0.0155898
704.683	0.0155995
704.761	0.0156615
704.840	0.0156368
704.918	0.0155814
704.996	0.0154144
705.074	0.0156374
705.152	0.0155316
705.230	0.0155431
705.308	0.0154073
705.386	0.0154129
705.465	0.0155072
705.543	0.0155287
705.621	0.0156355
705.699	0.0155162
705.777	0.0156010
705.855	0.0155551
705.933	0.0157227
706.011	0.0155956
706.090	0.0155671
706.168	0.0155890
706.246	0.0155475
706.324	0.0154440
706.402	0.0154266
706.480	0.0152922
706.558	0.0153329
706.636	0.0154323
706.715	0.0154939
706.793	0.0154203
706.871	0.0153979
706.949	0.0155180
707.027	0.0155630
707.105	0.0156103
707.183	0.0156438
707.261	0.0156161
707.340	0.0156350
707.418	0.0154279
707.496	0.0154229
707.574	0.0154829
707.652	0.0153445
707.730	0.0153597
707.808	0.0155195
707.886	0.0154953
707.965	0.0154319
708.043	0.0156432
708.121	0.0156716
708.199	0.0157607
708.277	0.0158060
708.355	0.0158838
708.433	0.0159840
708.511	0.0159823
708.590	0.0159756
708.668	0.0158259
708.746	0.0157641
708.824	0.0157551
708.902	0.0156171
708.980	0.0155297
709.058	0.0154990
709.136	0.0151251
709.215	0.0151599
709.293	0.0150731
709.371	0.0150898
709.449	0.0150092
709.527	0.0151493
709.605	0.0150368
709.683	0.0150826
709.761	0.0150536
709.840	0.0151406
709.918	0.0151936
709.996	0.0154179
710.074	0.0153380
710.152	0.0154680
710.230	0.0155431
710.308	0.0156143
710.386	0.0155530
710.465	0.0155961
710.543	0.0155715
710.621	0.0154631
710.699	0.0155206
710.777	0.0154667
710.855	0.0153326
710.933	0.0152154
711.011	0.0153169
711.090	0.0151992
711.168	0.0153721
711.246	0.0154905
711.324	0.0155595
711.402	0.0155335
711.480	0.0156439
711.558	0.0156715
711.636	0.0155751
711.715	0.0156415
711.793	0.0158271
711.871	0.0157843
711.949	0.0157382
712.027	0.0156995
712.105	0.0157326
712.183	0.0155965
712.261	0.0156596
712.340	0.0156577
712.418	0.0155923
712.496	0.0156544
712.574	0.0156464
712.652	0.0157013
712.730	0.0157400
712.808	0.0156928
712.886	0.0156670
712.965	0.0157246
713.043	0.0156960
713.121	0.0157040
713.199	0.0157266
713.277	0.0158256
713.355	0.0157038
713.433	0.0156364
713.511	0.0157239
713.590	0.0156201
713.668	0.0154498
713.746	0.0155496
713.824	0.0156301
713.902	0.0154037
713.980	0.0153638
714.058	0.0151553
714.136	0.0150762
714.215	0.0151395
714.293	0.0150726
714.371	0.0149634
714.449	0.0151173
714.527	0.0151346
714.605	0.0152348
714.683	0.0154828
714.761	0.0155279
714.840	0.0154552
714.918	0.0155101
714.996	0.0155721
715.074	0.0155102
715.152	0.0154112
715.230	0.0153958
715.308	0.0153277
715.386	0.0150082
715.465	0.0148872
715.543	0.0147260
715.621	0.0145564
715.699	0.0144910
715.777	0.0146297
715.855	0.0143740
715.933	0.0147302
716.011	0.0148507
716.090	0.0150573
716.168	0.0151714
716.246	0.0152644
716.324	0.0154647
716.402	0.0158447
716.480	0.0159027
716.558	0.0160855
716.636	0.0163290
716.715	0.0162391
716.793	0.0162003
716.871	0.0165121
716.949	0.0165449
717.027	0.0164349
717.105	0.0163010
717.183	0.0164565
717.261	0.0163725
717.340	0.0163103
717.418	0.0162297
717.496	0.0160886
717.574	0.0160455
717.652	0.0160913
717.730	0.0159373
717.808	0.0159919
717.886	0.0161251
717.965	0.0161473
718.043	0.0158741
718.121	0.0157953
718.199	0.0158884
718.277	0.0158128
718.355	0.0157908
718.433	0.0156213
718.511	0.0154727
718.590	0.0154300
718.668	0.0154470
718.746	0.0153190
718.824	0.0152605
718.902	0.0151931
718.980	0.0151848
719.058	0.0151879
719.136	0.0151073
719.215	0.0150310
719.293	0.0149092
719.371	0.0148348
719.449	0.0149831
719.527	0.0150008
719.605	0.0150106
719.683	0.0149976
719.761	0.0150051
719.840	0.0150062
719.918	0.0149903
719.996	0.0149539
720.074	0.0148927
720.152	0.0148453
720.230	0.0149297
720.308	0.0148612
720.386	0.0148441
720.465	0.0147827
720.543	0.0146601
720.621	0.0146195
720.699	0.0148806
720.777	0.0147495
720.855	0.0148437
720.933	0.0146351
721.011	0.0146634
721.090	0.0148087
721.168	0.0147370
721.246	0.0147292
721.324	0.0145829
721.402	0.0146042
721.480	0.0146323
721.558	0.0147731
721.636	0.0148038
721.715	0.0149248
721.793	0.0150548
721.871	0.0153023
721.949	0.0152686
722.027	0.0154485
722.105	0.0157024
722.183	0.0159688
722.261	0.0162663
722.340	0.0164487
722.418	0.0166749
722.496	0.0169218
722.574	0.0169260
722.652	0.0171803
722.730	0.0173140
722.808	0.0174259
722.886	0.0174625
722.965	0.0176389
723.043	0.0175952
723.121	0.0173690
723.199	0.0174140
723.277	0.0172752
723.355	0.0171545
723.433	0.0169303
723.511	0.0167393
723.590	0.0164526
723.668	0.0160973
723.746	0.0159030
723.824	0.0157060
723.902	0.0154627
723.980	0.0152524
724.058	0.0152190
724.136	0.0152493
724.215	0.0151833
724.293	0.0150803
724.371	0.0151780
724.449	0.0153758
724.527	0.0153963
724.605	0.0155299
724.683	0.0157207
724.761	0.0155819
724.840	0.0155562
724.918	0.0155131
724.996	0.0153117
725.074	0.0151825
725.152	0.0148433
725.230	0.0144485
725.308	0.0142443
725.386	0.0140180
725.465	0.0136586
725.543	0.0134271
725.621	0.0133026
725.699	0.0128919
725.777	0.0127458
725.855	0.0126625
725.933	0.0126806
726.011	0.0127369
726.090	0.0127896
726.168	0.0129055
726.246	0.0133552
726.324	0.0135484
726.402	0.0138951
726.480	0.0140353
726.558	0.0144856
726.636	0.0147513
726.715	0.0150871
726.793	0.0154102
726.871	0.0154704
726.949	0.0158242
727.027	0.0159550
727.105	0.0161474
727.183	0.0163269
727.261	0.0164120
727.340	0.0165211
727.418	0.0165312
727.496	0.0166756
727.574	0.0167982
727.652	0.0168180
727.730	0.0169566
727.808	0.0168616
727.886	0.0169342
727.965	0.0169988
728.043	0.0170248
728.121	0.0170185
728.199	0.0171619
728.277	0.0171214
728.355	0.0170961
728.433	0.0172421
728.511	0.0173327
728.590	0.0171293
728.668	0.0172399
728.746	0.0170673
728.824	0.0171699
728.902	0.0171576
728.980	0.0171324
729.058	0.0171159
729.136	0.0168635
729.215	0.0168467
729.293	0.0167322
729.371	0.0166354
729.449	0.0165113
729.527	0.0162216
729.605	0.0161694
729.683	0.0159698
729.761	0.0158636
729.840	0.0157076
729.918	0.0155724
729.996	0.0154579
730.074	0.0153137
730.152	0.0153014
730.230	0.0151284
730.308	0.0151826
730.386	0.0152619
730.465	0.0152096
730.543	0.0152180
730.621	0.0151814
730.699	0.0150723
730.777	0.0149709
730.855	0.0149303
730.933	0.0148556
731.011	0.0146884
731.090	0.0144833
731.168	0.0141354
731.246	0.0140170
731.324	0.0136802
731.402	0.0134693
731.480	0.0132034
731.558	0.0129852
731.636	0.0127358
731.715	0.0127258
731.793	0.0125481
731.871	0.0123593
731.949	0.0124276
732.027	0.0123537
732.105	0.0122622
732.183	0.0123309
732.261	0.0123807
732.340	0.0126922
732.418	0.0130465
732.496	0.0131983
732.574	0.0136884
732.652	0.0140318
732.730	0.0144936
732.808	0.0149902
732.886	0.0155692
732.965	0.0160248
733.043	0.0163681
733.121	0.0168891
733.199	0.0173817
733.277	0.0175930
733.355	0.0179092
733.433	0.0182051
733.511	0.0183568
733.590	0.0185059
733.668	0.0186718
733.746	0.0187483
733.824	0.0186858
733.902	0.0186546
733.980	0.0186858
734.058	0.0184927
734.136	0.0183360
734.215	0.0181277
734.293	0.0180975
734.371	0.0177308
734.449	0.0174800
734.527	0.0173248
734.605	0.0169763
734.683	0.0166590
734.761	0.0164963
734.840	0.0162605
734.918	0.0160239
734.996	0.0158367
735.074	0.0156340
735.152	0.0156145
735.230	0.0153943
735.308	0.0151482
735.386	0.0151647
735.465	0.0149657
735.543	0.0151495
735.621	0.0150689
735.699	0.0150479
735.777	0.0150797
735.855	0.0151972
735.933	0.0151946
736.011	0.0150544
736.090	0.0153274
736.168	0.0152900
736.246	0.0151624
736.324	0.0151998
736.402	0.0153309
736.480	0.0150932
736.558	0.0151855
736.636	0.0149415
736.715	0.0148705
736.793	0.0148279
736.871	0.0147582
736.949	0.0148000
737.027	0.0145394
737.105	0.0143798
737.183	0.0144450
737.261	0.0142980
737.340	0.0141834
737.418	0.0139853
737.496	0.0137661
737.574	0.0134791
737.652	0.0135334
737.730	0.0134531
737.808	0.0131805
737.886	0.0131625
737.965	0.0131909
738.043	0.0131030
738.121	0.0129008
738.199	0.0131176
738.277	0.0129877
738.355	0.0131145
738.433	0.0133073
738.511	0.0134669
738.590	0.0137597
738.668	0.0140849
738.746	0.0144095
738.824	0.0149050
738.902	0.0154646
738.980	0.0158915
739.058	0.0163139
739.136	0.0168800
739.215	0.0173676
739.293	0.0178603
739.371	0.0182278
739.449	0.0186797
739.527	0.0188401
739.605	0.0190834
739.683	0.0191531
739.761	0.0191446
739.840	0.0191505
739.918	0.0188661
739.996	0.0186663
740.074	0.0184286
740.152	0.0179749
740.230	0.0175695
740.308	0.0170828
740.386	0.0167557
740.465	0.0162559
740.543	0.0158492
740.621	0.0155309
740.699	0.0153120
740.777	0.0149938
740.855	0.0146755
740.933	0.0147626
741.011	0.0146178
741.090	0.0146590
741.168	0.0146432
741.246	0.0148056
741.324	0.0150138
741.402	0.0151018
741.480	0.0151034
741.558	0.0151846
741.636	0.0153242
741.715	0.0154144
741.793	0.0155269
741.871	0.0154552
741.949	0.0156886
742.027	0.0154970
742.105	0.0152750
742.183	0.0153902
742.261	0.0152898
742.340	0.0151313
742.418	0.0149078
742.496	0.0150191
742.574	0.0147215
742.652	0.0146401
742.730	0.0144927
742.808	0.0143598
742.886	0.0144427
742.965	0.0143830
743.043	0.0144279
743.121	0.0143161
743.199	0.0143475
743.277	0.0143610
743.355	0.0144576
743.433	0.0145197
743.511	0.0145221
743.590	0.0144913
743.668	0.0145210
743.746	0.0146799
743.824	0.0145727
743.902	0.0146970
743.980	0.0148466
744.058	0.0148674
744.136	0.0150114
744.215	0.0152350
744.293	0.0153812
744.371	0.0155302
744.449	0.0159175
744.527	0.0160790
744.605	0.0161907
744.683	0.0164344
744.761	0.0166490
744.840	0.0169403
744.918	0.0168878
744.996	0.0170502
745.074	0.0169833
745.152	0.0169621
745.230	0.0169181
745.308	0.0168545
745.386	0.0166529
745.465	0.0164682
745.543	0.0162486
745.621	0.0160284
745.699	0.0157451
745.777	0.0154720
745.855	0.0151818
745.933	0.0149053
746.011	0.0147282
746.090	0.0144903
746.168	0.0145758
746.246	0.0144654
746.324	0.0144286
746.402	0.0145736
746.480	0.0148714
746.558	0.0150027
746.636	0.0152257
746.715	0.0154188
746.793	0.0155826
746.871	0.0157153
746.949	0.0158389
747.027	0.0160641
747.105	0.0159996
747.183	0.0160631
747.261	0.0159824
747.340	0.0160609
747.418	0.0159992
747.496	0.0159869
747.574	0.0158569
747.652	0.0156477
747.730	0.0155453
747.808	0.0154646
747.886	0.0154214
747.965	0.0153408
748.043	0.0150753
748.121	0.0152614
748.199	0.0151268
748.277	0.0153016
748.355	0.0153969
748.433	0.0156171
748.511	0.0155956
748.590	0.0156787
748.668	0.0156133
748.746	0.0157613
748.824	0.0158250
748.902	0.0159211
748.980	0.0157175
749.058	0.0157593
749.136	0.0156158
749.215	0.0155171
749.293	0.0153191
749.371	0.0152764
749.449	0.0149481
749.527	0.0149089
749.605	0.0148762
749.683	0.0148903
749.761	0.0147219
749.840	0.0147729
749.918	0.0148631
749.996	0.0149287
750.074	0.0151012
750.152	0.0154208
750.230	0.0156234
750.308	0.0157771
750.386	0.0160574
750.465	0.0162025
750.543	0.0163333
750.621	0.0166078
750.699	0.0165877
750.777	0.0165749
750.855	0.0165794
750.933	0.0163697
751.011	0.0161405
751.090	0.0161472
751.168	0.0157962
751.246	0.0155404
751.324	0.0154887
751.402	0.0150675
751.480	0.0149583
751.558	0.0149203
751.636	0.0148263
751.715	0.0145325
751.793	0.0144601
751.871	0.0143873
751.949	0.0144972
752.027	0.0144342
752.105	0.0145271
752.183	0.0147363
752.261	0.0149498
752.340	0.0150711
752.418	0.0151179
752.496	0.0153195
752.574	0.0156197
752.652	0.0158709
752.730	0.0159037
752.808	0.0161658
752.886	0.0163579
752.965	0.0164816
753.043	0.0164684
753.121	0.0163975
753.199	0.0162354
753.277	0.0162001
753.355	0.0159808
753.433	0.0157794
753.511	0.0156539
753.590	0.0153188
753.668	0.0150607
753.746	0.0151016
753.824	0.0148773
753.902	0.0146627
753.980	0.0146581
754.058	0.0145110
754.136	0.0145492
754.215	0.0145125
754.293	0.0145084
754.371	0.0147707
754.449	0.0148503
754.527	0.0150472
754.605	0.0152463
754.683	0.0154147
754.761	0.0156673
754.840	0.0158213
754.918	0.0160088
754.996	0.0160709
755.074	0.0161288
755.152	0.0162554
755.230	0.0162959
755.308	0.0163699
755.386	0.0165415
755.465	0.0163025
755.543	0.0162476
755.621	0.0161501
755.699	0.0161147
755.777	0.0159807
755.855	0.0158507
755.933	0.0156899
756.011	0.0156927
756.090	0.0154987
756.168	0.0156446
756.246	0.0154213
756.324	0.0152878
756.402	0.0152439
756.480	0.0151424
756.558	0.0151185
756.636	0.0151302
756.715	0.0151456
756.793	0.0150886
756.871	0.0152082
756.949	0.0150964
757.027	0.0148611
757.105	0.0150233
757.183	0.0151424
757.261	0.0150546
757.340	0.0152690
757.418	0.0152680
757.496	0.0152213
757.574	0.0154310
757.652	0.0154206
757.730	0.0155701
757.808	0.0155207
757.886	0.0157629
757.965	0.0159486
758.043	0.0159969
758.121	0.0160511
758.199	0.0159827
758.277	0.0159898
758.355	0.0158524
758.433	0.0161047
758.511	0.0161847
758.590	0.0158813
758.668	0.0158272
758.746	0.0158002
758.824	0.0156165
758.902	0.0155768
758.980	0.0155899
759.058	0.0153742
759.136	0.0154648
759.215	0.0153458
759.293	0.0153191
759.371	0.0152811
759.449	0.0151746
759.527	0.0151430
759.605	0.0151438
759.683	0.0150736
759.761	0.0150127
759.840	0.0149702
759.918	0.0150673
759.996	0.0149783
760.074	0.0148865
760.152	0.0149702
760.230	0.0151530
760.308	0.0152184
760.386	0.0151711
760.465	0.0151692
760.543	0.0153361
760.621	0.0154138
760.699	0.0153992
760.777	0.0154544
760.855	0.0154726
760.933	0.0155674
761.011	0.0156120
761.090	0.0155933
761.168	0.0155532
761.246	0.0155389
761.324	0.0156480
761.402	0.0155796
761.480	0.0156134
761.558	0.0156208
761.636	0.0156390
761.715	0.0156336
761.793	0.0155689
761.871	0.0155914
761.949	0.0155097
762.027	0.0154412
762.105	0.0153319
762.183	0.0154263
762.261	0.0153411
762.340	0.0152913
762.418	0.0151634
762.496	0.0151620
762.574	0.0150745
762.652	0.0149577
762.730	0.0149272
762.808	0.0148436
762.886	0.0150228
762.965	0.0148878
763.043	0.0151540
763.121	0.0152269
763.199	0.0153641
763.277	0.0154009
763.355	0.0155084
763.433	0.0156893
763.511	0.0158632
763.590	0.0160346
763.668	0.0161842
763.746	0.0162770
763.824	0.0164033
763.902	0.0163039
763.980	0.0164626
764.058	0.0163931
764.136	0.0163542
764.215	0.0162960
764.293	0.0162153
764.371	0.0161028
764.449	0.0159061
764.527	0.0157734
764.605	0.0157011
764.683	0.0155310
764.761	0.0152376
764.840	0.0152151
764.918	0.0150181
764.996	0.0148804
765.074	0.0146483
765.152	0.0147760
765.230	0.0147925
765.308	0.0147517
765.386	0.0147071
765.465	0.0146764
765.543	0.0148480
765.621	0.0149176
765.699	0.0150028
765.777	0.0151759
765.855	0.0152764
765.933	0.0155460
766.011	0.0159022
766.090	0.0158122
766.168	0.0160229
766.246	0.0162030
766.324	0.0162669
766.402	0.0164695
766.480	0.0163966
766.558	0.0164366
766.636	0.0162549
766.715	0.0163072
766.793	0.0161956
766.871	0.0160847
766.949	0.0160293
767.027	0.0158808
767.105	0.0157192
767.183	0.0155279
767.261	0.0154118
767.340	0.0152853
767.418	0.0150375
767.496	0.0149866
767.574	0.0148470
767.652	0.0146442
767.730	0.0145957
767.808	0.0145721
767.886	0.0144933
767.965	0.0145287
768.043	0.0144784
768.121	0.0145956
768.199	0.0146384
768.277	0.0145713
768.355	0.0148014
768.433	0.0149538
768.511	0.0149073
768.590	0.0150603
768.668	0.0152330
768.746	0.0154150
768.824	0.0153667
768.902	0.0155275
768.980	0.0155823
769.058	0.0157389
769.136	0.0156196
769.215	0.0158582
769.293	0.0158504
769.371	0.0159307
769.449	0.0159245
769.527	0.0159686
769.605	0.0160419
769.683	0.0159196
769.761	0.0159779
769.840	0.0159525
769.918	0.0159464
769.996	0.0158484
770.074	0.0160293
770.152	0.0159089
770.230	0.0158374
770.308	0.0158324
770.386	0.0157304
770.465	0.0155586
770.543	0.0156810
770.621	0.0156936
770.699	0.0154380
770.777	0.0154491
770.855	0.0152666
770.933	0.0152886
771.011	0.0152458
771.090	0.0153455
771.168	0.0151747
771.246	0.0151936
771.324	0.0152906
771.402	0.0152770
771.480	0.0153487
771.558	0.0154095
771.636	0.0154795
771.715	0.0156053
771.793	0.0155826
771.871	0.0156716
771.949	0.0157159
772.027	0.0158364
772.105	0.0158829
772.183	0.0159454
772.261	0.0161315
772.340	0.0159748
772.418	0.0159520
772.496	0.0160003
772.574	0.0159184
772.652	0.0158719
772.730	0.0158578
772.808	0.0157281
772.886	0.0157344
772.965	0.0155987
773.043	0.0153655
773.121	0.0151711
773.199	0.0151291
773.277	0.0151482
773.355	0.0151839
773.433	0.0150310
773.511	0.0149165
773.590	0.0150764
773.668	0.0149816
773.746	0.0150583
773.824	0.0150239
773.902	0.0149492
773.980	0.0150516
774.058	0.0152579
774.136	0.0153094
774.215	0.0153985
774.293	0.0155324
774.371	0.0154571
774.449	0.0155447
774.527	0.0156344
774.605	0.0157158
774.683	0.0156487
774.761	0.0157382
774.840	0.0158183
774.918	0.0158163
774.996	0.0156801
775.074	0.0156644
775.152	0.0156818
775.230	0.0157848
775.308	0.0156889
775.386	0.0156496
775.465	0.0154314
775.543	0.0154867
775.621	0.0155191
775.699	0.0153768
775.777	0.0152837
775.855	0.0152097
775.933	0.0151804
776.011	0.0152021
776.090	0.0153197
776.168	0.0153040
776.246	0.0152094
776.324	0.0153247
776.402	0.0153472
776.480	0.0152625
776.558	0.0154008
776.636	0.0153619
776.715	0.0155596
776.793	0.0154311
776.871	0.0156075
776.949	0.0157121
777.027	0.0156680
777.105	0.0158515
777.183	0.0158630
777.261	0.0159105
777.340	0.0158163
777.418	0.0159771
777.496	0.0160790
777.574	0.0160987
777.652	0.0160312
777.730	0.0159119
777.808	0.0159224
777.886	0.0159379
777.965	0.0157081
778.043	0.0157139
778.121	0.0157220
778.199	0.0154204
778.277	0.0153281
778.355	0.0153040
778.433	0.0152006
778.511	0.0152000
778.590	0.0150073
778.668	0.0149072
778.746	0.0148492
778.824	0.0148573
778.902	0.0147552
778.980	0.0147134
779.058	0.0147499
779.136	0.0148802
779.215	0.0150158
779.293	0.0150422
779.371	0.0150063
779.449	0.0153007
779.527	0.0153296
779.605	0.0154324
779.683	0.0155799
779.761	0.0156364
779.840	0.0160014
779.918	0.0161089
779.996	0.0159232
780.074	0.0159760
780.152	0.0161418
780.230	0.0161373
780.308	0.0161240
780.386	0.0161292
780.465	0.0161324
780.543	0.0161282
780.621	0.0159380
780.699	0.0157858
780.777	0.0156162
780.855	0.0155989
780.933	0.0155044
781.011	0.0154758
781.090	0.0153330
781.168	0.0152521
781.246	0.0152471
781.324	0.0150336
781.402	0.0148924
781.480	0.0148679
781.558	0.0148925
781.636	0.0148762
781.715	0.0148444
781.793	0.0148675
781.871	0.0148608
781.949	0.0149093
782.027	0.0150475
782.105	0.0150945
782.183	0.0152891
782.261	0.0152568
782.340	0.0154353
782.418	0.0153325
782.496	0.0155109
782.574	0.0157470
782.652	0.0156488
782.730	0.0157858
782.808	0.0158981
782.886	0.0158862
782.965	0.0160664
783.043	0.0160851
783.121	0.0161504
783.199	0.0162978
783.277	0.0162173
783.355	0.0162843
783.433	0.0162662
783.511	0.0161592
783.590	0.0160939
783.668	0.0159670
783.746	0.0158987
783.824	0.0158790
783.902	0.0155661
783.980	0.0155492
784.058	0.0155789
784.136	0.0152934
784.215	0.0151083
784.293	0.0150683
784.371	0.0149895
784.449	0.0149321
784.527	0.0148064
784.605	0.0147426
784.683	0.0146688
784.761	0.0146190
784.840	0.0147092
784.918	0.0149090
784.996	0.0147821
785.074	0.0149704
785.152	0.0152040
785.230	0.0152866
785.308	0.0153280
785.386	0.0154352
785.465	0.0156330
785.543	0.0156740
785.621	0.0158740
785.699	0.0159312
785.777	0.0159135
785.855	0.0159600
785.933	0.0159730
786.011	0.0161081
786.090	0.0160256
786.168	0.0160196
786.246	0.0160750
786.324	0.0159543
786.402	0.0158246
786.480	0.0158898
786.558	0.0155460
786.636	0.0157467
786.715	0.0157380
786.793	0.0156709
786.871	0.0154523
786.949	0.0154408
787.027	0.0152978
787.105	0.0152245
787.183	0.0153690
787.261	0.0152567
787.340	0.0151759
787.418	0.0149320
787.496	0.0148968
787.574	0.0149481
787.652	0.0149478
787.730	0.0150401
787.808	0.0149290
787.886	0.0149301
787.965	0.0149088
788.043	0.0150135
788.121	0.0149714
788.199	0.0151355
788.277	0.0152115
788.355	0.0152502
788.433	0.0152888
788.511	0.0156102
788.590	0.0155121
788.668	0.0157221
788.746	0.0157777
788.824	0.0158144
788.902	0.0158406
788.980	0.0159352
789.058	0.0160588
789.136	0.0160452
789.215	0.0160554
789.293	0.0160140
789.371	0.0159881
789.449	0.0158054
789.527	0.0158081
789.605	0.0155714
789.683	0.0157226
789.761	0.0156332
789.840	0.0154208
789.918	0.0154189
789.996	0.0154362
790.074	0.0151314
790.152	0.0152766
790.230	0.0151761
790.308	0.0152159
790.386	0.0149755
790.465	0.0150453
790.543	0.0150739
790.621	0.0151586
790.699	0.0151389
790.777	0.0152641
790.855	0.0152832
790.933	0.0152817
791.011	0.0154376
791.090	0.0154752
791.168	0.0155302
791.246	0.0157507
791.324	0.0157603
791.402	0.0156644
791.480	0.0157346
791.558	0.0157485
791.636	0.0157346
791.715	0.0158062
791.793	0.0158282
791.871	0.0158223
791.949	0.0159529
792.027	0.0156384
792.105	0.0156316
792.183	0.0156856
792.261	0.0155698
792.340	0.0156808
792.418	0.0155782
792.496	0.0154850
792.574	0.0154919
792.652	0.0155647
792.730	0.0154041
792.808	0.0153217
792.886	0.0154079
792.965	0.0154543
793.043	0.0152457
793.121	0.0153226
793.199	0.0152685
793.277	0.0153370
793.355	0.0152948
793.433	0.0154044
793.511	0.0151909
793.590	0.0152238
793.668	0.0151955
793.746	0.0154204
793.824	0.0152682
793.902	0.0151933
793.980	0.0152872
794.058	0.0153199
794.136	0.0154504
794.215	0.0154642
794.293	0.0154645
794.371	0.0154351
794.449	0.0155276
794.527	0.0155045
794.605	0.0155016
794.683	0.0154453
794.761	0.0155527
794.840	0.0156288
794.918	0.0154363
794.996	0.0154525
795.074	0.0154232
795.152	0.0153367
795.230	0.0152805
795.308	0.0153602
795.386	0.0153769
795.465	0.0153188
795.543	0.0153434
795.621	0.0154707
795.699	0.0153692
795.777	0.0155288
795.855	0.0154465
795.933	0.0154717
796.011	0.0156873
796.090	0.0156444
796.168	0.0155649
796.246	0.0156374
796.324	0.0157823
796.402	0.0156951
796.480	0.0157522
796.558	0.0156831
796.636	0.0157307
796.715	0.0157597
796.793	0.0156705
796.871	0.0156203
796.949	0.0156627
797.027	0.0156294
797.105	0.0156672
797.183	0.0155324
797.261	0.0155464
797.340	0.0157049
797.418	0.0155005
797.496	0.0154785
797.574	0.0155664
797.652	0.0156109
797.730	0.0154250
797.808	0.0155385
797.886	0.0153167
797.965	0.0152839
798.043	0.0154539
798.121	0.0154007
798.199	0.0153300
798.277	0.0153977
798.355	0.0154698
798.433	0.0154247
798.511	0.0152973
798.590	0.0152902
798.668	0.0153100
798.746	0.0153129
798.824	0.0153082
798.902	0.0154412
798.980	0.0153887
799.058	0.0153149
799.136	0.0154187
799.215	0.0155421
799.293	0.0154931
799.371	0.0153996
799.449	0.0154262
799.527	0.0155257
799.605	0.0156063
799.683	0.0156123
799.761	0.0157345
799.840	0.0156416
799.918	0.0157394
799.996	0.0158585
800.074	0.0158904
800.152	0.0157748
800.230	0.0157130
800.308	0.0158607
800.386	0.0159441
800.465	0.0158137
800.543	0.0158550
800.621	0.0159166
800.699	0.0157623
800.777	0.0157975
800.855	0.0157284
800.933	0.0157281
801.011	0.0157638
801.090	0.0156735
801.168	0.0157552
801.246	0.0155955
801.324	0.0155191
801.402	0.0155092
801.480	0.0156741
801.558	0.0155962
801.636	0.0153974
801.715	0.0154491
801.793	0.0153943
801.871	0.0154843
801.949	0.0151246
802.027	0.0152070
802.105	0.0152930
802.183	0.0152778
802.261	0.0152718
802.340	0.0154160
802.418	0.0153274
802.496	0.0152532
802.574	0.0154128
802.652	0.0153836
802.730	0.0153469
802.808	0.0156285
802.886	0.0155561
802.965	0.0154851
803.043	0.0155743
803.121	0.0156277
803.199	0.0155775
803.277	0.0154822
803.355	0.0155341
803.433	0.0156251
803.511	0.0155724
803.590	0.0155404
803.668	0.0155708
803.746	0.0156297
803.824	0.0153876
803.902	0.0154233
803.980	0.0154106
804.058	0.0155060
804.136	0.0154524
804.215	0.0154523
804.293	0.0154132
804.371	0.0154201
804.449	0.0153618
804.527	0.0153231
804.605	0.0153761
804.683	0.0154945
804.761	0.0154742
804.840	0.0153523
804.918	0.0153123
804.996	0.0155062
805.074	0.0154317
805.152	0.0154309
805.230	0.0154381
805.308	0.0153804
805.386	0.0155033
805.465	0.0156426
805.543	0.0154375
805.621	0.0155498
805.699	0.0155809
805.777	0.0156740
805.855	0.0156192
805.933	0.0155304
806.011	0.0157034
806.090	0.0157690
806.168	0.0156622
806.246	0.0156921
806.324	0.0156477
806.402	0.0155104
806.480	0.0155147
806.558	0.0155208
806.636	0.0157510
806.715	0.0156077
806.793	0.0155723
806.871	0.0156295
806.949	0.0156528
807.027	0.0155905
807.105	0.0154703
807.183	0.0155574
807.261	0.0155103
807.340	0.0155457
807.418	0.0156588
807.496	0.0155196
807.574	0.0154388
807.652	0.0155477
807.730	0.0156069
807.808	0.0154601
807.886	0.0154913
807.965	0.0155690
808.043	0.0153985
808.121	0.0155168
808.199	0.0154716
808.277	0.0156221
808.355	0.0155652
808.433	0.0154094
808.511	0.0155270
808.590	0.0154794
808.668	0.0154581
808.746	0.0153394
808.824	0.0154095
808.902	0.0155796
808.980	0.0155044
809.058	0.0155635
809.136	0.0154925
809.215	0.0155904
809.293	0.0154814
809.371	0.0153819
809.449	0.0154475
809.527	0.0155141
809.605	0.0156569
809.683	0.0154263
809.761	0.0154718
809.840	0.0153981
809.918	0.0153589
809.996	0.0151400
810.074	0.0153345
810.152	0.0154572
810.230	0.0152440
810.308	0.0152202
810.386	0.0152184
810.465	0.0151468
810.543	0.0152570
810.621	0.0152810
810.699	0.0152499
810.777	0.0153805
810.855	0.0153052
810.933	0.0153581
811.011	0.0153501
811.090	0.0153844
811.168	0.0153120
811.246	0.0154195
811.324	0.0153696
811.402	0.0155776
811.480	0.0154382
811.558	0.0153284
811.636	0.0154800
811.715	0.0153892
811.793	0.0154983
811.871	0.0156022
811.949	0.0156071
812.027	0.0155689
812.105	0.0156161
812.183	0.0156534
812.261	0.0156173
812.340	0.0155606
812.418	0.0155911
812.496	0.0155609
812.574	0.0155019
812.652	0.0154385
812.730	0.0155424
812.808	0.0155225
812.886	0.0154756
812.965	0.0155066
813.043	0.0155127
813.121	0.0153892
813.199	0.0154124
813.277	0.0153737
813.355	0.0153979
813.433	0.0154402
813.511	0.0154446
813.590	0.0154894
813.668	0.0154030
813.746	0.0155585
813.824	0.0155093
813.902	0.0153210
813.980	0.0155032
814.058	0.0155791
814.136	0.0155104
814.215	0.0155579
814.293	0.0156130
814.371	0.0157334
814.449	0.0157620
814.527	0.0157746
814.605	0.0156892
814.683	0.0155990
814.761	0.0157826
814.840	0.0156623
814.918	0.0156847
814.996	0.0156704
815.074	0.0155799
815.152	0.0154277
815.230	0.0155019
815.308	0.0154380
815.386	0.0155952
815.465	0.0155754
815.543	0.0153648
815.621	0.0153708
815.699	0.0154034
815.777	0.0153635
815.855	0.0153916
815.933	0.0153224
816.011	0.0153927
816.090	0.0152619
816.168	0.0152969
816.246	0.0153393
816.324	0.0152746
816.402	0.0153608
816.480	0.0153097
816.558	0.0153490
816.636	0.0151730
816.715	0.0151130
816.793	0.0152547
816.871	0.0152042
816.949	0.0154190
817.027	0.0152979
817.105	0.0153103
817.183	0.0153662
817.261	0.0154716
817.340	0.0155215
817.418	0.0155170
817.496	0.0154843
817.574	0.0155313
817.652	0.0155516
817.730	0.0155706
817.808	0.0155600
817.886	0.0155053
817.965	0.0154821
818.043	0.0155452
818.121	0.0154031
818.199	0.0154327
818.277	0.0154140
818.355	0.0153168
818.433	0.0155042
818.511	0.0154309
818.590	0.0153196
818.668	0.0154292
818.746	0.0155154
818.824	0.0155045
818.902	0.0154666
818.980	0.0155727
819.058	0.0155534
819.136	0.0156752
819.215	0.0156119
819.293	0.0157560
819.371	0.0157861
819.449	0.0157824
819.527	0.0157612
819.605	0.0157421
819.683	0.0158754
819.761	0.0158105
819.840	0.0158266
819.918	0.0159637
819.996	0.0158231
820.074	0.0157834
820.152	0.0159137
820.230	0.0157724
820.308	0.0157859
820.386	0.0157317
820.465	0.0157025
820.543	0.0156673
820.621	0.0158681
820.699	0.0157931
820.777	0.0156143
820.855	0.0156868
820.933	0.0155937
821.011	0.0155523
821.090	0.0154509
821.168	0.0154853
821.246	0.0154826
821.324	0.0155711
821.402	0.0154988
821.480	0.0152827
821.558	0.0152784
821.636	0.0153571
821.715	0.0151912
821.793	0.0151550
821.871	0.0150475
821.949	0.0151925
822.027	0.0150219
822.105	0.0150468
822.183	0.0152582
822.261	0.0151200
822.340	0.0150607
822.418	0.0150263
822.496	0.0150778
822.574	0.0150505
822.652	0.0150870
822.730	0.0150329
822.808	0.0150064
822.886	0.0150721
822.965	0.0150800
823.043	0.0152930
823.121	0.0152628
823.199	0.0153809
823.277	0.0153076
823.355	0.0152181
823.433	0.0154585
823.511	0.0154562
823.590	0.0155051
823.668	0.0156850
823.746	0.0155637
823.824	0.0157787
823.902	0.0156799
823.980	0.0156969
824.058	0.0157924
824.136	0.0158112
824.215	0.0156795
824.293	0.0158378
824.371	0.0159339
824.449	0.0158411
824.527	0.0159035
824.605	0.0160027
824.683	0.0160230
824.761	0.0159246
824.840	0.0158833
824.918	0.0159453
824.996	0.0161137
825.074	0.0159721
825.152	0.0159267
825.230	0.0159671
825.308	0.0159324
825.386	0.0158379
825.465	0.0160145
825.543	0.0160487
825.621	0.0158396
825.699	0.0157604
825.777	0.0157830
825.855	0.0157996
825.933	0.0157227
826.011	0.0158056
826.090	0.0158073
826.168	0.0157648
826.246	0.0155221
826.324	0.0156249
826.402	0.0154918
826.480	0.0155586
826.558	0.0154172
826.636	0.0153123
826.715	0.0153616
826.793	0.0152876
826.871	0.0150810
826.949	0.0152225
827.027	0.0151775
827.105	0.0151276
827.183	0.0150192
827.261	0.0150948
827.340	0.0149940
827.418	0.0150401
827.496	0.0149963
827.574	0.0151106
827.652	0.0151024
827.730	0.0148841
827.808	0.0150117
827.886	0.0151505
827.965	0.0148891
828.043	0.0149219
828.121	0.0149544
828.199	0.0150671
828.277	0.0151026
828.355	0.0150227
828.433	0.0150896
828.511	0.0152258
828.590	0.0151217
828.668	0.0150825
828.746	0.0151995
828.824	0.0152702
828.902	0.0153764
828.980	0.0152846
829.058	0.0153146
829.136	0.0152919
829.215	0.0153647
829.293	0.0155132
829.371	0.0154819
829.449	0.0155576
829.527	0.0155812
829.605	0.0157544
829.683	0.0157896
829.761	0.0157980
829.840	0.0157948
829.918	0.0157850
829.996	0.0159325
830.074	0.0161424
830.152	0.0160809
830.230	0.0162410
830.308	0.0161324
830.386	0.0162342
830.465	0.0162936
830.543	0.0163754
830.621	0.0164589
830.699	0.0163999
830.777	0.0163569
830.855	0.0162532
830.933	0.0161481
831.011	0.0161903
831.090	0.0160709
831.168	0.0160041
831.246	0.0158841
831.324	0.0158386
831.402	0.0157988
831.480	0.0156761
831.558	0.0156353
831.636	0.0156042
831.715	0.0154391
831.793	0.0156854
831.871	0.0154893
831.949	0.0154936
832.027	0.0154919
832.105	0.0152899
832.183	0.0154803
832.261	0.0153967
832.340	0.0154243
832.418	0.0153134
832.496	0.0153318
832.574	0.0152723
832.652	0.0151753
832.730	0.0150639
832.808	0.0150247
832.886	0.0150704
832.965	0.0150043
833.043	0.0149250
833.121	0.0149258
833.199	0.0149544
833.277	0.0149049
833.355	0.0148276
833.433	0.0148265
833.511	0.0148241
833.590	0.0148534
833.668	0.0147530
833.746	0.0147477
833.824	0.0148115
833.902	0.0147639
833.980	0.0149263
834.058	0.0148683
834.136	0.0150202
834.215	0.0150404
834.293	0.0150313
834.371	0.0151038
834.449	0.0151041
834.527	0.0153154
834.605	0.0154406
834.683	0.0155449
834.761	0.0154241
834.840	0.0152564
834.918	0.0155775
834.996	0.0154723
835.074	0.0155283
835.152	0.0156123
835.230	0.0156634
835.308	0.0157398
835.386	0.0156413
835.465	0.0157687
835.543	0.0158327
835.621	0.0157877
835.699	0.0159724
835.777	0.0159695
835.855	0.0159595
835.933	0.0161397
836.011	0.0161314
836.090	0.0159033
836.168	0.0161478
836.246	0.0161251
836.324	0.0161170
836.402	0.0161089
836.480	0.0160786
836.558	0.0159666
836.636	0.0159811
836.715	0.0159399
836.793	0.0158694
836.871	0.0157363
836.949	0.0157867
837.027	0.0156084
837.105	0.0156995
837.183	0.0156418
837.261	0.0156432
837.340	0.0155407
837.418	0.0155057
837.496	0.0154907
837.574	0.0153577
837.652	0.0153799
837.730	0.0153419
837.808	0.0153533
837.886	0.0154131
837.965	0.0152682
838.043	0.0153307
838.121	0.0151601
838.199	0.0152504
838.277	0.0152400
838.355	0.0152573
838.433	0.0150908
838.511	0.0151976
838.590	0.0150903
838.668	0.0151757
838.746	0.0152707
838.824	0.0150884
838.902	0.0151918
838.980	0.0152264
839.058	0.0150928
839.136	0.0150491
839.215	0.0151675
839.293	0.0150444
839.371	0.0150853
839.449	0.0151397
839.527	0.0150692
839.605	0.0151309
839.683	0.0150722
839.761	0.0151241
839.840	0.0151829
839.918	0.0151268
839.996	0.0153112
840.074	0.0152166
840.152	0.0152293
840.230	0.0152512
840.308	0.0153423
840.386	0.0153899
840.465	0.0153561
840.543	0.0155433
840.621	0.0155932
840.699	0.0155013
840.777	0.0156312
840.855	0.0156041
840.933	0.0157150
841.011	0.0157384
841.090	0.0157645
841.168	0.0158636
841.246	0.0158548
841.324	0.0158891
841.402	0.0157916
841.480	0.0158217
841.558	0.0159361
841.636	0.0160674
841.715	0.0158942
841.793	0.0157643
841.871	0.0158969
841.949	0.0158752
842.027	0.0157127
842.105	0.0158012
842.183	0.0157861
842.261	0.0157853
842.340	0.0157178
842.418	0.0156786
842.496	0.0156459
842.574	0.0154836
842.652	0.0156348
842.730	0.0155298
842.808	0.0154823
842.886	0.0155410
842.965	0.0154330
843.043	0.0154507
843.121	0.0154402
843.199	0.0153311
843.277	0.0153359
843.355	0.0152510
843.433	0.0153304
843.511	0.0152923
843.590	0.0152700
843.668	0.0152878
843.746	0.0152597
843.824	0.0151176
843.902	0.0152455
843.980	0.0151844
844.058	0.0151592
844.136	0.0153008
844.215	0.0152966
844.293	0.0152366
844.371	0.0152995
844.449	0.0154698
844.527	0.0153179
844.605	0.0154068
844.683	0.0154810
844.761	0.0154402
844.840	0.0155511
844.918	0.0154693
844.996	0.0154558
845.074	0.0157345
845.152	0.0156390
845.230	0.0156328
845.308	0.0155202
845.386	0.0155361
845.465	0.0155087
845.543	0.0156189
845.621	0.0156010
845.699	0.0154883
845.777	0.0155214
845.855	0.0156253
845.933	0.0155804
846.011	0.0154874
846.090	0.0156352
846.168	0.0156474
846.246	0.0155188
846.324	0.0155228
846.402	0.0155087
846.480	0.0154939
846.558	0.0154880
846.636	0.0153693
846.715	0.0153579
846.793	0.0153990
846.871	0.0154845
846.949	0.0154260
847.027	0.0154394
847.105	0.0153522
847.183	0.0153191
847.261	0.0153443
847.340	0.0154122
847.418	0.0154878
847.496	0.0154982
847.574	0.0155338
847.652	0.0155286
847.730	0.0155177
847.808	0.0155960
847.886	0.0156884
847.965	0.0157246
848.043	0.0155894
848.121	0.0154575
848.199	0.0154324
848.277	0.0155612
848.355	0.0154970
848.433	0.0155561
848.511	0.0155585
848.590	0.0154504
848.668	0.0155330
848.746	0.0156732
848.824	0.0155740
848.902	0.0155613
848.980	0.0154592
849.058	0.0155287
849.136	0.0153388
849.215	0.0153885
849.293	0.0154942
849.371	0.0153859
849.449	0.0152863
849.527	0.0153069
849.605	0.0154608
849.683	0.0155042
849.761	0.0154427
849.840	0.0152696
849.918	0.0154158
849.996	0.0153435
850.074	0.0154721
850.152	0.0154356
850.230	0.0153048
850.308	0.0153439
850.386	0.0153944
850.465	0.0154529
850.543	0.0154778
850.621	0.0154455
850.699	0.0154289
850.777	0.0154978
850.855	0.0154378
850.933	0.0154369
851.011	0.0155100
851.090	0.0154913
851.168	0.0155917
851.246	0.0155334
851.324	0.0154720
851.402	0.0155868
851.480	0.0156206
851.558	0.0156240
851.636	0.0156464
851.715	0.0156701
851.793	0.0156009
851.871	0.0156415
851.949	0.0158001
852.027	0.0155721
852.105	0.0156296
852.183	0.0157427
852.261	0.0155851
852.340	0.0155755
852.418	0.0156488
852.496	0.0155858
852.574	0.0154225
852.652	0.0155023
852.730	0.0155562
852.808	0.0153111
852.886	0.0154607
852.965	0.0154222
853.043	0.0152906
853.121	0.0152645
853.199	0.0152823
853.277	0.0151869
853.355	0.0152336
853.433	0.0152040
853.511	0.0151585
853.590	0.0152165
853.668	0.0152442
853.746	0.0153529
853.824	0.0153069
853.902	0.0152630
853.980	0.0153931
854.058	0.0154138
854.136	0.0155219
854.215	0.0155220
854.293	0.0155242
854.371	0.0155865
854.449	0.0156361
854.527	0.0157073
854.605	0.0157238
854.683	0.0156670
854.761	0.0156071
854.840	0.0156512
854.918	0.0156705
854.996	0.0155686
855.074	0.0156242
855.152	0.0156121
855.230	0.0155631
855.308	0.0154582
855.386	0.0156615
855.465	0.0155927
855.543	0.0154541
855.621	0.0155023
855.699	0.0154312
855.777	0.0154333
855.855	0.0153419
855.933	0.0154612
856.011	0.0152197
856.090	0.0154462
856.168	0.0155082
856.246	0.0153083
856.324	0.0155043
856.402	0.0155125
856.480	0.0155683
856.558	0.0156486
856.636	0.0154376
856.715	0.0153720
856.793	0.0155455
856.871	0.0156070
856.949	0.0153876
857.027	0.0155773
857.105	0.0154420
857.183	0.0154195
857.261	0.0154720
857.340	0.0154252
857.418	0.0154144
857.496	0.0154280
857.574	0.0153571
857.652	0.0155051
857.730	0.0154522
857.808	0.0154693
857.886	0.0154150
857.965	0.0154015
858.043	0.0153513
858.121	0.0154296
858.199	0.0154572
858.277	0.0154317
858.355	0.0154345
858.433	0.0153626
858.511	0.0152833
858.590	0.0153408
858.668	0.0154020
858.746	0.0154961
858.824	0.0154505
858.902	0.0153230
858.980	0.0152745
859.058	0.0153798
859.136	0.0153240
859.215	0.0152868
859.293	0.0154158
859.371	0.0154865
859.449	0.0154163
859.527	0.0153475
859.605	0.0153816
859.683	0.0154351
859.761	0.0155034
859.840	0.0154926
859.918	0.0156689
859.996	0.0154572
860.074	0.0155827
860.152	0.0158025
860.230	0.0155981
860.308	0.0156538
860.386	0.0156145
860.465	0.0156912
860.543	0.0157002
860.621	0.0156281
860.699	0.0157003
860.777	0.0156863
860.855	0.0156387
860.933	0.0155409
861.011	0.0155390
861.090	0.0156524
861.168	0.0155427
861.246	0.0155977
861.324	0.0156282
861.402	0.0154052
861.480	0.0154720
861.558	0.0155079
861.636	0.0154966
861.715	0.0155024
861.793	0.0154877
861.871	0.0154484
861.949	0.0156881
862.027	0.0154777
862.105	0.0154783
862.183	0.0155704
862.261	0.0155538
862.340	0.0155869
862.418	0.0156802
862.496	0.0157521
862.574	0.0156094
862.652	0.0155592
862.730	0.0156235
862.808	0.0156174
862.886	0.0156062
862.965	0.0156321
863.043	0.0154720
863.121	0.0155592
863.199	0.0154616
863.277	0.0153722
863.355	0.0154278
863.433	0.0154940
863.511	0.0154188
863.590	0.0152578
863.668	0.0153153
863.746	0.0154154
863.824	0.0153042
863.902	0.0152718
863.980	0.0153038
864.058	0.0152743
864.136	0.0152747
864.215	0.0153736
864.293	0.0153197
864.371	0.0151875
864.449	0.0154015
864.527	0.0153331
864.605	0.0153324
864.683	0.0154749
864.761	0.0155676
864.840	0.0154760
864.918	0.0153809
864.996	0.0154982
865.074	0.0155546
865.152	0.0155181
865.230	0.0155965
865.308	0.0155891
865.386	0.0155003
865.465	0.0156861
865.543	0.0155281
865.621	0.0155514
865.699	0.0156274
865.777	0.0155999
865.855	0.0157312
865.933	0.0157259
866.011	0.0156277
866.090	0.0156217
866.168	0.0156385
866.246	0.0155444
866.324	0.0157308
866.402	0.0156969
866.480	0.0154914
866.558	0.0155800
866.636	0.0156132
866.715	0.0155536
866.793	0.0155847
866.871	0.0155373
866.949	0.0154760
867.027	0.0155396
867.105	0.0154043
867.183	0.0155048
867.261	0.0155172
867.340	0.0155043
867.418	0.0154844
867.496	0.0154012
867.574	0.0153674
867.652	0.0154386
867.730	0.0154527
867.808	0.0155260
867.886	0.0156153
867.965	0.0154639
868.043	0.0157983
868.121	0.0157330
868.199	0.0157136
868.277	0.0156564
868.355	0.0156036
868.433	0.0157256
868.511	0.0157858
868.590	0.0155607
868.668	0.0154919
868.746	0.0156125
868.824	0.0156345
868.902	0.0156329
868.980	0.0155317
869.058	0.0154546
869.136	0.0154520
869.215	0.0154488
869.293	0.0153898
869.371	0.0153259
869.449	0.0154359
869.527	0.0154167
869.605	0.0152878
869.683	0.0152724
869.761	0.0151707
869.840	0.0151746
869.918	0.0152209
869.996	0.0152857
870.074	0.0152390
870.152	0.0152007
870.230	0.0152917
870.308	0.0152890
870.386	0.0152534
870.465	0.0153294
870.543	0.0153997
870.621	0.0154098
870.699	0.0155273
870.777	0.0154429
870.855	0.0154064
870.933	0.0155991
871.011	0.0156192
871.090	0.0157849
871.168	0.0157511
871.246	0.0156753
871.324	0.0157716
871.402	0.0157684
871.480	0.0157629
871.558	0.0159648
871.636	0.0159761
871.715	0.0157847
871.793	0.0159543
871.871	0.0157616
871.949	0.0158270
872.027	0.0156792
872.105	0.0156993
872.183	0.0157983
872.261	0.0157388
872.340	0.0156384
872.418	0.0157507
872.496	0.0154726
872.574	0.0155527
872.652	0.0154971
872.730	0.0155487
872.808	0.0156004
872.886	0.0156843
872.965	0.0154633
873.043	0.0154520
873.121	0.0153819
873.199	0.0153519
873.277	0.0154869
873.355	0.0153220
873.433	0.0154140
873.511	0.0153630
873.590	0.0153488
873.668	0.0154601
873.746	0.0154459
873.824	0.0154122
873.902	0.0154494
873.980	0.0155304
874.058	0.0152592
874.136	0.0154398
874.215	0.0154034
874.293	0.0155745
874.371	0.0156203
874.449	0.0155225
874.527	0.0155316
874.605	0.0156581
874.683	0.0155312
874.761	0.0153695
874.840	0.0154865
874.918	0.0154459
874.996	0.0155014
875.074	0.0154457
875.152	0.0153729
875.230	0.0153680
875.308	0.0153026
875.386	0.0153520
875.465	0.0153747
875.543	0.0153350
875.621	0.0153457
875.699	0.0153484
875.777	0.0153820
875.855	0.0153256
875.933	0.0153223
876.011	0.0153373
876.090	0.0153535
876.168	0.0153199
876.246	0.0152570
876.324	0.0154364
876.402	0.0153705
876.480	0.0154139
876.558	0.0153410
876.636	0.0155627
876.715	0.0156084
876.793	0.0155157
876.871	0.0156051
876.949	0.0155612
877.027	0.0155847
877.105	0.0156589
877.183	0.0156873
877.261	0.0157755
877.340	0.0157030
877.418	0.0158320
877.496	0.0157822
877.574	0.0158320
877.652	0.0157182
877.730	0.0157175
877.808	0.0156973
877.886	0.0156528
877.965	0.0157291
878.043	0.0157770
878.121	0.0156607
878.199	0.0156416
878.277	0.0155784
878.355	0.0156168
878.433	0.0155630
878.511	0.0154599
878.590	0.0154990
878.668	0.0156032
878.746	0.0153970
878.824	0.0153546
878.902	0.0156013
878.980	0.0154533
879.058	0.0154514
879.136	0.0154961
879.215	0.0153236
879.293	0.0155198
879.371	0.0154175
879.449	0.0152767
879.527	0.0153858
879.605	0.0153249
879.683	0.0153730
879.761	0.0152611
879.840	0.0153266
879.918	0.0154169
879.996	0.0154639
880.074	0.0154113
880.152	0.0153918
880.230	0.0153246
880.308	0.0154115
880.386	0.0153893
880.465	0.0154124
880.543	0.0154807
880.621	0.0154575
880.699	0.0154527
880.777	0.0156067
880.855	0.0155156
880.933	0.0154295
881.011	0.0153712
881.090	0.0155814
881.168	0.0155814
881.246	0.0154491
881.324	0.0152927
881.402	0.0154447
881.480	0.0154281
881.558	0.0154395
881.636	0.0154408
881.715	0.0155017
881.793	0.0154406
881.871	0.0152969
881.949	0.0154745
882.027	0.0153851
882.105	0.0154282
882.183	0.0154750
882.261	0.0155643
882.340	0.0155734
882.418	0.0154308
882.496	0.0154948
882.574	0.0155604
882.652	0.0154675
882.730	0.0155123
882.808	0.0155247
882.886	0.0155016
882.965	0.0154112
883.043	0.0155519
883.121	0.0155682
883.199	0.0156507
883.277	0.0155135
883.355	0.0155542
883.433	0.0154722
883.511	0.0156580
883.590	0.0156743
883.668	0.0156203
883.746	0.0156121
883.824	0.0157485
883.902	0.0156847
883.980	0.0155199
884.058	0.0156794
884.136	0.0154834
884.215	0.0155820
884.293	0.0155022
884.371	0.0156059
884.449	0.0153963
884.527	0.0154950
884.605	0.0156113
884.683	0.0154861
884.761	0.0154665
884.840	0.0154703
884.918	0.0154504
884.996	0.0154481
885.074	0.0153780
885.152	0.0154364
885.230	0.0153795
885.308	0.0153757
885.386	0.0155251
885.465	0.0153603
885.543	0.0154365
885.621	0.0155354
885.699	0.0154931
885.777	0.0154662
885.855	0.0154996
885.933	0.0153464
886.011	0.0152830
886.090	0.0155485
886.168	0.0155302
886.246	0.0153191
886.324	0.0154394
886.402	0.0154682
886.480	0.0154581
886.558	0.0155040
886.636	0.0154522
886.715	0.0155637
886.793	0.0153833
886.871	0.0154560
886.949	0.0154567
887.027	0.0153713
887.105	0.0153721
887.183	0.0154751
887.261	0.0154703
887.340	0.0154921
887.418	0.0154628
887.496	0.0155016
887.574	0.0155092
887.652	0.0155489
887.730	0.0155801
887.808	0.0155505
887.886	0.0154047
887.965	0.0156407
888.043	0.0156964
888.121	0.0155822
888.199	0.0154849
888.277	0.0156618
888.355	0.0156493
888.433	0.0156046
888.511	0.0154768
888.590	0.0155630
888.668	0.0156642
888.746	0.0156481
888.824	0.0155099
888.902	0.0154752
888.980	0.0153883
889.058	0.0154797
889.136	0.0155903
889.215	0.0156020
889.293	0.0154865
889.371	0.0153771
889.449	0.0153937
889.527	0.0154490
889.605	0.0154515
889.683	0.0155399
889.761	0.0154534
889.840	0.0156261
889.918	0.0154888
889.996	0.0155824
890.074	0.0156172
890.152	0.0155759
890.230	0.0154967
890.308	0.0155357
890.386	0.0154432
890.465	0.0155649
890.543	0.0155433
890.621	0.0154599
890.699	0.0154749
890.777	0.0154295
890.855	0.0154345
890.933	0.0155771
891.011	0.0155515
891.090	0.0155399
891.168	0.0154623
891.246	0.0154620
891.324	0.0155036
891.402	0.0155276
891.480	0.0154979
891.558	0.0153528
891.636	0.0154597
891.715	0.0154111
891.793	0.0154659
891.871	0.0154538
891.949	0.0154327
892.027	0.0152868
892.105	0.0154199
892.183	0.0153113
892.261	0.0154356
892.340	0.0153503
892.418	0.0153463
892.496	0.0153294
892.574	0.0153127
892.652	0.0153940
892.730	0.0154585
892.808	0.0154158
892.886	0.0155029
892.965	0.0154939
893.043	0.0153991
893.121	0.0154613
893.199	0.0156638
893.277	0.0156071
893.355	0.0154540
893.433	0.0155903
893.511	0.0157315
893.590	0.0155984
893.668	0.0156248
893.746	0.0156110
893.824	0.0155096
893.902	0.0155653
893.980	0.0158265
894.058	0.0155854
894.136	0.0155788
894.215	0.0157130
894.293	0.0156836
894.371	0.0156098
894.449	0.0156436
894.527	0.0157160
894.605	0.0154946
894.683	0.0156959
894.761	0.0154229
894.840	0.0155463
894.918	0.0156165
894.996	0.0154286
895.074	0.0154925
895.152	0.0153445
895.230	0.0154791
895.308	0.0155561
895.386	0.0154497
895.465	0.0153034
895.543	0.0153523
895.621	0.0154186
895.699	0.0154303
895.777	0.0153421
895.855	0.0154973
895.933	0.0154630
896.011	0.0154230
896.090	0.0154790
896.168	0.0154924
896.246	0.0155078
896.324	0.0155702
896.402	0.0154679
896.480	0.0156353
896.558	0.0157156
896.636	0.0154805
896.715	0.0155463
896.793	0.0156256
896.871	0.0156625
896.949	0.0156437
897.027	0.0157092
897.105	0.0158015
897.183	0.0157126
897.261	0.0155437
897.340	0.0156229
897.418	0.0156457
897.496	0.0155926
897.574	0.0155403
897.652	0.0154897
897.730	0.0155948
897.808	0.0154710
897.886	0.0155558
897.965	0.0154351
898.043	0.0154047
898.121	0.0154787
898.199	0.0154753
898.277	0.0152403
898.355	0.0152736
898.433	0.0152782
898.511	0.0154784
898.590	0.0154472
898.668	0.0153123
898.746	0.0152708
898.824	0.0153460
898.902	0.0154384
898.980	0.0153681
899.058	0.0155241
899.136	0.0154902
899.215	0.0155370
899.293	0.0153840
899.371	0.0153957
899.449	0.0155442
899.527	0.0154784
899.605	0.0154064
899.683	0.0155283
899.761	0.0155375
899.840	0.0156064
899.918	0.0156304
899.996	0.0156359
900.074	0.0155605
900.152	0.0155613
900.230	0.0156050
900.308	0.0156268
900.386	0.0156550
900.465	0.0156154
900.543	0.0154108
900.621	0.0155430
900.699	0.0154694
900.777	0.0154620
900.855	0.0154048
900.933	0.0153215
901.011	0.0154551
901.090	0.0153823
901.168	0.0153758
901.246	0.0153068
901.324	0.0153542
901.402	0.0153717
901.480	0.0154395
901.558	0.0152471
901.636	0.0153301
901.715	0.0154114
901.793	0.0154238
901.871	0.0153234
901.949	0.0153549
902.027	0.0153437
902.105	0.0154803
902.183	0.0154391
902.261	0.0155257
902.340	0.0155303
902.418	0.0154781
902.496	0.0154752
902.574	0.0154620
902.652	0.0154585
902.730	0.0154888
902.808	0.0155505
902.886	0.0155113
902.965	0.0156413
903.043	0.0156228
903.121	0.0156288
903.199	0.0157520
903.277	0.0156413
903.355	0.0154795
903.433	0.0155281
903.511	0.0155419
903.590	0.0154794
903.668	0.0155750
903.746	0.0154548
903.824	0.0156238
903.902	0.0153293
903.980	0.0154168
904.058	0.0154657
904.136	0.0154778
904.215	0.0153712
904.293	0.0153522
904.371	0.0153229
904.449	0.0154568
904.527	0.0152853
904.605	0.0152802
904.683	0.0153498
904.761	0.0154391
904.840	0.0155480
904.918	0.0154485
904.996	0.0153551
905.074	0.0154914
905.152	0.0155147
905.230	0.0154759
905.308	0.0153903
905.386	0.0154072
905.465	0.0154799
905.543	0.0154819
905.621	0.0154491
905.699	0.0154375
905.777	0.0155449
905.855	0.0155205
905.933	0.0154792
906.011	0.0155282
906.090	0.0155596
906.168	0.0154288
906.246	0.0155101
906.324	0.0154857
906.402	0.0153548
906.480	0.0154752
906.558	0.0154658
906.636	0.0154749
906.715	0.0154498
906.793	0.0153959
906.871	0.0153271
906.949	0.0154049
907.027	0.0154691
907.105	0.0153523
907.183	0.0154164
907.261	0.0153296
907.340	0.0153609
907.418	0.0154053
907.496	0.0152186
907.574	0.0154308
907.652	0.0153659
907.730	0.0153823
907.808	0.0154890
907.886	0.0155089
907.965	0.0154141
908.043	0.0155887
908.121	0.0155365
908.199	0.0154254
908.277	0.0153818
908.355	0.0155223
908.433	0.0155843
908.511	0.0154754
908.590	0.0155338
908.668	0.0154963
908.746	0.0153987
908.824	0.0155481
908.902	0.0155984
908.980	0.0154620
909.058	0.0154798
909.136	0.0154919
909.215	0.0154473
909.293	0.0154517
909.371	0.0154868
909.449	0.0155807
909.527	0.0155596
909.605	0.0153291
909.683	0.0154305
909.761	0.0155035
909.840	0.0155445
909.918	0.0155686
909.996	0.0154842
910.074	0.0155727
910.152	0.0155565
910.230	0.0155438
910.308	0.0155644
910.386	0.0154583
910.465	0.0155978
910.543	0.0155669
910.621	0.0154642
910.699	0.0155833
910.777	0.0154038
910.855	0.0152642
910.933	0.0154198
911.011	0.0153457
911.090	0.0153852
911.168	0.0153860
911.246	0.0152950
911.324	0.0151626
911.402	0.0154243
911.480	0.0153751
911.558	0.0153220
911.636	0.0153417
911.715	0.0154014
911.793	0.0153053
911.871	0.0155290
911.949	0.0154113
912.027	0.0152264
912.105	0.0153138
912.183	0.0154588
912.261	0.0154052
912.340	0.0156073
912.418	0.0155918
912.496	0.0154896
912.574	0.0154673
912.652	0.0155172
912.730	0.0154842
912.808	0.0154499
912.886	0.0153987
912.965	0.0154777
913.043	0.0155057
913.121	0.0154629
913.199	0.0153481
913.277	0.0154150
913.355	0.0155424
913.433	0.0154132
913.511	0.0155806
913.590	0.0154657
913.668	0.0155262
913.746	0.0155782
913.824	0.0155135
913.902	0.0154108
913.980	0.0155458
914.058	0.0155872
914.136	0.0155484
914.215	0.0156332
914.293	0.0155266
914.371	0.0154514
914.449	0.0154852
914.527	0.0155113
914.605	0.0154860
914.683	0.0155251
914.761	0.0153860
914.840	0.0154339
914.918	0.0154949
914.996	0.0152866
915.074	0.0153818
915.152	0.0154410
915.230	0.0154300
915.308	0.0152453
915.386	0.0153102
915.465	0.0152521
915.543	0.0153274
915.621	0.0154237
915.699	0.0154425
915.777	0.0154179
915.855	0.0154663
915.933	0.0154978
916.011	0.0153939
916.090	0.0155288
916.168	0.0155772
916.246	0.0155427
916.324	0.0155299
916.402	0.0154807
916.480	0.0156656
916.558	0.0156593
916.636	0.0155878
916.715	0.0154990
916.793	0.0157569
916.871	0.0155846
916.949	0.0156409
917.027	0.0156002
917.105	0.0154350
917.183	0.0154995
917.261	0.0154686
917.340	0.0153379
917.418	0.0153719
917.496	0.0152203
917.574	0.0153622
917.652	0.0152397
917.730	0.0152431
917.808	0.0152947
917.886	0.0151772
917.965	0.0152924
918.043	0.0151129
918.121	0.0152776
918.199	0.0152858
918.277	0.0151997
918.355	0.0153815
918.433	0.0154178
918.511	0.0154293
918.590	0.0154554
918.668	0.0155946
918.746	0.0155105
918.824	0.0156315
918.902	0.0155608
918.980	0.0155785
919.058	0.0157074
919.136	0.0155730
919.215	0.0156657
919.293	0.0157117
919.371	0.0154942
919.449	0.0156052
919.527	0.0156721
919.605	0.0155910
919.683	0.0156760
919.761	0.0156181
919.840	0.0155749
919.918	0.0155508
919.996	0.0154601
920.074	0.0155441
920.152	0.0155569
920.230	0.0154511
920.308	0.0154736
920.386	0.0156099
920.465	0.0154664
920.543	0.0155495
920.621	0.0154533
920.699	0.0154644
920.777	0.0154032
920.855	0.0154143
920.933	0.0155759
921.011	0.0154533
921.090	0.0154158
921.168	0.0153841
921.246	0.0154429
921.324	0.0154664
921.402	0.0152266
921.480	0.0152899
921.558	0.0153235
921.636	0.0152820
921.715	0.0153112
921.793	0.0152397
921.871	0.0152795
921.949	0.0152368
922.027	0.0153500
922.105	0.0154247
922.183	0.0154738
922.261	0.0154391
922.340	0.0154398
922.418	0.0154620
922.496	0.0155340
922.574	0.0156596
922.652	0.0155537
922.730	0.0157417
922.808	0.0157288
922.886	0.0156098
922.965	0.0157026
923.043	0.0156300
923.121	0.0156642
923.199	0.0156609
923.277	0.0157073
923.355	0.0155970
923.433	0.0155848
923.511	0.0153983
923.590	0.0153355
923.668	0.0153118
923.746	0.0153629
923.824	0.0151633
923.902	0.0151646
923.980	0.0150667
924.058	0.0148988
924.136	0.0149823
924.215	0.0150189
924.293	0.0151436
924.371	0.0151441
924.449	0.0151197
924.527	0.0152332
924.605	0.0152908
924.683	0.0153130
924.761	0.0153909
924.840	0.0155244
924.918	0.0155422
924.996	0.0155595
925.074	0.0156985
925.152	0.0156458
925.230	0.0157111
925.308	0.0155851
925.386	0.0156580
925.465	0.0156292
925.543	0.0155549
925.621	0.0156295
925.699	0.0155687
925.777	0.0156104
925.855	0.0155286
925.933	0.0155528
926.011	0.0155678
926.090	0.0155616
926.168	0.0154939
926.246	0.0154706
926.324	0.0154099
926.402	0.0154003
926.480	0.0153419
926.558	0.0153565
926.636	0.0153585
926.715	0.0153244
926.793	0.0154185
926.871	0.0153796
926.949	0.0153467
927.027	0.0154948
927.105	0.0153162
927.183	0.0154049
927.261	0.0154781
927.340	0.0153791
927.418	0.0153220
927.496	0.0155550
927.574	0.0154706
927.652	0.0154449
927.730	0.0153700
927.808	0.0153207
927.886	0.0153506
927.965	0.0153767
928.043	0.0154076
928.121	0.0153202
928.199	0.0154542
928.277	0.0154621
928.355	0.0154682
928.433	0.0155218
928.511	0.0156932
928.590	0.0156836
928.668	0.0157959
928.746	0.0157943
928.824	0.0158401
928.902	0.0157153
928.980	0.0157284
929.058	0.0157912
929.136	0.0157989
929.215	0.0157974
929.293	0.0156787
929.371	0.0156462
929.449	0.0155878
929.527	0.0154646
929.605	0.0154336
929.683	0.0153400
929.761	0.0152985
929.840	0.0152966
929.918	0.0152701
929.996	0.0151888
930.074	0.0152253
930.152	0.0151037
930.230	0.0151316
930.308	0.0151076
930.386	0.0152567
930.465	0.0152869
930.543	0.0153992
930.621	0.0154587
930.699	0.0153222
930.777	0.0154720
930.855	0.0155318
930.933	0.0154848
931.011	0.0154193
931.090	0.0155109
931.168	0.0156584
931.246	0.0156487
931.324	0.0157108
931.402	0.0156355
931.480	0.0156960
931.558	0.0156543
931.636	0.0154631
931.715	0.0156389
931.793	0.0155840
931.871	0.0155436
931.949	0.0154450
932.027	0.0154699
932.105	0.0153969
932.183	0.0153353
932.261	0.0154025
932.340	0.0152525
932.418	0.0151638
932.496	0.0153242
932.574	0.0153084
932.652	0.0153320
932.730	0.0154045
932.808	0.0153238
932.886	0.0154139
932.965	0.0154913
933.043	0.0154755
933.121	0.0154376
933.199	0.0155950
933.277	0.0155540
933.355	0.0155621
933.433	0.0155158
933.511	0.0154913
933.590	0.0154819
933.668	0.0155019
933.746	0.0154618
933.824	0.0156366
933.902	0.0155887
933.980	0.0155966
934.058	0.0156156
934.136	0.0155331
934.215	0.0154887
934.293	0.0155781
934.371	0.0155438
934.449	0.0155706
934.527	0.0156170
934.605	0.0157132
934.683	0.0156219
934.761	0.0156242
934.840	0.0156086
934.918	0.0155256
934.996	0.0155006
935.074	0.0156273
935.152	0.0156682
935.230	0.0155886
935.308	0.0154796
935.386	0.0154775
935.465	0.0155431
935.543	0.0155504
935.621	0.0154384
935.699	0.0153995
935.777	0.0154463
935.855	0.0154094
935.933	0.0154916
936.011	0.0153553
936.090	0.0154393
936.168	0.0153867
936.246	0.0153613
936.324	0.0154489
936.402	0.0154602
936.480	0.0155704
936.558	0.0155463
936.636	0.0155954
936.715	0.0154488
936.793	0.0155312
936.871	0.0155056
936.949	0.0155269
937.027	0.0153774
937.105	0.0153655
937.183	0.0154583
937.261	0.0154640
937.340	0.0152090
937.418	0.0152916
937.496	0.0152701
937.574	0.0152969
937.652	0.0152750
937.730	0.0152375
937.808	0.0153577
937.886	0.0153150
937.965	0.0152316
938.043	0.0152826
938.121	0.0153270
938.199	0.0152708
938.277	0.0153963
938.355	0.0153613
938.433	0.0155369
938.511	0.0155082
938.590	0.0154358
938.668	0.0157001
938.746	0.0156113
938.824	0.0156154
938.902	0.0155423
938.980	0.0155122
939.058	0.0156256
939.136	0.0155888
939.215	0.0154684
939.293	0.0155090
939.371	0.0155958
939.449	0.0155092
939.527	0.0155272
939.605	0.0156000
939.683	0.0155341
939.761	0.0154858
939.840	0.0153506
939.918	0.0155629
939.996	0.0154182
940.074	0.0154219
940.152	0.0154930
940.230	0.0155247
940.308	0.0154876
940.386	0.0155149
940.465	0.0154227
940.543	0.0155296
940.621	0.0154587
940.699	0.0154966
940.777	0.0156409
940.855	0.0155162
940.933	0.0155010
941.011	0.0154441
941.090	0.0154704
941.168	0.0154423
941.246	0.0153895
941.324	0.0154478
941.402	0.0155710
941.480	0.0154561
941.558	0.0154367
941.636	0.0155033
941.715	0.0155098
941.793	0.0156149
941.871	0.0154836
941.949	0.0155056
942.027	0.0155937
942.105	0.0154939
942.183	0.0155649
942.261	0.0155759
942.340	0.0155275
942.418	0.0155257
942.496	0.0155235
942.574	0.0155308
942.652	0.0156643
942.730	0.0154819
942.808	0.0153477
942.886	0.0154250
942.965	0.0154424
943.043	0.0154243
943.121	0.0154151
943.199	0.0155515
943.277	0.0153703
943.355	0.0152824
943.433	0.0154377
943.511	0.0153362
943.590	0.0152872
943.668	0.0153869
943.746	0.0152381
943.824	0.0154044
943.902	0.0154760
943.980	0.0154821
944.058	0.0153870
944.136	0.0154313
944.215	0.0153804
944.293	0.0155943
944.371	0.0154117
944.449	0.0154860
944.527	0.0156178
944.605	0.0156497
944.683	0.0155928
944.761	0.0156078
944.840	0.0154082
944.918	0.0155747
944.996	0.0154443
945.074	0.0155283
945.152	0.0154539
945.230	0.0154640
945.308	0.0153868
945.386	0.0154514
945.465	0.0154398
945.543	0.0153237
945.621	0.0152704
945.699	0.0152255
945.777	0.0152870
945.855	0.0152480
945.933	0.0152755
946.011	0.0151263
946.090	0.0152588
946.168	0.0153922
946.246	0.0154412
946.324	0.0152690
946.402	0.0153391
946.480	0.0154121
946.558	0.0155570
946.636	0.0155528
946.715	0.0155438
946.793	0.0155538
946.871	0.0156327
946.949	0.0155928
947.027	0.0155915
947.105	0.0155940
947.183	0.0156770
947.261	0.0157238
947.340	0.0156779
947.418	0.0156968
947.496	0.0156527
947.574	0.0156803
947.652	0.0156292
947.730	0.0156004
947.808	0.0156461
947.886	0.0155962
947.965	0.0156399
948.043	0.0156246
948.121	0.0155018
948.199	0.0154023
948.277	0.0154818
948.355	0.0153159
948.433	0.0155058
948.511	0.0154955
948.590	0.0153855
948.668	0.0153976
948.746	0.0154608
948.824	0.0154365
948.902	0.0153829
948.980	0.0154613
949.058	0.0153288
949.136	0.0153072
949.215	0.0155226
949.293	0.0155130
949.371	0.0154475
949.449	0.0154623
949.527	0.0155797
949.605	0.0155511
949.683	0.0155705
949.761	0.0155653
949.840	0.0155879
949.918	0.0155872
