06/29/2022	21:21:08	Ver.	4.1	UNKNOWN
Optical Delay	629.995835	Delta X		0.078125	Sweeps	1	Scan Rate	0/0
Coordinates	Axis 1	NaN	Axis 2	NaN	Axis 3	NaN	Axis 4	NaN	Axis 5	NaN	Axis 6	0.000000
TX Power	0.000000	RX Power	0.000000

629.996	0.0162085
630.074	0.0161806
630.152	0.0161182
630.230	0.0161870
630.308	0.0161931
630.386	0.0162378
630.465	0.0161001
630.543	0.0161430
630.621	0.0162386
630.699	0.0160706
630.777	0.0162392
630.855	0.0161158
630.933	0.0160712
631.011	0.0162521
631.090	0.0161118
631.168	0.0162180
631.246	0.0161945
631.324	0.0161143
631.402	0.0162577
631.480	0.0161375
631.558	0.0160822
631.636	0.0162201
631.715	0.0161081
631.793	0.0160390
631.871	0.0160454
631.949	0.0162262
632.027	0.0160590
632.105	0.0161257
632.183	0.0162277
632.261	0.0162103
632.340	0.0161073
632.418	0.0162070
632.496	0.0162218
632.574	0.0163456
632.652	0.0163928
632.730	0.0163058
632.808	0.0161249
632.886	0.0161828
632.965	0.0162479
633.043	0.0161988
633.121	0.0162086
633.199	0.0162780
633.277	0.0162008
633.355	0.0160880
633.433	0.0160878
633.511	0.0160835
633.590	0.0161918
633.668	0.0162189
633.746	0.0161396
633.824	0.0161363
633.902	0.0162864
633.980	0.0162133
634.058	0.0161082
634.136	0.0161974
634.215	0.0161490
634.293	0.0162038
634.371	0.0162594
634.449	0.0161331
634.527	0.0162413
634.605	0.0161356
634.683	0.0162446
634.761	0.0161642
634.840	0.0161353
634.918	0.0161855
634.996	0.0160844
635.074	0.0162041
635.152	0.0162507
635.230	0.0162526
635.308	0.0161894
635.386	0.0160797
635.465	0.0160860
635.543	0.0161513
635.621	0.0162276
635.699	0.0162296
635.777	0.0162349
635.855	0.0162755
635.933	0.0161917
636.011	0.0161695
636.090	0.0161436
636.168	0.0161197
636.246	0.0161940
636.324	0.0162428
636.402	0.0161811
636.480	0.0161934
636.558	0.0162876
636.636	0.0161167
636.715	0.0162440
636.793	0.0161931
636.871	0.0160409
636.949	0.0161500
637.027	0.0161788
637.105	0.0162608
637.183	0.0161975
637.261	0.0160506
637.340	0.0161081
637.418	0.0161858
637.496	0.0161571
637.574	0.0162605
637.652	0.0162721
637.730	0.0161444
637.808	0.0162139
637.886	0.0162401
637.965	0.0161398
638.043	0.0161186
638.121	0.0161005
638.199	0.0161238
638.277	0.0162778
638.355	0.0162858
638.433	0.0161233
638.511	0.0160464
638.590	0.0161679
638.668	0.0162225
638.746	0.0161074
638.824	0.0161369
638.902	0.0160995
638.980	0.0162013
639.058	0.0161943
639.136	0.0161220
639.215	0.0162805
639.293	0.0161635
639.371	0.0161160
639.449	0.0161054
639.527	0.0160010
639.605	0.0161442
639.683	0.0161929
639.761	0.0161320
639.840	0.0161397
639.918	0.0161217
639.996	0.0161769
640.074	0.0161688
640.152	0.0161471
640.230	0.0160830
640.308	0.0163113
640.386	0.0161820
640.465	0.0161464
640.543	0.0161993
640.621	0.0162360
640.699	0.0161894
640.777	0.0160912
640.855	0.0161021
640.933	0.0161391
641.011	0.0161760
641.090	0.0161662
641.168	0.0161858
641.246	0.0162318
641.324	0.0163123
641.402	0.0162711
641.480	0.0162432
641.558	0.0161731
641.636	0.0162268
641.715	0.0162012
641.793	0.0161779
641.871	0.0160976
641.949	0.0162086
642.027	0.0160542
642.105	0.0162920
642.183	0.0161160
642.261	0.0163004
642.340	0.0162203
642.418	0.0162233
642.496	0.0162618
642.574	0.0161177
642.652	0.0161837
642.730	0.0161363
642.808	0.0161452
642.886	0.0160148
642.965	0.0162671
643.043	0.0162325
643.121	0.0162423
643.199	0.0161027
643.277	0.0162367
643.355	0.0161754
643.433	0.0161292
643.511	0.0162312
643.590	0.0162954
643.668	0.0161913
643.746	0.0160798
643.824	0.0161143
643.902	0.0163248
643.980	0.0162447
644.058	0.0162043
644.136	0.0161446
644.215	0.0162144
644.293	0.0161882
644.371	0.0162059
644.449	0.0161983
644.527	0.0162254
644.605	0.0162269
644.683	0.0162416
644.761	0.0162502
644.840	0.0161993
644.918	0.0162206
644.996	0.0162967
645.074	0.0161358
645.152	0.0161381
645.230	0.0161998
645.308	0.0163248
645.386	0.0160987
645.465	0.0160947
645.543	0.0162125
645.621	0.0161699
645.699	0.0162823
645.777	0.0161913
645.855	0.0162381
645.933	0.0161746
646.011	0.0161643
646.090	0.0161168
646.168	0.0163280
646.246	0.0161964
646.324	0.0161413
646.402	0.0163423
646.480	0.0162751
646.558	0.0162880
646.636	0.0164140
646.715	0.0161809
646.793	0.0162716
646.871	0.0162767
646.949	0.0162650
647.027	0.0161766
647.105	0.0162408
647.183	0.0162231
647.261	0.0162358
647.340	0.0161275
647.418	0.0161424
647.496	0.0162486
647.574	0.0162456
647.652	0.0162363
647.730	0.0161927
647.808	0.0162164
647.886	0.0162738
647.965	0.0162016
648.043	0.0162154
648.121	0.0163062
648.199	0.0162195
648.277	0.0160902
648.355	0.0161312
648.433	0.0163200
648.511	0.0162433
648.590	0.0161327
648.668	0.0162303
648.746	0.0162827
648.824	0.0161271
648.902	0.0161117
648.980	0.0161909
649.058	0.0161332
649.136	0.0162718
649.215	0.0162307
649.293	0.0161180
649.371	0.0162234
649.449	0.0162386
649.527	0.0161371
649.605	0.0161956
649.683	0.0161424
649.761	0.0161898
649.840	0.0161224
649.918	0.0162645
649.996	0.0162556
650.074	0.0161887
650.152	0.0162202
650.230	0.0161944
650.308	0.0161835
650.386	0.0160664
650.465	0.0161819
650.543	0.0163493
650.621	0.0162539
650.699	0.0162717
650.777	0.0163316
650.855	0.0161943
650.933	0.0161194
651.011	0.0163008
651.090	0.0162901
651.168	0.0162428
651.246	0.0162751
651.324	0.0162850
651.402	0.0161189
651.480	0.0161678
651.558	0.0161135
651.636	0.0163100
651.715	0.0162257
651.793	0.0160542
651.871	0.0161351
651.949	0.0162086
652.027	0.0162447
652.105	0.0161405
652.183	0.0161977
652.261	0.0161327
652.340	0.0161860
652.418	0.0161304
652.496	0.0161013
652.574	0.0161716
652.652	0.0160462
652.730	0.0162395
652.808	0.0162083
652.886	0.0161404
652.965	0.0161251
653.043	0.0159929
653.121	0.0159184
653.199	0.0160770
653.277	0.0161361
653.355	0.0160141
653.433	0.0162027
653.511	0.0161253
653.590	0.0161378
653.668	0.0161166
653.746	0.0161507
653.824	0.0162787
653.902	0.0161739
653.980	0.0161665
654.058	0.0161301
654.136	0.0161481
654.215	0.0162498
654.293	0.0161529
654.371	0.0162186
654.449	0.0161744
654.527	0.0161777
654.605	0.0160994
654.683	0.0162607
654.761	0.0161691
654.840	0.0160385
654.918	0.0161862
654.996	0.0161185
655.074	0.0160405
655.152	0.0161520
655.230	0.0161938
655.308	0.0161893
655.386	0.0162897
655.465	0.0162375
655.543	0.0161173
655.621	0.0161636
655.699	0.0162738
655.777	0.0160436
655.855	0.0160410
655.933	0.0161662
656.011	0.0162363
656.090	0.0162172
656.168	0.0161964
656.246	0.0162037
656.324	0.0163009
656.402	0.0161012
656.480	0.0161246
656.558	0.0161589
656.636	0.0161367
656.715	0.0162014
656.793	0.0162033
656.871	0.0162580
656.949	0.0163029
657.027	0.0161597
657.105	0.0160043
657.183	0.0161725
657.261	0.0160789
657.340	0.0160319
657.418	0.0161367
657.496	0.0161678
657.574	0.0161336
657.652	0.0162855
657.730	0.0163287
657.808	0.0161605
657.886	0.0161859
657.965	0.0162796
658.043	0.0159959
658.121	0.0162270
658.199	0.0161511
658.277	0.0162640
658.355	0.0162132
658.433	0.0160937
658.511	0.0161201
658.590	0.0161928
658.668	0.0160782
658.746	0.0161629
658.824	0.0161597
658.902	0.0160769
658.980	0.0160516
659.058	0.0161620
659.136	0.0161219
659.215	0.0162238
659.293	0.0161987
659.371	0.0160879
659.449	0.0162225
659.527	0.0161038
659.605	0.0162198
659.683	0.0161776
659.761	0.0161242
659.840	0.0161901
659.918	0.0161343
659.996	0.0161201
660.074	0.0161259
660.152	0.0160664
660.230	0.0162457
660.308	0.0161842
660.386	0.0162080
660.465	0.0162894
660.543	0.0161580
660.621	0.0161280
660.699	0.0160995
660.777	0.0161387
660.855	0.0162065
660.933	0.0160983
661.011	0.0159871
661.090	0.0160982
661.168	0.0162164
661.246	0.0161694
661.324	0.0160831
661.402	0.0160791
661.480	0.0161230
661.558	0.0161670
661.636	0.0162674
661.715	0.0162436
661.793	0.0161401
661.871	0.0160569
661.949	0.0161446
662.027	0.0161733
662.105	0.0162411
662.183	0.0160784
662.261	0.0161342
662.340	0.0161362
662.418	0.0161388
662.496	0.0162582
662.574	0.0161365
662.652	0.0161579
662.730	0.0160523
662.808	0.0161260
662.886	0.0162121
662.965	0.0160509
663.043	0.0161184
663.121	0.0162443
663.199	0.0162701
663.277	0.0161423
663.355	0.0161399
663.433	0.0162170
663.511	0.0161679
663.590	0.0161270
663.668	0.0161233
663.746	0.0161035
663.824	0.0161413
663.902	0.0160667
663.980	0.0161801
664.058	0.0162579
664.136	0.0161649
664.215	0.0162755
664.293	0.0160133
664.371	0.0162887
664.449	0.0161937
664.527	0.0160982
664.605	0.0161324
664.683	0.0162549
664.761	0.0161744
664.840	0.0160623
664.918	0.0161937
664.996	0.0162443
665.074	0.0160630
665.152	0.0163007
665.230	0.0162794
665.308	0.0160262
665.386	0.0161050
665.465	0.0162939
665.543	0.0162724
665.621	0.0161926
665.699	0.0161873
665.777	0.0161290
665.855	0.0161300
665.933	0.0161454
666.011	0.0162295
666.090	0.0161709
666.168	0.0161314
666.246	0.0161460
666.324	0.0163161
666.402	0.0161037
666.480	0.0162868
666.558	0.0163332
666.636	0.0161104
666.715	0.0162452
666.793	0.0162189
666.871	0.0163519
666.949	0.0163067
667.027	0.0162123
667.105	0.0161489
667.183	0.0160127
667.261	0.0162444
667.340	0.0162950
667.418	0.0162488
667.496	0.0161857
667.574	0.0161629
667.652	0.0161901
667.730	0.0161950
667.808	0.0163189
667.886	0.0162414
667.965	0.0160799
668.043	0.0162604
668.121	0.0162313
668.199	0.0161060
668.277	0.0162666
668.355	0.0163117
668.433	0.0162328
668.511	0.0161941
668.590	0.0161823
668.668	0.0162260
668.746	0.0160714
668.824	0.0161603
668.902	0.0162183
668.980	0.0162264
669.058	0.0162457
669.136	0.0162071
669.215	0.0160917
669.293	0.0162787
669.371	0.0161662
669.449	0.0162350
669.527	0.0162093
669.605	0.0161008
669.683	0.0162119
669.761	0.0160773
669.840	0.0161749
669.918	0.0161845
669.996	0.0162916
670.074	0.0161024
670.152	0.0160510
670.230	0.0162169
670.308	0.0162257
670.386	0.0161437
670.465	0.0162759
670.543	0.0162583
670.621	0.0161828
670.699	0.0161279
670.777	0.0161420
670.855	0.0162226
670.933	0.0161774
671.011	0.0162585
671.090	0.0162635
671.168	0.0160482
671.246	0.0161445
671.324	0.0161824
671.402	0.0161648
671.480	0.0161210
671.558	0.0161512
671.636	0.0161206
671.715	0.0161946
671.793	0.0161119
671.871	0.0162196
671.949	0.0161657
672.027	0.0162444
672.105	0.0160783
672.183	0.0161095
672.261	0.0161842
672.340	0.0160840
672.418	0.0161688
672.496	0.0162651
672.574	0.0161123
672.652	0.0160725
672.730	0.0162496
672.808	0.0161720
672.886	0.0161675
672.965	0.0161420
673.043	0.0162573
673.121	0.0162460
673.199	0.0161470
673.277	0.0162305
673.355	0.0162260
673.433	0.0161717
673.511	0.0160805
673.590	0.0160937
673.668	0.0161247
673.746	0.0160650
673.824	0.0162316
673.902	0.0162010
673.980	0.0160853
674.058	0.0160651
674.136	0.0162036
674.215	0.0162595
674.293	0.0161140
674.371	0.0162685
674.449	0.0162161
674.527	0.0162370
674.605	0.0161975
674.683	0.0162170
674.761	0.0160628
674.840	0.0159901
674.918	0.0162149
674.996	0.0162017
675.074	0.0162004
675.152	0.0162216
675.230	0.0161423
675.308	0.0161336
675.386	0.0162196
675.465	0.0161825
675.543	0.0162247
675.621	0.0161797
675.699	0.0162095
675.777	0.0160603
675.855	0.0160856
675.933	0.0161577
676.011	0.0160862
676.090	0.0161578
676.168	0.0162249
676.246	0.0160578
676.324	0.0162405
676.402	0.0160629
676.480	0.0161651
676.558	0.0161559
676.636	0.0160925
676.715	0.0162092
676.793	0.0161697
676.871	0.0161530
676.949	0.0162135
677.027	0.0161436
677.105	0.0162392
677.183	0.0162376
677.261	0.0163354
677.340	0.0160313
677.418	0.0160938
677.496	0.0160612
677.574	0.0160948
677.652	0.0161353
677.730	0.0161516
677.808	0.0161595
677.886	0.0162020
677.965	0.0160625
678.043	0.0161288
678.121	0.0161179
678.199	0.0163666
678.277	0.0160823
678.355	0.0160896
678.433	0.0161277
678.511	0.0162056
678.590	0.0161880
678.668	0.0161479
678.746	0.0161011
678.824	0.0161285
678.902	0.0160565
678.980	0.0161495
679.058	0.0160938
679.136	0.0162639
679.215	0.0164028
679.293	0.0163445
679.371	0.0161095
679.449	0.0162644
679.527	0.0163972
679.605	0.0160363
679.683	0.0161353
679.761	0.0161478
679.840	0.0162539
679.918	0.0162958
679.996	0.0161961
680.074	0.0160947
680.152	0.0161687
680.230	0.0164281
680.308	0.0163467
680.386	0.0162490
680.465	0.0162278
680.543	0.0161518
680.621	0.0163761
680.699	0.0163083
680.777	0.0162076
680.855	0.0162620
680.933	0.0163057
681.011	0.0162498
681.090	0.0161371
681.168	0.0160920
681.246	0.0160689
681.324	0.0162276
681.402	0.0161718
681.480	0.0162017
681.558	0.0161423
681.636	0.0162435
681.715	0.0161951
681.793	0.0160419
681.871	0.0162718
681.949	0.0162988
682.027	0.0162459
682.105	0.0161677
682.183	0.0161443
682.261	0.0162102
682.340	0.0162361
682.418	0.0161690
682.496	0.0162350
682.574	0.0162408
682.652	0.0162164
682.730	0.0161997
682.808	0.0162252
682.886	0.0162123
682.965	0.0161846
683.043	0.0161961
683.121	0.0164198
683.199	0.0162342
683.277	0.0162704
683.355	0.0161713
683.433	0.0163041
683.511	0.0162224
683.590	0.0161301
683.668	0.0161900
683.746	0.0160033
683.824	0.0160232
683.902	0.0161349
683.980	0.0161056
684.058	0.0163471
684.136	0.0163033
684.215	0.0162206
684.293	0.0162950
684.371	0.0163255
684.449	0.0162746
684.527	0.0164102
684.605	0.0163937
684.683	0.0163084
684.761	0.0162389
684.840	0.0160332
684.918	0.0160831
684.996	0.0160972
685.074	0.0160142
685.152	0.0160481
685.230	0.0160933
685.308	0.0159628
685.386	0.0161538
685.465	0.0161715
685.543	0.0162188
685.621	0.0161908
685.699	0.0162465
685.777	0.0162489
685.855	0.0162944
685.933	0.0162436
686.011	0.0163106
686.090	0.0163661
686.168	0.0163091
686.246	0.0164939
686.324	0.0163199
686.402	0.0163185
686.480	0.0161996
686.558	0.0162114
686.636	0.0162136
686.715	0.0161717
686.793	0.0162250
686.871	0.0162605
686.949	0.0161935
687.027	0.0161551
687.105	0.0161134
687.183	0.0161256
687.261	0.0162447
687.340	0.0163098
687.418	0.0162558
687.496	0.0161912
687.574	0.0161867
687.652	0.0161589
687.730	0.0162080
687.808	0.0162084
687.886	0.0160983
687.965	0.0161044
688.043	0.0160708
688.121	0.0159801
688.199	0.0161311
688.277	0.0160493
688.355	0.0161828
688.433	0.0162328
688.511	0.0163596
688.590	0.0161837
688.668	0.0163198
688.746	0.0163706
688.824	0.0163933
688.902	0.0161371
688.980	0.0163389
689.058	0.0161883
689.136	0.0161691
689.215	0.0162086
689.293	0.0162572
689.371	0.0161375
689.449	0.0161161
689.527	0.0161556
689.605	0.0160860
689.683	0.0160602
689.761	0.0160657
689.840	0.0161732
689.918	0.0162402
689.996	0.0162139
690.074	0.0162479
690.152	0.0162223
690.230	0.0162862
690.308	0.0164107
690.386	0.0163062
690.465	0.0164299
690.543	0.0162975
690.621	0.0164305
690.699	0.0162363
690.777	0.0162846
690.855	0.0161461
690.933	0.0160858
691.011	0.0161584
691.090	0.0160674
691.168	0.0162576
691.246	0.0162310
691.324	0.0164233
691.402	0.0163425
691.480	0.0163931
691.558	0.0162474
691.636	0.0163057
691.715	0.0163248
691.793	0.0162449
691.871	0.0160785
691.949	0.0159680
692.027	0.0158781
692.105	0.0160072
692.183	0.0159756
692.261	0.0159338
692.340	0.0159169
692.418	0.0159684
692.496	0.0161533
692.574	0.0163680
692.652	0.0164157
692.730	0.0162383
692.808	0.0163984
692.886	0.0163526
692.965	0.0164397
693.043	0.0163123
693.121	0.0164656
693.199	0.0163151
693.277	0.0162897
693.355	0.0159895
693.433	0.0160009
693.511	0.0161147
693.590	0.0157655
693.668	0.0158683
693.746	0.0160138
693.824	0.0158636
693.902	0.0158434
693.980	0.0159849
694.058	0.0160993
694.136	0.0161446
694.215	0.0162379
694.293	0.0162729
694.371	0.0162644
694.449	0.0164014
694.527	0.0164465
694.605	0.0163943
694.683	0.0164731
694.761	0.0164763
694.840	0.0163573
694.918	0.0163022
694.996	0.0163088
695.074	0.0163708
695.152	0.0161812
695.230	0.0160486
695.308	0.0160368
695.386	0.0160909
695.465	0.0159847
695.543	0.0160571
695.621	0.0161255
695.699	0.0160635
695.777	0.0161507
695.855	0.0161420
695.933	0.0162157
696.011	0.0161529
696.090	0.0160745
696.168	0.0161805
696.246	0.0163390
696.324	0.0161803
696.402	0.0162080
696.480	0.0162112
696.558	0.0163338
696.636	0.0161451
696.715	0.0162541
696.793	0.0163000
696.871	0.0162582
696.949	0.0163261
697.027	0.0162321
697.105	0.0161945
697.183	0.0161044
697.261	0.0161448
697.340	0.0162963
697.418	0.0161570
697.496	0.0162025
697.574	0.0160819
697.652	0.0162017
697.730	0.0162432
697.808	0.0161676
697.886	0.0161118
697.965	0.0162536
698.043	0.0162041
698.121	0.0162399
698.199	0.0163807
698.277	0.0161677
698.355	0.0160846
698.433	0.0161320
698.511	0.0161469
698.590	0.0162663
698.668	0.0161434
698.746	0.0160197
698.824	0.0159506
698.902	0.0161520
698.980	0.0162041
699.058	0.0161356
699.136	0.0161994
699.215	0.0162723
699.293	0.0165347
699.371	0.0163259
699.449	0.0163972
699.527	0.0163342
699.605	0.0163943
699.683	0.0163124
699.761	0.0160979
699.840	0.0160626
699.918	0.0161386
699.996	0.0160008
700.074	0.0160111
700.152	0.0160320
700.230	0.0159174
700.308	0.0160665
700.386	0.0160388
700.465	0.0161031
700.543	0.0161731
700.621	0.0163248
700.699	0.0163506
700.777	0.0164420
700.855	0.0164410
700.933	0.0165202
701.011	0.0165558
701.090	0.0163889
701.168	0.0163477
701.246	0.0164125
701.324	0.0162673
701.402	0.0164329
701.480	0.0163203
701.558	0.0161389
701.636	0.0162174
701.715	0.0160139
701.793	0.0160029
701.871	0.0160474
701.949	0.0160652
702.027	0.0161414
702.105	0.0162368
702.183	0.0160589
702.261	0.0160555
702.340	0.0161136
702.418	0.0162350
702.496	0.0161585
702.574	0.0160450
702.652	0.0161624
702.730	0.0161587
702.808	0.0161875
702.886	0.0161703
702.965	0.0161173
703.043	0.0161752
703.121	0.0163039
703.199	0.0161074
703.277	0.0160355
703.355	0.0160389
703.433	0.0161475
703.511	0.0160834
703.590	0.0160962
703.668	0.0160604
703.746	0.0161581
703.824	0.0159871
703.902	0.0162212
703.980	0.0161286
704.058	0.0160705
704.136	0.0161312
704.215	0.0161433
704.293	0.0163084
704.371	0.0163297
704.449	0.0163581
704.527	0.0163012
704.605	0.0162589
704.683	0.0163280
704.761	0.0164973
704.840	0.0164162
704.918	0.0162965
704.996	0.0164265
705.074	0.0164310
705.152	0.0164090
705.230	0.0162811
705.308	0.0163482
705.386	0.0163280
705.465	0.0161504
705.543	0.0161573
705.621	0.0162164
705.699	0.0164211
705.777	0.0163732
705.855	0.0163313
705.933	0.0163080
706.011	0.0161888
706.090	0.0162171
706.168	0.0162299
706.246	0.0160736
706.324	0.0162222
706.402	0.0161580
706.480	0.0160948
706.558	0.0160027
706.636	0.0159758
706.715	0.0160189
706.793	0.0157396
706.871	0.0158137
706.949	0.0156122
707.027	0.0157990
707.105	0.0157105
707.183	0.0157649
707.261	0.0157796
707.340	0.0159476
707.418	0.0159243
707.496	0.0159341
707.574	0.0160126
707.652	0.0161983
707.730	0.0162370
707.808	0.0163007
707.886	0.0162145
707.965	0.0161926
708.043	0.0161477
708.121	0.0161316
708.199	0.0160589
708.277	0.0161723
708.355	0.0161472
708.433	0.0161237
708.511	0.0161723
708.590	0.0162948
708.668	0.0160566
708.746	0.0164552
708.824	0.0163858
708.902	0.0163324
708.980	0.0164610
709.058	0.0166270
709.136	0.0166431
709.215	0.0165870
709.293	0.0164455
709.371	0.0166331
709.449	0.0164758
709.527	0.0164772
709.605	0.0163155
709.683	0.0162493
709.761	0.0162709
709.840	0.0162382
709.918	0.0162641
709.996	0.0162167
710.074	0.0160686
710.152	0.0160636
710.230	0.0159611
710.308	0.0161663
710.386	0.0159325
710.465	0.0159371
710.543	0.0160088
710.621	0.0159307
710.699	0.0160246
710.777	0.0159379
710.855	0.0160452
710.933	0.0161431
711.011	0.0160876
711.090	0.0161221
711.168	0.0160473
711.246	0.0161497
711.324	0.0160921
711.402	0.0160739
711.480	0.0161942
711.558	0.0162036
711.636	0.0162165
711.715	0.0161846
711.793	0.0163339
711.871	0.0162816
711.949	0.0163495
712.027	0.0163657
712.105	0.0161889
712.183	0.0163599
712.261	0.0163491
712.340	0.0163382
712.418	0.0162675
712.496	0.0161697
712.574	0.0161785
712.652	0.0161290
712.730	0.0161052
712.808	0.0159788
712.886	0.0159682
712.965	0.0161134
713.043	0.0159882
713.121	0.0158836
713.199	0.0159013
713.277	0.0160881
713.355	0.0158224
713.433	0.0159901
713.511	0.0159411
713.590	0.0159396
713.668	0.0159931
713.746	0.0159348
713.824	0.0159708
713.902	0.0157779
713.980	0.0159545
714.058	0.0160760
714.136	0.0160815
714.215	0.0159930
714.293	0.0160201
714.371	0.0161085
714.449	0.0162228
714.527	0.0161915
714.605	0.0162419
714.683	0.0162561
714.761	0.0161957
714.840	0.0163643
714.918	0.0163709
714.996	0.0163233
715.074	0.0163547
715.152	0.0163064
715.230	0.0163252
715.308	0.0162343
715.386	0.0162292
715.465	0.0161640
715.543	0.0160964
715.621	0.0160651
715.699	0.0160718
715.777	0.0160313
715.855	0.0160277
715.933	0.0161012
716.011	0.0161321
716.090	0.0161655
716.168	0.0161614
716.246	0.0162635
716.324	0.0161704
716.402	0.0161485
716.480	0.0162858
716.558	0.0163981
716.636	0.0162961
716.715	0.0164348
716.793	0.0164380
716.871	0.0164864
716.949	0.0162766
717.027	0.0164054
717.105	0.0164137
717.183	0.0164337
717.261	0.0165740
717.340	0.0164691
717.418	0.0165195
717.496	0.0162878
717.574	0.0164911
717.652	0.0165260
717.730	0.0164837
717.808	0.0164853
717.886	0.0163183
717.965	0.0163335
718.043	0.0162827
718.121	0.0162943
718.199	0.0160963
718.277	0.0160317
718.355	0.0160013
718.433	0.0159849
718.511	0.0159290
718.590	0.0159429
718.668	0.0158372
718.746	0.0158867
718.824	0.0157519
718.902	0.0157262
718.980	0.0157926
719.058	0.0156297
719.136	0.0157356
719.215	0.0157265
719.293	0.0157009
719.371	0.0158042
719.449	0.0157574
719.527	0.0158123
719.605	0.0157531
719.683	0.0157702
719.761	0.0160051
719.840	0.0159576
719.918	0.0160821
719.996	0.0161013
720.074	0.0161807
720.152	0.0160609
720.230	0.0162688
720.308	0.0162800
720.386	0.0164633
720.465	0.0163489
720.543	0.0163490
720.621	0.0163280
720.699	0.0162853
720.777	0.0163564
720.855	0.0165034
720.933	0.0164483
721.011	0.0163738
721.090	0.0162385
721.168	0.0163509
721.246	0.0162753
721.324	0.0162613
721.402	0.0161565
721.480	0.0161786
721.558	0.0161207
721.636	0.0160928
721.715	0.0160508
721.793	0.0159908
721.871	0.0159580
721.949	0.0158258
722.027	0.0157790
722.105	0.0158170
722.183	0.0158163
722.261	0.0157549
722.340	0.0157114
722.418	0.0157740
722.496	0.0159158
722.574	0.0161739
722.652	0.0160722
722.730	0.0161388
722.808	0.0163233
722.886	0.0163181
722.965	0.0163338
723.043	0.0164333
723.121	0.0165020
723.199	0.0167223
723.277	0.0167555
723.355	0.0167558
723.433	0.0166635
723.511	0.0167676
723.590	0.0167167
723.668	0.0167035
723.746	0.0167702
723.824	0.0166278
723.902	0.0165727
723.980	0.0165037
724.058	0.0164392
724.136	0.0164798
724.215	0.0162985
724.293	0.0163404
724.371	0.0163004
724.449	0.0162100
724.527	0.0162167
724.605	0.0162431
724.683	0.0159740
724.761	0.0162174
724.840	0.0161922
724.918	0.0160635
724.996	0.0160675
725.074	0.0161336
725.152	0.0161361
725.230	0.0159738
725.308	0.0159220
725.386	0.0159673
725.465	0.0159477
725.543	0.0158707
725.621	0.0158936
725.699	0.0159389
725.777	0.0158513
725.855	0.0159106
725.933	0.0158291
726.011	0.0160179
726.090	0.0160674
726.168	0.0159029
726.246	0.0160819
726.324	0.0160506
726.402	0.0160061
726.480	0.0160257
726.558	0.0161108
726.636	0.0158800
726.715	0.0160834
726.793	0.0160912
726.871	0.0158461
726.949	0.0158527
727.027	0.0158534
727.105	0.0158517
727.183	0.0156606
727.261	0.0158176
727.340	0.0157711
727.418	0.0157035
727.496	0.0157324
727.574	0.0158260
727.652	0.0159500
727.730	0.0160010
727.808	0.0160930
727.886	0.0160959
727.965	0.0162640
728.043	0.0164059
728.121	0.0164927
728.199	0.0165943
728.277	0.0165808
728.355	0.0167084
728.433	0.0165358
728.511	0.0165458
728.590	0.0166663
728.668	0.0165170
728.746	0.0165310
728.824	0.0163567
728.902	0.0164175
728.980	0.0163531
729.058	0.0163191
729.136	0.0163110
729.215	0.0162315
729.293	0.0161657
729.371	0.0160951
729.449	0.0160680
729.527	0.0161095
729.605	0.0160414
729.683	0.0159226
729.761	0.0160240
729.840	0.0160857
729.918	0.0160902
729.996	0.0161465
730.074	0.0159612
730.152	0.0160812
730.230	0.0161258
730.308	0.0160741
730.386	0.0161019
730.465	0.0161300
730.543	0.0161676
730.621	0.0161090
730.699	0.0161632
730.777	0.0163013
730.855	0.0162431
730.933	0.0163820
731.011	0.0162275
731.090	0.0163100
731.168	0.0165159
731.246	0.0165079
731.324	0.0164820
731.402	0.0167400
731.480	0.0166571
731.558	0.0168040
731.636	0.0167789
731.715	0.0169514
731.793	0.0168797
731.871	0.0170869
731.949	0.0169963
732.027	0.0168612
732.105	0.0170053
732.183	0.0170517
732.261	0.0170187
732.340	0.0167368
732.418	0.0168304
732.496	0.0167608
732.574	0.0166394
732.652	0.0164983
732.730	0.0163261
732.808	0.0161125
732.886	0.0159328
732.965	0.0160071
733.043	0.0157517
733.121	0.0157542
733.199	0.0155717
733.277	0.0152973
733.355	0.0153257
733.433	0.0150430
733.511	0.0149944
733.590	0.0149028
733.668	0.0148643
733.746	0.0147387
733.824	0.0146496
733.902	0.0148499
733.980	0.0147049
734.058	0.0148151
734.136	0.0148214
734.215	0.0147503
734.293	0.0149802
734.371	0.0152092
734.449	0.0153487
734.527	0.0154035
734.605	0.0156246
734.683	0.0155920
734.761	0.0156740
734.840	0.0161142
734.918	0.0162569
734.996	0.0164518
735.074	0.0165180
735.152	0.0166409
735.230	0.0168095
735.308	0.0168921
735.386	0.0170367
735.465	0.0171897
735.543	0.0172347
735.621	0.0171500
735.699	0.0171416
735.777	0.0171988
735.855	0.0172965
735.933	0.0171452
736.011	0.0169395
736.090	0.0168528
736.168	0.0168847
736.246	0.0167091
736.324	0.0166342
736.402	0.0166205
736.480	0.0165895
736.558	0.0165458
736.636	0.0163631
736.715	0.0163863
736.793	0.0164375
736.871	0.0164622
736.949	0.0163800
737.027	0.0163850
737.105	0.0164886
737.183	0.0164448
737.261	0.0165575
737.340	0.0164882
737.418	0.0164895
737.496	0.0164853
737.574	0.0165137
737.652	0.0164216
737.730	0.0163798
737.808	0.0163194
737.886	0.0164506
737.965	0.0163696
738.043	0.0163506
738.121	0.0162341
738.199	0.0162426
738.277	0.0161330
738.355	0.0162347
738.433	0.0162423
738.511	0.0162080
738.590	0.0161702
738.668	0.0163045
738.746	0.0161546
738.824	0.0161051
738.902	0.0161378
738.980	0.0161549
739.058	0.0161131
739.136	0.0159554
739.215	0.0160100
739.293	0.0161036
739.371	0.0160208
739.449	0.0159231
739.527	0.0159203
739.605	0.0159363
739.683	0.0159808
739.761	0.0160481
739.840	0.0160631
739.918	0.0159558
739.996	0.0161337
740.074	0.0161397
740.152	0.0159733
740.230	0.0159345
740.308	0.0160034
740.386	0.0158884
740.465	0.0158150
740.543	0.0157093
740.621	0.0156495
740.699	0.0155083
740.777	0.0153834
740.855	0.0153971
740.933	0.0154340
741.011	0.0151427
741.090	0.0150670
741.168	0.0150166
741.246	0.0150768
741.324	0.0150307
741.402	0.0149696
741.480	0.0152065
741.558	0.0148887
741.636	0.0151613
741.715	0.0154201
741.793	0.0155573
741.871	0.0155830
741.949	0.0158210
742.027	0.0158565
742.105	0.0162716
742.183	0.0162004
742.261	0.0164646
742.340	0.0165622
742.418	0.0168286
742.496	0.0171227
742.574	0.0171119
742.652	0.0172658
742.730	0.0174544
742.808	0.0173784
742.886	0.0173287
742.965	0.0172280
743.043	0.0172556
743.121	0.0174661
743.199	0.0172766
743.277	0.0172603
743.355	0.0169149
743.433	0.0169040
743.511	0.0167709
743.590	0.0165374
743.668	0.0164508
743.746	0.0163949
743.824	0.0162292
743.902	0.0164165
743.980	0.0162547
744.058	0.0160599
744.136	0.0161472
744.215	0.0161398
744.293	0.0161590
744.371	0.0160902
744.449	0.0160094
744.527	0.0161956
744.605	0.0162318
744.683	0.0163145
744.761	0.0163506
744.840	0.0162859
744.918	0.0163674
744.996	0.0162868
745.074	0.0163329
745.152	0.0163275
745.230	0.0164231
745.308	0.0164468
745.386	0.0164112
745.465	0.0162501
745.543	0.0162835
745.621	0.0162675
745.699	0.0162329
745.777	0.0161912
745.855	0.0161362
745.933	0.0161071
746.011	0.0160155
746.090	0.0162185
746.168	0.0160600
746.246	0.0161168
746.324	0.0163123
746.402	0.0161330
746.480	0.0161591
746.558	0.0162269
746.636	0.0163451
746.715	0.0162975
746.793	0.0161607
746.871	0.0162082
746.949	0.0161302
747.027	0.0160212
747.105	0.0160889
747.183	0.0159475
747.261	0.0157352
747.340	0.0157618
747.418	0.0154582
747.496	0.0154543
747.574	0.0153929
747.652	0.0153098
747.730	0.0151466
747.808	0.0149656
747.886	0.0149771
747.965	0.0150397
748.043	0.0150808
748.121	0.0150537
748.199	0.0150874
748.277	0.0150995
748.355	0.0150996
748.433	0.0153825
748.511	0.0153451
748.590	0.0154684
748.668	0.0155595
748.746	0.0156277
748.824	0.0157659
748.902	0.0159339
748.980	0.0159949
749.058	0.0162737
749.136	0.0162115
749.215	0.0163348
749.293	0.0164631
749.371	0.0164719
749.449	0.0164695
749.527	0.0166689
749.605	0.0166684
749.683	0.0166965
749.761	0.0167071
749.840	0.0166682
749.918	0.0167559
749.996	0.0166696
750.074	0.0167340
750.152	0.0167158
750.230	0.0167603
750.308	0.0166519
750.386	0.0167424
750.465	0.0168471
750.543	0.0168378
750.621	0.0168686
750.699	0.0167352
750.777	0.0168316
750.855	0.0169075
750.933	0.0170635
751.011	0.0169173
751.090	0.0169153
751.168	0.0169882
751.246	0.0169955
751.324	0.0171449
751.402	0.0170606
751.480	0.0171120
751.558	0.0170972
751.636	0.0168068
751.715	0.0169538
751.793	0.0167657
751.871	0.0166270
751.949	0.0166239
752.027	0.0166379
752.105	0.0162001
752.183	0.0161665
752.261	0.0160728
752.340	0.0158720
752.418	0.0157478
752.496	0.0156462
752.574	0.0154070
752.652	0.0154275
752.730	0.0154993
752.808	0.0153059
752.886	0.0152686
752.965	0.0153706
753.043	0.0153304
753.121	0.0155327
753.199	0.0154752
753.277	0.0157430
753.355	0.0157400
753.433	0.0159041
753.511	0.0161121
753.590	0.0161229
753.668	0.0163750
753.746	0.0164897
753.824	0.0166293
753.902	0.0166147
753.980	0.0166998
754.058	0.0167082
754.136	0.0166631
754.215	0.0166966
754.293	0.0165891
754.371	0.0163906
754.449	0.0164027
754.527	0.0163070
754.605	0.0161449
754.683	0.0160419
754.761	0.0159002
754.840	0.0158767
754.918	0.0156934
754.996	0.0155643
755.074	0.0155695
755.152	0.0154441
755.230	0.0153778
755.308	0.0153675
755.386	0.0154399
755.465	0.0154662
755.543	0.0156609
755.621	0.0154391
755.699	0.0155050
755.777	0.0156745
755.855	0.0156831
755.933	0.0157449
756.011	0.0158804
756.090	0.0159366
756.168	0.0160825
756.246	0.0162193
756.324	0.0161900
756.402	0.0162488
756.480	0.0162108
756.558	0.0162149
756.636	0.0162282
756.715	0.0163718
756.793	0.0163652
756.871	0.0165366
756.949	0.0163078
757.027	0.0163087
757.105	0.0161380
757.183	0.0162363
757.261	0.0161494
757.340	0.0160485
757.418	0.0162791
757.496	0.0162131
757.574	0.0162373
757.652	0.0162773
757.730	0.0162701
757.808	0.0163477
757.886	0.0164727
757.965	0.0164274
758.043	0.0165033
758.121	0.0165379
758.199	0.0168830
758.277	0.0169710
758.355	0.0168349
758.433	0.0169668
758.511	0.0171023
758.590	0.0170700
758.668	0.0172589
758.746	0.0173222
758.824	0.0174815
758.902	0.0174600
758.980	0.0173796
759.058	0.0172973
759.136	0.0172532
759.215	0.0172102
759.293	0.0171148
759.371	0.0169825
759.449	0.0169054
759.527	0.0165934
759.605	0.0165761
759.683	0.0163748
759.761	0.0161123
759.840	0.0159852
759.918	0.0159016
759.996	0.0156375
760.074	0.0154153
760.152	0.0152953
760.230	0.0152498
760.308	0.0151305
760.386	0.0150510
760.465	0.0151573
760.543	0.0149498
760.621	0.0150167
760.699	0.0151015
760.777	0.0152779
760.855	0.0152929
760.933	0.0154872
761.011	0.0155486
761.090	0.0158768
761.168	0.0160925
761.246	0.0161577
761.324	0.0162122
761.402	0.0164651
761.480	0.0165586
761.558	0.0166881
761.636	0.0166505
761.715	0.0167319
761.793	0.0166533
761.871	0.0166072
761.949	0.0165713
762.027	0.0165808
762.105	0.0162522
762.183	0.0162733
762.261	0.0161979
762.340	0.0160512
762.418	0.0159692
762.496	0.0159326
762.574	0.0157726
762.652	0.0157072
762.730	0.0157455
762.808	0.0157182
762.886	0.0156453
762.965	0.0158112
763.043	0.0157710
763.121	0.0159521
763.199	0.0159948
763.277	0.0161611
763.355	0.0160929
763.433	0.0162814
763.511	0.0163623
763.590	0.0163586
763.668	0.0165343
763.746	0.0166679
763.824	0.0166949
763.902	0.0166158
763.980	0.0165623
764.058	0.0164559
764.136	0.0163515
764.215	0.0163038
764.293	0.0163228
764.371	0.0161840
764.449	0.0161469
764.527	0.0158961
764.605	0.0158497
764.683	0.0156252
764.761	0.0157238
764.840	0.0156654
764.918	0.0154173
764.996	0.0152838
765.074	0.0154092
765.152	0.0154058
765.230	0.0153616
765.308	0.0154154
765.386	0.0155862
765.465	0.0157203
765.543	0.0158407
765.621	0.0160082
765.699	0.0161263
765.777	0.0161608
765.855	0.0164610
765.933	0.0167171
766.011	0.0170098
766.090	0.0171082
766.168	0.0171944
766.246	0.0174121
766.324	0.0174113
766.402	0.0176340
766.480	0.0176492
766.558	0.0177248
766.636	0.0177475
766.715	0.0175997
766.793	0.0174355
766.871	0.0172507
766.949	0.0172423
767.027	0.0171546
767.105	0.0170592
767.183	0.0165780
767.261	0.0163160
767.340	0.0161884
767.418	0.0159561
767.496	0.0157573
767.574	0.0154989
767.652	0.0154067
767.730	0.0154090
767.808	0.0152139
767.886	0.0150388
767.965	0.0150758
768.043	0.0152222
768.121	0.0151103
768.199	0.0152262
768.277	0.0155488
768.355	0.0155208
768.433	0.0156621
768.511	0.0158273
768.590	0.0157862
768.668	0.0161477
768.746	0.0162396
768.824	0.0163966
768.902	0.0164289
768.980	0.0165984
769.058	0.0165441
769.136	0.0166145
769.215	0.0166907
769.293	0.0166258
769.371	0.0165636
769.449	0.0165424
769.527	0.0163439
769.605	0.0163078
769.683	0.0162486
769.761	0.0163317
769.840	0.0162083
769.918	0.0161697
769.996	0.0161134
770.074	0.0160832
770.152	0.0161505
770.230	0.0160079
770.308	0.0159672
770.386	0.0161185
770.465	0.0161134
770.543	0.0161204
770.621	0.0160028
770.699	0.0159339
770.777	0.0161417
770.855	0.0160459
770.933	0.0160714
771.011	0.0159726
771.090	0.0161527
771.168	0.0162000
771.246	0.0161234
771.324	0.0161321
771.402	0.0161468
771.480	0.0159419
771.558	0.0159703
771.636	0.0160397
771.715	0.0160395
771.793	0.0161746
771.871	0.0160410
771.949	0.0159528
772.027	0.0158965
772.105	0.0158234
772.183	0.0158810
772.261	0.0159257
772.340	0.0157449
772.418	0.0157524
772.496	0.0157809
772.574	0.0157569
772.652	0.0158218
772.730	0.0156735
772.808	0.0157284
772.886	0.0158275
772.965	0.0157821
773.043	0.0158101
773.121	0.0159287
773.199	0.0160678
773.277	0.0161224
773.355	0.0162833
773.433	0.0163043
773.511	0.0164008
773.590	0.0166472
773.668	0.0167607
773.746	0.0167554
773.824	0.0168605
773.902	0.0170119
773.980	0.0169658
774.058	0.0170263
774.136	0.0171078
774.215	0.0169862
774.293	0.0170219
774.371	0.0171251
774.449	0.0170081
774.527	0.0169912
774.605	0.0166894
774.683	0.0168056
774.761	0.0164745
774.840	0.0163994
774.918	0.0162471
774.996	0.0159288
775.074	0.0160217
775.152	0.0159910
775.230	0.0158060
775.308	0.0156384
775.386	0.0155628
775.465	0.0155634
775.543	0.0155627
775.621	0.0156156
775.699	0.0155537
775.777	0.0156369
775.855	0.0157592
775.933	0.0157204
776.011	0.0159725
776.090	0.0159492
776.168	0.0160595
776.246	0.0160229
776.324	0.0161397
776.402	0.0161437
776.480	0.0161185
776.558	0.0164651
776.636	0.0164642
776.715	0.0163694
776.793	0.0163526
776.871	0.0164305
776.949	0.0164915
777.027	0.0163195
777.105	0.0164552
777.183	0.0164252
777.261	0.0163293
777.340	0.0164195
777.418	0.0164265
777.496	0.0161545
777.574	0.0160931
777.652	0.0161791
777.730	0.0161296
777.808	0.0162543
777.886	0.0160457
777.965	0.0159671
778.043	0.0159856
778.121	0.0159652
778.199	0.0159153
778.277	0.0157031
778.355	0.0159179
778.433	0.0159687
778.511	0.0158866
778.590	0.0158790
778.668	0.0159716
778.746	0.0159066
778.824	0.0159145
778.902	0.0160519
778.980	0.0159690
779.058	0.0160921
779.136	0.0160480
779.215	0.0161144
779.293	0.0161139
779.371	0.0161113
779.449	0.0161489
779.527	0.0162029
779.605	0.0162035
779.683	0.0161075
779.761	0.0161448
779.840	0.0160589
779.918	0.0160371
779.996	0.0162067
780.074	0.0161351
780.152	0.0161573
780.230	0.0161513
780.308	0.0161463
780.386	0.0161446
780.465	0.0160645
780.543	0.0161070
780.621	0.0160296
780.699	0.0162633
780.777	0.0162090
780.855	0.0160325
780.933	0.0163423
781.011	0.0162460
781.090	0.0162743
781.168	0.0163425
781.246	0.0163930
781.324	0.0163765
781.402	0.0163897
781.480	0.0165304
781.558	0.0166016
781.636	0.0165483
781.715	0.0166164
781.793	0.0165434
781.871	0.0165424
781.949	0.0164768
782.027	0.0165698
782.105	0.0164570
782.183	0.0164975
782.261	0.0164690
782.340	0.0163764
782.418	0.0162471
782.496	0.0163802
782.574	0.0164003
782.652	0.0161283
782.730	0.0162165
782.808	0.0161247
782.886	0.0161429
782.965	0.0159940
783.043	0.0160294
783.121	0.0158924
783.199	0.0159273
783.277	0.0158562
783.355	0.0158353
783.433	0.0159095
783.511	0.0158812
783.590	0.0159291
783.668	0.0160005
783.746	0.0160345
783.824	0.0160033
783.902	0.0160863
783.980	0.0160925
784.058	0.0162498
784.136	0.0161347
784.215	0.0162795
784.293	0.0162374
784.371	0.0162994
784.449	0.0163020
784.527	0.0163990
784.605	0.0164220
784.683	0.0163462
784.761	0.0163350
784.840	0.0163148
784.918	0.0162463
784.996	0.0163264
785.074	0.0163565
785.152	0.0162841
785.230	0.0162518
785.308	0.0162426
785.386	0.0160992
785.465	0.0161095
785.543	0.0161488
785.621	0.0162163
785.699	0.0161330
785.777	0.0160195
785.855	0.0160751
785.933	0.0157143
786.011	0.0158031
786.090	0.0158041
786.168	0.0159123
786.246	0.0158570
786.324	0.0157439
786.402	0.0158605
786.480	0.0159058
786.558	0.0159235
786.636	0.0161324
786.715	0.0159593
786.793	0.0160198
786.871	0.0160553
786.949	0.0161724
787.027	0.0162940
787.105	0.0162721
787.183	0.0163542
787.261	0.0164680
787.340	0.0162944
787.418	0.0162783
787.496	0.0164039
787.574	0.0162965
787.652	0.0163512
787.730	0.0164275
787.808	0.0161379
787.886	0.0162922
787.965	0.0162158
788.043	0.0161164
788.121	0.0162197
788.199	0.0160894
788.277	0.0161308
788.355	0.0162615
788.433	0.0161535
788.511	0.0160835
788.590	0.0162065
788.668	0.0162677
788.746	0.0161297
788.824	0.0161359
788.902	0.0162580
788.980	0.0164143
789.058	0.0163783
789.136	0.0162254
789.215	0.0164997
789.293	0.0164465
789.371	0.0163120
789.449	0.0164690
789.527	0.0163356
789.605	0.0162621
789.683	0.0162225
789.761	0.0162426
789.840	0.0161576
789.918	0.0162474
789.996	0.0160630
790.074	0.0160471
790.152	0.0159897
790.230	0.0160262
790.308	0.0159155
790.386	0.0160779
790.465	0.0161147
790.543	0.0161440
790.621	0.0159586
790.699	0.0160632
790.777	0.0162180
790.855	0.0161181
790.933	0.0161617
791.011	0.0161802
791.090	0.0162234
791.168	0.0160990
791.246	0.0161987
791.324	0.0162341
791.402	0.0163429
791.480	0.0162193
791.558	0.0163319
791.636	0.0162402
791.715	0.0163428
791.793	0.0161366
791.871	0.0161971
791.949	0.0162679
792.027	0.0162799
792.105	0.0161883
792.183	0.0162398
792.261	0.0163007
792.340	0.0161829
792.418	0.0162511
792.496	0.0161666
792.574	0.0161569
792.652	0.0161340
792.730	0.0161762
792.808	0.0161381
792.886	0.0162225
792.965	0.0160841
793.043	0.0160564
793.121	0.0161717
793.199	0.0160760
793.277	0.0162630
793.355	0.0160488
793.433	0.0159219
793.511	0.0162193
793.590	0.0160915
793.668	0.0161074
793.746	0.0162334
793.824	0.0161642
793.902	0.0160780
793.980	0.0160085
794.058	0.0162208
794.136	0.0161584
794.215	0.0162348
794.293	0.0162641
794.371	0.0162720
794.449	0.0162608
794.527	0.0161801
794.605	0.0162563
794.683	0.0163085
794.761	0.0162292
794.840	0.0161777
794.918	0.0162968
794.996	0.0163469
795.074	0.0160054
795.152	0.0160245
795.230	0.0162284
795.308	0.0161653
795.386	0.0159547
795.465	0.0160349
795.543	0.0161044
795.621	0.0162000
795.699	0.0162616
795.777	0.0162370
795.855	0.0161256
795.933	0.0162822
796.011	0.0161134
796.090	0.0161711
796.168	0.0161520
796.246	0.0161897
796.324	0.0162651
796.402	0.0161024
796.480	0.0161156
796.558	0.0163009
796.636	0.0162163
796.715	0.0161827
796.793	0.0162102
796.871	0.0161387
796.949	0.0161101
797.027	0.0162286
797.105	0.0160925
797.183	0.0160941
797.261	0.0161591
797.340	0.0160213
797.418	0.0161413
797.496	0.0162420
797.574	0.0161607
797.652	0.0160639
797.730	0.0163287
797.808	0.0162744
797.886	0.0162811
797.965	0.0162811
798.043	0.0162065
798.121	0.0163596
798.199	0.0162357
798.277	0.0160918
798.355	0.0163073
798.433	0.0163371
798.511	0.0162674
798.590	0.0160551
798.668	0.0160546
798.746	0.0161276
798.824	0.0161099
798.902	0.0159915
798.980	0.0161023
799.058	0.0161895
799.136	0.0160192
799.215	0.0160718
799.293	0.0162018
799.371	0.0161040
799.449	0.0158958
799.527	0.0162309
799.605	0.0161286
799.683	0.0162471
799.761	0.0162595
799.840	0.0161680
799.918	0.0161436
799.996	0.0162217
800.074	0.0162405
800.152	0.0161559
800.230	0.0161643
800.308	0.0160935
800.386	0.0162942
800.465	0.0162309
800.543	0.0161137
800.621	0.0159666
800.699	0.0160115
800.777	0.0159746
800.855	0.0158651
800.933	0.0160005
801.011	0.0160024
801.090	0.0159920
801.168	0.0159872
801.246	0.0160213
801.324	0.0158938
801.402	0.0161067
801.480	0.0160999
801.558	0.0160327
801.636	0.0161360
801.715	0.0162668
801.793	0.0161710
801.871	0.0164169
801.949	0.0164987
802.027	0.0165433
802.105	0.0164273
802.183	0.0164584
802.261	0.0165285
802.340	0.0165479
802.418	0.0166119
802.496	0.0166196
802.574	0.0165037
802.652	0.0165766
802.730	0.0164290
802.808	0.0164764
802.886	0.0162422
802.965	0.0163223
803.043	0.0160170
803.121	0.0159000
803.199	0.0160618
803.277	0.0159314
803.355	0.0159631
803.433	0.0159046
803.511	0.0157456
803.590	0.0157926
803.668	0.0157218
803.746	0.0157761
803.824	0.0157467
803.902	0.0158520
803.980	0.0159751
804.058	0.0160021
804.136	0.0159424
804.215	0.0161269
804.293	0.0162185
804.371	0.0163613
804.449	0.0163364
804.527	0.0163326
804.605	0.0164352
804.683	0.0165997
804.761	0.0165703
804.840	0.0164321
804.918	0.0164582
804.996	0.0164616
805.074	0.0163588
805.152	0.0164678
805.230	0.0163832
805.308	0.0164773
805.386	0.0161698
805.465	0.0162714
805.543	0.0164405
805.621	0.0163118
805.699	0.0161873
805.777	0.0161681
805.855	0.0161607
805.933	0.0161931
806.011	0.0162179
806.090	0.0161591
806.168	0.0161426
806.246	0.0162749
806.324	0.0162462
806.402	0.0162717
806.480	0.0162476
806.558	0.0163114
806.636	0.0162202
806.715	0.0162749
806.793	0.0163361
806.871	0.0162192
806.949	0.0162090
807.027	0.0163392
807.105	0.0161692
807.183	0.0161218
807.261	0.0161236
807.340	0.0160558
807.418	0.0162016
807.496	0.0160714
807.574	0.0160441
807.652	0.0160406
807.730	0.0159554
807.808	0.0159744
807.886	0.0159963
807.965	0.0160315
808.043	0.0158994
808.121	0.0161227
808.199	0.0159899
808.277	0.0158663
808.355	0.0161097
808.433	0.0160965
808.511	0.0160383
808.590	0.0161128
808.668	0.0162615
808.746	0.0161044
808.824	0.0162792
808.902	0.0161201
808.980	0.0162225
809.058	0.0162957
809.136	0.0163630
809.215	0.0163338
809.293	0.0164501
809.371	0.0164855
809.449	0.0163235
809.527	0.0165523
809.605	0.0166603
809.683	0.0163978
809.761	0.0163058
809.840	0.0164362
809.918	0.0163808
809.996	0.0163209
810.074	0.0164497
810.152	0.0161426
810.230	0.0162637
810.308	0.0161912
810.386	0.0160821
810.465	0.0160630
810.543	0.0160046
810.621	0.0160029
810.699	0.0159824
810.777	0.0161176
810.855	0.0161058
810.933	0.0159973
811.011	0.0160965
811.090	0.0160392
811.168	0.0160136
811.246	0.0161056
811.324	0.0162228
811.402	0.0161079
811.480	0.0162620
811.558	0.0163036
811.636	0.0163133
811.715	0.0162734
811.793	0.0164223
811.871	0.0162000
811.949	0.0162790
812.027	0.0163433
812.105	0.0164179
812.183	0.0163383
812.261	0.0162717
812.340	0.0162149
812.418	0.0162449
812.496	0.0160271
812.574	0.0163371
812.652	0.0163529
812.730	0.0162679
812.808	0.0162161
812.886	0.0161442
812.965	0.0162540
813.043	0.0162529
813.121	0.0162269
813.199	0.0161917
813.277	0.0161826
813.355	0.0162393
813.433	0.0164069
813.511	0.0163369
813.590	0.0162900
813.668	0.0163181
813.746	0.0163371
813.824	0.0163628
813.902	0.0163725
813.980	0.0164423
814.058	0.0163556
814.136	0.0164142
814.215	0.0161796
814.293	0.0162109
814.371	0.0162535
814.449	0.0160471
814.527	0.0161030
814.605	0.0160199
814.683	0.0160182
814.761	0.0160863
814.840	0.0161057
814.918	0.0159559
814.996	0.0161072
815.074	0.0160175
815.152	0.0159871
815.230	0.0160150
815.308	0.0162110
815.386	0.0161458
815.465	0.0161791
815.543	0.0160865
815.621	0.0161108
815.699	0.0161497
815.777	0.0161129
815.855	0.0162169
815.933	0.0161977
816.011	0.0161929
816.090	0.0162135
816.168	0.0161922
816.246	0.0162065
816.324	0.0162573
816.402	0.0162433
816.480	0.0161179
816.558	0.0162400
816.636	0.0163554
816.715	0.0163535
816.793	0.0163730
816.871	0.0163248
816.949	0.0163013
817.027	0.0163438
817.105	0.0162454
817.183	0.0162393
817.261	0.0161811
817.340	0.0161595
817.418	0.0161684
817.496	0.0162440
817.574	0.0161330
817.652	0.0160994
817.730	0.0161427
817.808	0.0160367
817.886	0.0160010
817.965	0.0159797
818.043	0.0159011
818.121	0.0158517
818.199	0.0161444
818.277	0.0159830
818.355	0.0159946
818.433	0.0161231
818.511	0.0162096
818.590	0.0162068
818.668	0.0161792
818.746	0.0161841
818.824	0.0161974
818.902	0.0163065
818.980	0.0161839
819.058	0.0162249
819.136	0.0162251
819.215	0.0161768
819.293	0.0160990
819.371	0.0163935
819.449	0.0163664
819.527	0.0163008
819.605	0.0163183
819.683	0.0162816
819.761	0.0161897
819.840	0.0162877
819.918	0.0162629
819.996	0.0163224
820.074	0.0162050
820.152	0.0161562
820.230	0.0163998
820.308	0.0161401
820.386	0.0162297
820.465	0.0161238
820.543	0.0160458
820.621	0.0160540
820.699	0.0162617
820.777	0.0161800
820.855	0.0161116
820.933	0.0161105
821.011	0.0159110
821.090	0.0161893
821.168	0.0160408
821.246	0.0162469
821.324	0.0160491
821.402	0.0160244
821.480	0.0159907
821.558	0.0161151
821.636	0.0160564
821.715	0.0160539
821.793	0.0161571
821.871	0.0161196
821.949	0.0162494
822.027	0.0161253
822.105	0.0160931
822.183	0.0162228
822.261	0.0161614
822.340	0.0162301
822.418	0.0161090
822.496	0.0161829
822.574	0.0162543
822.652	0.0162530
822.730	0.0161368
822.808	0.0163110
822.886	0.0160694
822.965	0.0162442
823.043	0.0162392
823.121	0.0163029
823.199	0.0162559
823.277	0.0162089
823.355	0.0160532
823.433	0.0162050
823.511	0.0161800
823.590	0.0161610
823.668	0.0161801
823.746	0.0162202
823.824	0.0162844
823.902	0.0160333
823.980	0.0161160
824.058	0.0160895
824.136	0.0162029
824.215	0.0160542
824.293	0.0161839
824.371	0.0162293
824.449	0.0161510
824.527	0.0161217
824.605	0.0160880
824.683	0.0160552
824.761	0.0160609
824.840	0.0162286
824.918	0.0162766
824.996	0.0162227
825.074	0.0161819
825.152	0.0162379
825.230	0.0162387
825.308	0.0161200
825.386	0.0161354
825.465	0.0160068
825.543	0.0162546
825.621	0.0162402
825.699	0.0161037
825.777	0.0159505
825.855	0.0160571
825.933	0.0160663
826.011	0.0160447
826.090	0.0161106
826.168	0.0159737
826.246	0.0160890
826.324	0.0160440
826.402	0.0161750
826.480	0.0161887
826.558	0.0160613
826.636	0.0161255
826.715	0.0161423
826.793	0.0161993
826.871	0.0161629
826.949	0.0162387
827.027	0.0162589
827.105	0.0163409
827.183	0.0162545
827.261	0.0161817
827.340	0.0162095
827.418	0.0162452
827.496	0.0163492
827.574	0.0163428
827.652	0.0161359
827.730	0.0162217
827.808	0.0162733
827.886	0.0162020
827.965	0.0161787
828.043	0.0162631
828.121	0.0161527
828.199	0.0160727
828.277	0.0161377
828.355	0.0162762
828.433	0.0161657
828.511	0.0161057
828.590	0.0161626
828.668	0.0162630
828.746	0.0162013
828.824	0.0161033
828.902	0.0162366
828.980	0.0161918
829.058	0.0162561
829.136	0.0163130
829.215	0.0162402
829.293	0.0163159
829.371	0.0162716
829.449	0.0162715
829.527	0.0161340
829.605	0.0162476
829.683	0.0161417
829.761	0.0160979
829.840	0.0160356
829.918	0.0160123
829.996	0.0160099
830.074	0.0159887
830.152	0.0159705
830.230	0.0161664
830.308	0.0159500
830.386	0.0159923
830.465	0.0160386
830.543	0.0159841
830.621	0.0158919
830.699	0.0159835
830.777	0.0160220
830.855	0.0160790
830.933	0.0161535
831.011	0.0160532
831.090	0.0159874
831.168	0.0159774
831.246	0.0160769
831.324	0.0158826
831.402	0.0160279
831.480	0.0161492
831.558	0.0161294
831.636	0.0162072
831.715	0.0161273
831.793	0.0160883
831.871	0.0160882
831.949	0.0161091
832.027	0.0163083
832.105	0.0162173
832.183	0.0163422
832.261	0.0163861
832.340	0.0162288
832.418	0.0161563
832.496	0.0163701
832.574	0.0163660
832.652	0.0163936
832.730	0.0163064
832.808	0.0163937
832.886	0.0164222
832.965	0.0162940
833.043	0.0162819
833.121	0.0164679
833.199	0.0164041
833.277	0.0163523
833.355	0.0165252
833.433	0.0164347
833.511	0.0163429
833.590	0.0163346
833.668	0.0163596
833.746	0.0164336
833.824	0.0162715
833.902	0.0163492
833.980	0.0164410
834.058	0.0164030
834.136	0.0164517
834.215	0.0162922
834.293	0.0163646
834.371	0.0161882
834.449	0.0162276
834.527	0.0162633
834.605	0.0162470
834.683	0.0160960
834.761	0.0161220
834.840	0.0160437
834.918	0.0160585
834.996	0.0159469
835.074	0.0159077
835.152	0.0158878
835.230	0.0161367
835.308	0.0158823
835.386	0.0158827
835.465	0.0158897
835.543	0.0158968
835.621	0.0159605
835.699	0.0158537
835.777	0.0160111
835.855	0.0160526
835.933	0.0159729
836.011	0.0161412
836.090	0.0160789
836.168	0.0161493
836.246	0.0161747
836.324	0.0162453
836.402	0.0161663
836.480	0.0161881
836.558	0.0162496
836.636	0.0161591
836.715	0.0162443
836.793	0.0160218
836.871	0.0161108
836.949	0.0160705
837.027	0.0161102
837.105	0.0160043
837.183	0.0158769
837.261	0.0159625
837.340	0.0160473
837.418	0.0159172
837.496	0.0160350
837.574	0.0159553
837.652	0.0160403
837.730	0.0159108
837.808	0.0159479
837.886	0.0160891
837.965	0.0159756
838.043	0.0159689
838.121	0.0160719
838.199	0.0160909
838.277	0.0161977
838.355	0.0162051
838.433	0.0161228
838.511	0.0163697
838.590	0.0161665
838.668	0.0163657
838.746	0.0162837
838.824	0.0163231
838.902	0.0162871
838.980	0.0162423
839.058	0.0162979
839.136	0.0163783
839.215	0.0163896
839.293	0.0163467
839.371	0.0163071
839.449	0.0163552
839.527	0.0162368
839.605	0.0161805
839.683	0.0163321
839.761	0.0162048
839.840	0.0162038
839.918	0.0162847
839.996	0.0161598
840.074	0.0161363
840.152	0.0163299
840.230	0.0162859
840.308	0.0162936
840.386	0.0163413
840.465	0.0163057
840.543	0.0163702
840.621	0.0164343
840.699	0.0164801
840.777	0.0163147
840.855	0.0164315
840.933	0.0163294
841.011	0.0164555
841.090	0.0163620
841.168	0.0163877
841.246	0.0164169
841.324	0.0162878
841.402	0.0162765
841.480	0.0163284
841.558	0.0163747
841.636	0.0162077
841.715	0.0162282
841.793	0.0162545
841.871	0.0160783
841.949	0.0160932
842.027	0.0160974
842.105	0.0161625
842.183	0.0161610
842.261	0.0161568
842.340	0.0160681
842.418	0.0161126
842.496	0.0160657
842.574	0.0159740
842.652	0.0161553
842.730	0.0160847
842.808	0.0160641
842.886	0.0161122
842.965	0.0161408
843.043	0.0162530
843.121	0.0161055
843.199	0.0160630
843.277	0.0161289
843.355	0.0160747
843.433	0.0161026
843.511	0.0161806
843.590	0.0160892
843.668	0.0160109
843.746	0.0161056
843.824	0.0159845
843.902	0.0160320
843.980	0.0160126
844.058	0.0159044
844.136	0.0159675
844.215	0.0160105
844.293	0.0159647
844.371	0.0158671
844.449	0.0158223
844.527	0.0159605
844.605	0.0159930
844.683	0.0159771
844.761	0.0159480
844.840	0.0159686
844.918	0.0159678
844.996	0.0159776
845.074	0.0159097
845.152	0.0157288
845.230	0.0159724
845.308	0.0161948
845.386	0.0161165
845.465	0.0161166
845.543	0.0161347
845.621	0.0162190
845.699	0.0163342
845.777	0.0162379
845.855	0.0163112
845.933	0.0163419
846.011	0.0162331
846.090	0.0163164
846.168	0.0162926
846.246	0.0164156
846.324	0.0164369
846.402	0.0162348
846.480	0.0164394
846.558	0.0164210
846.636	0.0163528
846.715	0.0162508
846.793	0.0164656
846.871	0.0162397
846.949	0.0163078
847.027	0.0162953
847.105	0.0163561
847.183	0.0162686
847.261	0.0161310
847.340	0.0161050
847.418	0.0162478
847.496	0.0162853
847.574	0.0161726
847.652	0.0162089
847.730	0.0159930
847.808	0.0162227
847.886	0.0161863
847.965	0.0162957
848.043	0.0163222
848.121	0.0162056
848.199	0.0162883
848.277	0.0162383
848.355	0.0162077
848.433	0.0162127
848.511	0.0163426
848.590	0.0162583
848.668	0.0162254
848.746	0.0161535
848.824	0.0161928
848.902	0.0162608
848.980	0.0162087
849.058	0.0160574
849.136	0.0161032
849.215	0.0160867
849.293	0.0161069
849.371	0.0159609
849.449	0.0159499
849.527	0.0160268
849.605	0.0159834
849.683	0.0159608
849.761	0.0160263
849.840	0.0160521
849.918	0.0161118
849.996	0.0160211
850.074	0.0160181
850.152	0.0161948
850.230	0.0160502
850.308	0.0160572
850.386	0.0162438
850.465	0.0163020
850.543	0.0163163
850.621	0.0161980
850.699	0.0161559
850.777	0.0162833
850.855	0.0163728
850.933	0.0164084
851.011	0.0162171
851.090	0.0161848
851.168	0.0162679
851.246	0.0162645
851.324	0.0161238
851.402	0.0161527
851.480	0.0163174
851.558	0.0161475
851.636	0.0160371
851.715	0.0162148
851.793	0.0159724
851.871	0.0159526
851.949	0.0159039
852.027	0.0159355
852.105	0.0159261
852.183	0.0158341
852.261	0.0159615
852.340	0.0158556
852.418	0.0158112
852.496	0.0159105
852.574	0.0160733
852.652	0.0159864
852.730	0.0159655
852.808	0.0160740
852.886	0.0162615
852.965	0.0160268
853.043	0.0161546
853.121	0.0164155
853.199	0.0162983
853.277	0.0163194
853.355	0.0162566
853.433	0.0162942
853.511	0.0164303
853.590	0.0164607
853.668	0.0164877
853.746	0.0163440
853.824	0.0162412
853.902	0.0164085
853.980	0.0164616
854.058	0.0162708
854.136	0.0161935
854.215	0.0160909
854.293	0.0161471
854.371	0.0161288
854.449	0.0159858
854.527	0.0161982
854.605	0.0161418
854.683	0.0160521
854.761	0.0161063
854.840	0.0160122
854.918	0.0161370
854.996	0.0162045
855.074	0.0161780
855.152	0.0160217
855.230	0.0160889
855.308	0.0160305
855.386	0.0162558
855.465	0.0163100
855.543	0.0162862
855.621	0.0161583
855.699	0.0162595
855.777	0.0163616
855.855	0.0163422
855.933	0.0162777
856.011	0.0163194
856.090	0.0162872
856.168	0.0163630
856.246	0.0163443
856.324	0.0163160
856.402	0.0162743
856.480	0.0163207
856.558	0.0161668
856.636	0.0161452
856.715	0.0162430
856.793	0.0160316
856.871	0.0161748
856.949	0.0161592
857.027	0.0161122
857.105	0.0160634
857.183	0.0160519
857.261	0.0160389
857.340	0.0160126
857.418	0.0161382
857.496	0.0161861
857.574	0.0161638
857.652	0.0161382
857.730	0.0161456
857.808	0.0162334
857.886	0.0161965
857.965	0.0162103
858.043	0.0162219
858.121	0.0161302
858.199	0.0162006
858.277	0.0162114
858.355	0.0161295
858.433	0.0162904
858.511	0.0162574
858.590	0.0161300
858.668	0.0161918
858.746	0.0161340
858.824	0.0161635
858.902	0.0162336
858.980	0.0162458
859.058	0.0161422
859.136	0.0161217
859.215	0.0161102
859.293	0.0161798
859.371	0.0160370
859.449	0.0159911
859.527	0.0159850
859.605	0.0160700
859.683	0.0161626
859.761	0.0160756
859.840	0.0159597
859.918	0.0159663
859.996	0.0161105
860.074	0.0161735
860.152	0.0162920
860.230	0.0161121
860.308	0.0161166
860.386	0.0163513
860.465	0.0161981
860.543	0.0161210
860.621	0.0161964
860.699	0.0163298
860.777	0.0161309
860.855	0.0163103
860.933	0.0161798
861.011	0.0162084
861.090	0.0162199
861.168	0.0162999
861.246	0.0161270
861.324	0.0161845
861.402	0.0161815
861.480	0.0161846
861.558	0.0160859
861.636	0.0160766
861.715	0.0159673
861.793	0.0161533
861.871	0.0160677
861.949	0.0160263
862.027	0.0160131
862.105	0.0159834
862.183	0.0159234
862.261	0.0161586
862.340	0.0160212
862.418	0.0160387
862.496	0.0157797
862.574	0.0159806
862.652	0.0159672
862.730	0.0162326
862.808	0.0161687
862.886	0.0161700
862.965	0.0163179
863.043	0.0161456
863.121	0.0162550
863.199	0.0161680
863.277	0.0162607
863.355	0.0163407
863.433	0.0163851
863.511	0.0162854
863.590	0.0163615
863.668	0.0162669
863.746	0.0163017
863.824	0.0163674
863.902	0.0163414
863.980	0.0164042
864.058	0.0164633
864.136	0.0163589
864.215	0.0161840
864.293	0.0162679
864.371	0.0161758
864.449	0.0162206
864.527	0.0163466
864.605	0.0163455
864.683	0.0163533
864.761	0.0163936
864.840	0.0161581
864.918	0.0162936
864.996	0.0162738
865.074	0.0160062
865.152	0.0160452
865.230	0.0160748
865.308	0.0160522
865.386	0.0160682
865.465	0.0161845
865.543	0.0161154
865.621	0.0160616
865.699	0.0161421
865.777	0.0161710
865.855	0.0161359
865.933	0.0162161
866.011	0.0161511
866.090	0.0162324
866.168	0.0161610
866.246	0.0161126
866.324	0.0162433
866.402	0.0162363
866.480	0.0161711
866.558	0.0161619
866.636	0.0160213
866.715	0.0160902
866.793	0.0160743
866.871	0.0160906
866.949	0.0160658
867.027	0.0161490
867.105	0.0160666
867.183	0.0160214
867.261	0.0161427
867.340	0.0161484
867.418	0.0160081
867.496	0.0161382
867.574	0.0161712
867.652	0.0160022
867.730	0.0161477
867.808	0.0160477
867.886	0.0161481
867.965	0.0161935
868.043	0.0162527
868.121	0.0161103
868.199	0.0160984
868.277	0.0161244
868.355	0.0162159
868.433	0.0161254
868.511	0.0162459
868.590	0.0162114
868.668	0.0161093
868.746	0.0161730
868.824	0.0159205
868.902	0.0159101
868.980	0.0159446
869.058	0.0159724
869.136	0.0159513
869.215	0.0161138
869.293	0.0160252
869.371	0.0159366
869.449	0.0160950
869.527	0.0158879
869.605	0.0160355
869.683	0.0161028
869.761	0.0159319
869.840	0.0160342
869.918	0.0160750
869.996	0.0160278
870.074	0.0160676
870.152	0.0160812
870.230	0.0161468
870.308	0.0161300
870.386	0.0162375
870.465	0.0162520
870.543	0.0162666
870.621	0.0161510
870.699	0.0163824
870.777	0.0162759
870.855	0.0163042
870.933	0.0163106
871.011	0.0162537
871.090	0.0163129
871.168	0.0163631
871.246	0.0162826
871.324	0.0162595
871.402	0.0163221
871.480	0.0162569
871.558	0.0164236
871.636	0.0163031
871.715	0.0162356
871.793	0.0162636
871.871	0.0161420
871.949	0.0162481
872.027	0.0162931
872.105	0.0162514
872.183	0.0161499
872.261	0.0162220
872.340	0.0162115
872.418	0.0162426
872.496	0.0162537
872.574	0.0162009
872.652	0.0161880
872.730	0.0161779
872.808	0.0161880
872.886	0.0161273
872.965	0.0162296
873.043	0.0161178
873.121	0.0162471
873.199	0.0161632
873.277	0.0160057
873.355	0.0161925
873.433	0.0160308
873.511	0.0160746
873.590	0.0160413
873.668	0.0161500
873.746	0.0160267
873.824	0.0161522
873.902	0.0160487
873.980	0.0162131
874.058	0.0162509
874.136	0.0160665
874.215	0.0161734
874.293	0.0163251
874.371	0.0162549
874.449	0.0163451
874.527	0.0161066
874.605	0.0162400
874.683	0.0162575
874.761	0.0163265
874.840	0.0162723
874.918	0.0161950
874.996	0.0160502
875.074	0.0161906
875.152	0.0162463
875.230	0.0161760
875.308	0.0161684
875.386	0.0162433
875.465	0.0162740
875.543	0.0160576
875.621	0.0160526
875.699	0.0161837
875.777	0.0161242
875.855	0.0160273
875.933	0.0160432
876.011	0.0159878
876.090	0.0161620
876.168	0.0161418
876.246	0.0160658
876.324	0.0159712
876.402	0.0160841
876.480	0.0159750
876.558	0.0160526
876.636	0.0160714
876.715	0.0160418
876.793	0.0160617
876.871	0.0161707
876.949	0.0160647
877.027	0.0161474
877.105	0.0161624
877.183	0.0160532
877.261	0.0162005
877.340	0.0161392
877.418	0.0162373
877.496	0.0163009
877.574	0.0162783
877.652	0.0162724
877.730	0.0161881
877.808	0.0162175
877.886	0.0161752
877.965	0.0163126
878.043	0.0162815
878.121	0.0161489
878.199	0.0161958
878.277	0.0163293
878.355	0.0161908
878.433	0.0161721
878.511	0.0161604
878.590	0.0162383
878.668	0.0162991
878.746	0.0160453
878.824	0.0161806
878.902	0.0162804
878.980	0.0163365
879.058	0.0161838
879.136	0.0162304
879.215	0.0162314
879.293	0.0160874
879.371	0.0161453
879.449	0.0162881
879.527	0.0161095
879.605	0.0162841
879.683	0.0161926
879.761	0.0161525
879.840	0.0161365
879.918	0.0161580
879.996	0.0162720
880.074	0.0163165
880.152	0.0162252
880.230	0.0162828
880.308	0.0162078
880.386	0.0162297
880.465	0.0162504
880.543	0.0162301
880.621	0.0161548
880.699	0.0161612
880.777	0.0162970
880.855	0.0161588
880.933	0.0162359
881.011	0.0162550
881.090	0.0162939
881.168	0.0162410
881.246	0.0163770
881.324	0.0164463
881.402	0.0162543
881.480	0.0162514
881.558	0.0164485
881.636	0.0164104
881.715	0.0162799
881.793	0.0162058
881.871	0.0162546
881.949	0.0162871
882.027	0.0162971
882.105	0.0161996
882.183	0.0161965
882.261	0.0160841
882.340	0.0161468
882.418	0.0160674
882.496	0.0160371
882.574	0.0161609
882.652	0.0161180
882.730	0.0160740
882.808	0.0159821
882.886	0.0160765
882.965	0.0159917
883.043	0.0161243
883.121	0.0160746
883.199	0.0160786
883.277	0.0160398
883.355	0.0160259
883.433	0.0161283
883.511	0.0161078
883.590	0.0159840
883.668	0.0161674
883.746	0.0161845
883.824	0.0161118
883.902	0.0162212
883.980	0.0161858
884.058	0.0161253
884.136	0.0160872
884.215	0.0161661
884.293	0.0162228
884.371	0.0162972
884.449	0.0161610
884.527	0.0161465
884.605	0.0162329
884.683	0.0162383
884.761	0.0161546
884.840	0.0162704
884.918	0.0162685
884.996	0.0162313
885.074	0.0161887
885.152	0.0162008
885.230	0.0163414
885.308	0.0162240
885.386	0.0160726
885.465	0.0161757
885.543	0.0161488
885.621	0.0161914
885.699	0.0162222
885.777	0.0160680
885.855	0.0161354
885.933	0.0160474
886.011	0.0161764
886.090	0.0160075
886.168	0.0162162
886.246	0.0159826
886.324	0.0160131
886.402	0.0161298
886.480	0.0161887
886.558	0.0161111
886.636	0.0160867
886.715	0.0161433
886.793	0.0161329
886.871	0.0161956
886.949	0.0161303
887.027	0.0161517
887.105	0.0162022
887.183	0.0162229
887.261	0.0163081
887.340	0.0163354
887.418	0.0163229
887.496	0.0163503
887.574	0.0163625
887.652	0.0162461
887.730	0.0161019
887.808	0.0162560
887.886	0.0162073
887.965	0.0162905
888.043	0.0161733
888.121	0.0163376
888.199	0.0162802
888.277	0.0162654
888.355	0.0162086
888.433	0.0160562
888.511	0.0160183
888.590	0.0163305
888.668	0.0162379
888.746	0.0161507
888.824	0.0161982
888.902	0.0160979
888.980	0.0160125
889.058	0.0161108
889.136	0.0160617
889.215	0.0161225
889.293	0.0161579
889.371	0.0161161
889.449	0.0160893
889.527	0.0161219
889.605	0.0161337
889.683	0.0161401
889.761	0.0161655
889.840	0.0161646
889.918	0.0160902
889.996	0.0160317
890.074	0.0160140
890.152	0.0161207
890.230	0.0161803
890.308	0.0161768
890.386	0.0162394
890.465	0.0160816
890.543	0.0159661
890.621	0.0160551
890.699	0.0161689
890.777	0.0161079
890.855	0.0162031
890.933	0.0161697
891.011	0.0162508
891.090	0.0163647
891.168	0.0163129
891.246	0.0162063
891.324	0.0162992
891.402	0.0162209
891.480	0.0164055
891.558	0.0162614
891.636	0.0162759
891.715	0.0162611
891.793	0.0162276
891.871	0.0163194
891.949	0.0164442
892.027	0.0162771
892.105	0.0162361
892.183	0.0163912
892.261	0.0163464
892.340	0.0162900
892.418	0.0162058
892.496	0.0162743
892.574	0.0162315
892.652	0.0161337
892.730	0.0161523
892.808	0.0160632
892.886	0.0160688
892.965	0.0162776
893.043	0.0160571
893.121	0.0160149
893.199	0.0159818
893.277	0.0160350
893.355	0.0159885
893.433	0.0159236
893.511	0.0160114
893.590	0.0159990
893.668	0.0160663
893.746	0.0159973
893.824	0.0160567
893.902	0.0160863
893.980	0.0159879
894.058	0.0161345
894.136	0.0161496
894.215	0.0160204
894.293	0.0162395
894.371	0.0160976
894.449	0.0161983
894.527	0.0162132
894.605	0.0162409
894.683	0.0161427
894.761	0.0161147
894.840	0.0161719
894.918	0.0161633
894.996	0.0162403
895.074	0.0161252
895.152	0.0162549
895.230	0.0161845
895.308	0.0161827
895.386	0.0161880
895.465	0.0160917
895.543	0.0159885
895.621	0.0161249
895.699	0.0161784
895.777	0.0161093
895.855	0.0161400
895.933	0.0161102
896.011	0.0159660
896.090	0.0160581
896.168	0.0161539
896.246	0.0162867
896.324	0.0161352
896.402	0.0161107
896.480	0.0161884
896.558	0.0162612
896.636	0.0162902
896.715	0.0162172
896.793	0.0162346
896.871	0.0161542
896.949	0.0161499
897.027	0.0162254
897.105	0.0162183
897.183	0.0161269
897.261	0.0160663
897.340	0.0161650
897.418	0.0160948
897.496	0.0162509
897.574	0.0161600
897.652	0.0161965
897.730	0.0161489
897.808	0.0162028
897.886	0.0161794
897.965	0.0162462
898.043	0.0162035
898.121	0.0161440
898.199	0.0163299
898.277	0.0162804
898.355	0.0162280
898.433	0.0163126
898.511	0.0162746
898.590	0.0162906
898.668	0.0162216
898.746	0.0163293
898.824	0.0161341
898.902	0.0162833
898.980	0.0162054
899.058	0.0162897
899.136	0.0163237
899.215	0.0161806
899.293	0.0161749
899.371	0.0163419
899.449	0.0162071
899.527	0.0163245
899.605	0.0161462
899.683	0.0162407
899.761	0.0161356
899.840	0.0161530
899.918	0.0162008
899.996	0.0160579
900.074	0.0160622
900.152	0.0161767
900.230	0.0160886
900.308	0.0160709
900.386	0.0161285
900.465	0.0161453
900.543	0.0161339
900.621	0.0162115
900.699	0.0161171
900.777	0.0161122
900.855	0.0162463
900.933	0.0162069
901.011	0.0162025
901.090	0.0162080
901.168	0.0160493
901.246	0.0160016
901.324	0.0160702
901.402	0.0160426
901.480	0.0161024
901.558	0.0161434
901.636	0.0160175
901.715	0.0160759
901.793	0.0160850
901.871	0.0160323
901.949	0.0161062
902.027	0.0161936
902.105	0.0160608
902.183	0.0161446
902.261	0.0161264
902.340	0.0161885
902.418	0.0161546
902.496	0.0161300
902.574	0.0160229
902.652	0.0160880
902.730	0.0161407
902.808	0.0161371
902.886	0.0160903
902.965	0.0161004
903.043	0.0161151
903.121	0.0160900
903.199	0.0161657
903.277	0.0160017
903.355	0.0161330
903.433	0.0161372
903.511	0.0162827
903.590	0.0161243
903.668	0.0161294
903.746	0.0161971
903.824	0.0161126
903.902	0.0161881
903.980	0.0162603
904.058	0.0160878
904.136	0.0161971
904.215	0.0161729
904.293	0.0162050
904.371	0.0161986
904.449	0.0159909
904.527	0.0162389
904.605	0.0161662
904.683	0.0163618
904.761	0.0161579
904.840	0.0161776
904.918	0.0161814
904.996	0.0161243
905.074	0.0161864
905.152	0.0162206
905.230	0.0162563
905.308	0.0162089
905.386	0.0162901
905.465	0.0161920
905.543	0.0161127
905.621	0.0161463
905.699	0.0160999
905.777	0.0162610
905.855	0.0163321
905.933	0.0162470
906.011	0.0163493
906.090	0.0162608
906.168	0.0161520
906.246	0.0161337
906.324	0.0162041
906.402	0.0162067
906.480	0.0162435
906.558	0.0162921
906.636	0.0162671
906.715	0.0162428
906.793	0.0161691
906.871	0.0161709
906.949	0.0160593
907.027	0.0160904
907.105	0.0162307
907.183	0.0161681
907.261	0.0161858
907.340	0.0161618
907.418	0.0161783
907.496	0.0161890
907.574	0.0162029
907.652	0.0162724
907.730	0.0160835
907.808	0.0161414
907.886	0.0161612
907.965	0.0161333
908.043	0.0160413
908.121	0.0163373
908.199	0.0161426
908.277	0.0160873
908.355	0.0162263
908.433	0.0160706
908.511	0.0161778
908.590	0.0161366
908.668	0.0161437
908.746	0.0161631
908.824	0.0160809
908.902	0.0161091
908.980	0.0160763
909.058	0.0161378
909.136	0.0162193
909.215	0.0161884
909.293	0.0160808
909.371	0.0161905
909.449	0.0163882
909.527	0.0161050
909.605	0.0160399
909.683	0.0162228
909.761	0.0162392
909.840	0.0160783
909.918	0.0161922
909.996	0.0163728
910.074	0.0162215
910.152	0.0161837
910.230	0.0161120
910.308	0.0161079
910.386	0.0160217
910.465	0.0159662
910.543	0.0161403
910.621	0.0162136
910.699	0.0161887
910.777	0.0159332
910.855	0.0159723
910.933	0.0160954
911.011	0.0161139
911.090	0.0160455
911.168	0.0162029
911.246	0.0162299
911.324	0.0160494
911.402	0.0161159
911.480	0.0162318
911.558	0.0162005
911.636	0.0162570
911.715	0.0163402
911.793	0.0162863
911.871	0.0162955
911.949	0.0161576
912.027	0.0162565
912.105	0.0162931
912.183	0.0162793
912.261	0.0163058
912.340	0.0162037
912.418	0.0161935
912.496	0.0162786
912.574	0.0163325
912.652	0.0161633
912.730	0.0161503
912.808	0.0161386
912.886	0.0161837
912.965	0.0162460
913.043	0.0161819
913.121	0.0161510
913.199	0.0161964
913.277	0.0162534
913.355	0.0162417
913.433	0.0160172
913.511	0.0161578
913.590	0.0161711
913.668	0.0161385
913.746	0.0160361
913.824	0.0161865
913.902	0.0161153
913.980	0.0161588
914.058	0.0161410
914.136	0.0160670
914.215	0.0161773
914.293	0.0160610
914.371	0.0161360
914.449	0.0160821
914.527	0.0161266
914.605	0.0161792
914.683	0.0161644
914.761	0.0159776
914.840	0.0161783
914.918	0.0162219
914.996	0.0161649
915.074	0.0162633
915.152	0.0161871
915.230	0.0162996
915.308	0.0162045
915.386	0.0161990
915.465	0.0160496
915.543	0.0162101
915.621	0.0161921
915.699	0.0162674
915.777	0.0161438
915.855	0.0160752
915.933	0.0160497
916.011	0.0160519
916.090	0.0159898
916.168	0.0160445
916.246	0.0160015
916.324	0.0160956
916.402	0.0159275
916.480	0.0159606
916.558	0.0161402
916.636	0.0161555
916.715	0.0160907
916.793	0.0159623
916.871	0.0161890
916.949	0.0160388
917.027	0.0161002
917.105	0.0159707
917.183	0.0160900
917.261	0.0162357
917.340	0.0159863
917.418	0.0161261
917.496	0.0161620
917.574	0.0162020
917.652	0.0161150
917.730	0.0160928
917.808	0.0161040
917.886	0.0162657
917.965	0.0161728
918.043	0.0162423
918.121	0.0161726
918.199	0.0161563
918.277	0.0159647
918.355	0.0160054
918.433	0.0161335
918.511	0.0161936
918.590	0.0162124
918.668	0.0159263
918.746	0.0159807
918.824	0.0160768
918.902	0.0160328
918.980	0.0162159
919.058	0.0161134
919.136	0.0161048
919.215	0.0162373
919.293	0.0161916
919.371	0.0162294
919.449	0.0161882
919.527	0.0162550
919.605	0.0163003
919.683	0.0163567
919.761	0.0161551
919.840	0.0163551
919.918	0.0163309
919.996	0.0162234
920.074	0.0161886
920.152	0.0163078
920.230	0.0161332
920.308	0.0161678
920.386	0.0162531
920.465	0.0161288
920.543	0.0160456
920.621	0.0160529
920.699	0.0161063
920.777	0.0160301
920.855	0.0161119
920.933	0.0161992
921.011	0.0159778
921.090	0.0159713
921.168	0.0161841
921.246	0.0161247
921.324	0.0159922
921.402	0.0161517
921.480	0.0160851
921.558	0.0161031
921.636	0.0160562
921.715	0.0160703
921.793	0.0162532
921.871	0.0162503
921.949	0.0161053
922.027	0.0162215
922.105	0.0162185
922.183	0.0162399
922.261	0.0162402
922.340	0.0162186
922.418	0.0162984
922.496	0.0163974
922.574	0.0162725
922.652	0.0163734
922.730	0.0163426
922.808	0.0162870
922.886	0.0162904
922.965	0.0163068
923.043	0.0163764
923.121	0.0162066
923.199	0.0163048
923.277	0.0162917
923.355	0.0162029
923.433	0.0162071
923.511	0.0161996
923.590	0.0161435
923.668	0.0161314
923.746	0.0161589
923.824	0.0161732
923.902	0.0161851
923.980	0.0161047
924.058	0.0161221
924.136	0.0161860
924.215	0.0161071
924.293	0.0161317
924.371	0.0160793
924.449	0.0160919
924.527	0.0161759
924.605	0.0161197
924.683	0.0161369
924.761	0.0161817
924.840	0.0161954
924.918	0.0161314
924.996	0.0162360
925.074	0.0163631
925.152	0.0161714
925.230	0.0160819
925.308	0.0161091
925.386	0.0160986
925.465	0.0161143
925.543	0.0162885
925.621	0.0161753
925.699	0.0160969
925.777	0.0160833
925.855	0.0161242
925.933	0.0160194
926.011	0.0159924
926.090	0.0160873
926.168	0.0161481
926.246	0.0161320
926.324	0.0162528
926.402	0.0162476
926.480	0.0161053
926.558	0.0162727
926.636	0.0162546
926.715	0.0161517
926.793	0.0162514
926.871	0.0161250
926.949	0.0162868
927.027	0.0161270
927.105	0.0162113
927.183	0.0162264
927.261	0.0161939
927.340	0.0161958
927.418	0.0162307
927.496	0.0161197
927.574	0.0162477
927.652	0.0161951
927.730	0.0162538
927.808	0.0162766
927.886	0.0162436
927.965	0.0161320
928.043	0.0161775
928.121	0.0162430
928.199	0.0161626
928.277	0.0160556
928.355	0.0162218
928.433	0.0160030
928.511	0.0161656
928.590	0.0161440
928.668	0.0159700
928.746	0.0160918
928.824	0.0162275
928.902	0.0162093
928.980	0.0161066
929.058	0.0160286
929.136	0.0161803
929.215	0.0162489
929.293	0.0162135
929.371	0.0162599
929.449	0.0163305
929.527	0.0161849
929.605	0.0163092
929.683	0.0163685
929.761	0.0163958
929.840	0.0163604
929.918	0.0162326
929.996	0.0162435
930.074	0.0162383
930.152	0.0162883
930.230	0.0162458
930.308	0.0162805
930.386	0.0162939
930.465	0.0161948
930.543	0.0163576
930.621	0.0163010
930.699	0.0162992
930.777	0.0161132
930.855	0.0161208
930.933	0.0162498
931.011	0.0161710
931.090	0.0161933
931.168	0.0161253
931.246	0.0160252
931.324	0.0161735
931.402	0.0161790
931.480	0.0162101
931.558	0.0161118
931.636	0.0162177
931.715	0.0160888
931.793	0.0161478
931.871	0.0162771
931.949	0.0162146
932.027	0.0161237
932.105	0.0161181
932.183	0.0162808
932.261	0.0161034
932.340	0.0162034
932.418	0.0161340
932.496	0.0161437
932.574	0.0161736
932.652	0.0162243
932.730	0.0161179
932.808	0.0162889
932.886	0.0161212
932.965	0.0161399
933.043	0.0160512
933.121	0.0161254
933.199	0.0160905
933.277	0.0159766
933.355	0.0161369
933.433	0.0160666
933.511	0.0160870
933.590	0.0162165
933.668	0.0160825
933.746	0.0162400
933.824	0.0161900
933.902	0.0161322
933.980	0.0161050
934.058	0.0161362
934.136	0.0161207
934.215	0.0161762
934.293	0.0161933
934.371	0.0161152
934.449	0.0161565
934.527	0.0162697
934.605	0.0162705
934.683	0.0162161
934.761	0.0162497
934.840	0.0161858
934.918	0.0161983
934.996	0.0162509
935.074	0.0163213
935.152	0.0162724
935.230	0.0162135
935.308	0.0162897
935.386	0.0162881
935.465	0.0162538
935.543	0.0161759
935.621	0.0161755
935.699	0.0162545
935.777	0.0162134
935.855	0.0161993
935.933	0.0161411
936.011	0.0162824
936.090	0.0162396
936.168	0.0161551
936.246	0.0162302
936.324	0.0160371
936.402	0.0162916
936.480	0.0162428
936.558	0.0163882
936.636	0.0161576
936.715	0.0162106
936.793	0.0162337
936.871	0.0162719
936.949	0.0162659
937.027	0.0162840
937.105	0.0161395
937.183	0.0162381
937.261	0.0162494
937.340	0.0162864
937.418	0.0160284
937.496	0.0161746
937.574	0.0162307
937.652	0.0162975
937.730	0.0162170
937.808	0.0161016
937.886	0.0161835
937.965	0.0163198
938.043	0.0162896
938.121	0.0160787
938.199	0.0162061
938.277	0.0162418
938.355	0.0162607
938.433	0.0161047
938.511	0.0163826
938.590	0.0163016
938.668	0.0162550
938.746	0.0160624
938.824	0.0162991
938.902	0.0161585
938.980	0.0162476
939.058	0.0161298
939.136	0.0161719
939.215	0.0159676
939.293	0.0161309
939.371	0.0161082
939.449	0.0160410
939.527	0.0160043
939.605	0.0161313
939.683	0.0161012
939.761	0.0161259
939.840	0.0161478
939.918	0.0160542
939.996	0.0161201
940.074	0.0161473
940.152	0.0160902
940.230	0.0159534
940.308	0.0159512
940.386	0.0161129
940.465	0.0160078
940.543	0.0158818
940.621	0.0161474
940.699	0.0160561
940.777	0.0159917
940.855	0.0161066
940.933	0.0160160
941.011	0.0160875
941.090	0.0161189
941.168	0.0160063
941.246	0.0160987
941.324	0.0161901
941.402	0.0160751
941.480	0.0160592
941.558	0.0160323
941.636	0.0160718
941.715	0.0160952
941.793	0.0160519
941.871	0.0162088
941.949	0.0161584
942.027	0.0160764
942.105	0.0161855
942.183	0.0162056
942.261	0.0161950
942.340	0.0161610
942.418	0.0160640
942.496	0.0162394
942.574	0.0162099
942.652	0.0162121
942.730	0.0162910
942.808	0.0162460
942.886	0.0162951
942.965	0.0163144
943.043	0.0162482
943.121	0.0161667
943.199	0.0163313
943.277	0.0161719
943.355	0.0160823
943.433	0.0162455
943.511	0.0163586
943.590	0.0162733
943.668	0.0161428
943.746	0.0160671
943.824	0.0161667
943.902	0.0161253
943.980	0.0161295
944.058	0.0160324
944.136	0.0159902
944.215	0.0162181
944.293	0.0160804
944.371	0.0160582
944.449	0.0160815
944.527	0.0159517
944.605	0.0160443
944.683	0.0161955
944.761	0.0161320
944.840	0.0160561
944.918	0.0161193
944.996	0.0161112
945.074	0.0161916
945.152	0.0162873
945.230	0.0160587
945.308	0.0161829
945.386	0.0161915
945.465	0.0162107
945.543	0.0162372
945.621	0.0161591
945.699	0.0163479
945.777	0.0162543
945.855	0.0161586
945.933	0.0162708
946.011	0.0163574
946.090	0.0162608
946.168	0.0161082
946.246	0.0163138
946.324	0.0162192
946.402	0.0162852
946.480	0.0162325
946.558	0.0161665
946.636	0.0162579
946.715	0.0161596
946.793	0.0161287
946.871	0.0160934
946.949	0.0161042
947.027	0.0160823
947.105	0.0161253
947.183	0.0161176
947.261	0.0160664
947.340	0.0160436
947.418	0.0160893
947.496	0.0161118
947.574	0.0159042
947.652	0.0159318
947.730	0.0160827
947.808	0.0159102
947.886	0.0161230
947.965	0.0160399
948.043	0.0159616
948.121	0.0160182
948.199	0.0161205
948.277	0.0161660
948.355	0.0161076
948.433	0.0160384
948.511	0.0161343
948.590	0.0161646
948.668	0.0161022
948.746	0.0161150
948.824	0.0160771
948.902	0.0160275
948.980	0.0160318
949.058	0.0161964
949.136	0.0161878
949.215	0.0161906
949.293	0.0160600
949.371	0.0160925
949.449	0.0162303
949.527	0.0160793
949.605	0.0162422
949.683	0.0163155
949.761	0.0161275
949.840	0.0162535
949.918	0.0162709
