06/29/2022	21:22:19	Ver.	4.1	UNKNOWN
Optical Delay	629.995835	Delta X		0.078125	Sweeps	1	Scan Rate	0/0
Coordinates	Axis 1	NaN	Axis 2	NaN	Axis 3	NaN	Axis 4	NaN	Axis 5	NaN	Axis 6	0.000000
TX Power	0.000000	RX Power	0.000000

629.996	0.0161174
630.074	0.0161389
630.152	0.0161055
630.230	0.0161406
630.308	0.0161852
630.386	0.0160670
630.465	0.0162172
630.543	0.0161553
630.621	0.0160640
630.699	0.0161537
630.777	0.0161500
630.855	0.0161734
630.933	0.0161485
631.011	0.0160767
631.090	0.0162770
631.168	0.0162348
631.246	0.0160182
631.324	0.0161362
631.402	0.0159972
631.480	0.0161316
631.558	0.0162419
631.636	0.0162738
631.715	0.0161692
631.793	0.0160412
631.871	0.0160730
631.949	0.0160759
632.027	0.0161641
632.105	0.0160770
632.183	0.0160303
632.261	0.0161144
632.340	0.0160930
632.418	0.0160070
632.496	0.0160124
632.574	0.0161145
632.652	0.0161133
632.730	0.0161587
632.808	0.0160561
632.886	0.0161375
632.965	0.0160847
633.043	0.0159994
633.121	0.0161378
633.199	0.0160975
633.277	0.0161382
633.355	0.0161566
633.433	0.0161221
633.511	0.0161469
633.590	0.0161655
633.668	0.0161427
633.746	0.0159748
633.824	0.0161448
633.902	0.0160386
633.980	0.0160551
634.058	0.0161646
634.136	0.0161767
634.215	0.0160441
634.293	0.0160675
634.371	0.0161934
634.449	0.0161176
634.527	0.0161446
634.605	0.0160933
634.683	0.0160883
634.761	0.0160854
634.840	0.0161670
634.918	0.0162173
634.996	0.0160785
635.074	0.0160663
635.152	0.0161741
635.230	0.0160896
635.308	0.0160664
635.386	0.0160687
635.465	0.0160560
635.543	0.0161742
635.621	0.0159904
635.699	0.0161440
635.777	0.0162078
635.855	0.0162579
635.933	0.0161445
636.011	0.0161185
636.090	0.0160888
636.168	0.0161358
636.246	0.0160903
636.324	0.0160853
636.402	0.0161235
636.480	0.0161452
636.558	0.0160366
636.636	0.0160645
636.715	0.0161085
636.793	0.0160329
636.871	0.0161511
636.949	0.0161615
637.027	0.0160112
637.105	0.0160421
637.183	0.0161954
637.261	0.0160606
637.340	0.0161331
637.418	0.0159631
637.496	0.0161875
637.574	0.0161147
637.652	0.0161092
637.730	0.0161133
637.808	0.0160706
637.886	0.0161048
637.965	0.0161351
638.043	0.0161800
638.121	0.0159755
638.199	0.0160043
638.277	0.0160707
638.355	0.0161831
638.433	0.0161156
638.511	0.0159895
638.590	0.0160118
638.668	0.0161508
638.746	0.0160056
638.824	0.0161927
638.902	0.0160490
638.980	0.0162251
639.058	0.0160570
639.136	0.0160050
639.215	0.0159902
639.293	0.0159466
639.371	0.0160614
639.449	0.0162127
639.527	0.0160820
639.605	0.0159283
639.683	0.0161072
639.761	0.0161306
639.840	0.0160160
639.918	0.0160806
639.996	0.0160127
640.074	0.0160885
640.152	0.0160716
640.230	0.0160658
640.308	0.0158994
640.386	0.0160460
640.465	0.0162342
640.543	0.0160341
640.621	0.0159826
640.699	0.0160234
640.777	0.0158762
640.855	0.0160292
640.933	0.0159460
641.011	0.0161951
641.090	0.0160213
641.168	0.0161042
641.246	0.0161462
641.324	0.0160484
641.402	0.0161211
641.480	0.0161451
641.558	0.0160292
641.636	0.0161396
641.715	0.0160353
641.793	0.0160264
641.871	0.0161169
641.949	0.0160538
642.027	0.0160333
642.105	0.0160989
642.183	0.0160909
642.261	0.0161069
642.340	0.0160924
642.418	0.0159488
642.496	0.0161179
642.574	0.0161252
642.652	0.0161935
642.730	0.0160944
642.808	0.0159813
642.886	0.0160356
642.965	0.0161114
643.043	0.0162211
643.121	0.0160294
643.199	0.0161130
643.277	0.0160960
643.355	0.0160475
643.433	0.0161495
643.511	0.0161160
643.590	0.0160660
643.668	0.0160163
643.746	0.0160725
643.824	0.0162265
643.902	0.0161716
643.980	0.0158633
644.058	0.0159718
644.136	0.0161884
644.215	0.0161601
644.293	0.0161427
644.371	0.0161605
644.449	0.0160701
644.527	0.0159574
644.605	0.0159612
644.683	0.0160034
644.761	0.0160186
644.840	0.0159882
644.918	0.0161848
644.996	0.0160477
645.074	0.0159738
645.152	0.0160313
645.230	0.0162074
645.308	0.0161903
645.386	0.0160462
645.465	0.0161436
645.543	0.0162148
645.621	0.0160872
645.699	0.0161375
645.777	0.0162542
645.855	0.0161044
645.933	0.0161382
646.011	0.0160754
646.090	0.0161543
646.168	0.0160539
646.246	0.0162959
646.324	0.0160359
646.402	0.0160366
646.480	0.0160995
646.558	0.0162237
646.636	0.0161468
646.715	0.0160866
646.793	0.0160168
646.871	0.0160931
646.949	0.0161637
647.027	0.0160869
647.105	0.0161921
647.183	0.0160243
647.261	0.0160953
647.340	0.0161898
647.418	0.0160622
647.496	0.0161735
647.574	0.0161926
647.652	0.0160046
647.730	0.0160229
647.808	0.0160188
647.886	0.0160710
647.965	0.0160983
648.043	0.0161529
648.121	0.0162402
648.199	0.0161848
648.277	0.0160158
648.355	0.0160098
648.433	0.0161446
648.511	0.0159905
648.590	0.0160719
648.668	0.0160677
648.746	0.0161652
648.824	0.0160239
648.902	0.0159080
648.980	0.0160199
649.058	0.0162733
649.136	0.0160013
649.215	0.0160560
649.293	0.0160414
649.371	0.0161012
649.449	0.0161651
649.527	0.0160840
649.605	0.0161166
649.683	0.0160906
649.761	0.0160116
649.840	0.0161761
649.918	0.0161499
649.996	0.0161031
650.074	0.0162201
650.152	0.0161301
650.230	0.0161401
650.308	0.0160307
650.386	0.0160758
650.465	0.0161279
650.543	0.0160245
650.621	0.0160616
650.699	0.0161898
650.777	0.0162177
650.855	0.0161426
650.933	0.0160859
651.011	0.0161205
651.090	0.0160928
651.168	0.0160882
651.246	0.0161687
651.324	0.0160737
651.402	0.0161684
651.480	0.0161578
651.558	0.0160922
651.636	0.0161153
651.715	0.0161892
651.793	0.0161682
651.871	0.0161542
651.949	0.0159361
652.027	0.0160984
652.105	0.0160706
652.183	0.0162209
652.261	0.0160665
652.340	0.0160947
652.418	0.0160593
652.496	0.0162099
652.574	0.0160981
652.652	0.0160464
652.730	0.0161298
652.808	0.0160810
652.886	0.0160310
652.965	0.0162047
653.043	0.0161643
653.121	0.0159860
653.199	0.0161819
653.277	0.0161138
653.355	0.0161386
653.433	0.0162206
653.511	0.0160400
653.590	0.0160174
653.668	0.0161207
653.746	0.0162328
653.824	0.0160977
653.902	0.0160958
653.980	0.0161901
654.058	0.0161209
654.136	0.0160556
654.215	0.0160498
654.293	0.0160735
654.371	0.0160842
654.449	0.0161666
654.527	0.0161153
654.605	0.0161206
654.683	0.0160859
654.761	0.0160957
654.840	0.0159904
654.918	0.0161265
654.996	0.0161035
655.074	0.0162444
655.152	0.0161280
655.230	0.0161114
655.308	0.0161386
655.386	0.0162130
655.465	0.0160067
655.543	0.0159984
655.621	0.0161230
655.699	0.0161888
655.777	0.0160214
655.855	0.0160752
655.933	0.0162534
656.011	0.0161159
656.090	0.0161517
656.168	0.0160913
656.246	0.0161094
656.324	0.0161810
656.402	0.0160061
656.480	0.0161232
656.558	0.0161302
656.636	0.0159814
656.715	0.0161330
656.793	0.0160915
656.871	0.0160133
656.949	0.0159951
657.027	0.0160421
657.105	0.0161005
657.183	0.0161140
657.261	0.0160254
657.340	0.0160316
657.418	0.0161606
657.496	0.0162370
657.574	0.0160889
657.652	0.0160114
657.730	0.0161965
657.808	0.0160360
657.886	0.0161963
657.965	0.0160146
658.043	0.0159666
658.121	0.0162318
658.199	0.0161065
658.277	0.0160359
658.355	0.0161108
658.433	0.0162029
658.511	0.0160919
658.590	0.0161259
658.668	0.0159992
658.746	0.0160433
658.824	0.0162365
658.902	0.0162231
658.980	0.0162841
659.058	0.0160070
659.136	0.0161544
659.215	0.0160342
659.293	0.0161182
659.371	0.0161285
659.449	0.0160960
659.527	0.0160074
659.605	0.0161391
659.683	0.0160364
659.761	0.0161062
659.840	0.0160989
659.918	0.0160777
659.996	0.0160326
660.074	0.0161059
660.152	0.0161067
660.230	0.0161327
660.308	0.0160075
660.386	0.0160859
660.465	0.0161834
660.543	0.0161449
660.621	0.0161177
660.699	0.0160864
660.777	0.0160415
660.855	0.0161274
660.933	0.0161163
661.011	0.0161401
661.090	0.0160544
661.168	0.0161153
661.246	0.0161546
661.324	0.0160804
661.402	0.0160329
661.480	0.0160621
661.558	0.0161356
661.636	0.0161050
661.715	0.0161029
661.793	0.0161237
661.871	0.0160831
661.949	0.0162106
662.027	0.0160656
662.105	0.0160481
662.183	0.0162424
662.261	0.0160992
662.340	0.0161045
662.418	0.0159618
662.496	0.0161357
662.574	0.0161719
662.652	0.0161347
662.730	0.0161066
662.808	0.0162626
662.886	0.0162936
662.965	0.0161613
663.043	0.0160909
663.121	0.0159771
663.199	0.0160963
663.277	0.0160657
663.355	0.0161930
663.433	0.0161897
663.511	0.0161690
663.590	0.0161317
663.668	0.0160935
663.746	0.0161337
663.824	0.0162082
663.902	0.0160833
663.980	0.0161438
664.058	0.0161562
664.136	0.0162128
664.215	0.0161752
664.293	0.0161021
664.371	0.0159613
664.449	0.0161608
664.527	0.0160160
664.605	0.0160831
664.683	0.0161115
664.761	0.0161604
664.840	0.0163078
664.918	0.0161354
664.996	0.0160503
665.074	0.0161402
665.152	0.0161359
665.230	0.0160345
665.308	0.0161977
665.386	0.0161500
665.465	0.0161641
665.543	0.0160448
665.621	0.0161928
665.699	0.0160750
665.777	0.0160263
665.855	0.0162672
665.933	0.0162288
666.011	0.0160993
666.090	0.0160719
666.168	0.0161297
666.246	0.0162666
666.324	0.0162543
666.402	0.0161730
666.480	0.0160859
666.558	0.0161017
666.636	0.0161044
666.715	0.0162113
666.793	0.0161365
666.871	0.0162392
666.949	0.0161452
667.027	0.0160744
667.105	0.0162090
667.183	0.0161839
667.261	0.0161586
667.340	0.0161429
667.418	0.0161314
667.496	0.0161063
667.574	0.0161953
667.652	0.0160275
667.730	0.0162668
667.808	0.0161763
667.886	0.0161983
667.965	0.0161385
668.043	0.0161039
668.121	0.0161103
668.199	0.0161526
668.277	0.0161781
668.355	0.0160680
668.433	0.0162135
668.511	0.0161849
668.590	0.0160280
668.668	0.0160285
668.746	0.0161452
668.824	0.0161147
668.902	0.0159966
668.980	0.0161846
669.058	0.0162403
669.136	0.0160740
669.215	0.0161392
669.293	0.0162148
669.371	0.0160951
669.449	0.0162289
669.527	0.0162129
669.605	0.0161481
669.683	0.0162414
669.761	0.0161039
669.840	0.0162000
669.918	0.0162394
669.996	0.0161424
670.074	0.0160164
670.152	0.0162591
670.230	0.0162027
670.308	0.0161567
670.386	0.0162084
670.465	0.0160221
670.543	0.0161069
670.621	0.0159869
670.699	0.0161671
670.777	0.0162478
670.855	0.0161341
670.933	0.0161504
671.011	0.0161342
671.090	0.0161108
671.168	0.0162254
671.246	0.0159969
671.324	0.0160674
671.402	0.0161586
671.480	0.0161179
671.558	0.0161785
671.636	0.0160052
671.715	0.0161600
671.793	0.0160888
671.871	0.0160466
671.949	0.0161050
672.027	0.0160724
672.105	0.0161558
672.183	0.0161176
672.261	0.0159818
672.340	0.0161242
672.418	0.0161162
672.496	0.0160294
672.574	0.0160903
672.652	0.0161480
672.730	0.0161800
672.808	0.0162438
672.886	0.0161021
672.965	0.0162469
673.043	0.0161188
673.121	0.0161279
673.199	0.0161108
673.277	0.0160780
673.355	0.0161210
673.433	0.0161633
673.511	0.0161137
673.590	0.0160307
673.668	0.0162232
673.746	0.0161548
673.824	0.0160728
673.902	0.0160674
673.980	0.0161788
674.058	0.0161028
674.136	0.0160891
674.215	0.0160929
674.293	0.0160727
674.371	0.0162120
674.449	0.0160207
674.527	0.0161452
674.605	0.0160876
674.683	0.0160554
674.761	0.0161551
674.840	0.0162611
674.918	0.0161668
674.996	0.0162550
675.074	0.0162381
675.152	0.0161834
675.230	0.0160184
675.308	0.0162431
675.386	0.0160001
675.465	0.0160159
675.543	0.0161896
675.621	0.0161761
675.699	0.0161897
675.777	0.0160889
675.855	0.0161034
675.933	0.0161696
676.011	0.0161810
676.090	0.0160738
676.168	0.0161957
676.246	0.0160856
676.324	0.0160874
676.402	0.0162242
676.480	0.0160877
676.558	0.0163719
676.636	0.0162873
676.715	0.0160900
676.793	0.0159866
676.871	0.0161409
676.949	0.0162052
677.027	0.0160532
677.105	0.0160937
677.183	0.0161053
677.261	0.0161224
677.340	0.0161481
677.418	0.0160611
677.496	0.0161574
677.574	0.0160538
677.652	0.0161648
677.730	0.0162802
677.808	0.0161748
677.886	0.0161813
677.965	0.0161317
678.043	0.0161407
678.121	0.0161752
678.199	0.0161377
678.277	0.0159784
678.355	0.0160840
678.433	0.0161150
678.511	0.0160818
678.590	0.0161656
678.668	0.0160849
678.746	0.0161477
678.824	0.0160773
678.902	0.0161350
678.980	0.0162464
679.058	0.0161181
679.136	0.0159828
679.215	0.0160846
679.293	0.0160738
679.371	0.0158813
679.449	0.0159726
679.527	0.0159108
679.605	0.0159436
679.683	0.0160608
679.761	0.0159421
679.840	0.0161228
679.918	0.0160959
679.996	0.0161243
680.074	0.0163160
680.152	0.0161520
680.230	0.0162135
680.308	0.0162404
680.386	0.0162875
680.465	0.0161716
680.543	0.0161739
680.621	0.0160230
680.699	0.0160470
680.777	0.0159929
680.855	0.0160463
680.933	0.0159896
681.011	0.0161343
681.090	0.0160837
681.168	0.0162587
681.246	0.0162375
681.324	0.0161646
681.402	0.0162777
681.480	0.0162049
681.558	0.0161015
681.636	0.0162460
681.715	0.0162641
681.793	0.0162296
681.871	0.0161626
681.949	0.0163443
682.027	0.0162489
682.105	0.0160015
682.183	0.0161359
682.261	0.0162838
682.340	0.0161443
682.418	0.0160132
682.496	0.0161297
682.574	0.0161326
682.652	0.0161758
682.730	0.0160226
682.808	0.0160165
682.886	0.0161988
682.965	0.0161635
683.043	0.0161887
683.121	0.0160929
683.199	0.0161063
683.277	0.0161343
683.355	0.0160332
683.433	0.0160663
683.511	0.0162124
683.590	0.0161153
683.668	0.0161736
683.746	0.0159842
683.824	0.0160547
683.902	0.0159776
683.980	0.0160823
684.058	0.0161217
684.136	0.0161037
684.215	0.0162484
684.293	0.0161990
684.371	0.0163079
684.449	0.0163673
684.527	0.0162669
684.605	0.0161582
684.683	0.0162381
684.761	0.0162242
684.840	0.0162601
684.918	0.0160435
684.996	0.0161301
685.074	0.0161462
685.152	0.0159870
685.230	0.0161887
685.308	0.0159881
685.386	0.0161107
685.465	0.0160631
685.543	0.0160905
685.621	0.0161754
685.699	0.0162289
685.777	0.0161250
685.855	0.0163137
685.933	0.0163948
686.011	0.0161445
686.090	0.0162805
686.168	0.0161804
686.246	0.0162769
686.324	0.0161851
686.402	0.0163082
686.480	0.0161458
686.558	0.0161619
686.636	0.0160185
686.715	0.0161070
686.793	0.0162358
686.871	0.0162353
686.949	0.0162601
687.027	0.0161386
687.105	0.0160371
687.183	0.0161568
687.261	0.0162564
687.340	0.0162916
687.418	0.0160788
687.496	0.0160291
687.574	0.0160505
687.652	0.0159204
687.730	0.0159760
687.808	0.0159559
687.886	0.0159804
687.965	0.0160571
688.043	0.0159728
688.121	0.0159776
688.199	0.0159533
688.277	0.0162533
688.355	0.0161539
688.433	0.0163184
688.511	0.0163563
688.590	0.0162896
688.668	0.0162366
688.746	0.0163565
688.824	0.0162904
688.902	0.0162157
688.980	0.0161549
689.058	0.0159818
689.136	0.0161078
689.215	0.0160099
689.293	0.0159308
689.371	0.0158809
689.449	0.0159676
689.527	0.0158619
689.605	0.0159120
689.683	0.0160277
689.761	0.0159584
689.840	0.0160537
689.918	0.0163051
689.996	0.0162144
690.074	0.0162986
690.152	0.0163876
690.230	0.0163203
690.308	0.0164296
690.386	0.0162651
690.465	0.0162079
690.543	0.0162205
690.621	0.0161633
690.699	0.0160697
690.777	0.0161584
690.855	0.0159975
690.933	0.0160447
691.011	0.0160514
691.090	0.0159907
691.168	0.0159283
691.246	0.0160861
691.324	0.0160155
691.402	0.0161021
691.480	0.0161230
691.558	0.0160312
691.636	0.0161156
691.715	0.0162226
691.793	0.0161192
691.871	0.0161182
691.949	0.0161901
692.027	0.0160314
692.105	0.0160031
692.183	0.0161269
692.261	0.0160824
692.340	0.0160642
692.418	0.0161971
692.496	0.0161567
692.574	0.0161115
692.652	0.0161356
692.730	0.0162138
692.808	0.0162782
692.886	0.0162106
692.965	0.0161469
693.043	0.0161624
693.121	0.0160700
693.199	0.0161836
693.277	0.0162836
693.355	0.0161533
693.433	0.0161205
693.511	0.0161326
693.590	0.0161237
693.668	0.0161961
693.746	0.0161678
693.824	0.0162858
693.902	0.0162729
693.980	0.0163332
694.058	0.0162344
694.136	0.0161718
694.215	0.0160338
694.293	0.0160538
694.371	0.0160275
694.449	0.0159808
694.527	0.0159734
694.605	0.0160442
694.683	0.0158472
694.761	0.0160891
694.840	0.0162812
694.918	0.0163308
694.996	0.0162496
695.074	0.0162670
695.152	0.0162889
695.230	0.0162502
695.308	0.0163596
695.386	0.0162133
695.465	0.0160467
695.543	0.0160203
695.621	0.0160763
695.699	0.0158559
695.777	0.0159943
695.855	0.0158704
695.933	0.0158983
696.011	0.0159049
696.090	0.0157795
696.168	0.0161015
696.246	0.0162283
696.324	0.0162222
696.402	0.0162415
696.480	0.0162479
696.558	0.0163918
696.636	0.0162545
696.715	0.0162273
696.793	0.0162299
696.871	0.0163041
696.949	0.0161176
697.027	0.0161339
697.105	0.0161637
697.183	0.0161140
697.261	0.0160989
697.340	0.0160387
697.418	0.0160865
697.496	0.0161542
697.574	0.0160180
697.652	0.0160252
697.730	0.0160843
697.808	0.0160687
697.886	0.0160038
697.965	0.0161004
698.043	0.0162007
698.121	0.0162032
698.199	0.0161517
698.277	0.0161802
698.355	0.0162803
698.433	0.0161640
698.511	0.0161986
698.590	0.0161982
698.668	0.0162490
698.746	0.0161786
698.824	0.0161943
698.902	0.0162673
698.980	0.0162398
699.058	0.0160754
699.136	0.0160719
699.215	0.0161324
699.293	0.0163394
699.371	0.0162750
699.449	0.0160603
699.527	0.0161240
699.605	0.0161170
699.683	0.0159491
699.761	0.0161003
699.840	0.0161703
699.918	0.0159335
699.996	0.0159727
700.074	0.0161235
700.152	0.0160865
700.230	0.0161066
700.308	0.0161330
700.386	0.0160709
700.465	0.0161195
700.543	0.0160565
700.621	0.0161046
700.699	0.0160609
700.777	0.0161830
700.855	0.0160957
700.933	0.0160529
701.011	0.0161024
701.090	0.0158829
701.168	0.0159849
701.246	0.0159900
701.324	0.0160502
701.402	0.0161119
701.480	0.0159532
701.558	0.0159106
701.636	0.0159995
701.715	0.0161459
701.793	0.0162218
701.871	0.0163735
701.949	0.0163931
702.027	0.0162630
702.105	0.0161919
702.183	0.0162596
702.261	0.0162284
702.340	0.0162129
702.418	0.0160771
702.496	0.0161377
702.574	0.0160378
702.652	0.0160618
702.730	0.0160111
702.808	0.0161226
702.886	0.0159324
702.965	0.0159682
703.043	0.0161517
703.121	0.0161520
703.199	0.0161680
703.277	0.0162768
703.355	0.0162547
703.433	0.0162652
703.511	0.0163852
703.590	0.0163152
703.668	0.0163667
703.746	0.0164003
703.824	0.0161313
703.902	0.0162476
703.980	0.0162263
704.058	0.0161502
704.136	0.0161383
704.215	0.0160217
704.293	0.0159613
704.371	0.0159895
704.449	0.0159693
704.527	0.0158788
704.605	0.0160996
704.683	0.0161807
704.761	0.0162765
704.840	0.0160251
704.918	0.0160775
704.996	0.0160734
705.074	0.0160709
705.152	0.0161697
705.230	0.0160699
705.308	0.0160024
705.386	0.0160912
705.465	0.0159386
705.543	0.0159210
705.621	0.0158336
705.699	0.0157620
705.777	0.0159173
705.855	0.0160275
705.933	0.0158323
706.011	0.0157918
706.090	0.0159415
706.168	0.0159162
706.246	0.0159427
706.324	0.0159911
706.402	0.0160160
706.480	0.0160772
706.558	0.0159725
706.636	0.0160474
706.715	0.0161967
706.793	0.0161762
706.871	0.0162984
706.949	0.0161621
707.027	0.0161122
707.105	0.0161827
707.183	0.0162066
707.261	0.0163086
707.340	0.0161411
707.418	0.0161732
707.496	0.0163152
707.574	0.0162147
707.652	0.0163573
707.730	0.0164317
707.808	0.0163180
707.886	0.0162963
707.965	0.0163773
708.043	0.0164594
708.121	0.0163369
708.199	0.0164704
708.277	0.0164085
708.355	0.0162933
708.433	0.0162175
708.511	0.0163557
708.590	0.0162307
708.668	0.0161954
708.746	0.0164094
708.824	0.0163056
708.902	0.0160696
708.980	0.0160332
709.058	0.0160388
709.136	0.0159271
709.215	0.0158571
709.293	0.0158557
709.371	0.0158109
709.449	0.0159048
709.527	0.0157432
709.605	0.0157648
709.683	0.0158855
709.761	0.0156875
709.840	0.0157706
709.918	0.0157722
709.996	0.0157355
710.074	0.0157638
710.152	0.0157634
710.230	0.0159105
710.308	0.0159973
710.386	0.0160210
710.465	0.0160905
710.543	0.0162538
710.621	0.0162328
710.699	0.0162249
710.777	0.0162088
710.855	0.0162969
710.933	0.0164268
711.011	0.0163042
711.090	0.0163154
711.168	0.0163867
711.246	0.0161626
711.324	0.0162025
711.402	0.0162576
711.480	0.0161664
711.558	0.0162656
711.636	0.0162732
711.715	0.0160995
711.793	0.0161990
711.871	0.0160522
711.949	0.0160255
712.027	0.0159327
712.105	0.0161629
712.183	0.0161663
712.261	0.0160085
712.340	0.0158923
712.418	0.0159292
712.496	0.0160316
712.574	0.0157912
712.652	0.0159212
712.730	0.0160812
712.808	0.0158981
712.886	0.0159332
712.965	0.0160828
713.043	0.0160835
713.121	0.0161448
713.199	0.0161280
713.277	0.0161646
713.355	0.0163277
713.433	0.0160915
713.511	0.0160313
713.590	0.0162144
713.668	0.0160825
713.746	0.0161796
713.824	0.0160632
713.902	0.0158091
713.980	0.0160719
714.058	0.0159940
714.136	0.0159135
714.215	0.0159468
714.293	0.0159900
714.371	0.0160407
714.449	0.0162130
714.527	0.0161560
714.605	0.0161703
714.683	0.0160863
714.761	0.0163020
714.840	0.0164342
714.918	0.0163361
714.996	0.0162035
715.074	0.0164256
715.152	0.0164783
715.230	0.0163008
715.308	0.0163206
715.386	0.0163078
715.465	0.0162856
715.543	0.0163581
715.621	0.0163950
715.699	0.0162947
715.777	0.0163219
715.855	0.0163038
715.933	0.0161641
716.011	0.0163210
716.090	0.0161296
716.168	0.0160670
716.246	0.0161390
716.324	0.0160166
716.402	0.0160017
716.480	0.0161069
716.558	0.0159469
716.636	0.0158489
716.715	0.0159232
716.793	0.0160866
716.871	0.0158226
716.949	0.0159171
717.027	0.0157800
717.105	0.0158696
717.183	0.0157492
717.261	0.0158313
717.340	0.0158990
717.418	0.0158711
717.496	0.0158999
717.574	0.0158282
717.652	0.0158090
717.730	0.0159896
717.808	0.0158913
717.886	0.0159569
717.965	0.0159770
718.043	0.0159324
718.121	0.0159774
718.199	0.0159291
718.277	0.0160896
718.355	0.0160225
718.433	0.0161378
718.511	0.0161440
718.590	0.0161645
718.668	0.0162138
718.746	0.0161652
718.824	0.0161333
718.902	0.0161404
718.980	0.0162019
719.058	0.0161889
719.136	0.0161493
719.215	0.0161172
719.293	0.0161519
719.371	0.0161229
719.449	0.0162263
719.527	0.0161333
719.605	0.0161285
719.683	0.0161507
719.761	0.0159644
719.840	0.0160771
719.918	0.0160327
719.996	0.0160694
720.074	0.0160409
720.152	0.0161584
720.230	0.0162103
720.308	0.0161828
720.386	0.0161919
720.465	0.0162778
720.543	0.0163121
720.621	0.0163247
720.699	0.0163104
720.777	0.0163290
720.855	0.0162699
720.933	0.0162711
721.011	0.0163081
721.090	0.0163776
721.168	0.0163911
721.246	0.0162943
721.324	0.0162216
721.402	0.0164732
721.480	0.0162475
721.558	0.0161124
721.636	0.0159970
721.715	0.0161999
721.793	0.0160947
721.871	0.0161339
721.949	0.0161395
722.027	0.0161098
722.105	0.0160678
722.183	0.0160743
722.261	0.0158858
722.340	0.0159827
722.418	0.0159634
722.496	0.0159693
722.574	0.0159024
722.652	0.0160075
722.730	0.0160178
722.808	0.0161082
722.886	0.0160715
722.965	0.0162365
723.043	0.0161676
723.121	0.0161301
723.199	0.0161668
723.277	0.0163180
723.355	0.0163779
723.433	0.0164912
723.511	0.0163812
723.590	0.0163154
723.668	0.0162992
723.746	0.0163131
723.824	0.0163580
723.902	0.0162842
723.980	0.0164190
724.058	0.0161318
724.136	0.0159961
724.215	0.0158714
724.293	0.0158501
724.371	0.0158508
724.449	0.0157452
724.527	0.0156801
724.605	0.0155179
724.683	0.0155962
724.761	0.0156326
724.840	0.0157056
724.918	0.0157361
724.996	0.0157800
725.074	0.0156007
725.152	0.0157444
725.230	0.0157845
725.308	0.0159393
725.386	0.0157724
725.465	0.0158573
725.543	0.0158852
725.621	0.0160702
725.699	0.0160186
725.777	0.0159830
725.855	0.0160089
725.933	0.0162629
726.011	0.0161987
726.090	0.0162036
726.168	0.0163515
726.246	0.0163398
726.324	0.0162957
726.402	0.0162777
726.480	0.0164613
726.558	0.0165361
726.636	0.0166235
726.715	0.0164863
726.793	0.0165020
726.871	0.0163312
726.949	0.0163175
727.027	0.0162116
727.105	0.0162294
727.183	0.0162373
727.261	0.0162947
727.340	0.0162201
727.418	0.0161507
727.496	0.0162043
727.574	0.0162206
727.652	0.0162045
727.730	0.0160162
727.808	0.0160735
727.886	0.0160120
727.965	0.0161032
728.043	0.0160857
728.121	0.0160124
728.199	0.0161185
728.277	0.0160704
728.355	0.0160428
728.433	0.0161850
728.511	0.0162045
728.590	0.0161745
728.668	0.0163176
728.746	0.0162367
728.824	0.0163424
728.902	0.0162220
728.980	0.0163898
729.058	0.0163732
729.136	0.0163386
729.215	0.0162681
729.293	0.0161514
729.371	0.0161662
729.449	0.0160684
729.527	0.0162566
729.605	0.0160643
729.683	0.0160851
729.761	0.0161597
729.840	0.0161033
729.918	0.0160086
729.996	0.0160346
730.074	0.0162560
730.152	0.0162412
730.230	0.0163109
730.308	0.0163905
730.386	0.0164417
730.465	0.0165127
730.543	0.0165471
730.621	0.0163864
730.699	0.0164792
730.777	0.0163447
730.855	0.0164082
730.933	0.0162814
731.011	0.0162482
731.090	0.0160996
731.168	0.0159291
731.246	0.0157509
731.324	0.0157512
731.402	0.0156921
731.480	0.0155611
731.558	0.0155637
731.636	0.0154823
731.715	0.0153961
731.793	0.0156118
731.871	0.0156899
731.949	0.0156550
732.027	0.0157385
732.105	0.0157555
732.183	0.0159563
732.261	0.0158488
732.340	0.0159972
732.418	0.0161437
732.496	0.0161539
732.574	0.0161984
732.652	0.0163495
732.730	0.0164153
732.808	0.0163425
732.886	0.0163871
732.965	0.0163021
733.043	0.0164194
733.121	0.0162582
733.199	0.0161488
733.277	0.0161561
733.355	0.0160337
733.433	0.0161688
733.511	0.0159283
733.590	0.0157575
733.668	0.0158129
733.746	0.0158106
733.824	0.0158508
733.902	0.0157038
733.980	0.0156313
734.058	0.0157452
734.136	0.0158733
734.215	0.0158705
734.293	0.0157640
734.371	0.0158830
734.449	0.0159175
734.527	0.0159111
734.605	0.0160927
734.683	0.0162315
734.761	0.0163481
734.840	0.0163551
734.918	0.0164874
734.996	0.0165473
735.074	0.0165349
735.152	0.0165152
735.230	0.0166164
735.308	0.0165336
735.386	0.0165073
735.465	0.0166080
735.543	0.0165916
735.621	0.0165195
735.699	0.0163696
735.777	0.0163883
735.855	0.0163544
735.933	0.0164609
736.011	0.0162650
736.090	0.0162399
736.168	0.0161940
736.246	0.0161123
736.324	0.0162298
736.402	0.0163052
736.480	0.0161182
736.558	0.0162674
736.636	0.0160799
736.715	0.0160779
736.793	0.0161179
736.871	0.0160896
736.949	0.0161172
737.027	0.0160519
737.105	0.0159704
737.183	0.0160321
737.261	0.0161766
737.340	0.0160893
737.418	0.0160260
737.496	0.0160604
737.574	0.0162505
737.652	0.0163343
737.730	0.0164372
737.808	0.0165828
737.886	0.0165259
737.965	0.0165392
738.043	0.0166459
738.121	0.0168374
738.199	0.0167236
738.277	0.0165885
738.355	0.0165495
738.433	0.0164037
738.511	0.0164374
738.590	0.0163792
738.668	0.0160956
738.746	0.0158645
738.824	0.0158572
738.902	0.0157272
738.980	0.0154322
739.058	0.0153358
739.136	0.0153628
739.215	0.0151379
739.293	0.0149378
739.371	0.0149835
739.449	0.0149876
739.527	0.0147804
739.605	0.0149290
739.683	0.0150123
739.761	0.0150156
739.840	0.0150423
739.918	0.0150375
739.996	0.0151490
740.074	0.0153040
740.152	0.0153837
740.230	0.0155566
740.308	0.0155560
740.386	0.0156752
740.465	0.0157674
740.543	0.0160119
740.621	0.0161973
740.699	0.0161848
740.777	0.0163380
740.855	0.0163972
740.933	0.0164651
741.011	0.0166055
741.090	0.0167194
741.168	0.0167805
741.246	0.0168736
741.324	0.0169363
741.402	0.0168645
741.480	0.0170692
741.558	0.0171259
741.636	0.0170560
741.715	0.0168327
741.793	0.0169367
741.871	0.0169003
741.949	0.0167809
742.027	0.0166954
742.105	0.0167495
742.183	0.0167410
742.261	0.0166502
742.340	0.0166078
742.418	0.0166485
742.496	0.0165840
742.574	0.0164629
742.652	0.0164553
742.730	0.0164951
742.808	0.0163737
742.886	0.0164206
742.965	0.0164503
743.043	0.0162157
743.121	0.0162143
743.199	0.0162198
743.277	0.0160763
743.355	0.0159192
743.433	0.0159486
743.511	0.0159365
743.590	0.0160130
743.668	0.0159393
743.746	0.0159367
743.824	0.0156117
743.902	0.0157339
743.980	0.0156601
744.058	0.0156943
744.136	0.0158465
744.215	0.0156724
744.293	0.0157056
744.371	0.0157897
744.449	0.0158116
744.527	0.0157510
744.605	0.0157523
744.683	0.0160488
744.761	0.0160506
744.840	0.0161800
744.918	0.0162908
744.996	0.0162762
745.074	0.0163438
745.152	0.0165202
745.230	0.0165245
745.308	0.0165803
745.386	0.0165644
745.465	0.0167137
745.543	0.0167139
745.621	0.0166232
745.699	0.0165547
745.777	0.0165047
745.855	0.0163106
745.933	0.0163448
746.011	0.0163276
746.090	0.0162487
746.168	0.0160382
746.246	0.0158888
746.324	0.0157716
746.402	0.0155614
746.480	0.0154350
746.558	0.0152435
746.636	0.0149725
746.715	0.0149702
746.793	0.0149508
746.871	0.0146909
746.949	0.0146495
747.027	0.0146238
747.105	0.0147490
747.183	0.0148074
747.261	0.0147940
747.340	0.0149345
747.418	0.0150714
747.496	0.0152205
747.574	0.0154535
747.652	0.0157806
747.730	0.0158448
747.808	0.0157726
747.886	0.0159525
747.965	0.0161520
748.043	0.0163338
748.121	0.0163337
748.199	0.0164631
748.277	0.0165599
748.355	0.0165925
748.433	0.0166734
748.511	0.0167666
748.590	0.0168163
748.668	0.0167668
748.746	0.0168620
748.824	0.0168926
748.902	0.0167655
748.980	0.0167723
749.058	0.0168623
749.136	0.0165955
749.215	0.0166268
749.293	0.0166495
749.371	0.0165237
749.449	0.0164588
749.527	0.0163943
749.605	0.0165228
749.683	0.0164373
749.761	0.0164655
749.840	0.0163413
749.918	0.0164862
749.996	0.0164784
750.074	0.0165318
750.152	0.0165263
750.230	0.0165259
750.308	0.0164955
750.386	0.0165938
750.465	0.0167595
750.543	0.0166589
750.621	0.0168215
750.699	0.0166260
750.777	0.0165647
750.855	0.0165057
750.933	0.0166647
751.011	0.0164985
751.090	0.0164350
751.168	0.0163844
751.246	0.0162124
751.324	0.0160938
751.402	0.0159202
751.480	0.0157965
751.558	0.0156984
751.636	0.0155962
751.715	0.0155336
751.793	0.0155704
751.871	0.0155487
751.949	0.0156514
752.027	0.0155859
752.105	0.0155778
752.183	0.0155479
752.261	0.0157410
752.340	0.0157437
752.418	0.0159109
752.496	0.0162563
752.574	0.0161102
752.652	0.0161063
752.730	0.0164299
752.808	0.0163265
752.886	0.0163972
752.965	0.0165429
753.043	0.0164195
753.121	0.0162894
753.199	0.0164350
753.277	0.0164082
753.355	0.0163420
753.433	0.0161047
753.511	0.0162501
753.590	0.0160469
753.668	0.0159382
753.746	0.0157340
753.824	0.0155044
753.902	0.0154668
753.980	0.0152106
754.058	0.0150869
754.136	0.0151568
754.215	0.0151151
754.293	0.0149199
754.371	0.0148950
754.449	0.0148418
754.527	0.0148735
754.605	0.0149294
754.683	0.0150866
754.761	0.0151833
754.840	0.0153271
754.918	0.0155531
754.996	0.0156696
755.074	0.0159094
755.152	0.0160542
755.230	0.0161502
755.308	0.0164604
755.386	0.0167818
755.465	0.0167503
755.543	0.0167560
755.621	0.0168683
755.699	0.0168151
755.777	0.0170061
755.855	0.0167854
755.933	0.0168543
756.011	0.0167266
756.090	0.0167388
756.168	0.0164493
756.246	0.0164418
756.324	0.0163719
756.402	0.0161104
756.480	0.0162330
756.558	0.0160995
756.636	0.0159767
756.715	0.0160788
756.793	0.0158728
756.871	0.0160524
756.949	0.0159356
757.027	0.0157904
757.105	0.0160479
757.183	0.0160643
757.261	0.0161412
757.340	0.0162489
757.418	0.0161295
757.496	0.0164903
757.574	0.0165726
757.652	0.0166219
757.730	0.0167992
757.808	0.0167764
757.886	0.0169791
757.965	0.0170995
758.043	0.0169621
758.121	0.0170674
758.199	0.0171710
758.277	0.0170466
758.355	0.0169930
758.433	0.0170414
758.511	0.0168579
758.590	0.0168169
758.668	0.0168719
758.746	0.0164256
758.824	0.0162280
758.902	0.0161163
758.980	0.0158586
759.058	0.0157573
759.136	0.0157169
759.215	0.0155134
759.293	0.0153169
759.371	0.0152961
759.449	0.0150487
759.527	0.0149431
759.605	0.0149158
759.683	0.0149043
759.761	0.0149594
759.840	0.0150317
759.918	0.0152956
759.996	0.0153671
760.074	0.0153762
760.152	0.0156501
760.230	0.0157886
760.308	0.0158696
760.386	0.0160101
760.465	0.0162198
760.543	0.0163308
760.621	0.0164175
760.699	0.0164546
760.777	0.0165260
760.855	0.0167250
760.933	0.0164890
761.011	0.0165449
761.090	0.0164897
761.168	0.0162689
761.246	0.0161616
761.324	0.0162311
761.402	0.0160845
761.480	0.0158029
761.558	0.0157320
761.636	0.0155666
761.715	0.0153674
761.793	0.0153203
761.871	0.0153922
761.949	0.0152261
762.027	0.0152134
762.105	0.0150550
762.183	0.0151482
762.261	0.0151740
762.340	0.0152787
762.418	0.0152940
762.496	0.0155665
762.574	0.0156815
762.652	0.0158263
762.730	0.0160184
762.808	0.0161397
762.886	0.0163784
762.965	0.0164516
763.043	0.0165595
763.121	0.0167081
763.199	0.0168536
763.277	0.0167798
763.355	0.0168813
763.433	0.0168905
763.511	0.0169311
763.590	0.0167442
763.668	0.0166266
763.746	0.0167428
763.824	0.0166518
763.902	0.0163305
763.980	0.0160697
764.058	0.0162508
764.136	0.0161820
764.215	0.0159512
764.293	0.0158798
764.371	0.0158333
764.449	0.0158198
764.527	0.0159013
764.605	0.0159085
764.683	0.0158937
764.761	0.0160376
764.840	0.0157932
764.918	0.0160199
764.996	0.0162157
765.074	0.0161565
765.152	0.0162427
765.230	0.0164514
765.308	0.0167288
765.386	0.0166359
765.465	0.0168629
765.543	0.0170213
765.621	0.0171284
765.699	0.0171619
765.777	0.0172038
765.855	0.0173479
765.933	0.0172945
766.011	0.0172088
766.090	0.0170742
766.168	0.0171230
766.246	0.0169901
766.324	0.0167078
766.402	0.0165587
766.480	0.0164545
766.558	0.0161729
766.636	0.0159667
766.715	0.0157341
766.793	0.0156236
766.871	0.0153838
766.949	0.0150475
767.027	0.0151748
767.105	0.0148845
767.183	0.0148036
767.261	0.0149246
767.340	0.0149062
767.418	0.0149395
767.496	0.0150600
767.574	0.0150977
767.652	0.0154300
767.730	0.0154184
767.808	0.0155264
767.886	0.0157016
767.965	0.0159599
768.043	0.0160111
768.121	0.0162736
768.199	0.0164334
768.277	0.0165091
768.355	0.0164120
768.433	0.0166581
768.511	0.0166154
768.590	0.0165726
768.668	0.0166483
768.746	0.0164499
768.824	0.0164842
768.902	0.0165060
768.980	0.0161771
769.058	0.0162154
769.136	0.0160333
769.215	0.0159058
769.293	0.0158409
769.371	0.0160039
769.449	0.0158607
769.527	0.0155894
769.605	0.0157539
769.683	0.0156449
769.761	0.0156409
769.840	0.0157644
769.918	0.0157336
769.996	0.0158042
770.074	0.0157106
770.152	0.0160336
770.230	0.0159515
770.308	0.0158393
770.386	0.0160562
770.465	0.0162756
770.543	0.0161890
770.621	0.0162798
770.699	0.0163349
770.777	0.0164813
770.855	0.0165733
770.933	0.0164002
771.011	0.0163736
771.090	0.0163623
771.168	0.0163317
771.246	0.0163451
771.324	0.0162453
771.402	0.0161768
771.480	0.0160592
771.558	0.0160916
771.636	0.0158949
771.715	0.0157666
771.793	0.0156424
771.871	0.0157256
771.949	0.0157652
772.027	0.0155103
772.105	0.0157426
772.183	0.0157191
772.261	0.0157504
772.340	0.0159277
772.418	0.0159457
772.496	0.0159061
772.574	0.0159303
772.652	0.0161943
772.730	0.0163761
772.808	0.0165506
772.886	0.0165026
772.965	0.0166157
773.043	0.0167220
773.121	0.0168278
773.199	0.0168510
773.277	0.0170255
773.355	0.0170211
773.433	0.0172025
773.511	0.0171154
773.590	0.0169317
773.668	0.0171247
773.746	0.0171284
773.824	0.0170043
773.902	0.0168219
773.980	0.0167630
774.058	0.0165780
774.136	0.0166021
774.215	0.0164287
774.293	0.0164138
774.371	0.0161913
774.449	0.0156666
774.527	0.0156744
774.605	0.0155531
774.683	0.0155665
774.761	0.0153632
774.840	0.0152971
774.918	0.0153082
774.996	0.0150987
775.074	0.0151836
775.152	0.0151069
775.230	0.0150556
775.308	0.0152920
775.386	0.0152847
775.465	0.0153187
775.543	0.0156390
775.621	0.0157396
775.699	0.0157452
775.777	0.0158597
775.855	0.0159780
775.933	0.0160933
776.011	0.0163251
776.090	0.0163120
776.168	0.0164764
776.246	0.0165355
776.324	0.0165047
776.402	0.0166113
776.480	0.0166456
776.558	0.0164801
776.636	0.0165687
776.715	0.0166571
776.793	0.0165619
776.871	0.0164582
776.949	0.0163457
777.027	0.0161803
777.105	0.0161337
777.183	0.0159655
777.261	0.0157983
777.340	0.0158350
777.418	0.0157774
777.496	0.0157220
777.574	0.0156238
777.652	0.0154755
777.730	0.0157040
777.808	0.0156982
777.886	0.0156252
777.965	0.0158183
778.043	0.0157369
778.121	0.0158418
778.199	0.0160684
778.277	0.0160320
778.355	0.0159969
778.433	0.0161324
778.511	0.0163780
778.590	0.0164022
778.668	0.0162796
778.746	0.0164956
778.824	0.0164159
778.902	0.0164732
778.980	0.0164032
779.058	0.0163350
779.136	0.0162589
779.215	0.0163412
779.293	0.0161335
779.371	0.0159970
779.449	0.0159306
779.527	0.0159970
779.605	0.0160328
779.683	0.0158088
779.761	0.0159017
779.840	0.0158585
779.918	0.0157771
779.996	0.0158068
780.074	0.0157880
780.152	0.0158485
780.230	0.0159592
780.308	0.0160493
780.386	0.0161627
780.465	0.0161058
780.543	0.0163657
780.621	0.0163461
780.699	0.0165941
780.777	0.0166807
780.855	0.0167738
780.933	0.0168487
781.011	0.0168559
781.090	0.0171228
781.168	0.0170226
781.246	0.0170000
781.324	0.0169994
781.402	0.0169363
781.480	0.0169031
781.558	0.0168073
781.636	0.0167247
781.715	0.0166766
781.793	0.0165002
781.871	0.0163145
781.949	0.0162735
782.027	0.0161024
782.105	0.0159377
782.183	0.0159135
782.261	0.0158205
782.340	0.0156235
782.418	0.0155093
782.496	0.0154314
782.574	0.0153049
782.652	0.0153988
782.730	0.0153239
782.808	0.0154780
782.886	0.0154425
782.965	0.0154167
783.043	0.0154632
783.121	0.0155462
783.199	0.0157201
783.277	0.0158609
783.355	0.0160076
783.433	0.0159134
783.511	0.0161604
783.590	0.0162312
783.668	0.0163135
783.746	0.0162762
783.824	0.0164888
783.902	0.0163499
783.980	0.0165461
784.058	0.0165744
784.136	0.0165585
784.215	0.0165183
784.293	0.0164114
784.371	0.0163603
784.449	0.0164889
784.527	0.0164924
784.605	0.0163636
784.683	0.0162888
784.761	0.0162270
784.840	0.0161423
784.918	0.0162073
784.996	0.0161378
785.074	0.0160688
785.152	0.0159495
785.230	0.0158647
785.308	0.0159580
785.386	0.0158271
785.465	0.0158206
785.543	0.0159221
785.621	0.0160369
785.699	0.0159412
785.777	0.0159613
785.855	0.0158739
785.933	0.0160213
786.011	0.0160867
786.090	0.0160800
786.168	0.0160881
786.246	0.0160201
786.324	0.0161246
786.402	0.0160630
786.480	0.0161390
786.558	0.0160241
786.636	0.0161382
786.715	0.0161025
786.793	0.0161280
786.871	0.0159864
786.949	0.0162692
787.027	0.0162851
787.105	0.0161930
787.183	0.0161306
787.261	0.0159229
787.340	0.0160551
787.418	0.0161059
787.496	0.0160251
787.574	0.0161345
787.652	0.0160884
787.730	0.0162709
787.808	0.0162446
787.886	0.0162270
787.965	0.0162141
788.043	0.0162362
788.121	0.0164340
788.199	0.0162927
788.277	0.0161876
788.355	0.0163054
788.433	0.0162451
788.511	0.0162430
788.590	0.0163644
788.668	0.0162991
788.746	0.0163130
788.824	0.0162794
788.902	0.0163442
788.980	0.0162481
789.058	0.0162457
789.136	0.0162695
789.215	0.0162936
789.293	0.0161469
789.371	0.0161201
789.449	0.0161810
789.527	0.0161013
789.605	0.0160851
789.683	0.0160812
789.761	0.0159558
789.840	0.0159785
789.918	0.0159951
789.996	0.0160339
790.074	0.0159989
790.152	0.0159700
790.230	0.0161007
790.308	0.0160040
790.386	0.0160394
790.465	0.0160998
790.543	0.0161181
790.621	0.0160722
790.699	0.0160957
790.777	0.0160194
790.855	0.0160419
790.933	0.0160153
791.011	0.0160326
791.090	0.0160973
791.168	0.0160183
791.246	0.0160204
791.324	0.0160352
791.402	0.0160776
791.480	0.0161783
791.558	0.0160217
791.636	0.0160674
791.715	0.0160426
791.793	0.0161671
791.871	0.0162453
791.949	0.0161126
792.027	0.0162917
792.105	0.0163181
792.183	0.0163855
792.261	0.0163313
792.340	0.0161909
792.418	0.0162272
792.496	0.0162424
792.574	0.0163316
792.652	0.0162668
792.730	0.0160966
792.808	0.0160164
792.886	0.0161033
792.965	0.0160170
793.043	0.0159552
793.121	0.0158978
793.199	0.0158277
793.277	0.0156489
793.355	0.0157320
793.433	0.0157381
793.511	0.0158125
793.590	0.0157462
793.668	0.0157465
793.746	0.0156924
793.824	0.0158540
793.902	0.0159113
793.980	0.0159222
794.058	0.0159522
794.136	0.0161121
794.215	0.0163857
794.293	0.0162535
794.371	0.0161777
794.449	0.0161877
794.527	0.0162979
794.605	0.0164709
794.683	0.0164244
794.761	0.0163763
794.840	0.0162212
794.918	0.0162054
794.996	0.0163143
795.074	0.0163578
795.152	0.0163242
795.230	0.0164126
795.308	0.0161589
795.386	0.0161193
795.465	0.0162028
795.543	0.0162128
795.621	0.0162485
795.699	0.0161404
795.777	0.0161517
795.855	0.0162663
795.933	0.0161565
796.011	0.0161140
796.090	0.0161031
796.168	0.0161815
796.246	0.0162270
796.324	0.0159974
796.402	0.0159691
796.480	0.0159199
796.558	0.0158263
796.636	0.0156963
796.715	0.0158463
796.793	0.0157128
796.871	0.0157578
796.949	0.0156987
797.027	0.0156700
797.105	0.0157530
797.183	0.0156456
797.261	0.0158218
797.340	0.0158910
797.418	0.0159412
797.496	0.0161111
797.574	0.0160963
797.652	0.0162811
797.730	0.0163428
797.808	0.0162887
797.886	0.0165275
797.965	0.0165926
798.043	0.0166034
798.121	0.0165446
798.199	0.0164844
798.277	0.0165538
798.355	0.0165364
798.433	0.0163861
798.511	0.0163638
798.590	0.0162189
798.668	0.0162450
798.746	0.0160992
798.824	0.0158664
798.902	0.0158756
798.980	0.0158446
799.058	0.0159598
799.136	0.0158500
799.215	0.0157725
799.293	0.0157523
799.371	0.0158315
799.449	0.0158775
799.527	0.0158396
799.605	0.0159550
799.683	0.0159863
799.761	0.0159292
799.840	0.0159956
799.918	0.0159877
799.996	0.0161842
800.074	0.0161403
800.152	0.0161539
800.230	0.0161822
800.308	0.0160654
800.386	0.0159685
800.465	0.0159697
800.543	0.0159354
800.621	0.0160001
800.699	0.0159736
800.777	0.0158706
800.855	0.0157636
800.933	0.0158704
801.011	0.0158521
801.090	0.0159212
801.168	0.0159415
801.246	0.0158664
801.324	0.0159405
801.402	0.0160658
801.480	0.0161272
801.558	0.0160345
801.636	0.0160361
801.715	0.0162095
801.793	0.0161934
801.871	0.0162982
801.949	0.0162032
802.027	0.0161014
802.105	0.0162628
802.183	0.0162180
802.261	0.0161919
802.340	0.0160983
802.418	0.0161264
802.496	0.0161619
802.574	0.0160959
802.652	0.0161459
802.730	0.0161171
802.808	0.0162587
802.886	0.0163114
802.965	0.0161855
803.043	0.0162639
803.121	0.0164104
803.199	0.0163416
803.277	0.0163033
803.355	0.0164753
803.433	0.0164661
803.511	0.0163373
803.590	0.0162903
803.668	0.0162650
803.746	0.0162444
803.824	0.0161295
803.902	0.0160942
803.980	0.0161125
804.058	0.0160206
804.136	0.0158636
804.215	0.0159435
804.293	0.0158112
804.371	0.0158137
804.449	0.0159116
804.527	0.0158379
804.605	0.0158630
804.683	0.0158412
804.761	0.0158466
804.840	0.0159921
804.918	0.0158059
804.996	0.0159546
805.074	0.0160783
805.152	0.0161249
805.230	0.0161179
805.308	0.0161705
805.386	0.0162748
805.465	0.0162795
805.543	0.0162445
805.621	0.0163268
805.699	0.0162970
805.777	0.0163390
805.855	0.0163424
805.933	0.0162278
806.011	0.0162959
806.090	0.0160889
806.168	0.0161556
806.246	0.0160715
806.324	0.0158997
806.402	0.0159476
806.480	0.0159304
806.558	0.0159767
806.636	0.0159750
806.715	0.0158524
806.793	0.0159698
806.871	0.0160492
806.949	0.0159127
807.027	0.0158697
807.105	0.0158808
807.183	0.0160954
807.261	0.0161196
807.340	0.0159575
807.418	0.0159870
807.496	0.0159937
807.574	0.0160926
807.652	0.0161619
807.730	0.0161446
807.808	0.0159968
807.886	0.0160116
807.965	0.0161159
808.043	0.0160516
808.121	0.0159840
808.199	0.0160646
808.277	0.0159322
808.355	0.0160373
808.433	0.0160249
808.511	0.0161456
808.590	0.0161331
808.668	0.0159986
808.746	0.0162496
808.824	0.0160482
808.902	0.0161743
808.980	0.0160841
809.058	0.0160522
809.136	0.0161869
809.215	0.0163261
809.293	0.0160923
809.371	0.0161148
809.449	0.0163148
809.527	0.0161916
809.605	0.0162483
809.683	0.0162629
809.761	0.0160809
809.840	0.0162055
809.918	0.0162421
809.996	0.0162854
810.074	0.0161475
810.152	0.0160848
810.230	0.0160384
810.308	0.0162075
810.386	0.0162990
810.465	0.0161355
810.543	0.0159707
810.621	0.0160667
810.699	0.0161118
810.777	0.0162186
810.855	0.0161888
810.933	0.0161262
811.011	0.0161618
811.090	0.0161853
811.168	0.0161653
811.246	0.0162440
811.324	0.0163250
811.402	0.0161346
811.480	0.0162835
811.558	0.0162457
811.636	0.0160868
811.715	0.0160713
811.793	0.0163109
811.871	0.0162347
811.949	0.0162672
812.027	0.0161320
812.105	0.0161693
812.183	0.0161028
812.261	0.0160197
812.340	0.0160968
812.418	0.0159864
812.496	0.0160074
812.574	0.0161540
812.652	0.0160388
812.730	0.0161083
812.808	0.0161047
812.886	0.0161210
812.965	0.0160548
813.043	0.0161318
813.121	0.0161230
813.199	0.0162017
813.277	0.0161732
813.355	0.0161652
813.433	0.0161652
813.511	0.0161267
813.590	0.0162049
813.668	0.0161525
813.746	0.0161121
813.824	0.0161132
813.902	0.0160842
813.980	0.0160930
814.058	0.0159412
814.136	0.0160935
814.215	0.0160865
814.293	0.0159806
814.371	0.0158638
814.449	0.0158233
814.527	0.0158085
814.605	0.0159320
814.683	0.0159997
814.761	0.0159928
814.840	0.0160039
814.918	0.0159512
814.996	0.0160101
815.074	0.0160272
815.152	0.0159500
815.230	0.0159469
815.308	0.0161059
815.386	0.0160394
815.465	0.0161908
815.543	0.0160000
815.621	0.0161444
815.699	0.0161917
815.777	0.0161646
815.855	0.0161167
815.933	0.0162304
816.011	0.0161250
816.090	0.0161189
816.168	0.0160750
816.246	0.0160077
816.324	0.0161549
816.402	0.0162340
816.480	0.0161593
816.558	0.0161592
816.636	0.0161636
816.715	0.0162577
816.793	0.0161407
816.871	0.0160478
816.949	0.0160314
817.027	0.0162828
817.105	0.0161440
817.183	0.0162131
817.261	0.0162961
817.340	0.0162173
817.418	0.0161702
817.496	0.0161819
817.574	0.0162553
817.652	0.0162885
817.730	0.0162167
817.808	0.0161227
817.886	0.0161706
817.965	0.0160612
818.043	0.0161338
818.121	0.0158504
818.199	0.0159909
818.277	0.0161504
818.355	0.0160321
818.433	0.0159342
818.511	0.0159575
818.590	0.0160287
818.668	0.0161486
818.746	0.0160958
818.824	0.0161559
818.902	0.0162252
818.980	0.0161069
819.058	0.0160452
819.136	0.0162030
819.215	0.0162766
819.293	0.0163277
819.371	0.0160768
819.449	0.0161221
819.527	0.0161449
819.605	0.0161871
819.683	0.0161691
819.761	0.0161096
819.840	0.0160695
819.918	0.0160633
819.996	0.0159824
820.074	0.0160680
820.152	0.0160916
820.230	0.0160792
820.308	0.0159549
820.386	0.0161204
820.465	0.0161184
820.543	0.0161103
820.621	0.0162661
820.699	0.0161968
820.777	0.0162125
820.855	0.0161703
820.933	0.0162342
821.011	0.0162635
821.090	0.0161440
821.168	0.0162226
821.246	0.0161907
821.324	0.0159655
821.402	0.0161454
821.480	0.0161030
821.558	0.0158929
821.636	0.0159993
821.715	0.0160533
821.793	0.0159515
821.871	0.0159631
821.949	0.0160295
822.027	0.0159264
822.105	0.0159447
822.183	0.0159977
822.261	0.0158041
822.340	0.0159560
822.418	0.0161987
822.496	0.0161000
822.574	0.0158713
822.652	0.0160509
822.730	0.0162466
822.808	0.0161997
822.886	0.0161478
822.965	0.0161516
823.043	0.0161553
823.121	0.0162429
823.199	0.0163121
823.277	0.0162707
823.355	0.0162518
823.433	0.0160916
823.511	0.0162275
823.590	0.0160818
823.668	0.0161611
823.746	0.0162331
823.824	0.0160897
823.902	0.0160925
823.980	0.0159027
824.058	0.0160828
824.136	0.0160901
824.215	0.0160056
824.293	0.0158299
824.371	0.0161227
824.449	0.0160769
824.527	0.0160037
824.605	0.0161279
824.683	0.0160718
824.761	0.0161146
824.840	0.0160511
824.918	0.0160123
824.996	0.0159989
825.074	0.0159875
825.152	0.0160901
825.230	0.0159148
825.308	0.0159669
825.386	0.0158327
825.465	0.0161403
825.543	0.0160535
825.621	0.0159347
825.699	0.0160249
825.777	0.0161107
825.855	0.0161302
825.933	0.0161103
826.011	0.0162436
826.090	0.0160579
826.168	0.0160895
826.246	0.0161417
826.324	0.0162066
826.402	0.0162019
826.480	0.0161643
826.558	0.0161377
826.636	0.0161407
826.715	0.0161075
826.793	0.0160973
826.871	0.0161111
826.949	0.0162955
827.027	0.0159646
827.105	0.0161180
827.183	0.0160043
827.261	0.0160857
827.340	0.0161039
827.418	0.0160808
827.496	0.0160533
827.574	0.0160459
827.652	0.0158504
827.730	0.0162000
827.808	0.0161714
827.886	0.0160712
827.965	0.0159415
828.043	0.0161459
828.121	0.0161189
828.199	0.0161919
828.277	0.0161385
828.355	0.0160887
828.433	0.0161043
828.511	0.0160844
828.590	0.0160596
828.668	0.0160970
828.746	0.0160629
828.824	0.0161253
828.902	0.0161851
828.980	0.0161387
829.058	0.0162379
829.136	0.0159706
829.215	0.0161121
829.293	0.0161357
829.371	0.0161560
829.449	0.0161610
829.527	0.0160401
829.605	0.0160004
829.683	0.0161053
829.761	0.0160146
829.840	0.0159888
829.918	0.0160516
829.996	0.0161573
830.074	0.0161012
830.152	0.0160413
830.230	0.0159074
830.308	0.0159989
830.386	0.0159934
830.465	0.0162231
830.543	0.0160719
830.621	0.0159620
830.699	0.0160868
830.777	0.0159721
830.855	0.0159059
830.933	0.0158781
831.011	0.0159370
831.090	0.0159544
831.168	0.0159067
831.246	0.0160337
831.324	0.0159328
831.402	0.0158764
831.480	0.0160870
831.558	0.0160845
831.636	0.0158992
831.715	0.0160075
831.793	0.0161940
831.871	0.0160822
831.949	0.0161140
832.027	0.0160413
832.105	0.0161934
832.183	0.0162843
832.261	0.0161537
832.340	0.0162474
832.418	0.0159990
832.496	0.0161044
832.574	0.0161880
832.652	0.0161935
832.730	0.0162272
832.808	0.0162052
832.886	0.0162003
832.965	0.0160751
833.043	0.0160274
833.121	0.0161685
833.199	0.0162489
833.277	0.0162263
833.355	0.0161578
833.433	0.0162080
833.511	0.0162147
833.590	0.0161683
833.668	0.0162489
833.746	0.0161569
833.824	0.0160957
833.902	0.0162134
833.980	0.0161040
834.058	0.0160901
834.136	0.0162489
834.215	0.0162106
834.293	0.0163641
834.371	0.0160655
834.449	0.0162091
834.527	0.0162031
834.605	0.0161726
834.683	0.0162815
834.761	0.0162819
834.840	0.0160493
834.918	0.0160611
834.996	0.0161533
835.074	0.0160867
835.152	0.0160620
835.230	0.0160728
835.308	0.0160333
835.386	0.0160253
835.465	0.0160089
835.543	0.0161346
835.621	0.0161213
835.699	0.0161008
835.777	0.0159174
835.855	0.0159605
835.933	0.0159138
836.011	0.0158849
836.090	0.0158846
836.168	0.0159579
836.246	0.0159175
836.324	0.0159128
836.402	0.0160546
836.480	0.0162244
836.558	0.0159915
836.636	0.0159711
836.715	0.0159480
836.793	0.0162263
836.871	0.0161879
836.949	0.0161152
837.027	0.0161802
837.105	0.0161478
837.183	0.0161567
837.261	0.0162566
837.340	0.0160911
837.418	0.0160728
837.496	0.0161665
837.574	0.0160609
837.652	0.0161431
837.730	0.0160882
837.808	0.0158945
837.886	0.0158802
837.965	0.0160666
838.043	0.0160747
838.121	0.0159740
838.199	0.0158945
838.277	0.0159693
838.355	0.0162365
838.433	0.0160300
838.511	0.0159865
838.590	0.0160265
838.668	0.0159504
838.746	0.0160783
838.824	0.0161120
838.902	0.0161203
838.980	0.0161092
839.058	0.0161533
839.136	0.0160780
839.215	0.0160864
839.293	0.0162247
839.371	0.0160621
839.449	0.0159933
839.527	0.0160140
839.605	0.0161935
839.683	0.0161828
839.761	0.0161720
839.840	0.0161781
839.918	0.0161629
839.996	0.0160876
840.074	0.0161418
840.152	0.0161431
840.230	0.0162263
840.308	0.0162118
840.386	0.0162511
840.465	0.0162526
840.543	0.0162534
840.621	0.0160725
840.699	0.0161755
840.777	0.0163556
840.855	0.0162159
840.933	0.0161452
841.011	0.0161552
841.090	0.0161388
841.168	0.0161617
841.246	0.0162182
841.324	0.0161403
841.402	0.0161829
841.480	0.0162152
841.558	0.0163145
841.636	0.0161993
841.715	0.0162608
841.793	0.0162885
841.871	0.0161312
841.949	0.0162484
842.027	0.0161244
842.105	0.0160553
842.183	0.0161531
842.261	0.0161948
842.340	0.0162601
842.418	0.0159234
842.496	0.0161016
842.574	0.0162043
842.652	0.0162041
842.730	0.0162193
842.808	0.0161729
842.886	0.0160831
842.965	0.0160532
843.043	0.0161500
843.121	0.0160369
843.199	0.0159736
843.277	0.0160977
843.355	0.0160545
843.433	0.0159079
843.511	0.0158915
843.590	0.0160027
843.668	0.0160062
843.746	0.0160703
843.824	0.0159981
843.902	0.0159476
843.980	0.0159386
844.058	0.0159146
844.136	0.0158702
844.215	0.0159386
844.293	0.0161208
844.371	0.0160255
844.449	0.0158791
844.527	0.0159929
844.605	0.0161251
844.683	0.0161008
844.761	0.0159269
844.840	0.0158928
844.918	0.0160111
844.996	0.0160713
845.074	0.0160873
845.152	0.0161804
845.230	0.0160278
845.308	0.0159592
845.386	0.0160482
845.465	0.0160422
845.543	0.0159413
845.621	0.0159136
845.699	0.0161382
845.777	0.0159947
845.855	0.0160773
845.933	0.0159900
846.011	0.0159311
846.090	0.0159153
846.168	0.0159416
846.246	0.0159117
846.324	0.0159795
846.402	0.0161698
846.480	0.0161327
846.558	0.0161138
846.636	0.0161502
846.715	0.0160019
846.793	0.0161953
846.871	0.0162885
846.949	0.0160885
847.027	0.0160221
847.105	0.0161473
847.183	0.0160828
847.261	0.0161118
847.340	0.0161868
847.418	0.0162127
847.496	0.0161854
847.574	0.0161410
847.652	0.0161537
847.730	0.0161099
847.808	0.0161826
847.886	0.0160971
847.965	0.0160863
848.043	0.0161510
848.121	0.0161554
848.199	0.0162929
848.277	0.0161576
848.355	0.0161074
848.433	0.0162276
848.511	0.0161966
848.590	0.0161776
848.668	0.0161269
848.746	0.0162276
848.824	0.0162199
848.902	0.0162460
848.980	0.0162226
849.058	0.0162704
849.136	0.0162374
849.215	0.0160955
849.293	0.0161243
849.371	0.0162013
849.449	0.0162460
849.527	0.0162409
849.605	0.0162166
849.683	0.0159199
849.761	0.0162247
849.840	0.0162672
849.918	0.0161655
849.996	0.0160732
850.074	0.0161741
850.152	0.0163633
850.230	0.0162127
850.308	0.0162162
850.386	0.0161919
850.465	0.0160457
850.543	0.0160392
850.621	0.0161785
850.699	0.0161429
850.777	0.0162500
850.855	0.0160882
850.933	0.0160919
851.011	0.0161303
851.090	0.0160076
851.168	0.0159555
851.246	0.0160834
851.324	0.0160609
851.402	0.0160378
851.480	0.0159522
851.558	0.0159117
851.636	0.0160942
851.715	0.0159904
851.793	0.0158850
851.871	0.0160030
851.949	0.0158260
852.027	0.0159893
852.105	0.0161374
852.183	0.0159978
852.261	0.0161330
852.340	0.0162008
852.418	0.0159917
852.496	0.0160382
852.574	0.0161472
852.652	0.0162754
852.730	0.0160954
852.808	0.0160966
852.886	0.0160229
852.965	0.0159667
853.043	0.0161394
853.121	0.0160935
853.199	0.0160145
853.277	0.0161235
853.355	0.0160503
853.433	0.0159859
853.511	0.0161174
853.590	0.0160043
853.668	0.0158294
853.746	0.0159392
853.824	0.0158716
853.902	0.0160854
853.980	0.0158890
854.058	0.0158763
854.136	0.0159953
854.215	0.0159248
854.293	0.0160292
854.371	0.0161200
854.449	0.0160583
854.527	0.0161434
854.605	0.0160751
854.683	0.0162291
854.761	0.0164016
854.840	0.0161723
854.918	0.0160813
854.996	0.0161749
855.074	0.0162592
855.152	0.0162468
855.230	0.0162493
855.308	0.0162080
855.386	0.0162476
855.465	0.0161973
855.543	0.0161139
855.621	0.0161897
855.699	0.0162151
855.777	0.0160585
855.855	0.0160992
855.933	0.0161522
856.011	0.0160123
856.090	0.0159741
856.168	0.0160801
856.246	0.0159681
856.324	0.0161275
856.402	0.0159106
856.480	0.0159985
856.558	0.0159286
856.636	0.0160098
856.715	0.0161577
856.793	0.0162128
856.871	0.0161046
856.949	0.0160761
857.027	0.0159650
857.105	0.0161498
857.183	0.0163432
857.261	0.0161698
857.340	0.0161479
857.418	0.0162512
857.496	0.0163113
857.574	0.0161674
857.652	0.0162687
857.730	0.0162566
857.808	0.0163223
857.886	0.0162528
857.965	0.0162045
858.043	0.0162801
858.121	0.0160851
858.199	0.0162762
858.277	0.0162086
858.355	0.0162112
858.433	0.0160690
858.511	0.0161078
858.590	0.0160456
858.668	0.0160076
858.746	0.0159856
858.824	0.0159950
858.902	0.0159544
858.980	0.0159196
859.058	0.0160125
859.136	0.0160567
859.215	0.0160071
859.293	0.0159766
859.371	0.0160272
859.449	0.0161691
859.527	0.0159666
859.605	0.0161716
859.683	0.0160844
859.761	0.0162106
859.840	0.0163116
859.918	0.0164030
859.996	0.0161089
860.074	0.0161721
860.152	0.0161759
860.230	0.0162111
860.308	0.0162207
860.386	0.0162090
860.465	0.0161501
860.543	0.0161545
860.621	0.0161063
860.699	0.0160580
860.777	0.0159826
860.855	0.0159349
860.933	0.0160619
861.011	0.0160712
861.090	0.0158642
861.168	0.0159805
861.246	0.0159679
861.324	0.0158626
861.402	0.0157760
861.480	0.0159003
861.558	0.0158949
861.636	0.0160670
861.715	0.0158637
861.793	0.0158762
861.871	0.0160643
861.949	0.0160712
862.027	0.0160557
862.105	0.0159574
862.183	0.0160579
862.261	0.0160396
862.340	0.0162418
862.418	0.0161363
862.496	0.0159809
862.574	0.0162283
862.652	0.0162108
862.730	0.0162816
862.808	0.0161921
862.886	0.0163838
862.965	0.0161730
863.043	0.0161262
863.121	0.0163330
863.199	0.0162897
863.277	0.0161568
863.355	0.0161029
863.433	0.0161008
863.511	0.0160295
863.590	0.0159670
863.668	0.0161707
863.746	0.0161461
863.824	0.0158358
863.902	0.0159072
863.980	0.0159882
864.058	0.0159185
864.136	0.0160733
864.215	0.0159836
864.293	0.0160343
864.371	0.0161635
864.449	0.0158561
864.527	0.0161895
864.605	0.0162426
864.683	0.0161205
864.761	0.0161255
864.840	0.0161831
864.918	0.0162315
864.996	0.0159892
865.074	0.0162444
865.152	0.0162235
865.230	0.0162579
865.308	0.0162674
865.386	0.0162415
865.465	0.0162211
865.543	0.0161822
865.621	0.0161964
865.699	0.0160117
865.777	0.0161276
865.855	0.0161587
865.933	0.0161599
866.011	0.0160833
866.090	0.0160807
866.168	0.0160735
866.246	0.0161146
866.324	0.0160928
866.402	0.0160926
866.480	0.0160171
866.558	0.0161341
866.636	0.0160507
866.715	0.0160374
866.793	0.0160958
866.871	0.0159464
866.949	0.0161821
867.027	0.0162783
867.105	0.0162733
867.183	0.0161880
867.261	0.0161846
867.340	0.0162297
867.418	0.0161520
867.496	0.0161176
867.574	0.0161212
867.652	0.0162299
867.730	0.0161466
867.808	0.0160369
867.886	0.0162340
867.965	0.0161419
868.043	0.0160763
868.121	0.0160194
868.199	0.0160013
868.277	0.0159683
868.355	0.0160852
868.433	0.0158865
868.511	0.0161198
868.590	0.0160930
868.668	0.0159924
868.746	0.0159888
868.824	0.0159892
868.902	0.0160036
868.980	0.0158172
869.058	0.0159173
869.136	0.0158046
869.215	0.0159587
869.293	0.0158522
869.371	0.0159789
869.449	0.0159930
869.527	0.0159330
869.605	0.0160198
869.683	0.0159126
869.761	0.0160244
869.840	0.0160309
869.918	0.0161706
869.996	0.0161728
870.074	0.0160739
870.152	0.0161256
870.230	0.0161849
870.308	0.0162277
870.386	0.0160305
870.465	0.0159863
870.543	0.0162504
870.621	0.0161648
870.699	0.0161295
870.777	0.0160832
870.855	0.0160913
870.933	0.0159949
871.011	0.0159774
871.090	0.0161150
871.168	0.0159859
871.246	0.0160561
871.324	0.0160641
871.402	0.0160656
871.480	0.0159392
871.558	0.0159276
871.636	0.0160149
871.715	0.0160674
871.793	0.0158502
871.871	0.0158167
871.949	0.0160879
872.027	0.0160580
872.105	0.0160873
872.183	0.0159184
872.261	0.0158552
872.340	0.0160407
872.418	0.0159999
872.496	0.0160779
872.574	0.0160577
872.652	0.0161139
872.730	0.0160644
872.808	0.0160702
872.886	0.0159718
872.965	0.0161355
873.043	0.0161851
873.121	0.0160636
873.199	0.0161385
873.277	0.0161356
873.355	0.0161144
873.433	0.0161665
873.511	0.0162511
873.590	0.0162222
873.668	0.0161674
873.746	0.0162665
873.824	0.0162813
873.902	0.0162585
873.980	0.0161327
874.058	0.0161926
874.136	0.0161441
874.215	0.0161770
874.293	0.0161873
874.371	0.0161707
874.449	0.0162618
874.527	0.0162072
874.605	0.0161464
874.683	0.0161783
874.761	0.0161602
874.840	0.0161021
874.918	0.0160811
874.996	0.0162308
875.074	0.0160889
875.152	0.0159892
875.230	0.0158772
875.308	0.0161448
875.386	0.0161498
875.465	0.0160276
875.543	0.0159779
875.621	0.0160063
875.699	0.0160486
875.777	0.0161428
875.855	0.0161067
875.933	0.0160345
876.011	0.0160543
876.090	0.0159050
876.168	0.0160999
876.246	0.0161381
876.324	0.0161062
876.402	0.0159141
876.480	0.0161649
876.558	0.0159418
876.636	0.0160070
876.715	0.0159347
876.793	0.0158978
876.871	0.0159673
876.949	0.0160511
877.027	0.0160558
877.105	0.0159782
877.183	0.0159789
877.261	0.0160941
877.340	0.0160250
877.418	0.0159688
877.496	0.0161381
877.574	0.0160818
877.652	0.0161446
877.730	0.0159557
877.808	0.0160513
877.886	0.0162249
877.965	0.0161118
878.043	0.0160365
878.121	0.0160892
878.199	0.0161772
878.277	0.0161713
878.355	0.0160197
878.433	0.0159663
878.511	0.0160587
878.590	0.0160491
878.668	0.0161453
878.746	0.0161790
878.824	0.0160471
878.902	0.0159731
878.980	0.0163081
879.058	0.0161355
879.136	0.0160435
879.215	0.0160764
879.293	0.0160220
879.371	0.0160114
879.449	0.0161385
879.527	0.0162434
879.605	0.0161868
879.683	0.0160896
879.761	0.0162000
879.840	0.0161272
879.918	0.0160431
879.996	0.0161037
880.074	0.0161442
880.152	0.0161053
880.230	0.0160355
880.308	0.0161161
880.386	0.0160046
880.465	0.0159998
880.543	0.0161099
880.621	0.0161490
880.699	0.0162443
880.777	0.0160436
880.855	0.0160691
880.933	0.0161183
881.011	0.0161828
881.090	0.0162262
881.168	0.0161521
881.246	0.0161539
881.324	0.0162578
881.402	0.0163332
881.480	0.0162938
881.558	0.0162009
881.636	0.0162060
881.715	0.0163256
881.793	0.0161499
881.871	0.0161668
881.949	0.0162394
882.027	0.0162238
882.105	0.0163125
882.183	0.0161201
882.261	0.0162724
882.340	0.0161626
882.418	0.0161027
882.496	0.0161826
882.574	0.0162333
882.652	0.0162680
882.730	0.0160932
882.808	0.0160773
882.886	0.0162818
882.965	0.0161523
883.043	0.0160545
883.121	0.0162864
883.199	0.0161401
883.277	0.0162316
883.355	0.0161120
883.433	0.0161203
883.511	0.0160953
883.590	0.0161463
883.668	0.0161320
883.746	0.0160745
883.824	0.0161028
883.902	0.0162132
883.980	0.0161230
884.058	0.0161732
884.136	0.0161358
884.215	0.0162550
884.293	0.0161174
884.371	0.0160947
884.449	0.0161611
884.527	0.0163169
884.605	0.0161432
884.683	0.0160797
884.761	0.0160471
884.840	0.0160940
884.918	0.0160870
884.996	0.0162162
885.074	0.0160227
885.152	0.0161103
885.230	0.0159394
885.308	0.0160086
885.386	0.0160236
885.465	0.0159801
885.543	0.0159863
885.621	0.0160635
885.699	0.0160344
885.777	0.0160973
885.855	0.0159781
885.933	0.0159975
886.011	0.0160516
886.090	0.0159995
886.168	0.0160907
886.246	0.0160069
886.324	0.0159764
886.402	0.0160073
886.480	0.0160904
886.558	0.0160892
886.636	0.0160670
886.715	0.0161839
886.793	0.0160405
886.871	0.0162675
886.949	0.0161109
887.027	0.0160992
887.105	0.0161926
887.183	0.0161934
887.261	0.0160344
887.340	0.0161646
887.418	0.0161477
887.496	0.0162045
887.574	0.0161156
887.652	0.0161277
887.730	0.0160657
887.808	0.0160603
887.886	0.0162074
887.965	0.0160638
888.043	0.0162156
888.121	0.0159748
888.199	0.0161382
888.277	0.0161253
888.355	0.0160583
888.433	0.0161158
888.511	0.0160110
888.590	0.0160805
888.668	0.0161607
888.746	0.0160614
888.824	0.0160106
888.902	0.0161171
888.980	0.0161831
889.058	0.0160853
889.136	0.0162308
889.215	0.0160545
889.293	0.0161939
889.371	0.0160915
889.449	0.0161423
889.527	0.0163174
889.605	0.0161169
889.683	0.0162164
889.761	0.0163307
889.840	0.0162022
889.918	0.0162290
889.996	0.0161356
890.074	0.0160796
890.152	0.0162051
890.230	0.0160706
890.308	0.0162093
890.386	0.0162414
890.465	0.0161726
890.543	0.0161347
890.621	0.0161398
890.699	0.0161005
890.777	0.0161770
890.855	0.0160897
890.933	0.0161766
891.011	0.0161317
891.090	0.0161254
891.168	0.0161504
891.246	0.0162547
891.324	0.0162544
891.402	0.0161766
891.480	0.0162241
891.558	0.0162463
891.636	0.0162647
891.715	0.0161942
891.793	0.0160571
891.871	0.0162627
891.949	0.0162443
892.027	0.0161556
892.105	0.0161880
892.183	0.0161341
892.261	0.0161852
892.340	0.0160773
892.418	0.0161691
892.496	0.0160765
892.574	0.0161547
892.652	0.0160451
892.730	0.0158727
892.808	0.0160054
892.886	0.0159945
892.965	0.0160573
893.043	0.0159173
893.121	0.0159472
893.199	0.0159892
893.277	0.0160703
893.355	0.0158009
893.433	0.0160073
893.511	0.0160171
893.590	0.0160088
893.668	0.0160197
893.746	0.0160970
893.824	0.0160053
893.902	0.0159430
893.980	0.0159602
894.058	0.0159080
894.136	0.0160081
894.215	0.0161485
894.293	0.0160499
894.371	0.0159844
894.449	0.0161353
894.527	0.0161011
894.605	0.0160643
894.683	0.0160540
894.761	0.0160789
894.840	0.0161655
894.918	0.0161208
894.996	0.0161691
895.074	0.0161181
895.152	0.0160779
895.230	0.0161163
895.308	0.0162572
895.386	0.0162267
895.465	0.0160697
895.543	0.0160957
895.621	0.0160528
895.699	0.0160794
895.777	0.0160406
895.855	0.0161742
895.933	0.0160960
896.011	0.0159935
896.090	0.0159421
896.168	0.0161147
896.246	0.0160133
896.324	0.0160851
896.402	0.0160693
896.480	0.0159991
896.558	0.0159628
896.636	0.0160480
896.715	0.0161774
896.793	0.0159897
896.871	0.0160629
896.949	0.0161211
897.027	0.0161134
897.105	0.0160152
897.183	0.0160308
897.261	0.0160669
897.340	0.0160147
897.418	0.0160463
897.496	0.0161006
897.574	0.0160707
897.652	0.0160046
897.730	0.0160956
897.808	0.0161398
897.886	0.0160864
897.965	0.0160973
898.043	0.0162241
898.121	0.0160928
898.199	0.0160867
898.277	0.0161440
898.355	0.0161871
898.433	0.0161639
898.511	0.0162201
898.590	0.0162307
898.668	0.0162446
898.746	0.0161289
898.824	0.0162988
898.902	0.0162840
898.980	0.0162737
899.058	0.0163087
899.136	0.0161744
899.215	0.0162759
899.293	0.0162616
899.371	0.0162497
899.449	0.0162054
899.527	0.0163525
899.605	0.0161169
899.683	0.0162299
899.761	0.0161926
899.840	0.0161890
899.918	0.0159843
899.996	0.0161268
900.074	0.0161887
900.152	0.0160857
900.230	0.0160598
900.308	0.0159795
900.386	0.0159858
900.465	0.0159699
900.543	0.0159332
900.621	0.0159695
900.699	0.0161211
900.777	0.0160036
900.855	0.0159627
900.933	0.0161015
901.011	0.0158961
901.090	0.0159894
901.168	0.0159846
901.246	0.0159655
901.324	0.0160786
901.402	0.0159581
901.480	0.0160044
901.558	0.0159531
901.636	0.0160284
901.715	0.0159729
901.793	0.0160886
901.871	0.0160960
901.949	0.0161222
902.027	0.0161015
902.105	0.0160127
902.183	0.0162560
902.261	0.0161939
902.340	0.0161127
902.418	0.0161797
902.496	0.0161690
902.574	0.0160599
902.652	0.0161613
902.730	0.0160424
902.808	0.0160977
902.886	0.0160601
902.965	0.0161631
903.043	0.0160497
903.121	0.0160558
903.199	0.0160992
903.277	0.0159560
903.355	0.0159779
903.433	0.0160877
903.511	0.0161098
903.590	0.0160394
903.668	0.0161144
903.746	0.0160249
903.824	0.0159283
903.902	0.0160497
903.980	0.0160693
904.058	0.0160151
904.136	0.0160202
904.215	0.0160477
904.293	0.0160220
904.371	0.0160503
904.449	0.0160504
904.527	0.0159830
904.605	0.0160659
904.683	0.0160775
904.761	0.0162314
904.840	0.0160612
904.918	0.0162148
904.996	0.0160832
905.074	0.0161228
905.152	0.0160457
905.230	0.0161892
905.308	0.0162473
905.386	0.0162016
905.465	0.0162416
905.543	0.0161459
905.621	0.0160577
905.699	0.0161486
905.777	0.0161690
905.855	0.0162308
905.933	0.0160480
906.011	0.0160539
906.090	0.0162310
906.168	0.0162152
906.246	0.0160184
906.324	0.0162857
906.402	0.0161741
906.480	0.0161658
906.558	0.0161129
906.636	0.0161294
906.715	0.0161795
906.793	0.0160956
906.871	0.0160937
906.949	0.0162461
907.027	0.0161671
907.105	0.0161101
907.183	0.0161240
907.261	0.0162081
907.340	0.0161556
907.418	0.0162551
907.496	0.0161391
907.574	0.0162308
907.652	0.0161807
907.730	0.0162237
907.808	0.0161349
907.886	0.0162108
907.965	0.0160437
908.043	0.0160005
908.121	0.0161227
908.199	0.0160643
908.277	0.0161224
908.355	0.0161281
908.433	0.0159725
908.511	0.0161195
908.590	0.0160278
908.668	0.0161496
908.746	0.0161697
908.824	0.0160520
908.902	0.0161046
908.980	0.0163252
909.058	0.0162273
909.136	0.0162022
909.215	0.0159991
909.293	0.0161479
909.371	0.0161793
909.449	0.0161253
909.527	0.0160706
909.605	0.0161745
909.683	0.0161388
909.761	0.0162012
909.840	0.0161440
909.918	0.0159602
909.996	0.0160551
910.074	0.0161299
910.152	0.0160426
910.230	0.0161414
910.308	0.0161618
910.386	0.0160956
910.465	0.0161256
910.543	0.0161023
910.621	0.0162411
910.699	0.0161864
910.777	0.0161607
910.855	0.0161465
910.933	0.0163033
911.011	0.0161217
911.090	0.0162861
911.168	0.0160740
911.246	0.0161380
911.324	0.0162019
911.402	0.0161835
911.480	0.0161874
911.558	0.0161461
911.636	0.0160770
911.715	0.0161170
911.793	0.0162276
911.871	0.0161333
911.949	0.0161131
912.027	0.0160944
912.105	0.0161222
912.183	0.0161348
912.261	0.0162228
912.340	0.0159961
912.418	0.0161520
912.496	0.0161828
912.574	0.0160473
912.652	0.0161398
912.730	0.0160316
912.808	0.0160371
912.886	0.0160661
912.965	0.0160257
913.043	0.0160483
913.121	0.0159663
913.199	0.0160616
913.277	0.0158497
913.355	0.0159323
913.433	0.0160089
913.511	0.0160795
913.590	0.0161750
913.668	0.0161076
913.746	0.0160605
913.824	0.0159817
913.902	0.0160141
913.980	0.0161442
914.058	0.0160271
914.136	0.0161487
914.215	0.0161714
914.293	0.0160690
914.371	0.0161166
914.449	0.0160877
914.527	0.0161923
914.605	0.0160789
914.683	0.0161002
914.761	0.0162772
914.840	0.0162057
914.918	0.0161515
914.996	0.0162022
915.074	0.0161810
915.152	0.0161546
915.230	0.0162492
915.308	0.0163607
915.386	0.0162380
915.465	0.0160876
915.543	0.0160712
915.621	0.0161380
915.699	0.0161049
915.777	0.0161858
915.855	0.0161654
915.933	0.0160912
916.011	0.0158832
916.090	0.0160984
916.168	0.0161371
916.246	0.0162185
916.324	0.0160418
916.402	0.0161257
916.480	0.0161504
916.558	0.0161816
916.636	0.0160760
916.715	0.0160884
916.793	0.0161697
916.871	0.0162935
916.949	0.0161386
917.027	0.0162276
917.105	0.0160975
917.183	0.0160899
917.261	0.0161333
917.340	0.0161266
917.418	0.0161104
917.496	0.0161263
917.574	0.0159997
917.652	0.0161416
917.730	0.0161124
917.808	0.0162603
917.886	0.0161064
917.965	0.0160891
918.043	0.0160799
918.121	0.0161742
918.199	0.0161977
918.277	0.0161793
918.355	0.0161549
918.433	0.0161155
918.511	0.0161189
918.590	0.0161950
918.668	0.0161419
918.746	0.0161009
918.824	0.0162131
918.902	0.0160884
918.980	0.0160590
919.058	0.0160320
919.136	0.0161666
919.215	0.0161531
919.293	0.0160564
919.371	0.0160660
919.449	0.0161409
919.527	0.0161389
919.605	0.0161456
919.683	0.0160142
919.761	0.0160224
919.840	0.0160742
919.918	0.0160423
919.996	0.0160530
920.074	0.0160030
920.152	0.0160024
920.230	0.0160538
920.308	0.0159047
920.386	0.0159599
920.465	0.0160792
920.543	0.0161203
920.621	0.0159045
920.699	0.0159584
920.777	0.0161898
920.855	0.0161499
920.933	0.0160040
921.011	0.0161289
921.090	0.0161450
921.168	0.0161286
921.246	0.0162199
921.324	0.0160661
921.402	0.0160384
921.480	0.0161601
921.558	0.0162103
921.636	0.0161226
921.715	0.0162401
921.793	0.0161063
921.871	0.0161065
921.949	0.0161945
922.027	0.0162766
922.105	0.0161732
922.183	0.0161194
922.261	0.0161801
922.340	0.0162276
922.418	0.0162016
922.496	0.0161598
922.574	0.0161816
922.652	0.0162440
922.730	0.0160875
922.808	0.0160227
922.886	0.0160945
922.965	0.0161329
923.043	0.0160685
923.121	0.0159337
923.199	0.0161118
923.277	0.0160326
923.355	0.0158958
923.433	0.0160139
923.511	0.0159547
923.590	0.0159144
923.668	0.0159035
923.746	0.0160622
923.824	0.0160947
923.902	0.0161292
923.980	0.0160345
924.058	0.0160352
924.136	0.0160606
924.215	0.0161272
924.293	0.0161834
924.371	0.0160913
924.449	0.0160464
924.527	0.0158613
924.605	0.0161920
924.683	0.0160363
924.761	0.0160606
924.840	0.0160184
924.918	0.0160690
924.996	0.0160221
925.074	0.0161793
925.152	0.0159674
925.230	0.0159638
925.308	0.0160918
925.386	0.0160565
925.465	0.0160945
925.543	0.0160254
925.621	0.0161079
925.699	0.0160537
925.777	0.0161294
925.855	0.0161105
925.933	0.0160355
926.011	0.0159771
926.090	0.0160213
926.168	0.0160729
926.246	0.0161077
926.324	0.0161337
926.402	0.0161028
926.480	0.0161499
926.558	0.0160599
926.636	0.0161881
926.715	0.0161475
926.793	0.0162218
926.871	0.0162617
926.949	0.0160913
927.027	0.0160958
927.105	0.0160482
927.183	0.0160497
927.261	0.0161707
927.340	0.0161925
927.418	0.0161419
927.496	0.0159451
927.574	0.0160511
927.652	0.0160880
927.730	0.0161779
927.808	0.0162328
927.886	0.0160611
927.965	0.0160477
928.043	0.0160428
928.121	0.0161862
928.199	0.0160773
928.277	0.0160941
928.355	0.0160265
928.433	0.0160899
928.511	0.0161299
928.590	0.0160006
928.668	0.0161407
928.746	0.0161413
928.824	0.0161366
928.902	0.0161465
928.980	0.0161454
929.058	0.0161051
929.136	0.0161168
929.215	0.0162898
929.293	0.0164014
929.371	0.0161732
929.449	0.0161497
929.527	0.0161983
929.605	0.0162928
929.683	0.0161236
929.761	0.0160761
929.840	0.0162429
929.918	0.0161100
929.996	0.0161835
930.074	0.0161209
930.152	0.0161454
930.230	0.0160902
930.308	0.0160130
930.386	0.0159663
930.465	0.0161160
930.543	0.0162739
930.621	0.0160960
930.699	0.0160607
930.777	0.0160931
930.855	0.0160121
930.933	0.0160420
931.011	0.0161041
931.090	0.0160800
931.168	0.0160377
931.246	0.0161125
931.324	0.0161304
931.402	0.0160148
931.480	0.0161429
931.558	0.0160716
931.636	0.0161452
931.715	0.0161858
931.793	0.0160618
931.871	0.0161315
931.949	0.0160699
932.027	0.0159558
932.105	0.0158965
932.183	0.0160442
932.261	0.0160687
932.340	0.0161277
932.418	0.0161245
932.496	0.0160446
932.574	0.0161073
932.652	0.0159902
932.730	0.0159725
932.808	0.0160934
932.886	0.0159999
932.965	0.0160331
933.043	0.0159857
933.121	0.0160061
933.199	0.0161233
933.277	0.0159810
933.355	0.0162013
933.433	0.0161719
933.511	0.0161316
933.590	0.0159991
933.668	0.0159268
933.746	0.0161190
933.824	0.0161083
933.902	0.0161910
933.980	0.0162090
934.058	0.0160871
934.136	0.0161371
934.215	0.0162885
934.293	0.0161864
934.371	0.0161600
934.449	0.0161302
934.527	0.0160973
934.605	0.0160052
934.683	0.0159594
934.761	0.0160939
934.840	0.0160578
934.918	0.0159705
934.996	0.0160914
935.074	0.0159682
935.152	0.0159245
935.230	0.0161320
935.308	0.0161047
935.386	0.0160483
935.465	0.0159296
935.543	0.0159544
935.621	0.0159169
935.699	0.0159930
935.777	0.0159357
935.855	0.0160878
935.933	0.0160687
936.011	0.0160810
936.090	0.0161510
936.168	0.0160667
936.246	0.0161826
936.324	0.0161677
936.402	0.0161886
936.480	0.0161701
936.558	0.0162502
936.636	0.0162210
936.715	0.0163210
936.793	0.0163490
936.871	0.0161533
936.949	0.0161845
937.027	0.0162254
937.105	0.0162653
937.183	0.0164183
937.261	0.0161946
937.340	0.0162185
937.418	0.0160777
937.496	0.0160285
937.574	0.0161438
937.652	0.0161059
937.730	0.0160163
937.808	0.0161803
937.886	0.0161043
937.965	0.0159793
938.043	0.0160151
938.121	0.0161008
938.199	0.0159318
938.277	0.0159473
938.355	0.0159899
938.433	0.0159313
938.511	0.0160775
938.590	0.0160059
938.668	0.0160490
938.746	0.0159830
938.824	0.0160684
938.902	0.0160091
938.980	0.0160146
939.058	0.0160121
939.136	0.0160725
939.215	0.0161706
939.293	0.0161294
939.371	0.0159578
939.449	0.0161592
939.527	0.0160072
939.605	0.0160287
939.683	0.0162576
939.761	0.0159979
939.840	0.0161029
939.918	0.0160694
939.996	0.0159423
940.074	0.0158492
940.152	0.0160657
940.230	0.0160719
940.308	0.0160830
940.386	0.0160408
940.465	0.0161341
940.543	0.0161044
940.621	0.0160886
940.699	0.0159848
940.777	0.0161481
940.855	0.0160862
940.933	0.0159763
941.011	0.0161244
941.090	0.0161469
941.168	0.0161679
941.246	0.0159987
941.324	0.0160371
941.402	0.0160015
941.480	0.0161591
941.558	0.0160149
941.636	0.0160301
941.715	0.0160801
941.793	0.0161066
941.871	0.0160766
941.949	0.0159924
942.027	0.0162029
942.105	0.0161174
942.183	0.0162216
942.261	0.0161835
942.340	0.0162650
942.418	0.0162228
942.496	0.0162704
942.574	0.0161976
942.652	0.0161678
942.730	0.0160376
942.808	0.0161914
942.886	0.0160812
942.965	0.0160353
943.043	0.0161145
943.121	0.0161725
943.199	0.0160766
943.277	0.0160841
943.355	0.0161012
943.433	0.0160375
943.511	0.0159939
943.590	0.0160548
943.668	0.0160729
943.746	0.0161870
943.824	0.0160885
943.902	0.0161094
943.980	0.0161765
944.058	0.0162072
944.136	0.0160913
944.215	0.0160916
944.293	0.0162636
944.371	0.0162700
944.449	0.0162598
944.527	0.0161098
944.605	0.0160643
944.683	0.0162141
944.761	0.0162093
944.840	0.0161714
944.918	0.0161522
944.996	0.0162155
945.074	0.0161983
945.152	0.0161708
945.230	0.0161343
945.308	0.0162604
945.386	0.0161146
945.465	0.0161569
945.543	0.0161205
945.621	0.0160104
945.699	0.0160684
945.777	0.0162183
945.855	0.0161295
945.933	0.0160967
946.011	0.0161335
946.090	0.0161227
946.168	0.0158652
946.246	0.0159834
946.324	0.0160189
946.402	0.0159384
946.480	0.0159196
946.558	0.0160861
946.636	0.0160261
946.715	0.0160600
946.793	0.0160699
946.871	0.0160607
946.949	0.0161102
947.027	0.0161583
947.105	0.0161411
947.183	0.0161284
947.261	0.0161131
947.340	0.0161267
947.418	0.0161411
947.496	0.0161045
947.574	0.0161400
947.652	0.0160881
947.730	0.0161169
947.808	0.0160598
947.886	0.0160802
947.965	0.0161346
948.043	0.0160713
948.121	0.0160806
948.199	0.0160471
948.277	0.0160807
948.355	0.0161438
948.433	0.0161388
948.511	0.0160788
948.590	0.0161258
948.668	0.0161692
948.746	0.0161768
948.824	0.0161079
948.902	0.0161919
948.980	0.0161427
949.058	0.0159727
949.136	0.0162585
949.215	0.0161674
949.293	0.0161549
949.371	0.0161661
949.449	0.0160249
949.527	0.0161775
949.605	0.0161585
949.683	0.0160347
949.761	0.0161905
949.840	0.0160819
949.918	0.0160237
