06/29/2022	21:24:34	Ver.	4.1	UNKNOWN
Optical Delay	629.995835	Delta X		0.078125	Sweeps	1	Scan Rate	0/0
Coordinates	Axis 1	NaN	Axis 2	NaN	Axis 3	NaN	Axis 4	NaN	Axis 5	NaN	Axis 6	0.000000
TX Power	0.000000	RX Power	0.000000

629.996	0.0154929
630.074	0.0153909
630.152	0.0155003
630.230	0.0154598
630.308	0.0155363
630.386	0.0154984
630.465	0.0155181
630.543	0.0156065
630.621	0.0155108
630.699	0.0154995
630.777	0.0154744
630.855	0.0155361
630.933	0.0154826
631.011	0.0154841
631.090	0.0155236
631.168	0.0155412
631.246	0.0155325
631.324	0.0154769
631.402	0.0153899
631.480	0.0153410
631.558	0.0155336
631.636	0.0155784
631.715	0.0155380
631.793	0.0154385
631.871	0.0155396
631.949	0.0154970
632.027	0.0154398
632.105	0.0154789
632.183	0.0154459
632.261	0.0153150
632.340	0.0155402
632.418	0.0155231
632.496	0.0155042
632.574	0.0154934
632.652	0.0156527
632.730	0.0155478
632.808	0.0156398
632.886	0.0154990
632.965	0.0154175
633.043	0.0156030
633.121	0.0153858
633.199	0.0155050
633.277	0.0154686
633.355	0.0154266
633.433	0.0153430
633.511	0.0155229
633.590	0.0155581
633.668	0.0154723
633.746	0.0154864
633.824	0.0154845
633.902	0.0154913
633.980	0.0153566
634.058	0.0155133
634.136	0.0154278
634.215	0.0155502
634.293	0.0155659
634.371	0.0153280
634.449	0.0154147
634.527	0.0154370
634.605	0.0153506
634.683	0.0153815
634.761	0.0155374
634.840	0.0153938
634.918	0.0155643
634.996	0.0154914
635.074	0.0153835
635.152	0.0155708
635.230	0.0155492
635.308	0.0155032
635.386	0.0154833
635.465	0.0156470
635.543	0.0153820
635.621	0.0155202
635.699	0.0156883
635.777	0.0154341
635.855	0.0154562
635.933	0.0153966
636.011	0.0154992
636.090	0.0154445
636.168	0.0154950
636.246	0.0154529
636.324	0.0154974
636.402	0.0156186
636.480	0.0155843
636.558	0.0154668
636.636	0.0154855
636.715	0.0155265
636.793	0.0154946
636.871	0.0155444
636.949	0.0155522
637.027	0.0155215
637.105	0.0154425
637.183	0.0153609
637.261	0.0155754
637.340	0.0154683
637.418	0.0154913
637.496	0.0154707
637.574	0.0154192
637.652	0.0154767
637.730	0.0154129
637.808	0.0154328
637.886	0.0155378
637.965	0.0155237
638.043	0.0154823
638.121	0.0155141
638.199	0.0155894
638.277	0.0155669
638.355	0.0156387
638.433	0.0155428
638.511	0.0156005
638.590	0.0154308
638.668	0.0154704
638.746	0.0155425
638.824	0.0156679
638.902	0.0156460
638.980	0.0156036
639.058	0.0155047
639.136	0.0156682
639.215	0.0155718
639.293	0.0154871
639.371	0.0155740
639.449	0.0155493
639.527	0.0154762
639.605	0.0155811
639.683	0.0154441
639.761	0.0154964
639.840	0.0155260
639.918	0.0155704
639.996	0.0155465
640.074	0.0155684
640.152	0.0154605
640.230	0.0155306
640.308	0.0155994
640.386	0.0155827
640.465	0.0155781
640.543	0.0155823
640.621	0.0155157
640.699	0.0154471
640.777	0.0153923
640.855	0.0155242
640.933	0.0154521
641.011	0.0155427
641.090	0.0155885
641.168	0.0154267
641.246	0.0154687
641.324	0.0155282
641.402	0.0155262
641.480	0.0155776
641.558	0.0153976
641.636	0.0154591
641.715	0.0154196
641.793	0.0154171
641.871	0.0155866
641.949	0.0156503
642.027	0.0155316
642.105	0.0155986
642.183	0.0154668
642.261	0.0154234
642.340	0.0154245
642.418	0.0155337
642.496	0.0156535
642.574	0.0155785
642.652	0.0154309
642.730	0.0154735
642.808	0.0156285
642.886	0.0156094
642.965	0.0154402
643.043	0.0155600
643.121	0.0154213
643.199	0.0156271
643.277	0.0155093
643.355	0.0154556
643.433	0.0154620
643.511	0.0155695
643.590	0.0156016
643.668	0.0155545
643.746	0.0154562
643.824	0.0155205
643.902	0.0154790
643.980	0.0155609
644.058	0.0155170
644.136	0.0157078
644.215	0.0155208
644.293	0.0154437
644.371	0.0155008
644.449	0.0154433
644.527	0.0154021
644.605	0.0154649
644.683	0.0155508
644.761	0.0155793
644.840	0.0156117
644.918	0.0155587
644.996	0.0154552
645.074	0.0155429
645.152	0.0156586
645.230	0.0154689
645.308	0.0155865
645.386	0.0156236
645.465	0.0154654
645.543	0.0156090
645.621	0.0154358
645.699	0.0154819
645.777	0.0155475
645.855	0.0155443
645.933	0.0155746
646.011	0.0156800
646.090	0.0155467
646.168	0.0154958
646.246	0.0154977
646.324	0.0156337
646.402	0.0154768
646.480	0.0155510
646.558	0.0155484
646.636	0.0154624
646.715	0.0154046
646.793	0.0154049
646.871	0.0154984
646.949	0.0154604
647.027	0.0155602
647.105	0.0153972
647.183	0.0154445
647.261	0.0152860
647.340	0.0155531
647.418	0.0155743
647.496	0.0154944
647.574	0.0155929
647.652	0.0154196
647.730	0.0156139
647.808	0.0155542
647.886	0.0155216
647.965	0.0155426
648.043	0.0154335
648.121	0.0153989
648.199	0.0155391
648.277	0.0155455
648.355	0.0155285
648.433	0.0155214
648.511	0.0154790
648.590	0.0154627
648.668	0.0154716
648.746	0.0155067
648.824	0.0156112
648.902	0.0154697
648.980	0.0154400
649.058	0.0155074
649.136	0.0155695
649.215	0.0154680
649.293	0.0154192
649.371	0.0155437
649.449	0.0153919
649.527	0.0154199
649.605	0.0153860
649.683	0.0155370
649.761	0.0153647
649.840	0.0154694
649.918	0.0154659
649.996	0.0154507
650.074	0.0153482
650.152	0.0154831
650.230	0.0155219
650.308	0.0155816
650.386	0.0154542
650.465	0.0154793
650.543	0.0154550
650.621	0.0154308
650.699	0.0154926
650.777	0.0155406
650.855	0.0155357
650.933	0.0154365
651.011	0.0154842
651.090	0.0153837
651.168	0.0154392
651.246	0.0153728
651.324	0.0154888
651.402	0.0155711
651.480	0.0153676
651.558	0.0154308
651.636	0.0154451
651.715	0.0153975
651.793	0.0155853
651.871	0.0155341
651.949	0.0154980
652.027	0.0154104
652.105	0.0154145
652.183	0.0153580
652.261	0.0154865
652.340	0.0155727
652.418	0.0155196
652.496	0.0154958
652.574	0.0155381
652.652	0.0153915
652.730	0.0154226
652.808	0.0154543
652.886	0.0154016
652.965	0.0154757
653.043	0.0154758
653.121	0.0154840
653.199	0.0155414
653.277	0.0154737
653.355	0.0154900
653.433	0.0153800
653.511	0.0154465
653.590	0.0155815
653.668	0.0155716
653.746	0.0155313
653.824	0.0154638
653.902	0.0154803
653.980	0.0155662
654.058	0.0155443
654.136	0.0156120
654.215	0.0154296
654.293	0.0154938
654.371	0.0156088
654.449	0.0155903
654.527	0.0154586
654.605	0.0155100
654.683	0.0155337
654.761	0.0154681
654.840	0.0155195
654.918	0.0156844
654.996	0.0155618
655.074	0.0153117
655.152	0.0155132
655.230	0.0156406
655.308	0.0153210
655.386	0.0155045
655.465	0.0154731
655.543	0.0154201
655.621	0.0156087
655.699	0.0154818
655.777	0.0154080
655.855	0.0156187
655.933	0.0154354
656.011	0.0155930
656.090	0.0155972
656.168	0.0154995
656.246	0.0155359
656.324	0.0155867
656.402	0.0154536
656.480	0.0153696
656.558	0.0154031
656.636	0.0154462
656.715	0.0154987
656.793	0.0153095
656.871	0.0154351
656.949	0.0154485
657.027	0.0154633
657.105	0.0154480
657.183	0.0155260
657.261	0.0155343
657.340	0.0155331
657.418	0.0155750
657.496	0.0155792
657.574	0.0155569
657.652	0.0154104
657.730	0.0155512
657.808	0.0154347
657.886	0.0153915
657.965	0.0153716
658.043	0.0153899
658.121	0.0155314
658.199	0.0155751
658.277	0.0155049
658.355	0.0154477
658.433	0.0155042
658.511	0.0154121
658.590	0.0154402
658.668	0.0155030
658.746	0.0153525
658.824	0.0153790
658.902	0.0153895
658.980	0.0154710
659.058	0.0154469
659.136	0.0155320
659.215	0.0155334
659.293	0.0154520
659.371	0.0153551
659.449	0.0154384
659.527	0.0155132
659.605	0.0154212
659.683	0.0155096
659.761	0.0154005
659.840	0.0154504
659.918	0.0154813
659.996	0.0157452
660.074	0.0154014
660.152	0.0155825
660.230	0.0155205
660.308	0.0154872
660.386	0.0155701
660.465	0.0154951
660.543	0.0156155
660.621	0.0155383
660.699	0.0154387
660.777	0.0154778
660.855	0.0155093
660.933	0.0155647
661.011	0.0155138
661.090	0.0155553
661.168	0.0155574
661.246	0.0154607
661.324	0.0155848
661.402	0.0154423
661.480	0.0155437
661.558	0.0155253
661.636	0.0155150
661.715	0.0156028
661.793	0.0153401
661.871	0.0155006
661.949	0.0155586
662.027	0.0155043
662.105	0.0156029
662.183	0.0154411
662.261	0.0154820
662.340	0.0155943
662.418	0.0156042
662.496	0.0154201
662.574	0.0153414
662.652	0.0154564
662.730	0.0155408
662.808	0.0156766
662.886	0.0154356
662.965	0.0153933
663.043	0.0155237
663.121	0.0153999
663.199	0.0152969
663.277	0.0155831
663.355	0.0155054
663.433	0.0154504
663.511	0.0155406
663.590	0.0153927
663.668	0.0155568
663.746	0.0155746
663.824	0.0154890
663.902	0.0155650
663.980	0.0154562
664.058	0.0154099
664.136	0.0155489
664.215	0.0155203
664.293	0.0154122
664.371	0.0155233
664.449	0.0155331
664.527	0.0153862
664.605	0.0154424
664.683	0.0155054
664.761	0.0155530
664.840	0.0155035
664.918	0.0156158
664.996	0.0154758
665.074	0.0154317
665.152	0.0154761
665.230	0.0155468
665.308	0.0154314
665.386	0.0154732
665.465	0.0154215
665.543	0.0154066
665.621	0.0153687
665.699	0.0154520
665.777	0.0155635
665.855	0.0154644
665.933	0.0155453
666.011	0.0153384
666.090	0.0154587
666.168	0.0155106
666.246	0.0154659
666.324	0.0155100
666.402	0.0155749
666.480	0.0155141
666.558	0.0155322
666.636	0.0154676
666.715	0.0156036
666.793	0.0156445
666.871	0.0156087
666.949	0.0154158
667.027	0.0154331
667.105	0.0154390
667.183	0.0155692
667.261	0.0154916
667.340	0.0155389
667.418	0.0153914
667.496	0.0153236
667.574	0.0155910
667.652	0.0154653
667.730	0.0155460
667.808	0.0155664
667.886	0.0156322
667.965	0.0156059
668.043	0.0155446
668.121	0.0155283
668.199	0.0155157
668.277	0.0155128
668.355	0.0154830
668.433	0.0156081
668.511	0.0156634
668.590	0.0154924
668.668	0.0155300
668.746	0.0156017
668.824	0.0156241
668.902	0.0155339
668.980	0.0155329
669.058	0.0155866
669.136	0.0156266
669.215	0.0154884
669.293	0.0154393
669.371	0.0154499
669.449	0.0155779
669.527	0.0155511
669.605	0.0156440
669.683	0.0154300
669.761	0.0155998
669.840	0.0154071
669.918	0.0155264
669.996	0.0155072
670.074	0.0155460
670.152	0.0153312
670.230	0.0154510
670.308	0.0154733
670.386	0.0154745
670.465	0.0153887
670.543	0.0154468
670.621	0.0153799
670.699	0.0156052
670.777	0.0154713
670.855	0.0154848
670.933	0.0155164
671.011	0.0155591
671.090	0.0154102
671.168	0.0154089
671.246	0.0152606
671.324	0.0153943
671.402	0.0154585
671.480	0.0153696
671.558	0.0153387
671.636	0.0154385
671.715	0.0153647
671.793	0.0154175
671.871	0.0155282
671.949	0.0154442
672.027	0.0156429
672.105	0.0155851
672.183	0.0154492
672.261	0.0155317
672.340	0.0154790
672.418	0.0156673
672.496	0.0154368
672.574	0.0155347
672.652	0.0155007
672.730	0.0154819
672.808	0.0154323
672.886	0.0154314
672.965	0.0153729
673.043	0.0154020
673.121	0.0155461
673.199	0.0155138
673.277	0.0155776
673.355	0.0154969
673.433	0.0154028
673.511	0.0156129
673.590	0.0156777
673.668	0.0154361
673.746	0.0153838
673.824	0.0155864
673.902	0.0155025
673.980	0.0154927
674.058	0.0155045
674.136	0.0153512
674.215	0.0154662
674.293	0.0154748
674.371	0.0154819
674.449	0.0154508
674.527	0.0155352
674.605	0.0154827
674.683	0.0154439
674.761	0.0153754
674.840	0.0155873
674.918	0.0154945
674.996	0.0154819
675.074	0.0154427
675.152	0.0154635
675.230	0.0154185
675.308	0.0154713
675.386	0.0153210
675.465	0.0153505
675.543	0.0154633
675.621	0.0154637
675.699	0.0153457
675.777	0.0154485
675.855	0.0154131
675.933	0.0153497
676.011	0.0154166
676.090	0.0154540
676.168	0.0154567
676.246	0.0154482
676.324	0.0155674
676.402	0.0157026
676.480	0.0155415
676.558	0.0153870
676.636	0.0155436
676.715	0.0155151
676.793	0.0155872
676.871	0.0154617
676.949	0.0155212
677.027	0.0154710
677.105	0.0154347
677.183	0.0153410
677.261	0.0154712
677.340	0.0155095
677.418	0.0154995
677.496	0.0155131
677.574	0.0155253
677.652	0.0155202
677.730	0.0156144
677.808	0.0155669
677.886	0.0153902
677.965	0.0154398
678.043	0.0155703
678.121	0.0155345
678.199	0.0155746
678.277	0.0154427
678.355	0.0153905
678.433	0.0156706
678.511	0.0154491
678.590	0.0155750
678.668	0.0155556
678.746	0.0154175
678.824	0.0155112
678.902	0.0155345
678.980	0.0154995
679.058	0.0155677
679.136	0.0155485
679.215	0.0154494
679.293	0.0155623
679.371	0.0156068
679.449	0.0155251
679.527	0.0154893
679.605	0.0153547
679.683	0.0153458
679.761	0.0155143
679.840	0.0154025
679.918	0.0154253
679.996	0.0154775
680.074	0.0153145
680.152	0.0153178
680.230	0.0155268
680.308	0.0154888
680.386	0.0156533
680.465	0.0155272
680.543	0.0155376
680.621	0.0154916
680.699	0.0156112
680.777	0.0156187
680.855	0.0156443
680.933	0.0156178
681.011	0.0153992
681.090	0.0153220
681.168	0.0154773
681.246	0.0153022
681.324	0.0153851
681.402	0.0154623
681.480	0.0153355
681.558	0.0153934
681.636	0.0154301
681.715	0.0154945
681.793	0.0155047
681.871	0.0154984
681.949	0.0154440
682.027	0.0154658
682.105	0.0155267
682.183	0.0155242
682.261	0.0155187
682.340	0.0154957
682.418	0.0155128
682.496	0.0155923
682.574	0.0155209
682.652	0.0154488
682.730	0.0155224
682.808	0.0154441
682.886	0.0153875
682.965	0.0155792
683.043	0.0153786
683.121	0.0153924
683.199	0.0155506
683.277	0.0154867
683.355	0.0155273
683.433	0.0154433
683.511	0.0155393
683.590	0.0155476
683.668	0.0154140
683.746	0.0155965
683.824	0.0154415
683.902	0.0153006
683.980	0.0155478
684.058	0.0154285
684.136	0.0155825
684.215	0.0154301
684.293	0.0155069
684.371	0.0155353
684.449	0.0155960
684.527	0.0155598
684.605	0.0154573
684.683	0.0155383
684.761	0.0154546
684.840	0.0154308
684.918	0.0154301
684.996	0.0153614
685.074	0.0154487
685.152	0.0154088
685.230	0.0154684
685.308	0.0154409
685.386	0.0153495
685.465	0.0154932
685.543	0.0154359
685.621	0.0154982
685.699	0.0154919
685.777	0.0155450
685.855	0.0155165
685.933	0.0155855
686.011	0.0155363
686.090	0.0155244
686.168	0.0153939
686.246	0.0154003
686.324	0.0154564
686.402	0.0154826
686.480	0.0154154
686.558	0.0153752
686.636	0.0153822
686.715	0.0153417
686.793	0.0154488
686.871	0.0154618
686.949	0.0154842
687.027	0.0155721
687.105	0.0154371
687.183	0.0155950
687.261	0.0154705
687.340	0.0153633
687.418	0.0153181
687.496	0.0154590
687.574	0.0153410
687.652	0.0153831
687.730	0.0153559
687.808	0.0154351
687.886	0.0152666
687.965	0.0153550
688.043	0.0154565
688.121	0.0155042
688.199	0.0154819
688.277	0.0154594
688.355	0.0155220
688.433	0.0154643
688.511	0.0155402
688.590	0.0154781
688.668	0.0156252
688.746	0.0155752
688.824	0.0155154
688.902	0.0154527
688.980	0.0155639
689.058	0.0153815
689.136	0.0154818
689.215	0.0155300
689.293	0.0154604
689.371	0.0153426
689.449	0.0153590
689.527	0.0155012
689.605	0.0153796
689.683	0.0153844
689.761	0.0153885
689.840	0.0154285
689.918	0.0154958
689.996	0.0154568
690.074	0.0154646
690.152	0.0154343
690.230	0.0154958
690.308	0.0154974
690.386	0.0154565
690.465	0.0154363
690.543	0.0154164
690.621	0.0155814
690.699	0.0155546
690.777	0.0154855
690.855	0.0154164
690.933	0.0153892
691.011	0.0155443
691.090	0.0155128
691.168	0.0155477
691.246	0.0154884
691.324	0.0153679
691.402	0.0154951
691.480	0.0152890
691.558	0.0155248
691.636	0.0154799
691.715	0.0154887
691.793	0.0154226
691.871	0.0155553
691.949	0.0153628
692.027	0.0153140
692.105	0.0154485
692.183	0.0153679
692.261	0.0154316
692.340	0.0154755
692.418	0.0156336
692.496	0.0154198
692.574	0.0153172
692.652	0.0155970
692.730	0.0153905
692.808	0.0155206
692.886	0.0155446
692.965	0.0155749
693.043	0.0154830
693.121	0.0154904
693.199	0.0154215
693.277	0.0154558
693.355	0.0154303
693.433	0.0152464
693.511	0.0152679
693.590	0.0154974
693.668	0.0154330
693.746	0.0154259
693.824	0.0154373
693.902	0.0154705
693.980	0.0156364
694.058	0.0155360
694.136	0.0155051
694.215	0.0154973
694.293	0.0155719
694.371	0.0156659
694.449	0.0155799
694.527	0.0155770
694.605	0.0155174
694.683	0.0155877
694.761	0.0155490
694.840	0.0155437
694.918	0.0155536
694.996	0.0154595
695.074	0.0153936
695.152	0.0153478
695.230	0.0155643
695.308	0.0155695
695.386	0.0156086
695.465	0.0155906
695.543	0.0156841
695.621	0.0154841
695.699	0.0154109
695.777	0.0154839
695.855	0.0154341
695.933	0.0154376
696.011	0.0155215
696.090	0.0155196
696.168	0.0155183
696.246	0.0153937
696.324	0.0154651
696.402	0.0153929
696.480	0.0154377
696.558	0.0154015
696.636	0.0154243
696.715	0.0154807
696.793	0.0155177
696.871	0.0154944
696.949	0.0154303
697.027	0.0155404
697.105	0.0154453
697.183	0.0154013
697.261	0.0154101
697.340	0.0155470
697.418	0.0154521
697.496	0.0155697
697.574	0.0154946
697.652	0.0153493
697.730	0.0153921
697.808	0.0154005
697.886	0.0154375
697.965	0.0153970
698.043	0.0154214
698.121	0.0155830
698.199	0.0154124
698.277	0.0153796
698.355	0.0154732
698.433	0.0155242
698.511	0.0155125
698.590	0.0155190
698.668	0.0155044
698.746	0.0155373
698.824	0.0153791
698.902	0.0154284
698.980	0.0154616
699.058	0.0157305
699.136	0.0154432
699.215	0.0155183
699.293	0.0154919
699.371	0.0154536
699.449	0.0153239
699.527	0.0155433
699.605	0.0154747
699.683	0.0154676
699.761	0.0156510
699.840	0.0153934
699.918	0.0153085
699.996	0.0153938
700.074	0.0154443
700.152	0.0154344
700.230	0.0154698
700.308	0.0154405
700.386	0.0153255
700.465	0.0154849
700.543	0.0153979
700.621	0.0155470
700.699	0.0155114
700.777	0.0154617
700.855	0.0156817
700.933	0.0155489
701.011	0.0154985
701.090	0.0154261
701.168	0.0156163
701.246	0.0155893
701.324	0.0155074
701.402	0.0152981
701.480	0.0154572
701.558	0.0154620
701.636	0.0153977
701.715	0.0154462
701.793	0.0155231
701.871	0.0153203
701.949	0.0154136
702.027	0.0153178
702.105	0.0154820
702.183	0.0154371
702.261	0.0153864
702.340	0.0154416
702.418	0.0154597
702.496	0.0154182
702.574	0.0154046
702.652	0.0155062
702.730	0.0154839
702.808	0.0155038
702.886	0.0154831
702.965	0.0153114
703.043	0.0154619
703.121	0.0153547
703.199	0.0152754
703.277	0.0154958
703.355	0.0153553
703.433	0.0154104
703.511	0.0154137
703.590	0.0154267
703.668	0.0154916
703.746	0.0155829
703.824	0.0155266
703.902	0.0154262
703.980	0.0154472
704.058	0.0154248
704.136	0.0155631
704.215	0.0156066
704.293	0.0154604
704.371	0.0156978
704.449	0.0155047
704.527	0.0155184
704.605	0.0154855
704.683	0.0155798
704.761	0.0155125
704.840	0.0155957
704.918	0.0156396
704.996	0.0155380
705.074	0.0154462
705.152	0.0156808
705.230	0.0155540
705.308	0.0156512
705.386	0.0156462
705.465	0.0156998
705.543	0.0157198
705.621	0.0155409
705.699	0.0155795
705.777	0.0155299
705.855	0.0154779
705.933	0.0155650
706.011	0.0155034
706.090	0.0154822
706.168	0.0154660
706.246	0.0154802
706.324	0.0154281
706.402	0.0151995
706.480	0.0154449
706.558	0.0154646
706.636	0.0153104
706.715	0.0151756
706.793	0.0151450
706.871	0.0153403
706.949	0.0153043
707.027	0.0153180
707.105	0.0153009
707.183	0.0154583
707.261	0.0153665
707.340	0.0152588
707.418	0.0153388
707.496	0.0152289
707.574	0.0153099
707.652	0.0154507
707.730	0.0152920
707.808	0.0153121
707.886	0.0154774
707.965	0.0154184
708.043	0.0153788
708.121	0.0153870
708.199	0.0154186
708.277	0.0156201
708.355	0.0153753
708.433	0.0153822
708.511	0.0154520
708.590	0.0153761
708.668	0.0155170
708.746	0.0154553
708.824	0.0154575
708.902	0.0154839
708.980	0.0154878
709.058	0.0156116
709.136	0.0156670
709.215	0.0155820
709.293	0.0156453
709.371	0.0156281
709.449	0.0158276
709.527	0.0157387
709.605	0.0157998
709.683	0.0159855
709.761	0.0158302
709.840	0.0157979
709.918	0.0157988
709.996	0.0157150
710.074	0.0157249
710.152	0.0156945
710.230	0.0156270
710.308	0.0156490
710.386	0.0154899
710.465	0.0156377
710.543	0.0156331
710.621	0.0154296
710.699	0.0154888
710.777	0.0153247
710.855	0.0153379
710.933	0.0154238
711.011	0.0152126
711.090	0.0151453
711.168	0.0153115
711.246	0.0152766
711.324	0.0153449
711.402	0.0152943
711.480	0.0153336
711.558	0.0152669
711.636	0.0153112
711.715	0.0154513
711.793	0.0154458
711.871	0.0154898
711.949	0.0153762
712.027	0.0153874
712.105	0.0155965
712.183	0.0156474
712.261	0.0155813
712.340	0.0155036
712.418	0.0156933
712.496	0.0154599
712.574	0.0156966
712.652	0.0156261
712.730	0.0156743
712.808	0.0155015
712.886	0.0155090
712.965	0.0155968
713.043	0.0157018
713.121	0.0156790
713.199	0.0155684
713.277	0.0155328
713.355	0.0157001
713.433	0.0155814
713.511	0.0154620
713.590	0.0156357
713.668	0.0156527
713.746	0.0154687
713.824	0.0154633
713.902	0.0153764
713.980	0.0156155
714.058	0.0155004
714.136	0.0154866
714.215	0.0155676
714.293	0.0154028
714.371	0.0153304
714.449	0.0154515
714.527	0.0155087
714.605	0.0154099
714.683	0.0155042
714.761	0.0155106
714.840	0.0153799
714.918	0.0154314
714.996	0.0153177
715.074	0.0152390
715.152	0.0154517
715.230	0.0154258
715.308	0.0153597
715.386	0.0153939
715.465	0.0153230
715.543	0.0154759
715.621	0.0154256
715.699	0.0154723
715.777	0.0153714
715.855	0.0154195
715.933	0.0155637
716.011	0.0157152
716.090	0.0155499
716.168	0.0155782
716.246	0.0153804
716.324	0.0154799
716.402	0.0155293
716.480	0.0158411
716.558	0.0155505
716.636	0.0157141
716.715	0.0156948
716.793	0.0156128
716.871	0.0155567
716.949	0.0154936
717.027	0.0155508
717.105	0.0155058
717.183	0.0155937
717.261	0.0154712
717.340	0.0155833
717.418	0.0154353
717.496	0.0153561
717.574	0.0154933
717.652	0.0154209
717.730	0.0152222
717.808	0.0154468
717.886	0.0153630
717.965	0.0153405
718.043	0.0153584
718.121	0.0154164
718.199	0.0153836
718.277	0.0154839
718.355	0.0155942
718.433	0.0154633
718.511	0.0154779
718.590	0.0154199
718.668	0.0155482
718.746	0.0156443
718.824	0.0155368
718.902	0.0155757
718.980	0.0156641
719.058	0.0156958
719.136	0.0156701
719.215	0.0155776
719.293	0.0156244
719.371	0.0156761
719.449	0.0155653
719.527	0.0157858
719.605	0.0157035
719.683	0.0156482
719.761	0.0156706
719.840	0.0158238
719.918	0.0156888
719.996	0.0155824
720.074	0.0156815
720.152	0.0155795
720.230	0.0154794
720.308	0.0154773
720.386	0.0154224
720.465	0.0154612
720.543	0.0153226
720.621	0.0152213
720.699	0.0153045
720.777	0.0152605
720.855	0.0153010
720.933	0.0151363
721.011	0.0153821
721.090	0.0150041
721.168	0.0151892
721.246	0.0153076
721.324	0.0152043
721.402	0.0153347
721.480	0.0153548
721.558	0.0153429
721.636	0.0152707
721.715	0.0154220
721.793	0.0154854
721.871	0.0154270
721.949	0.0155082
722.027	0.0154726
722.105	0.0155210
722.183	0.0156688
722.261	0.0155831
722.340	0.0155740
722.418	0.0155993
722.496	0.0155464
722.574	0.0156761
722.652	0.0155986
722.730	0.0156685
722.808	0.0156149
722.886	0.0156953
722.965	0.0155274
723.043	0.0155916
723.121	0.0155437
723.199	0.0154302
723.277	0.0154957
723.355	0.0154527
723.433	0.0153007
723.511	0.0153049
723.590	0.0154808
723.668	0.0153391
723.746	0.0153843
723.824	0.0154427
723.902	0.0153041
723.980	0.0152576
724.058	0.0151742
724.136	0.0153152
724.215	0.0153531
724.293	0.0153955
724.371	0.0154381
724.449	0.0154123
724.527	0.0155736
724.605	0.0155842
724.683	0.0155174
724.761	0.0155780
724.840	0.0156897
724.918	0.0157714
724.996	0.0159398
725.074	0.0159232
725.152	0.0159315
725.230	0.0157751
725.308	0.0158131
725.386	0.0159698
725.465	0.0159155
725.543	0.0159243
725.621	0.0158146
725.699	0.0157873
725.777	0.0157885
725.855	0.0156158
725.933	0.0155064
726.011	0.0155692
726.090	0.0154926
726.168	0.0154996
726.246	0.0153764
726.324	0.0152470
726.402	0.0152811
726.480	0.0152526
726.558	0.0151907
726.636	0.0152736
726.715	0.0152191
726.793	0.0153511
726.871	0.0153012
726.949	0.0152988
727.027	0.0152778
727.105	0.0153394
727.183	0.0153585
727.261	0.0153606
727.340	0.0154472
727.418	0.0155453
727.496	0.0154811
727.574	0.0154361
727.652	0.0156242
727.730	0.0156248
727.808	0.0155946
727.886	0.0156213
727.965	0.0156762
728.043	0.0155036
728.121	0.0156476
728.199	0.0156487
728.277	0.0154756
728.355	0.0155508
728.433	0.0154083
728.511	0.0153691
728.590	0.0154083
728.668	0.0151407
728.746	0.0151968
728.824	0.0151307
728.902	0.0150081
728.980	0.0150422
729.058	0.0151155
729.136	0.0149351
729.215	0.0148233
729.293	0.0150382
729.371	0.0150012
729.449	0.0150461
729.527	0.0150035
729.605	0.0152114
729.683	0.0153127
729.761	0.0151900
729.840	0.0154411
729.918	0.0154391
729.996	0.0155064
730.074	0.0156084
730.152	0.0156360
730.230	0.0155513
730.308	0.0156662
730.386	0.0159082
730.465	0.0157725
730.543	0.0158013
730.621	0.0158501
730.699	0.0158439
730.777	0.0158495
730.855	0.0158797
730.933	0.0157994
731.011	0.0157767
731.090	0.0158112
731.168	0.0158148
731.246	0.0158054
731.324	0.0157803
731.402	0.0157017
731.480	0.0156657
731.558	0.0157277
731.636	0.0157488
731.715	0.0156948
731.793	0.0157246
731.871	0.0156870
731.949	0.0155454
732.027	0.0154207
732.105	0.0154343
732.183	0.0154349
732.261	0.0155054
732.340	0.0152311
732.418	0.0151509
732.496	0.0150652
732.574	0.0151296
732.652	0.0150519
732.730	0.0151198
732.808	0.0151175
732.886	0.0151125
732.965	0.0150282
733.043	0.0150946
733.121	0.0152137
733.199	0.0154555
733.277	0.0152662
733.355	0.0153595
733.433	0.0156448
733.511	0.0156495
733.590	0.0156026
733.668	0.0156763
733.746	0.0157185
733.824	0.0158472
733.902	0.0158911
733.980	0.0158820
734.058	0.0159605
734.136	0.0159916
734.215	0.0159736
734.293	0.0157980
734.371	0.0157847
734.449	0.0157516
734.527	0.0156323
734.605	0.0155414
734.683	0.0153016
734.761	0.0152485
734.840	0.0151915
734.918	0.0148114
734.996	0.0150472
735.074	0.0151145
735.152	0.0149519
735.230	0.0149767
735.308	0.0151169
735.386	0.0150386
735.465	0.0150292
735.543	0.0152227
735.621	0.0154047
735.699	0.0153615
735.777	0.0154904
735.855	0.0155496
735.933	0.0158055
736.011	0.0157846
736.090	0.0159215
736.168	0.0159480
736.246	0.0158170
736.324	0.0159541
736.402	0.0159045
736.480	0.0160286
736.558	0.0158555
736.636	0.0157008
736.715	0.0156815
736.793	0.0156005
736.871	0.0155002
736.949	0.0154654
737.027	0.0153204
737.105	0.0153225
737.183	0.0151865
737.261	0.0150342
737.340	0.0150584
737.418	0.0150448
737.496	0.0151194
737.574	0.0151266
737.652	0.0149886
737.730	0.0150375
737.808	0.0152042
737.886	0.0152704
737.965	0.0150563
738.043	0.0150462
738.121	0.0153304
738.199	0.0153229
738.277	0.0154492
738.355	0.0155445
738.433	0.0155023
738.511	0.0155843
738.590	0.0155688
738.668	0.0157046
738.746	0.0156972
738.824	0.0156606
738.902	0.0156649
738.980	0.0157051
739.058	0.0157482
739.136	0.0156336
739.215	0.0154279
739.293	0.0153803
739.371	0.0154810
739.449	0.0155407
739.527	0.0153127
739.605	0.0153802
739.683	0.0154672
739.761	0.0153069
739.840	0.0153348
739.918	0.0154381
739.996	0.0153855
740.074	0.0154496
740.152	0.0156198
740.230	0.0154171
740.308	0.0156586
740.386	0.0157513
740.465	0.0157362
740.543	0.0159043
740.621	0.0157797
740.699	0.0158997
740.777	0.0157967
740.855	0.0158208
740.933	0.0159267
741.011	0.0157537
741.090	0.0158250
741.168	0.0157376
741.246	0.0156412
741.324	0.0156274
741.402	0.0154366
741.480	0.0155006
741.558	0.0154977
741.636	0.0154073
741.715	0.0155801
741.793	0.0153536
741.871	0.0153438
741.949	0.0154887
742.027	0.0153890
742.105	0.0154140
742.183	0.0154186
742.261	0.0153542
742.340	0.0154030
742.418	0.0154154
742.496	0.0154977
742.574	0.0154221
742.652	0.0154234
742.730	0.0155130
742.808	0.0155701
742.886	0.0154330
742.965	0.0155775
743.043	0.0156276
743.121	0.0156762
743.199	0.0156078
743.277	0.0155697
743.355	0.0155781
743.433	0.0155431
743.511	0.0156371
743.590	0.0156749
743.668	0.0156554
743.746	0.0157294
743.824	0.0157230
743.902	0.0157472
743.980	0.0156620
744.058	0.0157467
744.136	0.0156961
744.215	0.0156307
744.293	0.0155306
744.371	0.0153764
744.449	0.0154102
744.527	0.0154445
744.605	0.0151308
744.683	0.0150671
744.761	0.0150327
744.840	0.0149802
744.918	0.0148802
744.996	0.0148776
745.074	0.0149492
745.152	0.0149091
745.230	0.0148576
745.308	0.0149998
745.386	0.0150471
745.465	0.0149740
745.543	0.0150060
745.621	0.0150811
745.699	0.0152674
745.777	0.0151445
745.855	0.0153503
745.933	0.0153771
746.011	0.0154969
746.090	0.0154904
746.168	0.0155450
746.246	0.0155882
746.324	0.0156263
746.402	0.0156503
746.480	0.0156206
746.558	0.0157273
746.636	0.0156067
746.715	0.0156709
746.793	0.0157093
746.871	0.0157333
746.949	0.0156783
747.027	0.0156192
747.105	0.0156159
747.183	0.0156815
747.261	0.0157660
747.340	0.0155767
747.418	0.0156290
747.496	0.0156631
747.574	0.0158630
747.652	0.0156259
747.730	0.0156214
747.808	0.0158046
747.886	0.0158073
747.965	0.0158379
748.043	0.0158811
748.121	0.0156850
748.199	0.0157220
748.277	0.0158138
748.355	0.0157399
748.433	0.0156120
748.511	0.0157241
748.590	0.0156800
748.668	0.0157318
748.746	0.0156603
748.824	0.0155961
748.902	0.0156141
748.980	0.0157748
749.058	0.0155893
749.136	0.0155772
749.215	0.0155766
749.293	0.0157281
749.371	0.0157454
749.449	0.0155877
749.527	0.0155133
749.605	0.0153953
749.683	0.0153080
749.761	0.0154360
749.840	0.0150813
749.918	0.0151344
749.996	0.0150730
750.074	0.0149330
750.152	0.0150868
750.230	0.0150586
750.308	0.0149180
750.386	0.0151199
750.465	0.0150739
750.543	0.0148833
750.621	0.0149879
750.699	0.0150404
750.777	0.0152923
750.855	0.0152122
750.933	0.0153978
751.011	0.0154734
751.090	0.0155335
751.168	0.0157138
751.246	0.0157426
751.324	0.0157505
751.402	0.0158090
751.480	0.0158623
751.558	0.0158484
751.636	0.0157716
751.715	0.0156100
751.793	0.0156908
751.871	0.0155132
751.949	0.0153497
752.027	0.0152724
752.105	0.0152791
752.183	0.0152399
752.261	0.0150754
752.340	0.0151505
752.418	0.0151196
752.496	0.0150909
752.574	0.0149358
752.652	0.0149541
752.730	0.0149352
752.808	0.0151467
752.886	0.0150815
752.965	0.0151562
753.043	0.0153214
753.121	0.0153085
753.199	0.0153429
753.277	0.0153394
753.355	0.0154919
753.433	0.0154936
753.511	0.0154934
753.590	0.0155332
753.668	0.0155008
753.746	0.0155349
753.824	0.0157378
753.902	0.0157171
753.980	0.0155030
754.058	0.0156596
754.136	0.0158060
754.215	0.0156390
754.293	0.0157356
754.371	0.0156421
754.449	0.0156805
754.527	0.0157759
754.605	0.0158740
754.683	0.0156738
754.761	0.0156754
754.840	0.0156484
754.918	0.0156429
754.996	0.0157592
755.074	0.0156948
755.152	0.0155640
755.230	0.0155145
755.308	0.0156573
755.386	0.0154680
755.465	0.0156606
755.543	0.0155791
755.621	0.0155183
755.699	0.0154607
755.777	0.0155958
755.855	0.0156473
755.933	0.0155814
756.011	0.0156416
756.090	0.0156476
756.168	0.0157430
756.246	0.0157500
756.324	0.0156343
756.402	0.0159055
756.480	0.0156841
756.558	0.0157241
756.636	0.0157150
756.715	0.0157116
756.793	0.0157059
756.871	0.0156491
756.949	0.0155784
757.027	0.0155552
757.105	0.0155686
757.183	0.0153939
757.261	0.0154345
757.340	0.0153719
757.418	0.0154279
757.496	0.0154109
757.574	0.0153852
757.652	0.0152288
757.730	0.0152119
757.808	0.0152441
757.886	0.0151471
757.965	0.0153516
758.043	0.0152362
758.121	0.0151865
758.199	0.0152798
758.277	0.0151826
758.355	0.0151625
758.433	0.0152912
758.511	0.0154617
758.590	0.0152927
758.668	0.0155348
758.746	0.0156380
758.824	0.0155981
758.902	0.0155680
758.980	0.0156699
759.058	0.0156407
759.136	0.0156808
759.215	0.0157087
759.293	0.0156767
759.371	0.0156241
759.449	0.0156702
759.527	0.0156795
759.605	0.0156220
759.683	0.0156050
759.761	0.0155241
759.840	0.0154387
759.918	0.0153684
759.996	0.0152642
760.074	0.0151437
760.152	0.0150958
760.230	0.0151254
760.308	0.0150903
760.386	0.0149805
760.465	0.0151315
760.543	0.0150906
760.621	0.0149575
760.699	0.0149501
760.777	0.0150092
760.855	0.0151577
760.933	0.0151843
761.011	0.0152409
761.090	0.0152027
761.168	0.0152405
761.246	0.0154909
761.324	0.0155068
761.402	0.0154553
761.480	0.0154565
761.558	0.0154896
761.636	0.0155828
761.715	0.0156734
761.793	0.0156007
761.871	0.0156703
761.949	0.0158840
762.027	0.0155605
762.105	0.0156708
762.183	0.0156861
762.261	0.0157799
762.340	0.0157272
762.418	0.0155792
762.496	0.0155257
762.574	0.0154904
762.652	0.0154489
762.730	0.0156393
762.808	0.0155499
762.886	0.0154720
762.965	0.0154216
763.043	0.0155030
763.121	0.0156228
763.199	0.0154527
763.277	0.0155257
763.355	0.0154796
763.433	0.0156161
763.511	0.0155485
763.590	0.0156394
763.668	0.0156226
763.746	0.0157256
763.824	0.0157896
763.902	0.0158125
763.980	0.0156542
764.058	0.0156896
764.136	0.0159048
764.215	0.0159047
764.293	0.0159875
764.371	0.0157865
764.449	0.0159036
764.527	0.0159600
764.605	0.0158566
764.683	0.0157286
764.761	0.0156862
764.840	0.0156381
764.918	0.0156084
764.996	0.0154580
765.074	0.0155122
765.152	0.0153142
765.230	0.0152714
765.308	0.0152155
765.386	0.0152164
765.465	0.0151250
765.543	0.0152203
765.621	0.0150257
765.699	0.0149809
765.777	0.0149986
765.855	0.0148793
765.933	0.0149996
766.011	0.0151021
766.090	0.0150200
766.168	0.0150648
766.246	0.0151112
766.324	0.0152870
766.402	0.0152708
766.480	0.0152190
766.558	0.0153356
766.636	0.0153826
766.715	0.0153458
766.793	0.0154340
766.871	0.0153903
766.949	0.0153995
767.027	0.0154179
767.105	0.0154372
767.183	0.0154862
767.261	0.0154245
767.340	0.0153467
767.418	0.0154545
767.496	0.0153941
767.574	0.0152568
767.652	0.0153880
767.730	0.0155009
767.808	0.0153435
767.886	0.0153123
767.965	0.0155360
768.043	0.0154132
768.121	0.0154248
768.199	0.0153253
768.277	0.0154243
768.355	0.0154295
768.433	0.0155020
768.511	0.0155139
768.590	0.0155090
768.668	0.0154308
768.746	0.0154516
768.824	0.0153985
768.902	0.0155975
768.980	0.0156792
769.058	0.0154826
769.136	0.0154131
769.215	0.0156207
769.293	0.0155518
769.371	0.0156487
769.449	0.0155842
769.527	0.0154900
769.605	0.0155942
769.683	0.0156424
769.761	0.0154171
769.840	0.0153580
769.918	0.0155485
769.996	0.0155587
770.074	0.0155086
770.152	0.0155334
770.230	0.0154537
770.308	0.0154061
770.386	0.0155290
770.465	0.0154058
770.543	0.0154396
770.621	0.0155153
770.699	0.0154792
770.777	0.0153790
770.855	0.0154939
770.933	0.0153891
771.011	0.0155036
771.090	0.0155229
771.168	0.0155310
771.246	0.0157011
771.324	0.0156150
771.402	0.0155924
771.480	0.0157084
771.558	0.0158296
771.636	0.0156335
771.715	0.0157435
771.793	0.0157249
771.871	0.0157969
771.949	0.0159509
772.027	0.0158038
772.105	0.0158414
772.183	0.0157776
772.261	0.0158502
772.340	0.0159419
772.418	0.0159138
772.496	0.0157387
772.574	0.0157333
772.652	0.0157620
772.730	0.0155965
772.808	0.0154414
772.886	0.0156213
772.965	0.0154565
773.043	0.0154694
773.121	0.0153590
773.199	0.0153086
773.277	0.0153302
773.355	0.0152599
773.433	0.0151788
773.511	0.0150975
773.590	0.0151651
773.668	0.0151089
773.746	0.0149428
773.824	0.0150032
773.902	0.0148649
773.980	0.0150183
774.058	0.0148205
774.136	0.0149834
774.215	0.0151600
774.293	0.0150245
774.371	0.0151176
774.449	0.0152210
774.527	0.0151933
774.605	0.0154098
774.683	0.0154426
774.761	0.0154830
774.840	0.0154828
774.918	0.0157840
774.996	0.0157185
775.074	0.0157760
775.152	0.0157556
775.230	0.0157271
775.308	0.0157720
775.386	0.0157011
775.465	0.0157664
775.543	0.0157350
775.621	0.0156206
775.699	0.0156101
775.777	0.0155685
775.855	0.0155643
775.933	0.0154230
776.011	0.0154721
776.090	0.0154910
776.168	0.0155571
776.246	0.0155856
776.324	0.0154770
776.402	0.0154054
776.480	0.0156169
776.558	0.0155666
776.636	0.0154770
776.715	0.0154370
776.793	0.0155968
776.871	0.0156184
776.949	0.0156403
777.027	0.0155340
777.105	0.0155108
777.183	0.0155668
777.261	0.0155797
777.340	0.0155685
777.418	0.0155759
777.496	0.0155747
777.574	0.0154012
777.652	0.0154187
777.730	0.0154990
777.808	0.0154311
777.886	0.0154725
777.965	0.0155100
778.043	0.0154754
778.121	0.0155614
778.199	0.0153442
778.277	0.0152961
778.355	0.0153945
778.433	0.0154057
778.511	0.0153669
778.590	0.0153220
778.668	0.0153172
778.746	0.0154790
778.824	0.0155949
778.902	0.0156339
778.980	0.0155167
779.058	0.0156420
779.136	0.0155971
779.215	0.0155719
779.293	0.0157347
779.371	0.0157528
779.449	0.0156367
779.527	0.0157563
779.605	0.0158125
779.683	0.0158257
779.761	0.0158282
779.840	0.0157054
779.918	0.0157563
779.996	0.0158740
780.074	0.0157870
780.152	0.0158303
780.230	0.0156535
780.308	0.0158274
780.386	0.0159286
780.465	0.0158508
780.543	0.0156639
780.621	0.0157058
780.699	0.0155846
780.777	0.0156397
780.855	0.0156591
780.933	0.0155070
781.011	0.0154882
781.090	0.0155444
781.168	0.0153548
781.246	0.0153383
781.324	0.0152928
781.402	0.0151522
781.480	0.0150364
781.558	0.0150788
781.636	0.0149738
781.715	0.0150481
781.793	0.0148373
781.871	0.0149448
781.949	0.0148296
782.027	0.0148476
782.105	0.0148487
782.183	0.0149551
782.261	0.0150934
782.340	0.0150850
782.418	0.0151077
782.496	0.0151354
782.574	0.0152100
782.652	0.0153065
782.730	0.0154310
782.808	0.0154523
782.886	0.0154377
782.965	0.0156255
783.043	0.0156141
783.121	0.0157476
783.199	0.0157309
783.277	0.0158146
783.355	0.0157958
783.433	0.0157236
783.511	0.0157319
783.590	0.0158968
783.668	0.0159185
783.746	0.0157912
783.824	0.0157284
783.902	0.0157125
783.980	0.0157433
784.058	0.0154712
784.136	0.0154501
784.215	0.0154996
784.293	0.0155341
784.371	0.0154391
784.449	0.0153732
784.527	0.0152058
784.605	0.0153658
784.683	0.0152374
784.761	0.0151927
784.840	0.0153501
784.918	0.0153493
784.996	0.0151776
785.074	0.0153748
785.152	0.0154081
785.230	0.0155523
785.308	0.0154811
785.386	0.0155704
785.465	0.0156084
785.543	0.0156169
785.621	0.0155878
785.699	0.0156803
785.777	0.0157311
785.855	0.0157531
785.933	0.0157019
786.011	0.0156107
786.090	0.0156447
786.168	0.0155791
786.246	0.0156876
786.324	0.0155932
786.402	0.0154884
786.480	0.0154097
786.558	0.0153871
786.636	0.0154263
786.715	0.0154858
786.793	0.0152910
786.871	0.0152059
786.949	0.0153423
787.027	0.0152830
787.105	0.0151723
787.183	0.0152930
787.261	0.0152420
787.340	0.0152810
787.418	0.0153255
787.496	0.0154189
787.574	0.0155576
787.652	0.0155264
787.730	0.0155953
787.808	0.0156445
787.886	0.0156687
787.965	0.0157567
788.043	0.0158811
788.121	0.0157217
788.199	0.0158566
788.277	0.0157362
788.355	0.0160015
788.433	0.0158278
788.511	0.0157566
788.590	0.0156560
788.668	0.0157470
788.746	0.0156785
788.824	0.0155564
788.902	0.0154529
788.980	0.0153926
789.058	0.0153138
789.136	0.0152468
789.215	0.0152980
789.293	0.0150240
789.371	0.0151041
789.449	0.0150150
789.527	0.0149651
789.605	0.0148594
789.683	0.0148640
789.761	0.0149037
789.840	0.0148075
789.918	0.0149814
789.996	0.0149753
790.074	0.0150175
790.152	0.0151396
790.230	0.0152017
790.308	0.0152715
790.386	0.0153094
790.465	0.0154507
790.543	0.0154626
790.621	0.0155912
790.699	0.0155331
790.777	0.0156704
790.855	0.0158890
790.933	0.0157563
791.011	0.0157776
791.090	0.0159364
791.168	0.0157398
791.246	0.0157289
791.324	0.0158489
791.402	0.0157389
791.480	0.0157442
791.558	0.0157509
791.636	0.0156668
791.715	0.0155875
791.793	0.0155333
791.871	0.0154090
791.949	0.0155151
792.027	0.0153600
792.105	0.0154212
792.183	0.0154025
792.261	0.0154118
792.340	0.0150817
792.418	0.0151411
792.496	0.0153214
792.574	0.0152477
792.652	0.0153449
792.730	0.0152188
792.808	0.0153558
792.886	0.0154011
792.965	0.0153826
793.043	0.0156046
793.121	0.0154897
793.199	0.0156490
793.277	0.0156259
793.355	0.0156794
793.433	0.0155833
793.511	0.0157822
793.590	0.0156997
793.668	0.0157938
793.746	0.0157803
793.824	0.0157703
793.902	0.0156781
793.980	0.0157413
794.058	0.0157146
794.136	0.0156158
794.215	0.0157931
794.293	0.0155596
794.371	0.0156942
794.449	0.0156190
794.527	0.0154718
794.605	0.0153333
794.683	0.0153963
794.761	0.0154509
794.840	0.0155165
794.918	0.0152982
794.996	0.0151923
795.074	0.0154176
795.152	0.0152308
795.230	0.0152155
795.308	0.0152629
795.386	0.0153851
795.465	0.0153351
795.543	0.0152421
795.621	0.0153294
795.699	0.0154319
795.777	0.0155013
795.855	0.0154291
795.933	0.0155831
796.011	0.0155978
796.090	0.0156722
796.168	0.0158593
796.246	0.0158313
796.324	0.0157372
796.402	0.0157282
796.480	0.0159800
796.558	0.0158792
796.636	0.0157862
796.715	0.0157587
796.793	0.0157396
796.871	0.0156736
796.949	0.0156693
797.027	0.0155247
797.105	0.0155576
797.183	0.0152896
797.261	0.0154411
797.340	0.0153708
797.418	0.0153327
797.496	0.0151229
797.574	0.0151976
797.652	0.0150691
797.730	0.0151421
797.808	0.0151346
797.886	0.0150020
797.965	0.0151240
798.043	0.0152116
798.121	0.0152848
798.199	0.0153004
798.277	0.0154204
798.355	0.0154702
798.433	0.0155807
798.511	0.0155974
798.590	0.0155943
798.668	0.0156894
798.746	0.0157598
798.824	0.0156873
798.902	0.0157407
798.980	0.0157057
799.058	0.0156483
799.136	0.0157231
799.215	0.0156843
799.293	0.0155451
799.371	0.0155393
799.449	0.0155432
799.527	0.0154765
799.605	0.0153469
799.683	0.0155074
799.761	0.0153239
799.840	0.0153529
799.918	0.0153246
799.996	0.0153101
800.074	0.0151019
800.152	0.0152694
800.230	0.0151670
800.308	0.0151742
800.386	0.0153174
800.465	0.0153925
800.543	0.0155296
800.621	0.0154800
800.699	0.0153988
800.777	0.0155317
800.855	0.0156015
800.933	0.0155929
801.011	0.0156684
801.090	0.0155172
801.168	0.0156723
801.246	0.0157427
801.324	0.0157729
801.402	0.0156293
801.480	0.0156721
801.558	0.0156573
801.636	0.0156443
801.715	0.0156272
801.793	0.0157219
801.871	0.0155793
801.949	0.0155962
802.027	0.0156587
802.105	0.0156075
802.183	0.0155164
802.261	0.0154528
802.340	0.0155476
802.418	0.0155896
802.496	0.0156280
802.574	0.0155820
802.652	0.0155122
802.730	0.0156527
802.808	0.0155820
802.886	0.0154788
802.965	0.0155129
803.043	0.0154387
803.121	0.0154343
803.199	0.0154115
803.277	0.0153983
803.355	0.0154433
803.433	0.0154409
803.511	0.0153042
803.590	0.0152482
803.668	0.0154113
803.746	0.0153006
803.824	0.0152090
803.902	0.0152831
803.980	0.0152153
804.058	0.0152953
804.136	0.0153917
804.215	0.0154389
804.293	0.0153944
804.371	0.0155004
804.449	0.0154478
804.527	0.0155779
804.605	0.0156705
804.683	0.0157435
804.761	0.0157101
804.840	0.0157555
804.918	0.0156960
804.996	0.0157144
805.074	0.0156820
805.152	0.0156070
805.230	0.0156705
805.308	0.0157272
805.386	0.0156168
805.465	0.0154185
805.543	0.0155753
805.621	0.0153878
805.699	0.0154156
805.777	0.0153944
805.855	0.0152210
805.933	0.0153199
806.011	0.0152740
806.090	0.0154588
806.168	0.0154196
806.246	0.0154762
806.324	0.0153237
806.402	0.0154100
806.480	0.0155010
806.558	0.0155613
806.636	0.0154828
806.715	0.0156174
806.793	0.0155672
806.871	0.0155865
806.949	0.0155297
807.027	0.0154527
807.105	0.0154597
807.183	0.0154464
807.261	0.0153508
807.340	0.0152209
807.418	0.0152500
807.496	0.0152624
807.574	0.0153421
807.652	0.0152591
807.730	0.0152351
807.808	0.0152338
807.886	0.0152251
807.965	0.0152395
808.043	0.0152293
808.121	0.0152768
808.199	0.0155247
808.277	0.0155635
808.355	0.0155193
808.433	0.0155508
808.511	0.0156687
808.590	0.0157001
808.668	0.0155813
808.746	0.0156803
808.824	0.0155717
808.902	0.0155637
808.980	0.0156696
809.058	0.0155191
809.136	0.0155143
809.215	0.0153572
809.293	0.0153825
809.371	0.0154131
809.449	0.0154572
809.527	0.0155200
809.605	0.0154039
809.683	0.0153636
809.761	0.0153520
809.840	0.0153823
809.918	0.0154578
809.996	0.0155130
810.074	0.0156345
810.152	0.0157639
810.230	0.0156606
810.308	0.0158619
810.386	0.0159055
810.465	0.0157412
810.543	0.0157543
810.621	0.0157273
810.699	0.0158933
810.777	0.0157870
810.855	0.0157094
810.933	0.0155525
811.011	0.0155905
811.090	0.0153760
811.168	0.0154256
811.246	0.0155823
811.324	0.0152950
811.402	0.0152626
811.480	0.0152221
811.558	0.0152884
811.636	0.0152818
811.715	0.0151355
811.793	0.0150919
811.871	0.0152046
811.949	0.0151867
812.027	0.0152203
812.105	0.0152991
812.183	0.0153744
812.261	0.0153586
812.340	0.0153723
812.418	0.0153947
812.496	0.0154361
812.574	0.0154518
812.652	0.0155462
812.730	0.0155793
812.808	0.0156584
812.886	0.0156973
812.965	0.0156963
813.043	0.0157245
813.121	0.0156699
813.199	0.0156709
813.277	0.0157232
813.355	0.0156259
813.433	0.0157169
813.511	0.0158282
813.590	0.0155621
813.668	0.0156079
813.746	0.0157360
813.824	0.0156464
813.902	0.0157145
813.980	0.0156259
814.058	0.0157056
814.136	0.0157012
814.215	0.0156250
814.293	0.0156778
814.371	0.0156470
814.449	0.0155674
814.527	0.0153996
814.605	0.0155956
814.683	0.0154351
814.761	0.0154121
814.840	0.0152727
814.918	0.0151890
814.996	0.0152396
815.074	0.0151388
815.152	0.0151548
815.230	0.0150652
815.308	0.0150811
815.386	0.0151814
815.465	0.0151827
815.543	0.0153549
815.621	0.0154520
815.699	0.0153066
815.777	0.0154931
815.855	0.0154828
815.933	0.0156354
816.011	0.0157118
816.090	0.0157278
816.168	0.0157822
816.246	0.0158199
816.324	0.0158659
816.402	0.0157919
816.480	0.0158672
816.558	0.0157846
816.636	0.0158519
816.715	0.0157465
816.793	0.0154849
816.871	0.0155350
816.949	0.0155717
817.027	0.0153813
817.105	0.0153858
817.183	0.0154928
817.261	0.0153683
817.340	0.0154829
817.418	0.0153152
817.496	0.0153948
817.574	0.0155660
817.652	0.0155040
817.730	0.0155222
817.808	0.0157292
817.886	0.0157269
817.965	0.0158083
818.043	0.0157916
818.121	0.0157435
818.199	0.0157944
818.277	0.0158909
818.355	0.0158863
818.433	0.0156397
818.511	0.0158464
818.590	0.0157842
818.668	0.0157980
818.746	0.0154904
818.824	0.0155447
818.902	0.0153552
818.980	0.0152596
819.058	0.0153764
819.136	0.0153323
819.215	0.0153185
819.293	0.0152189
819.371	0.0152386
819.449	0.0152253
819.527	0.0153400
819.605	0.0150704
819.683	0.0153274
819.761	0.0154153
819.840	0.0154507
819.918	0.0153487
819.996	0.0153258
820.074	0.0156258
820.152	0.0154858
820.230	0.0154938
820.308	0.0154079
820.386	0.0155109
820.465	0.0155853
820.543	0.0154278
820.621	0.0152853
820.699	0.0153036
820.777	0.0155119
820.855	0.0154707
820.933	0.0155019
821.011	0.0154423
821.090	0.0154555
821.168	0.0155890
821.246	0.0156313
821.324	0.0157136
821.402	0.0158417
821.480	0.0157833
821.558	0.0158206
821.636	0.0161073
821.715	0.0159919
821.793	0.0157961
821.871	0.0159192
821.949	0.0159918
822.027	0.0157895
822.105	0.0157080
822.183	0.0157297
822.261	0.0155544
822.340	0.0155810
822.418	0.0153775
822.496	0.0154291
822.574	0.0152605
822.652	0.0152032
822.730	0.0150725
822.808	0.0150095
822.886	0.0151459
822.965	0.0150333
823.043	0.0149897
823.121	0.0150867
823.199	0.0150307
823.277	0.0150646
823.355	0.0150167
823.433	0.0153297
823.511	0.0152249
823.590	0.0153506
823.668	0.0154188
823.746	0.0155920
823.824	0.0156769
823.902	0.0156663
823.980	0.0156054
824.058	0.0155539
824.136	0.0156555
824.215	0.0157376
824.293	0.0156466
824.371	0.0155804
824.449	0.0156194
824.527	0.0155920
824.605	0.0155794
824.683	0.0154034
824.761	0.0153747
824.840	0.0154121
824.918	0.0154092
824.996	0.0153909
825.074	0.0153545
825.152	0.0153581
825.230	0.0153411
825.308	0.0154302
825.386	0.0153914
825.465	0.0153064
825.543	0.0153640
825.621	0.0154726
825.699	0.0154060
825.777	0.0154067
825.855	0.0154877
825.933	0.0156049
826.011	0.0155818
826.090	0.0154111
826.168	0.0155133
826.246	0.0155812
826.324	0.0154067
826.402	0.0154050
826.480	0.0155532
826.558	0.0155336
826.636	0.0155164
826.715	0.0154675
826.793	0.0154927
826.871	0.0155621
826.949	0.0155797
827.027	0.0157597
827.105	0.0156185
827.183	0.0155968
827.261	0.0156197
827.340	0.0156438
827.418	0.0156293
827.496	0.0156248
827.574	0.0157341
827.652	0.0156506
827.730	0.0156650
827.808	0.0157494
827.886	0.0155510
827.965	0.0154545
828.043	0.0155846
828.121	0.0155455
828.199	0.0154827
828.277	0.0154854
828.355	0.0154204
828.433	0.0152345
828.511	0.0154539
828.590	0.0154028
828.668	0.0154355
828.746	0.0155702
828.824	0.0154518
828.902	0.0153788
828.980	0.0154494
829.058	0.0153716
829.136	0.0153149
829.215	0.0154507
829.293	0.0155103
829.371	0.0155634
829.449	0.0155689
829.527	0.0155768
829.605	0.0154673
829.683	0.0155448
829.761	0.0154192
829.840	0.0156200
829.918	0.0154683
829.996	0.0155917
830.074	0.0155214
830.152	0.0154494
830.230	0.0154630
830.308	0.0155012
830.386	0.0154288
830.465	0.0153754
830.543	0.0154878
830.621	0.0155238
830.699	0.0154935
830.777	0.0154916
830.855	0.0155387
830.933	0.0153872
831.011	0.0154073
831.090	0.0155040
831.168	0.0154508
831.246	0.0155396
831.324	0.0153432
831.402	0.0152306
831.480	0.0153360
831.558	0.0154334
831.636	0.0154134
831.715	0.0152583
831.793	0.0153760
831.871	0.0153664
831.949	0.0153622
832.027	0.0153879
832.105	0.0153611
832.183	0.0152887
832.261	0.0153999
832.340	0.0154642
832.418	0.0155383
832.496	0.0154025
832.574	0.0153408
832.652	0.0155497
832.730	0.0155998
832.808	0.0156039
832.886	0.0156338
832.965	0.0155319
833.043	0.0155461
833.121	0.0155212
833.199	0.0155262
833.277	0.0156028
833.355	0.0155484
833.433	0.0155314
833.511	0.0155144
833.590	0.0155137
833.668	0.0153809
833.746	0.0153914
833.824	0.0155195
833.902	0.0154876
833.980	0.0155585
834.058	0.0154419
834.136	0.0154417
834.215	0.0154866
834.293	0.0153784
834.371	0.0154498
834.449	0.0156136
834.527	0.0155348
834.605	0.0155869
834.683	0.0154044
834.761	0.0156316
834.840	0.0156045
834.918	0.0155269
834.996	0.0155962
835.074	0.0155785
835.152	0.0155483
835.230	0.0156004
835.308	0.0155334
835.386	0.0154759
835.465	0.0153737
835.543	0.0154564
835.621	0.0154799
835.699	0.0153539
835.777	0.0155589
835.855	0.0154601
835.933	0.0155905
836.011	0.0153271
836.090	0.0153618
836.168	0.0153286
836.246	0.0153506
836.324	0.0154544
836.402	0.0154150
836.480	0.0156231
836.558	0.0155306
836.636	0.0154948
836.715	0.0156383
836.793	0.0154517
836.871	0.0155368
836.949	0.0155312
837.027	0.0154941
837.105	0.0155428
837.183	0.0156552
837.261	0.0155102
837.340	0.0154527
837.418	0.0154886
837.496	0.0156474
837.574	0.0154994
837.652	0.0153777
837.730	0.0155432
837.808	0.0155743
837.886	0.0155255
837.965	0.0155502
838.043	0.0154752
838.121	0.0155663
838.199	0.0155399
838.277	0.0156833
838.355	0.0156553
838.433	0.0155355
838.511	0.0155382
838.590	0.0154215
838.668	0.0155418
838.746	0.0154153
838.824	0.0154710
838.902	0.0153616
838.980	0.0152869
839.058	0.0154134
839.136	0.0154587
839.215	0.0152146
839.293	0.0152995
839.371	0.0152991
839.449	0.0153043
839.527	0.0153976
839.605	0.0154095
839.683	0.0151829
839.761	0.0153201
839.840	0.0152693
839.918	0.0153324
839.996	0.0152576
840.074	0.0153629
840.152	0.0153991
840.230	0.0152901
840.308	0.0154455
840.386	0.0153412
840.465	0.0154533
840.543	0.0155369
840.621	0.0154873
840.699	0.0155083
840.777	0.0156385
840.855	0.0156636
840.933	0.0155518
841.011	0.0155517
841.090	0.0156297
841.168	0.0155552
841.246	0.0156099
841.324	0.0156240
841.402	0.0156119
841.480	0.0155489
841.558	0.0156160
841.636	0.0157660
841.715	0.0156290
841.793	0.0156499
841.871	0.0156264
841.949	0.0156680
842.027	0.0155389
842.105	0.0156316
842.183	0.0156488
842.261	0.0155047
842.340	0.0157324
842.418	0.0155209
842.496	0.0154306
842.574	0.0153602
842.652	0.0153087
842.730	0.0154212
842.808	0.0153279
842.886	0.0153365
842.965	0.0154203
843.043	0.0154423
843.121	0.0156087
843.199	0.0155944
843.277	0.0155737
843.355	0.0154800
843.433	0.0156927
843.511	0.0157993
843.590	0.0157225
843.668	0.0157499
843.746	0.0157383
843.824	0.0157411
843.902	0.0157111
843.980	0.0157581
844.058	0.0157766
844.136	0.0155525
844.215	0.0156413
844.293	0.0156427
844.371	0.0157710
844.449	0.0155756
844.527	0.0154131
844.605	0.0154745
844.683	0.0154015
844.761	0.0154434
844.840	0.0153828
844.918	0.0154278
844.996	0.0153565
845.074	0.0154713
845.152	0.0155209
845.230	0.0155385
845.308	0.0155456
845.386	0.0154079
845.465	0.0154931
845.543	0.0154176
845.621	0.0154872
845.699	0.0153271
845.777	0.0155584
845.855	0.0156250
845.933	0.0154724
846.011	0.0155241
846.090	0.0154897
846.168	0.0153659
846.246	0.0153785
846.324	0.0153448
846.402	0.0152337
846.480	0.0152484
846.558	0.0152790
846.636	0.0152704
846.715	0.0152426
846.793	0.0151919
846.871	0.0151781
846.949	0.0152119
847.027	0.0153213
847.105	0.0151662
847.183	0.0153094
847.261	0.0153605
847.340	0.0153221
847.418	0.0154103
847.496	0.0154202
847.574	0.0155225
847.652	0.0154189
847.730	0.0154150
847.808	0.0155411
847.886	0.0155482
847.965	0.0155053
848.043	0.0155931
848.121	0.0156912
848.199	0.0155483
848.277	0.0155816
848.355	0.0155348
848.433	0.0154972
848.511	0.0156050
848.590	0.0154718
848.668	0.0153319
848.746	0.0153065
848.824	0.0154611
848.902	0.0155457
848.980	0.0154101
849.058	0.0153965
849.136	0.0154188
849.215	0.0155012
849.293	0.0153877
849.371	0.0154530
849.449	0.0155537
849.527	0.0154154
849.605	0.0157493
849.683	0.0155956
849.761	0.0154534
849.840	0.0156496
849.918	0.0155464
849.996	0.0154012
850.074	0.0156415
850.152	0.0154924
850.230	0.0155170
850.308	0.0155703
850.386	0.0154525
850.465	0.0153708
850.543	0.0155811
850.621	0.0156055
850.699	0.0155585
850.777	0.0155903
850.855	0.0153833
850.933	0.0154256
851.011	0.0155688
851.090	0.0154723
851.168	0.0155762
851.246	0.0154786
851.324	0.0155644
851.402	0.0156149
851.480	0.0156030
851.558	0.0156461
851.636	0.0157241
851.715	0.0156532
851.793	0.0157254
851.871	0.0156529
851.949	0.0157453
852.027	0.0156284
852.105	0.0157185
852.183	0.0155853
852.261	0.0155887
852.340	0.0156783
852.418	0.0156493
852.496	0.0154427
852.574	0.0154639
852.652	0.0153378
852.730	0.0153700
852.808	0.0153265
852.886	0.0153438
852.965	0.0154491
853.043	0.0154157
853.121	0.0155106
853.199	0.0153644
853.277	0.0153970
853.355	0.0155195
853.433	0.0154305
853.511	0.0154758
853.590	0.0155550
853.668	0.0154096
853.746	0.0154006
853.824	0.0155988
853.902	0.0154844
853.980	0.0154724
854.058	0.0154724
854.136	0.0155536
854.215	0.0154717
854.293	0.0154524
854.371	0.0153760
854.449	0.0153613
854.527	0.0155372
854.605	0.0154953
854.683	0.0153261
854.761	0.0154641
854.840	0.0153493
854.918	0.0153228
854.996	0.0152948
855.074	0.0153926
855.152	0.0151676
855.230	0.0152406
855.308	0.0154179
855.386	0.0153683
855.465	0.0152202
855.543	0.0153306
855.621	0.0152158
855.699	0.0154215
855.777	0.0154095
855.855	0.0153272
855.933	0.0152044
856.011	0.0152866
856.090	0.0154387
856.168	0.0155107
856.246	0.0154906
856.324	0.0153380
856.402	0.0154665
856.480	0.0154075
856.558	0.0154169
856.636	0.0154432
856.715	0.0155683
856.793	0.0155982
856.871	0.0155267
856.949	0.0153628
857.027	0.0155082
857.105	0.0155407
857.183	0.0155729
857.261	0.0156448
857.340	0.0155711
857.418	0.0154439
857.496	0.0154815
857.574	0.0155479
857.652	0.0155721
857.730	0.0155321
857.808	0.0154205
857.886	0.0153836
857.965	0.0155590
858.043	0.0154936
858.121	0.0154665
858.199	0.0154145
858.277	0.0155623
858.355	0.0156264
858.433	0.0156784
858.511	0.0155320
858.590	0.0156242
858.668	0.0156120
858.746	0.0155695
858.824	0.0156264
858.902	0.0155991
858.980	0.0157777
859.058	0.0157722
859.136	0.0157758
859.215	0.0156499
859.293	0.0157405
859.371	0.0156264
859.449	0.0155988
859.527	0.0155801
859.605	0.0155042
859.683	0.0155956
859.761	0.0155444
859.840	0.0156543
859.918	0.0156120
859.996	0.0154707
860.074	0.0154467
860.152	0.0155897
860.230	0.0155611
860.308	0.0155351
860.386	0.0157185
860.465	0.0155948
860.543	0.0155757
860.621	0.0156380
860.699	0.0155785
860.777	0.0156570
860.855	0.0155585
860.933	0.0154967
861.011	0.0156100
861.090	0.0155540
861.168	0.0155526
861.246	0.0154855
861.324	0.0155519
861.402	0.0154530
861.480	0.0156339
861.558	0.0154063
861.636	0.0155183
861.715	0.0154850
861.793	0.0155391
861.871	0.0154219
861.949	0.0153901
862.027	0.0154372
862.105	0.0153796
862.183	0.0152898
862.261	0.0153311
862.340	0.0154324
862.418	0.0152856
862.496	0.0151821
862.574	0.0154700
862.652	0.0153241
862.730	0.0152773
862.808	0.0152699
862.886	0.0152311
862.965	0.0152825
863.043	0.0152348
863.121	0.0154863
863.199	0.0152180
863.277	0.0153314
863.355	0.0154054
863.433	0.0152843
863.511	0.0153863
863.590	0.0152924
863.668	0.0154903
863.746	0.0155223
863.824	0.0154015
863.902	0.0155244
863.980	0.0154018
864.058	0.0153957
864.136	0.0154479
864.215	0.0155241
864.293	0.0153974
864.371	0.0156049
864.449	0.0156342
864.527	0.0154979
864.605	0.0154103
864.683	0.0154497
864.761	0.0155055
864.840	0.0154964
864.918	0.0155939
864.996	0.0156078
865.074	0.0155609
865.152	0.0156385
865.230	0.0156506
865.308	0.0156166
865.386	0.0156209
865.465	0.0157749
865.543	0.0158202
865.621	0.0156496
865.699	0.0156174
865.777	0.0156593
865.855	0.0153957
865.933	0.0155083
866.011	0.0156951
866.090	0.0155552
866.168	0.0154704
866.246	0.0156543
866.324	0.0156869
866.402	0.0155508
866.480	0.0154888
866.558	0.0154260
866.636	0.0154611
866.715	0.0155193
866.793	0.0155705
866.871	0.0155576
866.949	0.0155459
867.027	0.0154949
867.105	0.0155709
867.183	0.0157439
867.261	0.0156518
867.340	0.0156399
867.418	0.0155924
867.496	0.0155488
867.574	0.0155696
867.652	0.0155738
867.730	0.0156889
867.808	0.0155875
867.886	0.0155586
867.965	0.0156540
868.043	0.0155309
868.121	0.0156467
868.199	0.0155572
868.277	0.0156917
868.355	0.0156273
868.433	0.0153575
868.511	0.0156551
868.590	0.0154513
868.668	0.0155784
868.746	0.0154579
868.824	0.0155663
868.902	0.0155447
868.980	0.0155258
869.058	0.0155339
869.136	0.0156888
869.215	0.0155671
869.293	0.0155885
869.371	0.0156368
869.449	0.0154865
869.527	0.0154664
869.605	0.0155153
869.683	0.0154929
869.761	0.0155504
869.840	0.0154072
869.918	0.0154355
869.996	0.0154527
870.074	0.0152153
870.152	0.0153346
870.230	0.0152747
870.308	0.0152509
870.386	0.0153324
870.465	0.0154222
870.543	0.0153526
870.621	0.0151558
870.699	0.0152740
870.777	0.0153648
870.855	0.0152677
870.933	0.0152966
871.011	0.0154206
871.090	0.0153635
871.168	0.0153319
871.246	0.0152826
871.324	0.0153783
871.402	0.0153595
871.480	0.0154585
871.558	0.0155808
871.636	0.0156030
871.715	0.0153638
871.793	0.0153635
871.871	0.0154120
871.949	0.0153449
872.027	0.0153664
872.105	0.0153966
872.183	0.0155457
872.261	0.0153494
872.340	0.0153674
872.418	0.0153561
872.496	0.0155399
872.574	0.0156329
872.652	0.0153670
872.730	0.0154366
872.808	0.0155447
872.886	0.0155440
872.965	0.0154575
873.043	0.0154942
873.121	0.0156376
873.199	0.0156042
873.277	0.0155482
873.355	0.0155916
873.433	0.0155489
873.511	0.0154008
873.590	0.0157455
873.668	0.0155054
873.746	0.0155997
873.824	0.0155764
873.902	0.0155121
873.980	0.0156102
874.058	0.0155422
874.136	0.0154470
874.215	0.0154556
874.293	0.0154407
874.371	0.0155250
874.449	0.0156809
874.527	0.0153737
874.605	0.0153661
874.683	0.0154104
874.761	0.0154475
874.840	0.0154362
874.918	0.0154971
874.996	0.0155859
875.074	0.0155656
875.152	0.0156150
875.230	0.0154620
875.308	0.0154839
875.386	0.0157124
875.465	0.0155270
875.543	0.0155427
875.621	0.0154127
875.699	0.0155272
875.777	0.0154668
875.855	0.0154503
875.933	0.0156372
876.011	0.0156460
876.090	0.0155704
876.168	0.0155345
876.246	0.0155160
876.324	0.0156068
876.402	0.0155814
876.480	0.0156702
876.558	0.0156227
876.636	0.0155911
876.715	0.0157336
876.793	0.0155983
876.871	0.0156106
876.949	0.0156451
877.027	0.0157370
877.105	0.0154435
877.183	0.0155949
877.261	0.0155127
877.340	0.0155344
877.418	0.0156095
877.496	0.0155055
877.574	0.0154549
877.652	0.0154739
877.730	0.0154465
877.808	0.0154157
877.886	0.0153967
877.965	0.0154646
878.043	0.0154047
878.121	0.0154159
878.199	0.0152383
878.277	0.0153139
878.355	0.0153926
878.433	0.0153327
878.511	0.0152076
878.590	0.0153638
878.668	0.0154137
878.746	0.0154064
878.824	0.0153192
878.902	0.0153284
878.980	0.0153114
879.058	0.0153259
879.136	0.0154449
879.215	0.0153696
879.293	0.0153610
879.371	0.0154624
879.449	0.0154607
879.527	0.0154549
879.605	0.0154608
879.683	0.0154914
879.761	0.0155853
879.840	0.0153996
879.918	0.0153901
879.996	0.0152990
880.074	0.0154737
880.152	0.0154330
880.230	0.0154736
880.308	0.0154865
880.386	0.0152778
880.465	0.0153041
880.543	0.0152824
880.621	0.0154150
880.699	0.0153491
880.777	0.0154235
880.855	0.0153082
880.933	0.0152798
881.011	0.0155950
881.090	0.0154414
881.168	0.0154408
881.246	0.0154770
881.324	0.0155328
881.402	0.0153218
881.480	0.0154125
881.558	0.0155057
881.636	0.0155047
881.715	0.0155120
881.793	0.0156720
881.871	0.0155170
881.949	0.0154459
882.027	0.0155534
882.105	0.0155358
882.183	0.0155272
882.261	0.0155186
882.340	0.0155898
882.418	0.0155736
882.496	0.0155074
882.574	0.0155013
882.652	0.0155473
882.730	0.0155926
882.808	0.0155429
882.886	0.0156257
882.965	0.0154745
883.043	0.0154534
883.121	0.0156280
883.199	0.0154786
883.277	0.0153986
883.355	0.0154917
883.433	0.0154262
883.511	0.0154857
883.590	0.0154312
883.668	0.0154114
883.746	0.0155053
883.824	0.0155065
883.902	0.0154507
883.980	0.0155439
884.058	0.0155417
884.136	0.0155787
884.215	0.0154442
884.293	0.0156466
884.371	0.0156018
884.449	0.0155146
884.527	0.0155486
884.605	0.0156251
884.683	0.0156026
884.761	0.0154849
884.840	0.0155314
884.918	0.0157359
884.996	0.0156583
885.074	0.0156073
885.152	0.0157885
885.230	0.0156660
885.308	0.0156844
885.386	0.0156014
885.465	0.0156270
885.543	0.0155746
885.621	0.0155433
885.699	0.0155721
885.777	0.0153736
885.855	0.0155097
885.933	0.0155810
886.011	0.0154243
886.090	0.0152740
886.168	0.0154981
886.246	0.0154948
886.324	0.0153785
886.402	0.0154953
886.480	0.0154485
886.558	0.0154387
886.636	0.0154174
886.715	0.0153532
886.793	0.0155276
886.871	0.0153991
886.949	0.0154745
887.027	0.0154576
887.105	0.0155027
887.183	0.0155808
887.261	0.0154043
887.340	0.0154089
887.418	0.0154394
887.496	0.0155132
887.574	0.0154079
887.652	0.0153969
887.730	0.0154625
887.808	0.0154439
887.886	0.0153496
887.965	0.0154752
888.043	0.0154131
888.121	0.0154854
888.199	0.0154123
888.277	0.0153570
888.355	0.0155479
888.433	0.0154419
888.511	0.0154665
888.590	0.0153605
888.668	0.0153581
888.746	0.0153766
888.824	0.0154301
888.902	0.0154021
888.980	0.0155294
889.058	0.0154237
889.136	0.0153695
889.215	0.0154315
889.293	0.0153593
889.371	0.0154396
889.449	0.0155396
889.527	0.0155014
889.605	0.0154140
889.683	0.0154669
889.761	0.0154189
889.840	0.0154989
889.918	0.0156088
889.996	0.0154265
890.074	0.0154472
890.152	0.0156808
890.230	0.0155660
890.308	0.0155542
890.386	0.0156445
890.465	0.0155768
890.543	0.0155328
890.621	0.0156125
890.699	0.0155849
890.777	0.0155218
890.855	0.0156416
890.933	0.0155882
891.011	0.0155988
891.090	0.0155653
891.168	0.0156530
891.246	0.0155264
891.324	0.0156238
891.402	0.0156831
891.480	0.0157079
891.558	0.0155662
891.636	0.0153550
891.715	0.0155750
891.793	0.0154003
891.871	0.0155030
891.949	0.0155311
892.027	0.0154099
892.105	0.0154575
892.183	0.0155393
892.261	0.0154781
892.340	0.0154388
892.418	0.0154436
892.496	0.0155032
892.574	0.0155791
892.652	0.0156416
892.730	0.0157052
892.808	0.0156766
892.886	0.0156204
892.965	0.0157246
893.043	0.0156752
893.121	0.0157008
893.199	0.0156399
893.277	0.0157634
893.355	0.0156074
893.433	0.0154470
893.511	0.0155694
893.590	0.0156665
893.668	0.0154453
893.746	0.0155910
893.824	0.0155521
893.902	0.0155840
893.980	0.0155579
894.058	0.0155353
894.136	0.0154527
894.215	0.0154295
894.293	0.0153631
894.371	0.0155288
894.449	0.0154380
894.527	0.0155109
894.605	0.0156117
894.683	0.0155429
894.761	0.0155135
894.840	0.0153957
894.918	0.0153883
894.996	0.0154608
895.074	0.0154971
895.152	0.0153804
895.230	0.0154633
895.308	0.0155378
895.386	0.0154428
895.465	0.0154214
895.543	0.0155222
895.621	0.0154726
895.699	0.0153318
895.777	0.0154749
895.855	0.0153574
895.933	0.0155623
896.011	0.0154434
896.090	0.0155219
896.168	0.0153452
896.246	0.0153950
896.324	0.0155415
896.402	0.0155274
896.480	0.0154222
896.558	0.0154038
896.636	0.0153024
896.715	0.0155100
896.793	0.0155164
896.871	0.0154654
896.949	0.0155178
897.027	0.0155264
897.105	0.0155460
897.183	0.0155006
897.261	0.0155406
897.340	0.0155465
897.418	0.0155159
897.496	0.0153469
897.574	0.0153212
897.652	0.0154267
897.730	0.0156293
897.808	0.0154588
897.886	0.0155064
897.965	0.0155276
898.043	0.0155231
898.121	0.0156062
898.199	0.0155217
898.277	0.0155850
898.355	0.0154898
898.433	0.0154364
898.511	0.0156953
898.590	0.0156325
898.668	0.0154307
898.746	0.0156287
898.824	0.0155912
898.902	0.0156885
898.980	0.0154576
899.058	0.0155000
899.136	0.0156407
899.215	0.0154909
899.293	0.0156678
899.371	0.0157671
899.449	0.0155208
899.527	0.0155198
899.605	0.0155051
899.683	0.0156181
899.761	0.0155219
899.840	0.0155265
899.918	0.0155523
899.996	0.0155018
900.074	0.0154690
900.152	0.0155099
900.230	0.0155401
900.308	0.0154916
900.386	0.0154380
900.465	0.0154534
900.543	0.0155425
900.621	0.0155148
900.699	0.0154573
900.777	0.0155450
900.855	0.0156081
900.933	0.0155551
901.011	0.0155885
901.090	0.0154590
901.168	0.0156934
901.246	0.0156369
901.324	0.0155003
901.402	0.0155391
901.480	0.0155931
901.558	0.0156509
901.636	0.0156457
901.715	0.0155492
901.793	0.0154541
901.871	0.0155634
901.949	0.0155944
902.027	0.0155513
902.105	0.0154537
902.183	0.0154633
902.261	0.0154874
902.340	0.0155244
902.418	0.0154277
902.496	0.0154990
902.574	0.0154884
902.652	0.0155231
902.730	0.0153583
902.808	0.0154063
902.886	0.0153775
902.965	0.0154570
903.043	0.0155355
903.121	0.0155223
903.199	0.0155964
903.277	0.0154522
903.355	0.0154976
903.433	0.0155641
903.511	0.0153912
903.590	0.0154112
903.668	0.0153430
903.746	0.0155283
903.824	0.0154861
903.902	0.0155146
903.980	0.0153790
904.058	0.0154395
904.136	0.0155048
904.215	0.0155021
904.293	0.0153986
904.371	0.0154659
904.449	0.0154404
904.527	0.0153718
904.605	0.0152869
904.683	0.0154066
904.761	0.0155028
904.840	0.0153749
904.918	0.0153143
904.996	0.0155736
905.074	0.0156128
905.152	0.0155511
905.230	0.0155401
905.308	0.0155616
905.386	0.0155035
905.465	0.0154956
905.543	0.0156535
905.621	0.0154395
905.699	0.0155607
905.777	0.0155437
905.855	0.0155020
905.933	0.0155051
906.011	0.0154747
906.090	0.0154214
906.168	0.0154984
906.246	0.0154409
906.324	0.0155133
906.402	0.0156039
906.480	0.0154591
906.558	0.0154968
906.636	0.0155006
906.715	0.0154329
906.793	0.0154561
906.871	0.0155363
906.949	0.0155669
907.027	0.0156168
907.105	0.0156409
907.183	0.0156647
907.261	0.0154967
907.340	0.0154626
907.418	0.0155710
907.496	0.0155527
907.574	0.0154261
907.652	0.0155443
907.730	0.0155285
907.808	0.0156603
907.886	0.0155346
907.965	0.0154997
908.043	0.0154202
908.121	0.0153832
908.199	0.0153167
908.277	0.0154394
908.355	0.0154111
908.433	0.0154398
908.511	0.0155166
908.590	0.0154131
908.668	0.0153748
908.746	0.0153318
908.824	0.0153484
908.902	0.0154572
908.980	0.0154915
909.058	0.0153915
909.136	0.0152033
909.215	0.0154289
909.293	0.0153318
909.371	0.0152783
909.449	0.0154002
909.527	0.0154021
909.605	0.0154950
909.683	0.0154776
909.761	0.0154052
909.840	0.0154516
909.918	0.0153962
909.996	0.0155556
910.074	0.0155033
910.152	0.0155468
910.230	0.0155419
910.308	0.0154858
910.386	0.0155487
910.465	0.0155617
910.543	0.0152683
910.621	0.0155015
910.699	0.0153665
910.777	0.0155359
910.855	0.0153819
910.933	0.0154575
911.011	0.0155582
911.090	0.0153716
911.168	0.0153817
911.246	0.0153126
911.324	0.0153452
911.402	0.0153003
911.480	0.0154050
911.558	0.0153942
911.636	0.0152936
911.715	0.0152798
911.793	0.0152121
911.871	0.0152345
911.949	0.0154731
912.027	0.0152905
912.105	0.0153989
912.183	0.0152618
912.261	0.0152582
912.340	0.0154317
912.418	0.0154633
912.496	0.0153573
912.574	0.0154391
912.652	0.0154073
912.730	0.0154819
912.808	0.0153529
912.886	0.0154779
912.965	0.0155641
913.043	0.0155087
913.121	0.0154875
913.199	0.0155083
913.277	0.0154987
913.355	0.0155474
913.433	0.0156017
913.511	0.0155121
913.590	0.0155421
913.668	0.0155540
913.746	0.0154561
913.824	0.0154749
913.902	0.0155901
913.980	0.0153428
914.058	0.0155374
914.136	0.0155104
914.215	0.0155927
914.293	0.0154656
914.371	0.0154414
914.449	0.0155830
914.527	0.0156936
914.605	0.0155611
914.683	0.0154778
914.761	0.0154956
914.840	0.0155357
914.918	0.0156463
914.996	0.0155502
915.074	0.0155405
915.152	0.0154785
915.230	0.0153242
915.308	0.0155464
915.386	0.0156017
915.465	0.0156305
915.543	0.0155908
915.621	0.0154026
915.699	0.0155164
915.777	0.0154648
915.855	0.0154877
915.933	0.0156163
916.011	0.0153282
916.090	0.0154259
916.168	0.0153848
916.246	0.0153458
916.324	0.0153866
916.402	0.0154295
916.480	0.0153484
916.558	0.0153064
916.636	0.0153282
916.715	0.0153938
916.793	0.0153613
916.871	0.0154762
916.949	0.0155032
917.027	0.0154357
917.105	0.0154987
917.183	0.0155460
917.261	0.0154588
917.340	0.0155502
917.418	0.0155307
917.496	0.0156630
917.574	0.0155902
917.652	0.0156827
917.730	0.0154897
917.808	0.0155299
917.886	0.0155186
917.965	0.0155379
918.043	0.0155835
918.121	0.0156075
918.199	0.0155105
918.277	0.0155027
918.355	0.0156583
918.433	0.0153736
918.511	0.0155398
918.590	0.0155102
918.668	0.0154687
918.746	0.0154752
918.824	0.0153301
918.902	0.0155444
918.980	0.0154964
919.058	0.0153239
919.136	0.0154832
919.215	0.0154004
919.293	0.0154217
919.371	0.0154344
919.449	0.0154163
919.527	0.0155434
919.605	0.0153940
919.683	0.0153609
919.761	0.0153763
919.840	0.0153233
919.918	0.0153571
919.996	0.0153999
920.074	0.0155255
920.152	0.0153909
920.230	0.0153797
920.308	0.0154794
920.386	0.0153404
920.465	0.0154291
920.543	0.0155030
920.621	0.0153085
920.699	0.0154528
920.777	0.0155571
920.855	0.0155846
920.933	0.0153671
921.011	0.0155313
921.090	0.0155311
921.168	0.0155864
921.246	0.0154578
921.324	0.0154619
921.402	0.0156821
921.480	0.0155941
921.558	0.0155045
921.636	0.0156419
921.715	0.0156032
921.793	0.0155309
921.871	0.0154713
921.949	0.0155378
922.027	0.0153954
922.105	0.0155135
922.183	0.0155080
922.261	0.0156168
922.340	0.0155021
922.418	0.0154117
922.496	0.0153796
922.574	0.0154958
922.652	0.0154839
922.730	0.0154064
922.808	0.0155206
922.886	0.0154855
922.965	0.0155731
923.043	0.0155046
923.121	0.0154531
923.199	0.0154638
923.277	0.0156632
923.355	0.0155450
923.433	0.0153294
923.511	0.0153365
923.590	0.0155637
923.668	0.0155355
923.746	0.0153674
923.824	0.0155132
923.902	0.0154579
923.980	0.0153426
924.058	0.0155047
924.136	0.0155582
924.215	0.0155518
924.293	0.0154845
924.371	0.0154382
924.449	0.0155013
924.527	0.0155332
924.605	0.0154891
924.683	0.0154902
924.761	0.0155352
924.840	0.0155880
924.918	0.0155669
924.996	0.0154220
925.074	0.0157050
925.152	0.0155444
925.230	0.0155573
925.308	0.0155344
925.386	0.0155774
925.465	0.0155850
925.543	0.0155304
925.621	0.0155847
925.699	0.0155458
925.777	0.0156441
925.855	0.0155233
925.933	0.0155109
926.011	0.0155237
926.090	0.0154460
926.168	0.0154465
926.246	0.0152950
926.324	0.0155250
926.402	0.0153632
926.480	0.0153802
926.558	0.0154086
926.636	0.0153832
926.715	0.0154176
926.793	0.0153965
926.871	0.0154740
926.949	0.0154215
927.027	0.0154132
927.105	0.0153477
927.183	0.0154855
927.261	0.0153979
927.340	0.0155090
927.418	0.0153883
927.496	0.0154453
927.574	0.0154531
927.652	0.0151888
927.730	0.0153521
927.808	0.0154547
927.886	0.0154165
927.965	0.0153873
928.043	0.0152779
928.121	0.0153729
928.199	0.0153783
928.277	0.0154295
928.355	0.0154896
928.433	0.0154745
928.511	0.0152891
928.590	0.0153920
928.668	0.0154186
928.746	0.0153951
928.824	0.0155019
928.902	0.0153516
928.980	0.0153263
929.058	0.0153239
929.136	0.0153336
929.215	0.0153344
929.293	0.0154436
929.371	0.0156021
929.449	0.0153191
929.527	0.0152731
929.605	0.0152981
929.683	0.0154670
929.761	0.0155092
929.840	0.0153854
929.918	0.0153891
929.996	0.0155234
930.074	0.0153661
930.152	0.0153554
930.230	0.0154469
930.308	0.0154119
930.386	0.0154976
930.465	0.0154759
930.543	0.0154671
930.621	0.0154195
930.699	0.0155837
930.777	0.0154695
930.855	0.0154833
930.933	0.0155842
931.011	0.0153725
931.090	0.0154034
931.168	0.0154412
931.246	0.0155832
931.324	0.0154311
931.402	0.0154166
931.480	0.0154459
931.558	0.0154294
931.636	0.0154135
931.715	0.0153947
931.793	0.0153672
931.871	0.0154369
931.949	0.0154700
932.027	0.0153535
932.105	0.0154684
932.183	0.0153878
932.261	0.0154884
932.340	0.0155301
932.418	0.0154173
932.496	0.0155195
932.574	0.0156483
932.652	0.0155775
932.730	0.0155299
932.808	0.0154288
932.886	0.0154302
932.965	0.0154749
933.043	0.0154901
933.121	0.0154551
933.199	0.0154560
933.277	0.0154419
933.355	0.0154511
933.433	0.0153975
933.511	0.0154490
933.590	0.0155767
933.668	0.0155754
933.746	0.0154773
933.824	0.0154039
933.902	0.0153555
933.980	0.0153981
934.058	0.0155435
934.136	0.0154804
934.215	0.0155373
934.293	0.0154951
934.371	0.0153183
934.449	0.0154849
934.527	0.0155329
934.605	0.0154967
934.683	0.0154114
934.761	0.0153719
934.840	0.0154916
934.918	0.0155296
934.996	0.0155444
935.074	0.0155170
935.152	0.0155271
935.230	0.0156137
935.308	0.0153849
935.386	0.0153518
935.465	0.0155372
935.543	0.0154271
935.621	0.0154238
935.699	0.0154128
935.777	0.0154187
935.855	0.0153567
935.933	0.0152563
936.011	0.0151841
936.090	0.0153562
936.168	0.0154408
936.246	0.0153056
936.324	0.0152840
936.402	0.0153434
936.480	0.0154722
936.558	0.0154136
936.636	0.0152877
936.715	0.0153727
936.793	0.0153918
936.871	0.0153023
936.949	0.0153822
937.027	0.0153996
937.105	0.0154476
937.183	0.0154565
937.261	0.0153780
937.340	0.0154845
937.418	0.0154275
937.496	0.0154443
937.574	0.0154615
937.652	0.0154566
937.730	0.0155779
937.808	0.0156171
937.886	0.0154471
937.965	0.0155193
938.043	0.0157001
938.121	0.0155219
938.199	0.0155079
938.277	0.0155150
938.355	0.0153877
938.433	0.0155231
938.511	0.0157104
938.590	0.0155404
938.668	0.0154800
938.746	0.0154144
938.824	0.0155270
938.902	0.0154576
938.980	0.0155654
939.058	0.0155721
939.136	0.0155221
939.215	0.0154665
939.293	0.0154938
939.371	0.0155866
939.449	0.0155627
939.527	0.0155368
939.605	0.0154688
939.683	0.0155838
939.761	0.0155140
939.840	0.0155108
939.918	0.0156314
939.996	0.0155764
940.074	0.0156142
940.152	0.0155252
940.230	0.0156055
940.308	0.0155624
940.386	0.0155383
940.465	0.0155677
940.543	0.0155666
940.621	0.0156071
940.699	0.0155618
940.777	0.0156097
940.855	0.0155986
940.933	0.0155170
941.011	0.0155049
941.090	0.0155058
941.168	0.0154741
941.246	0.0154110
941.324	0.0154480
941.402	0.0154364
941.480	0.0154417
941.558	0.0154812
941.636	0.0153775
941.715	0.0154910
941.793	0.0152805
941.871	0.0154827
941.949	0.0155788
942.027	0.0154996
942.105	0.0154208
942.183	0.0155087
942.261	0.0154322
942.340	0.0153720
942.418	0.0153793
942.496	0.0155994
942.574	0.0155144
942.652	0.0155406
942.730	0.0155322
942.808	0.0155788
942.886	0.0156900
942.965	0.0155565
943.043	0.0155520
943.121	0.0154356
943.199	0.0155339
943.277	0.0155398
943.355	0.0155564
943.433	0.0152638
943.511	0.0152325
943.590	0.0154426
943.668	0.0154336
943.746	0.0152421
943.824	0.0152219
943.902	0.0155294
943.980	0.0154018
944.058	0.0155311
944.136	0.0153484
944.215	0.0152501
944.293	0.0153567
944.371	0.0154292
944.449	0.0155019
944.527	0.0155478
944.605	0.0154339
944.683	0.0153594
944.761	0.0153940
944.840	0.0155004
944.918	0.0154908
944.996	0.0153965
945.074	0.0153992
945.152	0.0154096
945.230	0.0153788
945.308	0.0154700
945.386	0.0154025
945.465	0.0155739
945.543	0.0154233
945.621	0.0154694
945.699	0.0155583
945.777	0.0154909
945.855	0.0154846
945.933	0.0154932
946.011	0.0155553
946.090	0.0154556
946.168	0.0155779
946.246	0.0155399
946.324	0.0156062
946.402	0.0156002
946.480	0.0156377
946.558	0.0154741
946.636	0.0154662
946.715	0.0154755
946.793	0.0156518
946.871	0.0154671
946.949	0.0153716
947.027	0.0154562
947.105	0.0155747
947.183	0.0156750
947.261	0.0155860
947.340	0.0154185
947.418	0.0153956
947.496	0.0154926
947.574	0.0153253
947.652	0.0155430
947.730	0.0155825
947.808	0.0154390
947.886	0.0154900
947.965	0.0154526
948.043	0.0155042
948.121	0.0154305
948.199	0.0155931
948.277	0.0154958
948.355	0.0155721
948.433	0.0155714
948.511	0.0156627
948.590	0.0156009
948.668	0.0154960
948.746	0.0155750
948.824	0.0155759
948.902	0.0155862
948.980	0.0156768
949.058	0.0155529
949.136	0.0155373
949.215	0.0156300
949.293	0.0153987
949.371	0.0154990
949.449	0.0154224
949.527	0.0153941
949.605	0.0155425
949.683	0.0154179
949.761	0.0154925
949.840	0.0154942
949.918	0.0155880
