06/29/2022	21:24:54	Ver.	4.1	UNKNOWN
Optical Delay	629.995835	Delta X		0.078125	Sweeps	1	Scan Rate	0/0
Coordinates	Axis 1	NaN	Axis 2	NaN	Axis 3	NaN	Axis 4	NaN	Axis 5	NaN	Axis 6	0.000000
TX Power	0.000000	RX Power	0.000000

629.996	0.0161736
630.074	0.0162457
630.152	0.0160728
630.230	0.0161499
630.308	0.0161286
630.386	0.0162440
630.465	0.0162422
630.543	0.0161846
630.621	0.0162022
630.699	0.0160878
630.777	0.0161472
630.855	0.0161666
630.933	0.0162089
631.011	0.0161594
631.090	0.0162964
631.168	0.0163048
631.246	0.0161708
631.324	0.0160428
631.402	0.0160939
631.480	0.0161939
631.558	0.0162643
631.636	0.0161544
631.715	0.0161351
631.793	0.0161021
631.871	0.0162840
631.949	0.0161412
632.027	0.0160171
632.105	0.0161272
632.183	0.0162051
632.261	0.0160936
632.340	0.0161904
632.418	0.0161338
632.496	0.0160757
632.574	0.0162209
632.652	0.0162077
632.730	0.0162333
632.808	0.0161290
632.886	0.0160563
632.965	0.0163630
633.043	0.0162093
633.121	0.0161274
633.199	0.0162655
633.277	0.0161503
633.355	0.0162137
633.433	0.0161784
633.511	0.0162270
633.590	0.0162388
633.668	0.0161459
633.746	0.0161584
633.824	0.0161933
633.902	0.0162508
633.980	0.0161918
634.058	0.0162727
634.136	0.0159972
634.215	0.0162556
634.293	0.0162146
634.371	0.0162790
634.449	0.0162518
634.527	0.0162885
634.605	0.0163397
634.683	0.0162119
634.761	0.0161422
634.840	0.0162023
634.918	0.0162215
634.996	0.0160962
635.074	0.0162399
635.152	0.0162702
635.230	0.0162253
635.308	0.0162748
635.386	0.0162299
635.465	0.0162029
635.543	0.0161026
635.621	0.0162481
635.699	0.0162656
635.777	0.0161699
635.855	0.0162051
635.933	0.0163081
636.011	0.0163023
636.090	0.0161921
636.168	0.0161095
636.246	0.0161610
636.324	0.0161292
636.402	0.0162085
636.480	0.0161412
636.558	0.0161717
636.636	0.0161539
636.715	0.0162295
636.793	0.0160708
636.871	0.0160519
636.949	0.0160679
637.027	0.0162540
637.105	0.0162805
637.183	0.0162870
637.261	0.0162708
637.340	0.0162350
637.418	0.0160927
637.496	0.0159551
637.574	0.0161662
637.652	0.0162601
637.730	0.0161924
637.808	0.0162212
637.886	0.0161977
637.965	0.0162213
638.043	0.0161707
638.121	0.0162819
638.199	0.0163146
638.277	0.0163033
638.355	0.0161788
638.433	0.0162692
638.511	0.0162659
638.590	0.0161467
638.668	0.0162816
638.746	0.0161587
638.824	0.0161453
638.902	0.0161517
638.980	0.0162515
639.058	0.0161671
639.136	0.0162435
639.215	0.0163103
639.293	0.0162166
639.371	0.0160806
639.449	0.0160797
639.527	0.0162978
639.605	0.0162007
639.683	0.0163589
639.761	0.0161340
639.840	0.0161524
639.918	0.0162474
639.996	0.0160287
640.074	0.0160468
640.152	0.0161660
640.230	0.0161197
640.308	0.0161298
640.386	0.0161459
640.465	0.0162792
640.543	0.0161752
640.621	0.0161012
640.699	0.0161554
640.777	0.0163402
640.855	0.0160785
640.933	0.0161864
641.011	0.0162099
641.090	0.0161273
641.168	0.0160983
641.246	0.0163017
641.324	0.0161298
641.402	0.0161414
641.480	0.0160854
641.558	0.0161099
641.636	0.0162368
641.715	0.0161447
641.793	0.0160335
641.871	0.0161060
641.949	0.0161264
642.027	0.0162022
642.105	0.0161946
642.183	0.0162678
642.261	0.0161897
642.340	0.0159917
642.418	0.0161152
642.496	0.0162783
642.574	0.0161323
642.652	0.0160675
642.730	0.0162757
642.808	0.0162051
642.886	0.0162370
642.965	0.0161938
643.043	0.0160883
643.121	0.0162077
643.199	0.0161821
643.277	0.0161923
643.355	0.0161752
643.433	0.0161052
643.511	0.0160766
643.590	0.0162222
643.668	0.0162772
643.746	0.0162188
643.824	0.0162270
643.902	0.0162062
643.980	0.0162395
644.058	0.0161269
644.136	0.0161761
644.215	0.0161700
644.293	0.0161832
644.371	0.0162730
644.449	0.0163184
644.527	0.0161102
644.605	0.0162531
644.683	0.0161722
644.761	0.0161111
644.840	0.0160933
644.918	0.0160974
644.996	0.0162411
645.074	0.0162382
645.152	0.0161844
645.230	0.0161721
645.308	0.0161690
645.386	0.0161698
645.465	0.0161017
645.543	0.0162383
645.621	0.0162268
645.699	0.0161769
645.777	0.0162249
645.855	0.0161340
645.933	0.0161271
646.011	0.0163284
646.090	0.0161480
646.168	0.0162009
646.246	0.0162325
646.324	0.0161330
646.402	0.0162091
646.480	0.0160204
646.558	0.0160806
646.636	0.0161346
646.715	0.0163649
646.793	0.0161669
646.871	0.0161449
646.949	0.0161201
647.027	0.0160696
647.105	0.0162500
647.183	0.0162331
647.261	0.0160909
647.340	0.0161473
647.418	0.0163216
647.496	0.0161729
647.574	0.0161687
647.652	0.0162132
647.730	0.0161608
647.808	0.0161919
647.886	0.0162698
647.965	0.0161247
648.043	0.0161890
648.121	0.0161902
648.199	0.0162499
648.277	0.0160532
648.355	0.0161344
648.433	0.0162302
648.511	0.0161404
648.590	0.0162323
648.668	0.0161826
648.746	0.0161303
648.824	0.0162076
648.902	0.0161491
648.980	0.0162132
649.058	0.0161257
649.136	0.0160758
649.215	0.0161699
649.293	0.0162747
649.371	0.0160952
649.449	0.0161023
649.527	0.0161205
649.605	0.0162689
649.683	0.0161443
649.761	0.0161854
649.840	0.0161649
649.918	0.0162982
649.996	0.0161163
650.074	0.0161774
650.152	0.0161800
650.230	0.0161163
650.308	0.0161407
650.386	0.0160963
650.465	0.0163846
650.543	0.0161599
650.621	0.0162808
650.699	0.0161672
650.777	0.0161604
650.855	0.0162321
650.933	0.0162059
651.011	0.0161575
651.090	0.0161088
651.168	0.0161648
651.246	0.0161714
651.324	0.0161596
651.402	0.0161253
651.480	0.0161091
651.558	0.0161298
651.636	0.0162471
651.715	0.0160910
651.793	0.0162521
651.871	0.0163288
651.949	0.0161189
652.027	0.0160394
652.105	0.0162269
652.183	0.0162502
652.261	0.0161878
652.340	0.0161395
652.418	0.0161230
652.496	0.0162812
652.574	0.0162910
652.652	0.0160575
652.730	0.0161987
652.808	0.0161189
652.886	0.0161460
652.965	0.0161232
653.043	0.0161400
653.121	0.0161207
653.199	0.0161843
653.277	0.0161327
653.355	0.0162157
653.433	0.0162301
653.511	0.0161919
653.590	0.0161882
653.668	0.0161866
653.746	0.0160123
653.824	0.0160600
653.902	0.0161401
653.980	0.0162901
654.058	0.0162474
654.136	0.0162287
654.215	0.0161404
654.293	0.0161908
654.371	0.0161157
654.449	0.0161292
654.527	0.0161836
654.605	0.0161653
654.683	0.0161556
654.761	0.0161025
654.840	0.0161436
654.918	0.0161452
654.996	0.0162768
655.074	0.0162997
655.152	0.0161147
655.230	0.0161633
655.308	0.0161616
655.386	0.0162526
655.465	0.0160710
655.543	0.0162144
655.621	0.0161697
655.699	0.0161388
655.777	0.0161703
655.855	0.0162646
655.933	0.0163078
656.011	0.0161832
656.090	0.0160480
656.168	0.0161636
656.246	0.0162707
656.324	0.0161977
656.402	0.0162064
656.480	0.0161208
656.558	0.0161859
656.636	0.0162646
656.715	0.0162774
656.793	0.0160842
656.871	0.0161610
656.949	0.0162752
657.027	0.0161538
657.105	0.0161913
657.183	0.0163370
657.261	0.0162362
657.340	0.0160847
657.418	0.0161987
657.496	0.0162241
657.574	0.0161587
657.652	0.0161253
657.730	0.0162587
657.808	0.0162242
657.886	0.0161504
657.965	0.0162158
658.043	0.0161076
658.121	0.0161822
658.199	0.0160793
658.277	0.0161359
658.355	0.0162472
658.433	0.0161143
658.511	0.0162505
658.590	0.0161549
658.668	0.0161473
658.746	0.0162265
658.824	0.0162922
658.902	0.0161948
658.980	0.0162156
659.058	0.0160920
659.136	0.0162802
659.215	0.0161169
659.293	0.0162710
659.371	0.0161487
659.449	0.0161331
659.527	0.0161772
659.605	0.0161913
659.683	0.0162644
659.761	0.0162149
659.840	0.0162217
659.918	0.0163073
659.996	0.0161748
660.074	0.0163185
660.152	0.0162315
660.230	0.0162701
660.308	0.0161796
660.386	0.0162286
660.465	0.0162170
660.543	0.0163110
660.621	0.0162754
660.699	0.0161563
660.777	0.0161516
660.855	0.0162084
660.933	0.0162589
661.011	0.0161945
661.090	0.0162946
661.168	0.0163191
661.246	0.0161038
661.324	0.0162664
661.402	0.0162843
661.480	0.0161339
661.558	0.0162788
661.636	0.0164385
661.715	0.0162341
661.793	0.0161162
661.871	0.0161893
661.949	0.0163061
662.027	0.0162244
662.105	0.0161566
662.183	0.0161668
662.261	0.0164036
662.340	0.0161790
662.418	0.0160532
662.496	0.0160542
662.574	0.0161213
662.652	0.0160818
662.730	0.0163101
662.808	0.0161517
662.886	0.0161921
662.965	0.0161588
663.043	0.0162068
663.121	0.0161646
663.199	0.0159955
663.277	0.0160623
663.355	0.0162103
663.433	0.0161152
663.511	0.0161247
663.590	0.0161275
663.668	0.0161600
663.746	0.0161474
663.824	0.0162334
663.902	0.0162068
663.980	0.0162626
664.058	0.0161478
664.136	0.0161951
664.215	0.0161739
664.293	0.0160557
664.371	0.0161565
664.449	0.0162292
664.527	0.0161395
664.605	0.0162227
664.683	0.0161105
664.761	0.0161040
664.840	0.0161255
664.918	0.0161186
664.996	0.0161369
665.074	0.0161180
665.152	0.0161387
665.230	0.0162658
665.308	0.0161692
665.386	0.0162933
665.465	0.0162997
665.543	0.0161758
665.621	0.0161293
665.699	0.0161177
665.777	0.0161639
665.855	0.0161781
665.933	0.0162086
666.011	0.0161393
666.090	0.0161334
666.168	0.0161437
666.246	0.0162125
666.324	0.0162091
666.402	0.0162232
666.480	0.0162125
666.558	0.0161983
666.636	0.0161796
666.715	0.0161854
666.793	0.0162200
666.871	0.0162102
666.949	0.0162440
667.027	0.0161752
667.105	0.0162210
667.183	0.0162894
667.261	0.0162923
667.340	0.0161858
667.418	0.0161158
667.496	0.0162710
667.574	0.0162399
667.652	0.0162153
667.730	0.0162504
667.808	0.0161632
667.886	0.0162470
667.965	0.0162440
668.043	0.0164354
668.121	0.0161678
668.199	0.0161678
668.277	0.0161707
668.355	0.0161554
668.433	0.0162652
668.511	0.0161652
668.590	0.0161540
668.668	0.0163442
668.746	0.0161096
668.824	0.0160075
668.902	0.0161705
668.980	0.0162006
669.058	0.0162142
669.136	0.0161810
669.215	0.0160959
669.293	0.0160361
669.371	0.0160236
669.449	0.0161302
669.527	0.0158952
669.605	0.0161533
669.683	0.0162225
669.761	0.0161346
669.840	0.0161037
669.918	0.0161182
669.996	0.0162624
670.074	0.0161320
670.152	0.0161291
670.230	0.0161288
670.308	0.0163646
670.386	0.0163364
670.465	0.0161673
670.543	0.0162429
670.621	0.0162968
670.699	0.0162804
670.777	0.0161832
670.855	0.0162185
670.933	0.0161133
671.011	0.0163407
671.090	0.0162582
671.168	0.0162399
671.246	0.0162366
671.324	0.0162683
671.402	0.0161325
671.480	0.0161312
671.558	0.0161086
671.636	0.0162173
671.715	0.0162604
671.793	0.0162077
671.871	0.0161466
671.949	0.0162306
672.027	0.0162541
672.105	0.0163308
672.183	0.0161656
672.261	0.0160783
672.340	0.0162968
672.418	0.0162017
672.496	0.0161649
672.574	0.0162893
672.652	0.0161882
672.730	0.0161790
672.808	0.0161930
672.886	0.0161952
672.965	0.0160262
673.043	0.0162825
673.121	0.0161509
673.199	0.0160770
673.277	0.0162242
673.355	0.0161639
673.433	0.0162769
673.511	0.0162305
673.590	0.0162309
673.668	0.0162008
673.746	0.0161716
673.824	0.0161385
673.902	0.0163433
673.980	0.0161196
674.058	0.0160749
674.136	0.0160829
674.215	0.0162572
674.293	0.0161903
674.371	0.0161175
674.449	0.0162444
674.527	0.0160218
674.605	0.0161346
674.683	0.0161121
674.761	0.0162513
674.840	0.0163265
674.918	0.0162710
674.996	0.0161398
675.074	0.0161896
675.152	0.0162172
675.230	0.0162890
675.308	0.0163036
675.386	0.0161317
675.465	0.0162337
675.543	0.0160585
675.621	0.0160833
675.699	0.0162068
675.777	0.0162483
675.855	0.0162235
675.933	0.0162244
676.011	0.0161208
676.090	0.0162083
676.168	0.0161904
676.246	0.0161472
676.324	0.0162109
676.402	0.0162327
676.480	0.0161182
676.558	0.0160704
676.636	0.0162030
676.715	0.0162748
676.793	0.0162015
676.871	0.0161079
676.949	0.0162020
677.027	0.0161067
677.105	0.0161527
677.183	0.0162521
677.261	0.0160844
677.340	0.0162729
677.418	0.0161798
677.496	0.0162709
677.574	0.0162730
677.652	0.0162727
677.730	0.0163343
677.808	0.0162447
677.886	0.0163097
677.965	0.0163148
678.043	0.0162432
678.121	0.0161048
678.199	0.0159952
678.277	0.0161224
678.355	0.0161916
678.433	0.0160495
678.511	0.0161249
678.590	0.0161042
678.668	0.0162785
678.746	0.0161944
678.824	0.0161409
678.902	0.0162688
678.980	0.0162704
679.058	0.0161787
679.136	0.0161855
679.215	0.0160844
679.293	0.0161576
679.371	0.0163011
679.449	0.0162847
679.527	0.0161990
679.605	0.0161623
679.683	0.0161763
679.761	0.0161208
679.840	0.0160455
679.918	0.0161259
679.996	0.0160246
680.074	0.0160308
680.152	0.0159525
680.230	0.0160801
680.308	0.0160175
680.386	0.0160163
680.465	0.0162056
680.543	0.0162894
680.621	0.0163024
680.699	0.0162218
680.777	0.0161690
680.855	0.0161379
680.933	0.0162861
681.011	0.0162305
681.090	0.0162471
681.168	0.0162641
681.246	0.0161533
681.324	0.0160088
681.402	0.0162842
681.480	0.0161600
681.558	0.0160905
681.636	0.0160714
681.715	0.0162807
681.793	0.0160730
681.871	0.0161959
681.949	0.0161001
682.027	0.0159469
682.105	0.0161516
682.183	0.0162380
682.261	0.0161216
682.340	0.0162106
682.418	0.0160717
682.496	0.0161726
682.574	0.0161736
682.652	0.0162596
682.730	0.0161726
682.808	0.0160805
682.886	0.0161778
682.965	0.0162569
683.043	0.0161597
683.121	0.0162273
683.199	0.0162061
683.277	0.0161930
683.355	0.0162033
683.433	0.0162716
683.511	0.0161697
683.590	0.0159641
683.668	0.0160465
683.746	0.0161614
683.824	0.0162568
683.902	0.0163079
683.980	0.0160944
684.058	0.0160200
684.136	0.0162296
684.215	0.0162224
684.293	0.0160087
684.371	0.0162534
684.449	0.0162119
684.527	0.0161043
684.605	0.0162690
684.683	0.0162276
684.761	0.0161552
684.840	0.0160743
684.918	0.0162183
684.996	0.0161899
685.074	0.0160815
685.152	0.0162782
685.230	0.0162051
685.308	0.0161692
685.386	0.0161079
685.465	0.0160475
685.543	0.0162703
685.621	0.0162495
685.699	0.0161671
685.777	0.0163472
685.855	0.0163006
685.933	0.0162575
686.011	0.0162580
686.090	0.0161801
686.168	0.0160865
686.246	0.0160817
686.324	0.0160984
686.402	0.0161148
686.480	0.0161542
686.558	0.0160262
686.636	0.0161517
686.715	0.0161702
686.793	0.0162199
686.871	0.0162010
686.949	0.0160989
687.027	0.0162437
687.105	0.0162908
687.183	0.0162889
687.261	0.0163570
687.340	0.0162242
687.418	0.0162739
687.496	0.0161669
687.574	0.0161037
687.652	0.0161297
687.730	0.0163575
687.808	0.0161541
687.886	0.0162190
687.965	0.0162270
688.043	0.0162136
688.121	0.0162341
688.199	0.0162642
688.277	0.0161700
688.355	0.0160755
688.433	0.0162117
688.511	0.0163374
688.590	0.0162578
688.668	0.0162201
688.746	0.0161774
688.824	0.0161584
688.902	0.0162502
688.980	0.0161784
689.058	0.0162342
689.136	0.0161493
689.215	0.0162310
689.293	0.0161961
689.371	0.0162043
689.449	0.0162958
689.527	0.0162217
689.605	0.0162508
689.683	0.0162723
689.761	0.0161639
689.840	0.0160919
689.918	0.0162207
689.996	0.0162637
690.074	0.0161534
690.152	0.0161526
690.230	0.0161288
690.308	0.0161512
690.386	0.0160358
690.465	0.0160323
690.543	0.0162318
690.621	0.0161755
690.699	0.0161350
690.777	0.0162524
690.855	0.0162756
690.933	0.0162784
691.011	0.0160979
691.090	0.0163096
691.168	0.0162833
691.246	0.0161637
691.324	0.0161215
691.402	0.0162418
691.480	0.0161814
691.558	0.0162467
691.636	0.0161506
691.715	0.0161442
691.793	0.0161475
691.871	0.0160583
691.949	0.0160342
692.027	0.0161124
692.105	0.0160362
692.183	0.0160828
692.261	0.0160004
692.340	0.0161570
692.418	0.0161372
692.496	0.0161052
692.574	0.0161154
692.652	0.0160316
692.730	0.0162076
692.808	0.0162625
692.886	0.0161791
692.965	0.0162220
693.043	0.0163824
693.121	0.0162951
693.199	0.0161504
693.277	0.0162035
693.355	0.0162402
693.433	0.0160957
693.511	0.0161183
693.590	0.0161780
693.668	0.0161420
693.746	0.0162183
693.824	0.0161086
693.902	0.0161878
693.980	0.0161301
694.058	0.0161585
694.136	0.0161418
694.215	0.0161958
694.293	0.0160627
694.371	0.0162472
694.449	0.0162606
694.527	0.0162399
694.605	0.0162527
694.683	0.0163421
694.761	0.0162753
694.840	0.0162234
694.918	0.0161417
694.996	0.0160769
695.074	0.0163918
695.152	0.0161874
695.230	0.0161241
695.308	0.0161576
695.386	0.0162070
695.465	0.0161043
695.543	0.0161652
695.621	0.0160686
695.699	0.0160578
695.777	0.0161318
695.855	0.0160471
695.933	0.0159978
696.011	0.0161529
696.090	0.0161196
696.168	0.0159705
696.246	0.0161105
696.324	0.0160395
696.402	0.0161439
696.480	0.0160703
696.558	0.0160529
696.636	0.0160012
696.715	0.0161462
696.793	0.0162029
696.871	0.0160976
696.949	0.0161816
697.027	0.0161179
697.105	0.0162681
697.183	0.0161316
697.261	0.0160680
697.340	0.0162047
697.418	0.0162904
697.496	0.0161655
697.574	0.0161864
697.652	0.0161563
697.730	0.0162471
697.808	0.0162325
697.886	0.0162415
697.965	0.0161929
698.043	0.0162362
698.121	0.0164075
698.199	0.0162544
698.277	0.0161624
698.355	0.0162626
698.433	0.0163074
698.511	0.0163422
698.590	0.0161452
698.668	0.0161333
698.746	0.0162329
698.824	0.0161521
698.902	0.0163375
698.980	0.0160562
699.058	0.0161042
699.136	0.0161282
699.215	0.0162186
699.293	0.0160818
699.371	0.0161398
699.449	0.0162797
699.527	0.0162704
699.605	0.0161909
699.683	0.0162048
699.761	0.0162814
699.840	0.0163169
699.918	0.0161229
699.996	0.0162116
700.074	0.0162621
700.152	0.0162137
700.230	0.0161757
700.308	0.0160727
700.386	0.0160738
700.465	0.0161556
700.543	0.0161301
700.621	0.0161523
700.699	0.0160651
700.777	0.0161437
700.855	0.0162380
700.933	0.0160901
701.011	0.0162881
701.090	0.0162888
701.168	0.0162376
701.246	0.0163452
701.324	0.0162805
701.402	0.0162444
701.480	0.0162305
701.558	0.0162798
701.636	0.0161237
701.715	0.0161626
701.793	0.0161106
701.871	0.0159547
701.949	0.0161655
702.027	0.0161403
702.105	0.0158989
702.183	0.0160983
702.261	0.0161982
702.340	0.0159528
702.418	0.0161359
702.496	0.0162054
702.574	0.0161160
702.652	0.0160104
702.730	0.0161958
702.808	0.0159991
702.886	0.0160006
702.965	0.0161891
703.043	0.0162737
703.121	0.0162207
703.199	0.0161212
703.277	0.0161753
703.355	0.0162349
703.433	0.0161385
703.511	0.0161949
703.590	0.0161179
703.668	0.0162709
703.746	0.0163010
703.824	0.0163058
703.902	0.0163811
703.980	0.0162724
704.058	0.0163828
704.136	0.0162905
704.215	0.0162305
704.293	0.0163446
704.371	0.0162659
704.449	0.0162890
704.527	0.0162923
704.605	0.0162289
704.683	0.0161146
704.761	0.0162599
704.840	0.0163128
704.918	0.0162140
704.996	0.0162285
705.074	0.0161805
705.152	0.0162592
705.230	0.0160872
705.308	0.0161246
705.386	0.0161538
705.465	0.0160744
705.543	0.0161485
705.621	0.0161572
705.699	0.0162135
705.777	0.0161643
705.855	0.0162254
705.933	0.0161193
706.011	0.0162090
706.090	0.0161670
706.168	0.0160445
706.246	0.0161974
706.324	0.0159975
706.402	0.0159063
706.480	0.0161474
706.558	0.0161454
706.636	0.0159823
706.715	0.0158781
706.793	0.0158752
706.871	0.0159743
706.949	0.0158403
707.027	0.0160139
707.105	0.0160874
707.183	0.0158595
707.261	0.0160004
707.340	0.0161809
707.418	0.0161678
707.496	0.0161956
707.574	0.0161438
707.652	0.0162330
707.730	0.0161609
707.808	0.0163682
707.886	0.0162609
707.965	0.0161446
708.043	0.0162672
708.121	0.0162061
708.199	0.0161674
708.277	0.0162462
708.355	0.0161582
708.433	0.0161923
708.511	0.0161287
708.590	0.0160638
708.668	0.0162241
708.746	0.0161855
708.824	0.0162383
708.902	0.0162065
708.980	0.0162880
709.058	0.0163898
709.136	0.0163757
709.215	0.0164531
709.293	0.0164027
709.371	0.0164146
709.449	0.0166068
709.527	0.0165313
709.605	0.0164825
709.683	0.0165612
709.761	0.0165173
709.840	0.0164268
709.918	0.0165000
709.996	0.0164497
710.074	0.0163334
710.152	0.0162462
710.230	0.0162431
710.308	0.0160977
710.386	0.0161176
710.465	0.0160890
710.543	0.0161539
710.621	0.0160381
710.699	0.0159258
710.777	0.0160016
710.855	0.0160078
710.933	0.0159243
711.011	0.0158928
711.090	0.0158405
711.168	0.0159393
711.246	0.0160387
711.324	0.0160017
711.402	0.0160636
711.480	0.0159979
711.558	0.0161430
711.636	0.0161835
711.715	0.0161949
711.793	0.0162215
711.871	0.0163506
711.949	0.0160548
712.027	0.0161391
712.105	0.0163924
712.183	0.0162395
712.261	0.0163980
712.340	0.0163004
712.418	0.0162999
712.496	0.0162328
712.574	0.0162949
712.652	0.0164130
712.730	0.0162442
712.808	0.0160882
712.886	0.0161660
712.965	0.0162138
713.043	0.0163148
713.121	0.0162408
713.199	0.0161338
713.277	0.0161710
713.355	0.0161996
713.433	0.0162204
713.511	0.0161127
713.590	0.0162764
713.668	0.0163259
713.746	0.0161440
713.824	0.0162452
713.902	0.0161298
713.980	0.0160662
714.058	0.0161755
714.136	0.0162335
714.215	0.0161356
714.293	0.0160280
714.371	0.0162565
714.449	0.0162411
714.527	0.0160740
714.605	0.0162178
714.683	0.0162741
714.761	0.0161118
714.840	0.0162003
714.918	0.0160897
714.996	0.0161607
715.074	0.0161797
715.152	0.0162236
715.230	0.0162098
715.308	0.0163271
715.386	0.0162009
715.465	0.0161915
715.543	0.0162894
715.621	0.0161200
715.699	0.0161877
715.777	0.0162102
715.855	0.0161656
715.933	0.0162488
716.011	0.0161649
716.090	0.0162584
716.168	0.0161758
716.246	0.0161720
716.324	0.0163335
716.402	0.0162047
716.480	0.0162125
716.558	0.0163786
716.636	0.0162533
716.715	0.0162497
716.793	0.0164127
716.871	0.0161405
716.949	0.0161987
717.027	0.0163198
717.105	0.0163117
717.183	0.0162426
717.261	0.0160897
717.340	0.0161530
717.418	0.0161996
717.496	0.0160733
717.574	0.0161536
717.652	0.0160083
717.730	0.0159607
717.808	0.0161689
717.886	0.0163254
717.965	0.0161921
718.043	0.0161699
718.121	0.0161909
718.199	0.0162076
718.277	0.0163493
718.355	0.0162722
718.433	0.0163375
718.511	0.0165102
718.590	0.0163802
718.668	0.0164515
718.746	0.0164253
718.824	0.0163129
718.902	0.0163700
718.980	0.0164300
719.058	0.0163911
719.136	0.0163377
719.215	0.0164704
719.293	0.0163031
719.371	0.0162172
719.449	0.0162439
719.527	0.0162581
719.605	0.0162856
719.683	0.0162136
719.761	0.0160168
719.840	0.0160435
719.918	0.0159704
719.996	0.0160911
720.074	0.0159538
720.152	0.0160114
720.230	0.0159968
720.308	0.0160861
720.386	0.0159245
720.465	0.0159703
720.543	0.0159826
720.621	0.0161092
720.699	0.0160653
720.777	0.0161071
720.855	0.0160639
720.933	0.0160141
721.011	0.0159306
721.090	0.0160390
721.168	0.0161394
721.246	0.0160062
721.324	0.0161530
721.402	0.0158972
721.480	0.0160943
721.558	0.0161880
721.636	0.0161882
721.715	0.0161800
721.793	0.0161916
721.871	0.0162697
721.949	0.0162670
722.027	0.0162190
722.105	0.0163400
722.183	0.0163745
722.261	0.0165736
722.340	0.0164500
722.418	0.0164210
722.496	0.0163653
722.574	0.0163673
722.652	0.0162389
722.730	0.0162770
722.808	0.0163371
722.886	0.0162903
722.965	0.0163130
723.043	0.0162080
723.121	0.0162419
723.199	0.0162517
723.277	0.0160916
723.355	0.0161607
723.433	0.0160400
723.511	0.0160428
723.590	0.0160181
723.668	0.0160682
723.746	0.0160706
723.824	0.0160912
723.902	0.0161716
723.980	0.0161062
724.058	0.0160478
724.136	0.0159512
724.215	0.0161475
724.293	0.0161927
724.371	0.0162482
724.449	0.0161819
724.527	0.0162473
724.605	0.0162353
724.683	0.0162392
724.761	0.0163552
724.840	0.0164616
724.918	0.0165745
724.996	0.0167336
725.074	0.0166198
725.152	0.0165926
725.230	0.0165846
725.308	0.0166895
725.386	0.0166237
725.465	0.0164954
725.543	0.0165610
725.621	0.0165590
725.699	0.0165335
725.777	0.0164722
725.855	0.0163967
725.933	0.0162637
726.011	0.0162605
726.090	0.0161644
726.168	0.0162175
726.246	0.0161854
726.324	0.0160325
726.402	0.0160746
726.480	0.0160165
726.558	0.0158903
726.636	0.0158350
726.715	0.0158954
726.793	0.0157517
726.871	0.0157114
726.949	0.0157539
727.027	0.0157082
727.105	0.0158829
727.183	0.0157071
727.261	0.0158126
727.340	0.0157915
727.418	0.0158683
727.496	0.0160688
727.574	0.0159196
727.652	0.0160641
727.730	0.0161372
727.808	0.0160754
727.886	0.0162608
727.965	0.0164594
728.043	0.0163002
728.121	0.0162900
728.199	0.0164772
728.277	0.0164594
728.355	0.0164519
728.433	0.0164590
728.511	0.0164372
728.590	0.0164407
728.668	0.0163586
728.746	0.0162782
728.824	0.0161063
728.902	0.0161651
728.980	0.0161348
729.058	0.0159312
729.136	0.0158463
729.215	0.0158869
729.293	0.0160344
729.371	0.0159979
729.449	0.0158183
729.527	0.0158411
729.605	0.0159998
729.683	0.0158452
729.761	0.0159622
729.840	0.0158936
729.918	0.0159528
729.996	0.0160072
730.074	0.0161146
730.152	0.0160445
730.230	0.0160825
730.308	0.0161081
730.386	0.0161626
730.465	0.0162850
730.543	0.0164402
730.621	0.0164045
730.699	0.0165659
730.777	0.0165466
730.855	0.0164831
730.933	0.0166696
731.011	0.0166837
731.090	0.0167825
731.168	0.0167907
731.246	0.0167744
731.324	0.0167228
731.402	0.0166854
731.480	0.0166943
731.558	0.0168523
731.636	0.0165549
731.715	0.0164097
731.793	0.0164275
731.871	0.0164703
731.949	0.0163309
732.027	0.0162568
732.105	0.0161162
732.183	0.0160999
732.261	0.0160697
732.340	0.0159982
732.418	0.0158994
732.496	0.0159094
732.574	0.0159806
732.652	0.0158136
732.730	0.0158235
732.808	0.0158278
732.886	0.0158609
732.965	0.0158279
733.043	0.0158146
733.121	0.0160824
733.199	0.0159686
733.277	0.0159850
733.355	0.0160538
733.433	0.0161004
733.511	0.0161404
733.590	0.0161598
733.668	0.0162359
733.746	0.0163229
733.824	0.0163875
733.902	0.0163831
733.980	0.0163860
734.058	0.0164385
734.136	0.0164143
734.215	0.0165605
734.293	0.0165189
734.371	0.0165292
734.449	0.0165491
734.527	0.0163767
734.605	0.0163570
734.683	0.0164270
734.761	0.0162067
734.840	0.0160390
734.918	0.0160062
734.996	0.0161252
735.074	0.0159987
735.152	0.0159719
735.230	0.0158552
735.308	0.0157815
735.386	0.0158510
735.465	0.0158829
735.543	0.0158205
735.621	0.0160366
735.699	0.0160626
735.777	0.0160923
735.855	0.0159959
735.933	0.0161208
736.011	0.0162486
736.090	0.0163065
736.168	0.0163315
736.246	0.0166021
736.324	0.0164220
736.402	0.0164272
736.480	0.0165945
736.558	0.0164234
736.636	0.0163789
736.715	0.0163857
736.793	0.0164436
736.871	0.0162384
736.949	0.0161496
737.027	0.0161513
737.105	0.0160731
737.183	0.0160640
737.261	0.0160780
737.340	0.0160207
737.418	0.0158593
737.496	0.0158673
737.574	0.0159245
737.652	0.0159070
737.730	0.0158509
737.808	0.0160862
737.886	0.0160123
737.965	0.0159774
738.043	0.0160757
738.121	0.0160818
738.199	0.0161108
738.277	0.0160869
738.355	0.0161768
738.433	0.0161723
738.511	0.0162166
738.590	0.0162939
738.668	0.0162485
738.746	0.0162300
738.824	0.0163583
738.902	0.0163015
738.980	0.0162644
739.058	0.0162438
739.136	0.0162309
739.215	0.0162766
739.293	0.0161915
739.371	0.0162079
739.449	0.0162704
739.527	0.0162111
739.605	0.0161846
739.683	0.0161902
739.761	0.0161503
739.840	0.0161295
739.918	0.0161800
739.996	0.0161726
740.074	0.0163307
740.152	0.0163460
740.230	0.0162584
740.308	0.0163312
740.386	0.0164111
740.465	0.0164255
740.543	0.0164574
740.621	0.0164029
740.699	0.0164093
740.777	0.0163952
740.855	0.0164208
740.933	0.0163698
741.011	0.0163853
741.090	0.0165083
741.168	0.0163623
741.246	0.0162576
741.324	0.0162478
741.402	0.0163216
741.480	0.0162281
741.558	0.0161675
741.636	0.0161423
741.715	0.0159895
741.793	0.0160918
741.871	0.0160365
741.949	0.0160382
742.027	0.0160807
742.105	0.0158911
742.183	0.0159376
742.261	0.0161462
742.340	0.0161449
742.418	0.0161059
742.496	0.0160091
742.574	0.0162070
742.652	0.0162302
742.730	0.0162170
742.808	0.0162132
742.886	0.0161523
742.965	0.0163451
743.043	0.0162709
743.121	0.0161683
743.199	0.0161465
743.277	0.0162834
743.355	0.0162189
743.433	0.0162731
743.511	0.0161938
743.590	0.0161466
743.668	0.0160813
743.746	0.0163024
743.824	0.0163073
743.902	0.0161432
743.980	0.0160873
744.058	0.0161700
744.136	0.0162499
744.215	0.0161796
744.293	0.0160849
744.371	0.0161143
744.449	0.0160688
744.527	0.0159296
744.605	0.0160734
744.683	0.0160501
744.761	0.0159540
744.840	0.0159766
744.918	0.0159811
744.996	0.0158506
745.074	0.0158061
745.152	0.0158788
745.230	0.0158611
745.308	0.0159552
745.386	0.0158634
745.465	0.0159644
745.543	0.0162080
745.621	0.0159987
745.699	0.0161160
745.777	0.0161469
745.855	0.0162691
745.933	0.0162803
746.011	0.0162013
746.090	0.0162505
746.168	0.0162228
746.246	0.0162399
746.324	0.0163338
746.402	0.0163483
746.480	0.0163251
746.558	0.0162489
746.636	0.0163437
746.715	0.0163194
746.793	0.0162101
746.871	0.0163750
746.949	0.0163687
747.027	0.0163268
747.105	0.0163961
747.183	0.0162758
747.261	0.0162575
747.340	0.0163839
747.418	0.0164187
747.496	0.0163710
747.574	0.0163940
747.652	0.0165132
747.730	0.0165060
747.808	0.0166142
747.886	0.0164517
747.965	0.0165868
748.043	0.0165455
748.121	0.0166426
748.199	0.0164885
748.277	0.0164042
748.355	0.0164723
748.433	0.0163928
748.511	0.0163390
748.590	0.0163091
748.668	0.0163647
748.746	0.0163297
748.824	0.0163660
748.902	0.0161414
748.980	0.0161404
749.058	0.0160368
749.136	0.0160854
749.215	0.0159834
749.293	0.0158805
749.371	0.0159119
749.449	0.0158906
749.527	0.0158412
749.605	0.0158152
749.683	0.0159392
749.761	0.0159811
749.840	0.0160484
749.918	0.0159231
749.996	0.0159835
750.074	0.0159640
750.152	0.0159731
750.230	0.0160430
750.308	0.0160516
750.386	0.0159815
750.465	0.0161905
750.543	0.0161179
750.621	0.0160696
750.699	0.0161373
750.777	0.0162506
750.855	0.0163088
750.933	0.0162713
751.011	0.0162085
751.090	0.0162041
751.168	0.0163142
751.246	0.0161911
751.324	0.0161212
751.402	0.0161438
751.480	0.0161639
751.558	0.0162044
751.636	0.0160445
751.715	0.0160231
751.793	0.0159502
751.871	0.0160783
751.949	0.0159408
752.027	0.0159874
752.105	0.0160146
752.183	0.0159953
752.261	0.0159696
752.340	0.0157832
752.418	0.0159155
752.496	0.0159743
752.574	0.0159968
752.652	0.0159123
752.730	0.0158689
752.808	0.0160471
752.886	0.0161606
752.965	0.0162114
753.043	0.0160974
753.121	0.0162680
753.199	0.0163297
753.277	0.0161710
753.355	0.0162729
753.433	0.0163502
753.511	0.0162955
753.590	0.0163190
753.668	0.0161830
753.746	0.0163190
753.824	0.0161692
753.902	0.0164116
753.980	0.0164095
754.058	0.0163672
754.136	0.0161689
754.215	0.0162698
754.293	0.0162360
754.371	0.0160570
754.449	0.0163293
754.527	0.0163289
754.605	0.0162712
754.683	0.0162819
754.761	0.0163058
754.840	0.0163811
754.918	0.0163442
754.996	0.0164106
755.074	0.0165443
755.152	0.0165178
755.230	0.0164154
755.308	0.0164687
755.386	0.0165394
755.465	0.0164749
755.543	0.0162904
755.621	0.0164559
755.699	0.0164655
755.777	0.0164684
755.855	0.0164814
755.933	0.0163615
756.011	0.0164574
756.090	0.0163744
756.168	0.0163552
756.246	0.0164085
756.324	0.0163422
756.402	0.0164684
756.480	0.0163123
756.558	0.0162899
756.636	0.0162180
756.715	0.0162550
756.793	0.0161063
756.871	0.0160983
756.949	0.0160964
757.027	0.0159698
757.105	0.0159349
757.183	0.0158354
757.261	0.0158308
757.340	0.0159197
757.418	0.0158327
757.496	0.0157446
757.574	0.0156836
757.652	0.0158733
757.730	0.0159512
757.808	0.0158564
757.886	0.0159588
757.965	0.0159084
758.043	0.0160441
758.121	0.0160224
758.199	0.0161762
758.277	0.0163015
758.355	0.0161945
758.433	0.0162177
758.511	0.0162971
758.590	0.0162594
758.668	0.0163442
758.746	0.0164205
758.824	0.0163402
758.902	0.0164752
758.980	0.0163443
759.058	0.0164738
759.136	0.0164657
759.215	0.0164343
759.293	0.0161980
759.371	0.0161841
759.449	0.0162005
759.527	0.0160866
759.605	0.0160240
759.683	0.0160527
759.761	0.0158180
759.840	0.0156985
759.918	0.0159441
759.996	0.0157646
760.074	0.0158514
760.152	0.0157671
760.230	0.0157220
760.308	0.0156368
760.386	0.0157054
760.465	0.0158580
760.543	0.0158926
760.621	0.0158858
760.699	0.0160383
760.777	0.0160334
760.855	0.0161824
760.933	0.0161862
761.011	0.0163859
761.090	0.0163300
761.168	0.0163134
761.246	0.0162946
761.324	0.0163185
761.402	0.0161785
761.480	0.0162529
761.558	0.0163199
761.636	0.0162740
761.715	0.0163499
761.793	0.0163812
761.871	0.0163273
761.949	0.0163582
762.027	0.0162683
762.105	0.0162685
762.183	0.0161095
762.261	0.0160844
762.340	0.0161163
762.418	0.0163257
762.496	0.0161787
762.574	0.0160415
762.652	0.0162843
762.730	0.0161189
762.808	0.0161846
762.886	0.0164157
762.965	0.0163732
763.043	0.0162132
763.121	0.0162277
763.199	0.0163103
763.277	0.0163966
763.355	0.0163036
763.433	0.0163096
763.511	0.0164986
763.590	0.0164385
763.668	0.0166243
763.746	0.0165120
763.824	0.0165895
763.902	0.0165505
763.980	0.0166242
764.058	0.0165964
764.136	0.0166150
764.215	0.0167102
764.293	0.0166096
764.371	0.0165016
764.449	0.0165548
764.527	0.0164042
764.605	0.0161362
764.683	0.0162514
764.761	0.0159995
764.840	0.0161181
764.918	0.0160402
764.996	0.0158698
765.074	0.0158179
765.152	0.0158306
765.230	0.0158421
765.308	0.0157028
765.386	0.0157333
765.465	0.0156500
765.543	0.0155704
765.621	0.0156311
765.699	0.0154932
765.777	0.0156815
765.855	0.0157047
765.933	0.0157175
766.011	0.0158979
766.090	0.0159187
766.168	0.0158389
766.246	0.0160262
766.324	0.0160144
766.402	0.0160534
766.480	0.0159975
766.558	0.0160464
766.636	0.0163153
766.715	0.0162481
766.793	0.0161978
766.871	0.0161823
766.949	0.0163701
767.027	0.0163249
767.105	0.0162954
767.183	0.0162139
767.261	0.0162274
767.340	0.0162379
767.418	0.0160953
767.496	0.0161622
767.574	0.0160772
767.652	0.0159851
767.730	0.0160310
767.808	0.0159827
767.886	0.0161057
767.965	0.0160831
768.043	0.0158406
768.121	0.0159138
768.199	0.0160306
768.277	0.0161178
768.355	0.0161243
768.433	0.0161602
768.511	0.0162415
768.590	0.0163216
768.668	0.0162224
768.746	0.0162542
768.824	0.0164188
768.902	0.0160342
768.980	0.0163038
769.058	0.0163184
769.136	0.0161548
769.215	0.0161631
769.293	0.0163076
769.371	0.0162009
769.449	0.0163821
769.527	0.0161652
769.605	0.0162361
769.683	0.0162398
769.761	0.0161340
769.840	0.0162762
769.918	0.0161926
769.996	0.0160796
770.074	0.0161897
770.152	0.0162560
770.230	0.0161662
770.308	0.0162416
770.386	0.0161064
770.465	0.0161644
770.543	0.0160781
770.621	0.0161845
770.699	0.0161957
770.777	0.0162422
770.855	0.0163121
770.933	0.0162041
771.011	0.0162681
771.090	0.0162055
771.168	0.0162923
771.246	0.0163573
771.324	0.0163384
771.402	0.0163572
771.480	0.0163856
771.558	0.0166766
771.636	0.0164300
771.715	0.0166299
771.793	0.0166928
771.871	0.0166888
771.949	0.0165987
772.027	0.0166185
772.105	0.0166665
772.183	0.0167007
772.261	0.0166946
772.340	0.0165025
772.418	0.0163773
772.496	0.0164351
772.574	0.0163512
772.652	0.0164040
772.730	0.0161720
772.808	0.0161283
772.886	0.0158887
772.965	0.0159076
773.043	0.0158181
773.121	0.0157889
773.199	0.0157667
773.277	0.0155115
773.355	0.0155502
773.433	0.0155361
773.511	0.0154243
773.590	0.0154498
773.668	0.0155978
773.746	0.0155756
773.824	0.0156390
773.902	0.0157337
773.980	0.0158051
774.058	0.0156921
774.136	0.0158118
774.215	0.0158685
774.293	0.0161228
774.371	0.0162200
774.449	0.0163782
774.527	0.0163822
774.605	0.0163618
774.683	0.0163634
774.761	0.0165166
774.840	0.0164978
774.918	0.0164954
774.996	0.0165975
775.074	0.0165418
775.152	0.0166225
775.230	0.0166374
775.308	0.0165164
775.386	0.0165484
775.465	0.0164037
775.543	0.0164766
775.621	0.0163924
775.699	0.0162396
775.777	0.0162829
775.855	0.0162740
775.933	0.0161843
776.011	0.0162130
776.090	0.0160815
776.168	0.0160326
776.246	0.0159135
776.324	0.0160689
776.402	0.0160329
776.480	0.0159907
776.558	0.0159856
776.636	0.0160343
776.715	0.0159783
776.793	0.0160828
776.871	0.0162504
776.949	0.0161877
777.027	0.0161327
777.105	0.0162570
777.183	0.0163956
777.261	0.0161667
777.340	0.0163804
777.418	0.0164323
777.496	0.0162588
777.574	0.0163803
777.652	0.0162933
777.730	0.0161698
777.808	0.0162236
777.886	0.0163103
777.965	0.0162103
778.043	0.0161089
778.121	0.0160922
778.199	0.0162294
778.277	0.0161065
778.355	0.0162873
778.433	0.0161404
778.511	0.0160711
778.590	0.0161004
778.668	0.0161096
778.746	0.0163474
778.824	0.0162069
778.902	0.0163293
778.980	0.0163920
779.058	0.0163790
779.136	0.0164111
779.215	0.0163808
779.293	0.0163569
779.371	0.0164669
779.449	0.0163966
779.527	0.0164227
779.605	0.0165705
779.683	0.0166079
779.761	0.0163987
779.840	0.0165522
779.918	0.0165205
779.996	0.0166831
780.074	0.0165774
780.152	0.0165102
780.230	0.0163946
780.308	0.0164458
780.386	0.0163984
780.465	0.0163619
780.543	0.0163251
780.621	0.0163140
780.699	0.0161159
780.777	0.0161079
780.855	0.0160622
780.933	0.0157764
781.011	0.0156677
781.090	0.0157114
781.168	0.0156952
781.246	0.0156426
781.324	0.0156367
781.402	0.0154978
781.480	0.0154557
781.558	0.0153893
781.636	0.0154353
781.715	0.0154510
781.793	0.0156182
781.871	0.0157261
781.949	0.0157022
782.027	0.0157000
782.105	0.0158434
782.183	0.0159434
782.261	0.0159763
782.340	0.0159466
782.418	0.0160820
782.496	0.0162767
782.574	0.0163924
782.652	0.0163384
782.730	0.0165528
782.808	0.0165406
782.886	0.0165149
782.965	0.0165101
783.043	0.0165198
783.121	0.0165381
783.199	0.0165041
783.277	0.0165223
783.355	0.0164222
783.433	0.0163992
783.511	0.0163949
783.590	0.0165569
783.668	0.0161903
783.746	0.0162650
783.824	0.0162419
783.902	0.0160850
783.980	0.0160296
784.058	0.0160964
784.136	0.0160305
784.215	0.0159964
784.293	0.0159167
784.371	0.0159077
784.449	0.0160755
784.527	0.0158955
784.605	0.0160876
784.683	0.0159875
784.761	0.0160287
784.840	0.0161322
784.918	0.0162259
784.996	0.0161390
785.074	0.0162195
785.152	0.0163359
785.230	0.0161552
785.308	0.0164059
785.386	0.0162965
785.465	0.0164960
785.543	0.0165785
785.621	0.0165354
785.699	0.0165557
785.777	0.0165501
785.855	0.0165939
785.933	0.0166011
786.011	0.0164919
786.090	0.0164796
786.168	0.0163486
786.246	0.0164162
786.324	0.0162604
786.402	0.0160438
786.480	0.0160831
786.558	0.0160323
786.636	0.0159837
786.715	0.0158478
786.793	0.0158331
786.871	0.0159457
786.949	0.0159328
787.027	0.0158500
787.105	0.0159438
787.183	0.0160046
787.261	0.0161330
787.340	0.0160694
787.418	0.0160718
787.496	0.0163167
787.574	0.0164907
787.652	0.0164769
787.730	0.0165232
787.808	0.0165225
787.886	0.0166776
787.965	0.0165923
788.043	0.0166415
788.121	0.0167806
788.199	0.0167399
788.277	0.0165907
788.355	0.0165041
788.433	0.0163940
788.511	0.0163902
788.590	0.0162247
788.668	0.0162102
788.746	0.0162090
788.824	0.0159650
788.902	0.0158324
788.980	0.0157742
789.058	0.0156744
789.136	0.0157362
789.215	0.0155455
789.293	0.0154099
789.371	0.0155598
789.449	0.0154144
789.527	0.0154558
789.605	0.0154745
789.683	0.0155903
789.761	0.0157083
789.840	0.0157201
789.918	0.0157941
789.996	0.0157623
790.074	0.0160220
790.152	0.0160998
790.230	0.0162509
790.308	0.0162689
790.386	0.0163287
790.465	0.0165113
790.543	0.0165872
790.621	0.0165937
790.699	0.0165392
790.777	0.0166492
790.855	0.0166069
790.933	0.0164655
791.011	0.0164211
791.090	0.0164725
791.168	0.0165076
791.246	0.0164632
791.324	0.0164777
791.402	0.0163586
791.480	0.0163009
791.558	0.0161540
791.636	0.0161406
791.715	0.0161546
791.793	0.0162101
791.871	0.0160128
791.949	0.0159486
792.027	0.0159177
792.105	0.0160201
792.183	0.0159797
792.261	0.0158941
792.340	0.0158937
792.418	0.0159005
792.496	0.0160411
792.574	0.0160497
792.652	0.0161211
792.730	0.0160845
792.808	0.0160838
792.886	0.0160769
792.965	0.0162291
793.043	0.0161913
793.121	0.0161965
793.199	0.0164970
793.277	0.0164792
793.355	0.0164729
793.433	0.0164151
793.511	0.0165242
793.590	0.0166080
793.668	0.0164751
793.746	0.0163735
793.824	0.0162699
793.902	0.0162663
793.980	0.0161984
794.058	0.0163527
794.136	0.0163043
794.215	0.0163167
794.293	0.0161385
794.371	0.0160921
794.449	0.0161149
794.527	0.0161298
794.605	0.0160803
794.683	0.0160181
794.761	0.0158553
794.840	0.0160033
794.918	0.0159840
794.996	0.0160594
795.074	0.0160448
795.152	0.0161420
795.230	0.0161977
795.308	0.0161598
795.386	0.0162308
795.465	0.0162520
795.543	0.0162315
795.621	0.0162601
795.699	0.0161859
795.777	0.0165073
795.855	0.0163460
795.933	0.0163241
796.011	0.0163701
796.090	0.0164497
796.168	0.0163976
796.246	0.0164283
796.324	0.0162869
796.402	0.0164134
796.480	0.0164551
796.558	0.0164396
796.636	0.0161698
796.715	0.0162524
796.793	0.0162866
796.871	0.0160168
796.949	0.0159800
797.027	0.0160919
797.105	0.0159982
797.183	0.0158266
797.261	0.0160020
797.340	0.0158694
797.418	0.0157363
797.496	0.0157104
797.574	0.0157053
797.652	0.0157137
797.730	0.0158725
797.808	0.0159276
797.886	0.0160838
797.965	0.0159265
798.043	0.0161311
798.121	0.0162435
798.199	0.0161890
798.277	0.0163846
798.355	0.0164658
798.433	0.0164716
798.511	0.0164455
798.590	0.0163305
798.668	0.0164562
798.746	0.0164530
798.824	0.0164275
798.902	0.0163806
798.980	0.0164742
799.058	0.0163466
799.136	0.0163389
799.215	0.0162431
799.293	0.0162938
799.371	0.0161686
799.449	0.0162350
799.527	0.0160836
799.605	0.0159990
799.683	0.0160812
799.761	0.0158859
799.840	0.0158649
799.918	0.0159473
799.996	0.0157293
800.074	0.0158524
800.152	0.0159243
800.230	0.0160052
800.308	0.0160460
800.386	0.0160159
800.465	0.0160151
800.543	0.0160115
800.621	0.0161136
800.699	0.0162186
800.777	0.0161802
800.855	0.0163342
800.933	0.0163498
801.011	0.0165112
801.090	0.0163879
801.168	0.0165144
801.246	0.0166235
801.324	0.0165396
801.402	0.0165736
801.480	0.0165510
801.558	0.0165743
801.636	0.0164516
801.715	0.0163277
801.793	0.0163678
801.871	0.0162534
801.949	0.0162716
802.027	0.0161926
802.105	0.0161231
802.183	0.0161500
802.261	0.0159610
802.340	0.0161443
802.418	0.0159225
802.496	0.0159274
802.574	0.0161549
802.652	0.0160340
802.730	0.0160590
802.808	0.0160560
802.886	0.0160379
802.965	0.0161143
803.043	0.0160246
803.121	0.0160878
803.199	0.0162488
803.277	0.0161663
803.355	0.0161707
803.433	0.0162859
803.511	0.0161196
803.590	0.0160371
803.668	0.0161275
803.746	0.0162542
803.824	0.0162313
803.902	0.0161023
803.980	0.0160674
804.058	0.0161182
804.136	0.0161409
804.215	0.0161445
804.293	0.0161960
804.371	0.0161401
804.449	0.0161376
804.527	0.0161921
804.605	0.0163132
804.683	0.0164182
804.761	0.0163998
804.840	0.0164544
804.918	0.0164990
804.996	0.0164236
805.074	0.0162953
805.152	0.0162862
805.230	0.0164927
805.308	0.0163898
805.386	0.0162239
805.465	0.0163295
805.543	0.0162172
805.621	0.0161918
805.699	0.0160601
805.777	0.0160789
805.855	0.0160493
805.933	0.0160468
806.011	0.0160523
806.090	0.0160247
806.168	0.0160656
806.246	0.0159005
806.324	0.0159022
806.402	0.0160096
806.480	0.0161980
806.558	0.0160810
806.636	0.0160526
806.715	0.0162688
806.793	0.0162959
806.871	0.0162303
806.949	0.0162926
807.027	0.0163020
807.105	0.0162640
807.183	0.0162564
807.261	0.0163403
807.340	0.0162889
807.418	0.0163375
807.496	0.0161387
807.574	0.0160862
807.652	0.0159879
807.730	0.0159842
807.808	0.0161243
807.886	0.0161352
807.965	0.0160033
808.043	0.0159582
808.121	0.0157669
808.199	0.0159955
808.277	0.0159987
808.355	0.0160498
808.433	0.0160764
808.511	0.0162033
808.590	0.0161822
808.668	0.0161776
808.746	0.0162854
808.824	0.0165181
808.902	0.0163713
808.980	0.0164153
809.058	0.0164502
809.136	0.0165511
809.215	0.0164615
809.293	0.0165589
809.371	0.0164738
809.449	0.0164194
809.527	0.0162793
809.605	0.0164401
809.683	0.0163741
809.761	0.0162546
809.840	0.0162234
809.918	0.0162456
809.996	0.0162663
810.074	0.0161235
810.152	0.0161633
810.230	0.0162492
810.308	0.0161872
810.386	0.0162212
810.465	0.0161877
810.543	0.0163940
810.621	0.0163290
810.699	0.0163785
810.777	0.0162380
810.855	0.0163425
810.933	0.0162270
811.011	0.0162246
811.090	0.0162660
811.168	0.0161565
811.246	0.0162031
811.324	0.0160991
811.402	0.0160416
811.480	0.0158744
811.558	0.0158810
811.636	0.0160100
811.715	0.0158509
811.793	0.0158049
811.871	0.0157918
811.949	0.0159227
812.027	0.0157837
812.105	0.0158220
812.183	0.0159850
812.261	0.0159948
812.340	0.0161660
812.418	0.0162257
812.496	0.0162045
812.574	0.0163964
812.652	0.0161934
812.730	0.0163168
812.808	0.0164417
812.886	0.0164075
812.965	0.0163282
813.043	0.0163214
813.121	0.0165009
813.199	0.0164648
813.277	0.0163924
813.355	0.0162708
813.433	0.0163467
813.511	0.0163463
813.590	0.0162765
813.668	0.0162357
813.746	0.0162605
813.824	0.0162255
813.902	0.0161990
813.980	0.0160452
814.058	0.0161149
814.136	0.0160679
814.215	0.0159764
814.293	0.0160508
814.371	0.0160251
814.449	0.0161139
814.527	0.0161833
814.605	0.0160416
814.683	0.0159212
814.761	0.0161356
814.840	0.0159899
814.918	0.0160075
814.996	0.0161763
815.074	0.0160320
815.152	0.0160512
815.230	0.0160172
815.308	0.0161167
815.386	0.0161076
815.465	0.0161174
815.543	0.0161555
815.621	0.0161408
815.699	0.0161858
815.777	0.0161710
815.855	0.0161974
815.933	0.0162002
816.011	0.0161916
816.090	0.0163445
816.168	0.0162969
816.246	0.0162906
816.324	0.0161852
816.402	0.0161703
816.480	0.0161857
816.558	0.0161302
816.636	0.0162395
816.715	0.0161945
816.793	0.0161707
816.871	0.0160374
816.949	0.0160342
817.027	0.0162185
817.105	0.0162206
817.183	0.0160246
817.261	0.0161365
817.340	0.0160977
817.418	0.0160594
817.496	0.0161907
817.574	0.0161202
817.652	0.0161225
817.730	0.0163336
817.808	0.0162057
817.886	0.0160618
817.965	0.0162830
818.043	0.0164254
818.121	0.0162968
818.199	0.0164017
818.277	0.0163287
818.355	0.0165433
818.433	0.0164703
818.511	0.0162459
818.590	0.0163996
818.668	0.0163084
818.746	0.0162419
818.824	0.0162663
818.902	0.0162073
818.980	0.0163001
819.058	0.0160938
819.136	0.0161862
819.215	0.0159479
819.293	0.0161349
819.371	0.0159294
819.449	0.0157602
819.527	0.0158806
819.605	0.0157779
819.683	0.0158876
819.761	0.0158220
819.840	0.0159633
819.918	0.0160741
819.996	0.0160941
820.074	0.0158611
820.152	0.0159707
820.230	0.0161016
820.308	0.0161833
820.386	0.0161733
820.465	0.0162359
820.543	0.0162493
820.621	0.0163689
820.699	0.0162914
820.777	0.0164128
820.855	0.0164304
820.933	0.0163209
821.011	0.0163501
821.090	0.0164945
821.168	0.0164839
821.246	0.0163437
821.324	0.0164236
821.402	0.0164209
821.480	0.0164330
821.558	0.0163997
821.636	0.0164243
821.715	0.0162606
821.793	0.0163614
821.871	0.0163535
821.949	0.0162816
822.027	0.0165391
822.105	0.0162948
822.183	0.0161333
822.261	0.0161496
822.340	0.0160406
822.418	0.0161404
822.496	0.0159483
822.574	0.0159393
822.652	0.0160798
822.730	0.0158354
822.808	0.0158342
822.886	0.0158007
822.965	0.0158411
823.043	0.0157969
823.121	0.0156828
823.199	0.0156803
823.277	0.0156747
823.355	0.0158754
823.433	0.0159401
823.511	0.0160009
823.590	0.0159933
823.668	0.0160329
823.746	0.0161037
823.824	0.0162521
823.902	0.0163335
823.980	0.0162260
824.058	0.0164381
824.136	0.0165301
824.215	0.0163826
824.293	0.0165022
824.371	0.0164504
824.449	0.0162735
824.527	0.0161800
824.605	0.0161655
824.683	0.0162899
824.761	0.0163004
824.840	0.0161946
824.918	0.0161179
824.996	0.0160840
825.074	0.0159895
825.152	0.0160713
825.230	0.0160798
825.308	0.0160064
825.386	0.0159357
825.465	0.0159077
825.543	0.0159629
825.621	0.0161295
825.699	0.0161575
825.777	0.0162090
825.855	0.0162259
825.933	0.0161905
826.011	0.0163706
826.090	0.0164430
826.168	0.0163240
826.246	0.0163257
826.324	0.0164108
826.402	0.0164149
826.480	0.0163386
826.558	0.0162579
826.636	0.0161823
826.715	0.0163924
826.793	0.0165183
826.871	0.0162627
826.949	0.0162792
827.027	0.0160499
827.105	0.0162167
827.183	0.0162318
827.261	0.0161025
827.340	0.0161373
827.418	0.0161752
827.496	0.0161625
827.574	0.0161266
827.652	0.0163370
827.730	0.0162023
827.808	0.0162514
827.886	0.0161416
827.965	0.0161749
828.043	0.0160573
828.121	0.0161138
828.199	0.0161291
828.277	0.0162071
828.355	0.0161101
828.433	0.0162302
828.511	0.0161327
828.590	0.0161473
828.668	0.0161361
828.746	0.0160786
828.824	0.0160677
828.902	0.0161148
828.980	0.0162393
829.058	0.0161353
829.136	0.0161371
829.215	0.0162882
829.293	0.0162630
829.371	0.0162087
829.449	0.0163423
829.527	0.0161883
829.605	0.0163079
829.683	0.0163737
829.761	0.0163789
829.840	0.0164344
829.918	0.0163922
829.996	0.0163538
830.074	0.0163164
830.152	0.0162906
830.230	0.0161726
830.308	0.0161531
830.386	0.0161461
830.465	0.0160970
830.543	0.0161423
830.621	0.0160168
830.699	0.0158466
830.777	0.0158698
830.855	0.0157542
830.933	0.0160048
831.011	0.0159303
831.090	0.0159361
831.168	0.0159086
831.246	0.0159334
831.324	0.0158706
831.402	0.0159114
831.480	0.0161491
831.558	0.0162411
831.636	0.0160802
831.715	0.0160317
831.793	0.0162415
831.871	0.0161963
831.949	0.0162852
832.027	0.0161104
832.105	0.0162742
832.183	0.0162865
832.261	0.0163832
832.340	0.0163437
832.418	0.0162876
832.496	0.0163277
832.574	0.0163688
832.652	0.0161993
832.730	0.0162360
832.808	0.0163499
832.886	0.0161475
832.965	0.0162569
833.043	0.0162554
833.121	0.0162148
833.199	0.0163528
833.277	0.0162086
833.355	0.0162550
833.433	0.0163283
833.511	0.0162771
833.590	0.0163393
833.668	0.0163123
833.746	0.0163276
833.824	0.0162066
833.902	0.0161608
833.980	0.0161797
834.058	0.0162205
834.136	0.0161758
834.215	0.0162454
834.293	0.0162077
834.371	0.0159434
834.449	0.0162296
834.527	0.0162513
834.605	0.0161660
834.683	0.0162068
834.761	0.0162116
834.840	0.0164178
834.918	0.0162753
834.996	0.0163396
835.074	0.0163179
835.152	0.0161173
835.230	0.0162024
835.308	0.0163371
835.386	0.0163691
835.465	0.0163256
835.543	0.0163821
835.621	0.0162432
835.699	0.0163081
835.777	0.0161728
835.855	0.0162003
835.933	0.0162211
836.011	0.0160838
836.090	0.0160259
836.168	0.0160091
836.246	0.0159678
836.324	0.0161263
836.402	0.0161783
836.480	0.0160607
836.558	0.0160910
836.636	0.0161303
836.715	0.0162509
836.793	0.0161735
836.871	0.0162898
836.949	0.0161996
837.027	0.0163392
837.105	0.0163314
837.183	0.0162891
837.261	0.0163418
837.340	0.0165007
837.418	0.0163198
837.496	0.0163824
837.574	0.0163747
837.652	0.0164034
837.730	0.0162743
837.808	0.0162993
837.886	0.0163884
837.965	0.0162115
838.043	0.0161620
838.121	0.0162183
838.199	0.0160705
838.277	0.0160870
838.355	0.0159765
838.433	0.0160730
838.511	0.0160523
838.590	0.0158917
838.668	0.0160734
838.746	0.0161217
838.824	0.0160599
838.902	0.0159768
838.980	0.0160153
839.058	0.0161714
839.136	0.0160814
839.215	0.0161031
839.293	0.0160667
839.371	0.0160481
839.449	0.0161440
839.527	0.0161651
839.605	0.0161157
839.683	0.0160390
839.761	0.0160178
839.840	0.0161436
839.918	0.0160933
839.996	0.0159644
840.074	0.0161140
840.152	0.0158956
840.230	0.0161409
840.308	0.0160921
840.386	0.0160663
840.465	0.0160999
840.543	0.0162183
840.621	0.0162751
840.699	0.0162846
840.777	0.0163239
840.855	0.0163667
840.933	0.0163079
841.011	0.0163525
841.090	0.0163364
841.168	0.0163688
841.246	0.0162848
841.324	0.0162531
841.402	0.0164718
841.480	0.0162434
841.558	0.0162309
841.636	0.0164391
841.715	0.0160787
841.793	0.0162341
841.871	0.0160373
841.949	0.0160886
842.027	0.0161340
842.105	0.0160271
842.183	0.0159701
842.261	0.0161114
842.340	0.0160728
842.418	0.0160957
842.496	0.0161105
842.574	0.0161073
842.652	0.0162084
842.730	0.0162189
842.808	0.0163174
842.886	0.0162856
842.965	0.0162408
843.043	0.0161625
843.121	0.0162965
843.199	0.0163388
843.277	0.0163383
843.355	0.0162321
843.433	0.0162989
843.511	0.0162444
843.590	0.0162733
843.668	0.0163319
843.746	0.0162378
843.824	0.0162102
843.902	0.0163099
843.980	0.0161431
844.058	0.0161330
844.136	0.0161845
844.215	0.0162668
844.293	0.0162284
844.371	0.0160811
844.449	0.0161257
844.527	0.0161646
844.605	0.0162891
844.683	0.0161172
844.761	0.0162350
844.840	0.0161040
844.918	0.0161393
844.996	0.0161706
845.074	0.0160793
845.152	0.0161991
845.230	0.0163825
845.308	0.0161476
845.386	0.0161777
845.465	0.0161994
845.543	0.0160015
845.621	0.0161353
845.699	0.0159880
845.777	0.0159928
845.855	0.0160896
845.933	0.0160394
846.011	0.0160442
846.090	0.0161149
846.168	0.0160301
846.246	0.0160078
846.324	0.0160635
846.402	0.0160933
846.480	0.0159014
846.558	0.0159538
846.636	0.0159110
846.715	0.0159597
846.793	0.0160336
846.871	0.0160799
846.949	0.0161183
847.027	0.0160336
847.105	0.0160760
847.183	0.0161053
847.261	0.0161155
847.340	0.0160645
847.418	0.0160611
847.496	0.0160714
847.574	0.0160690
847.652	0.0160442
847.730	0.0160686
847.808	0.0160513
847.886	0.0162807
847.965	0.0160715
848.043	0.0162104
848.121	0.0161510
848.199	0.0161980
848.277	0.0160931
848.355	0.0161491
848.433	0.0161874
848.511	0.0162170
848.590	0.0160997
848.668	0.0161889
848.746	0.0161799
848.824	0.0161981
848.902	0.0162575
848.980	0.0161787
849.058	0.0162985
849.136	0.0161992
849.215	0.0161860
849.293	0.0163383
849.371	0.0162582
849.449	0.0162587
849.527	0.0161584
849.605	0.0162695
849.683	0.0163285
849.761	0.0163494
849.840	0.0162551
849.918	0.0163158
849.996	0.0162846
850.074	0.0163129
850.152	0.0163123
850.230	0.0161037
850.308	0.0162398
850.386	0.0164015
850.465	0.0162733
850.543	0.0162773
850.621	0.0162777
850.699	0.0163012
850.777	0.0162337
850.855	0.0162728
850.933	0.0161976
851.011	0.0162726
851.090	0.0162270
851.168	0.0162331
851.246	0.0162328
851.324	0.0163137
851.402	0.0162674
851.480	0.0162296
851.558	0.0162859
851.636	0.0162498
851.715	0.0162816
851.793	0.0162912
851.871	0.0164037
851.949	0.0162646
852.027	0.0162088
852.105	0.0163118
852.183	0.0162524
852.261	0.0163161
852.340	0.0162723
852.418	0.0162281
852.496	0.0161999
852.574	0.0162280
852.652	0.0161288
852.730	0.0161721
852.808	0.0162402
852.886	0.0162535
852.965	0.0161953
853.043	0.0161845
853.121	0.0161057
853.199	0.0161003
853.277	0.0162024
853.355	0.0161447
853.433	0.0161249
853.511	0.0161935
853.590	0.0160483
853.668	0.0161207
853.746	0.0161400
853.824	0.0160540
853.902	0.0161238
853.980	0.0161567
854.058	0.0162074
854.136	0.0161286
854.215	0.0160207
854.293	0.0161338
854.371	0.0158786
854.449	0.0160766
854.527	0.0160265
854.605	0.0160038
854.683	0.0160492
854.761	0.0160622
854.840	0.0160615
854.918	0.0160692
854.996	0.0159956
855.074	0.0161625
855.152	0.0161831
855.230	0.0160555
855.308	0.0160643
855.386	0.0161212
855.465	0.0160611
855.543	0.0160732
855.621	0.0160973
855.699	0.0161810
855.777	0.0162572
855.855	0.0161919
855.933	0.0161442
856.011	0.0161177
856.090	0.0161358
856.168	0.0161880
856.246	0.0161866
856.324	0.0161122
856.402	0.0161667
856.480	0.0162647
856.558	0.0161941
856.636	0.0163221
856.715	0.0162608
856.793	0.0161691
856.871	0.0162811
856.949	0.0163096
857.027	0.0162965
857.105	0.0162665
857.183	0.0161549
857.261	0.0161736
857.340	0.0163841
857.418	0.0163804
857.496	0.0162748
857.574	0.0164026
857.652	0.0163223
857.730	0.0162143
857.808	0.0162437
857.886	0.0162830
857.965	0.0162451
858.043	0.0163442
858.121	0.0162462
858.199	0.0161876
858.277	0.0162725
858.355	0.0162241
858.433	0.0161679
858.511	0.0162750
858.590	0.0162428
858.668	0.0162170
858.746	0.0160888
858.824	0.0162690
858.902	0.0161620
858.980	0.0162958
859.058	0.0164300
859.136	0.0163339
859.215	0.0162933
859.293	0.0163206
859.371	0.0163371
859.449	0.0163914
859.527	0.0163237
859.605	0.0162767
859.683	0.0163300
859.761	0.0162383
859.840	0.0161772
859.918	0.0162696
859.996	0.0162963
860.074	0.0162452
860.152	0.0162551
860.230	0.0161586
860.308	0.0162085
860.386	0.0161971
860.465	0.0162461
860.543	0.0161156
860.621	0.0162505
860.699	0.0162486
860.777	0.0161896
860.855	0.0161260
860.933	0.0162741
861.011	0.0164354
861.090	0.0162796
861.168	0.0163867
861.246	0.0163519
861.324	0.0162606
861.402	0.0161933
861.480	0.0161863
861.558	0.0161469
861.636	0.0162500
861.715	0.0161648
861.793	0.0161437
861.871	0.0162514
861.949	0.0161245
862.027	0.0160264
862.105	0.0160420
862.183	0.0160459
862.261	0.0160345
862.340	0.0158887
862.418	0.0160941
862.496	0.0159248
862.574	0.0159901
862.652	0.0159480
862.730	0.0160437
862.808	0.0159501
862.886	0.0161668
862.965	0.0160817
863.043	0.0161335
863.121	0.0161508
863.199	0.0161027
863.277	0.0161810
863.355	0.0160795
863.433	0.0161269
863.511	0.0161428
863.590	0.0161075
863.668	0.0161048
863.746	0.0160676
863.824	0.0160777
863.902	0.0159888
863.980	0.0159444
864.058	0.0161938
864.136	0.0160300
864.215	0.0161236
864.293	0.0161185
864.371	0.0162541
864.449	0.0161447
864.527	0.0162494
864.605	0.0162469
864.683	0.0161481
864.761	0.0162010
864.840	0.0161290
864.918	0.0162536
864.996	0.0163640
865.074	0.0162260
865.152	0.0162561
865.230	0.0163422
865.308	0.0164441
865.386	0.0163460
865.465	0.0163260
865.543	0.0163830
865.621	0.0163280
865.699	0.0162428
865.777	0.0162641
865.855	0.0162636
865.933	0.0162685
866.011	0.0162492
866.090	0.0162141
866.168	0.0161168
866.246	0.0162023
866.324	0.0162560
866.402	0.0162619
866.480	0.0162434
866.558	0.0162328
866.636	0.0163628
866.715	0.0163627
866.793	0.0160934
866.871	0.0163455
866.949	0.0162668
867.027	0.0163282
867.105	0.0162999
867.183	0.0162463
867.261	0.0163241
867.340	0.0162305
867.418	0.0163677
867.496	0.0164230
867.574	0.0163373
867.652	0.0163109
867.730	0.0163176
867.808	0.0164075
867.886	0.0163537
867.965	0.0163606
868.043	0.0163045
868.121	0.0161304
868.199	0.0163329
868.277	0.0162674
868.355	0.0161360
868.433	0.0162324
868.511	0.0163102
868.590	0.0162534
868.668	0.0161633
868.746	0.0162109
868.824	0.0162917
868.902	0.0162129
868.980	0.0163086
869.058	0.0162740
869.136	0.0162881
869.215	0.0162294
869.293	0.0161692
869.371	0.0160831
869.449	0.0160760
869.527	0.0161665
869.605	0.0162804
869.683	0.0162693
869.761	0.0162504
869.840	0.0161649
869.918	0.0161877
869.996	0.0161853
870.074	0.0160975
870.152	0.0160722
870.230	0.0160013
870.308	0.0161448
870.386	0.0161318
870.465	0.0161561
870.543	0.0159892
870.621	0.0160988
870.699	0.0160709
870.777	0.0160841
870.855	0.0161128
870.933	0.0162227
871.011	0.0161617
871.090	0.0160694
871.168	0.0160252
871.246	0.0161407
871.324	0.0161414
871.402	0.0161484
871.480	0.0161501
871.558	0.0160765
871.636	0.0160233
871.715	0.0160339
871.793	0.0160857
871.871	0.0160835
871.949	0.0160375
872.027	0.0161614
872.105	0.0161639
872.183	0.0162159
872.261	0.0161285
872.340	0.0161059
872.418	0.0162461
872.496	0.0161889
872.574	0.0162013
872.652	0.0161290
872.730	0.0161987
872.808	0.0161874
872.886	0.0162697
872.965	0.0162788
873.043	0.0162720
873.121	0.0161285
873.199	0.0164030
873.277	0.0164925
873.355	0.0162269
873.433	0.0161800
873.511	0.0162984
873.590	0.0162849
873.668	0.0163565
873.746	0.0160388
873.824	0.0162186
873.902	0.0162714
873.980	0.0163033
874.058	0.0161703
874.136	0.0160818
874.215	0.0161977
874.293	0.0162204
874.371	0.0161040
874.449	0.0161214
874.527	0.0161686
874.605	0.0161667
874.683	0.0160419
874.761	0.0161518
874.840	0.0160992
874.918	0.0162066
874.996	0.0161488
875.074	0.0161551
875.152	0.0161265
875.230	0.0161215
875.308	0.0161245
875.386	0.0161472
875.465	0.0161314
875.543	0.0162550
875.621	0.0161849
875.699	0.0162482
875.777	0.0162524
875.855	0.0163629
875.933	0.0163349
876.011	0.0163686
876.090	0.0164094
876.168	0.0163026
876.246	0.0163840
876.324	0.0164758
876.402	0.0163511
876.480	0.0163068
876.558	0.0164041
876.636	0.0162306
876.715	0.0161913
876.793	0.0161575
876.871	0.0162258
876.949	0.0162206
877.027	0.0161225
877.105	0.0162009
877.183	0.0162154
877.261	0.0162569
877.340	0.0161150
877.418	0.0161071
877.496	0.0161447
877.574	0.0161046
877.652	0.0162186
877.730	0.0160494
877.808	0.0161894
877.886	0.0161368
877.965	0.0161812
878.043	0.0160896
878.121	0.0160213
878.199	0.0159998
878.277	0.0161568
878.355	0.0160182
878.433	0.0160577
878.511	0.0160606
878.590	0.0161440
878.668	0.0161798
878.746	0.0160670
878.824	0.0161278
878.902	0.0161850
878.980	0.0160146
879.058	0.0160728
879.136	0.0162276
879.215	0.0160653
879.293	0.0161292
879.371	0.0161034
879.449	0.0160297
879.527	0.0161128
879.605	0.0161646
879.683	0.0161606
879.761	0.0158987
879.840	0.0161479
879.918	0.0161729
879.996	0.0160950
880.074	0.0160935
880.152	0.0162168
880.230	0.0162132
880.308	0.0162091
880.386	0.0160797
880.465	0.0160946
880.543	0.0161480
880.621	0.0160847
880.699	0.0160986
880.777	0.0161267
880.855	0.0162227
880.933	0.0162644
881.011	0.0162420
881.090	0.0160947
881.168	0.0161801
881.246	0.0161738
881.324	0.0160832
881.402	0.0160632
881.480	0.0163103
881.558	0.0161799
881.636	0.0162957
881.715	0.0161890
881.793	0.0161873
881.871	0.0163263
881.949	0.0163038
882.027	0.0163056
882.105	0.0160383
882.183	0.0162453
882.261	0.0161409
882.340	0.0162598
882.418	0.0162843
882.496	0.0161768
882.574	0.0162944
882.652	0.0163545
882.730	0.0162990
882.808	0.0162213
882.886	0.0162329
882.965	0.0162625
883.043	0.0161694
883.121	0.0160561
883.199	0.0161749
883.277	0.0161943
883.355	0.0161828
883.433	0.0162029
883.511	0.0162074
883.590	0.0162282
883.668	0.0161724
883.746	0.0162772
883.824	0.0161872
883.902	0.0162402
883.980	0.0161887
884.058	0.0162357
884.136	0.0161726
884.215	0.0160056
884.293	0.0161613
884.371	0.0162367
884.449	0.0163050
884.527	0.0163039
884.605	0.0163127
884.683	0.0162805
884.761	0.0162459
884.840	0.0162142
884.918	0.0163411
884.996	0.0163563
885.074	0.0162681
885.152	0.0162777
885.230	0.0161683
885.308	0.0163627
885.386	0.0162031
885.465	0.0162088
885.543	0.0161632
885.621	0.0161660
885.699	0.0162100
885.777	0.0161193
885.855	0.0162980
885.933	0.0160983
886.011	0.0161082
886.090	0.0161299
886.168	0.0161539
886.246	0.0161045
886.324	0.0160458
886.402	0.0161861
886.480	0.0160490
886.558	0.0160503
886.636	0.0161877
886.715	0.0161855
886.793	0.0161568
886.871	0.0161959
886.949	0.0162847
887.027	0.0162761
887.105	0.0161672
887.183	0.0161413
887.261	0.0161477
887.340	0.0161664
887.418	0.0163709
887.496	0.0161822
887.574	0.0161995
887.652	0.0161386
887.730	0.0162112
887.808	0.0162603
887.886	0.0160861
887.965	0.0160524
888.043	0.0162907
888.121	0.0160889
888.199	0.0160530
888.277	0.0161637
888.355	0.0161240
888.433	0.0159907
888.511	0.0160018
888.590	0.0160732
888.668	0.0160648
888.746	0.0161031
888.824	0.0158773
888.902	0.0159809
888.980	0.0160944
889.058	0.0160662
889.136	0.0161045
889.215	0.0161328
889.293	0.0162081
889.371	0.0160762
889.449	0.0160593
889.527	0.0160873
889.605	0.0160776
889.683	0.0162927
889.761	0.0161480
889.840	0.0161617
889.918	0.0160820
889.996	0.0161336
890.074	0.0162281
890.152	0.0162413
890.230	0.0162272
890.308	0.0161710
890.386	0.0162551
890.465	0.0162452
890.543	0.0161957
890.621	0.0161416
890.699	0.0163921
890.777	0.0161848
890.855	0.0162963
890.933	0.0162933
891.011	0.0161633
891.090	0.0162846
891.168	0.0162305
891.246	0.0161012
891.324	0.0162894
891.402	0.0161767
891.480	0.0162556
891.558	0.0163037
891.636	0.0163307
891.715	0.0161387
891.793	0.0162545
891.871	0.0162861
891.949	0.0161044
892.027	0.0163010
892.105	0.0161621
892.183	0.0161127
892.261	0.0161414
892.340	0.0162930
892.418	0.0164158
892.496	0.0162627
892.574	0.0162128
892.652	0.0162349
892.730	0.0162022
892.808	0.0161436
892.886	0.0163297
892.965	0.0162698
893.043	0.0162891
893.121	0.0163366
893.199	0.0162013
893.277	0.0162825
893.355	0.0163199
893.433	0.0162076
893.511	0.0162703
893.590	0.0162148
893.668	0.0162206
893.746	0.0162279
893.824	0.0161466
893.902	0.0161414
893.980	0.0161203
894.058	0.0160850
894.136	0.0160377
894.215	0.0162125
894.293	0.0161228
894.371	0.0161026
894.449	0.0161505
894.527	0.0159725
894.605	0.0161327
894.683	0.0161977
894.761	0.0162321
894.840	0.0162393
894.918	0.0161991
894.996	0.0161398
895.074	0.0161530
895.152	0.0162504
895.230	0.0160600
895.308	0.0162299
895.386	0.0162512
895.465	0.0161565
895.543	0.0161004
895.621	0.0160733
895.699	0.0160916
895.777	0.0160944
895.855	0.0160858
895.933	0.0160915
896.011	0.0162097
896.090	0.0162474
896.168	0.0161230
896.246	0.0159680
896.324	0.0159995
896.402	0.0159756
896.480	0.0161165
896.558	0.0161178
896.636	0.0160132
896.715	0.0160957
896.793	0.0160872
896.871	0.0160960
896.949	0.0161368
897.027	0.0160950
897.105	0.0161531
897.183	0.0161846
897.261	0.0162385
897.340	0.0161132
897.418	0.0161610
897.496	0.0161670
897.574	0.0161736
897.652	0.0162199
897.730	0.0161334
897.808	0.0162227
897.886	0.0163258
897.965	0.0163156
898.043	0.0162106
898.121	0.0162280
898.199	0.0161918
898.277	0.0163958
898.355	0.0162451
898.433	0.0162810
898.511	0.0163078
898.590	0.0162133
898.668	0.0162585
898.746	0.0163377
898.824	0.0163186
898.902	0.0162443
898.980	0.0163283
899.058	0.0164174
899.136	0.0162134
899.215	0.0160602
899.293	0.0160722
899.371	0.0162610
899.449	0.0161916
899.527	0.0162834
899.605	0.0162022
899.683	0.0161192
899.761	0.0161314
899.840	0.0161803
899.918	0.0161002
899.996	0.0161299
900.074	0.0161569
900.152	0.0161394
900.230	0.0161180
900.308	0.0160890
900.386	0.0161142
900.465	0.0162752
900.543	0.0161917
900.621	0.0161488
900.699	0.0162566
900.777	0.0161368
900.855	0.0162530
900.933	0.0160728
901.011	0.0161995
901.090	0.0162286
901.168	0.0162139
901.246	0.0161913
901.324	0.0161578
901.402	0.0162992
901.480	0.0161345
901.558	0.0161516
901.636	0.0160876
901.715	0.0160600
901.793	0.0160604
901.871	0.0161272
901.949	0.0161078
902.027	0.0161159
902.105	0.0160558
902.183	0.0161398
902.261	0.0161162
902.340	0.0161023
902.418	0.0161427
902.496	0.0161398
902.574	0.0159679
902.652	0.0161646
902.730	0.0161337
902.808	0.0160687
902.886	0.0161614
902.965	0.0160603
903.043	0.0161849
903.121	0.0161608
903.199	0.0160677
903.277	0.0160470
903.355	0.0161184
903.433	0.0161738
903.511	0.0160770
903.590	0.0160657
903.668	0.0161597
903.746	0.0162650
903.824	0.0161587
903.902	0.0158298
903.980	0.0160469
904.058	0.0160485
904.136	0.0160395
904.215	0.0161475
904.293	0.0159971
904.371	0.0160389
904.449	0.0160284
904.527	0.0161435
904.605	0.0161005
904.683	0.0161811
904.761	0.0161539
904.840	0.0162106
904.918	0.0161497
904.996	0.0159879
905.074	0.0160127
905.152	0.0160233
905.230	0.0159854
905.308	0.0160829
905.386	0.0161391
905.465	0.0161607
905.543	0.0160838
905.621	0.0162331
905.699	0.0161557
905.777	0.0162058
905.855	0.0161846
905.933	0.0161459
906.011	0.0161844
906.090	0.0162196
906.168	0.0162563
906.246	0.0161512
906.324	0.0163676
906.402	0.0162493
906.480	0.0162801
906.558	0.0163017
906.636	0.0162852
906.715	0.0163062
906.793	0.0163735
906.871	0.0162643
906.949	0.0162451
907.027	0.0163325
907.105	0.0164012
907.183	0.0162489
907.261	0.0161710
907.340	0.0162145
907.418	0.0163521
907.496	0.0162540
907.574	0.0161868
907.652	0.0162566
907.730	0.0163158
907.808	0.0161166
907.886	0.0161573
907.965	0.0161232
908.043	0.0161726
908.121	0.0161052
908.199	0.0160960
908.277	0.0160020
908.355	0.0161469
908.433	0.0161730
908.511	0.0159821
908.590	0.0160313
908.668	0.0160858
908.746	0.0160725
908.824	0.0161187
908.902	0.0162538
908.980	0.0162644
909.058	0.0160303
909.136	0.0161816
909.215	0.0160980
909.293	0.0161527
909.371	0.0162201
909.449	0.0161607
909.527	0.0161030
909.605	0.0161108
909.683	0.0162100
909.761	0.0162695
909.840	0.0162265
909.918	0.0162485
909.996	0.0162999
910.074	0.0162286
910.152	0.0162914
910.230	0.0162429
910.308	0.0161612
910.386	0.0162495
910.465	0.0162415
910.543	0.0162365
910.621	0.0162786
910.699	0.0162736
910.777	0.0161932
910.855	0.0160737
910.933	0.0162107
911.011	0.0162300
911.090	0.0161709
911.168	0.0162147
911.246	0.0162502
911.324	0.0160803
911.402	0.0161823
911.480	0.0160428
911.558	0.0161001
911.636	0.0161318
911.715	0.0160796
911.793	0.0160922
911.871	0.0160883
911.949	0.0160838
912.027	0.0159805
912.105	0.0160913
912.183	0.0160438
912.261	0.0161253
912.340	0.0161685
912.418	0.0162137
912.496	0.0162189
912.574	0.0161572
912.652	0.0160838
912.730	0.0160847
912.808	0.0161466
912.886	0.0161423
912.965	0.0162027
913.043	0.0162508
913.121	0.0161568
913.199	0.0161946
913.277	0.0161974
913.355	0.0162589
913.433	0.0162134
913.511	0.0161566
913.590	0.0162713
913.668	0.0161519
913.746	0.0162840
913.824	0.0162636
913.902	0.0161158
913.980	0.0162833
914.058	0.0162168
914.136	0.0163609
914.215	0.0165520
914.293	0.0162497
914.371	0.0163779
914.449	0.0163601
914.527	0.0163190
914.605	0.0163886
914.683	0.0164375
914.761	0.0163071
914.840	0.0162913
914.918	0.0162635
914.996	0.0161500
915.074	0.0162396
915.152	0.0162357
915.230	0.0162605
915.308	0.0162025
915.386	0.0161816
915.465	0.0161765
915.543	0.0161936
915.621	0.0161562
915.699	0.0162257
915.777	0.0160783
915.855	0.0161613
915.933	0.0161987
916.011	0.0162113
916.090	0.0161742
916.168	0.0159932
916.246	0.0160440
916.324	0.0161549
916.402	0.0160731
916.480	0.0161663
916.558	0.0160968
916.636	0.0160313
916.715	0.0161726
916.793	0.0162225
916.871	0.0161549
916.949	0.0163387
917.027	0.0161980
917.105	0.0160896
917.183	0.0162604
917.261	0.0162870
917.340	0.0163197
917.418	0.0163374
917.496	0.0162680
917.574	0.0163453
917.652	0.0161983
917.730	0.0163345
917.808	0.0162497
917.886	0.0162659
917.965	0.0162508
918.043	0.0162453
918.121	0.0162198
918.199	0.0163702
918.277	0.0162266
918.355	0.0164120
918.433	0.0162571
918.511	0.0163599
918.590	0.0161241
918.668	0.0161544
918.746	0.0162498
918.824	0.0161607
918.902	0.0162857
918.980	0.0162230
919.058	0.0160384
919.136	0.0162180
919.215	0.0160638
919.293	0.0161255
919.371	0.0161475
919.449	0.0160732
919.527	0.0161148
919.605	0.0160769
919.683	0.0160416
919.761	0.0160200
919.840	0.0161128
919.918	0.0161678
919.996	0.0160183
920.074	0.0161649
920.152	0.0160963
920.230	0.0160098
920.308	0.0161616
920.386	0.0163005
920.465	0.0161812
920.543	0.0160625
920.621	0.0161177
920.699	0.0162020
920.777	0.0161422
920.855	0.0162371
920.933	0.0161273
921.011	0.0162627
921.090	0.0161467
921.168	0.0162211
921.246	0.0162389
921.324	0.0161364
921.402	0.0162269
921.480	0.0161288
921.558	0.0162123
921.636	0.0162751
921.715	0.0161800
921.793	0.0162135
921.871	0.0162213
921.949	0.0163966
922.027	0.0162742
922.105	0.0163007
922.183	0.0161461
922.261	0.0163136
922.340	0.0163020
922.418	0.0162795
922.496	0.0161181
922.574	0.0162736
922.652	0.0161334
922.730	0.0161768
922.808	0.0161468
922.886	0.0162715
922.965	0.0162261
923.043	0.0162989
923.121	0.0162960
923.199	0.0162936
923.277	0.0162223
923.355	0.0162151
923.433	0.0161843
923.511	0.0161084
923.590	0.0162496
923.668	0.0161719
923.746	0.0163119
923.824	0.0162735
923.902	0.0161848
923.980	0.0162431
924.058	0.0161219
924.136	0.0161055
924.215	0.0160880
924.293	0.0161939
924.371	0.0162149
924.449	0.0161230
924.527	0.0160246
924.605	0.0161613
924.683	0.0163120
924.761	0.0161819
924.840	0.0161735
924.918	0.0162515
924.996	0.0161825
925.074	0.0161229
925.152	0.0163467
925.230	0.0162306
925.308	0.0162404
925.386	0.0162596
925.465	0.0162869
925.543	0.0161646
925.621	0.0162878
925.699	0.0162015
925.777	0.0161268
925.855	0.0162426
925.933	0.0161366
926.011	0.0161427
926.090	0.0161789
926.168	0.0161846
926.246	0.0161800
926.324	0.0162126
926.402	0.0160884
926.480	0.0161102
926.558	0.0160561
926.636	0.0162040
926.715	0.0161809
926.793	0.0159579
926.871	0.0162096
926.949	0.0160195
927.027	0.0162862
927.105	0.0160658
927.183	0.0159760
927.261	0.0162629
927.340	0.0161457
927.418	0.0160659
927.496	0.0161172
927.574	0.0161057
927.652	0.0161095
927.730	0.0161581
927.808	0.0161775
927.886	0.0161753
927.965	0.0161120
928.043	0.0161236
928.121	0.0161175
928.199	0.0160624
928.277	0.0161278
928.355	0.0161773
928.433	0.0160847
928.511	0.0160630
928.590	0.0160128
928.668	0.0160578
928.746	0.0161470
928.824	0.0160106
928.902	0.0159949
928.980	0.0161546
929.058	0.0161317
929.136	0.0162061
929.215	0.0161092
929.293	0.0162651
929.371	0.0162669
929.449	0.0161684
929.527	0.0161385
929.605	0.0160944
929.683	0.0162122
929.761	0.0161517
929.840	0.0162868
929.918	0.0161475
929.996	0.0160113
930.074	0.0161897
930.152	0.0162305
930.230	0.0161700
930.308	0.0160812
930.386	0.0161964
930.465	0.0161456
930.543	0.0162181
930.621	0.0161810
930.699	0.0162022
930.777	0.0162283
930.855	0.0161384
930.933	0.0162759
931.011	0.0162344
931.090	0.0162292
931.168	0.0162148
931.246	0.0162070
931.324	0.0163734
931.402	0.0161670
931.480	0.0161230
931.558	0.0161810
931.636	0.0162202
931.715	0.0160976
931.793	0.0163008
931.871	0.0161384
931.949	0.0162655
932.027	0.0162177
932.105	0.0161972
932.183	0.0161544
932.261	0.0161353
932.340	0.0162332
932.418	0.0162366
932.496	0.0161258
932.574	0.0161600
932.652	0.0161809
932.730	0.0162820
932.808	0.0160587
932.886	0.0161183
932.965	0.0161871
933.043	0.0161331
933.121	0.0162576
933.199	0.0162615
933.277	0.0161360
933.355	0.0160018
933.433	0.0162478
933.511	0.0162657
933.590	0.0161737
933.668	0.0161443
933.746	0.0160909
933.824	0.0162047
933.902	0.0162370
933.980	0.0162542
934.058	0.0162013
934.136	0.0162624
934.215	0.0162341
934.293	0.0162391
934.371	0.0163391
934.449	0.0163323
934.527	0.0162814
934.605	0.0162228
934.683	0.0161393
934.761	0.0161252
934.840	0.0161889
934.918	0.0161192
934.996	0.0161434
935.074	0.0161480
935.152	0.0161308
935.230	0.0161267
935.308	0.0160435
935.386	0.0162306
935.465	0.0159633
935.543	0.0160184
935.621	0.0161574
935.699	0.0161854
935.777	0.0162399
935.855	0.0161478
935.933	0.0159052
936.011	0.0161026
936.090	0.0161220
936.168	0.0161639
936.246	0.0161454
936.324	0.0161599
936.402	0.0161366
936.480	0.0161370
936.558	0.0160473
936.636	0.0160114
936.715	0.0160004
936.793	0.0160277
936.871	0.0161036
936.949	0.0161382
937.027	0.0163475
937.105	0.0162325
937.183	0.0161800
937.261	0.0162682
937.340	0.0163161
937.418	0.0162096
937.496	0.0162851
937.574	0.0163024
937.652	0.0161523
937.730	0.0162968
937.808	0.0163432
937.886	0.0162585
937.965	0.0163207
938.043	0.0162208
938.121	0.0161916
938.199	0.0162318
938.277	0.0163364
938.355	0.0161886
938.433	0.0161491
938.511	0.0162603
938.590	0.0161698
938.668	0.0162505
938.746	0.0163267
938.824	0.0163348
938.902	0.0161470
938.980	0.0161877
939.058	0.0162319
939.136	0.0162191
939.215	0.0162551
939.293	0.0163818
939.371	0.0162763
939.449	0.0162794
939.527	0.0161604
939.605	0.0162880
939.683	0.0161855
939.761	0.0163192
939.840	0.0161932
939.918	0.0161852
939.996	0.0162292
940.074	0.0162154
940.152	0.0161852
940.230	0.0161999
940.308	0.0161369
940.386	0.0160944
940.465	0.0161275
940.543	0.0162040
940.621	0.0161328
940.699	0.0161340
940.777	0.0161827
940.855	0.0160687
940.933	0.0161537
941.011	0.0163327
941.090	0.0161949
941.168	0.0161729
941.246	0.0162070
941.324	0.0162238
941.402	0.0161755
941.480	0.0160844
941.558	0.0161594
941.636	0.0162680
941.715	0.0162556
941.793	0.0161378
941.871	0.0161781
941.949	0.0160889
942.027	0.0163287
942.105	0.0162032
942.183	0.0162380
942.261	0.0160884
942.340	0.0162104
942.418	0.0162379
942.496	0.0162816
942.574	0.0163782
942.652	0.0162431
942.730	0.0161549
942.808	0.0162286
942.886	0.0162551
942.965	0.0162009
943.043	0.0161787
943.121	0.0161090
943.199	0.0161427
943.277	0.0162033
943.355	0.0161864
943.433	0.0161109
943.511	0.0161774
943.590	0.0160793
943.668	0.0159508
943.746	0.0161336
943.824	0.0159740
943.902	0.0160522
943.980	0.0159693
944.058	0.0160219
944.136	0.0160423
944.215	0.0161919
944.293	0.0161516
944.371	0.0160152
944.449	0.0161279
944.527	0.0162391
944.605	0.0161095
944.683	0.0161808
944.761	0.0162392
944.840	0.0162247
944.918	0.0160715
944.996	0.0162276
945.074	0.0163225
945.152	0.0162047
945.230	0.0161171
945.308	0.0162674
945.386	0.0162480
945.465	0.0161089
945.543	0.0160925
945.621	0.0161713
945.699	0.0161965
945.777	0.0162074
945.855	0.0161973
945.933	0.0161593
946.011	0.0161450
946.090	0.0161927
946.168	0.0162563
946.246	0.0162284
946.324	0.0162364
946.402	0.0161296
946.480	0.0162867
946.558	0.0161720
946.636	0.0162904
946.715	0.0161423
946.793	0.0162197
946.871	0.0162072
946.949	0.0163230
947.027	0.0162868
947.105	0.0161936
947.183	0.0162519
947.261	0.0163224
947.340	0.0162676
947.418	0.0161591
947.496	0.0162598
947.574	0.0161253
947.652	0.0161054
947.730	0.0163589
947.808	0.0160936
947.886	0.0161199
947.965	0.0161044
948.043	0.0162902
948.121	0.0162719
948.199	0.0159910
948.277	0.0161326
948.355	0.0162827
948.433	0.0161022
948.511	0.0160493
948.590	0.0160313
948.668	0.0159360
948.746	0.0159966
948.824	0.0162006
948.902	0.0161349
948.980	0.0161591
949.058	0.0161324
949.136	0.0162174
949.215	0.0161104
949.293	0.0162380
949.371	0.0161673
949.449	0.0161301
949.527	0.0162903
949.605	0.0162809
949.683	0.0162876
949.761	0.0162407
949.840	0.0161948
949.918	0.0162560
