06/29/2022	21:25:44	Ver.	4.1	UNKNOWN
Optical Delay	629.995835	Delta X		0.078125	Sweeps	1	Scan Rate	0/0
Coordinates	Axis 1	NaN	Axis 2	NaN	Axis 3	NaN	Axis 4	NaN	Axis 5	NaN	Axis 6	0.000000
TX Power	0.000000	RX Power	0.000000

629.996	0.0168278
630.074	0.0168285
630.152	0.0168604
630.230	0.0169660
630.308	0.0169254
630.386	0.0168069
630.465	0.0169236
630.543	0.0169707
630.621	0.0168494
630.699	0.0167556
630.777	0.0167924
630.855	0.0167694
630.933	0.0168233
631.011	0.0167792
631.090	0.0168069
631.168	0.0167590
631.246	0.0168415
631.324	0.0168852
631.402	0.0167264
631.480	0.0169680
631.558	0.0168267
631.636	0.0167098
631.715	0.0168254
631.793	0.0167508
631.871	0.0167513
631.949	0.0169087
632.027	0.0168622
632.105	0.0169476
632.183	0.0169365
632.261	0.0167424
632.340	0.0166943
632.418	0.0169012
632.496	0.0169189
632.574	0.0169472
632.652	0.0167854
632.730	0.0168642
632.808	0.0168459
632.886	0.0167246
632.965	0.0169186
633.043	0.0168711
633.121	0.0168813
633.199	0.0169640
633.277	0.0168787
633.355	0.0168049
633.433	0.0168864
633.511	0.0167662
633.590	0.0167942
633.668	0.0168150
633.746	0.0169547
633.824	0.0168912
633.902	0.0168592
633.980	0.0168418
634.058	0.0169130
634.136	0.0169072
634.215	0.0169444
634.293	0.0167696
634.371	0.0168452
634.449	0.0169714
634.527	0.0169068
634.605	0.0168053
634.683	0.0168246
634.761	0.0167747
634.840	0.0166733
634.918	0.0169210
634.996	0.0168552
635.074	0.0169273
635.152	0.0168150
635.230	0.0167285
635.308	0.0168229
635.386	0.0168494
635.465	0.0167297
635.543	0.0167895
635.621	0.0169278
635.699	0.0168083
635.777	0.0167798
635.855	0.0167210
635.933	0.0168825
636.011	0.0168667
636.090	0.0167771
636.168	0.0167178
636.246	0.0167670
636.324	0.0168691
636.402	0.0168221
636.480	0.0167434
636.558	0.0168205
636.636	0.0167809
636.715	0.0166747
636.793	0.0166129
636.871	0.0167203
636.949	0.0169743
637.027	0.0169669
637.105	0.0168746
637.183	0.0167307
637.261	0.0167763
637.340	0.0167580
637.418	0.0167165
637.496	0.0167670
637.574	0.0168104
637.652	0.0170303
637.730	0.0167592
637.808	0.0166740
637.886	0.0167681
637.965	0.0168922
638.043	0.0168410
638.121	0.0167459
638.199	0.0167599
638.277	0.0168997
638.355	0.0168324
638.433	0.0168443
638.511	0.0168772
638.590	0.0168227
638.668	0.0167686
638.746	0.0168357
638.824	0.0167670
638.902	0.0167884
638.980	0.0167940
639.058	0.0168468
639.136	0.0167535
639.215	0.0166604
639.293	0.0168637
639.371	0.0167307
639.449	0.0167874
639.527	0.0167363
639.605	0.0168732
639.683	0.0167462
639.761	0.0169387
639.840	0.0169150
639.918	0.0167903
639.996	0.0167454
640.074	0.0169302
640.152	0.0168031
640.230	0.0167156
640.308	0.0167940
640.386	0.0167441
640.465	0.0168891
640.543	0.0168286
640.621	0.0168689
640.699	0.0167984
640.777	0.0167921
640.855	0.0168698
640.933	0.0170029
641.011	0.0168299
641.090	0.0168584
641.168	0.0167661
641.246	0.0168391
641.324	0.0168439
641.402	0.0168418
641.480	0.0167059
641.558	0.0167829
641.636	0.0168573
641.715	0.0167741
641.793	0.0169963
641.871	0.0168535
641.949	0.0167670
642.027	0.0167549
642.105	0.0167603
642.183	0.0169516
642.261	0.0168554
642.340	0.0167905
642.418	0.0169008
642.496	0.0168124
642.574	0.0168338
642.652	0.0168373
642.730	0.0168511
642.808	0.0169254
642.886	0.0168546
642.965	0.0169820
643.043	0.0169518
643.121	0.0167786
643.199	0.0168269
643.277	0.0168811
643.355	0.0168033
643.433	0.0168733
643.511	0.0169091
643.590	0.0168127
643.668	0.0169772
643.746	0.0167301
643.824	0.0168608
643.902	0.0168152
643.980	0.0168388
644.058	0.0168813
644.136	0.0168433
644.215	0.0167873
644.293	0.0169617
644.371	0.0168652
644.449	0.0167451
644.527	0.0169730
644.605	0.0168675
644.683	0.0169459
644.761	0.0167858
644.840	0.0168331
644.918	0.0168290
644.996	0.0167738
645.074	0.0168350
645.152	0.0169204
645.230	0.0169454
645.308	0.0168677
645.386	0.0168926
645.465	0.0169077
645.543	0.0168976
645.621	0.0168307
645.699	0.0169536
645.777	0.0168990
645.855	0.0169069
645.933	0.0167796
646.011	0.0169965
646.090	0.0169113
646.168	0.0167830
646.246	0.0169942
646.324	0.0169228
646.402	0.0168282
646.480	0.0167088
646.558	0.0167355
646.636	0.0168213
646.715	0.0167814
646.793	0.0167557
646.871	0.0168266
646.949	0.0167530
647.027	0.0169227
647.105	0.0168003
647.183	0.0167923
647.261	0.0168186
647.340	0.0168146
647.418	0.0167478
647.496	0.0167012
647.574	0.0168073
647.652	0.0167464
647.730	0.0167187
647.808	0.0169406
647.886	0.0167747
647.965	0.0167703
648.043	0.0168628
648.121	0.0167722
648.199	0.0168796
648.277	0.0167137
648.355	0.0167680
648.433	0.0168317
648.511	0.0167284
648.590	0.0168270
648.668	0.0168633
648.746	0.0168311
648.824	0.0167310
648.902	0.0168063
648.980	0.0167175
649.058	0.0167473
649.136	0.0167100
649.215	0.0167423
649.293	0.0168111
649.371	0.0167226
649.449	0.0167767
649.527	0.0169033
649.605	0.0167522
649.683	0.0168691
649.761	0.0168728
649.840	0.0167786
649.918	0.0167768
649.996	0.0165862
650.074	0.0169094
650.152	0.0168887
650.230	0.0167843
650.308	0.0167210
650.386	0.0168360
650.465	0.0167089
650.543	0.0168438
650.621	0.0168759
650.699	0.0168093
650.777	0.0166853
650.855	0.0168095
650.933	0.0168245
651.011	0.0167302
651.090	0.0166754
651.168	0.0167032
651.246	0.0168694
651.324	0.0166904
651.402	0.0168072
651.480	0.0168790
651.558	0.0168128
651.636	0.0167042
651.715	0.0167550
651.793	0.0168926
651.871	0.0168896
651.949	0.0168888
652.027	0.0168591
652.105	0.0168584
652.183	0.0168339
652.261	0.0166965
652.340	0.0167642
652.418	0.0168049
652.496	0.0166177
652.574	0.0167542
652.652	0.0168568
652.730	0.0169229
652.808	0.0168275
652.886	0.0168437
652.965	0.0168340
653.043	0.0168143
653.121	0.0168518
653.199	0.0168498
653.277	0.0168365
653.355	0.0168235
653.433	0.0168230
653.511	0.0167937
653.590	0.0168423
653.668	0.0168379
653.746	0.0167887
653.824	0.0167873
653.902	0.0167892
653.980	0.0167477
654.058	0.0168062
654.136	0.0167438
654.215	0.0168404
654.293	0.0167902
654.371	0.0168219
654.449	0.0167826
654.527	0.0169087
654.605	0.0168828
654.683	0.0169836
654.761	0.0169307
654.840	0.0167151
654.918	0.0168801
654.996	0.0168339
655.074	0.0168887
655.152	0.0168365
655.230	0.0169249
655.308	0.0170073
655.386	0.0167929
655.465	0.0167752
655.543	0.0169386
655.621	0.0168866
655.699	0.0168109
655.777	0.0167038
655.855	0.0167030
655.933	0.0167287
656.011	0.0167742
656.090	0.0168997
656.168	0.0168864
656.246	0.0168888
656.324	0.0168980
656.402	0.0168726
656.480	0.0168495
656.558	0.0169283
656.636	0.0167420
656.715	0.0166665
656.793	0.0169452
656.871	0.0169188
656.949	0.0168156
657.027	0.0167037
657.105	0.0168967
657.183	0.0168339
657.261	0.0169126
657.340	0.0169090
657.418	0.0168734
657.496	0.0167978
657.574	0.0168255
657.652	0.0167551
657.730	0.0168317
657.808	0.0167654
657.886	0.0169122
657.965	0.0167851
658.043	0.0167928
658.121	0.0167085
658.199	0.0168338
658.277	0.0167622
658.355	0.0168693
658.433	0.0169415
658.511	0.0168097
658.590	0.0168617
658.668	0.0169146
658.746	0.0168316
658.824	0.0167924
658.902	0.0166896
658.980	0.0167677
659.058	0.0167920
659.136	0.0169554
659.215	0.0169431
659.293	0.0168733
659.371	0.0168996
659.449	0.0168614
659.527	0.0167632
659.605	0.0168256
659.683	0.0168110
659.761	0.0168577
659.840	0.0168079
659.918	0.0167730
659.996	0.0169115
660.074	0.0167529
660.152	0.0168481
660.230	0.0168787
660.308	0.0168623
660.386	0.0168201
660.465	0.0169664
660.543	0.0168233
660.621	0.0168671
660.699	0.0167548
660.777	0.0167730
660.855	0.0169027
660.933	0.0168513
661.011	0.0167222
661.090	0.0168470
661.168	0.0169218
661.246	0.0168211
661.324	0.0169276
661.402	0.0169115
661.480	0.0167518
661.558	0.0168377
661.636	0.0169147
661.715	0.0168736
661.793	0.0169842
661.871	0.0168024
661.949	0.0168922
662.027	0.0169022
662.105	0.0169390
662.183	0.0168984
662.261	0.0168362
662.340	0.0169137
662.418	0.0167754
662.496	0.0170028
662.574	0.0169563
662.652	0.0168346
662.730	0.0167915
662.808	0.0167416
662.886	0.0168845
662.965	0.0169374
663.043	0.0168687
663.121	0.0167435
663.199	0.0169161
663.277	0.0169416
663.355	0.0167897
663.433	0.0167435
663.511	0.0169527
663.590	0.0169198
663.668	0.0170202
663.746	0.0168106
663.824	0.0168514
663.902	0.0167862
663.980	0.0168944
664.058	0.0168494
664.136	0.0168871
664.215	0.0169061
664.293	0.0167982
664.371	0.0167355
664.449	0.0168559
664.527	0.0168076
664.605	0.0166839
664.683	0.0168723
664.761	0.0168933
664.840	0.0168039
664.918	0.0168126
664.996	0.0168185
665.074	0.0168667
665.152	0.0169546
665.230	0.0169087
665.308	0.0168061
665.386	0.0168262
665.465	0.0167641
665.543	0.0168549
665.621	0.0169214
665.699	0.0169384
665.777	0.0168670
665.855	0.0168645
665.933	0.0168380
666.011	0.0167994
666.090	0.0168764
666.168	0.0168649
666.246	0.0168210
666.324	0.0167021
666.402	0.0169174
666.480	0.0169051
666.558	0.0167348
666.636	0.0166343
666.715	0.0168233
666.793	0.0166949
666.871	0.0165928
666.949	0.0167283
667.027	0.0166512
667.105	0.0168262
667.183	0.0167419
667.261	0.0167864
667.340	0.0168465
667.418	0.0168355
667.496	0.0168477
667.574	0.0169155
667.652	0.0167442
667.730	0.0167287
667.808	0.0169185
667.886	0.0168542
667.965	0.0168425
668.043	0.0167830
668.121	0.0168127
668.199	0.0167796
668.277	0.0167725
668.355	0.0167154
668.433	0.0167981
668.511	0.0167046
668.590	0.0167041
668.668	0.0168398
668.746	0.0167476
668.824	0.0169218
668.902	0.0168140
668.980	0.0167593
669.058	0.0166486
669.136	0.0169356
669.215	0.0168446
669.293	0.0168413
669.371	0.0168445
669.449	0.0168392
669.527	0.0167687
669.605	0.0167910
669.683	0.0169076
669.761	0.0170094
669.840	0.0166901
669.918	0.0167152
669.996	0.0168889
670.074	0.0168674
670.152	0.0169597
670.230	0.0168604
670.308	0.0168135
670.386	0.0169029
670.465	0.0168549
670.543	0.0167748
670.621	0.0168256
670.699	0.0167787
670.777	0.0167508
670.855	0.0167028
670.933	0.0167326
671.011	0.0167985
671.090	0.0166951
671.168	0.0167202
671.246	0.0168716
671.324	0.0167206
671.402	0.0166781
671.480	0.0166755
671.558	0.0168516
671.636	0.0168005
671.715	0.0167719
671.793	0.0167645
671.871	0.0169167
671.949	0.0168491
672.027	0.0167020
672.105	0.0169388
672.183	0.0167421
672.261	0.0168751
672.340	0.0168404
672.418	0.0168127
672.496	0.0168621
672.574	0.0169217
672.652	0.0168681
672.730	0.0168111
672.808	0.0168842
672.886	0.0169006
672.965	0.0167198
673.043	0.0168069
673.121	0.0167716
673.199	0.0167568
673.277	0.0169597
673.355	0.0168723
673.433	0.0170122
673.511	0.0168702
673.590	0.0168572
673.668	0.0168062
673.746	0.0168453
673.824	0.0168071
673.902	0.0167796
673.980	0.0168613
674.058	0.0169414
674.136	0.0167656
674.215	0.0168917
674.293	0.0168720
674.371	0.0167741
674.449	0.0169482
674.527	0.0168856
674.605	0.0167622
674.683	0.0168732
674.761	0.0167888
674.840	0.0167771
674.918	0.0168941
674.996	0.0168710
675.074	0.0168237
675.152	0.0169255
675.230	0.0168734
675.308	0.0166586
675.386	0.0167481
675.465	0.0167146
675.543	0.0168515
675.621	0.0168687
675.699	0.0167320
675.777	0.0169717
675.855	0.0169057
675.933	0.0167841
676.011	0.0169607
676.090	0.0169607
676.168	0.0169437
676.246	0.0169768
676.324	0.0167525
676.402	0.0168700
676.480	0.0169011
676.558	0.0168551
676.636	0.0168243
676.715	0.0168047
676.793	0.0168584
676.871	0.0167905
676.949	0.0167806
677.027	0.0167809
677.105	0.0167152
677.183	0.0167518
677.261	0.0168260
677.340	0.0168423
677.418	0.0167583
677.496	0.0167985
677.574	0.0169169
677.652	0.0168507
677.730	0.0167363
677.808	0.0168324
677.886	0.0169743
677.965	0.0169920
678.043	0.0167488
678.121	0.0167307
678.199	0.0168027
678.277	0.0168639
678.355	0.0167941
678.433	0.0169203
678.511	0.0168139
678.590	0.0168674
678.668	0.0167021
678.746	0.0166531
678.824	0.0168060
678.902	0.0167624
678.980	0.0167397
679.058	0.0167396
679.136	0.0168140
679.215	0.0167168
679.293	0.0168687
679.371	0.0168289
679.449	0.0168103
679.527	0.0168454
679.605	0.0169287
679.683	0.0168224
679.761	0.0168029
679.840	0.0168039
679.918	0.0169403
679.996	0.0169230
680.074	0.0166747
680.152	0.0168371
680.230	0.0169263
680.308	0.0168166
680.386	0.0168647
680.465	0.0168233
680.543	0.0167872
680.621	0.0168178
680.699	0.0168559
680.777	0.0169315
680.855	0.0168510
680.933	0.0167805
681.011	0.0167452
681.090	0.0167999
681.168	0.0169653
681.246	0.0168193
681.324	0.0168309
681.402	0.0167619
681.480	0.0168226
681.558	0.0168493
681.636	0.0167919
681.715	0.0167473
681.793	0.0167435
681.871	0.0169236
681.949	0.0168571
682.027	0.0167461
682.105	0.0166806
682.183	0.0168697
682.261	0.0167153
682.340	0.0169256
682.418	0.0167866
682.496	0.0168190
682.574	0.0167741
682.652	0.0168577
682.730	0.0168379
682.808	0.0168870
682.886	0.0168005
682.965	0.0167994
683.043	0.0167475
683.121	0.0166190
683.199	0.0167516
683.277	0.0169071
683.355	0.0168111
683.433	0.0167995
683.511	0.0167818
683.590	0.0167893
683.668	0.0168447
683.746	0.0168863
683.824	0.0168340
683.902	0.0168056
683.980	0.0168686
684.058	0.0169675
684.136	0.0167434
684.215	0.0168554
684.293	0.0169418
684.371	0.0169640
684.449	0.0168406
684.527	0.0168535
684.605	0.0169508
684.683	0.0167951
684.761	0.0168216
684.840	0.0168155
684.918	0.0168575
684.996	0.0168163
685.074	0.0168456
685.152	0.0167885
685.230	0.0168829
685.308	0.0168844
685.386	0.0168728
685.465	0.0166944
685.543	0.0168442
685.621	0.0168037
685.699	0.0169781
685.777	0.0167107
685.855	0.0168688
685.933	0.0168929
686.011	0.0168890
686.090	0.0169743
686.168	0.0169331
686.246	0.0168154
686.324	0.0168847
686.402	0.0168324
686.480	0.0168141
686.558	0.0168963
686.636	0.0169745
686.715	0.0167654
686.793	0.0168221
686.871	0.0168361
686.949	0.0168761
687.027	0.0169046
687.105	0.0168601
687.183	0.0168288
687.261	0.0168482
687.340	0.0167807
687.418	0.0168306
687.496	0.0169438
687.574	0.0168865
687.652	0.0168967
687.730	0.0169479
687.808	0.0169250
687.886	0.0168325
687.965	0.0168395
688.043	0.0168308
688.121	0.0168322
688.199	0.0167857
688.277	0.0170297
688.355	0.0169859
688.433	0.0169276
688.511	0.0169077
688.590	0.0167348
688.668	0.0168494
688.746	0.0168275
688.824	0.0167048
688.902	0.0168663
688.980	0.0169038
689.058	0.0168171
689.136	0.0168523
689.215	0.0167782
689.293	0.0168183
689.371	0.0167231
689.449	0.0168229
689.527	0.0167892
689.605	0.0168867
689.683	0.0169031
689.761	0.0168998
689.840	0.0168317
689.918	0.0168059
689.996	0.0169015
690.074	0.0169646
690.152	0.0167889
690.230	0.0167469
690.308	0.0169251
690.386	0.0167735
690.465	0.0168824
690.543	0.0167903
690.621	0.0169917
690.699	0.0167308
690.777	0.0167530
690.855	0.0167679
690.933	0.0168167
691.011	0.0168082
691.090	0.0168465
691.168	0.0168310
691.246	0.0168293
691.324	0.0168614
691.402	0.0168482
691.480	0.0168106
691.558	0.0168403
691.636	0.0168454
691.715	0.0169132
691.793	0.0168524
691.871	0.0168347
691.949	0.0167727
692.027	0.0168092
692.105	0.0169530
692.183	0.0169315
692.261	0.0168066
692.340	0.0168362
692.418	0.0167412
692.496	0.0167692
692.574	0.0168461
692.652	0.0167800
692.730	0.0167554
692.808	0.0168272
692.886	0.0168761
692.965	0.0168156
693.043	0.0166997
693.121	0.0169036
693.199	0.0169030
693.277	0.0169140
693.355	0.0169863
693.433	0.0169065
693.511	0.0167670
693.590	0.0168259
693.668	0.0168965
693.746	0.0168501
693.824	0.0168261
693.902	0.0168689
693.980	0.0168414
694.058	0.0169210
694.136	0.0167486
694.215	0.0168616
694.293	0.0167844
694.371	0.0168302
694.449	0.0167871
694.527	0.0167130
694.605	0.0166673
694.683	0.0167129
694.761	0.0168056
694.840	0.0167892
694.918	0.0168250
694.996	0.0167540
695.074	0.0167469
695.152	0.0167047
695.230	0.0167365
695.308	0.0165758
695.386	0.0166994
695.465	0.0166870
695.543	0.0167448
695.621	0.0168124
695.699	0.0167474
695.777	0.0167700
695.855	0.0166612
695.933	0.0168211
696.011	0.0166881
696.090	0.0168419
696.168	0.0168493
696.246	0.0168288
696.324	0.0168812
696.402	0.0169611
696.480	0.0169243
696.558	0.0169656
696.636	0.0170217
696.715	0.0168149
696.793	0.0168497
696.871	0.0170213
696.949	0.0168364
697.027	0.0168434
697.105	0.0168892
697.183	0.0169179
697.261	0.0167233
697.340	0.0167038
697.418	0.0167449
697.496	0.0167729
697.574	0.0167976
697.652	0.0166321
697.730	0.0168315
697.808	0.0170123
697.886	0.0168448
697.965	0.0168290
698.043	0.0167467
698.121	0.0168281
698.199	0.0168204
698.277	0.0168819
698.355	0.0168712
698.433	0.0168119
698.511	0.0168378
698.590	0.0167236
698.668	0.0168329
698.746	0.0168085
698.824	0.0167744
698.902	0.0168304
698.980	0.0168977
699.058	0.0168436
699.136	0.0169044
699.215	0.0168551
699.293	0.0168961
699.371	0.0169526
699.449	0.0170153
699.527	0.0169717
699.605	0.0169242
699.683	0.0169992
699.761	0.0170960
699.840	0.0169531
699.918	0.0170573
699.996	0.0168987
700.074	0.0168105
700.152	0.0169110
700.230	0.0169186
700.308	0.0168495
700.386	0.0168898
700.465	0.0167798
700.543	0.0170132
700.621	0.0168273
700.699	0.0167509
700.777	0.0167815
700.855	0.0168131
700.933	0.0167547
701.011	0.0168483
701.090	0.0168670
701.168	0.0167370
701.246	0.0166195
701.324	0.0166433
701.402	0.0167954
701.480	0.0167849
701.558	0.0167776
701.636	0.0167564
701.715	0.0166972
701.793	0.0166719
701.871	0.0167158
701.949	0.0168614
702.027	0.0168029
702.105	0.0168405
702.183	0.0168890
702.261	0.0167358
702.340	0.0168951
702.418	0.0169321
702.496	0.0169267
702.574	0.0169354
702.652	0.0168565
702.730	0.0169968
702.808	0.0169952
702.886	0.0169134
702.965	0.0170990
703.043	0.0169444
703.121	0.0170499
703.199	0.0169903
703.277	0.0169849
703.355	0.0169791
703.433	0.0169822
703.511	0.0168794
703.590	0.0168542
703.668	0.0168851
703.746	0.0169972
703.824	0.0167719
703.902	0.0168197
703.980	0.0167113
704.058	0.0168294
704.136	0.0166949
704.215	0.0167853
704.293	0.0167800
704.371	0.0168323
704.449	0.0169338
704.527	0.0168420
704.605	0.0167911
704.683	0.0167180
704.761	0.0166947
704.840	0.0168100
704.918	0.0169041
704.996	0.0167609
705.074	0.0168130
705.152	0.0168130
705.230	0.0168797
705.308	0.0166893
705.386	0.0167910
705.465	0.0166661
705.543	0.0166718
705.621	0.0166710
705.699	0.0167955
705.777	0.0167524
705.855	0.0166564
705.933	0.0167542
706.011	0.0168774
706.090	0.0166423
706.168	0.0168441
706.246	0.0169332
706.324	0.0168703
706.402	0.0168484
706.480	0.0167377
706.558	0.0168846
706.636	0.0168963
706.715	0.0169309
706.793	0.0168449
706.871	0.0169363
706.949	0.0170448
707.027	0.0169608
707.105	0.0167054
707.183	0.0169373
707.261	0.0168563
707.340	0.0168639
707.418	0.0168179
707.496	0.0168988
707.574	0.0168840
707.652	0.0168403
707.730	0.0168679
707.808	0.0168484
707.886	0.0167451
707.965	0.0169545
708.043	0.0169238
708.121	0.0168735
708.199	0.0169673
708.277	0.0170529
708.355	0.0169319
708.433	0.0169782
708.511	0.0170235
708.590	0.0171549
708.668	0.0170261
708.746	0.0169926
708.824	0.0169534
708.902	0.0171863
708.980	0.0172055
709.058	0.0171678
709.136	0.0170170
709.215	0.0171957
709.293	0.0171057
709.371	0.0170919
709.449	0.0169353
709.527	0.0169435
709.605	0.0168071
709.683	0.0166798
709.761	0.0166891
709.840	0.0166453
709.918	0.0167649
709.996	0.0166727
710.074	0.0166313
710.152	0.0166220
710.230	0.0165508
710.308	0.0164761
710.386	0.0165589
710.465	0.0165673
710.543	0.0165214
710.621	0.0165598
710.699	0.0166024
710.777	0.0166542
710.855	0.0167142
710.933	0.0166214
711.011	0.0165843
711.090	0.0166640
711.168	0.0167091
711.246	0.0168024
711.324	0.0168674
711.402	0.0167690
711.480	0.0167111
711.558	0.0168446
711.636	0.0168381
711.715	0.0169786
711.793	0.0168662
711.871	0.0168848
711.949	0.0168534
712.027	0.0169945
712.105	0.0169169
712.183	0.0170490
712.261	0.0169765
712.340	0.0169363
712.418	0.0171011
712.496	0.0170348
712.574	0.0169897
712.652	0.0169395
712.730	0.0169350
712.808	0.0169448
712.886	0.0168769
712.965	0.0170010
713.043	0.0168319
713.121	0.0167689
713.199	0.0169414
713.277	0.0169511
713.355	0.0169354
713.433	0.0169054
713.511	0.0167996
713.590	0.0168290
713.668	0.0168526
713.746	0.0169833
713.824	0.0168229
713.902	0.0168635
713.980	0.0168037
714.058	0.0168692
714.136	0.0170234
714.215	0.0168544
714.293	0.0168570
714.371	0.0169317
714.449	0.0167812
714.527	0.0167593
714.605	0.0167436
714.683	0.0168747
714.761	0.0167545
714.840	0.0167984
714.918	0.0168044
714.996	0.0167019
715.074	0.0165963
715.152	0.0168429
715.230	0.0167708
715.308	0.0167108
715.386	0.0166449
715.465	0.0164731
715.543	0.0167236
715.621	0.0166850
715.699	0.0166606
715.777	0.0165979
715.855	0.0166219
715.933	0.0166915
716.011	0.0167947
716.090	0.0167248
716.168	0.0168543
716.246	0.0167288
716.324	0.0168333
716.402	0.0168541
716.480	0.0169471
716.558	0.0169048
716.636	0.0169512
716.715	0.0169402
716.793	0.0168728
716.871	0.0171334
716.949	0.0171883
717.027	0.0169640
717.105	0.0170587
717.183	0.0170763
717.261	0.0169485
717.340	0.0169683
717.418	0.0171371
717.496	0.0171570
717.574	0.0169060
717.652	0.0170798
717.730	0.0170510
717.808	0.0169902
717.886	0.0168423
717.965	0.0169398
718.043	0.0171326
718.121	0.0170839
718.199	0.0169251
718.277	0.0169757
718.355	0.0169447
718.433	0.0168315
718.511	0.0169180
718.590	0.0168996
718.668	0.0168233
718.746	0.0167262
718.824	0.0167487
718.902	0.0167355
718.980	0.0166221
719.058	0.0164697
719.136	0.0166567
719.215	0.0166557
719.293	0.0165892
719.371	0.0165864
719.449	0.0167728
719.527	0.0168060
719.605	0.0167161
719.683	0.0167627
719.761	0.0168305
719.840	0.0169463
719.918	0.0168800
719.996	0.0168160
720.074	0.0170508
720.152	0.0168086
720.230	0.0169157
720.308	0.0170036
720.386	0.0169134
720.465	0.0169664
720.543	0.0168806
720.621	0.0169371
720.699	0.0169537
720.777	0.0169193
720.855	0.0167539
720.933	0.0166760
721.011	0.0168452
721.090	0.0167131
721.168	0.0165517
721.246	0.0166275
721.324	0.0166544
721.402	0.0167946
721.480	0.0167671
721.558	0.0167420
721.636	0.0168587
721.715	0.0168578
721.793	0.0168209
721.871	0.0168621
721.949	0.0170549
722.027	0.0169935
722.105	0.0170015
722.183	0.0169194
722.261	0.0169878
722.340	0.0171004
722.418	0.0169696
722.496	0.0171095
722.574	0.0171059
722.652	0.0169044
722.730	0.0169305
722.808	0.0169484
722.886	0.0168446
722.965	0.0168781
723.043	0.0168005
723.121	0.0169059
723.199	0.0168182
723.277	0.0168371
723.355	0.0168382
723.433	0.0167766
723.511	0.0167788
723.590	0.0169395
723.668	0.0166567
723.746	0.0168605
723.824	0.0166518
723.902	0.0166637
723.980	0.0166991
724.058	0.0167924
724.136	0.0168999
724.215	0.0168723
724.293	0.0169189
724.371	0.0168549
724.449	0.0168797
724.527	0.0167809
724.605	0.0168069
724.683	0.0169154
724.761	0.0168907
724.840	0.0169631
724.918	0.0170231
724.996	0.0169756
725.074	0.0170461
725.152	0.0169661
725.230	0.0170102
725.308	0.0172314
725.386	0.0171768
725.465	0.0170385
725.543	0.0170912
725.621	0.0170901
725.699	0.0170979
725.777	0.0170282
725.855	0.0170162
725.933	0.0170329
726.011	0.0168057
726.090	0.0168465
726.168	0.0168491
726.246	0.0166574
726.324	0.0166975
726.402	0.0166205
726.480	0.0164565
726.558	0.0166182
726.636	0.0164537
726.715	0.0163968
726.793	0.0162387
726.871	0.0164171
726.949	0.0162641
727.027	0.0160866
727.105	0.0162260
727.183	0.0163077
727.261	0.0163323
727.340	0.0164806
727.418	0.0165150
727.496	0.0166355
727.574	0.0168055
727.652	0.0168252
727.730	0.0168709
727.808	0.0169510
727.886	0.0170661
727.965	0.0172427
728.043	0.0172567
728.121	0.0173434
728.199	0.0173787
728.277	0.0174322
728.355	0.0174362
728.433	0.0174888
728.511	0.0175572
728.590	0.0173649
728.668	0.0173397
728.746	0.0172200
728.824	0.0170692
728.902	0.0170280
728.980	0.0170224
729.058	0.0168362
729.136	0.0166759
729.215	0.0166787
729.293	0.0166492
729.371	0.0165584
729.449	0.0164430
729.527	0.0164561
729.605	0.0164440
729.683	0.0162943
729.761	0.0163773
729.840	0.0165039
729.918	0.0165544
729.996	0.0165530
730.074	0.0164280
730.152	0.0166316
730.230	0.0167374
730.308	0.0167199
730.386	0.0167400
730.465	0.0167665
730.543	0.0170220
730.621	0.0170387
730.699	0.0169094
730.777	0.0171029
730.855	0.0171065
730.933	0.0171090
731.011	0.0172321
731.090	0.0172943
731.168	0.0172986
731.246	0.0172041
731.324	0.0172982
731.402	0.0173557
731.480	0.0173969
731.558	0.0173571
731.636	0.0172089
731.715	0.0173167
731.793	0.0173914
731.871	0.0171877
731.949	0.0170694
732.027	0.0172622
732.105	0.0170531
732.183	0.0168994
732.261	0.0169354
732.340	0.0168254
732.418	0.0167155
732.496	0.0166708
732.574	0.0165321
732.652	0.0164689
732.730	0.0163332
732.808	0.0162943
732.886	0.0162466
732.965	0.0161436
733.043	0.0160951
733.121	0.0161139
733.199	0.0163462
733.277	0.0161898
733.355	0.0161115
733.433	0.0161111
733.511	0.0162704
733.590	0.0163035
733.668	0.0163187
733.746	0.0165529
733.824	0.0164809
733.902	0.0167368
733.980	0.0166553
734.058	0.0169228
734.136	0.0169512
734.215	0.0170540
734.293	0.0171201
734.371	0.0171685
734.449	0.0172628
734.527	0.0172840
734.605	0.0172307
734.683	0.0174471
734.761	0.0173507
734.840	0.0172617
734.918	0.0174808
734.996	0.0172784
735.074	0.0170506
735.152	0.0171950
735.230	0.0170874
735.308	0.0170225
735.386	0.0167646
735.465	0.0166479
735.543	0.0166137
735.621	0.0164934
735.699	0.0164342
735.777	0.0164099
735.855	0.0163839
735.933	0.0162960
736.011	0.0162862
736.090	0.0162585
736.168	0.0164708
736.246	0.0162126
736.324	0.0163355
736.402	0.0166422
736.480	0.0166088
736.558	0.0166346
736.636	0.0167670
736.715	0.0166310
736.793	0.0169238
736.871	0.0171113
736.949	0.0170031
737.027	0.0171624
737.105	0.0171842
737.183	0.0172687
737.261	0.0173056
737.340	0.0172324
737.418	0.0172167
737.496	0.0173258
737.574	0.0171456
737.652	0.0171318
737.730	0.0170504
737.808	0.0170609
737.886	0.0170399
737.965	0.0170426
738.043	0.0169419
738.121	0.0168295
738.199	0.0168783
738.277	0.0167490
738.355	0.0168668
738.433	0.0166087
738.511	0.0166508
738.590	0.0166159
738.668	0.0165900
738.746	0.0167469
738.824	0.0167389
738.902	0.0168260
738.980	0.0168764
739.058	0.0168727
739.136	0.0167830
739.215	0.0168472
739.293	0.0168527
739.371	0.0167836
739.449	0.0168637
739.527	0.0168740
739.605	0.0169551
739.683	0.0168314
739.761	0.0168279
739.840	0.0167413
739.918	0.0168717
739.996	0.0167967
740.074	0.0167553
740.152	0.0166877
740.230	0.0166920
740.308	0.0166547
740.386	0.0167773
740.465	0.0166924
740.543	0.0166659
740.621	0.0164942
740.699	0.0167110
740.777	0.0167579
740.855	0.0166312
740.933	0.0167590
741.011	0.0166925
741.090	0.0167694
741.168	0.0169001
741.246	0.0169505
741.324	0.0169139
741.402	0.0170008
741.480	0.0169333
741.558	0.0169574
741.636	0.0169733
741.715	0.0171250
741.793	0.0171769
741.871	0.0171741
741.949	0.0170280
742.027	0.0169058
742.105	0.0168178
742.183	0.0169657
742.261	0.0169547
742.340	0.0168020
742.418	0.0166480
742.496	0.0166428
742.574	0.0165607
742.652	0.0165936
742.730	0.0164349
742.808	0.0164787
742.886	0.0166141
742.965	0.0165308
743.043	0.0165475
743.121	0.0166424
743.199	0.0166776
743.277	0.0165341
743.355	0.0166419
743.433	0.0166689
743.511	0.0165231
743.590	0.0165240
743.668	0.0167809
743.746	0.0166534
743.824	0.0167207
743.902	0.0167410
743.980	0.0167066
744.058	0.0166843
744.136	0.0167319
744.215	0.0169082
744.293	0.0168826
744.371	0.0167178
744.449	0.0167708
744.527	0.0168658
744.605	0.0169753
744.683	0.0169118
744.761	0.0169598
744.840	0.0169856
744.918	0.0169666
744.996	0.0171088
745.074	0.0171957
745.152	0.0171007
745.230	0.0170681
745.308	0.0171024
745.386	0.0170558
745.465	0.0171049
745.543	0.0169051
745.621	0.0169288
745.699	0.0169263
745.777	0.0168609
745.855	0.0169498
745.933	0.0168311
746.011	0.0167731
746.090	0.0167770
746.168	0.0166912
746.246	0.0166879
746.324	0.0165514
746.402	0.0165214
746.480	0.0166412
746.558	0.0167113
746.636	0.0166470
746.715	0.0168158
746.793	0.0169028
746.871	0.0169581
746.949	0.0169535
747.027	0.0170429
747.105	0.0171104
747.183	0.0171069
747.261	0.0171635
747.340	0.0171944
747.418	0.0171642
747.496	0.0170651
747.574	0.0171840
747.652	0.0173284
747.730	0.0172781
747.808	0.0171947
747.886	0.0170186
747.965	0.0170025
748.043	0.0169270
748.121	0.0169489
748.199	0.0170319
748.277	0.0168117
748.355	0.0168269
748.433	0.0167782
748.511	0.0166767
748.590	0.0165718
748.668	0.0165269
748.746	0.0164346
748.824	0.0164259
748.902	0.0165184
748.980	0.0165441
749.058	0.0165051
749.136	0.0165612
749.215	0.0166020
749.293	0.0165577
749.371	0.0166237
749.449	0.0166235
749.527	0.0167021
749.605	0.0167749
749.683	0.0169533
749.761	0.0170045
749.840	0.0169129
749.918	0.0171186
749.996	0.0171539
750.074	0.0170667
750.152	0.0171797
750.230	0.0170579
750.308	0.0169752
750.386	0.0169714
750.465	0.0170628
750.543	0.0169744
750.621	0.0169614
750.699	0.0168700
750.777	0.0168665
750.855	0.0166791
750.933	0.0166572
751.011	0.0166638
751.090	0.0165211
751.168	0.0164941
751.246	0.0163620
751.324	0.0164986
751.402	0.0164882
751.480	0.0163718
751.558	0.0164737
751.636	0.0164589
751.715	0.0164036
751.793	0.0166223
751.871	0.0164661
751.949	0.0165926
752.027	0.0166116
752.105	0.0167620
752.183	0.0168537
752.261	0.0168169
752.340	0.0168323
752.418	0.0170037
752.496	0.0170433
752.574	0.0171432
752.652	0.0169604
752.730	0.0170675
752.808	0.0171941
752.886	0.0170942
752.965	0.0171028
753.043	0.0171392
753.121	0.0171087
753.199	0.0171195
753.277	0.0170699
753.355	0.0170103
753.433	0.0170697
753.511	0.0170639
753.590	0.0169306
753.668	0.0167078
753.746	0.0168613
753.824	0.0168384
753.902	0.0167687
753.980	0.0165636
754.058	0.0169006
754.136	0.0168049
754.215	0.0166674
754.293	0.0167450
754.371	0.0166686
754.449	0.0167936
754.527	0.0167457
754.605	0.0167341
754.683	0.0168172
754.761	0.0169724
754.840	0.0169427
754.918	0.0170907
754.996	0.0170656
755.074	0.0171441
755.152	0.0170232
755.230	0.0171154
755.308	0.0173390
755.386	0.0172156
755.465	0.0171957
755.543	0.0172468
755.621	0.0172104
755.699	0.0171806
755.777	0.0169106
755.855	0.0169083
755.933	0.0169567
756.011	0.0169084
756.090	0.0167470
756.168	0.0166357
756.246	0.0167293
756.324	0.0165573
756.402	0.0164428
756.480	0.0163980
756.558	0.0163388
756.636	0.0164606
756.715	0.0164178
756.793	0.0164046
756.871	0.0165573
756.949	0.0165827
757.027	0.0164958
757.105	0.0165308
757.183	0.0165565
757.261	0.0165942
757.340	0.0167318
757.418	0.0166969
757.496	0.0166463
757.574	0.0169984
757.652	0.0168716
757.730	0.0168966
757.808	0.0168618
757.886	0.0168542
757.965	0.0169407
758.043	0.0169529
758.121	0.0168608
758.199	0.0169456
758.277	0.0168887
758.355	0.0168147
758.433	0.0168917
758.511	0.0167216
758.590	0.0168285
758.668	0.0167545
758.746	0.0168679
758.824	0.0167256
758.902	0.0167455
758.980	0.0166553
759.058	0.0166150
759.136	0.0165774
759.215	0.0166101
759.293	0.0165205
759.371	0.0165557
759.449	0.0165722
759.527	0.0165736
759.605	0.0165188
759.683	0.0165871
759.761	0.0165737
759.840	0.0167458
759.918	0.0168302
759.996	0.0168227
760.074	0.0167667
760.152	0.0167442
760.230	0.0167565
760.308	0.0168996
760.386	0.0168141
760.465	0.0168063
760.543	0.0170432
760.621	0.0171426
760.699	0.0169307
760.777	0.0169612
760.855	0.0169601
760.933	0.0169089
761.011	0.0170362
761.090	0.0169989
761.168	0.0169469
761.246	0.0168361
761.324	0.0169398
761.402	0.0168272
761.480	0.0168266
761.558	0.0168881
761.636	0.0167234
761.715	0.0168017
761.793	0.0167539
761.871	0.0167408
761.949	0.0167455
762.027	0.0167690
762.105	0.0167265
762.183	0.0168423
762.261	0.0167641
762.340	0.0168859
762.418	0.0168202
762.496	0.0169284
762.574	0.0169518
762.652	0.0168447
762.730	0.0168655
762.808	0.0170178
762.886	0.0170347
762.965	0.0171683
763.043	0.0170563
763.121	0.0170047
763.199	0.0171629
763.277	0.0172334
763.355	0.0173006
763.433	0.0171210
763.511	0.0170921
763.590	0.0170927
763.668	0.0170768
763.746	0.0168726
763.824	0.0168501
763.902	0.0167501
763.980	0.0168311
764.058	0.0168763
764.136	0.0166584
764.215	0.0166839
764.293	0.0165424
764.371	0.0163838
764.449	0.0164079
764.527	0.0164816
764.605	0.0164347
764.683	0.0164870
764.761	0.0163062
764.840	0.0164386
764.918	0.0164246
764.996	0.0164998
765.074	0.0165020
765.152	0.0166492
765.230	0.0166744
765.308	0.0167224
765.386	0.0168762
765.465	0.0167316
765.543	0.0168240
765.621	0.0168652
765.699	0.0169383
765.777	0.0170764
765.855	0.0169634
765.933	0.0169920
766.011	0.0168570
766.090	0.0170230
766.168	0.0170058
766.246	0.0170179
766.324	0.0170026
766.402	0.0168902
766.480	0.0168076
766.558	0.0168351
766.636	0.0168056
766.715	0.0167477
766.793	0.0167853
766.871	0.0166825
766.949	0.0166209
767.027	0.0166801
767.105	0.0165943
767.183	0.0165904
767.261	0.0167273
767.340	0.0166805
767.418	0.0167191
767.496	0.0165940
767.574	0.0166622
767.652	0.0167986
767.730	0.0166264
767.808	0.0166821
767.886	0.0168668
767.965	0.0167489
768.043	0.0168825
768.121	0.0169171
768.199	0.0168368
768.277	0.0168218
768.355	0.0168584
768.433	0.0168901
768.511	0.0168793
768.590	0.0168443
768.668	0.0169103
768.746	0.0170240
768.824	0.0167935
768.902	0.0168956
768.980	0.0169118
769.058	0.0168992
769.136	0.0168797
769.215	0.0169575
769.293	0.0169141
769.371	0.0168393
769.449	0.0169199
769.527	0.0168654
769.605	0.0169337
769.683	0.0168388
769.761	0.0167809
769.840	0.0169053
769.918	0.0170448
769.996	0.0168333
770.074	0.0168407
770.152	0.0169506
770.230	0.0169389
770.308	0.0168547
770.386	0.0168670
770.465	0.0169670
770.543	0.0169065
770.621	0.0169839
770.699	0.0168972
770.777	0.0170525
770.855	0.0170839
770.933	0.0171123
771.011	0.0171107
771.090	0.0171268
771.168	0.0171714
771.246	0.0171225
771.324	0.0172752
771.402	0.0172022
771.480	0.0170688
771.558	0.0171696
771.636	0.0171821
771.715	0.0171914
771.793	0.0171506
771.871	0.0170793
771.949	0.0169611
772.027	0.0169832
772.105	0.0169151
772.183	0.0167793
772.261	0.0168233
772.340	0.0167103
772.418	0.0166417
772.496	0.0164919
772.574	0.0165066
772.652	0.0164902
772.730	0.0165615
772.808	0.0162686
772.886	0.0163525
772.965	0.0163689
773.043	0.0163490
773.121	0.0163138
773.199	0.0162992
773.277	0.0164106
773.355	0.0164429
773.433	0.0164631
773.511	0.0165996
773.590	0.0166771
773.668	0.0168121
773.746	0.0169537
773.824	0.0169170
773.902	0.0169692
773.980	0.0170885
774.058	0.0171897
774.136	0.0171438
774.215	0.0170528
774.293	0.0170515
774.371	0.0171568
774.449	0.0173151
774.527	0.0173119
774.605	0.0171863
774.683	0.0171750
774.761	0.0170923
774.840	0.0170012
774.918	0.0169199
774.996	0.0169124
775.074	0.0168568
775.152	0.0166179
775.230	0.0166353
775.308	0.0166209
775.386	0.0165463
775.465	0.0165352
775.543	0.0165454
775.621	0.0166800
775.699	0.0164859
775.777	0.0163482
775.855	0.0165659
775.933	0.0166419
776.011	0.0165028
776.090	0.0167810
776.168	0.0167530
776.246	0.0168668
776.324	0.0167665
776.402	0.0168855
776.480	0.0171323
776.558	0.0170763
776.636	0.0170478
776.715	0.0170344
776.793	0.0170927
776.871	0.0170650
776.949	0.0170374
777.027	0.0169743
777.105	0.0170663
777.183	0.0169732
777.261	0.0170019
777.340	0.0169021
777.418	0.0168480
777.496	0.0168148
777.574	0.0166530
777.652	0.0167799
777.730	0.0167312
777.808	0.0166095
777.886	0.0167226
777.965	0.0167710
778.043	0.0167112
778.121	0.0167860
778.199	0.0168584
778.277	0.0168644
778.355	0.0167966
778.433	0.0170819
778.511	0.0170025
778.590	0.0168922
778.668	0.0170042
778.746	0.0171860
778.824	0.0170589
778.902	0.0172205
778.980	0.0170985
779.058	0.0172280
779.136	0.0172242
779.215	0.0171124
779.293	0.0172282
779.371	0.0172364
779.449	0.0172083
779.527	0.0172128
779.605	0.0171058
779.683	0.0170834
779.761	0.0170782
779.840	0.0168302
779.918	0.0168677
779.996	0.0168309
780.074	0.0167068
780.152	0.0166372
780.230	0.0166182
780.308	0.0164985
780.386	0.0164767
780.465	0.0163020
780.543	0.0162147
780.621	0.0163258
780.699	0.0163017
780.777	0.0162469
780.855	0.0162296
780.933	0.0163062
781.011	0.0163526
781.090	0.0162296
781.168	0.0163053
781.246	0.0165580
781.324	0.0165392
781.402	0.0166675
781.480	0.0168393
781.558	0.0169138
781.636	0.0169169
781.715	0.0169881
781.793	0.0170555
781.871	0.0172083
781.949	0.0172398
782.027	0.0171275
782.105	0.0172459
782.183	0.0173004
782.261	0.0171558
782.340	0.0170554
782.418	0.0172874
782.496	0.0171387
782.574	0.0171126
782.652	0.0171604
782.730	0.0169021
782.808	0.0169289
782.886	0.0169800
782.965	0.0167911
783.043	0.0166138
783.121	0.0166396
783.199	0.0165630
783.277	0.0167257
783.355	0.0166292
783.433	0.0166074
783.511	0.0166681
783.590	0.0166600
783.668	0.0166946
783.746	0.0167584
783.824	0.0166938
783.902	0.0168066
783.980	0.0167504
784.058	0.0167415
784.136	0.0168311
784.215	0.0168599
784.293	0.0167651
784.371	0.0169454
784.449	0.0169404
784.527	0.0169728
784.605	0.0169553
784.683	0.0169537
784.761	0.0169092
784.840	0.0170405
784.918	0.0169239
784.996	0.0170017
785.074	0.0170155
785.152	0.0169845
785.230	0.0169170
785.308	0.0169778
785.386	0.0168399
785.465	0.0167742
785.543	0.0167126
785.621	0.0168410
785.699	0.0168851
785.777	0.0166953
785.855	0.0168194
785.933	0.0167681
786.011	0.0166835
786.090	0.0168611
786.168	0.0169750
786.246	0.0168024
786.324	0.0168777
786.402	0.0168549
786.480	0.0169497
786.558	0.0170252
786.636	0.0171149
786.715	0.0170811
786.793	0.0170899
786.871	0.0170556
786.949	0.0170221
787.027	0.0170611
787.105	0.0171390
787.183	0.0172054
787.261	0.0171203
787.340	0.0172366
787.418	0.0170837
787.496	0.0170872
787.574	0.0171223
787.652	0.0170768
787.730	0.0169196
787.808	0.0168907
787.886	0.0167587
787.965	0.0166950
788.043	0.0165665
788.121	0.0166025
788.199	0.0165131
788.277	0.0163783
788.355	0.0163142
788.433	0.0163574
788.511	0.0161814
788.590	0.0163046
788.668	0.0163100
788.746	0.0162262
788.824	0.0163248
788.902	0.0162801
788.980	0.0162875
789.058	0.0164070
789.136	0.0165403
789.215	0.0165873
789.293	0.0166100
789.371	0.0166872
789.449	0.0167433
789.527	0.0168021
789.605	0.0169163
789.683	0.0168628
789.761	0.0170846
789.840	0.0172225
789.918	0.0171603
789.996	0.0171153
790.074	0.0172097
790.152	0.0172134
790.230	0.0172470
790.308	0.0172507
790.386	0.0172182
790.465	0.0172089
790.543	0.0169343
790.621	0.0171731
790.699	0.0170153
790.777	0.0167899
790.855	0.0168351
790.933	0.0166425
791.011	0.0165929
791.090	0.0166369
791.168	0.0166705
791.246	0.0165458
791.324	0.0165571
791.402	0.0164900
791.480	0.0165816
791.558	0.0165631
791.636	0.0166231
791.715	0.0168108
791.793	0.0168206
791.871	0.0169414
791.949	0.0171075
792.027	0.0170028
792.105	0.0171387
792.183	0.0172561
792.261	0.0173544
792.340	0.0172843
792.418	0.0171774
792.496	0.0173061
792.574	0.0173695
792.652	0.0172973
792.730	0.0171085
792.808	0.0172310
792.886	0.0170095
792.965	0.0168761
793.043	0.0168102
793.121	0.0167757
793.199	0.0167971
793.277	0.0166001
793.355	0.0164854
793.433	0.0165486
793.511	0.0164934
793.590	0.0165611
793.668	0.0163787
793.746	0.0164118
793.824	0.0162954
793.902	0.0166628
793.980	0.0166419
794.058	0.0167222
794.136	0.0166412
794.215	0.0167429
794.293	0.0168468
794.371	0.0169944
794.449	0.0168684
794.527	0.0171163
794.605	0.0171269
794.683	0.0172357
794.761	0.0171402
794.840	0.0173473
794.918	0.0172651
794.996	0.0174738
795.074	0.0173081
795.152	0.0172315
795.230	0.0171983
795.308	0.0170612
795.386	0.0170452
795.465	0.0170162
795.543	0.0168675
795.621	0.0167300
795.699	0.0166682
795.777	0.0166676
795.855	0.0165636
795.933	0.0165376
796.011	0.0164438
796.090	0.0163474
796.168	0.0163934
796.246	0.0162662
796.324	0.0161759
796.402	0.0162668
796.480	0.0164033
796.558	0.0164042
796.636	0.0164249
796.715	0.0164259
796.793	0.0165654
796.871	0.0163831
796.949	0.0165104
797.027	0.0166448
797.105	0.0167481
797.183	0.0168287
797.261	0.0169154
797.340	0.0169818
797.418	0.0170760
797.496	0.0169871
797.574	0.0170389
797.652	0.0170682
797.730	0.0172200
797.808	0.0172749
797.886	0.0172458
797.965	0.0172234
798.043	0.0172770
798.121	0.0171708
798.199	0.0171402
798.277	0.0170789
798.355	0.0171589
798.433	0.0171236
798.511	0.0170673
798.590	0.0169376
798.668	0.0167371
798.746	0.0168604
798.824	0.0166850
798.902	0.0167662
798.980	0.0168144
799.058	0.0165672
799.136	0.0164888
799.215	0.0165997
799.293	0.0165468
799.371	0.0166000
799.449	0.0164952
799.527	0.0165705
799.605	0.0164532
799.683	0.0166602
799.761	0.0167740
799.840	0.0166287
799.918	0.0167282
799.996	0.0169005
800.074	0.0169807
800.152	0.0170650
800.230	0.0170264
800.308	0.0170864
800.386	0.0173213
800.465	0.0171367
800.543	0.0172784
800.621	0.0173014
800.699	0.0174049
800.777	0.0171960
800.855	0.0174341
800.933	0.0173033
801.011	0.0171532
801.090	0.0169366
801.168	0.0170039
801.246	0.0171685
801.324	0.0170152
801.402	0.0169751
801.480	0.0169210
801.558	0.0167934
801.636	0.0167542
801.715	0.0167171
801.793	0.0166313
801.871	0.0166701
801.949	0.0165535
802.027	0.0165201
802.105	0.0164698
802.183	0.0165659
802.261	0.0166927
802.340	0.0166817
802.418	0.0165834
802.496	0.0165340
802.574	0.0167709
802.652	0.0169249
802.730	0.0168579
802.808	0.0169123
802.886	0.0170480
802.965	0.0169841
803.043	0.0172282
803.121	0.0171500
803.199	0.0171423
803.277	0.0170351
803.355	0.0170506
803.433	0.0170977
803.511	0.0169363
803.590	0.0169662
803.668	0.0169822
803.746	0.0167702
803.824	0.0166946
803.902	0.0167658
803.980	0.0165878
804.058	0.0165492
804.136	0.0167267
804.215	0.0165071
804.293	0.0164546
804.371	0.0163955
804.449	0.0165484
804.527	0.0165594
804.605	0.0165536
804.683	0.0165318
804.761	0.0165921
804.840	0.0166708
804.918	0.0166439
804.996	0.0166338
805.074	0.0168163
805.152	0.0170110
805.230	0.0169213
805.308	0.0170782
805.386	0.0171025
805.465	0.0170499
805.543	0.0171418
805.621	0.0172189
805.699	0.0172424
805.777	0.0172626
805.855	0.0170825
805.933	0.0169672
806.011	0.0169576
806.090	0.0169717
806.168	0.0169980
806.246	0.0169795
806.324	0.0168941
806.402	0.0168069
806.480	0.0166872
806.558	0.0165962
806.636	0.0165672
806.715	0.0164978
806.793	0.0164529
806.871	0.0165425
806.949	0.0165124
807.027	0.0164508
807.105	0.0165419
807.183	0.0164113
807.261	0.0165002
807.340	0.0165479
807.418	0.0165282
807.496	0.0166959
807.574	0.0166144
807.652	0.0165673
807.730	0.0166508
807.808	0.0166590
807.886	0.0167696
807.965	0.0168786
808.043	0.0167707
808.121	0.0168211
808.199	0.0167969
808.277	0.0169501
808.355	0.0171938
808.433	0.0171056
808.511	0.0170620
808.590	0.0171844
808.668	0.0171282
808.746	0.0171041
808.824	0.0169773
808.902	0.0171605
808.980	0.0170994
809.058	0.0171451
809.136	0.0171362
809.215	0.0172237
809.293	0.0170918
809.371	0.0169971
809.449	0.0171185
809.527	0.0171034
809.605	0.0169917
809.683	0.0169070
809.761	0.0168867
809.840	0.0168298
809.918	0.0168526
809.996	0.0168018
810.074	0.0167138
810.152	0.0167417
810.230	0.0167594
810.308	0.0164230
810.386	0.0164588
810.465	0.0163808
810.543	0.0163745
810.621	0.0165554
810.699	0.0165730
810.777	0.0165997
810.855	0.0165662
810.933	0.0166084
811.011	0.0166061
811.090	0.0167505
811.168	0.0167191
811.246	0.0167914
811.324	0.0168539
811.402	0.0169808
811.480	0.0169360
811.558	0.0170488
811.636	0.0171202
811.715	0.0170637
811.793	0.0169376
811.871	0.0168391
811.949	0.0169922
812.027	0.0169006
812.105	0.0168831
812.183	0.0166753
812.261	0.0168353
812.340	0.0168414
812.418	0.0167316
812.496	0.0165213
812.574	0.0166699
812.652	0.0166653
812.730	0.0165336
812.808	0.0165675
812.886	0.0165678
812.965	0.0167609
813.043	0.0168176
813.121	0.0167512
813.199	0.0167304
813.277	0.0168944
813.355	0.0171259
813.433	0.0169756
813.511	0.0169597
813.590	0.0170483
813.668	0.0171097
813.746	0.0170869
813.824	0.0169644
813.902	0.0170454
813.980	0.0169912
814.058	0.0171057
814.136	0.0169213
814.215	0.0166908
814.293	0.0167007
814.371	0.0167644
814.449	0.0166558
814.527	0.0164751
814.605	0.0166145
814.683	0.0167660
814.761	0.0166965
814.840	0.0164906
814.918	0.0166144
814.996	0.0166131
815.074	0.0168685
815.152	0.0167346
815.230	0.0166064
815.308	0.0167696
815.386	0.0168217
815.465	0.0168894
815.543	0.0169512
815.621	0.0170456
815.699	0.0168655
815.777	0.0168195
815.855	0.0169614
815.933	0.0169043
816.011	0.0168631
816.090	0.0167455
816.168	0.0168557
816.246	0.0168353
816.324	0.0167310
816.402	0.0166984
816.480	0.0168682
816.558	0.0168184
816.636	0.0167253
816.715	0.0168092
816.793	0.0167950
816.871	0.0168657
816.949	0.0168571
817.027	0.0168027
817.105	0.0169451
817.183	0.0169786
817.261	0.0170242
817.340	0.0170177
817.418	0.0170777
817.496	0.0170661
817.574	0.0170802
817.652	0.0170097
817.730	0.0171923
817.808	0.0171982
817.886	0.0169427
817.965	0.0169353
818.043	0.0168659
818.121	0.0169523
818.199	0.0169753
818.277	0.0168122
818.355	0.0167184
818.433	0.0165836
818.511	0.0166692
818.590	0.0166064
818.668	0.0166544
818.746	0.0165800
818.824	0.0165710
818.902	0.0164952
818.980	0.0166202
819.058	0.0165186
819.136	0.0165560
819.215	0.0166776
819.293	0.0166611
819.371	0.0166608
819.449	0.0166914
819.527	0.0166753
819.605	0.0168449
819.683	0.0167612
819.761	0.0168834
819.840	0.0169514
819.918	0.0168418
819.996	0.0168281
820.074	0.0169028
820.152	0.0169016
820.230	0.0170185
820.308	0.0168377
820.386	0.0169087
820.465	0.0168769
820.543	0.0169788
820.621	0.0170230
820.699	0.0169724
820.777	0.0169576
820.855	0.0170846
820.933	0.0171545
821.011	0.0170518
821.090	0.0170620
821.168	0.0170634
821.246	0.0171547
821.324	0.0170845
821.402	0.0170039
821.480	0.0169705
821.558	0.0168906
821.636	0.0168904
821.715	0.0167581
821.793	0.0166750
821.871	0.0167500
821.949	0.0169284
822.027	0.0167577
822.105	0.0168251
822.183	0.0166924
822.261	0.0164851
822.340	0.0166397
822.418	0.0167327
822.496	0.0166945
822.574	0.0166354
822.652	0.0166392
822.730	0.0166747
822.808	0.0166004
822.886	0.0166353
822.965	0.0167973
823.043	0.0167548
823.121	0.0166232
823.199	0.0167469
823.277	0.0167416
823.355	0.0167365
823.433	0.0168787
823.511	0.0168394
823.590	0.0166976
823.668	0.0169326
823.746	0.0167978
823.824	0.0166026
823.902	0.0167921
823.980	0.0169262
824.058	0.0168696
824.136	0.0167452
824.215	0.0168887
824.293	0.0167533
824.371	0.0167234
824.449	0.0168276
824.527	0.0169436
824.605	0.0167715
824.683	0.0168053
824.761	0.0168424
824.840	0.0168715
824.918	0.0169074
824.996	0.0168774
825.074	0.0169767
825.152	0.0169870
825.230	0.0168964
825.308	0.0170227
825.386	0.0171188
825.465	0.0169370
825.543	0.0170361
825.621	0.0170193
825.699	0.0169923
825.777	0.0170005
825.855	0.0170998
825.933	0.0168835
826.011	0.0169215
826.090	0.0168742
826.168	0.0169552
826.246	0.0169147
826.324	0.0167151
826.402	0.0167608
826.480	0.0166926
826.558	0.0168048
826.636	0.0166608
826.715	0.0167437
826.793	0.0166946
826.871	0.0165385
826.949	0.0166790
827.027	0.0166290
827.105	0.0165562
827.183	0.0166871
827.261	0.0167337
827.340	0.0166803
827.418	0.0166660
827.496	0.0166339
827.574	0.0166602
827.652	0.0166880
827.730	0.0167604
827.808	0.0167702
827.886	0.0166353
827.965	0.0167612
828.043	0.0167445
828.121	0.0168507
828.199	0.0168330
828.277	0.0168497
828.355	0.0168607
828.433	0.0169198
828.511	0.0170435
828.590	0.0169864
828.668	0.0170280
828.746	0.0170732
828.824	0.0171314
828.902	0.0171999
828.980	0.0170107
829.058	0.0169458
829.136	0.0171559
829.215	0.0169661
829.293	0.0170731
829.371	0.0168873
829.449	0.0168327
829.527	0.0167352
829.605	0.0167169
829.683	0.0165699
829.761	0.0165358
829.840	0.0166142
829.918	0.0164902
829.996	0.0165789
830.074	0.0165047
830.152	0.0163242
830.230	0.0165211
830.308	0.0163963
830.386	0.0165208
830.465	0.0166232
830.543	0.0166061
830.621	0.0165710
830.699	0.0167553
830.777	0.0168422
830.855	0.0167506
830.933	0.0167577
831.011	0.0168128
831.090	0.0169836
831.168	0.0167473
831.246	0.0169442
831.324	0.0169172
831.402	0.0169999
831.480	0.0167594
831.558	0.0168297
831.636	0.0168713
831.715	0.0167324
831.793	0.0168488
831.871	0.0167885
831.949	0.0167986
832.027	0.0169320
832.105	0.0167416
832.183	0.0168862
832.261	0.0168929
832.340	0.0170115
832.418	0.0170211
832.496	0.0169823
832.574	0.0168681
832.652	0.0169077
832.730	0.0170585
832.808	0.0169396
832.886	0.0169301
832.965	0.0170169
833.043	0.0168799
833.121	0.0168807
833.199	0.0168667
833.277	0.0167066
833.355	0.0167021
833.433	0.0168314
833.511	0.0168106
833.590	0.0168288
833.668	0.0166573
833.746	0.0167645
833.824	0.0167276
833.902	0.0167202
833.980	0.0167475
834.058	0.0168443
834.136	0.0167878
834.215	0.0167732
834.293	0.0168095
834.371	0.0168209
834.449	0.0170402
834.527	0.0170660
834.605	0.0170060
834.683	0.0170193
834.761	0.0170010
834.840	0.0169264
834.918	0.0169732
834.996	0.0168543
835.074	0.0168044
835.152	0.0167509
835.230	0.0167934
835.308	0.0166684
835.386	0.0167019
835.465	0.0166119
835.543	0.0165056
835.621	0.0164523
835.699	0.0164416
835.777	0.0165004
835.855	0.0167576
835.933	0.0166476
836.011	0.0166285
836.090	0.0167442
836.168	0.0167908
836.246	0.0167564
836.324	0.0168296
836.402	0.0168840
836.480	0.0171008
836.558	0.0170522
836.636	0.0169749
836.715	0.0169865
836.793	0.0170295
836.871	0.0169725
836.949	0.0171697
837.027	0.0171673
837.105	0.0170281
837.183	0.0169932
837.261	0.0169565
837.340	0.0170548
837.418	0.0168331
837.496	0.0168182
837.574	0.0168445
837.652	0.0168062
837.730	0.0166911
837.808	0.0167751
837.886	0.0167460
837.965	0.0166998
838.043	0.0167220
838.121	0.0167453
838.199	0.0166942
838.277	0.0167682
838.355	0.0168387
838.433	0.0167542
838.511	0.0167269
838.590	0.0166651
838.668	0.0166487
838.746	0.0167015
838.824	0.0167524
838.902	0.0167751
838.980	0.0165988
839.058	0.0168023
839.136	0.0166372
839.215	0.0166183
839.293	0.0166183
839.371	0.0166920
839.449	0.0168692
839.527	0.0167105
839.605	0.0167911
839.683	0.0168081
839.761	0.0167898
839.840	0.0167565
839.918	0.0167886
839.996	0.0168069
840.074	0.0167592
840.152	0.0168703
840.230	0.0170535
840.308	0.0169649
840.386	0.0170699
840.465	0.0169503
840.543	0.0170676
840.621	0.0171434
840.699	0.0171626
840.777	0.0170921
840.855	0.0170972
840.933	0.0169850
841.011	0.0167536
841.090	0.0168915
841.168	0.0169670
841.246	0.0168849
841.324	0.0169643
841.402	0.0169726
841.480	0.0167660
841.558	0.0167652
841.636	0.0167950
841.715	0.0168888
841.793	0.0168339
841.871	0.0167433
841.949	0.0167707
842.027	0.0169519
842.105	0.0168864
842.183	0.0169099
842.261	0.0168921
842.340	0.0169727
842.418	0.0169262
842.496	0.0169880
842.574	0.0170763
842.652	0.0170697
842.730	0.0170061
842.808	0.0169551
842.886	0.0169317
842.965	0.0170568
843.043	0.0169247
843.121	0.0168546
843.199	0.0168475
843.277	0.0169199
843.355	0.0168195
843.433	0.0167275
843.511	0.0167501
843.590	0.0166751
843.668	0.0167247
843.746	0.0167642
843.824	0.0167240
843.902	0.0167286
843.980	0.0167612
844.058	0.0167831
844.136	0.0168095
844.215	0.0168080
844.293	0.0168199
844.371	0.0168623
844.449	0.0169715
844.527	0.0169809
844.605	0.0169117
844.683	0.0169379
844.761	0.0168919
844.840	0.0169314
844.918	0.0169632
844.996	0.0171175
845.074	0.0167814
845.152	0.0167949
845.230	0.0169098
845.308	0.0168027
845.386	0.0167990
845.465	0.0168558
845.543	0.0168968
845.621	0.0168353
845.699	0.0170338
845.777	0.0168539
845.855	0.0166881
845.933	0.0168312
846.011	0.0168786
846.090	0.0169244
846.168	0.0168607
846.246	0.0168317
846.324	0.0168969
846.402	0.0170069
846.480	0.0168817
846.558	0.0167183
846.636	0.0167855
846.715	0.0167133
846.793	0.0167730
846.871	0.0166223
846.949	0.0167222
847.027	0.0168040
847.105	0.0167712
847.183	0.0166219
847.261	0.0166330
847.340	0.0167371
847.418	0.0168098
847.496	0.0167023
847.574	0.0167284
847.652	0.0168905
847.730	0.0168439
847.808	0.0167794
847.886	0.0168075
847.965	0.0169128
848.043	0.0168371
848.121	0.0169808
848.199	0.0169149
848.277	0.0169537
848.355	0.0169765
848.433	0.0168871
848.511	0.0168770
848.590	0.0168207
848.668	0.0167352
848.746	0.0168360
848.824	0.0169209
848.902	0.0167733
848.980	0.0167616
849.058	0.0169509
849.136	0.0170168
849.215	0.0167950
849.293	0.0168211
849.371	0.0170446
849.449	0.0170298
849.527	0.0168766
849.605	0.0170023
849.683	0.0168959
849.761	0.0170816
849.840	0.0170141
849.918	0.0169620
849.996	0.0168972
850.074	0.0170486
850.152	0.0170737
850.230	0.0170423
850.308	0.0171397
850.386	0.0170475
850.465	0.0169552
850.543	0.0169987
850.621	0.0169613
850.699	0.0168970
850.777	0.0169859
850.855	0.0169368
850.933	0.0169434
851.011	0.0168806
851.090	0.0168527
851.168	0.0167336
851.246	0.0168903
851.324	0.0169854
851.402	0.0168282
851.480	0.0170332
851.558	0.0167168
851.636	0.0168101
851.715	0.0169379
851.793	0.0168225
851.871	0.0168258
851.949	0.0169115
852.027	0.0170473
852.105	0.0169212
852.183	0.0168211
852.261	0.0169176
852.340	0.0169390
852.418	0.0169463
852.496	0.0169134
852.574	0.0169532
852.652	0.0168446
852.730	0.0168753
852.808	0.0168753
852.886	0.0168867
852.965	0.0167455
853.043	0.0167608
853.121	0.0168336
853.199	0.0166823
853.277	0.0166872
853.355	0.0166927
853.433	0.0168058
853.511	0.0167390
853.590	0.0166798
853.668	0.0167460
853.746	0.0166142
853.824	0.0167170
853.902	0.0167359
853.980	0.0166513
854.058	0.0167651
854.136	0.0168163
854.215	0.0167714
854.293	0.0168016
854.371	0.0167435
854.449	0.0168559
854.527	0.0167537
854.605	0.0166266
854.683	0.0167326
854.761	0.0167031
854.840	0.0167283
854.918	0.0167651
854.996	0.0166613
855.074	0.0167590
855.152	0.0167181
855.230	0.0167242
855.308	0.0168212
855.386	0.0167518
855.465	0.0166257
855.543	0.0168004
855.621	0.0167595
855.699	0.0167238
855.777	0.0168172
855.855	0.0170577
855.933	0.0167744
856.011	0.0169136
856.090	0.0168662
856.168	0.0168153
856.246	0.0168591
856.324	0.0168064
856.402	0.0169252
856.480	0.0170551
856.558	0.0169064
856.636	0.0169318
856.715	0.0168951
856.793	0.0167798
856.871	0.0168615
856.949	0.0169534
857.027	0.0169633
857.105	0.0168989
857.183	0.0169206
857.261	0.0168948
857.340	0.0169015
857.418	0.0170091
857.496	0.0168374
857.574	0.0170438
857.652	0.0168959
857.730	0.0169833
857.808	0.0169505
857.886	0.0169697
857.965	0.0169836
858.043	0.0170941
858.121	0.0169527
858.199	0.0170347
858.277	0.0169756
858.355	0.0167487
858.433	0.0168044
858.511	0.0169947
858.590	0.0170316
858.668	0.0168798
858.746	0.0168458
858.824	0.0168353
858.902	0.0169485
858.980	0.0169111
859.058	0.0168362
859.136	0.0168553
859.215	0.0168357
859.293	0.0170047
859.371	0.0169025
859.449	0.0170248
859.527	0.0167940
859.605	0.0170016
859.683	0.0170892
859.761	0.0169083
859.840	0.0170099
859.918	0.0169822
859.996	0.0170510
860.074	0.0169334
860.152	0.0170866
860.230	0.0169648
860.308	0.0172911
860.386	0.0170354
860.465	0.0170524
860.543	0.0171611
860.621	0.0170392
860.699	0.0169841
860.777	0.0169115
860.855	0.0168304
860.933	0.0166582
861.011	0.0167316
861.090	0.0168745
861.168	0.0166952
861.246	0.0167146
861.324	0.0167450
861.402	0.0166560
861.480	0.0166220
861.558	0.0167066
861.636	0.0166119
861.715	0.0166070
861.793	0.0167149
861.871	0.0166432
861.949	0.0166726
862.027	0.0166891
862.105	0.0166257
862.183	0.0167944
862.261	0.0168250
862.340	0.0167899
862.418	0.0168665
862.496	0.0167153
862.574	0.0168246
862.652	0.0168414
862.730	0.0169310
862.808	0.0167960
862.886	0.0168484
862.965	0.0168008
863.043	0.0169033
863.121	0.0167345
863.199	0.0166972
863.277	0.0166318
863.355	0.0167197
863.433	0.0167847
863.511	0.0167715
863.590	0.0166138
863.668	0.0167802
863.746	0.0166974
863.824	0.0168095
863.902	0.0166718
863.980	0.0168523
864.058	0.0168175
864.136	0.0167783
864.215	0.0167060
864.293	0.0168194
864.371	0.0168419
864.449	0.0168790
864.527	0.0167422
864.605	0.0168086
864.683	0.0167971
864.761	0.0169106
864.840	0.0168826
864.918	0.0169141
864.996	0.0168651
865.074	0.0168700
865.152	0.0169389
865.230	0.0168395
865.308	0.0168310
865.386	0.0167484
865.465	0.0169660
865.543	0.0168056
865.621	0.0168414
865.699	0.0170811
865.777	0.0169293
865.855	0.0170039
865.933	0.0170454
866.011	0.0170170
866.090	0.0171458
866.168	0.0170568
866.246	0.0170470
866.324	0.0170370
866.402	0.0168745
866.480	0.0169330
866.558	0.0169602
866.636	0.0171385
866.715	0.0170406
866.793	0.0169053
866.871	0.0169108
866.949	0.0172044
867.027	0.0169643
867.105	0.0168829
867.183	0.0170580
867.261	0.0169661
867.340	0.0168825
867.418	0.0169656
867.496	0.0169144
867.574	0.0169601
867.652	0.0169456
867.730	0.0168243
867.808	0.0170368
867.886	0.0169769
867.965	0.0169683
868.043	0.0169360
868.121	0.0170947
868.199	0.0168812
868.277	0.0169333
868.355	0.0168277
868.433	0.0169146
868.511	0.0169034
868.590	0.0169217
868.668	0.0168903
868.746	0.0168240
868.824	0.0168502
868.902	0.0167321
868.980	0.0168805
869.058	0.0168663
869.136	0.0168497
869.215	0.0167088
869.293	0.0165666
869.371	0.0166827
869.449	0.0167386
869.527	0.0166909
869.605	0.0166707
869.683	0.0167400
869.761	0.0167547
869.840	0.0167205
869.918	0.0168676
869.996	0.0168537
870.074	0.0168446
870.152	0.0169514
870.230	0.0167301
870.308	0.0167820
870.386	0.0169913
870.465	0.0168497
870.543	0.0167104
870.621	0.0167725
870.699	0.0166629
870.777	0.0168832
870.855	0.0167719
870.933	0.0168226
871.011	0.0167905
871.090	0.0167815
871.168	0.0167943
871.246	0.0167255
871.324	0.0167754
871.402	0.0168495
871.480	0.0168669
871.558	0.0167538
871.636	0.0166803
871.715	0.0167954
871.793	0.0169623
871.871	0.0167455
871.949	0.0168718
872.027	0.0168178
872.105	0.0169001
872.183	0.0168615
872.261	0.0168555
872.340	0.0169376
872.418	0.0168978
872.496	0.0169234
872.574	0.0169492
872.652	0.0170546
872.730	0.0169543
872.808	0.0169805
872.886	0.0169311
872.965	0.0168104
873.043	0.0170490
873.121	0.0169808
873.199	0.0169947
873.277	0.0170144
873.355	0.0170113
873.433	0.0170148
873.511	0.0169420
873.590	0.0168714
873.668	0.0169501
873.746	0.0170066
873.824	0.0170235
873.902	0.0169292
873.980	0.0168456
874.058	0.0169415
874.136	0.0168751
874.215	0.0168503
874.293	0.0168302
874.371	0.0168319
874.449	0.0169004
874.527	0.0166143
874.605	0.0166927
874.683	0.0167824
874.761	0.0169439
874.840	0.0168732
874.918	0.0168556
874.996	0.0168526
875.074	0.0169541
875.152	0.0169711
875.230	0.0169718
875.308	0.0169433
875.386	0.0168769
875.465	0.0171442
875.543	0.0171748
875.621	0.0170562
875.699	0.0169349
875.777	0.0170069
875.855	0.0170542
875.933	0.0170034
876.011	0.0170107
876.090	0.0169579
876.168	0.0168568
876.246	0.0168386
876.324	0.0169427
876.402	0.0168679
876.480	0.0168646
876.558	0.0168071
876.636	0.0168738
876.715	0.0167956
876.793	0.0166806
876.871	0.0168974
876.949	0.0168277
877.027	0.0168595
877.105	0.0168865
877.183	0.0167992
877.261	0.0167313
877.340	0.0165823
877.418	0.0167694
877.496	0.0168645
877.574	0.0167696
877.652	0.0169372
877.730	0.0167393
877.808	0.0168759
877.886	0.0169456
877.965	0.0170486
878.043	0.0170224
878.121	0.0169058
878.199	0.0170426
878.277	0.0168902
878.355	0.0167931
878.433	0.0169966
878.511	0.0169554
878.590	0.0169463
878.668	0.0167608
878.746	0.0167563
878.824	0.0169557
878.902	0.0169093
878.980	0.0168744
879.058	0.0167721
879.136	0.0168818
879.215	0.0168499
879.293	0.0170113
879.371	0.0168149
879.449	0.0169691
879.527	0.0169322
879.605	0.0167586
879.683	0.0168739
879.761	0.0170396
879.840	0.0168635
879.918	0.0168295
879.996	0.0170499
880.074	0.0170319
880.152	0.0169767
880.230	0.0170000
880.308	0.0170006
880.386	0.0169801
880.465	0.0169157
880.543	0.0168593
880.621	0.0169766
880.699	0.0169714
880.777	0.0169324
880.855	0.0168803
880.933	0.0170623
881.011	0.0169299
881.090	0.0168387
881.168	0.0167886
881.246	0.0168768
881.324	0.0168655
881.402	0.0167772
881.480	0.0167754
881.558	0.0167648
881.636	0.0168736
881.715	0.0168704
881.793	0.0168004
881.871	0.0168616
881.949	0.0168026
882.027	0.0168661
882.105	0.0169415
882.183	0.0168083
882.261	0.0167994
882.340	0.0168620
882.418	0.0167828
882.496	0.0169567
882.574	0.0168901
882.652	0.0168386
882.730	0.0168978
882.808	0.0169645
882.886	0.0167800
882.965	0.0168641
883.043	0.0170248
883.121	0.0168565
883.199	0.0169274
883.277	0.0169217
883.355	0.0169522
883.433	0.0169067
883.511	0.0169969
883.590	0.0170006
883.668	0.0170085
883.746	0.0170225
883.824	0.0170242
883.902	0.0169823
883.980	0.0168288
884.058	0.0168874
884.136	0.0168951
884.215	0.0169048
884.293	0.0167871
884.371	0.0167699
884.449	0.0168684
884.527	0.0167671
884.605	0.0167075
884.683	0.0168656
884.761	0.0168161
884.840	0.0167612
884.918	0.0167374
884.996	0.0166022
885.074	0.0167366
885.152	0.0167667
885.230	0.0167355
885.308	0.0168079
885.386	0.0167713
885.465	0.0167930
885.543	0.0166679
885.621	0.0167651
885.699	0.0166008
885.777	0.0168693
885.855	0.0167734
885.933	0.0167701
886.011	0.0168855
886.090	0.0168916
886.168	0.0168593
886.246	0.0169125
886.324	0.0169084
886.402	0.0167600
886.480	0.0170044
886.558	0.0168532
886.636	0.0168533
886.715	0.0170786
886.793	0.0169431
886.871	0.0167584
886.949	0.0167165
887.027	0.0169981
887.105	0.0168734
887.183	0.0168810
887.261	0.0169752
887.340	0.0168372
887.418	0.0168060
887.496	0.0168137
887.574	0.0168644
887.652	0.0168603
887.730	0.0167979
887.808	0.0168553
887.886	0.0168053
887.965	0.0167902
888.043	0.0168066
888.121	0.0167904
888.199	0.0167989
888.277	0.0167973
888.355	0.0169255
888.433	0.0169516
888.511	0.0168813
888.590	0.0169337
888.668	0.0169704
888.746	0.0168346
888.824	0.0167274
888.902	0.0168328
888.980	0.0168354
889.058	0.0167038
889.136	0.0169363
889.215	0.0168121
889.293	0.0167672
889.371	0.0167106
889.449	0.0168533
889.527	0.0167503
889.605	0.0167810
889.683	0.0168375
889.761	0.0168185
889.840	0.0168448
889.918	0.0167790
889.996	0.0167199
890.074	0.0169281
890.152	0.0169228
890.230	0.0168681
890.308	0.0168649
890.386	0.0169345
890.465	0.0168592
890.543	0.0168117
890.621	0.0167457
890.699	0.0168951
890.777	0.0168586
890.855	0.0168408
890.933	0.0168606
891.011	0.0168531
891.090	0.0169416
891.168	0.0168300
891.246	0.0168184
891.324	0.0168757
891.402	0.0168631
891.480	0.0169817
891.558	0.0168857
891.636	0.0169200
891.715	0.0169037
891.793	0.0168724
891.871	0.0168799
891.949	0.0169135
892.027	0.0168082
892.105	0.0168219
892.183	0.0167331
892.261	0.0168002
892.340	0.0168055
892.418	0.0168075
892.496	0.0168226
892.574	0.0167462
892.652	0.0168137
892.730	0.0166763
892.808	0.0166891
892.886	0.0167202
892.965	0.0166660
893.043	0.0167793
893.121	0.0168299
893.199	0.0169033
893.277	0.0166768
893.355	0.0168172
893.433	0.0168432
893.511	0.0168054
893.590	0.0168896
893.668	0.0168807
893.746	0.0168429
893.824	0.0168233
893.902	0.0167936
893.980	0.0168703
894.058	0.0169697
894.136	0.0169311
894.215	0.0170319
894.293	0.0169364
894.371	0.0168700
894.449	0.0172046
894.527	0.0169759
894.605	0.0169107
894.683	0.0170211
894.761	0.0170281
894.840	0.0169963
894.918	0.0169353
894.996	0.0169331
895.074	0.0169661
895.152	0.0169800
895.230	0.0168435
895.308	0.0169012
895.386	0.0168792
895.465	0.0168917
895.543	0.0168291
895.621	0.0167444
895.699	0.0167555
895.777	0.0168094
895.855	0.0167343
895.933	0.0168850
896.011	0.0168106
896.090	0.0167791
896.168	0.0166566
896.246	0.0166443
896.324	0.0166994
896.402	0.0167690
896.480	0.0168542
896.558	0.0167693
896.636	0.0167738
896.715	0.0167131
896.793	0.0166692
896.871	0.0168411
896.949	0.0169517
897.027	0.0167430
897.105	0.0168382
897.183	0.0167527
897.261	0.0167451
897.340	0.0170085
897.418	0.0168890
897.496	0.0168646
897.574	0.0169112
897.652	0.0167947
897.730	0.0168352
897.808	0.0169009
897.886	0.0168613
897.965	0.0168407
898.043	0.0170025
898.121	0.0169334
898.199	0.0169250
898.277	0.0168781
898.355	0.0169599
898.433	0.0168581
898.511	0.0169080
898.590	0.0168651
898.668	0.0168468
898.746	0.0169166
898.824	0.0168688
898.902	0.0167860
898.980	0.0168928
899.058	0.0169623
899.136	0.0169609
899.215	0.0168939
899.293	0.0169315
899.371	0.0169803
899.449	0.0169188
899.527	0.0169321
899.605	0.0169789
899.683	0.0168527
899.761	0.0168709
899.840	0.0169376
899.918	0.0170042
899.996	0.0168128
900.074	0.0169608
900.152	0.0169791
900.230	0.0169756
900.308	0.0169321
900.386	0.0168443
900.465	0.0168475
900.543	0.0168352
900.621	0.0168442
900.699	0.0168354
900.777	0.0168172
900.855	0.0168198
900.933	0.0167090
901.011	0.0167210
901.090	0.0167502
901.168	0.0168103
901.246	0.0167963
901.324	0.0167514
901.402	0.0167611
901.480	0.0168117
901.558	0.0167576
901.636	0.0166661
901.715	0.0168263
901.793	0.0168771
901.871	0.0167036
901.949	0.0167583
902.027	0.0168605
902.105	0.0168793
902.183	0.0167893
902.261	0.0168318
902.340	0.0168033
902.418	0.0169585
902.496	0.0169108
902.574	0.0168177
902.652	0.0169460
902.730	0.0168779
902.808	0.0168878
902.886	0.0168550
902.965	0.0169425
903.043	0.0167776
903.121	0.0168476
903.199	0.0169510
903.277	0.0168562
903.355	0.0168697
903.433	0.0167678
903.511	0.0167778
903.590	0.0168523
903.668	0.0168768
903.746	0.0168064
903.824	0.0167751
903.902	0.0167725
903.980	0.0167663
904.058	0.0166055
904.136	0.0168407
904.215	0.0167327
904.293	0.0166756
904.371	0.0165483
904.449	0.0167554
904.527	0.0167771
904.605	0.0166356
904.683	0.0169084
904.761	0.0167213
904.840	0.0167548
904.918	0.0167392
904.996	0.0166647
905.074	0.0167146
905.152	0.0168337
905.230	0.0168089
905.308	0.0168406
905.386	0.0168180
905.465	0.0168555
905.543	0.0168228
905.621	0.0168889
905.699	0.0168924
905.777	0.0167426
905.855	0.0168346
905.933	0.0169972
906.011	0.0168005
906.090	0.0168567
906.168	0.0169005
906.246	0.0168719
906.324	0.0169431
906.402	0.0168540
906.480	0.0168964
906.558	0.0170069
906.636	0.0170135
906.715	0.0168250
906.793	0.0169942
906.871	0.0167963
906.949	0.0169051
907.027	0.0168602
907.105	0.0169011
907.183	0.0168678
907.261	0.0168645
907.340	0.0168501
907.418	0.0168552
907.496	0.0167970
907.574	0.0168725
907.652	0.0168215
907.730	0.0167004
907.808	0.0167302
907.886	0.0168122
907.965	0.0168352
908.043	0.0169098
908.121	0.0168794
908.199	0.0168054
908.277	0.0167502
908.355	0.0167724
908.433	0.0167237
908.511	0.0168997
908.590	0.0168089
908.668	0.0167387
908.746	0.0169114
908.824	0.0167728
908.902	0.0167463
908.980	0.0168935
909.058	0.0167715
909.136	0.0167886
909.215	0.0167616
909.293	0.0168216
909.371	0.0168658
909.449	0.0168526
909.527	0.0166891
909.605	0.0168201
909.683	0.0168835
909.761	0.0167743
909.840	0.0166774
909.918	0.0167789
909.996	0.0169084
910.074	0.0168573
910.152	0.0168219
910.230	0.0168678
910.308	0.0168751
910.386	0.0168114
910.465	0.0167964
910.543	0.0168532
910.621	0.0169518
910.699	0.0166682
910.777	0.0167600
910.855	0.0168109
910.933	0.0167496
911.011	0.0166618
911.090	0.0167658
911.168	0.0168729
911.246	0.0168915
911.324	0.0167897
911.402	0.0167554
911.480	0.0167071
911.558	0.0167534
911.636	0.0167609
911.715	0.0167149
911.793	0.0168031
911.871	0.0167188
911.949	0.0168340
912.027	0.0167650
912.105	0.0168964
912.183	0.0167422
912.261	0.0167381
912.340	0.0167227
912.418	0.0165450
912.496	0.0167062
912.574	0.0167521
912.652	0.0166416
912.730	0.0166423
912.808	0.0166702
912.886	0.0167451
912.965	0.0166579
913.043	0.0167002
913.121	0.0168038
913.199	0.0166066
913.277	0.0167545
913.355	0.0167983
913.433	0.0168813
913.511	0.0168874
913.590	0.0168426
913.668	0.0167593
913.746	0.0167992
913.824	0.0168990
913.902	0.0167130
913.980	0.0168383
914.058	0.0169650
914.136	0.0168440
914.215	0.0168246
914.293	0.0168967
914.371	0.0168414
914.449	0.0169497
914.527	0.0168951
914.605	0.0169720
914.683	0.0169807
914.761	0.0168028
914.840	0.0168774
914.918	0.0167882
914.996	0.0167863
915.074	0.0168572
915.152	0.0167818
915.230	0.0170046
915.308	0.0169395
915.386	0.0169223
915.465	0.0168819
915.543	0.0168289
915.621	0.0168710
915.699	0.0169528
915.777	0.0169028
915.855	0.0168114
915.933	0.0167657
916.011	0.0168610
916.090	0.0170705
916.168	0.0168428
916.246	0.0168935
916.324	0.0169649
916.402	0.0169682
916.480	0.0168521
916.558	0.0167908
916.636	0.0167978
916.715	0.0167850
916.793	0.0167320
916.871	0.0168690
916.949	0.0167802
917.027	0.0167771
917.105	0.0167036
917.183	0.0167645
917.261	0.0168314
917.340	0.0167535
917.418	0.0168200
917.496	0.0169058
917.574	0.0168471
917.652	0.0167598
917.730	0.0168108
917.808	0.0169225
917.886	0.0168324
917.965	0.0167220
918.043	0.0167111
918.121	0.0168756
918.199	0.0168099
918.277	0.0167814
918.355	0.0169648
918.433	0.0169209
918.511	0.0167981
918.590	0.0167410
918.668	0.0167879
918.746	0.0167110
918.824	0.0167891
918.902	0.0166921
918.980	0.0167419
919.058	0.0168378
919.136	0.0167853
919.215	0.0167768
919.293	0.0168354
919.371	0.0167136
919.449	0.0168172
919.527	0.0169022
919.605	0.0167677
919.683	0.0167482
919.761	0.0167885
919.840	0.0168463
919.918	0.0167470
919.996	0.0168559
920.074	0.0169247
920.152	0.0166830
920.230	0.0169375
920.308	0.0168455
920.386	0.0167786
920.465	0.0167377
920.543	0.0167675
920.621	0.0167831
920.699	0.0167352
920.777	0.0167736
920.855	0.0167664
920.933	0.0168172
921.011	0.0167796
921.090	0.0166635
921.168	0.0167070
921.246	0.0167552
921.324	0.0167230
921.402	0.0167287
921.480	0.0168770
921.558	0.0169331
921.636	0.0167155
921.715	0.0167421
921.793	0.0169404
921.871	0.0169595
921.949	0.0169473
922.027	0.0167395
922.105	0.0170110
922.183	0.0169231
922.261	0.0170315
922.340	0.0169638
922.418	0.0170044
922.496	0.0170534
922.574	0.0170157
922.652	0.0170353
922.730	0.0169610
922.808	0.0168594
922.886	0.0169508
922.965	0.0169780
923.043	0.0169228
923.121	0.0170284
923.199	0.0168307
923.277	0.0169582
923.355	0.0169360
923.433	0.0168805
923.511	0.0168190
923.590	0.0167987
923.668	0.0167387
923.746	0.0168472
923.824	0.0169037
923.902	0.0167925
923.980	0.0168240
924.058	0.0167935
924.136	0.0167503
924.215	0.0168741
924.293	0.0169727
924.371	0.0168592
924.449	0.0167269
924.527	0.0166145
924.605	0.0166408
924.683	0.0166050
924.761	0.0169292
924.840	0.0169079
924.918	0.0166994
924.996	0.0166195
925.074	0.0166594
925.152	0.0167448
925.230	0.0167415
925.308	0.0168517
925.386	0.0166483
925.465	0.0167057
925.543	0.0168089
925.621	0.0168996
925.699	0.0167130
925.777	0.0167577
925.855	0.0168396
925.933	0.0167223
926.011	0.0167963
926.090	0.0167278
926.168	0.0166238
926.246	0.0167902
926.324	0.0168120
926.402	0.0169036
926.480	0.0167948
926.558	0.0167802
926.636	0.0169574
926.715	0.0167431
926.793	0.0169098
926.871	0.0167743
926.949	0.0168586
927.027	0.0168222
927.105	0.0166915
927.183	0.0168655
927.261	0.0167500
927.340	0.0167043
927.418	0.0166977
927.496	0.0167412
927.574	0.0167558
927.652	0.0168566
927.730	0.0169756
927.808	0.0167102
927.886	0.0167384
927.965	0.0168244
928.043	0.0168781
928.121	0.0169146
928.199	0.0167573
928.277	0.0169204
928.355	0.0167855
928.433	0.0169408
928.511	0.0169941
928.590	0.0169170
928.668	0.0168920
928.746	0.0168291
928.824	0.0168677
928.902	0.0168433
928.980	0.0168373
929.058	0.0168230
929.136	0.0167187
929.215	0.0167686
929.293	0.0169232
929.371	0.0169531
929.449	0.0168541
929.527	0.0168774
929.605	0.0167755
929.683	0.0168774
929.761	0.0167990
929.840	0.0168864
929.918	0.0169563
929.996	0.0169482
930.074	0.0168884
930.152	0.0169131
930.230	0.0169141
930.308	0.0169803
930.386	0.0168494
930.465	0.0168988
930.543	0.0168055
930.621	0.0167989
930.699	0.0167921
930.777	0.0168847
930.855	0.0168029
930.933	0.0168299
931.011	0.0168184
931.090	0.0167831
931.168	0.0168124
931.246	0.0168633
931.324	0.0169380
931.402	0.0168575
931.480	0.0168749
931.558	0.0168937
931.636	0.0167604
931.715	0.0168426
931.793	0.0169150
931.871	0.0168419
931.949	0.0167963
932.027	0.0167170
932.105	0.0168402
932.183	0.0169089
932.261	0.0167918
932.340	0.0167520
932.418	0.0168581
932.496	0.0167824
932.574	0.0168854
932.652	0.0169202
932.730	0.0168953
932.808	0.0167968
932.886	0.0169115
932.965	0.0168539
933.043	0.0168880
933.121	0.0168449
933.199	0.0168860
933.277	0.0168834
933.355	0.0169125
933.433	0.0168525
933.511	0.0168423
933.590	0.0168471
933.668	0.0166791
933.746	0.0168188
933.824	0.0167840
933.902	0.0167149
933.980	0.0167085
934.058	0.0167669
934.136	0.0168456
934.215	0.0167521
934.293	0.0166436
934.371	0.0166874
934.449	0.0168005
934.527	0.0168642
934.605	0.0166755
934.683	0.0169315
934.761	0.0168608
934.840	0.0167809
934.918	0.0168003
934.996	0.0167296
935.074	0.0168257
935.152	0.0169141
935.230	0.0168630
935.308	0.0168462
935.386	0.0167264
935.465	0.0169409
935.543	0.0169210
935.621	0.0167852
935.699	0.0167774
935.777	0.0167991
935.855	0.0168902
935.933	0.0168694
936.011	0.0169730
936.090	0.0168981
936.168	0.0168170
936.246	0.0167795
936.324	0.0166467
936.402	0.0168389
936.480	0.0168229
936.558	0.0167941
936.636	0.0167130
936.715	0.0167493
936.793	0.0168288
936.871	0.0168411
936.949	0.0166779
937.027	0.0168447
937.105	0.0168475
937.183	0.0167492
937.261	0.0168811
937.340	0.0168443
937.418	0.0167667
937.496	0.0167664
937.574	0.0168454
937.652	0.0169035
937.730	0.0169083
937.808	0.0168684
937.886	0.0167953
937.965	0.0168278
938.043	0.0169811
938.121	0.0169713
938.199	0.0169031
938.277	0.0169783
938.355	0.0169442
938.433	0.0169437
938.511	0.0169148
938.590	0.0169409
938.668	0.0168775
938.746	0.0168922
938.824	0.0169650
938.902	0.0169011
938.980	0.0169987
939.058	0.0169595
939.136	0.0168296
939.215	0.0167787
939.293	0.0168702
939.371	0.0168790
939.449	0.0169501
939.527	0.0169663
939.605	0.0168455
939.683	0.0167290
939.761	0.0168284
939.840	0.0169235
939.918	0.0167644
939.996	0.0169125
940.074	0.0169328
940.152	0.0168652
940.230	0.0167773
940.308	0.0168683
940.386	0.0168298
940.465	0.0168542
940.543	0.0169179
940.621	0.0168073
940.699	0.0166584
940.777	0.0167160
940.855	0.0169895
940.933	0.0169228
941.011	0.0169768
941.090	0.0168630
941.168	0.0168768
941.246	0.0168505
941.324	0.0169261
941.402	0.0167776
941.480	0.0169106
941.558	0.0168169
941.636	0.0169253
941.715	0.0167281
941.793	0.0170078
941.871	0.0168340
941.949	0.0167517
942.027	0.0168639
942.105	0.0167884
942.183	0.0168439
942.261	0.0167059
942.340	0.0167982
942.418	0.0167268
942.496	0.0167706
942.574	0.0166620
942.652	0.0168659
942.730	0.0167121
942.808	0.0166819
942.886	0.0166857
942.965	0.0167179
943.043	0.0167753
943.121	0.0168109
943.199	0.0166409
943.277	0.0168755
943.355	0.0169392
943.433	0.0167594
943.511	0.0167063
943.590	0.0167827
943.668	0.0168147
943.746	0.0168063
943.824	0.0167490
943.902	0.0168452
943.980	0.0167995
944.058	0.0167626
944.136	0.0167225
944.215	0.0168153
944.293	0.0168163
944.371	0.0167891
944.449	0.0166361
944.527	0.0167757
944.605	0.0168758
944.683	0.0168906
944.761	0.0168727
944.840	0.0168419
944.918	0.0168393
944.996	0.0169628
945.074	0.0168166
945.152	0.0166645
945.230	0.0167675
945.308	0.0168582
945.386	0.0166747
945.465	0.0166985
945.543	0.0167838
945.621	0.0167799
945.699	0.0168084
945.777	0.0168439
945.855	0.0167199
945.933	0.0167090
946.011	0.0166692
946.090	0.0167888
946.168	0.0166949
946.246	0.0167828
946.324	0.0168106
946.402	0.0170161
946.480	0.0168494
946.558	0.0169588
946.636	0.0169510
946.715	0.0169838
946.793	0.0168873
946.871	0.0167097
946.949	0.0168235
947.027	0.0168027
947.105	0.0169099
947.183	0.0170060
947.261	0.0167581
947.340	0.0168990
947.418	0.0167835
947.496	0.0167371
947.574	0.0168100
947.652	0.0168771
947.730	0.0167486
947.808	0.0166997
947.886	0.0167571
947.965	0.0168188
948.043	0.0169433
948.121	0.0167280
948.199	0.0168022
948.277	0.0167354
948.355	0.0168333
948.433	0.0167576
948.511	0.0167918
948.590	0.0168699
948.668	0.0167484
948.746	0.0168122
948.824	0.0167734
948.902	0.0166291
948.980	0.0167624
949.058	0.0168458
949.136	0.0166824
949.215	0.0167861
949.293	0.0167732
949.371	0.0169544
949.449	0.0169668
949.527	0.0167335
949.605	0.0168259
949.683	0.0168098
949.761	0.0168114
949.840	0.0168941
949.918	0.0168497
