06/29/2022	21:27:54	Ver.	4.1	UNKNOWN
Optical Delay	629.995835	Delta X		0.078125	Sweeps	1	Scan Rate	0/0
Coordinates	Axis 1	NaN	Axis 2	NaN	Axis 3	NaN	Axis 4	NaN	Axis 5	NaN	Axis 6	0.000000
TX Power	0.000000	RX Power	0.000000

629.996	0.0162603
630.074	0.0163601
630.152	0.0162554
630.230	0.0162807
630.308	0.0162717
630.386	0.0163094
630.465	0.0162572
630.543	0.0162858
630.621	0.0164785
630.699	0.0162411
630.777	0.0162649
630.855	0.0162527
630.933	0.0162347
631.011	0.0162114
631.090	0.0162067
631.168	0.0163026
631.246	0.0163315
631.324	0.0162968
631.402	0.0161279
631.480	0.0163605
631.558	0.0162885
631.636	0.0161604
631.715	0.0162254
631.793	0.0161706
631.871	0.0162921
631.949	0.0163976
632.027	0.0162897
632.105	0.0163414
632.183	0.0162758
632.261	0.0162841
632.340	0.0162840
632.418	0.0163351
632.496	0.0161991
632.574	0.0161492
632.652	0.0161786
632.730	0.0163091
632.808	0.0163321
632.886	0.0163486
632.965	0.0163404
633.043	0.0163116
633.121	0.0161850
633.199	0.0163066
633.277	0.0162966
633.355	0.0162489
633.433	0.0161871
633.511	0.0162981
633.590	0.0162106
633.668	0.0163601
633.746	0.0162229
633.824	0.0162928
633.902	0.0162103
633.980	0.0163015
634.058	0.0163230
634.136	0.0160609
634.215	0.0162317
634.293	0.0164187
634.371	0.0163431
634.449	0.0162988
634.527	0.0163427
634.605	0.0162472
634.683	0.0163828
634.761	0.0163050
634.840	0.0162572
634.918	0.0162072
634.996	0.0162218
635.074	0.0162753
635.152	0.0163017
635.230	0.0163543
635.308	0.0162215
635.386	0.0161495
635.465	0.0161832
635.543	0.0162473
635.621	0.0162955
635.699	0.0162745
635.777	0.0162496
635.855	0.0162337
635.933	0.0163049
636.011	0.0163374
636.090	0.0162643
636.168	0.0161252
636.246	0.0163009
636.324	0.0162769
636.402	0.0161197
636.480	0.0162401
636.558	0.0163035
636.636	0.0162124
636.715	0.0162833
636.793	0.0162289
636.871	0.0162135
636.949	0.0162661
637.027	0.0162256
637.105	0.0160697
637.183	0.0162113
637.261	0.0161478
637.340	0.0161575
637.418	0.0163435
637.496	0.0162206
637.574	0.0161140
637.652	0.0161614
637.730	0.0162298
637.808	0.0162735
637.886	0.0163000
637.965	0.0162122
638.043	0.0160788
638.121	0.0161725
638.199	0.0163081
638.277	0.0164372
638.355	0.0162599
638.433	0.0163444
638.511	0.0162649
638.590	0.0162844
638.668	0.0161150
638.746	0.0162392
638.824	0.0163937
638.902	0.0162747
638.980	0.0161636
639.058	0.0164194
639.136	0.0163274
639.215	0.0161945
639.293	0.0162395
639.371	0.0162812
639.449	0.0162180
639.527	0.0162138
639.605	0.0161906
639.683	0.0162330
639.761	0.0162871
639.840	0.0163355
639.918	0.0161725
639.996	0.0162375
640.074	0.0162183
640.152	0.0162922
640.230	0.0163434
640.308	0.0161853
640.386	0.0163038
640.465	0.0162951
640.543	0.0161980
640.621	0.0162783
640.699	0.0163010
640.777	0.0161360
640.855	0.0163573
640.933	0.0162915
641.011	0.0163306
641.090	0.0163070
641.168	0.0162170
641.246	0.0162116
641.324	0.0163086
641.402	0.0162198
641.480	0.0162109
641.558	0.0161753
641.636	0.0163474
641.715	0.0163180
641.793	0.0161371
641.871	0.0162372
641.949	0.0162775
642.027	0.0162086
642.105	0.0162068
642.183	0.0163162
642.261	0.0163448
642.340	0.0163222
642.418	0.0162072
642.496	0.0162830
642.574	0.0162135
642.652	0.0163110
642.730	0.0164245
642.808	0.0163475
642.886	0.0163173
642.965	0.0162021
643.043	0.0163901
643.121	0.0164054
643.199	0.0162753
643.277	0.0163230
643.355	0.0162447
643.433	0.0162541
643.511	0.0163724
643.590	0.0161826
643.668	0.0163783
643.746	0.0162003
643.824	0.0162457
643.902	0.0164011
643.980	0.0163628
644.058	0.0163195
644.136	0.0161711
644.215	0.0162163
644.293	0.0162538
644.371	0.0163127
644.449	0.0162414
644.527	0.0163165
644.605	0.0163371
644.683	0.0162151
644.761	0.0163320
644.840	0.0162025
644.918	0.0163198
644.996	0.0163000
645.074	0.0162700
645.152	0.0162064
645.230	0.0162358
645.308	0.0162597
645.386	0.0164230
645.465	0.0162886
645.543	0.0162350
645.621	0.0162526
645.699	0.0163139
645.777	0.0162016
645.855	0.0162215
645.933	0.0162699
646.011	0.0163762
646.090	0.0163648
646.168	0.0163568
646.246	0.0163064
646.324	0.0163715
646.402	0.0162944
646.480	0.0163397
646.558	0.0162427
646.636	0.0163184
646.715	0.0162558
646.793	0.0161987
646.871	0.0162882
646.949	0.0161266
647.027	0.0163054
647.105	0.0163692
647.183	0.0161482
647.261	0.0162915
647.340	0.0163811
647.418	0.0162464
647.496	0.0163075
647.574	0.0163029
647.652	0.0163013
647.730	0.0163213
647.808	0.0160921
647.886	0.0162998
647.965	0.0163253
648.043	0.0161366
648.121	0.0162900
648.199	0.0164133
648.277	0.0162814
648.355	0.0162652
648.433	0.0164132
648.511	0.0162905
648.590	0.0162315
648.668	0.0163073
648.746	0.0161992
648.824	0.0163043
648.902	0.0163659
648.980	0.0162273
649.058	0.0163531
649.136	0.0162378
649.215	0.0161526
649.293	0.0163745
649.371	0.0163611
649.449	0.0161774
649.527	0.0162687
649.605	0.0161980
649.683	0.0162973
649.761	0.0162051
649.840	0.0162979
649.918	0.0161666
649.996	0.0164721
650.074	0.0162734
650.152	0.0163817
650.230	0.0161787
650.308	0.0163112
650.386	0.0162922
650.465	0.0162646
650.543	0.0162679
650.621	0.0163051
650.699	0.0162358
650.777	0.0162434
650.855	0.0162827
650.933	0.0164143
651.011	0.0163357
651.090	0.0162174
651.168	0.0162601
651.246	0.0162015
651.324	0.0163197
651.402	0.0163779
651.480	0.0161230
651.558	0.0163351
651.636	0.0164232
651.715	0.0163322
651.793	0.0162090
651.871	0.0162592
651.949	0.0162196
652.027	0.0162550
652.105	0.0162514
652.183	0.0162430
652.261	0.0163293
652.340	0.0163004
652.418	0.0162674
652.496	0.0162849
652.574	0.0163272
652.652	0.0162409
652.730	0.0162436
652.808	0.0162511
652.886	0.0162607
652.965	0.0161954
653.043	0.0162270
653.121	0.0163295
653.199	0.0162476
653.277	0.0161829
653.355	0.0162017
653.433	0.0162364
653.511	0.0164074
653.590	0.0162291
653.668	0.0163051
653.746	0.0163049
653.824	0.0162623
653.902	0.0163946
653.980	0.0161948
654.058	0.0162972
654.136	0.0162912
654.215	0.0162345
654.293	0.0163811
654.371	0.0164116
654.449	0.0163065
654.527	0.0161981
654.605	0.0163026
654.683	0.0163402
654.761	0.0163918
654.840	0.0162041
654.918	0.0162907
654.996	0.0162961
655.074	0.0163659
655.152	0.0162502
655.230	0.0163304
655.308	0.0162431
655.386	0.0163235
655.465	0.0164561
655.543	0.0162975
655.621	0.0162455
655.699	0.0163405
655.777	0.0164302
655.855	0.0163884
655.933	0.0162790
656.011	0.0163230
656.090	0.0164011
656.168	0.0163652
656.246	0.0162025
656.324	0.0164088
656.402	0.0163689
656.480	0.0163237
656.558	0.0163577
656.636	0.0163760
656.715	0.0165604
656.793	0.0163681
656.871	0.0162400
656.949	0.0163713
657.027	0.0162450
657.105	0.0162937
657.183	0.0163138
657.261	0.0162019
657.340	0.0163587
657.418	0.0162957
657.496	0.0163509
657.574	0.0162897
657.652	0.0162107
657.730	0.0162156
657.808	0.0161850
657.886	0.0162827
657.965	0.0163240
658.043	0.0161578
658.121	0.0161160
658.199	0.0162733
658.277	0.0162572
658.355	0.0161704
658.433	0.0162113
658.511	0.0162989
658.590	0.0161511
658.668	0.0161635
658.746	0.0163384
658.824	0.0161994
658.902	0.0162447
658.980	0.0161166
659.058	0.0162303
659.136	0.0164027
659.215	0.0162387
659.293	0.0163034
659.371	0.0161864
659.449	0.0162328
659.527	0.0162873
659.605	0.0162993
659.683	0.0161696
659.761	0.0163596
659.840	0.0161639
659.918	0.0161446
659.996	0.0162693
660.074	0.0163083
660.152	0.0162336
660.230	0.0163574
660.308	0.0162463
660.386	0.0162823
660.465	0.0162056
660.543	0.0162415
660.621	0.0162706
660.699	0.0161787
660.777	0.0161579
660.855	0.0161352
660.933	0.0163240
661.011	0.0163065
661.090	0.0162850
661.168	0.0162834
661.246	0.0162441
661.324	0.0162664
661.402	0.0163171
661.480	0.0163938
661.558	0.0162370
661.636	0.0160934
661.715	0.0162042
661.793	0.0162299
661.871	0.0163040
661.949	0.0162189
662.027	0.0163548
662.105	0.0162477
662.183	0.0162018
662.261	0.0163712
662.340	0.0162928
662.418	0.0161426
662.496	0.0162513
662.574	0.0162363
662.652	0.0162531
662.730	0.0163473
662.808	0.0162218
662.886	0.0162800
662.965	0.0162487
663.043	0.0162487
663.121	0.0161802
663.199	0.0163665
663.277	0.0163830
663.355	0.0162753
663.433	0.0164175
663.511	0.0162731
663.590	0.0161995
663.668	0.0163803
663.746	0.0162889
663.824	0.0162751
663.902	0.0162192
663.980	0.0163738
664.058	0.0164077
664.136	0.0164240
664.215	0.0162635
664.293	0.0161637
664.371	0.0162869
664.449	0.0163464
664.527	0.0162931
664.605	0.0163097
664.683	0.0163628
664.761	0.0163856
664.840	0.0163489
664.918	0.0161532
664.996	0.0163231
665.074	0.0163996
665.152	0.0163199
665.230	0.0161422
665.308	0.0163742
665.386	0.0163807
665.465	0.0163135
665.543	0.0162565
665.621	0.0162495
665.699	0.0163406
665.777	0.0162612
665.855	0.0165464
665.933	0.0164941
666.011	0.0162756
666.090	0.0162657
666.168	0.0161707
666.246	0.0162971
666.324	0.0163502
666.402	0.0164129
666.480	0.0163255
666.558	0.0161625
666.636	0.0163013
666.715	0.0164003
666.793	0.0162274
666.871	0.0163738
666.949	0.0161756
667.027	0.0162817
667.105	0.0163448
667.183	0.0162976
667.261	0.0164274
667.340	0.0163828
667.418	0.0163187
667.496	0.0161814
667.574	0.0165664
667.652	0.0163157
667.730	0.0162797
667.808	0.0163977
667.886	0.0163821
667.965	0.0163303
668.043	0.0163915
668.121	0.0163596
668.199	0.0162804
668.277	0.0162788
668.355	0.0162182
668.433	0.0162817
668.511	0.0162246
668.590	0.0162357
668.668	0.0161908
668.746	0.0162965
668.824	0.0162628
668.902	0.0162791
668.980	0.0162791
669.058	0.0162493
669.136	0.0161233
669.215	0.0162774
669.293	0.0163752
669.371	0.0163018
669.449	0.0164397
669.527	0.0164279
669.605	0.0162471
669.683	0.0163058
669.761	0.0163146
669.840	0.0161667
669.918	0.0163195
669.996	0.0162934
670.074	0.0162930
670.152	0.0162903
670.230	0.0163968
670.308	0.0161766
670.386	0.0163245
670.465	0.0163236
670.543	0.0162043
670.621	0.0162444
670.699	0.0163372
670.777	0.0162671
670.855	0.0163574
670.933	0.0162879
671.011	0.0162464
671.090	0.0162670
671.168	0.0162732
671.246	0.0162147
671.324	0.0162748
671.402	0.0162256
671.480	0.0162649
671.558	0.0164164
671.636	0.0162766
671.715	0.0162666
671.793	0.0162706
671.871	0.0162281
671.949	0.0162627
672.027	0.0162077
672.105	0.0162531
672.183	0.0163212
672.261	0.0161877
672.340	0.0162925
672.418	0.0162684
672.496	0.0162818
672.574	0.0162264
672.652	0.0161795
672.730	0.0162050
672.808	0.0162434
672.886	0.0162431
672.965	0.0161140
673.043	0.0162661
673.121	0.0162989
673.199	0.0162516
673.277	0.0163239
673.355	0.0162556
673.433	0.0162875
673.511	0.0162279
673.590	0.0162720
673.668	0.0161217
673.746	0.0161546
673.824	0.0161385
673.902	0.0161752
673.980	0.0161828
674.058	0.0161108
674.136	0.0161958
674.215	0.0162631
674.293	0.0162554
674.371	0.0161320
674.449	0.0162894
674.527	0.0163301
674.605	0.0162749
674.683	0.0162488
674.761	0.0162075
674.840	0.0162849
674.918	0.0162508
674.996	0.0162601
675.074	0.0163123
675.152	0.0162531
675.230	0.0162998
675.308	0.0162868
675.386	0.0162795
675.465	0.0163051
675.543	0.0162032
675.621	0.0162458
675.699	0.0164011
675.777	0.0162042
675.855	0.0162392
675.933	0.0162136
676.011	0.0162505
676.090	0.0162392
676.168	0.0162170
676.246	0.0161811
676.324	0.0163094
676.402	0.0162341
676.480	0.0164065
676.558	0.0162414
676.636	0.0163586
676.715	0.0163663
676.793	0.0162225
676.871	0.0163469
676.949	0.0163436
677.027	0.0162939
677.105	0.0163338
677.183	0.0163464
677.261	0.0162582
677.340	0.0161500
677.418	0.0161588
677.496	0.0163221
677.574	0.0162821
677.652	0.0164120
677.730	0.0162621
677.808	0.0163865
677.886	0.0162525
677.965	0.0162714
678.043	0.0162608
678.121	0.0163171
678.199	0.0164085
678.277	0.0163702
678.355	0.0162549
678.433	0.0162814
678.511	0.0163672
678.590	0.0163724
678.668	0.0163369
678.746	0.0162991
678.824	0.0162908
678.902	0.0163705
678.980	0.0162837
679.058	0.0163393
679.136	0.0163724
679.215	0.0162836
679.293	0.0163066
679.371	0.0163067
679.449	0.0163031
679.527	0.0162933
679.605	0.0162659
679.683	0.0161642
679.761	0.0162009
679.840	0.0163394
679.918	0.0162050
679.996	0.0162082
680.074	0.0163036
680.152	0.0162769
680.230	0.0162852
680.308	0.0163276
680.386	0.0163419
680.465	0.0164178
680.543	0.0162396
680.621	0.0161066
680.699	0.0163140
680.777	0.0163670
680.855	0.0161828
680.933	0.0163238
681.011	0.0162593
681.090	0.0162015
681.168	0.0162131
681.246	0.0162335
681.324	0.0163139
681.402	0.0162440
681.480	0.0163732
681.558	0.0164908
681.636	0.0163320
681.715	0.0162522
681.793	0.0162160
681.871	0.0162833
681.949	0.0161752
682.027	0.0162596
682.105	0.0162611
682.183	0.0161292
682.261	0.0160870
682.340	0.0162094
682.418	0.0162088
682.496	0.0164000
682.574	0.0162907
682.652	0.0161465
682.730	0.0162301
682.808	0.0163586
682.886	0.0164600
682.965	0.0162463
683.043	0.0163736
683.121	0.0163324
683.199	0.0164603
683.277	0.0164164
683.355	0.0163763
683.433	0.0163213
683.511	0.0163287
683.590	0.0164370
683.668	0.0163849
683.746	0.0164007
683.824	0.0161884
683.902	0.0162966
683.980	0.0164035
684.058	0.0162325
684.136	0.0162157
684.215	0.0162702
684.293	0.0162752
684.371	0.0163503
684.449	0.0162435
684.527	0.0163151
684.605	0.0162525
684.683	0.0161895
684.761	0.0163223
684.840	0.0162953
684.918	0.0163148
684.996	0.0163290
685.074	0.0162413
685.152	0.0163039
685.230	0.0162990
685.308	0.0162198
685.386	0.0164270
685.465	0.0161715
685.543	0.0163099
685.621	0.0163741
685.699	0.0162122
685.777	0.0162223
685.855	0.0161479
685.933	0.0162287
686.011	0.0163039
686.090	0.0161207
686.168	0.0162103
686.246	0.0163501
686.324	0.0162054
686.402	0.0161506
686.480	0.0162724
686.558	0.0161756
686.636	0.0162659
686.715	0.0163081
686.793	0.0162425
686.871	0.0161923
686.949	0.0162837
687.027	0.0163306
687.105	0.0162269
687.183	0.0161629
687.261	0.0161673
687.340	0.0162839
687.418	0.0161893
687.496	0.0162058
687.574	0.0161961
687.652	0.0161797
687.730	0.0162977
687.808	0.0161722
687.886	0.0162320
687.965	0.0162755
688.043	0.0163004
688.121	0.0163123
688.199	0.0163150
688.277	0.0163392
688.355	0.0163192
688.433	0.0163148
688.511	0.0163235
688.590	0.0160815
688.668	0.0162733
688.746	0.0161924
688.824	0.0161993
688.902	0.0162254
688.980	0.0161602
689.058	0.0162045
689.136	0.0163839
689.215	0.0163827
689.293	0.0162478
689.371	0.0162746
689.449	0.0163467
689.527	0.0162672
689.605	0.0162685
689.683	0.0163647
689.761	0.0163596
689.840	0.0162996
689.918	0.0162772
689.996	0.0161719
690.074	0.0162623
690.152	0.0163068
690.230	0.0162255
690.308	0.0162632
690.386	0.0161220
690.465	0.0163506
690.543	0.0161963
690.621	0.0161725
690.699	0.0162217
690.777	0.0162788
690.855	0.0163048
690.933	0.0162070
691.011	0.0163521
691.090	0.0162791
691.168	0.0163008
691.246	0.0161111
691.324	0.0163425
691.402	0.0163629
691.480	0.0161805
691.558	0.0162901
691.636	0.0162405
691.715	0.0163406
691.793	0.0162921
691.871	0.0162330
691.949	0.0162325
692.027	0.0162889
692.105	0.0163237
692.183	0.0162928
692.261	0.0163721
692.340	0.0163220
692.418	0.0162674
692.496	0.0162990
692.574	0.0163915
692.652	0.0162428
692.730	0.0164185
692.808	0.0161246
692.886	0.0162459
692.965	0.0162801
693.043	0.0161910
693.121	0.0162337
693.199	0.0162850
693.277	0.0162432
693.355	0.0163421
693.433	0.0161500
693.511	0.0161837
693.590	0.0162997
693.668	0.0161171
693.746	0.0161269
693.824	0.0162148
693.902	0.0162229
693.980	0.0162290
694.058	0.0162439
694.136	0.0161941
694.215	0.0161649
694.293	0.0161721
694.371	0.0161963
694.449	0.0161233
694.527	0.0162515
694.605	0.0162209
694.683	0.0161969
694.761	0.0162023
694.840	0.0163039
694.918	0.0161814
694.996	0.0163099
695.074	0.0161840
695.152	0.0162764
695.230	0.0162172
695.308	0.0162283
695.386	0.0162542
695.465	0.0163293
695.543	0.0162691
695.621	0.0162152
695.699	0.0161901
695.777	0.0162510
695.855	0.0161371
695.933	0.0161066
696.011	0.0162942
696.090	0.0161570
696.168	0.0161936
696.246	0.0162186
696.324	0.0162292
696.402	0.0162328
696.480	0.0162799
696.558	0.0162731
696.636	0.0161076
696.715	0.0163171
696.793	0.0162920
696.871	0.0163213
696.949	0.0162328
697.027	0.0162717
697.105	0.0161945
697.183	0.0162547
697.261	0.0162749
697.340	0.0162541
697.418	0.0161591
697.496	0.0162923
697.574	0.0162193
697.652	0.0161956
697.730	0.0163125
697.808	0.0162068
697.886	0.0162836
697.965	0.0162912
698.043	0.0162352
698.121	0.0162476
698.199	0.0162926
698.277	0.0161402
698.355	0.0162924
698.433	0.0162766
698.511	0.0162441
698.590	0.0161664
698.668	0.0161623
698.746	0.0161971
698.824	0.0162701
698.902	0.0161626
698.980	0.0162569
699.058	0.0163960
699.136	0.0162740
699.215	0.0162320
699.293	0.0164481
699.371	0.0163113
699.449	0.0162299
699.527	0.0163486
699.605	0.0165135
699.683	0.0164890
699.761	0.0163939
699.840	0.0164159
699.918	0.0164069
699.996	0.0163815
700.074	0.0164240
700.152	0.0164468
700.230	0.0164577
700.308	0.0164094
700.386	0.0163754
700.465	0.0164486
700.543	0.0162701
700.621	0.0164194
700.699	0.0163912
700.777	0.0161720
700.855	0.0163094
700.933	0.0162768
701.011	0.0162842
701.090	0.0161405
701.168	0.0162824
701.246	0.0162282
701.324	0.0161730
701.402	0.0161208
701.480	0.0162233
701.558	0.0163182
701.636	0.0162415
701.715	0.0161868
701.793	0.0162049
701.871	0.0161879
701.949	0.0161346
702.027	0.0162042
702.105	0.0161981
702.183	0.0161073
702.261	0.0161594
702.340	0.0162437
702.418	0.0162096
702.496	0.0161332
702.574	0.0161739
702.652	0.0161198
702.730	0.0162546
702.808	0.0162463
702.886	0.0161310
702.965	0.0161541
703.043	0.0161931
703.121	0.0163353
703.199	0.0163335
703.277	0.0163080
703.355	0.0163490
703.433	0.0163514
703.511	0.0162788
703.590	0.0162877
703.668	0.0162931
703.746	0.0163605
703.824	0.0164558
703.902	0.0163090
703.980	0.0162454
704.058	0.0162337
704.136	0.0161516
704.215	0.0163958
704.293	0.0162126
704.371	0.0163495
704.449	0.0163157
704.527	0.0161720
704.605	0.0163898
704.683	0.0163884
704.761	0.0163178
704.840	0.0163261
704.918	0.0163085
704.996	0.0163536
705.074	0.0163472
705.152	0.0162935
705.230	0.0163831
705.308	0.0165090
705.386	0.0164422
705.465	0.0164351
705.543	0.0166281
705.621	0.0164289
705.699	0.0164391
705.777	0.0165631
705.855	0.0164476
705.933	0.0163790
706.011	0.0164546
706.090	0.0164931
706.168	0.0164417
706.246	0.0164088
706.324	0.0163843
706.402	0.0163400
706.480	0.0163245
706.558	0.0163747
706.636	0.0163471
706.715	0.0162020
706.793	0.0162254
706.871	0.0163232
706.949	0.0162363
707.027	0.0162431
707.105	0.0163062
707.183	0.0163414
707.261	0.0161870
707.340	0.0162617
707.418	0.0161897
707.496	0.0162911
707.574	0.0160957
707.652	0.0161951
707.730	0.0162360
707.808	0.0160828
707.886	0.0161881
707.965	0.0160252
708.043	0.0160830
708.121	0.0160203
708.199	0.0160764
708.277	0.0160777
708.355	0.0160828
708.433	0.0159642
708.511	0.0161491
708.590	0.0161073
708.668	0.0160562
708.746	0.0159081
708.824	0.0161147
708.902	0.0161266
708.980	0.0159919
709.058	0.0160868
709.136	0.0161919
709.215	0.0159830
709.293	0.0161176
709.371	0.0162924
709.449	0.0161863
709.527	0.0161923
709.605	0.0162167
709.683	0.0163266
709.761	0.0163814
709.840	0.0164162
709.918	0.0164097
709.996	0.0164714
710.074	0.0165272
710.152	0.0164327
710.230	0.0164310
710.308	0.0164309
710.386	0.0163856
710.465	0.0164874
710.543	0.0164854
710.621	0.0165195
710.699	0.0164664
710.777	0.0164949
710.855	0.0165974
710.933	0.0167440
711.011	0.0165485
711.090	0.0164130
711.168	0.0164940
711.246	0.0165216
711.324	0.0166242
711.402	0.0164697
711.480	0.0164301
711.558	0.0162942
711.636	0.0164922
711.715	0.0164543
711.793	0.0163759
711.871	0.0164068
711.949	0.0162266
712.027	0.0161816
712.105	0.0161285
712.183	0.0162336
712.261	0.0161530
712.340	0.0160361
712.418	0.0161049
712.496	0.0162191
712.574	0.0161096
712.652	0.0160316
712.730	0.0160201
712.808	0.0161274
712.886	0.0159936
712.965	0.0159292
713.043	0.0160330
713.121	0.0160819
713.199	0.0160574
713.277	0.0160464
713.355	0.0160712
713.433	0.0160461
713.511	0.0160088
713.590	0.0160092
713.668	0.0159271
713.746	0.0159829
713.824	0.0159177
713.902	0.0159759
713.980	0.0159933
714.058	0.0159615
714.136	0.0160455
714.215	0.0159996
714.293	0.0162344
714.371	0.0161855
714.449	0.0161977
714.527	0.0161235
714.605	0.0163369
714.683	0.0163067
714.761	0.0163084
714.840	0.0164230
714.918	0.0164948
714.996	0.0166123
715.074	0.0166204
715.152	0.0165984
715.230	0.0165539
715.308	0.0164294
715.386	0.0165194
715.465	0.0165554
715.543	0.0164223
715.621	0.0164717
715.699	0.0164719
715.777	0.0163602
715.855	0.0163798
715.933	0.0165205
716.011	0.0162839
716.090	0.0162496
716.168	0.0163525
716.246	0.0161871
716.324	0.0162273
716.402	0.0162790
716.480	0.0163438
716.558	0.0163289
716.636	0.0162613
716.715	0.0163391
716.793	0.0162358
716.871	0.0163383
716.949	0.0163402
717.027	0.0162711
717.105	0.0164159
717.183	0.0163125
717.261	0.0163271
717.340	0.0162585
717.418	0.0162984
717.496	0.0161186
717.574	0.0161986
717.652	0.0162623
717.730	0.0160547
717.808	0.0160425
717.886	0.0160706
717.965	0.0159095
718.043	0.0160069
718.121	0.0159147
718.199	0.0159458
718.277	0.0160281
718.355	0.0158759
718.433	0.0158509
718.511	0.0160098
718.590	0.0160807
718.668	0.0159125
718.746	0.0159921
718.824	0.0162009
718.902	0.0161263
718.980	0.0160050
719.058	0.0161883
719.136	0.0163165
719.215	0.0163605
719.293	0.0163774
719.371	0.0164379
719.449	0.0164410
719.527	0.0165517
719.605	0.0165412
719.683	0.0165268
719.761	0.0165788
719.840	0.0166241
719.918	0.0166042
719.996	0.0165144
720.074	0.0164470
720.152	0.0164661
720.230	0.0164339
720.308	0.0163999
720.386	0.0162686
720.465	0.0162807
720.543	0.0163673
720.621	0.0162029
720.699	0.0163216
720.777	0.0161814
720.855	0.0161916
720.933	0.0162032
721.011	0.0160719
721.090	0.0162533
721.168	0.0160950
721.246	0.0161604
721.324	0.0160866
721.402	0.0161591
721.480	0.0160804
721.558	0.0161139
721.636	0.0163160
721.715	0.0162972
721.793	0.0162260
721.871	0.0161765
721.949	0.0163068
722.027	0.0161962
722.105	0.0162079
722.183	0.0163014
722.261	0.0163155
722.340	0.0161898
722.418	0.0162381
722.496	0.0162486
722.574	0.0163558
722.652	0.0164028
722.730	0.0163781
722.808	0.0162228
722.886	0.0162863
722.965	0.0162391
723.043	0.0163085
723.121	0.0162089
723.199	0.0163087
723.277	0.0161121
723.355	0.0162940
723.433	0.0162193
723.511	0.0161694
723.590	0.0161785
723.668	0.0161852
723.746	0.0161922
723.824	0.0162885
723.902	0.0163622
723.980	0.0162984
724.058	0.0161443
724.136	0.0163723
724.215	0.0162244
724.293	0.0163392
724.371	0.0161541
724.449	0.0163175
724.527	0.0162359
724.605	0.0161151
724.683	0.0162140
724.761	0.0161681
724.840	0.0160500
724.918	0.0161633
724.996	0.0160968
725.074	0.0161658
725.152	0.0161063
725.230	0.0161763
725.308	0.0161320
725.386	0.0161989
725.465	0.0161896
725.543	0.0162263
725.621	0.0163102
725.699	0.0162300
725.777	0.0162595
725.855	0.0164317
725.933	0.0164270
726.011	0.0162593
726.090	0.0164436
726.168	0.0164139
726.246	0.0165362
726.324	0.0164319
726.402	0.0164338
726.480	0.0163799
726.558	0.0165689
726.636	0.0165289
726.715	0.0163414
726.793	0.0164593
726.871	0.0164338
726.949	0.0163515
727.027	0.0163070
727.105	0.0162191
727.183	0.0160759
727.261	0.0160103
727.340	0.0161316
727.418	0.0161134
727.496	0.0160003
727.574	0.0159454
727.652	0.0160234
727.730	0.0160806
727.808	0.0162542
727.886	0.0159729
727.965	0.0158650
728.043	0.0159160
728.121	0.0159453
728.199	0.0159597
728.277	0.0161647
728.355	0.0161648
728.433	0.0162143
728.511	0.0163814
728.590	0.0162759
728.668	0.0164655
728.746	0.0165382
728.824	0.0166122
728.902	0.0166566
728.980	0.0166692
729.058	0.0165488
729.136	0.0166467
729.215	0.0167535
729.293	0.0167222
729.371	0.0167309
729.449	0.0166958
729.527	0.0165662
729.605	0.0166326
729.683	0.0166265
729.761	0.0164954
729.840	0.0163896
729.918	0.0164359
729.996	0.0164925
730.074	0.0164546
730.152	0.0162675
730.230	0.0163200
730.308	0.0160433
730.386	0.0162534
730.465	0.0162074
730.543	0.0160023
730.621	0.0159535
730.699	0.0159753
730.777	0.0160209
730.855	0.0160011
730.933	0.0158818
731.011	0.0158415
731.090	0.0158819
731.168	0.0157011
731.246	0.0158122
731.324	0.0157424
731.402	0.0157357
731.480	0.0158351
731.558	0.0157789
731.636	0.0155530
731.715	0.0156601
731.793	0.0158226
731.871	0.0159040
731.949	0.0160113
732.027	0.0160881
732.105	0.0160504
732.183	0.0161890
732.261	0.0162813
732.340	0.0162984
732.418	0.0164825
732.496	0.0164728
732.574	0.0166628
732.652	0.0167832
732.730	0.0169103
732.808	0.0168108
732.886	0.0168617
732.965	0.0169576
733.043	0.0171214
733.121	0.0170336
733.199	0.0169248
733.277	0.0168944
733.355	0.0168378
733.433	0.0167712
733.511	0.0167925
733.590	0.0166680
733.668	0.0166146
733.746	0.0165066
733.824	0.0163434
733.902	0.0163129
733.980	0.0162370
734.058	0.0162172
734.136	0.0161086
734.215	0.0160159
734.293	0.0159740
734.371	0.0159839
734.449	0.0157462
734.527	0.0158704
734.605	0.0157990
734.683	0.0158562
734.761	0.0158534
734.840	0.0157343
734.918	0.0159102
734.996	0.0159365
735.074	0.0160712
735.152	0.0161607
735.230	0.0161082
735.308	0.0162832
735.386	0.0163388
735.465	0.0163326
735.543	0.0162992
735.621	0.0165672
735.699	0.0165374
735.777	0.0165215
735.855	0.0165508
735.933	0.0166322
736.011	0.0165101
736.090	0.0165788
736.168	0.0165774
736.246	0.0164102
736.324	0.0164513
736.402	0.0165325
736.480	0.0164188
736.558	0.0164677
736.636	0.0163322
736.715	0.0164882
736.793	0.0163171
736.871	0.0163288
736.949	0.0163857
737.027	0.0161156
737.105	0.0162126
737.183	0.0162481
737.261	0.0160028
737.340	0.0160896
737.418	0.0161708
737.496	0.0161418
737.574	0.0160569
737.652	0.0159946
737.730	0.0160192
737.808	0.0160977
737.886	0.0160964
737.965	0.0159601
738.043	0.0158800
738.121	0.0160622
738.199	0.0159147
738.277	0.0159206
738.355	0.0160448
738.433	0.0160278
738.511	0.0160055
738.590	0.0160554
738.668	0.0160979
738.746	0.0161799
738.824	0.0163310
738.902	0.0163225
738.980	0.0163165
739.058	0.0163656
739.136	0.0164969
739.215	0.0165569
739.293	0.0165958
739.371	0.0165342
739.449	0.0166194
739.527	0.0166153
739.605	0.0164933
739.683	0.0166106
739.761	0.0165769
739.840	0.0165891
739.918	0.0165398
739.996	0.0163559
740.074	0.0162782
740.152	0.0162702
740.230	0.0163094
740.308	0.0163017
740.386	0.0160833
740.465	0.0160819
740.543	0.0160655
740.621	0.0160419
740.699	0.0159164
740.777	0.0159263
740.855	0.0158460
740.933	0.0157841
741.011	0.0158887
741.090	0.0159286
741.168	0.0159518
741.246	0.0159157
741.324	0.0159285
741.402	0.0159959
741.480	0.0160735
741.558	0.0160772
741.636	0.0162380
741.715	0.0161648
741.793	0.0162306
741.871	0.0163785
741.949	0.0162611
742.027	0.0164520
742.105	0.0164456
742.183	0.0165718
742.261	0.0166387
742.340	0.0165492
742.418	0.0166407
742.496	0.0166272
742.574	0.0166882
742.652	0.0166312
742.730	0.0166340
742.808	0.0166078
742.886	0.0165423
742.965	0.0165530
743.043	0.0166016
743.121	0.0165250
743.199	0.0164159
743.277	0.0163432
743.355	0.0163840
743.433	0.0164501
743.511	0.0163397
743.590	0.0163494
743.668	0.0162202
743.746	0.0161943
743.824	0.0161852
743.902	0.0161990
743.980	0.0161449
744.058	0.0161314
744.136	0.0159515
744.215	0.0161563
744.293	0.0161253
744.371	0.0161149
744.449	0.0161143
744.527	0.0161571
744.605	0.0160299
744.683	0.0162061
744.761	0.0161916
744.840	0.0161298
744.918	0.0160578
744.996	0.0161010
745.074	0.0161941
745.152	0.0163007
745.230	0.0161518
745.308	0.0160176
745.386	0.0161047
745.465	0.0161361
745.543	0.0161620
745.621	0.0161407
745.699	0.0161560
745.777	0.0162328
745.855	0.0162164
745.933	0.0161827
746.011	0.0161031
746.090	0.0161991
746.168	0.0161756
746.246	0.0161539
746.324	0.0162161
746.402	0.0162489
746.480	0.0163399
746.558	0.0162765
746.636	0.0161778
746.715	0.0162455
746.793	0.0162727
746.871	0.0163432
746.949	0.0163702
747.027	0.0164756
747.105	0.0164658
747.183	0.0164170
747.261	0.0165460
747.340	0.0166158
747.418	0.0166407
747.496	0.0165499
747.574	0.0167165
747.652	0.0166737
747.730	0.0166143
747.808	0.0166995
747.886	0.0167395
747.965	0.0165648
748.043	0.0165011
748.121	0.0164011
748.199	0.0164909
748.277	0.0164391
748.355	0.0163024
748.433	0.0162085
748.511	0.0163326
748.590	0.0161443
748.668	0.0161002
748.746	0.0160857
748.824	0.0160120
748.902	0.0159633
748.980	0.0160289
749.058	0.0159940
749.136	0.0158720
749.215	0.0160052
749.293	0.0158966
749.371	0.0157842
749.449	0.0161054
749.527	0.0162381
749.605	0.0161020
749.683	0.0160815
749.761	0.0161025
749.840	0.0161365
749.918	0.0161558
749.996	0.0162303
750.074	0.0163204
750.152	0.0163741
750.230	0.0162347
750.308	0.0162580
750.386	0.0162962
750.465	0.0163828
750.543	0.0162895
750.621	0.0164555
750.699	0.0164151
750.777	0.0163844
750.855	0.0165069
750.933	0.0163128
751.011	0.0164886
751.090	0.0164178
751.168	0.0164014
751.246	0.0163513
751.324	0.0164368
751.402	0.0164813
751.480	0.0164822
751.558	0.0164438
751.636	0.0163120
751.715	0.0163550
751.793	0.0163699
751.871	0.0162996
751.949	0.0161913
752.027	0.0162255
752.105	0.0163256
752.183	0.0162966
752.261	0.0162651
752.340	0.0161797
752.418	0.0161158
752.496	0.0162057
752.574	0.0162163
752.652	0.0161695
752.730	0.0161311
752.808	0.0161311
752.886	0.0160416
752.965	0.0161300
753.043	0.0160498
753.121	0.0158757
753.199	0.0160301
753.277	0.0161620
753.355	0.0158261
753.433	0.0159705
753.511	0.0160822
753.590	0.0160719
753.668	0.0160162
753.746	0.0159776
753.824	0.0161018
753.902	0.0161976
753.980	0.0162662
754.058	0.0162437
754.136	0.0163179
754.215	0.0162692
754.293	0.0163702
754.371	0.0165110
754.449	0.0164123
754.527	0.0164857
754.605	0.0163609
754.683	0.0164931
754.761	0.0165004
754.840	0.0165579
754.918	0.0164099
754.996	0.0163325
755.074	0.0164030
755.152	0.0163929
755.230	0.0165131
755.308	0.0163258
755.386	0.0162832
755.465	0.0163493
755.543	0.0162492
755.621	0.0161221
755.699	0.0161818
755.777	0.0162241
755.855	0.0162138
755.933	0.0161054
756.011	0.0161874
756.090	0.0161731
756.168	0.0161224
756.246	0.0163129
756.324	0.0162014
756.402	0.0163362
756.480	0.0162118
756.558	0.0162894
756.636	0.0161047
756.715	0.0162480
756.793	0.0162749
756.871	0.0162403
756.949	0.0162535
757.027	0.0162660
757.105	0.0163463
757.183	0.0162663
757.261	0.0162748
757.340	0.0161877
757.418	0.0161748
757.496	0.0162525
757.574	0.0162807
757.652	0.0162686
757.730	0.0159064
757.808	0.0159452
757.886	0.0161382
757.965	0.0161155
758.043	0.0160207
758.121	0.0161899
758.199	0.0161314
758.277	0.0162696
758.355	0.0160455
758.433	0.0160552
758.511	0.0163296
758.590	0.0163584
758.668	0.0163682
758.746	0.0162334
758.824	0.0164371
758.902	0.0164034
758.980	0.0164277
759.058	0.0164445
759.136	0.0165846
759.215	0.0165545
759.293	0.0165154
759.371	0.0165316
759.449	0.0164722
759.527	0.0163960
759.605	0.0164868
759.683	0.0165333
759.761	0.0164274
759.840	0.0164240
759.918	0.0164297
759.996	0.0163461
760.074	0.0163995
760.152	0.0160353
760.230	0.0161806
760.308	0.0162132
760.386	0.0163155
760.465	0.0161488
760.543	0.0162008
760.621	0.0161303
760.699	0.0162093
760.777	0.0161916
760.855	0.0161504
760.933	0.0162577
761.011	0.0162283
761.090	0.0162364
761.168	0.0162864
761.246	0.0161474
761.324	0.0161230
761.402	0.0161012
761.480	0.0162691
761.558	0.0161771
761.636	0.0161362
761.715	0.0160996
761.793	0.0161318
761.871	0.0160308
761.949	0.0160505
762.027	0.0161382
762.105	0.0161293
762.183	0.0161034
762.261	0.0161473
762.340	0.0160860
762.418	0.0161594
762.496	0.0163040
762.574	0.0162859
762.652	0.0163764
762.730	0.0164802
762.808	0.0163465
762.886	0.0165001
762.965	0.0163913
763.043	0.0164391
763.121	0.0163751
763.199	0.0164497
763.277	0.0164835
763.355	0.0163280
763.433	0.0164851
763.511	0.0163731
763.590	0.0162489
763.668	0.0162613
763.746	0.0164129
763.824	0.0162357
763.902	0.0162997
763.980	0.0163306
764.058	0.0161751
764.136	0.0162357
764.215	0.0163029
764.293	0.0162070
764.371	0.0162806
764.449	0.0162651
764.527	0.0162627
764.605	0.0161451
764.683	0.0161752
764.761	0.0162814
764.840	0.0162896
764.918	0.0162607
764.996	0.0163089
765.074	0.0162878
765.152	0.0162311
765.230	0.0161627
765.308	0.0163297
765.386	0.0163149
765.465	0.0161694
765.543	0.0161594
765.621	0.0162156
765.699	0.0162805
765.777	0.0160264
765.855	0.0162534
765.933	0.0163546
766.011	0.0162000
766.090	0.0163094
766.168	0.0163072
766.246	0.0163248
766.324	0.0163651
766.402	0.0162083
766.480	0.0163400
766.558	0.0162897
766.636	0.0161543
766.715	0.0162299
766.793	0.0162666
766.871	0.0162248
766.949	0.0161481
767.027	0.0162334
767.105	0.0161766
767.183	0.0162077
767.261	0.0160759
767.340	0.0162489
767.418	0.0161510
767.496	0.0161632
767.574	0.0162389
767.652	0.0162728
767.730	0.0163142
767.808	0.0163165
767.886	0.0163017
767.965	0.0163565
768.043	0.0163418
768.121	0.0163519
768.199	0.0164648
768.277	0.0163777
768.355	0.0165680
768.433	0.0165843
768.511	0.0165057
768.590	0.0165764
768.668	0.0164713
768.746	0.0165099
768.824	0.0165098
768.902	0.0164137
768.980	0.0164237
769.058	0.0164802
769.136	0.0163787
769.215	0.0162819
769.293	0.0164314
769.371	0.0163923
769.449	0.0161746
769.527	0.0161522
769.605	0.0161344
769.683	0.0163077
769.761	0.0160100
769.840	0.0161170
769.918	0.0159885
769.996	0.0159578
770.074	0.0159874
770.152	0.0158865
770.230	0.0159064
770.308	0.0159274
770.386	0.0159200
770.465	0.0159113
770.543	0.0159531
770.621	0.0161147
770.699	0.0159666
770.777	0.0162181
770.855	0.0161254
770.933	0.0162486
771.011	0.0162053
771.090	0.0163163
771.168	0.0163376
771.246	0.0162872
771.324	0.0165251
771.402	0.0164931
771.480	0.0163844
771.558	0.0164098
771.636	0.0165450
771.715	0.0163539
771.793	0.0164233
771.871	0.0164417
771.949	0.0164061
772.027	0.0163648
772.105	0.0162431
772.183	0.0162550
772.261	0.0162506
772.340	0.0161543
772.418	0.0161334
772.496	0.0162543
772.574	0.0161541
772.652	0.0160843
772.730	0.0159786
772.808	0.0161282
772.886	0.0161937
772.965	0.0161866
773.043	0.0161552
773.121	0.0163498
773.199	0.0162250
773.277	0.0163029
773.355	0.0161941
773.433	0.0162960
773.511	0.0163326
773.590	0.0162130
773.668	0.0162630
773.746	0.0162038
773.824	0.0162033
773.902	0.0161787
773.980	0.0163673
774.058	0.0163840
774.136	0.0161812
774.215	0.0161748
774.293	0.0161026
774.371	0.0162501
774.449	0.0161764
774.527	0.0160093
774.605	0.0161294
774.683	0.0160616
774.761	0.0162259
774.840	0.0161695
774.918	0.0161907
774.996	0.0162215
775.074	0.0161905
775.152	0.0161832
775.230	0.0163676
775.308	0.0163335
775.386	0.0161774
775.465	0.0162596
775.543	0.0164051
775.621	0.0163527
775.699	0.0164201
775.777	0.0164352
775.855	0.0164045
775.933	0.0164267
776.011	0.0166378
776.090	0.0163960
776.168	0.0164513
776.246	0.0165221
776.324	0.0164637
776.402	0.0164321
776.480	0.0164545
776.558	0.0166436
776.636	0.0164722
776.715	0.0163479
776.793	0.0163607
776.871	0.0163031
776.949	0.0164476
777.027	0.0163435
777.105	0.0163294
777.183	0.0162646
777.261	0.0162101
777.340	0.0161807
777.418	0.0160091
777.496	0.0160625
777.574	0.0160241
777.652	0.0160535
777.730	0.0158286
777.808	0.0159735
777.886	0.0160377
777.965	0.0159889
778.043	0.0158643
778.121	0.0159453
778.199	0.0159695
778.277	0.0158968
778.355	0.0161292
778.433	0.0159939
778.511	0.0161192
778.590	0.0162493
778.668	0.0163039
778.746	0.0162087
778.824	0.0163001
778.902	0.0162421
778.980	0.0163095
779.058	0.0163984
779.136	0.0163554
779.215	0.0163979
779.293	0.0164529
779.371	0.0163408
779.449	0.0164423
779.527	0.0164292
779.605	0.0163457
779.683	0.0163081
779.761	0.0164822
779.840	0.0163818
779.918	0.0163267
779.996	0.0162885
780.074	0.0161328
780.152	0.0161684
780.230	0.0162370
780.308	0.0161267
780.386	0.0161202
780.465	0.0160947
780.543	0.0161188
780.621	0.0160342
780.699	0.0161398
780.777	0.0159672
780.855	0.0160300
780.933	0.0160931
781.011	0.0161185
781.090	0.0160983
781.168	0.0161629
781.246	0.0160963
781.324	0.0161367
781.402	0.0162274
781.480	0.0162166
781.558	0.0160712
781.636	0.0162928
781.715	0.0163966
781.793	0.0162511
781.871	0.0162521
781.949	0.0163143
782.027	0.0162791
782.105	0.0163972
782.183	0.0163296
782.261	0.0162787
782.340	0.0162072
782.418	0.0161675
782.496	0.0162625
782.574	0.0161859
782.652	0.0160454
782.730	0.0161967
782.808	0.0161387
782.886	0.0162239
782.965	0.0162430
783.043	0.0163335
783.121	0.0160810
783.199	0.0162697
783.277	0.0162483
783.355	0.0161518
783.433	0.0161582
783.511	0.0161916
783.590	0.0162270
783.668	0.0161484
783.746	0.0162023
783.824	0.0162885
783.902	0.0162785
783.980	0.0164028
784.058	0.0161958
784.136	0.0162911
784.215	0.0163486
784.293	0.0163611
784.371	0.0164434
784.449	0.0163191
784.527	0.0161839
784.605	0.0164139
784.683	0.0164120
784.761	0.0163863
784.840	0.0164150
784.918	0.0164142
784.996	0.0163176
785.074	0.0163105
785.152	0.0162858
785.230	0.0161429
785.308	0.0163186
785.386	0.0163301
785.465	0.0162384
785.543	0.0162172
785.621	0.0162233
785.699	0.0163126
785.777	0.0160690
785.855	0.0159203
785.933	0.0161727
786.011	0.0161308
786.090	0.0160777
786.168	0.0161495
786.246	0.0160826
786.324	0.0160385
786.402	0.0161759
786.480	0.0160693
786.558	0.0160572
786.636	0.0160587
786.715	0.0161171
786.793	0.0161964
786.871	0.0161131
786.949	0.0161836
787.027	0.0162589
787.105	0.0162341
787.183	0.0161058
787.261	0.0163128
787.340	0.0162976
787.418	0.0161907
787.496	0.0163137
787.574	0.0162300
787.652	0.0163577
787.730	0.0162820
787.808	0.0162750
787.886	0.0162833
787.965	0.0162325
788.043	0.0163536
788.121	0.0161567
788.199	0.0161052
788.277	0.0162138
788.355	0.0161462
788.433	0.0162703
788.511	0.0161128
788.590	0.0161600
788.668	0.0160463
788.746	0.0161296
788.824	0.0160592
788.902	0.0161380
788.980	0.0161545
789.058	0.0160777
789.136	0.0162383
789.215	0.0161510
789.293	0.0162927
789.371	0.0162505
789.449	0.0163323
789.527	0.0163844
789.605	0.0163547
789.683	0.0164013
789.761	0.0163411
789.840	0.0164985
789.918	0.0164128
789.996	0.0163261
790.074	0.0162482
790.152	0.0163112
790.230	0.0162517
790.308	0.0163708
790.386	0.0164384
790.465	0.0164557
790.543	0.0162515
790.621	0.0162803
790.699	0.0162121
790.777	0.0163213
790.855	0.0162584
790.933	0.0162974
791.011	0.0161655
791.090	0.0161240
791.168	0.0160851
791.246	0.0160647
791.324	0.0161359
791.402	0.0161633
791.480	0.0162714
791.558	0.0161615
791.636	0.0162107
791.715	0.0161990
791.793	0.0162567
791.871	0.0162463
791.949	0.0161900
792.027	0.0162831
792.105	0.0162940
792.183	0.0163973
792.261	0.0162760
792.340	0.0163518
792.418	0.0164061
792.496	0.0162916
792.574	0.0164502
792.652	0.0164749
792.730	0.0163620
792.808	0.0163507
792.886	0.0163555
792.965	0.0164421
793.043	0.0163927
793.121	0.0163751
793.199	0.0164896
793.277	0.0163590
793.355	0.0163568
793.433	0.0163612
793.511	0.0163338
793.590	0.0163367
793.668	0.0161570
793.746	0.0162185
793.824	0.0162431
793.902	0.0163579
793.980	0.0162398
794.058	0.0162853
794.136	0.0162823
794.215	0.0160867
794.293	0.0161165
794.371	0.0159436
794.449	0.0159126
794.527	0.0161290
794.605	0.0159981
794.683	0.0158812
794.761	0.0160631
794.840	0.0159969
794.918	0.0160773
794.996	0.0160033
795.074	0.0161017
795.152	0.0162859
795.230	0.0162762
795.308	0.0163520
795.386	0.0162289
795.465	0.0162943
795.543	0.0164322
795.621	0.0163066
795.699	0.0163711
795.777	0.0164741
795.855	0.0165029
795.933	0.0166442
796.011	0.0164680
796.090	0.0165459
796.168	0.0164248
796.246	0.0164025
796.324	0.0164081
796.402	0.0162416
796.480	0.0163658
796.558	0.0163322
796.636	0.0161244
796.715	0.0162540
796.793	0.0160986
796.871	0.0161540
796.949	0.0161509
797.027	0.0159767
797.105	0.0161035
797.183	0.0160692
797.261	0.0160468
797.340	0.0159713
797.418	0.0160410
797.496	0.0160469
797.574	0.0160352
797.652	0.0161926
797.730	0.0162976
797.808	0.0164532
797.886	0.0163822
797.965	0.0161727
798.043	0.0162395
798.121	0.0165060
798.199	0.0164581
798.277	0.0164697
798.355	0.0165083
798.433	0.0163947
798.511	0.0164569
798.590	0.0164508
798.668	0.0163802
798.746	0.0164793
798.824	0.0163298
798.902	0.0163178
798.980	0.0162108
799.058	0.0161827
799.136	0.0162775
799.215	0.0161111
799.293	0.0160821
799.371	0.0161165
799.449	0.0160276
799.527	0.0160552
799.605	0.0160416
799.683	0.0161144
799.761	0.0159850
799.840	0.0160120
799.918	0.0160156
799.996	0.0160114
800.074	0.0162205
800.152	0.0162350
800.230	0.0162792
800.308	0.0162747
800.386	0.0161462
800.465	0.0164465
800.543	0.0163461
800.621	0.0162257
800.699	0.0164111
800.777	0.0164809
800.855	0.0164803
800.933	0.0164780
801.011	0.0164515
801.090	0.0164091
801.168	0.0164609
801.246	0.0163258
801.324	0.0163072
801.402	0.0164008
801.480	0.0163717
801.558	0.0163784
801.636	0.0162413
801.715	0.0160914
801.793	0.0160848
801.871	0.0159628
801.949	0.0160625
802.027	0.0161093
802.105	0.0160502
802.183	0.0160109
802.261	0.0160197
802.340	0.0160983
802.418	0.0159515
802.496	0.0160636
802.574	0.0161293
802.652	0.0160633
802.730	0.0161224
802.808	0.0161594
802.886	0.0160860
802.965	0.0161767
803.043	0.0163232
803.121	0.0163223
803.199	0.0163970
803.277	0.0164258
803.355	0.0164433
803.433	0.0165706
803.511	0.0164661
803.590	0.0164855
803.668	0.0164861
803.746	0.0165406
803.824	0.0164595
803.902	0.0163657
803.980	0.0164489
804.058	0.0163799
804.136	0.0163053
804.215	0.0163979
804.293	0.0163184
804.371	0.0163198
804.449	0.0162283
804.527	0.0161788
804.605	0.0161230
804.683	0.0161142
804.761	0.0161446
804.840	0.0161658
804.918	0.0160902
804.996	0.0161292
805.074	0.0161271
805.152	0.0159435
805.230	0.0160966
805.308	0.0160206
805.386	0.0160207
805.465	0.0161021
805.543	0.0159200
805.621	0.0160618
805.699	0.0160478
805.777	0.0162589
805.855	0.0161703
805.933	0.0162875
806.011	0.0160705
806.090	0.0162619
806.168	0.0163869
806.246	0.0162104
806.324	0.0164423
806.402	0.0164561
806.480	0.0165445
806.558	0.0165787
806.636	0.0164167
806.715	0.0164337
806.793	0.0165263
806.871	0.0165531
806.949	0.0164296
807.027	0.0163883
807.105	0.0163239
807.183	0.0164353
807.261	0.0162581
807.340	0.0162445
807.418	0.0162409
807.496	0.0161253
807.574	0.0161779
807.652	0.0161095
807.730	0.0161338
807.808	0.0161097
807.886	0.0160379
807.965	0.0160843
808.043	0.0160595
808.121	0.0159116
808.199	0.0160472
808.277	0.0159706
808.355	0.0162060
808.433	0.0161339
808.511	0.0162749
808.590	0.0163194
808.668	0.0163072
808.746	0.0163612
808.824	0.0163963
808.902	0.0163868
808.980	0.0164125
809.058	0.0163862
809.136	0.0165044
809.215	0.0164931
809.293	0.0165593
809.371	0.0163844
809.449	0.0163120
809.527	0.0162282
809.605	0.0163348
809.683	0.0163470
809.761	0.0161063
809.840	0.0160590
809.918	0.0161913
809.996	0.0161019
810.074	0.0161055
810.152	0.0159264
810.230	0.0159422
810.308	0.0159265
810.386	0.0158166
810.465	0.0158794
810.543	0.0158818
810.621	0.0159628
810.699	0.0158689
810.777	0.0161469
810.855	0.0160311
810.933	0.0160342
811.011	0.0162228
811.090	0.0163084
811.168	0.0163705
811.246	0.0163445
811.324	0.0164565
811.402	0.0165464
811.480	0.0167014
811.558	0.0166360
811.636	0.0165621
811.715	0.0165565
811.793	0.0166625
811.871	0.0165604
811.949	0.0165855
812.027	0.0164982
812.105	0.0164823
812.183	0.0164216
812.261	0.0164592
812.340	0.0164516
812.418	0.0163527
812.496	0.0162225
812.574	0.0163345
812.652	0.0161930
812.730	0.0161501
812.808	0.0161179
812.886	0.0160960
812.965	0.0160141
813.043	0.0160516
813.121	0.0159034
813.199	0.0160053
813.277	0.0161640
813.355	0.0161606
813.433	0.0160938
813.511	0.0160760
813.590	0.0161684
813.668	0.0162492
813.746	0.0162736
813.824	0.0162628
813.902	0.0161816
813.980	0.0162975
814.058	0.0164315
814.136	0.0163247
814.215	0.0162595
814.293	0.0162045
814.371	0.0164500
814.449	0.0163379
814.527	0.0162704
814.605	0.0162703
814.683	0.0162968
814.761	0.0163187
814.840	0.0162921
814.918	0.0162051
814.996	0.0163133
815.074	0.0163465
815.152	0.0162476
815.230	0.0162354
815.308	0.0161852
815.386	0.0162386
815.465	0.0161673
815.543	0.0162642
815.621	0.0161610
815.699	0.0162544
815.777	0.0161604
815.855	0.0162430
815.933	0.0161307
816.011	0.0162585
816.090	0.0162245
816.168	0.0160966
816.246	0.0162335
816.324	0.0162124
816.402	0.0161694
816.480	0.0164563
816.558	0.0162682
816.636	0.0161325
816.715	0.0161923
816.793	0.0162355
816.871	0.0163689
816.949	0.0163010
817.027	0.0163696
817.105	0.0163605
817.183	0.0161786
817.261	0.0163333
817.340	0.0162798
817.418	0.0163316
817.496	0.0163406
817.574	0.0162555
817.652	0.0163892
817.730	0.0163789
817.808	0.0162417
817.886	0.0162885
817.965	0.0161810
818.043	0.0161833
818.121	0.0162070
818.199	0.0161633
818.277	0.0163253
818.355	0.0160972
818.433	0.0161959
818.511	0.0162247
818.590	0.0162559
818.668	0.0161404
818.746	0.0160771
818.824	0.0161246
818.902	0.0161578
818.980	0.0163255
819.058	0.0162392
819.136	0.0162431
819.215	0.0162753
819.293	0.0163953
819.371	0.0162988
819.449	0.0163585
819.527	0.0164297
819.605	0.0165347
819.683	0.0163639
819.761	0.0163532
819.840	0.0164539
819.918	0.0162738
819.996	0.0163960
820.074	0.0162345
820.152	0.0164916
820.230	0.0164693
820.308	0.0161434
820.386	0.0162518
820.465	0.0161958
820.543	0.0161370
820.621	0.0161227
820.699	0.0159721
820.777	0.0161150
820.855	0.0162350
820.933	0.0161960
821.011	0.0161211
821.090	0.0160295
821.168	0.0160619
821.246	0.0160797
821.324	0.0160573
821.402	0.0160713
821.480	0.0160873
821.558	0.0162308
821.636	0.0162527
821.715	0.0161980
821.793	0.0161504
821.871	0.0160769
821.949	0.0163319
822.027	0.0162206
822.105	0.0161364
822.183	0.0164610
822.261	0.0162682
822.340	0.0163338
822.418	0.0164240
822.496	0.0162917
822.574	0.0163721
822.652	0.0164517
822.730	0.0164713
822.808	0.0164672
822.886	0.0164013
822.965	0.0164509
823.043	0.0164124
823.121	0.0164478
823.199	0.0164173
823.277	0.0164458
823.355	0.0162902
823.433	0.0164075
823.511	0.0163577
823.590	0.0162757
823.668	0.0161705
823.746	0.0162859
823.824	0.0162972
823.902	0.0162061
823.980	0.0163103
824.058	0.0163936
824.136	0.0162849
824.215	0.0163357
824.293	0.0163669
824.371	0.0163456
824.449	0.0162197
824.527	0.0163646
824.605	0.0161939
824.683	0.0162275
824.761	0.0162529
824.840	0.0163470
824.918	0.0163303
824.996	0.0162407
825.074	0.0160816
825.152	0.0162511
825.230	0.0162218
825.308	0.0162505
825.386	0.0161585
825.465	0.0162709
825.543	0.0161522
825.621	0.0163567
825.699	0.0162359
825.777	0.0162007
825.855	0.0162470
825.933	0.0161108
826.011	0.0163713
826.090	0.0164352
826.168	0.0163948
826.246	0.0163988
826.324	0.0163651
826.402	0.0163728
826.480	0.0164481
826.558	0.0164520
826.636	0.0165400
826.715	0.0164190
826.793	0.0164130
826.871	0.0163107
826.949	0.0163153
827.027	0.0162611
827.105	0.0161111
827.183	0.0163333
827.261	0.0164187
827.340	0.0162476
827.418	0.0160997
827.496	0.0163113
827.574	0.0162458
827.652	0.0161799
827.730	0.0162218
827.808	0.0162206
827.886	0.0161986
827.965	0.0161749
828.043	0.0161414
828.121	0.0160276
828.199	0.0161713
828.277	0.0161648
828.355	0.0162440
828.433	0.0162582
828.511	0.0162579
828.590	0.0162103
828.668	0.0162278
828.746	0.0162538
828.824	0.0161992
828.902	0.0162456
828.980	0.0161744
829.058	0.0161407
829.136	0.0162086
829.215	0.0162108
829.293	0.0162672
829.371	0.0161889
829.449	0.0163087
829.527	0.0162310
829.605	0.0162019
829.683	0.0162571
829.761	0.0162751
829.840	0.0162965
829.918	0.0162076
829.996	0.0163242
830.074	0.0163306
830.152	0.0163606
830.230	0.0162732
830.308	0.0163187
830.386	0.0162569
830.465	0.0164468
830.543	0.0163892
830.621	0.0164790
830.699	0.0165434
830.777	0.0165331
830.855	0.0163973
830.933	0.0164528
831.011	0.0162466
831.090	0.0163982
831.168	0.0162971
831.246	0.0162738
831.324	0.0162853
831.402	0.0162684
831.480	0.0162978
831.558	0.0162727
831.636	0.0161530
831.715	0.0162788
831.793	0.0161810
831.871	0.0161762
831.949	0.0162233
832.027	0.0163189
832.105	0.0161439
832.183	0.0162131
832.261	0.0163741
832.340	0.0161849
832.418	0.0162768
832.496	0.0162898
832.574	0.0162641
832.652	0.0163681
832.730	0.0163041
832.808	0.0162683
832.886	0.0161889
832.965	0.0162509
833.043	0.0163176
833.121	0.0161652
833.199	0.0162217
833.277	0.0162937
833.355	0.0163178
833.433	0.0162552
833.511	0.0162495
833.590	0.0161673
833.668	0.0162162
833.746	0.0161899
833.824	0.0161829
833.902	0.0161633
833.980	0.0161311
834.058	0.0160601
834.136	0.0162876
834.215	0.0162788
834.293	0.0161462
834.371	0.0160856
834.449	0.0163298
834.527	0.0162323
834.605	0.0163796
834.683	0.0164146
834.761	0.0162203
834.840	0.0161423
834.918	0.0162109
834.996	0.0161690
835.074	0.0162962
835.152	0.0164303
835.230	0.0163918
835.308	0.0164192
835.386	0.0164123
835.465	0.0163226
835.543	0.0162925
835.621	0.0162582
835.699	0.0163055
835.777	0.0163702
835.855	0.0164281
835.933	0.0162459
836.011	0.0163013
836.090	0.0163441
836.168	0.0163179
836.246	0.0162003
836.324	0.0162957
836.402	0.0162247
836.480	0.0162389
836.558	0.0162531
836.636	0.0162264
836.715	0.0163235
836.793	0.0162758
836.871	0.0162108
836.949	0.0162221
837.027	0.0161931
837.105	0.0161103
837.183	0.0161825
837.261	0.0160377
837.340	0.0161214
837.418	0.0162354
837.496	0.0161501
837.574	0.0162399
837.652	0.0162115
837.730	0.0160831
837.808	0.0161724
837.886	0.0163084
837.965	0.0161977
838.043	0.0162356
838.121	0.0162109
838.199	0.0162774
838.277	0.0162710
838.355	0.0163173
838.433	0.0164503
838.511	0.0162599
838.590	0.0163740
838.668	0.0164055
838.746	0.0164465
838.824	0.0163994
838.902	0.0164381
838.980	0.0163190
839.058	0.0164928
839.136	0.0164828
839.215	0.0164417
839.293	0.0165253
839.371	0.0164634
839.449	0.0163708
839.527	0.0164216
839.605	0.0164341
839.683	0.0162256
839.761	0.0163248
839.840	0.0163642
839.918	0.0163517
839.996	0.0163184
840.074	0.0163335
840.152	0.0162818
840.230	0.0162108
840.308	0.0162180
840.386	0.0162807
840.465	0.0162194
840.543	0.0162628
840.621	0.0162409
840.699	0.0162215
840.777	0.0162932
840.855	0.0161749
840.933	0.0160143
841.011	0.0162859
841.090	0.0160708
841.168	0.0161119
841.246	0.0160958
841.324	0.0161203
841.402	0.0162124
841.480	0.0162055
841.558	0.0161360
841.636	0.0161095
841.715	0.0160681
841.793	0.0160659
841.871	0.0162568
841.949	0.0161182
842.027	0.0161514
842.105	0.0161787
842.183	0.0160548
842.261	0.0162039
842.340	0.0162348
842.418	0.0161691
842.496	0.0162963
842.574	0.0162185
842.652	0.0162712
842.730	0.0163081
842.808	0.0162112
842.886	0.0161302
842.965	0.0163444
843.043	0.0163014
843.121	0.0162413
843.199	0.0160496
843.277	0.0163391
843.355	0.0163072
843.433	0.0161976
843.511	0.0162167
843.590	0.0161521
843.668	0.0161364
843.746	0.0162526
843.824	0.0163206
843.902	0.0161734
843.980	0.0163327
844.058	0.0161832
844.136	0.0163909
844.215	0.0163423
844.293	0.0164157
844.371	0.0163264
844.449	0.0162756
844.527	0.0163308
844.605	0.0162691
844.683	0.0163302
844.761	0.0162850
844.840	0.0161816
844.918	0.0161261
844.996	0.0160782
845.074	0.0161227
845.152	0.0163239
845.230	0.0161127
845.308	0.0161411
845.386	0.0161764
845.465	0.0160531
845.543	0.0160128
845.621	0.0159911
845.699	0.0160933
845.777	0.0160366
845.855	0.0159655
845.933	0.0159646
846.011	0.0161337
846.090	0.0160652
846.168	0.0161950
846.246	0.0163177
846.324	0.0162753
846.402	0.0162746
846.480	0.0162871
846.558	0.0163343
846.636	0.0163598
846.715	0.0163497
846.793	0.0164233
846.871	0.0163497
846.949	0.0163696
847.027	0.0164195
847.105	0.0162974
847.183	0.0163310
847.261	0.0164602
847.340	0.0163805
847.418	0.0162112
847.496	0.0162989
847.574	0.0164000
847.652	0.0163552
847.730	0.0163419
847.808	0.0163219
847.886	0.0165014
847.965	0.0163762
848.043	0.0162350
848.121	0.0163366
848.199	0.0163729
848.277	0.0162625
848.355	0.0163396
848.433	0.0163227
848.511	0.0164153
848.590	0.0162880
848.668	0.0162464
848.746	0.0163484
848.824	0.0161631
848.902	0.0162214
848.980	0.0162162
849.058	0.0161539
849.136	0.0161169
849.215	0.0162719
849.293	0.0161849
849.371	0.0161037
849.449	0.0161932
849.527	0.0161886
849.605	0.0161382
849.683	0.0160679
849.761	0.0161184
849.840	0.0161591
849.918	0.0162181
849.996	0.0160888
850.074	0.0161804
850.152	0.0161515
850.230	0.0162257
850.308	0.0161685
850.386	0.0162940
850.465	0.0162720
850.543	0.0163365
850.621	0.0163191
850.699	0.0161931
850.777	0.0162153
850.855	0.0162492
850.933	0.0162504
851.011	0.0162981
851.090	0.0161845
851.168	0.0162251
851.246	0.0162712
851.324	0.0162293
851.402	0.0161669
851.480	0.0161881
851.558	0.0162037
851.636	0.0161299
851.715	0.0160843
851.793	0.0161538
851.871	0.0163393
851.949	0.0161800
852.027	0.0161936
852.105	0.0161732
852.183	0.0162248
852.261	0.0161376
852.340	0.0161906
852.418	0.0162186
852.496	0.0161620
852.574	0.0163271
852.652	0.0162223
852.730	0.0162811
852.808	0.0161646
852.886	0.0162590
852.965	0.0163985
853.043	0.0162179
853.121	0.0161999
853.199	0.0162989
853.277	0.0162672
853.355	0.0161593
853.433	0.0161642
853.511	0.0162646
853.590	0.0161097
853.668	0.0161654
853.746	0.0161562
853.824	0.0162322
853.902	0.0162830
853.980	0.0160968
854.058	0.0162605
854.136	0.0162868
854.215	0.0161688
854.293	0.0162407
854.371	0.0161826
854.449	0.0161945
854.527	0.0163828
854.605	0.0163765
854.683	0.0162751
854.761	0.0162609
854.840	0.0164168
854.918	0.0163461
854.996	0.0164268
855.074	0.0163819
855.152	0.0164441
855.230	0.0164520
855.308	0.0164470
855.386	0.0163899
855.465	0.0164862
855.543	0.0164822
855.621	0.0164919
855.699	0.0163988
855.777	0.0163783
855.855	0.0162882
855.933	0.0163095
856.011	0.0162356
856.090	0.0163532
856.168	0.0164546
856.246	0.0163612
856.324	0.0162623
856.402	0.0163128
856.480	0.0161392
856.558	0.0160747
856.636	0.0162969
856.715	0.0162395
856.793	0.0162866
856.871	0.0162301
856.949	0.0163452
857.027	0.0162873
857.105	0.0162916
857.183	0.0162861
857.261	0.0161818
857.340	0.0162102
857.418	0.0162330
857.496	0.0162521
857.574	0.0162134
857.652	0.0161737
857.730	0.0161050
857.808	0.0162095
857.886	0.0161610
857.965	0.0161557
858.043	0.0162268
858.121	0.0161978
858.199	0.0161292
858.277	0.0162293
858.355	0.0161942
858.433	0.0163432
858.511	0.0162973
858.590	0.0162014
858.668	0.0161713
858.746	0.0161492
858.824	0.0161909
858.902	0.0163250
858.980	0.0162307
859.058	0.0162285
859.136	0.0161688
859.215	0.0163028
859.293	0.0162145
859.371	0.0162640
859.449	0.0161938
859.527	0.0162570
859.605	0.0162109
859.683	0.0161794
859.761	0.0161778
859.840	0.0162149
859.918	0.0162173
859.996	0.0162745
860.074	0.0163387
860.152	0.0161961
860.230	0.0161832
860.308	0.0160907
860.386	0.0161384
860.465	0.0162190
860.543	0.0161717
860.621	0.0161389
860.699	0.0163131
860.777	0.0162506
860.855	0.0161981
860.933	0.0163073
861.011	0.0162457
861.090	0.0163731
861.168	0.0163258
861.246	0.0162940
861.324	0.0162440
861.402	0.0163256
861.480	0.0162779
861.558	0.0162204
861.636	0.0162901
861.715	0.0162482
861.793	0.0162440
861.871	0.0162337
861.949	0.0161425
862.027	0.0160695
862.105	0.0161529
862.183	0.0161127
862.261	0.0160917
862.340	0.0161134
862.418	0.0160870
862.496	0.0160282
862.574	0.0159967
862.652	0.0161264
862.730	0.0160869
862.808	0.0161230
862.886	0.0162819
862.965	0.0162933
863.043	0.0161651
863.121	0.0160761
863.199	0.0162843
863.277	0.0163139
863.355	0.0163222
863.433	0.0163281
863.511	0.0162940
863.590	0.0162756
863.668	0.0162946
863.746	0.0164270
863.824	0.0163919
863.902	0.0162876
863.980	0.0164086
864.058	0.0162061
864.136	0.0162489
864.215	0.0161323
864.293	0.0162833
864.371	0.0162360
864.449	0.0162806
864.527	0.0163877
864.605	0.0161665
864.683	0.0161011
864.761	0.0163843
864.840	0.0162911
864.918	0.0161575
864.996	0.0162372
865.074	0.0163181
865.152	0.0162933
865.230	0.0163088
865.308	0.0163256
865.386	0.0163137
865.465	0.0163879
865.543	0.0162527
865.621	0.0162517
865.699	0.0162784
865.777	0.0162041
865.855	0.0161633
865.933	0.0161399
866.011	0.0162047
866.090	0.0161269
866.168	0.0162238
866.246	0.0161322
866.324	0.0161241
866.402	0.0160913
866.480	0.0161210
866.558	0.0162321
866.636	0.0161479
866.715	0.0161370
866.793	0.0162208
866.871	0.0162304
866.949	0.0162012
867.027	0.0163168
867.105	0.0162050
867.183	0.0163452
867.261	0.0164549
867.340	0.0163792
867.418	0.0164414
867.496	0.0163092
867.574	0.0163987
867.652	0.0163945
867.730	0.0163356
867.808	0.0163168
867.886	0.0163554
867.965	0.0162044
868.043	0.0161011
868.121	0.0162512
868.199	0.0163187
868.277	0.0162372
868.355	0.0162645
868.433	0.0161855
868.511	0.0161396
868.590	0.0160838
868.668	0.0161940
868.746	0.0161868
868.824	0.0161217
868.902	0.0160703
868.980	0.0162180
869.058	0.0161646
869.136	0.0161519
869.215	0.0161958
869.293	0.0162067
869.371	0.0158926
869.449	0.0160644
869.527	0.0161434
869.605	0.0161478
869.683	0.0161163
869.761	0.0161034
869.840	0.0161031
869.918	0.0162875
869.996	0.0163126
870.074	0.0161872
870.152	0.0161932
870.230	0.0161217
870.308	0.0162023
870.386	0.0162729
870.465	0.0162009
870.543	0.0161114
870.621	0.0162582
870.699	0.0164173
870.777	0.0162751
870.855	0.0162936
870.933	0.0162920
871.011	0.0160956
871.090	0.0163065
871.168	0.0162807
871.246	0.0162878
871.324	0.0164073
871.402	0.0163234
871.480	0.0162724
871.558	0.0163599
871.636	0.0163603
871.715	0.0163366
871.793	0.0162749
871.871	0.0162933
871.949	0.0162083
872.027	0.0163459
872.105	0.0162168
872.183	0.0162608
872.261	0.0162970
872.340	0.0164315
872.418	0.0162032
872.496	0.0161626
872.574	0.0162032
872.652	0.0163297
872.730	0.0162232
872.808	0.0163242
872.886	0.0163071
872.965	0.0162009
873.043	0.0163336
873.121	0.0164501
873.199	0.0163976
873.277	0.0161940
873.355	0.0164294
873.433	0.0162444
873.511	0.0162614
873.590	0.0163313
873.668	0.0163132
873.746	0.0162708
873.824	0.0163326
873.902	0.0163142
873.980	0.0162850
874.058	0.0161510
874.136	0.0162079
874.215	0.0161819
874.293	0.0161695
874.371	0.0161798
874.449	0.0162646
874.527	0.0162092
874.605	0.0161623
874.683	0.0161179
874.761	0.0162080
874.840	0.0161529
874.918	0.0162399
874.996	0.0163674
875.074	0.0162157
875.152	0.0161891
875.230	0.0162173
875.308	0.0163655
875.386	0.0162756
875.465	0.0162556
875.543	0.0163174
875.621	0.0163464
875.699	0.0162936
875.777	0.0163990
875.855	0.0164294
875.933	0.0164069
876.011	0.0162440
876.090	0.0162608
876.168	0.0164594
876.246	0.0162945
876.324	0.0161962
876.402	0.0163309
876.480	0.0163094
876.558	0.0161972
876.636	0.0162160
876.715	0.0162061
876.793	0.0160985
876.871	0.0161376
876.949	0.0160742
877.027	0.0161308
877.105	0.0160567
877.183	0.0160157
877.261	0.0160588
877.340	0.0160564
877.418	0.0161261
877.496	0.0161177
877.574	0.0160828
877.652	0.0160666
877.730	0.0161765
877.808	0.0162760
877.886	0.0162587
877.965	0.0161269
878.043	0.0162565
878.121	0.0161942
878.199	0.0160931
878.277	0.0162235
878.355	0.0162607
878.433	0.0163110
878.511	0.0162251
878.590	0.0161539
878.668	0.0163440
878.746	0.0162926
878.824	0.0162979
878.902	0.0162206
878.980	0.0162714
879.058	0.0164066
879.136	0.0163006
879.215	0.0162161
879.293	0.0162249
879.371	0.0162053
879.449	0.0162326
879.527	0.0164143
879.605	0.0162240
879.683	0.0163442
879.761	0.0162424
879.840	0.0162779
879.918	0.0162209
879.996	0.0162821
880.074	0.0161977
880.152	0.0162741
880.230	0.0162748
880.308	0.0163477
880.386	0.0162319
880.465	0.0163337
880.543	0.0161871
880.621	0.0162463
880.699	0.0161095
880.777	0.0162704
880.855	0.0162709
880.933	0.0162854
881.011	0.0161807
881.090	0.0161983
881.168	0.0162305
881.246	0.0161248
881.324	0.0162943
881.402	0.0163171
881.480	0.0161658
881.558	0.0163232
881.636	0.0162766
881.715	0.0163236
881.793	0.0163565
881.871	0.0162648
881.949	0.0163426
882.027	0.0163000
882.105	0.0163333
882.183	0.0162423
882.261	0.0160966
882.340	0.0162453
882.418	0.0162480
882.496	0.0161896
882.574	0.0160296
882.652	0.0161769
882.730	0.0161999
882.808	0.0163062
882.886	0.0162480
882.965	0.0162793
883.043	0.0161861
883.121	0.0161636
883.199	0.0162230
883.277	0.0163567
883.355	0.0161813
883.433	0.0162624
883.511	0.0162408
883.590	0.0162777
883.668	0.0162423
883.746	0.0161658
883.824	0.0162181
883.902	0.0162387
883.980	0.0162727
884.058	0.0162058
884.136	0.0163795
884.215	0.0161060
884.293	0.0162753
884.371	0.0163427
884.449	0.0162939
884.527	0.0162694
884.605	0.0162901
884.683	0.0161452
884.761	0.0161951
884.840	0.0161555
884.918	0.0161351
884.996	0.0161237
885.074	0.0162918
885.152	0.0161594
885.230	0.0160475
885.308	0.0161504
885.386	0.0160143
885.465	0.0161275
885.543	0.0161905
885.621	0.0161802
885.699	0.0160919
885.777	0.0160037
885.855	0.0160326
885.933	0.0161768
886.011	0.0162238
886.090	0.0160685
886.168	0.0160220
886.246	0.0161813
886.324	0.0162610
886.402	0.0160802
886.480	0.0162227
886.558	0.0161066
886.636	0.0163257
886.715	0.0162292
886.793	0.0162341
886.871	0.0163004
886.949	0.0164774
887.027	0.0163509
887.105	0.0162688
887.183	0.0162775
887.261	0.0161942
887.340	0.0163411
887.418	0.0163139
887.496	0.0163092
887.574	0.0163303
887.652	0.0162803
887.730	0.0163860
887.808	0.0162901
887.886	0.0163270
887.965	0.0162856
888.043	0.0163434
888.121	0.0162807
888.199	0.0161241
888.277	0.0162914
888.355	0.0164111
888.433	0.0162656
888.511	0.0161753
888.590	0.0162469
888.668	0.0161245
888.746	0.0162194
888.824	0.0161829
888.902	0.0163071
888.980	0.0162243
889.058	0.0163224
889.136	0.0163016
889.215	0.0162584
889.293	0.0162344
889.371	0.0162124
889.449	0.0162849
889.527	0.0162093
889.605	0.0162450
889.683	0.0163602
889.761	0.0163303
889.840	0.0163007
889.918	0.0162328
889.996	0.0163298
890.074	0.0162874
890.152	0.0163332
890.230	0.0162756
890.308	0.0162576
890.386	0.0161855
890.465	0.0162951
890.543	0.0161498
890.621	0.0161456
890.699	0.0161823
890.777	0.0161953
890.855	0.0161320
890.933	0.0160566
891.011	0.0160811
891.090	0.0162109
891.168	0.0161708
891.246	0.0161143
891.324	0.0161342
891.402	0.0162363
891.480	0.0161649
891.558	0.0163084
891.636	0.0163782
891.715	0.0163017
891.793	0.0161987
891.871	0.0162557
891.949	0.0163519
892.027	0.0162484
892.105	0.0162849
892.183	0.0163953
892.261	0.0164892
892.340	0.0162056
892.418	0.0161780
892.496	0.0163718
892.574	0.0162949
892.652	0.0163814
892.730	0.0162197
892.808	0.0162590
892.886	0.0162085
892.965	0.0161924
893.043	0.0161635
893.121	0.0161887
893.199	0.0162296
893.277	0.0162514
893.355	0.0162202
893.433	0.0161647
893.511	0.0162522
893.590	0.0161572
893.668	0.0161473
893.746	0.0161121
893.824	0.0161650
893.902	0.0162871
893.980	0.0163080
894.058	0.0161674
894.136	0.0162683
894.215	0.0161664
894.293	0.0163484
894.371	0.0163116
894.449	0.0163431
894.527	0.0164317
894.605	0.0163425
894.683	0.0163190
894.761	0.0163629
894.840	0.0161700
894.918	0.0163401
894.996	0.0163026
895.074	0.0162917
895.152	0.0164658
895.230	0.0162989
895.308	0.0164481
895.386	0.0163173
895.465	0.0163343
895.543	0.0163670
895.621	0.0163515
895.699	0.0162567
895.777	0.0163373
895.855	0.0162707
895.933	0.0163092
896.011	0.0162876
896.090	0.0162862
896.168	0.0161866
896.246	0.0163507
896.324	0.0161641
896.402	0.0161848
896.480	0.0162096
896.558	0.0162789
896.636	0.0163264
896.715	0.0162099
896.793	0.0161280
896.871	0.0163510
896.949	0.0162740
897.027	0.0162180
897.105	0.0163053
897.183	0.0162543
897.261	0.0161975
897.340	0.0162765
897.418	0.0161976
897.496	0.0162367
897.574	0.0162031
897.652	0.0163050
897.730	0.0162270
897.808	0.0162716
897.886	0.0162449
897.965	0.0163029
898.043	0.0162380
898.121	0.0162435
898.199	0.0163502
898.277	0.0161983
898.355	0.0162477
898.433	0.0162475
898.511	0.0162070
898.590	0.0161986
898.668	0.0162299
898.746	0.0162006
898.824	0.0161965
898.902	0.0162167
898.980	0.0161662
899.058	0.0161044
899.136	0.0162527
899.215	0.0161407
899.293	0.0160476
899.371	0.0160500
899.449	0.0162032
899.527	0.0162547
899.605	0.0162440
899.683	0.0162483
899.761	0.0161259
899.840	0.0161668
899.918	0.0161377
899.996	0.0162845
900.074	0.0161832
900.152	0.0162515
900.230	0.0162148
900.308	0.0163295
900.386	0.0163977
900.465	0.0161004
900.543	0.0162049
900.621	0.0162959
900.699	0.0162543
900.777	0.0162888
900.855	0.0162309
900.933	0.0163731
901.011	0.0161713
901.090	0.0161701
901.168	0.0162192
901.246	0.0162310
901.324	0.0161981
901.402	0.0162982
901.480	0.0163261
901.558	0.0162292
901.636	0.0162453
901.715	0.0161943
901.793	0.0162290
901.871	0.0163380
901.949	0.0163384
902.027	0.0163257
902.105	0.0163045
902.183	0.0161524
902.261	0.0163240
902.340	0.0163673
902.418	0.0163519
902.496	0.0163312
902.574	0.0163531
902.652	0.0162917
902.730	0.0162568
902.808	0.0163248
902.886	0.0161965
902.965	0.0161700
903.043	0.0163952
903.121	0.0163707
903.199	0.0161953
903.277	0.0163155
903.355	0.0164402
903.433	0.0163975
903.511	0.0163699
903.590	0.0163406
903.668	0.0164001
903.746	0.0161887
903.824	0.0164251
903.902	0.0163481
903.980	0.0164668
904.058	0.0164225
904.136	0.0164094
904.215	0.0162987
904.293	0.0164091
904.371	0.0163670
904.449	0.0162569
904.527	0.0163797
904.605	0.0162287
904.683	0.0162914
904.761	0.0162349
904.840	0.0162935
904.918	0.0161497
904.996	0.0162805
905.074	0.0164130
905.152	0.0161135
905.230	0.0162280
905.308	0.0162419
905.386	0.0160981
905.465	0.0162284
905.543	0.0162545
905.621	0.0163486
905.699	0.0163074
905.777	0.0163419
905.855	0.0163401
905.933	0.0164535
906.011	0.0163436
906.090	0.0162106
906.168	0.0162054
906.246	0.0161387
906.324	0.0163119
906.402	0.0162484
906.480	0.0163215
906.558	0.0162702
906.636	0.0162043
906.715	0.0161947
906.793	0.0161755
906.871	0.0161581
906.949	0.0162341
907.027	0.0161455
907.105	0.0161721
907.183	0.0161324
907.261	0.0161460
907.340	0.0162598
907.418	0.0163869
907.496	0.0162949
907.574	0.0161903
907.652	0.0161873
907.730	0.0162255
907.808	0.0162521
907.886	0.0160745
907.965	0.0162096
908.043	0.0162370
908.121	0.0161153
908.199	0.0163347
908.277	0.0163265
908.355	0.0162446
908.433	0.0162222
908.511	0.0163304
908.590	0.0163594
908.668	0.0163688
908.746	0.0162383
908.824	0.0163737
908.902	0.0162356
908.980	0.0162548
909.058	0.0163209
909.136	0.0162766
909.215	0.0161670
909.293	0.0162363
909.371	0.0161575
909.449	0.0162301
909.527	0.0161913
909.605	0.0162620
909.683	0.0162340
909.761	0.0161053
909.840	0.0162337
909.918	0.0162006
909.996	0.0162209
910.074	0.0162659
910.152	0.0162420
910.230	0.0163318
910.308	0.0161542
910.386	0.0162193
910.465	0.0161935
910.543	0.0162881
910.621	0.0162664
910.699	0.0162769
910.777	0.0162730
910.855	0.0163785
910.933	0.0164699
911.011	0.0162312
911.090	0.0162915
911.168	0.0163614
911.246	0.0163920
911.324	0.0163813
911.402	0.0163969
911.480	0.0163908
911.558	0.0164291
911.636	0.0163667
911.715	0.0164037
911.793	0.0162339
911.871	0.0163341
911.949	0.0164454
912.027	0.0162901
912.105	0.0162679
912.183	0.0163632
912.261	0.0164181
912.340	0.0163548
912.418	0.0164491
912.496	0.0163538
912.574	0.0162680
912.652	0.0163611
912.730	0.0163736
912.808	0.0163362
912.886	0.0162589
912.965	0.0164018
913.043	0.0164371
913.121	0.0163720
913.199	0.0163360
913.277	0.0164175
913.355	0.0163314
913.433	0.0163611
913.511	0.0163951
913.590	0.0164102
913.668	0.0163692
913.746	0.0164689
913.824	0.0163237
913.902	0.0162789
913.980	0.0163160
914.058	0.0162505
914.136	0.0162537
914.215	0.0161823
914.293	0.0162134
914.371	0.0163295
914.449	0.0162939
914.527	0.0162069
914.605	0.0161899
914.683	0.0162827
914.761	0.0162350
914.840	0.0160262
914.918	0.0160915
914.996	0.0162099
915.074	0.0161507
915.152	0.0162098
915.230	0.0162456
915.308	0.0161121
915.386	0.0161261
915.465	0.0161292
915.543	0.0163101
915.621	0.0162923
915.699	0.0163094
915.777	0.0162622
915.855	0.0163170
915.933	0.0163599
916.011	0.0162143
916.090	0.0162825
916.168	0.0163044
916.246	0.0162554
916.324	0.0163380
916.402	0.0163089
916.480	0.0163207
916.558	0.0163829
916.636	0.0162748
916.715	0.0163140
916.793	0.0162976
916.871	0.0163454
916.949	0.0161528
917.027	0.0161684
917.105	0.0161641
917.183	0.0161787
917.261	0.0162588
917.340	0.0162398
917.418	0.0162994
917.496	0.0163063
917.574	0.0161291
917.652	0.0161908
917.730	0.0162565
917.808	0.0161560
917.886	0.0162059
917.965	0.0162316
918.043	0.0162884
918.121	0.0162875
918.199	0.0162778
918.277	0.0163771
918.355	0.0162653
918.433	0.0163107
918.511	0.0162905
918.590	0.0163766
918.668	0.0162748
918.746	0.0162959
918.824	0.0163644
918.902	0.0163160
918.980	0.0163782
919.058	0.0163927
919.136	0.0163503
919.215	0.0162399
919.293	0.0162941
919.371	0.0161769
919.449	0.0163453
919.527	0.0162590
919.605	0.0164090
919.683	0.0162827
919.761	0.0163688
919.840	0.0164067
919.918	0.0163492
919.996	0.0162748
920.074	0.0163393
920.152	0.0163477
920.230	0.0164068
920.308	0.0164365
920.386	0.0164625
920.465	0.0162688
920.543	0.0163508
920.621	0.0162747
920.699	0.0164435
920.777	0.0164801
920.855	0.0163702
920.933	0.0163560
921.011	0.0163601
921.090	0.0165287
921.168	0.0165215
921.246	0.0163667
921.324	0.0162211
921.402	0.0164292
921.480	0.0161803
921.558	0.0161573
921.636	0.0163700
921.715	0.0163463
921.793	0.0163051
921.871	0.0161733
921.949	0.0162114
922.027	0.0160799
922.105	0.0161891
922.183	0.0163008
922.261	0.0163126
922.340	0.0162599
922.418	0.0161230
922.496	0.0162336
922.574	0.0163056
922.652	0.0163934
922.730	0.0162053
922.808	0.0161826
922.886	0.0162414
922.965	0.0163495
923.043	0.0163570
923.121	0.0161985
923.199	0.0162251
923.277	0.0161895
923.355	0.0162386
923.433	0.0162884
923.511	0.0163061
923.590	0.0162894
923.668	0.0161897
923.746	0.0163039
923.824	0.0162933
923.902	0.0161924
923.980	0.0163192
924.058	0.0163564
924.136	0.0162907
924.215	0.0162081
924.293	0.0162405
924.371	0.0163158
924.449	0.0163174
924.527	0.0162836
924.605	0.0162108
924.683	0.0161273
924.761	0.0163865
924.840	0.0162662
924.918	0.0161992
924.996	0.0162246
925.074	0.0162698
925.152	0.0161372
925.230	0.0161240
925.308	0.0160580
925.386	0.0162243
925.465	0.0163455
925.543	0.0161535
925.621	0.0162199
925.699	0.0162655
925.777	0.0162029
925.855	0.0161987
925.933	0.0162789
926.011	0.0163239
926.090	0.0163774
926.168	0.0161610
926.246	0.0162336
926.324	0.0162065
926.402	0.0163850
926.480	0.0162574
926.558	0.0162395
926.636	0.0163078
926.715	0.0163007
926.793	0.0163259
926.871	0.0163849
926.949	0.0163694
927.027	0.0162624
927.105	0.0164453
927.183	0.0164515
927.261	0.0163091
927.340	0.0163668
927.418	0.0163188
927.496	0.0163518
927.574	0.0164787
927.652	0.0163918
927.730	0.0162975
927.808	0.0163902
927.886	0.0164452
927.965	0.0162853
928.043	0.0163725
928.121	0.0163732
928.199	0.0163239
928.277	0.0162732
928.355	0.0162428
928.433	0.0163506
928.511	0.0163655
928.590	0.0162078
928.668	0.0163193
928.746	0.0160785
928.824	0.0161832
928.902	0.0162689
928.980	0.0161086
929.058	0.0161516
929.136	0.0162343
929.215	0.0162510
929.293	0.0162689
929.371	0.0163316
929.449	0.0161258
929.527	0.0161908
929.605	0.0161928
929.683	0.0162186
929.761	0.0162484
929.840	0.0163084
929.918	0.0162262
929.996	0.0162367
930.074	0.0162758
930.152	0.0161593
930.230	0.0162049
930.308	0.0163660
930.386	0.0162344
930.465	0.0161389
930.543	0.0162576
930.621	0.0162682
930.699	0.0163186
930.777	0.0160632
930.855	0.0162116
930.933	0.0160781
931.011	0.0161146
931.090	0.0160552
931.168	0.0162311
931.246	0.0161308
931.324	0.0162189
931.402	0.0160808
931.480	0.0161285
931.558	0.0162599
931.636	0.0162142
931.715	0.0162164
931.793	0.0160653
931.871	0.0160395
931.949	0.0162209
932.027	0.0161337
932.105	0.0161327
932.183	0.0161490
932.261	0.0162163
932.340	0.0162238
932.418	0.0161117
932.496	0.0163065
932.574	0.0162801
932.652	0.0162309
932.730	0.0162487
932.808	0.0161526
932.886	0.0161632
932.965	0.0161578
933.043	0.0162606
933.121	0.0161263
933.199	0.0162712
933.277	0.0162623
933.355	0.0162269
933.433	0.0163006
933.511	0.0162148
933.590	0.0161990
933.668	0.0163091
933.746	0.0163955
933.824	0.0161742
933.902	0.0162438
933.980	0.0162735
934.058	0.0161823
934.136	0.0162981
934.215	0.0162154
934.293	0.0162753
934.371	0.0163398
934.449	0.0162679
934.527	0.0163490
934.605	0.0162591
934.683	0.0161461
934.761	0.0162787
934.840	0.0162734
934.918	0.0162460
934.996	0.0163896
935.074	0.0163087
935.152	0.0163763
935.230	0.0162992
935.308	0.0162766
935.386	0.0163338
935.465	0.0164099
935.543	0.0162601
935.621	0.0164156
935.699	0.0163055
935.777	0.0163618
935.855	0.0163337
935.933	0.0162539
936.011	0.0163656
936.090	0.0164060
936.168	0.0162948
936.246	0.0161572
936.324	0.0163297
936.402	0.0164555
936.480	0.0163027
936.558	0.0162195
936.636	0.0162827
936.715	0.0163715
936.793	0.0162962
936.871	0.0161506
936.949	0.0162811
937.027	0.0163787
937.105	0.0162346
937.183	0.0161740
937.261	0.0163836
937.340	0.0162968
937.418	0.0161617
937.496	0.0162460
937.574	0.0163911
937.652	0.0162441
937.730	0.0162987
937.808	0.0161594
937.886	0.0163298
937.965	0.0163646
938.043	0.0162735
938.121	0.0162204
938.199	0.0163868
938.277	0.0162917
938.355	0.0161697
938.433	0.0162389
938.511	0.0162311
938.590	0.0162235
938.668	0.0161651
938.746	0.0163364
938.824	0.0161929
938.902	0.0162738
938.980	0.0163289
939.058	0.0162569
939.136	0.0162101
939.215	0.0161752
939.293	0.0161388
939.371	0.0162399
939.449	0.0163135
939.527	0.0162859
939.605	0.0162587
939.683	0.0163177
939.761	0.0163246
939.840	0.0163292
939.918	0.0162456
939.996	0.0162590
940.074	0.0163084
940.152	0.0162666
940.230	0.0162328
940.308	0.0161935
940.386	0.0162122
940.465	0.0163302
940.543	0.0161853
940.621	0.0162984
940.699	0.0162344
940.777	0.0163130
940.855	0.0162023
940.933	0.0162666
941.011	0.0161729
941.090	0.0162502
941.168	0.0162833
941.246	0.0162630
941.324	0.0162688
941.402	0.0162924
941.480	0.0162865
941.558	0.0164323
941.636	0.0162676
941.715	0.0161472
941.793	0.0162398
941.871	0.0162019
941.949	0.0162149
942.027	0.0163256
942.105	0.0161395
942.183	0.0162828
942.261	0.0162978
942.340	0.0162223
942.418	0.0161541
942.496	0.0162508
942.574	0.0163063
942.652	0.0163788
942.730	0.0162729
942.808	0.0162167
942.886	0.0162639
942.965	0.0164241
943.043	0.0162716
943.121	0.0162936
943.199	0.0163783
943.277	0.0163279
943.355	0.0162796
943.433	0.0162494
943.511	0.0163454
943.590	0.0163033
943.668	0.0164024
943.746	0.0162521
943.824	0.0163456
943.902	0.0163660
943.980	0.0162277
944.058	0.0163216
944.136	0.0163472
944.215	0.0161923
944.293	0.0163435
944.371	0.0164079
944.449	0.0162840
944.527	0.0163169
944.605	0.0160798
944.683	0.0162666
944.761	0.0163272
944.840	0.0162543
944.918	0.0162287
944.996	0.0164037
945.074	0.0162936
945.152	0.0163129
945.230	0.0163806
945.308	0.0162598
945.386	0.0162186
945.465	0.0161928
945.543	0.0161369
945.621	0.0162545
945.699	0.0162783
945.777	0.0162323
945.855	0.0161594
945.933	0.0163798
946.011	0.0162484
946.090	0.0162712
946.168	0.0162750
946.246	0.0162272
946.324	0.0163099
946.402	0.0162899
946.480	0.0162238
946.558	0.0161295
946.636	0.0162755
946.715	0.0162772
946.793	0.0162953
946.871	0.0161886
946.949	0.0162537
947.027	0.0161103
947.105	0.0161546
947.183	0.0161659
947.261	0.0162136
947.340	0.0161822
947.418	0.0161857
947.496	0.0162897
947.574	0.0162142
947.652	0.0161760
947.730	0.0162115
947.808	0.0162328
947.886	0.0161981
947.965	0.0163214
948.043	0.0161889
948.121	0.0161655
948.199	0.0162684
948.277	0.0162300
948.355	0.0161434
948.433	0.0161171
948.511	0.0162545
948.590	0.0162305
948.668	0.0163435
948.746	0.0161220
948.824	0.0160957
948.902	0.0162249
948.980	0.0162245
949.058	0.0161967
949.136	0.0161600
949.215	0.0161655
949.293	0.0161700
949.371	0.0162468
949.449	0.0161664
949.527	0.0160932
949.605	0.0161982
949.683	0.0161481
949.761	0.0161752
949.840	0.0161677
949.918	0.0161420
