06/29/2022	21:31:24	Ver.	4.1	UNKNOWN
Optical Delay	600.001752	Delta X		0.078125	Sweeps	1	Scan Rate	0/0
Coordinates	Axis 1	NaN	Axis 2	NaN	Axis 3	NaN	Axis 4	NaN	Axis 5	NaN	Axis 6	0.000000
TX Power	0.000000	RX Power	0.000000

600.002	0.0164937
600.080	0.0164867
600.158	0.0165351
600.236	0.0165662
600.314	0.0164638
600.392	0.0164332
600.471	0.0165221
600.549	0.0164738
600.627	0.0165244
600.705	0.0165617
600.783	0.0165011
600.861	0.0165055
600.939	0.0165877
601.017	0.0165145
601.096	0.0164658
601.174	0.0164656
601.252	0.0163911
601.330	0.0163919
601.408	0.0163922
601.486	0.0166021
601.564	0.0164123
601.642	0.0165007
601.721	0.0164407
601.799	0.0164760
601.877	0.0163879
601.955	0.0164234
602.033	0.0165298
602.111	0.0164312
602.189	0.0164156
602.267	0.0164952
602.346	0.0164458
602.424	0.0163623
602.502	0.0164803
602.580	0.0164931
602.658	0.0164517
602.736	0.0165794
602.814	0.0165004
602.892	0.0164747
602.971	0.0164676
603.049	0.0164137
603.127	0.0163898
603.205	0.0163734
603.283	0.0165652
603.361	0.0164944
603.439	0.0166275
603.517	0.0164651
603.596	0.0164850
603.674	0.0164505
603.752	0.0165283
603.830	0.0162718
603.908	0.0164072
603.986	0.0166036
604.064	0.0165166
604.142	0.0163065
604.221	0.0164095
604.299	0.0164225
604.377	0.0165491
604.455	0.0165017
604.533	0.0164398
604.611	0.0165257
604.689	0.0164262
604.767	0.0164646
604.846	0.0165365
604.924	0.0164148
605.002	0.0165085
605.080	0.0164478
605.158	0.0164877
605.236	0.0164177
605.314	0.0163341
605.392	0.0164340
605.471	0.0164712
605.549	0.0164832
605.627	0.0164761
605.705	0.0164734
605.783	0.0164051
605.861	0.0165632
605.939	0.0166073
606.017	0.0165382
606.096	0.0165778
606.174	0.0163850
606.252	0.0165389
606.330	0.0163967
606.408	0.0165265
606.486	0.0163322
606.564	0.0164530
606.642	0.0164675
606.721	0.0165579
606.799	0.0163352
606.877	0.0164297
606.955	0.0164547
607.033	0.0164363
607.111	0.0165588
607.189	0.0165250
607.267	0.0163738
607.346	0.0164966
607.424	0.0165450
607.502	0.0165161
607.580	0.0165726
607.658	0.0165160
607.736	0.0163722
607.814	0.0164127
607.892	0.0163390
607.971	0.0165888
608.049	0.0163950
608.127	0.0165445
608.205	0.0163847
608.283	0.0163904
608.361	0.0165577
608.439	0.0165076
608.517	0.0163692
608.596	0.0164310
608.674	0.0164103
608.752	0.0164959
608.830	0.0164713
608.908	0.0164836
608.986	0.0163721
609.064	0.0165422
609.142	0.0164582
609.221	0.0165444
609.299	0.0163869
609.377	0.0164690
609.455	0.0163268
609.533	0.0164164
609.611	0.0163940
609.689	0.0164188
609.767	0.0162876
609.846	0.0163773
609.924	0.0164351
610.002	0.0164307
610.080	0.0163796
610.158	0.0162817
610.236	0.0164510
610.314	0.0162953
610.392	0.0163412
610.471	0.0162936
610.549	0.0164019
610.627	0.0163950
610.705	0.0163482
610.783	0.0164522
610.861	0.0164855
610.939	0.0163892
611.017	0.0162265
611.096	0.0163496
611.174	0.0164113
611.252	0.0161133
611.330	0.0162617
611.408	0.0164246
611.486	0.0163080
611.564	0.0163513
611.642	0.0163367
611.721	0.0162723
611.799	0.0163651
611.877	0.0163071
611.955	0.0164147
612.033	0.0163476
612.111	0.0162044
612.189	0.0163112
612.267	0.0163779
612.346	0.0165195
612.424	0.0163754
612.502	0.0163321
612.580	0.0163097
612.658	0.0163018
612.736	0.0163054
612.814	0.0164017
612.892	0.0164299
612.971	0.0164056
613.049	0.0163394
613.127	0.0164294
613.205	0.0164253
613.283	0.0163151
613.361	0.0162955
613.439	0.0164000
613.517	0.0165438
613.596	0.0164810
613.674	0.0164034
613.752	0.0163831
613.830	0.0164142
613.908	0.0165278
613.986	0.0163961
614.064	0.0164832
614.142	0.0163819
614.221	0.0163952
614.299	0.0163519
614.377	0.0165265
614.455	0.0163763
614.533	0.0163258
614.611	0.0163605
614.689	0.0162730
614.767	0.0163371
614.846	0.0163905
614.924	0.0165422
615.002	0.0165034
615.080	0.0163117
615.158	0.0164526
615.236	0.0163817
615.314	0.0165233
615.392	0.0165237
615.471	0.0163391
615.549	0.0162575
615.627	0.0164767
615.705	0.0164977
615.783	0.0164535
615.861	0.0164183
615.939	0.0163465
616.017	0.0164305
616.096	0.0164504
616.174	0.0164079
616.252	0.0165081
616.330	0.0162886
616.408	0.0164392
616.486	0.0164216
616.564	0.0163946
616.642	0.0164728
616.721	0.0162801
616.799	0.0165024
616.877	0.0165475
616.955	0.0164295
617.033	0.0164743
617.111	0.0164458
617.189	0.0163673
617.267	0.0165286
617.346	0.0164796
617.424	0.0164778
617.502	0.0164709
617.580	0.0166332
617.658	0.0164938
617.736	0.0165493
617.814	0.0165202
617.892	0.0164514
617.971	0.0165525
618.049	0.0165432
618.127	0.0165807
618.205	0.0165989
618.283	0.0164970
618.361	0.0165108
618.439	0.0165771
618.517	0.0165276
618.596	0.0164849
618.674	0.0165154
618.752	0.0164336
618.830	0.0165804
618.908	0.0166284
618.986	0.0167772
619.064	0.0166364
619.142	0.0164722
619.221	0.0165189
619.299	0.0165405
619.377	0.0165581
619.455	0.0166859
619.533	0.0166303
619.611	0.0164639
619.689	0.0164322
619.767	0.0166155
619.846	0.0165395
619.924	0.0166573
620.002	0.0165731
620.080	0.0163642
620.158	0.0166315
620.236	0.0165047
620.314	0.0164268
620.392	0.0165837
620.471	0.0166130
620.549	0.0165173
620.627	0.0165636
620.705	0.0164738
620.783	0.0165766
620.861	0.0165759
620.939	0.0164783
621.017	0.0165319
621.096	0.0166953
621.174	0.0163461
621.252	0.0166231
621.330	0.0165896
621.408	0.0164767
621.486	0.0164598
621.564	0.0165258
621.642	0.0164233
621.721	0.0163025
621.799	0.0165639
621.877	0.0165417
621.955	0.0163870
622.033	0.0164783
622.111	0.0165236
622.189	0.0165019
622.267	0.0164600
622.346	0.0164408
622.424	0.0164901
622.502	0.0164835
622.580	0.0165850
622.658	0.0163830
622.736	0.0165497
622.814	0.0165217
622.892	0.0164626
622.971	0.0164816
623.049	0.0164767
623.127	0.0164716
623.205	0.0164253
623.283	0.0163866
623.361	0.0164587
623.439	0.0165467
623.517	0.0165716
623.596	0.0164613
623.674	0.0164663
623.752	0.0164547
623.830	0.0165522
623.908	0.0165756
623.986	0.0165475
624.064	0.0165675
624.142	0.0165105
624.221	0.0164797
624.299	0.0165247
624.377	0.0165389
624.455	0.0164016
624.533	0.0165396
624.611	0.0165500
624.689	0.0165270
624.767	0.0166174
624.846	0.0165154
624.924	0.0164945
625.002	0.0164450
625.080	0.0164149
625.158	0.0164162
625.236	0.0165349
625.314	0.0165731
625.392	0.0165330
625.471	0.0165634
625.549	0.0164318
625.627	0.0165124
625.705	0.0164092
625.783	0.0164000
625.861	0.0163081
625.939	0.0162373
626.017	0.0164085
626.096	0.0164305
626.174	0.0163290
626.252	0.0163410
626.330	0.0162472
626.408	0.0164160
626.486	0.0164865
626.564	0.0163139
626.642	0.0162775
626.721	0.0164368
626.799	0.0163445
626.877	0.0163576
626.955	0.0162650
627.033	0.0163617
627.111	0.0163677
627.189	0.0162465
627.267	0.0162839
627.346	0.0161560
627.424	0.0163134
627.502	0.0164720
627.580	0.0162873
627.658	0.0162643
627.736	0.0163280
627.814	0.0162502
627.892	0.0162995
627.971	0.0163976
628.049	0.0163338
628.127	0.0162020
628.205	0.0162100
628.283	0.0164075
628.361	0.0163091
628.439	0.0163127
628.517	0.0161324
628.596	0.0163537
628.674	0.0161910
628.752	0.0162555
628.830	0.0163261
628.908	0.0163153
628.986	0.0161818
629.064	0.0162963
629.142	0.0163106
629.221	0.0162241
629.299	0.0163439
629.377	0.0163261
629.455	0.0162299
629.533	0.0164069
629.611	0.0163881
629.689	0.0162841
629.767	0.0162739
629.846	0.0163263
629.924	0.0162962
630.002	0.0164153
630.080	0.0163667
630.158	0.0164324
630.236	0.0163792
630.314	0.0163918
630.392	0.0164520
630.471	0.0163889
630.549	0.0163740
630.627	0.0163447
630.705	0.0164215
630.783	0.0164839
630.861	0.0163123
630.939	0.0164613
631.017	0.0163406
631.096	0.0164486
631.174	0.0163648
631.252	0.0163371
631.330	0.0165486
631.408	0.0164516
631.486	0.0163097
631.564	0.0163583
631.642	0.0162673
631.721	0.0164159
631.799	0.0164071
631.877	0.0163873
631.955	0.0164627
632.033	0.0162940
632.111	0.0164877
632.189	0.0164047
632.267	0.0164806
632.346	0.0164378
632.424	0.0163370
632.502	0.0165303
632.580	0.0164314
632.658	0.0163632
632.736	0.0164175
632.814	0.0162823
632.892	0.0164032
632.971	0.0165521
633.049	0.0165714
633.127	0.0164668
633.205	0.0164242
633.283	0.0164715
633.361	0.0164346
633.439	0.0164346
633.517	0.0163858
633.596	0.0164939
633.674	0.0165535
633.752	0.0164848
633.830	0.0166072
633.908	0.0164767
633.986	0.0165401
634.064	0.0164908
634.142	0.0165272
634.221	0.0165909
634.299	0.0165004
634.377	0.0164517
634.455	0.0165034
634.533	0.0164196
634.611	0.0166225
634.689	0.0165210
634.767	0.0164760
634.846	0.0164039
634.924	0.0164235
635.002	0.0165403
635.080	0.0165009
635.158	0.0165980
635.236	0.0166383
635.314	0.0165678
635.392	0.0166088
635.471	0.0166263
635.549	0.0165939
635.627	0.0166013
635.705	0.0165279
635.783	0.0165704
635.861	0.0165522
635.939	0.0166041
636.017	0.0165367
636.096	0.0165076
636.174	0.0165621
636.252	0.0165733
636.330	0.0165129
636.408	0.0165162
636.486	0.0167091
636.564	0.0167075
636.642	0.0166077
636.721	0.0165466
636.799	0.0165588
636.877	0.0166217
636.955	0.0165662
637.033	0.0164596
637.111	0.0165691
637.189	0.0165493
637.267	0.0166640
637.346	0.0164561
637.424	0.0164539
637.502	0.0166183
637.580	0.0165439
637.658	0.0165856
637.736	0.0164368
637.814	0.0166956
637.892	0.0165571
637.971	0.0163671
638.049	0.0166216
638.127	0.0165575
638.205	0.0165227
638.283	0.0164630
638.361	0.0165706
638.439	0.0164503
638.517	0.0166088
638.596	0.0164616
638.674	0.0164208
638.752	0.0163997
638.830	0.0162798
638.908	0.0163428
638.986	0.0165457
639.064	0.0165850
639.142	0.0163119
639.221	0.0164312
639.299	0.0165831
639.377	0.0164538
639.455	0.0164832
639.533	0.0164346
639.611	0.0164570
639.689	0.0164722
639.767	0.0163664
639.846	0.0164003
639.924	0.0165109
640.002	0.0164799
640.080	0.0164680
640.158	0.0163371
640.236	0.0163570
640.314	0.0164006
640.392	0.0164513
640.471	0.0164561
640.549	0.0165379
640.627	0.0165324
640.705	0.0165046
640.783	0.0164684
640.861	0.0165934
640.939	0.0164414
641.017	0.0165132
641.096	0.0164703
641.174	0.0164921
641.252	0.0165085
641.330	0.0164739
641.408	0.0163355
641.486	0.0163552
641.564	0.0166074
641.642	0.0164639
641.721	0.0164472
641.799	0.0164420
641.877	0.0164977
641.955	0.0163629
642.033	0.0164909
642.111	0.0166482
642.189	0.0164816
642.267	0.0164763
642.346	0.0163425
642.424	0.0165651
642.502	0.0164889
642.580	0.0165871
642.658	0.0166097
642.736	0.0165521
642.814	0.0165084
642.892	0.0165778
642.971	0.0166468
643.049	0.0164240
643.127	0.0163997
643.205	0.0165578
643.283	0.0165947
643.361	0.0164722
643.439	0.0165360
643.517	0.0165327
643.596	0.0164369
643.674	0.0165756
643.752	0.0166053
643.830	0.0166051
643.908	0.0164848
643.986	0.0165385
644.064	0.0165889
644.142	0.0165250
644.221	0.0165091
644.299	0.0163261
644.377	0.0164253
644.455	0.0166555
644.533	0.0165338
644.611	0.0163867
644.689	0.0165129
644.767	0.0166042
644.846	0.0165086
644.924	0.0164188
645.002	0.0164008
645.080	0.0166100
645.158	0.0165694
645.236	0.0164252
645.314	0.0164150
645.392	0.0165289
645.471	0.0164234
645.549	0.0165337
645.627	0.0163271
645.705	0.0164534
645.783	0.0166296
645.861	0.0163333
645.939	0.0164755
646.017	0.0165260
646.096	0.0164320
646.174	0.0165414
646.252	0.0164297
646.330	0.0164077
646.408	0.0163802
646.486	0.0165691
646.564	0.0164987
646.642	0.0164687
646.721	0.0163669
646.799	0.0163449
646.877	0.0164616
646.955	0.0164802
647.033	0.0163482
647.111	0.0163707
647.189	0.0164263
647.267	0.0164720
647.346	0.0163235
647.424	0.0163110
647.502	0.0164252
647.580	0.0164151
647.658	0.0163410
647.736	0.0164478
647.814	0.0164610
647.892	0.0163047
647.971	0.0163144
648.049	0.0164423
648.127	0.0163390
648.205	0.0164607
648.283	0.0164273
648.361	0.0163804
648.439	0.0163690
648.517	0.0164283
648.596	0.0164040
648.674	0.0163529
648.752	0.0163433
648.830	0.0163213
648.908	0.0163423
648.986	0.0163937
649.064	0.0164585
649.142	0.0164107
649.221	0.0164057
649.299	0.0163407
649.377	0.0163517
649.455	0.0163249
649.533	0.0163161
649.611	0.0163754
649.689	0.0163090
649.767	0.0163263
649.846	0.0163711
649.924	0.0162579
650.002	0.0162842
650.080	0.0162591
650.158	0.0160995
650.236	0.0162556
650.314	0.0163504
650.392	0.0163313
650.471	0.0162560
650.549	0.0163181
650.627	0.0162383
650.705	0.0162756
650.783	0.0162263
650.861	0.0163100
650.939	0.0163569
651.017	0.0163436
651.096	0.0163577
651.174	0.0162926
651.252	0.0164326
651.330	0.0163422
651.408	0.0161835
651.486	0.0162492
651.564	0.0163052
651.642	0.0161868
651.721	0.0162257
651.799	0.0164112
651.877	0.0163541
651.955	0.0163811
652.033	0.0164587
652.111	0.0165194
652.189	0.0164582
652.267	0.0165243
652.346	0.0163660
652.424	0.0163585
652.502	0.0164702
652.580	0.0164274
652.658	0.0162631
652.736	0.0163609
652.814	0.0163783
652.892	0.0164354
652.971	0.0164730
653.049	0.0165353
653.127	0.0164311
653.205	0.0163802
653.283	0.0163422
653.361	0.0163654
653.439	0.0164883
653.517	0.0162830
653.596	0.0163592
653.674	0.0163805
653.752	0.0163263
653.830	0.0164816
653.908	0.0163271
653.986	0.0163110
654.064	0.0164011
654.142	0.0164001
654.221	0.0164140
654.299	0.0163787
654.377	0.0163553
654.455	0.0164938
654.533	0.0164157
654.611	0.0164277
654.689	0.0165009
654.767	0.0162670
654.846	0.0163163
654.924	0.0164959
655.002	0.0164626
655.080	0.0164314
655.158	0.0163544
655.236	0.0164859
655.314	0.0165728
655.392	0.0164241
655.471	0.0163993
655.549	0.0164999
655.627	0.0164637
655.705	0.0164974
655.783	0.0164859
655.861	0.0164026
655.939	0.0163776
656.017	0.0165225
656.096	0.0163630
656.174	0.0164977
656.252	0.0165399
656.330	0.0164986
656.408	0.0164865
656.486	0.0166173
656.564	0.0166534
656.642	0.0163744
656.721	0.0164077
656.799	0.0165933
656.877	0.0165419
656.955	0.0166083
657.033	0.0165118
657.111	0.0163788
657.189	0.0164622
657.267	0.0165153
657.346	0.0164671
657.424	0.0164057
657.502	0.0164622
657.580	0.0164735
657.658	0.0164862
657.736	0.0165516
657.814	0.0164635
657.892	0.0165746
657.971	0.0165195
658.049	0.0164101
658.127	0.0165495
658.205	0.0165247
658.283	0.0166040
658.361	0.0164756
658.439	0.0164125
658.517	0.0165824
658.596	0.0165987
658.674	0.0164445
658.752	0.0164155
658.830	0.0166563
658.908	0.0165573
658.986	0.0165325
659.064	0.0166223
659.142	0.0165547
659.221	0.0164440
659.299	0.0165073
659.377	0.0164423
659.455	0.0165778
659.533	0.0164888
659.611	0.0166723
659.689	0.0166377
659.767	0.0164363
659.846	0.0165144
659.924	0.0165359
660.002	0.0164986
660.080	0.0165156
660.158	0.0165159
660.236	0.0165814
660.314	0.0166058
660.392	0.0166284
660.471	0.0165453
660.549	0.0164851
660.627	0.0166123
660.705	0.0165753
660.783	0.0164890
660.861	0.0164973
660.939	0.0165461
661.017	0.0166381
661.096	0.0165179
661.174	0.0165315
661.252	0.0164396
661.330	0.0163718
661.408	0.0166135
661.486	0.0166341
661.564	0.0165841
661.642	0.0164199
661.721	0.0165958
661.799	0.0164748
661.877	0.0165490
661.955	0.0166251
662.033	0.0165880
662.111	0.0164605
662.189	0.0164826
662.267	0.0165577
662.346	0.0165304
662.424	0.0165710
662.502	0.0164891
662.580	0.0165374
662.658	0.0164786
662.736	0.0165166
662.814	0.0165134
662.892	0.0165207
662.971	0.0164823
663.049	0.0165114
663.127	0.0165886
663.205	0.0166418
663.283	0.0165359
663.361	0.0165948
663.439	0.0165350
663.517	0.0164519
663.596	0.0166212
663.674	0.0165878
663.752	0.0164877
663.830	0.0164588
663.908	0.0166021
663.986	0.0165234
664.064	0.0164661
664.142	0.0164687
664.221	0.0166383
664.299	0.0163233
664.377	0.0166975
664.455	0.0166261
664.533	0.0165510
664.611	0.0165724
664.689	0.0166217
664.767	0.0164771
664.846	0.0164375
664.924	0.0165659
665.002	0.0166252
665.080	0.0166294
665.158	0.0166479
665.236	0.0164945
665.314	0.0165870
665.392	0.0165919
665.471	0.0165251
665.549	0.0166159
665.627	0.0165238
665.705	0.0164305
665.783	0.0164820
665.861	0.0166734
665.939	0.0167192
666.017	0.0166653
666.096	0.0164931
666.174	0.0165065
666.252	0.0165210
666.330	0.0165324
666.408	0.0165560
666.486	0.0165945
666.564	0.0165009
666.642	0.0164810
666.721	0.0166093
666.799	0.0167173
666.877	0.0165342
666.955	0.0165202
667.033	0.0165712
667.111	0.0166737
667.189	0.0165192
667.267	0.0165173
667.346	0.0167181
667.424	0.0165572
667.502	0.0163459
667.580	0.0165842
667.658	0.0165578
667.736	0.0165873
667.814	0.0165859
667.892	0.0167603
667.971	0.0165359
668.049	0.0164684
668.127	0.0164885
668.205	0.0166756
668.283	0.0166164
668.361	0.0165166
668.439	0.0165852
668.517	0.0165389
668.596	0.0164541
668.674	0.0166624
668.752	0.0164095
668.830	0.0163799
668.908	0.0165215
668.986	0.0166393
669.064	0.0165190
669.142	0.0164937
669.221	0.0166272
669.299	0.0165470
669.377	0.0164710
669.455	0.0165221
669.533	0.0164065
669.611	0.0163809
669.689	0.0164120
669.767	0.0165584
669.846	0.0164680
669.924	0.0165253
670.002	0.0165712
670.080	0.0164964
670.158	0.0164333
670.236	0.0165050
670.314	0.0163230
670.392	0.0164972
670.471	0.0164842
670.549	0.0163609
670.627	0.0164520
670.705	0.0164586
670.783	0.0164657
670.861	0.0163483
670.939	0.0163762
671.017	0.0165128
671.096	0.0164114
671.174	0.0163685
671.252	0.0164707
671.330	0.0162872
671.408	0.0164793
671.486	0.0163864
671.564	0.0165353
671.642	0.0164881
671.721	0.0164131
671.799	0.0163174
671.877	0.0164042
671.955	0.0164612
672.033	0.0164182
672.111	0.0164487
672.189	0.0163926
672.267	0.0163134
672.346	0.0163690
672.424	0.0163235
672.502	0.0163699
672.580	0.0163506
672.658	0.0163479
672.736	0.0163059
672.814	0.0164248
672.892	0.0165170
672.971	0.0163434
673.049	0.0163820
673.127	0.0162701
673.205	0.0163874
673.283	0.0164053
673.361	0.0163702
673.439	0.0163667
673.517	0.0164131
673.596	0.0163861
673.674	0.0163996
673.752	0.0163193
673.830	0.0164325
673.908	0.0164726
673.986	0.0163863
674.064	0.0163546
674.142	0.0165647
674.221	0.0163418
674.299	0.0164989
674.377	0.0165356
674.455	0.0162952
674.533	0.0164218
674.611	0.0164055
674.689	0.0164613
674.767	0.0162820
674.846	0.0163345
674.924	0.0165133
675.002	0.0165354
675.080	0.0163505
675.158	0.0164208
675.236	0.0163932
675.314	0.0164927
675.392	0.0163830
675.471	0.0164577
675.549	0.0163614
675.627	0.0163736
675.705	0.0163928
675.783	0.0163795
675.861	0.0164932
675.939	0.0163229
676.017	0.0163916
676.096	0.0164298
676.174	0.0163306
676.252	0.0163504
676.330	0.0164365
676.408	0.0164397
676.486	0.0163692
676.564	0.0164740
676.642	0.0164140
676.721	0.0164581
676.799	0.0164548
676.877	0.0164262
676.955	0.0164512
677.033	0.0165040
677.111	0.0164420
677.189	0.0163954
677.267	0.0164871
677.346	0.0164129
677.424	0.0164985
677.502	0.0164434
677.580	0.0164462
677.658	0.0165374
677.736	0.0164901
677.814	0.0163055
677.892	0.0165154
677.971	0.0164974
678.049	0.0165339
678.127	0.0164837
678.205	0.0164400
678.283	0.0164912
678.361	0.0163125
678.439	0.0163899
678.517	0.0165252
678.596	0.0163435
678.674	0.0164781
678.752	0.0164872
678.830	0.0163158
678.908	0.0163731
678.986	0.0165107
679.064	0.0164551
679.142	0.0165311
679.221	0.0165417
679.299	0.0164279
679.377	0.0164182
679.455	0.0165058
679.533	0.0165138
679.611	0.0164030
679.689	0.0165597
679.767	0.0164190
679.846	0.0163750
679.924	0.0163488
680.002	0.0164423
680.080	0.0165588
680.158	0.0164499
680.236	0.0164317
680.314	0.0164668
680.392	0.0165120
680.471	0.0165934
680.549	0.0163119
680.627	0.0165851
680.705	0.0166274
680.783	0.0163792
680.861	0.0165231
680.939	0.0164588
681.017	0.0162550
681.096	0.0164447
681.174	0.0164899
681.252	0.0163674
681.330	0.0162921
681.408	0.0164275
681.486	0.0166000
681.564	0.0166068
681.642	0.0163500
681.721	0.0164146
681.799	0.0165049
681.877	0.0165578
681.955	0.0164605
682.033	0.0163350
682.111	0.0164645
682.189	0.0164848
682.267	0.0165741
682.346	0.0165313
682.424	0.0164663
682.502	0.0165446
682.580	0.0165178
682.658	0.0165051
682.736	0.0165325
682.814	0.0165469
682.892	0.0164677
682.971	0.0165098
683.049	0.0165001
683.127	0.0165237
683.205	0.0166106
683.283	0.0164182
683.361	0.0165137
683.439	0.0166096
683.517	0.0164688
683.596	0.0165392
683.674	0.0164120
683.752	0.0164715
683.830	0.0164096
683.908	0.0165562
683.986	0.0164989
684.064	0.0164755
684.142	0.0164980
684.221	0.0163790
684.299	0.0164805
684.377	0.0164364
684.455	0.0165055
684.533	0.0165015
684.611	0.0163698
684.689	0.0165532
684.767	0.0165340
684.846	0.0163775
684.924	0.0164822
685.002	0.0164095
685.080	0.0164288
685.158	0.0165398
685.236	0.0164668
685.314	0.0164598
685.392	0.0164432
685.471	0.0164082
685.549	0.0164242
685.627	0.0163499
685.705	0.0165168
685.783	0.0165099
685.861	0.0163687
685.939	0.0163895
686.017	0.0164115
686.096	0.0164291
686.174	0.0162862
686.252	0.0164643
686.330	0.0164487
686.408	0.0165440
686.486	0.0164622
686.564	0.0164519
686.642	0.0165671
686.721	0.0163917
686.799	0.0163739
686.877	0.0165752
686.955	0.0164240
687.033	0.0165432
687.111	0.0166135
687.189	0.0165586
687.267	0.0163551
687.346	0.0163992
687.424	0.0165648
687.502	0.0165096
687.580	0.0163067
687.658	0.0164608
687.736	0.0165096
687.814	0.0163863
687.892	0.0165628
687.971	0.0165214
688.049	0.0164380
688.127	0.0162623
688.205	0.0164388
688.283	0.0164959
688.361	0.0164526
688.439	0.0162924
688.517	0.0164249
688.596	0.0164658
688.674	0.0163860
688.752	0.0164120
688.830	0.0164022
688.908	0.0164410
688.986	0.0164642
689.064	0.0164129
689.142	0.0165146
689.221	0.0163788
689.299	0.0165464
689.377	0.0164778
689.455	0.0164667
689.533	0.0163961
689.611	0.0165358
689.689	0.0164801
689.767	0.0165528
689.846	0.0163851
689.924	0.0164119
690.002	0.0165188
690.080	0.0165268
690.158	0.0164822
690.236	0.0165883
690.314	0.0165950
690.392	0.0166626
690.471	0.0166187
690.549	0.0165280
690.627	0.0167601
690.705	0.0166026
690.783	0.0165563
690.861	0.0165163
690.939	0.0164837
691.017	0.0166595
691.096	0.0165591
691.174	0.0165243
691.252	0.0165894
691.330	0.0165385
691.408	0.0165443
691.486	0.0164782
691.564	0.0163515
691.642	0.0164557
691.721	0.0164857
691.799	0.0165240
691.877	0.0165060
691.955	0.0164790
692.033	0.0164231
692.111	0.0163415
692.189	0.0163131
692.267	0.0164205
692.346	0.0163807
692.424	0.0163360
692.502	0.0164568
692.580	0.0163483
692.658	0.0163230
692.736	0.0162237
692.814	0.0164265
692.892	0.0163512
692.971	0.0164158
693.049	0.0163946
693.127	0.0163603
693.205	0.0164600
693.283	0.0163741
693.361	0.0164867
693.439	0.0165784
693.517	0.0164009
693.596	0.0162930
693.674	0.0164792
693.752	0.0164122
693.830	0.0164568
693.908	0.0163627
693.986	0.0166049
694.064	0.0164967
694.142	0.0163937
694.221	0.0165255
694.299	0.0163854
694.377	0.0164297
694.455	0.0163816
694.533	0.0163387
694.611	0.0164284
694.689	0.0162626
694.767	0.0162734
694.846	0.0164040
694.924	0.0165266
695.002	0.0164497
695.080	0.0163867
695.158	0.0163628
695.236	0.0165182
695.314	0.0165006
695.392	0.0163538
695.471	0.0165417
695.549	0.0164557
695.627	0.0165073
695.705	0.0165691
695.783	0.0164983
695.861	0.0163598
695.939	0.0165001
696.017	0.0165458
696.096	0.0163884
696.174	0.0163881
696.252	0.0164984
696.330	0.0164016
696.408	0.0163485
696.486	0.0163724
696.564	0.0163854
696.642	0.0162756
696.721	0.0163309
696.799	0.0164786
696.877	0.0163317
696.955	0.0163110
697.033	0.0162576
697.111	0.0162051
697.189	0.0163346
697.267	0.0162878
697.346	0.0162299
697.424	0.0161184
697.502	0.0162595
697.580	0.0164001
697.658	0.0163634
697.736	0.0162799
697.814	0.0163242
697.892	0.0164359
697.971	0.0164160
698.049	0.0163836
698.127	0.0164722
698.205	0.0164742
698.283	0.0165750
698.361	0.0163461
698.439	0.0163931
698.517	0.0165240
698.596	0.0165447
698.674	0.0165183
698.752	0.0165130
698.830	0.0164893
698.908	0.0164753
698.986	0.0163950
699.064	0.0164490
699.142	0.0165660
699.221	0.0163792
699.299	0.0162960
699.377	0.0163403
699.455	0.0164589
699.533	0.0163905
699.611	0.0162939
699.689	0.0163448
699.767	0.0164608
699.846	0.0164250
699.924	0.0164599
700.002	0.0162581
700.080	0.0162860
700.158	0.0164715
700.236	0.0164042
700.314	0.0163780
700.392	0.0163613
700.471	0.0164892
700.549	0.0165391
700.627	0.0164644
700.705	0.0163527
700.783	0.0163583
700.861	0.0164998
700.939	0.0163133
701.017	0.0162605
701.096	0.0163979
701.174	0.0162828
701.252	0.0163160
701.330	0.0163506
701.408	0.0163445
701.486	0.0162479
701.564	0.0163676
701.642	0.0162890
701.721	0.0164149
701.799	0.0163663
701.877	0.0163605
701.955	0.0163927
702.033	0.0164604
702.111	0.0165192
702.189	0.0165553
702.267	0.0163554
702.346	0.0164356
702.424	0.0164680
702.502	0.0163374
702.580	0.0164544
702.658	0.0165059
702.736	0.0167251
702.814	0.0165569
702.892	0.0164303
702.971	0.0165630
703.049	0.0164913
703.127	0.0165495
703.205	0.0165778
703.283	0.0166634
703.361	0.0165739
703.439	0.0164405
703.517	0.0165449
703.596	0.0166128
703.674	0.0165781
703.752	0.0164277
703.830	0.0163715
703.908	0.0165738
703.986	0.0164535
704.064	0.0164834
704.142	0.0163905
704.221	0.0164555
704.299	0.0163939
704.377	0.0163522
704.455	0.0164468
704.533	0.0164090
704.611	0.0164870
704.689	0.0162983
704.767	0.0162122
704.846	0.0163443
704.924	0.0164188
705.002	0.0164417
705.080	0.0164845
705.158	0.0163869
705.236	0.0163081
705.314	0.0162794
705.392	0.0162943
705.471	0.0163148
705.549	0.0162194
705.627	0.0161910
705.705	0.0161760
705.783	0.0162428
705.861	0.0161582
705.939	0.0161639
706.017	0.0162214
706.096	0.0161832
706.174	0.0161996
706.252	0.0162104
706.330	0.0162938
706.408	0.0162198
706.486	0.0162412
706.564	0.0161470
706.642	0.0162394
706.721	0.0163839
706.799	0.0163458
706.877	0.0163279
706.955	0.0163187
707.033	0.0163844
707.111	0.0163312
707.189	0.0161818
707.267	0.0162475
707.346	0.0164310
707.424	0.0163931
707.502	0.0163599
707.580	0.0163249
707.658	0.0163813
707.736	0.0162845
707.814	0.0163142
707.892	0.0163384
707.971	0.0162630
708.049	0.0162275
708.127	0.0163910
708.205	0.0162844
708.283	0.0163433
708.361	0.0163920
708.439	0.0163027
708.517	0.0164500
708.596	0.0164216
708.674	0.0163795
708.752	0.0164188
708.830	0.0163308
708.908	0.0163784
708.986	0.0165698
709.064	0.0165318
709.142	0.0164640
709.221	0.0166199
709.299	0.0167314
709.377	0.0166842
709.455	0.0165540
709.533	0.0166102
709.611	0.0166063
709.689	0.0167081
709.767	0.0166866
709.846	0.0165293
709.924	0.0165083
710.002	0.0167001
710.080	0.0166299
710.158	0.0166586
710.236	0.0166901
710.314	0.0167290
710.392	0.0166188
710.471	0.0166065
710.549	0.0168269
710.627	0.0167893
710.705	0.0167159
710.783	0.0167011
710.861	0.0169006
710.939	0.0166901
711.017	0.0167371
711.096	0.0166811
711.174	0.0166368
711.252	0.0166928
711.330	0.0165143
711.408	0.0165230
711.486	0.0162129
711.564	0.0162012
711.642	0.0160759
711.721	0.0162847
711.799	0.0161304
711.877	0.0159062
711.955	0.0159822
712.033	0.0159512
712.111	0.0158862
712.189	0.0158600
712.267	0.0160127
712.346	0.0159912
712.424	0.0161329
712.502	0.0159914
712.580	0.0162240
712.658	0.0162685
712.736	0.0162056
712.814	0.0163924
712.892	0.0165368
712.971	0.0165830
713.049	0.0164789
713.127	0.0164990
713.205	0.0166042
713.283	0.0165887
713.361	0.0166365
713.439	0.0164864
713.517	0.0166312
713.596	0.0166633
713.674	0.0167282
713.752	0.0167545
713.830	0.0164902
713.908	0.0166056
713.986	0.0166493
714.064	0.0166107
714.142	0.0165508
714.221	0.0164848
714.299	0.0165352
714.377	0.0164670
714.455	0.0165787
714.533	0.0165635
714.611	0.0164940
714.689	0.0163503
714.767	0.0165562
714.846	0.0164868
714.924	0.0165788
715.002	0.0164870
715.080	0.0166036
715.158	0.0165849
715.236	0.0166022
715.314	0.0167094
715.392	0.0167240
715.471	0.0167367
715.549	0.0167190
715.627	0.0168145
715.705	0.0166714
715.783	0.0168423
715.861	0.0168591
715.939	0.0169112
716.017	0.0168504
716.096	0.0168250
716.174	0.0168043
716.252	0.0168985
716.330	0.0168164
716.408	0.0167522
716.486	0.0168138
716.564	0.0167813
716.642	0.0164408
716.721	0.0165226
716.799	0.0164137
716.877	0.0164109
716.955	0.0164337
717.033	0.0162622
717.111	0.0162840
717.189	0.0163885
717.267	0.0163543
717.346	0.0161868
717.424	0.0161870
717.502	0.0160884
717.580	0.0162434
717.658	0.0162816
717.736	0.0160890
717.814	0.0161599
717.892	0.0162604
717.971	0.0162823
718.049	0.0162312
718.127	0.0163052
718.205	0.0162632
718.283	0.0162271
718.361	0.0162315
718.439	0.0162434
718.517	0.0162526
718.596	0.0163432
718.674	0.0163303
718.752	0.0163967
718.830	0.0164336
718.908	0.0164369
718.986	0.0163573
719.064	0.0165555
719.142	0.0166461
719.221	0.0165292
719.299	0.0167104
719.377	0.0167657
719.455	0.0165797
719.533	0.0167488
719.611	0.0165837
719.689	0.0166882
719.767	0.0167990
719.846	0.0167538
719.924	0.0167146
720.002	0.0167316
720.080	0.0166039
720.158	0.0167345
720.236	0.0167387
720.314	0.0165932
720.392	0.0166931
720.471	0.0166556
720.549	0.0166135
720.627	0.0165462
720.705	0.0165340
720.783	0.0163868
720.861	0.0163078
720.939	0.0165437
721.017	0.0166301
721.096	0.0164617
721.174	0.0165559
721.252	0.0165495
721.330	0.0164340
721.408	0.0164640
721.486	0.0164335
721.564	0.0164618
721.642	0.0165712
721.721	0.0164012
721.799	0.0164098
721.877	0.0164873
721.955	0.0165115
722.033	0.0165458
722.111	0.0164704
722.189	0.0165009
722.267	0.0164562
722.346	0.0163759
722.424	0.0163975
722.502	0.0163443
722.580	0.0162556
722.658	0.0162422
722.736	0.0161978
722.814	0.0161163
722.892	0.0160657
722.971	0.0159821
723.049	0.0161160
723.127	0.0161214
723.205	0.0160017
723.283	0.0159415
723.361	0.0159716
723.439	0.0160606
723.517	0.0160279
723.596	0.0160789
723.674	0.0161811
723.752	0.0163509
723.830	0.0163015
723.908	0.0163296
723.986	0.0165372
724.064	0.0166151
724.142	0.0165223
724.221	0.0166358
724.299	0.0167200
724.377	0.0166142
724.455	0.0167294
724.533	0.0166911
724.611	0.0166830
724.689	0.0166602
724.767	0.0167307
724.846	0.0166795
724.924	0.0166769
725.002	0.0165210
725.080	0.0164576
725.158	0.0166029
725.236	0.0164323
725.314	0.0164348
725.392	0.0164523
725.471	0.0164284
725.549	0.0164644
725.627	0.0162566
725.705	0.0163741
725.783	0.0163772
725.861	0.0164110
725.939	0.0163939
726.017	0.0163127
726.096	0.0163347
726.174	0.0163402
726.252	0.0163654
726.330	0.0163885
726.408	0.0164701
726.486	0.0165652
726.564	0.0164572
726.642	0.0164535
726.721	0.0164137
726.799	0.0165024
726.877	0.0164783
726.955	0.0164611
727.033	0.0164130
727.111	0.0163585
727.189	0.0164742
727.267	0.0164841
727.346	0.0162946
727.424	0.0164094
727.502	0.0162624
727.580	0.0164388
727.658	0.0164508
727.736	0.0163719
727.814	0.0163653
727.892	0.0165439
727.971	0.0165403
728.049	0.0166142
728.127	0.0165061
728.205	0.0165298
728.283	0.0165408
728.361	0.0165408
728.439	0.0166107
728.517	0.0166690
728.596	0.0166585
728.674	0.0167142
728.752	0.0166174
728.830	0.0165726
728.908	0.0166537
728.986	0.0165770
729.064	0.0165531
729.142	0.0165916
729.221	0.0165611
729.299	0.0164913
729.377	0.0166298
729.455	0.0165144
729.533	0.0164300
729.611	0.0165067
729.689	0.0164906
729.767	0.0164370
729.846	0.0164285
729.924	0.0164330
730.002	0.0164922
730.080	0.0164700
730.158	0.0163513
730.236	0.0164180
730.314	0.0163740
730.392	0.0164555
730.471	0.0164719
730.549	0.0164742
730.627	0.0165386
730.705	0.0164034
730.783	0.0163487
730.861	0.0166374
730.939	0.0164488
731.017	0.0165768
731.096	0.0164887
731.174	0.0165068
731.252	0.0165897
731.330	0.0165556
731.408	0.0166352
731.486	0.0166686
731.564	0.0167947
731.642	0.0167622
731.721	0.0167044
731.799	0.0167532
731.877	0.0167969
731.955	0.0167361
732.033	0.0166758
732.111	0.0167683
732.189	0.0167049
732.267	0.0168826
732.346	0.0166749
732.424	0.0166595
732.502	0.0166468
732.580	0.0166592
732.658	0.0166418
732.736	0.0165155
732.814	0.0165788
732.892	0.0165735
732.971	0.0163841
733.049	0.0163825
733.127	0.0165375
733.205	0.0164194
733.283	0.0163293
733.361	0.0162936
733.439	0.0163452
733.517	0.0164179
733.596	0.0163837
733.674	0.0164345
733.752	0.0163274
733.830	0.0163824
733.908	0.0163196
733.986	0.0164713
734.064	0.0163769
734.142	0.0164146
734.221	0.0165759
734.299	0.0164806
734.377	0.0166519
734.455	0.0165669
734.533	0.0165067
734.611	0.0165083
734.689	0.0166442
734.767	0.0166986
734.846	0.0166632
734.924	0.0166650
735.002	0.0165629
735.080	0.0166728
735.158	0.0166220
735.236	0.0166058
735.314	0.0167395
735.392	0.0167794
735.471	0.0169482
735.549	0.0167278
735.627	0.0168481
735.705	0.0169086
735.783	0.0167719
735.861	0.0170093
735.939	0.0170341
736.017	0.0169473
736.096	0.0169434
736.174	0.0168742
736.252	0.0168864
736.330	0.0168254
736.408	0.0169262
736.486	0.0166435
736.564	0.0165247
736.642	0.0165215
736.721	0.0163839
736.799	0.0163337
736.877	0.0162049
736.955	0.0159790
737.033	0.0158958
737.111	0.0159386
737.189	0.0158833
737.267	0.0158779
737.346	0.0160377
737.424	0.0160381
737.502	0.0158024
737.580	0.0158667
737.658	0.0160993
737.736	0.0161398
737.814	0.0161522
737.892	0.0162092
737.971	0.0162878
738.049	0.0163303
738.127	0.0164419
738.205	0.0163938
738.283	0.0167263
738.361	0.0166886
738.439	0.0167134
738.517	0.0167077
738.596	0.0169844
738.674	0.0168808
738.752	0.0169167
738.830	0.0170041
738.908	0.0168706
738.986	0.0169798
739.064	0.0170041
739.142	0.0169083
739.221	0.0169276
739.299	0.0168921
739.377	0.0169137
739.455	0.0168545
739.533	0.0170214
739.611	0.0169165
739.689	0.0169157
739.767	0.0167966
739.846	0.0165982
739.924	0.0166751
740.002	0.0166254
740.080	0.0166724
740.158	0.0165213
740.236	0.0165557
740.314	0.0164412
740.392	0.0164152
740.471	0.0165253
740.549	0.0163558
740.627	0.0164536
740.705	0.0163046
740.783	0.0163551
740.861	0.0163341
740.939	0.0163999
741.017	0.0163435
741.096	0.0162394
741.174	0.0161645
741.252	0.0162018
741.330	0.0162814
741.408	0.0162276
741.486	0.0163804
741.564	0.0164079
741.642	0.0164279
741.721	0.0163546
741.799	0.0164632
741.877	0.0164530
741.955	0.0165051
742.033	0.0165160
742.111	0.0167030
742.189	0.0167677
742.267	0.0165365
742.346	0.0166808
742.424	0.0166304
742.502	0.0167104
742.580	0.0168744
742.658	0.0166091
742.736	0.0166321
742.814	0.0167717
742.892	0.0167323
742.971	0.0165897
743.049	0.0164827
743.127	0.0165250
743.205	0.0164422
743.283	0.0164587
743.361	0.0164189
743.439	0.0163466
743.517	0.0161845
743.596	0.0162437
743.674	0.0164009
743.752	0.0162424
743.830	0.0162630
743.908	0.0162365
743.986	0.0162784
744.064	0.0162984
744.142	0.0164088
744.221	0.0163489
744.299	0.0163336
744.377	0.0163402
744.455	0.0164040
744.533	0.0163446
744.611	0.0163235
744.689	0.0162777
744.767	0.0163193
744.846	0.0163203
744.924	0.0164060
745.002	0.0163780
745.080	0.0164281
745.158	0.0161372
745.236	0.0163072
745.314	0.0163370
745.392	0.0162494
745.471	0.0162456
745.549	0.0162969
745.627	0.0163683
745.705	0.0163885
745.783	0.0163417
745.861	0.0163055
745.939	0.0165487
746.017	0.0165705
746.096	0.0164457
746.174	0.0167763
746.252	0.0166902
746.330	0.0167159
746.408	0.0165660
746.486	0.0168409
746.564	0.0166144
746.642	0.0166025
746.721	0.0166431
746.799	0.0165413
746.877	0.0165323
746.955	0.0164413
747.033	0.0164649
747.111	0.0164079
747.189	0.0164779
747.267	0.0162476
747.346	0.0161372
747.424	0.0162109
747.502	0.0161069
747.580	0.0161861
747.658	0.0161024
747.736	0.0161771
747.814	0.0160097
747.892	0.0160337
747.971	0.0160220
748.049	0.0160296
748.127	0.0161346
748.205	0.0161003
748.283	0.0160673
748.361	0.0160625
748.439	0.0162032
748.517	0.0162083
748.596	0.0162603
748.674	0.0163757
748.752	0.0163354
748.830	0.0164360
748.908	0.0164827
748.986	0.0165599
749.064	0.0164547
749.142	0.0166685
749.221	0.0166036
749.299	0.0165372
749.377	0.0165760
749.455	0.0167379
749.533	0.0167209
749.611	0.0166637
749.689	0.0166761
749.767	0.0166357
749.846	0.0166055
749.924	0.0166425
750.002	0.0167462
750.080	0.0167352
750.158	0.0165979
750.236	0.0165212
750.314	0.0165321
750.392	0.0166856
750.471	0.0166758
750.549	0.0164190
750.627	0.0164956
750.705	0.0165337
750.783	0.0163920
750.861	0.0164442
750.939	0.0164907
751.017	0.0165421
751.096	0.0165353
751.174	0.0164806
751.252	0.0165734
751.330	0.0165116
751.408	0.0165135
751.486	0.0166283
751.564	0.0164231
751.642	0.0164130
751.721	0.0165309
751.799	0.0166133
751.877	0.0164635
751.955	0.0164377
752.033	0.0164699
752.111	0.0164172
752.189	0.0163703
752.267	0.0164728
752.346	0.0163151
752.424	0.0161824
752.502	0.0162336
752.580	0.0162846
752.658	0.0162338
752.736	0.0161433
752.814	0.0161036
752.892	0.0162031
752.971	0.0162225
753.049	0.0162620
753.127	0.0163937
753.205	0.0163763
753.283	0.0163718
753.361	0.0164574
753.439	0.0165998
753.517	0.0165878
753.596	0.0167201
753.674	0.0167982
753.752	0.0169699
753.830	0.0169818
753.908	0.0168762
753.986	0.0169192
754.064	0.0169823
754.142	0.0168942
754.221	0.0171030
754.299	0.0169218
754.377	0.0167708
754.455	0.0170407
754.533	0.0169604
754.611	0.0167294
754.689	0.0168611
754.767	0.0167026
754.846	0.0165738
754.924	0.0166171
755.002	0.0165585
755.080	0.0165122
755.158	0.0165528
755.236	0.0165067
755.314	0.0165913
755.392	0.0165606
755.471	0.0163886
755.549	0.0164049
755.627	0.0164413
755.705	0.0163453
755.783	0.0163434
755.861	0.0164822
755.939	0.0164972
756.017	0.0163505
756.096	0.0162210
756.174	0.0163358
756.252	0.0164419
756.330	0.0163251
756.408	0.0164011
756.486	0.0163829
756.564	0.0163979
756.642	0.0164875
756.721	0.0164313
756.799	0.0165380
756.877	0.0165353
756.955	0.0163896
757.033	0.0164639
757.111	0.0164290
757.189	0.0165420
757.267	0.0166371
757.346	0.0165620
757.424	0.0163057
757.502	0.0165182
757.580	0.0165173
757.658	0.0164911
757.736	0.0164704
757.814	0.0164378
757.892	0.0164835
757.971	0.0165569
758.049	0.0163495
758.127	0.0163960
758.205	0.0165036
758.283	0.0163809
758.361	0.0163490
758.439	0.0164605
758.517	0.0163628
758.596	0.0164293
758.674	0.0166149
758.752	0.0165137
758.830	0.0165420
758.908	0.0165579
758.986	0.0165469
759.064	0.0165713
759.142	0.0165176
759.221	0.0165146
759.299	0.0165739
759.377	0.0165498
759.455	0.0167056
759.533	0.0165942
759.611	0.0163350
759.689	0.0164235
759.767	0.0164514
759.846	0.0165031
759.924	0.0163287
760.002	0.0163892
760.080	0.0164048
760.158	0.0162651
760.236	0.0162672
760.314	0.0163509
760.392	0.0162623
760.471	0.0163004
760.549	0.0162611
760.627	0.0162443
760.705	0.0163799
760.783	0.0162766
760.861	0.0163651
760.939	0.0165754
761.017	0.0164103
761.096	0.0163326
761.174	0.0164193
761.252	0.0163819
761.330	0.0164468
761.408	0.0165269
761.486	0.0164992
761.564	0.0165554
761.642	0.0166039
761.721	0.0165453
761.799	0.0165985
761.877	0.0165842
761.955	0.0167071
762.033	0.0167439
762.111	0.0167390
762.189	0.0165593
762.267	0.0166805
762.346	0.0167172
762.424	0.0168196
762.502	0.0167573
762.580	0.0167562
762.658	0.0166090
762.736	0.0166656
762.814	0.0167312
762.892	0.0164626
762.971	0.0165600
763.049	0.0165942
763.127	0.0164974
763.205	0.0165852
763.283	0.0165530
763.361	0.0164287
763.439	0.0164032
763.517	0.0163680
763.596	0.0163065
763.674	0.0164204
763.752	0.0162411
763.830	0.0163248
763.908	0.0163461
763.986	0.0161547
764.064	0.0162293
764.142	0.0161648
764.221	0.0162908
764.299	0.0160187
764.377	0.0162448
764.455	0.0164190
764.533	0.0163801
764.611	0.0162590
764.689	0.0162357
764.767	0.0163490
764.846	0.0163567
764.924	0.0163120
765.002	0.0163818
765.080	0.0162860
765.158	0.0164957
765.236	0.0163761
765.314	0.0162925
765.392	0.0165434
765.471	0.0166212
765.549	0.0165585
765.627	0.0164866
765.705	0.0165124
765.783	0.0165301
765.861	0.0165173
765.939	0.0164268
766.017	0.0165559
766.096	0.0165648
766.174	0.0165614
766.252	0.0164997
766.330	0.0164978
766.408	0.0165675
766.486	0.0163818
766.564	0.0164909
766.642	0.0162568
766.721	0.0162446
766.799	0.0163411
766.877	0.0162614
766.955	0.0163367
767.033	0.0162062
767.111	0.0161384
767.189	0.0162663
767.267	0.0162586
767.346	0.0162057
767.424	0.0162815
767.502	0.0162952
767.580	0.0163790
767.658	0.0162883
767.736	0.0161781
767.814	0.0163083
767.892	0.0162978
767.971	0.0162124
768.049	0.0163801
768.127	0.0164985
768.205	0.0165236
768.283	0.0163044
768.361	0.0163365
768.439	0.0163875
768.517	0.0163992
768.596	0.0163617
768.674	0.0164027
768.752	0.0163969
768.830	0.0163611
768.908	0.0162782
768.986	0.0162044
769.064	0.0163621
769.142	0.0162839
769.221	0.0163375
769.299	0.0163824
769.377	0.0162932
769.455	0.0163895
769.533	0.0163046
769.611	0.0163707
769.689	0.0164077
769.767	0.0162654
769.846	0.0164739
769.924	0.0163626
770.002	0.0164119
770.080	0.0164169
770.158	0.0164899
770.236	0.0164847
770.314	0.0165632
770.392	0.0164890
770.471	0.0162789
770.549	0.0165458
770.627	0.0164989
770.705	0.0164322
770.783	0.0164893
770.861	0.0163670
770.939	0.0164572
771.017	0.0165037
771.096	0.0165011
771.174	0.0164316
771.252	0.0163049
771.330	0.0163931
771.408	0.0163813
771.486	0.0163303
771.564	0.0163667
771.642	0.0164253
771.721	0.0163631
771.799	0.0164433
771.877	0.0162680
771.955	0.0163443
772.033	0.0162857
772.111	0.0162412
772.189	0.0162529
772.267	0.0162711
772.346	0.0162415
772.424	0.0162800
772.502	0.0162505
772.580	0.0162304
772.658	0.0161589
772.736	0.0161706
772.814	0.0162097
772.892	0.0162804
772.971	0.0160594
773.049	0.0160542
773.127	0.0163210
773.205	0.0161293
773.283	0.0162463
773.361	0.0163874
773.439	0.0161890
773.517	0.0161658
773.596	0.0161098
773.674	0.0163542
773.752	0.0163229
773.830	0.0163309
773.908	0.0163142
773.986	0.0164688
774.064	0.0165241
774.142	0.0165123
774.221	0.0165323
774.299	0.0165343
774.377	0.0165192
774.455	0.0165335
774.533	0.0165341
774.611	0.0165241
774.689	0.0164167
774.767	0.0164857
774.846	0.0166010
774.924	0.0165501
775.002	0.0165009
775.080	0.0164301
775.158	0.0163094
775.236	0.0164723
775.314	0.0163680
775.392	0.0163276
775.471	0.0164568
775.549	0.0163763
775.627	0.0163586
775.705	0.0162324
775.783	0.0161961
775.861	0.0163985
775.939	0.0163698
776.017	0.0163206
776.096	0.0163634
776.174	0.0163121
776.252	0.0163308
776.330	0.0164634
776.408	0.0164613
776.486	0.0165118
776.564	0.0163139
776.642	0.0164058
776.721	0.0163494
776.799	0.0165188
776.877	0.0163438
776.955	0.0163630
777.033	0.0164909
777.111	0.0165501
777.189	0.0164098
777.267	0.0164823
777.346	0.0164195
777.424	0.0165472
777.502	0.0164274
777.580	0.0164721
777.658	0.0163293
777.736	0.0164593
777.814	0.0165591
777.892	0.0164374
777.971	0.0163432
778.049	0.0163644
778.127	0.0163965
778.205	0.0165733
778.283	0.0164872
778.361	0.0163625
778.439	0.0165090
778.517	0.0164259
778.596	0.0163239
778.674	0.0164063
778.752	0.0164879
778.830	0.0164460
778.908	0.0164834
778.986	0.0164861
779.064	0.0165452
779.142	0.0164344
779.221	0.0164428
779.299	0.0165633
779.377	0.0165604
779.455	0.0165124
779.533	0.0165547
779.611	0.0166443
779.689	0.0163377
779.767	0.0164181
779.846	0.0163882
779.924	0.0162417
780.002	0.0165033
780.080	0.0165585
780.158	0.0164114
780.236	0.0164989
780.314	0.0164223
780.392	0.0164318
780.471	0.0162693
780.549	0.0162717
780.627	0.0162060
780.705	0.0163055
780.783	0.0162896
780.861	0.0161831
780.939	0.0162918
781.017	0.0162761
781.096	0.0162672
781.174	0.0162363
781.252	0.0162138
781.330	0.0162743
781.408	0.0163471
781.486	0.0164291
781.564	0.0164114
781.642	0.0164155
781.721	0.0163769
781.799	0.0163262
781.877	0.0163693
781.955	0.0165728
782.033	0.0165119
782.111	0.0164349
782.189	0.0164886
782.267	0.0164588
782.346	0.0164624
782.424	0.0166187
782.502	0.0165316
782.580	0.0165721
782.658	0.0164741
782.736	0.0164767
782.814	0.0165017
782.892	0.0165605
782.971	0.0164794
783.049	0.0164221
783.127	0.0164988
783.205	0.0164803
783.283	0.0164214
783.361	0.0163670
783.439	0.0163270
783.517	0.0161791
783.596	0.0164290
783.674	0.0164292
783.752	0.0162076
783.830	0.0163261
783.908	0.0162821
783.986	0.0162854
784.064	0.0162964
784.142	0.0161686
784.221	0.0163453
784.299	0.0164027
784.377	0.0163036
784.455	0.0162868
784.533	0.0163809
784.611	0.0163666
784.689	0.0165790
784.767	0.0164454
784.846	0.0164548
784.924	0.0165379
785.002	0.0165508
785.080	0.0164747
785.158	0.0165539
785.236	0.0164371
785.314	0.0165025
785.392	0.0163681
785.471	0.0165405
785.549	0.0164721
785.627	0.0162760
785.705	0.0163068
785.783	0.0162890
785.861	0.0163753
785.939	0.0163405
786.017	0.0163144
786.096	0.0162592
786.174	0.0163174
786.252	0.0163113
786.330	0.0163534
786.408	0.0163224
786.486	0.0163771
786.564	0.0165479
786.642	0.0163747
786.721	0.0163377
786.799	0.0163298
786.877	0.0163033
786.955	0.0165006
787.033	0.0164016
787.111	0.0164763
787.189	0.0165084
787.267	0.0162827
787.346	0.0163860
787.424	0.0164503
787.502	0.0163850
787.580	0.0164449
787.658	0.0165180
787.736	0.0164893
787.814	0.0165544
787.892	0.0165522
787.971	0.0165219
788.049	0.0165494
788.127	0.0165164
788.205	0.0164747
788.283	0.0164533
788.361	0.0164553
788.439	0.0164908
788.517	0.0164468
788.596	0.0162399
788.674	0.0163139
788.752	0.0163712
788.830	0.0163740
788.908	0.0163359
788.986	0.0162972
789.064	0.0161008
789.142	0.0162495
789.221	0.0162417
789.299	0.0162459
789.377	0.0162578
789.455	0.0162753
789.533	0.0162888
789.611	0.0163031
789.689	0.0163534
789.767	0.0163998
789.846	0.0164468
789.924	0.0166364
790.002	0.0165822
790.080	0.0165056
790.158	0.0166406
790.236	0.0165301
790.314	0.0164164
790.392	0.0164892
790.471	0.0164433
790.549	0.0163318
790.627	0.0164050
790.705	0.0164921
790.783	0.0164456
790.861	0.0164249
790.939	0.0162768
791.017	0.0163872
791.096	0.0163475
791.174	0.0164669
791.252	0.0163210
791.330	0.0163439
791.408	0.0162161
791.486	0.0163448
791.564	0.0163427
791.642	0.0162601
791.721	0.0161710
791.799	0.0162473
791.877	0.0163372
791.955	0.0163764
792.033	0.0162891
792.111	0.0163282
792.189	0.0162499
792.267	0.0164053
792.346	0.0164238
792.424	0.0164639
792.502	0.0163544
792.580	0.0163271
792.658	0.0165213
792.736	0.0165871
792.814	0.0164845
792.892	0.0164367
792.971	0.0163967
793.049	0.0163902
793.127	0.0164109
793.205	0.0163882
793.283	0.0164187
793.361	0.0164669
793.439	0.0162748
793.517	0.0163087
793.596	0.0162520
793.674	0.0162217
793.752	0.0161806
793.830	0.0162005
793.908	0.0162247
793.986	0.0162283
794.064	0.0162244
794.142	0.0162615
794.221	0.0163448
794.299	0.0163343
794.377	0.0163520
794.455	0.0163160
794.533	0.0163335
794.611	0.0163358
794.689	0.0163987
794.767	0.0165442
794.846	0.0164595
794.924	0.0165172
795.002	0.0164578
795.080	0.0166083
795.158	0.0165897
795.236	0.0164433
795.314	0.0166515
795.392	0.0164674
795.471	0.0164692
795.549	0.0165414
795.627	0.0163665
795.705	0.0165460
795.783	0.0164973
795.861	0.0163791
795.939	0.0163691
796.017	0.0164652
796.096	0.0164852
796.174	0.0164487
796.252	0.0163688
796.330	0.0163216
796.408	0.0164648
796.486	0.0163981
796.564	0.0161642
796.642	0.0163375
796.721	0.0162661
796.799	0.0164815
796.877	0.0165127
796.955	0.0163510
797.033	0.0163457
797.111	0.0162667
797.189	0.0162691
797.267	0.0163958
797.346	0.0163564
797.424	0.0163873
797.502	0.0164587
797.580	0.0164121
797.658	0.0163682
797.736	0.0162835
797.814	0.0164081
797.892	0.0164140
797.971	0.0164651
798.049	0.0164803
798.127	0.0165546
798.205	0.0165475
798.283	0.0164490
798.361	0.0164694
798.439	0.0164508
798.517	0.0163807
798.596	0.0165144
798.674	0.0164568
798.752	0.0165006
798.830	0.0163871
798.908	0.0164299
798.986	0.0164469
799.064	0.0165454
799.142	0.0163712
799.221	0.0164283
799.299	0.0164993
799.377	0.0164642
799.455	0.0164021
799.533	0.0164132
799.611	0.0164069
799.689	0.0164107
799.767	0.0164045
799.846	0.0164759
799.924	0.0163408
800.002	0.0165036
800.080	0.0163300
800.158	0.0164044
800.236	0.0164327
800.314	0.0163826
800.392	0.0164973
800.471	0.0163477
800.549	0.0163667
800.627	0.0164579
800.705	0.0163775
800.783	0.0163781
800.861	0.0164245
800.939	0.0163099
801.017	0.0163309
801.096	0.0164503
801.174	0.0164463
801.252	0.0163619
801.330	0.0164541
801.408	0.0163711
801.486	0.0165401
801.564	0.0164756
801.642	0.0163883
801.721	0.0164825
801.799	0.0163193
801.877	0.0163289
801.955	0.0163080
802.033	0.0163843
802.111	0.0163354
802.189	0.0163205
802.267	0.0163574
802.346	0.0164272
802.424	0.0164713
802.502	0.0164390
802.580	0.0163432
802.658	0.0164565
802.736	0.0161916
802.814	0.0162874
802.892	0.0165018
802.971	0.0163151
803.049	0.0164307
803.127	0.0164159
803.205	0.0164221
803.283	0.0162689
803.361	0.0164021
803.439	0.0163528
803.517	0.0163881
803.596	0.0163439
803.674	0.0162095
803.752	0.0164321
803.830	0.0163309
803.908	0.0162670
803.986	0.0162354
804.064	0.0162535
804.142	0.0163714
804.221	0.0163931
804.299	0.0162756
804.377	0.0165187
804.455	0.0163560
804.533	0.0163729
804.611	0.0164355
804.689	0.0164935
804.767	0.0164123
804.846	0.0165113
804.924	0.0164747
805.002	0.0165749
805.080	0.0164415
805.158	0.0164252
805.236	0.0164797
805.314	0.0162987
805.392	0.0165342
805.471	0.0164580
805.549	0.0164222
805.627	0.0164235
805.705	0.0164306
805.783	0.0163966
805.861	0.0162821
805.939	0.0162881
806.017	0.0164560
806.096	0.0165242
806.174	0.0166432
806.252	0.0165257
806.330	0.0166353
806.408	0.0166407
806.486	0.0166556
806.564	0.0167004
806.642	0.0167308
806.721	0.0167433
806.799	0.0168203
806.877	0.0168342
806.955	0.0167308
807.033	0.0167757
807.111	0.0166238
807.189	0.0166152
807.267	0.0166122
807.346	0.0166768
807.424	0.0165678
807.502	0.0166093
807.580	0.0164816
807.658	0.0164542
807.736	0.0163869
807.814	0.0164603
807.892	0.0163441
807.971	0.0164446
808.049	0.0162880
808.127	0.0162952
808.205	0.0163737
808.283	0.0162663
808.361	0.0163231
808.439	0.0162769
808.517	0.0161863
808.596	0.0162852
808.674	0.0164691
808.752	0.0164071
808.830	0.0163736
808.908	0.0164561
808.986	0.0164943
809.064	0.0164539
809.142	0.0166937
809.221	0.0164856
809.299	0.0165040
809.377	0.0163863
809.455	0.0164979
809.533	0.0165439
809.611	0.0165759
809.689	0.0166258
809.767	0.0165764
809.846	0.0164828
809.924	0.0166531
810.002	0.0165600
810.080	0.0164136
810.158	0.0164935
810.236	0.0164075
810.314	0.0163817
810.392	0.0165459
810.471	0.0164542
810.549	0.0162717
810.627	0.0164459
810.705	0.0162782
810.783	0.0164061
810.861	0.0164183
810.939	0.0164162
811.017	0.0163981
811.096	0.0163572
811.174	0.0164947
811.252	0.0164452
811.330	0.0164319
811.408	0.0163847
811.486	0.0166230
811.564	0.0165663
811.642	0.0164547
811.721	0.0164152
811.799	0.0165572
811.877	0.0165149
811.955	0.0165119
812.033	0.0165820
812.111	0.0165734
812.189	0.0166008
812.267	0.0165000
812.346	0.0164056
812.424	0.0163784
812.502	0.0165357
812.580	0.0164509
812.658	0.0163440
812.736	0.0164951
812.814	0.0163893
812.892	0.0162790
812.971	0.0164470
813.049	0.0165667
813.127	0.0164201
813.205	0.0164175
813.283	0.0163820
813.361	0.0163555
813.439	0.0164069
813.517	0.0164304
813.596	0.0165327
813.674	0.0163595
813.752	0.0163364
813.830	0.0164392
813.908	0.0163297
813.986	0.0165017
814.064	0.0163675
814.142	0.0163962
814.221	0.0164912
814.299	0.0164192
814.377	0.0163692
814.455	0.0164019
814.533	0.0164513
814.611	0.0164976
814.689	0.0165303
814.767	0.0166296
814.846	0.0165226
814.924	0.0164439
815.002	0.0164883
815.080	0.0166383
815.158	0.0165069
815.236	0.0166669
815.314	0.0165159
815.392	0.0166246
815.471	0.0165249
815.549	0.0164827
815.627	0.0165956
815.705	0.0164729
815.783	0.0165774
815.861	0.0164330
815.939	0.0165417
816.017	0.0163754
816.096	0.0163425
816.174	0.0162415
816.252	0.0161769
816.330	0.0161352
816.408	0.0164031
816.486	0.0164350
816.564	0.0164027
816.642	0.0165150
816.721	0.0164449
816.799	0.0165078
816.877	0.0163555
816.955	0.0163991
817.033	0.0164190
817.111	0.0165956
817.189	0.0165836
817.267	0.0164906
817.346	0.0164887
817.424	0.0166181
817.502	0.0166502
817.580	0.0166862
817.658	0.0167127
817.736	0.0166923
817.814	0.0168042
817.892	0.0168821
817.971	0.0166613
818.049	0.0167287
818.127	0.0166046
818.205	0.0165277
818.283	0.0165116
818.361	0.0163616
818.439	0.0164163
818.517	0.0164424
818.596	0.0163803
818.674	0.0164964
818.752	0.0164503
818.830	0.0163609
818.908	0.0163927
818.986	0.0161426
819.064	0.0162840
819.142	0.0163110
819.221	0.0164036
819.299	0.0162553
819.377	0.0162081
819.455	0.0163750
819.533	0.0163596
819.611	0.0163811
819.689	0.0162702
819.767	0.0163546
819.846	0.0164301
819.924	0.0164907
820.002	0.0164942
820.080	0.0165862
820.158	0.0164774
820.236	0.0166130
820.314	0.0166243
820.392	0.0166277
820.471	0.0165678
820.549	0.0164761
820.627	0.0164849
820.705	0.0166628
820.783	0.0167387
820.861	0.0164040
820.939	0.0165057
821.017	0.0165982
821.096	0.0164654
821.174	0.0165776
821.252	0.0163651
821.330	0.0164595
821.408	0.0164798
821.486	0.0163397
821.564	0.0164140
821.642	0.0162864
821.721	0.0164619
821.799	0.0164928
821.877	0.0162787
821.955	0.0163185
822.033	0.0166064
822.111	0.0164668
822.189	0.0163417
822.267	0.0163681
822.346	0.0164613
822.424	0.0166354
822.502	0.0164297
822.580	0.0164799
822.658	0.0163696
822.736	0.0164999
822.814	0.0166015
822.892	0.0166034
822.971	0.0165963
823.049	0.0166426
823.127	0.0165861
823.205	0.0166280
823.283	0.0164964
823.361	0.0165844
823.439	0.0165060
823.517	0.0164458
823.596	0.0163845
823.674	0.0163433
823.752	0.0163885
823.830	0.0164108
823.908	0.0163890
823.986	0.0163900
824.064	0.0162669
824.142	0.0162555
824.221	0.0163189
824.299	0.0163677
824.377	0.0163306
824.455	0.0162120
824.533	0.0163186
824.611	0.0163548
824.689	0.0162402
824.767	0.0162459
824.846	0.0163665
824.924	0.0163766
825.002	0.0164227
825.080	0.0163877
825.158	0.0163972
825.236	0.0163397
825.314	0.0165092
825.392	0.0164796
825.471	0.0164830
825.549	0.0164132
825.627	0.0164005
825.705	0.0164278
825.783	0.0164284
825.861	0.0164433
825.939	0.0163686
826.017	0.0163322
826.096	0.0163458
826.174	0.0164527
826.252	0.0163976
826.330	0.0163423
826.408	0.0164037
826.486	0.0164275
826.564	0.0163280
826.642	0.0162119
826.721	0.0162474
826.799	0.0163068
826.877	0.0162115
826.955	0.0162520
827.033	0.0162701
827.111	0.0162952
827.189	0.0164004
827.267	0.0163206
827.346	0.0164021
827.424	0.0163515
827.502	0.0164655
827.580	0.0164454
827.658	0.0165483
827.736	0.0163950
827.814	0.0166436
827.892	0.0165322
827.971	0.0165962
828.049	0.0166238
828.127	0.0165627
828.205	0.0166799
828.283	0.0166632
828.361	0.0165132
828.439	0.0165735
828.517	0.0166452
828.596	0.0165620
828.674	0.0165935
828.752	0.0165810
828.830	0.0163992
828.908	0.0165383
828.986	0.0163815
829.064	0.0164848
829.142	0.0164529
829.221	0.0163699
829.299	0.0163750
829.377	0.0164128
829.455	0.0163554
829.533	0.0164541
829.611	0.0163931
829.689	0.0163993
829.767	0.0163651
829.846	0.0164764
829.924	0.0163703
830.002	0.0164122
830.080	0.0166000
830.158	0.0165059
830.236	0.0165971
830.314	0.0165928
830.392	0.0167413
830.471	0.0165227
830.549	0.0166112
830.627	0.0167564
830.705	0.0167551
830.783	0.0168464
830.861	0.0167014
830.939	0.0167027
831.017	0.0166096
831.096	0.0165991
831.174	0.0166343
831.252	0.0166044
831.330	0.0165627
831.408	0.0164478
831.486	0.0164792
831.564	0.0164891
831.642	0.0165700
831.721	0.0166177
831.799	0.0165233
831.877	0.0165947
831.955	0.0164617
832.033	0.0163380
832.111	0.0163059
832.189	0.0165340
832.267	0.0166131
832.346	0.0165208
832.424	0.0163958
832.502	0.0164999
832.580	0.0165341
832.658	0.0165864
832.736	0.0166599
832.814	0.0165332
832.892	0.0166045
832.971	0.0166199
833.049	0.0166859
833.127	0.0165025
833.205	0.0164796
833.283	0.0164210
833.361	0.0165044
833.439	0.0164873
833.517	0.0164722
833.596	0.0165233
833.674	0.0163889
833.752	0.0163116
833.830	0.0163675
833.908	0.0164304
833.986	0.0162827
834.064	0.0161348
834.142	0.0162193
834.221	0.0162668
834.299	0.0163235
834.377	0.0162360
834.455	0.0161495
834.533	0.0160896
834.611	0.0161996
834.689	0.0163158
834.767	0.0163155
834.846	0.0163021
834.924	0.0162903
835.002	0.0163084
835.080	0.0162872
835.158	0.0164367
835.236	0.0164043
835.314	0.0164293
835.392	0.0163620
835.471	0.0163984
835.549	0.0165382
835.627	0.0163814
835.705	0.0164819
835.783	0.0165008
835.861	0.0165561
835.939	0.0165427
836.017	0.0166814
836.096	0.0165504
836.174	0.0164343
836.252	0.0165319
836.330	0.0165252
836.408	0.0164587
836.486	0.0164641
836.564	0.0164607
836.642	0.0164960
836.721	0.0162676
836.799	0.0163612
836.877	0.0163426
836.955	0.0164558
837.033	0.0162490
837.111	0.0163174
837.189	0.0162785
837.267	0.0163863
837.346	0.0162447
837.424	0.0162647
837.502	0.0165044
837.580	0.0162735
837.658	0.0162370
837.736	0.0164172
837.814	0.0163754
837.892	0.0163972
837.971	0.0164169
838.049	0.0165524
838.127	0.0164495
838.205	0.0167308
838.283	0.0167454
838.361	0.0166483
838.439	0.0166674
838.517	0.0165246
838.596	0.0165721
838.674	0.0166460
838.752	0.0166097
838.830	0.0165707
838.908	0.0165889
838.986	0.0166608
839.064	0.0163727
839.142	0.0164742
839.221	0.0162707
839.299	0.0162605
839.377	0.0164265
839.455	0.0162723
839.533	0.0164420
839.611	0.0162611
839.689	0.0162334
839.767	0.0163426
839.846	0.0163628
839.924	0.0161973
840.002	0.0162152
840.080	0.0164391
840.158	0.0164067
840.236	0.0164761
840.314	0.0164113
840.392	0.0164040
840.471	0.0164227
840.549	0.0165085
840.627	0.0163881
840.705	0.0165604
840.783	0.0163318
840.861	0.0163400
840.939	0.0165504
841.017	0.0165030
841.096	0.0165407
841.174	0.0165516
841.252	0.0164659
841.330	0.0164057
841.408	0.0164621
841.486	0.0164955
841.564	0.0163379
841.642	0.0163271
841.721	0.0163537
841.799	0.0163696
841.877	0.0163174
841.955	0.0162574
842.033	0.0163288
842.111	0.0165377
842.189	0.0163558
842.267	0.0163712
842.346	0.0164814
842.424	0.0164194
842.502	0.0163306
842.580	0.0164503
842.658	0.0164914
842.736	0.0163993
842.814	0.0164739
842.892	0.0163316
842.971	0.0163329
843.049	0.0163783
843.127	0.0163033
843.205	0.0163802
843.283	0.0163655
843.361	0.0163393
843.439	0.0163396
843.517	0.0164372
843.596	0.0163851
843.674	0.0164559
843.752	0.0164641
843.830	0.0164908
843.908	0.0165347
843.986	0.0165001
844.064	0.0164251
844.142	0.0163799
844.221	0.0165218
844.299	0.0163948
844.377	0.0164815
844.455	0.0163388
844.533	0.0164989
844.611	0.0164449
844.689	0.0164021
844.767	0.0164254
844.846	0.0164687
844.924	0.0164273
845.002	0.0163776
845.080	0.0163714
845.158	0.0164811
845.236	0.0163749
845.314	0.0163704
845.392	0.0163036
845.471	0.0163026
845.549	0.0163472
845.627	0.0164364
845.705	0.0164926
845.783	0.0164648
845.861	0.0165030
845.939	0.0165077
846.017	0.0165200
846.096	0.0164877
846.174	0.0164922
846.252	0.0165762
846.330	0.0165806
846.408	0.0165939
846.486	0.0165200
846.564	0.0166306
846.642	0.0166116
846.721	0.0167031
846.799	0.0166018
846.877	0.0164756
846.955	0.0165405
847.033	0.0167682
847.111	0.0166497
847.189	0.0165351
847.267	0.0166532
847.346	0.0166366
847.424	0.0166277
847.502	0.0165748
847.580	0.0165449
847.658	0.0165784
847.736	0.0164545
847.814	0.0163438
847.892	0.0164421
847.971	0.0164500
848.049	0.0163407
848.127	0.0164610
848.205	0.0163776
848.283	0.0162906
848.361	0.0164341
848.439	0.0165311
848.517	0.0162775
848.596	0.0165591
848.674	0.0164179
848.752	0.0164395
848.830	0.0165353
848.908	0.0165441
848.986	0.0167318
849.064	0.0166867
849.142	0.0165306
849.221	0.0164427
849.299	0.0163797
849.377	0.0166890
849.455	0.0165042
849.533	0.0165090
849.611	0.0164558
849.689	0.0165230
849.767	0.0165764
849.846	0.0165246
849.924	0.0164975
850.002	0.0164762
850.080	0.0164964
850.158	0.0165414
850.236	0.0166232
850.314	0.0164706
850.392	0.0165691
850.471	0.0165365
850.549	0.0164137
850.627	0.0165167
850.705	0.0164617
850.783	0.0164330
850.861	0.0165016
850.939	0.0164968
851.017	0.0164534
851.096	0.0164886
851.174	0.0164323
851.252	0.0165125
851.330	0.0164478
851.408	0.0163165
851.486	0.0166291
851.564	0.0165118
851.642	0.0164539
851.721	0.0164495
851.799	0.0165723
851.877	0.0165693
851.955	0.0165187
852.033	0.0165723
852.111	0.0165454
852.189	0.0165739
852.267	0.0165085
852.346	0.0164767
852.424	0.0166375
852.502	0.0165191
852.580	0.0166232
852.658	0.0165699
852.736	0.0165536
852.814	0.0165722
852.892	0.0164318
852.971	0.0164575
853.049	0.0165329
853.127	0.0165541
853.205	0.0165316
853.283	0.0164361
853.361	0.0164751
853.439	0.0164897
853.517	0.0164264
853.596	0.0163743
853.674	0.0163311
853.752	0.0163065
853.830	0.0163207
853.908	0.0161397
853.986	0.0162105
854.064	0.0163245
854.142	0.0161994
854.221	0.0164128
854.299	0.0163919
854.377	0.0163221
854.455	0.0164230
854.533	0.0163541
854.611	0.0163731
854.689	0.0164664
854.767	0.0164321
854.846	0.0164762
854.924	0.0166946
855.002	0.0167556
855.080	0.0166982
855.158	0.0166161
855.236	0.0165359
855.314	0.0165818
855.392	0.0165885
855.471	0.0165752
855.549	0.0164288
855.627	0.0163960
855.705	0.0164444
855.783	0.0163004
855.861	0.0164171
855.939	0.0162469
856.017	0.0163679
856.096	0.0164119
856.174	0.0162857
856.252	0.0161712
856.330	0.0162682
856.408	0.0162523
856.486	0.0161102
856.564	0.0163219
856.642	0.0163234
856.721	0.0163586
856.799	0.0163803
856.877	0.0163424
856.955	0.0164697
857.033	0.0163663
857.111	0.0164196
857.189	0.0164737
857.267	0.0165224
857.346	0.0164252
857.424	0.0165170
857.502	0.0165900
857.580	0.0165926
857.658	0.0164024
857.736	0.0163954
857.814	0.0163206
857.892	0.0163050
857.971	0.0165498
858.049	0.0164491
858.127	0.0164372
858.205	0.0163705
858.283	0.0165096
858.361	0.0164305
858.439	0.0162782
858.517	0.0164706
858.596	0.0163324
858.674	0.0164948
858.752	0.0163115
858.830	0.0165573
858.908	0.0164661
858.986	0.0162880
859.064	0.0163047
859.142	0.0164862
859.221	0.0163658
859.299	0.0164094
859.377	0.0163354
859.455	0.0164633
859.533	0.0164932
859.611	0.0163548
859.689	0.0163849
859.767	0.0162901
859.846	0.0163333
859.924	0.0163203
860.002	0.0163079
860.080	0.0162500
860.158	0.0163854
860.236	0.0164310
860.314	0.0162677
860.392	0.0164117
860.471	0.0164142
860.549	0.0162624
860.627	0.0163613
860.705	0.0163003
860.783	0.0163451
860.861	0.0164095
860.939	0.0164938
861.017	0.0164711
861.096	0.0164433
861.174	0.0161963
861.252	0.0162479
861.330	0.0163268
861.408	0.0162479
861.486	0.0164051
861.564	0.0162845
861.642	0.0163325
861.721	0.0162135
861.799	0.0163055
861.877	0.0161428
861.955	0.0161129
862.033	0.0162980
862.111	0.0161576
862.189	0.0162773
862.267	0.0163580
862.346	0.0161703
862.424	0.0163383
862.502	0.0163070
862.580	0.0163323
862.658	0.0163507
862.736	0.0164614
862.814	0.0165331
862.892	0.0165660
862.971	0.0167139
863.049	0.0167233
863.127	0.0165721
863.205	0.0166308
863.283	0.0166997
863.361	0.0165576
863.439	0.0166382
863.517	0.0167275
863.596	0.0166644
863.674	0.0166756
863.752	0.0165585
863.830	0.0165668
863.908	0.0167255
863.986	0.0165382
864.064	0.0165384
864.142	0.0163292
864.221	0.0164620
864.299	0.0165183
864.377	0.0164941
864.455	0.0164261
864.533	0.0164163
864.611	0.0165568
864.689	0.0165775
864.767	0.0165483
864.846	0.0165166
864.924	0.0166775
865.002	0.0166029
865.080	0.0166716
865.158	0.0167088
865.236	0.0165347
865.314	0.0166262
865.392	0.0165872
865.471	0.0166318
865.549	0.0166751
865.627	0.0166484
865.705	0.0164879
865.783	0.0166583
865.861	0.0165668
865.939	0.0166620
866.017	0.0166073
866.096	0.0166039
866.174	0.0166547
866.252	0.0164790
866.330	0.0165125
866.408	0.0165490
866.486	0.0164268
866.564	0.0165280
866.642	0.0163900
866.721	0.0164037
866.799	0.0165047
866.877	0.0162999
866.955	0.0163794
867.033	0.0164770
867.111	0.0164693
867.189	0.0163870
867.267	0.0164571
867.346	0.0163954
867.424	0.0163991
867.502	0.0164805
867.580	0.0163657
867.658	0.0164314
867.736	0.0165862
867.814	0.0164129
867.892	0.0164433
867.971	0.0162701
868.049	0.0164419
868.127	0.0164771
868.205	0.0165301
868.283	0.0165410
868.361	0.0164635
868.439	0.0163626
868.517	0.0163285
868.596	0.0164332
868.674	0.0163875
868.752	0.0162875
868.830	0.0164707
868.908	0.0163642
868.986	0.0162336
869.064	0.0162745
869.142	0.0164407
869.221	0.0161146
869.299	0.0163609
869.377	0.0162361
869.455	0.0163198
869.533	0.0164790
869.611	0.0163522
869.689	0.0163745
869.767	0.0163319
869.846	0.0163917
869.924	0.0163890
870.002	0.0163321
870.080	0.0163735
870.158	0.0164023
870.236	0.0164299
870.314	0.0164878
870.392	0.0164140
870.471	0.0164030
870.549	0.0163469
870.627	0.0163364
870.705	0.0164403
870.783	0.0163769
870.861	0.0165438
870.939	0.0164645
871.017	0.0164844
871.096	0.0164882
871.174	0.0163552
871.252	0.0164385
871.330	0.0164292
871.408	0.0165645
871.486	0.0166331
871.564	0.0165097
871.642	0.0164086
871.721	0.0165510
871.799	0.0165646
871.877	0.0165367
871.955	0.0164428
872.033	0.0165401
872.111	0.0164241
872.189	0.0164722
872.267	0.0164423
872.346	0.0164008
872.424	0.0164338
872.502	0.0164371
872.580	0.0165596
872.658	0.0163204
872.736	0.0163220
872.814	0.0163990
872.892	0.0164825
872.971	0.0165716
873.049	0.0163828
873.127	0.0163869
873.205	0.0164558
873.283	0.0165254
873.361	0.0165473
873.439	0.0164153
873.517	0.0164128
873.596	0.0164741
873.674	0.0166440
873.752	0.0164695
873.830	0.0165086
873.908	0.0164352
873.986	0.0165392
874.064	0.0165514
874.142	0.0166320
874.221	0.0164665
874.299	0.0165684
874.377	0.0165295
874.455	0.0165426
874.533	0.0167239
874.611	0.0165713
874.689	0.0165042
874.767	0.0164231
874.846	0.0164396
874.924	0.0166047
875.002	0.0163437
875.080	0.0164947
875.158	0.0165097
875.236	0.0165438
875.314	0.0165118
875.392	0.0164827
875.471	0.0165491
875.549	0.0163650
875.627	0.0164617
875.705	0.0166146
875.783	0.0165420
875.861	0.0163989
875.939	0.0165749
876.017	0.0165120
876.096	0.0164935
876.174	0.0165678
876.252	0.0166261
876.330	0.0167342
876.408	0.0165502
876.486	0.0164864
876.564	0.0166286
876.642	0.0165195
876.721	0.0165169
876.799	0.0163929
876.877	0.0163757
876.955	0.0164487
877.033	0.0164320
877.111	0.0163549
877.189	0.0163201
877.267	0.0163320
877.346	0.0161686
877.424	0.0161977
877.502	0.0163080
877.580	0.0161475
877.658	0.0162814
877.736	0.0163866
877.814	0.0162706
877.892	0.0163164
877.971	0.0163105
878.049	0.0163716
878.127	0.0163728
878.205	0.0163892
878.283	0.0164568
878.361	0.0163652
878.439	0.0164435
878.517	0.0164301
878.596	0.0164665
878.674	0.0163715
878.752	0.0162762
878.830	0.0164909
878.908	0.0163631
878.986	0.0163614
879.064	0.0163310
879.142	0.0163660
879.221	0.0162798
879.299	0.0162475
879.377	0.0162811
879.455	0.0164457
879.533	0.0164401
879.611	0.0163831
879.689	0.0161848
879.767	0.0162392
879.846	0.0165172
879.924	0.0164066
880.002	0.0163849
880.080	0.0164238
880.158	0.0164995
880.236	0.0164640
880.314	0.0164659
880.392	0.0165326
880.471	0.0165112
880.549	0.0164469
880.627	0.0164390
880.705	0.0165887
880.783	0.0164628
880.861	0.0164649
880.939	0.0163702
881.017	0.0164142
881.096	0.0163491
881.174	0.0163378
881.252	0.0164919
881.330	0.0164168
881.408	0.0163608
881.486	0.0164283
881.564	0.0164351
881.642	0.0166016
881.721	0.0165567
881.799	0.0164288
881.877	0.0165241
881.955	0.0164427
882.033	0.0165872
882.111	0.0165657
882.189	0.0165779
882.267	0.0165420
882.346	0.0165377
882.424	0.0165037
882.502	0.0164645
882.580	0.0166462
882.658	0.0164394
882.736	0.0163883
882.814	0.0163914
882.892	0.0164149
882.971	0.0163035
883.049	0.0163623
883.127	0.0164411
883.205	0.0164120
883.283	0.0163165
883.361	0.0164657
883.439	0.0163608
883.517	0.0164130
883.596	0.0164513
883.674	0.0164850
883.752	0.0164037
883.830	0.0164198
883.908	0.0164844
883.986	0.0164637
884.064	0.0164843
884.142	0.0164064
884.221	0.0165832
884.299	0.0165944
884.377	0.0164673
884.455	0.0164393
884.533	0.0165903
884.611	0.0166155
884.689	0.0162769
884.767	0.0165421
884.846	0.0164599
884.924	0.0164079
885.002	0.0163846
885.080	0.0163480
885.158	0.0163853
885.236	0.0164277
885.314	0.0164085
885.392	0.0164042
885.471	0.0163040
885.549	0.0162711
885.627	0.0161759
885.705	0.0161630
885.783	0.0162038
885.861	0.0161819
885.939	0.0162785
886.017	0.0162976
886.096	0.0163956
886.174	0.0164799
886.252	0.0163800
886.330	0.0164890
886.408	0.0163575
886.486	0.0163338
886.564	0.0165350
886.642	0.0165362
886.721	0.0164742
886.799	0.0163093
886.877	0.0164500
886.955	0.0164267
887.033	0.0164445
887.111	0.0164415
887.189	0.0163569
887.267	0.0162294
887.346	0.0164029
887.424	0.0163710
887.502	0.0164113
887.580	0.0163041
887.658	0.0163231
887.736	0.0162614
887.814	0.0163814
887.892	0.0164394
887.971	0.0163323
888.049	0.0163167
888.127	0.0164661
888.205	0.0163649
888.283	0.0164140
888.361	0.0164018
888.439	0.0162885
888.517	0.0164639
888.596	0.0164610
888.674	0.0162712
888.752	0.0164330
888.830	0.0164308
888.908	0.0163223
888.986	0.0163280
889.064	0.0163239
889.142	0.0165144
889.221	0.0164574
889.299	0.0165091
889.377	0.0164073
889.455	0.0164867
889.533	0.0164164
889.611	0.0162439
889.689	0.0163105
889.767	0.0164530
889.846	0.0164529
889.924	0.0164692
890.002	0.0164266
890.080	0.0165594
890.158	0.0164559
890.236	0.0163754
890.314	0.0164241
890.392	0.0164336
890.471	0.0163695
890.549	0.0164761
890.627	0.0162196
890.705	0.0163615
890.783	0.0165269
890.861	0.0163625
890.939	0.0163152
891.017	0.0162814
891.096	0.0164024
891.174	0.0164114
891.252	0.0164346
891.330	0.0164439
891.408	0.0164928
891.486	0.0165986
891.564	0.0164149
891.642	0.0164442
891.721	0.0166404
891.799	0.0166808
891.877	0.0165318
891.955	0.0166088
892.033	0.0165729
892.111	0.0166249
892.189	0.0165456
892.267	0.0164420
892.346	0.0165458
892.424	0.0166008
892.502	0.0165925
892.580	0.0165332
892.658	0.0165687
892.736	0.0163938
892.814	0.0163870
892.892	0.0165701
892.971	0.0163934
893.049	0.0164497
893.127	0.0164477
893.205	0.0164849
893.283	0.0164781
893.361	0.0164974
893.439	0.0164227
893.517	0.0163271
893.596	0.0164781
893.674	0.0165268
893.752	0.0164851
893.830	0.0164390
893.908	0.0164211
893.986	0.0165189
894.064	0.0165254
894.142	0.0164812
894.221	0.0164213
894.299	0.0165209
894.377	0.0164690
894.455	0.0164740
894.533	0.0164685
894.611	0.0164661
894.689	0.0165636
894.767	0.0165980
894.846	0.0164566
894.924	0.0164805
895.002	0.0165739
895.080	0.0164668
895.158	0.0167483
895.236	0.0166011
895.314	0.0165613
895.392	0.0164625
895.471	0.0164275
895.549	0.0166806
895.627	0.0163976
895.705	0.0163760
895.783	0.0165000
895.861	0.0166132
895.939	0.0164484
896.017	0.0164488
896.096	0.0164452
896.174	0.0164619
896.252	0.0164350
896.330	0.0164738
896.408	0.0165131
896.486	0.0164517
896.564	0.0165042
896.642	0.0164597
896.721	0.0164941
896.799	0.0164786
896.877	0.0165834
896.955	0.0164861
897.033	0.0165560
897.111	0.0164228
897.189	0.0164245
897.267	0.0164579
897.346	0.0163757
897.424	0.0165381
897.502	0.0165379
897.580	0.0164507
897.658	0.0165174
897.736	0.0162737
897.814	0.0165409
897.892	0.0165156
897.971	0.0164394
898.049	0.0164133
898.127	0.0164372
898.205	0.0162981
898.283	0.0164259
898.361	0.0163989
898.439	0.0163734
898.517	0.0164216
898.596	0.0163148
898.674	0.0163106
898.752	0.0163828
898.830	0.0164137
898.908	0.0164013
898.986	0.0163551
899.064	0.0164002
899.142	0.0164569
899.221	0.0163918
899.299	0.0163287
899.377	0.0164265
899.455	0.0166159
899.533	0.0165227
899.611	0.0165279
899.689	0.0164758
899.767	0.0164486
899.846	0.0164504
899.924	0.0165942
900.002	0.0165125
900.080	0.0165369
900.158	0.0165617
900.236	0.0164796
900.314	0.0164276
900.392	0.0164633
900.471	0.0163306
900.549	0.0164679
900.627	0.0165157
900.705	0.0164694
900.783	0.0163476
900.861	0.0162868
900.939	0.0163196
901.017	0.0163519
901.096	0.0162891
901.174	0.0162994
901.252	0.0163224
901.330	0.0163804
901.408	0.0163672
901.486	0.0163082
901.564	0.0163657
901.642	0.0165002
901.721	0.0164558
901.799	0.0163973
901.877	0.0163861
901.955	0.0161680
902.033	0.0164497
902.111	0.0162818
902.189	0.0164015
902.267	0.0164246
902.346	0.0163922
902.424	0.0164344
902.502	0.0165187
902.580	0.0163589
902.658	0.0164510
902.736	0.0163306
902.814	0.0165270
902.892	0.0164680
902.971	0.0163351
903.049	0.0163742
903.127	0.0163786
903.205	0.0163986
903.283	0.0163908
903.361	0.0164473
903.439	0.0162631
903.517	0.0164961
903.596	0.0163739
903.674	0.0164276
903.752	0.0163689
903.830	0.0164304
903.908	0.0165006
903.986	0.0164952
904.064	0.0165211
904.142	0.0165457
904.221	0.0165871
904.299	0.0164621
904.377	0.0164761
904.455	0.0164687
904.533	0.0164430
904.611	0.0164266
904.689	0.0165649
904.767	0.0164722
904.846	0.0165213
904.924	0.0163071
905.002	0.0164437
905.080	0.0164517
905.158	0.0164030
905.236	0.0165229
905.314	0.0163758
905.392	0.0163571
905.471	0.0165755
905.549	0.0165226
905.627	0.0164887
905.705	0.0164570
905.783	0.0164481
905.861	0.0165835
905.939	0.0164758
906.017	0.0164480
906.096	0.0165089
906.174	0.0164424
906.252	0.0164145
906.330	0.0163609
906.408	0.0164902
906.486	0.0164051
906.564	0.0163866
906.642	0.0164790
906.721	0.0165244
906.799	0.0164011
906.877	0.0163061
906.955	0.0164445
907.033	0.0164882
907.111	0.0164657
907.189	0.0165159
907.267	0.0163569
907.346	0.0164793
907.424	0.0165629
907.502	0.0164384
907.580	0.0164403
907.658	0.0164909
907.736	0.0165065
907.814	0.0163782
907.892	0.0164472
907.971	0.0164960
908.049	0.0164072
908.127	0.0163301
908.205	0.0164391
908.283	0.0164718
908.361	0.0164700
908.439	0.0164393
908.517	0.0164497
908.596	0.0163449
908.674	0.0164270
908.752	0.0163939
908.830	0.0163341
908.908	0.0163250
908.986	0.0163966
909.064	0.0164790
909.142	0.0163573
909.221	0.0163457
909.299	0.0164883
909.377	0.0163684
909.455	0.0163477
909.533	0.0164691
909.611	0.0165805
909.689	0.0165352
909.767	0.0163905
909.846	0.0164466
909.924	0.0166277
910.002	0.0166008
910.080	0.0165949
910.158	0.0165934
910.236	0.0165778
910.314	0.0166447
910.392	0.0164654
910.471	0.0164572
910.549	0.0163683
910.627	0.0165123
910.705	0.0165463
910.783	0.0165524
910.861	0.0165852
910.939	0.0165564
911.017	0.0167476
911.096	0.0165404
911.174	0.0165044
911.252	0.0166167
911.330	0.0164024
911.408	0.0164391
911.486	0.0165162
911.564	0.0165912
911.642	0.0164864
911.721	0.0165488
911.799	0.0164941
911.877	0.0165186
911.955	0.0165622
912.033	0.0164857
912.111	0.0164458
912.189	0.0165322
912.267	0.0165113
912.346	0.0164147
912.424	0.0164824
912.502	0.0164188
912.580	0.0164815
912.658	0.0164721
912.736	0.0165168
912.814	0.0164380
912.892	0.0163951
912.971	0.0164102
913.049	0.0163748
913.127	0.0163316
913.205	0.0165635
913.283	0.0165937
913.361	0.0162315
913.439	0.0163882
913.517	0.0165009
913.596	0.0164270
913.674	0.0163767
913.752	0.0163568
913.830	0.0163433
913.908	0.0164033
913.986	0.0164753
914.064	0.0164948
914.142	0.0163933
914.221	0.0164126
914.299	0.0163784
914.377	0.0162331
914.455	0.0163625
914.533	0.0164381
914.611	0.0162955
914.689	0.0164162
914.767	0.0163678
914.846	0.0164659
914.924	0.0162375
915.002	0.0162942
915.080	0.0163039
915.158	0.0163021
915.236	0.0163939
915.314	0.0164845
915.392	0.0163596
915.471	0.0163045
915.549	0.0163760
915.627	0.0164360
915.705	0.0163373
915.783	0.0163426
915.861	0.0163569
915.939	0.0162985
916.017	0.0163367
916.096	0.0163306
916.174	0.0163780
916.252	0.0165696
916.330	0.0164403
916.408	0.0164390
916.486	0.0164012
916.564	0.0164447
916.642	0.0163664
916.721	0.0165411
916.799	0.0164616
916.877	0.0163483
916.955	0.0164172
917.033	0.0164408
917.111	0.0164902
917.189	0.0162627
917.267	0.0163570
917.346	0.0163873
917.424	0.0164228
917.502	0.0163795
917.580	0.0163831
917.658	0.0163937
917.736	0.0164333
917.814	0.0163616
917.892	0.0165127
917.971	0.0164464
918.049	0.0165168
918.127	0.0163658
918.205	0.0164337
918.283	0.0165704
918.361	0.0165148
918.439	0.0165948
918.517	0.0165646
918.596	0.0166023
918.674	0.0166354
918.752	0.0167043
918.830	0.0165165
918.908	0.0167041
918.986	0.0165970
919.064	0.0164865
919.142	0.0165782
919.221	0.0167180
919.299	0.0165741
919.377	0.0165942
919.455	0.0166547
919.533	0.0166856
919.611	0.0166371
919.689	0.0166532
919.767	0.0166869
919.846	0.0165324
919.924	0.0164806
