06/01/2022	17:10:42	Ver.	4.1	UNKNOWN
Optical Delay	599.981738	Delta X		0.078125	Sweeps	1	Scan Rate	0/0
Coordinates	Axis 1	NaN	Axis 2	NaN	Axis 3	NaN	Axis 4	NaN	Axis 5	NaN	Axis 6	0.000000
TX Power	0.000000	RX Power	0.000000

599.982	0.0167482
600.060	0.0167395
600.138	0.0166687
600.216	0.0167738
600.294	0.0167606
600.372	0.0167800
600.450	0.0165675
600.529	0.0167513
600.607	0.0167701
600.685	0.0167236
600.763	0.0166342
600.841	0.0167599
600.919	0.0167038
600.997	0.0168059
601.075	0.0166392
601.154	0.0168419
601.232	0.0167823
601.310	0.0167850
601.388	0.0168229
601.466	0.0166967
601.544	0.0167298
601.622	0.0167551
601.700	0.0166782
601.779	0.0167632
601.857	0.0169260
601.935	0.0167310
602.013	0.0167249
602.091	0.0168492
602.169	0.0167769
602.247	0.0168643
602.325	0.0166348
602.404	0.0166976
602.482	0.0166208
602.560	0.0166640
602.638	0.0167911
602.716	0.0167407
602.794	0.0166391
602.872	0.0168160
602.950	0.0167679
603.029	0.0167342
603.107	0.0167783
603.185	0.0167305
603.263	0.0168385
603.341	0.0166550
603.419	0.0166663
603.497	0.0167503
603.575	0.0167764
603.654	0.0167370
603.732	0.0167514
603.810	0.0167879
603.888	0.0168180
603.966	0.0167355
604.044	0.0167558
604.122	0.0167941
604.200	0.0166801
604.279	0.0167989
604.357	0.0167339
604.435	0.0168177
604.513	0.0166737
604.591	0.0167122
604.669	0.0167141
604.747	0.0168131
604.825	0.0168926
604.904	0.0168857
604.982	0.0168344
605.060	0.0166593
605.138	0.0166832
605.216	0.0166972
605.294	0.0168230
605.372	0.0167058
605.450	0.0167023
605.529	0.0168608
605.607	0.0167662
605.685	0.0167506
605.763	0.0167464
605.841	0.0166807
605.919	0.0166757
605.997	0.0168166
606.075	0.0168373
606.154	0.0167477
606.232	0.0168610
606.310	0.0168269
606.388	0.0166698
606.466	0.0166874
606.544	0.0167656
606.622	0.0167352
606.700	0.0168463
606.779	0.0167695
606.857	0.0167229
606.935	0.0168290
607.013	0.0167730
607.091	0.0166621
607.169	0.0168922
607.247	0.0168401
607.325	0.0167616
607.404	0.0167805
607.482	0.0168171
607.560	0.0166692
607.638	0.0167788
607.716	0.0168343
607.794	0.0167133
607.872	0.0168933
607.950	0.0165870
608.029	0.0167432
608.107	0.0168149
608.185	0.0166660
608.263	0.0167196
608.341	0.0167980
608.419	0.0168571
608.497	0.0167715
608.575	0.0166988
608.654	0.0167875
608.732	0.0166132
608.810	0.0167625
608.888	0.0167939
608.966	0.0167694
609.044	0.0167678
609.122	0.0166320
609.200	0.0167621
609.279	0.0167404
609.357	0.0168793
609.435	0.0167584
609.513	0.0168319
609.591	0.0166549
609.669	0.0166840
609.747	0.0168121
609.825	0.0167606
609.904	0.0167713
609.982	0.0167735
610.060	0.0167539
610.138	0.0168672
610.216	0.0168763
610.294	0.0166684
610.372	0.0167965
610.450	0.0168863
610.529	0.0167664
610.607	0.0167669
610.685	0.0167488
610.763	0.0168325
610.841	0.0167688
610.919	0.0168755
610.997	0.0167405
611.075	0.0166367
611.154	0.0168185
611.232	0.0166978
611.310	0.0168327
611.388	0.0168141
611.466	0.0167580
611.544	0.0168446
611.622	0.0167567
611.700	0.0167567
611.779	0.0168165
611.857	0.0166653
611.935	0.0168604
612.013	0.0168673
612.091	0.0167502
612.169	0.0166938
612.247	0.0168224
612.325	0.0167415
612.404	0.0165446
612.482	0.0167224
612.560	0.0168795
612.638	0.0167561
612.716	0.0167036
612.794	0.0167141
612.872	0.0166969
612.950	0.0167071
613.029	0.0167888
613.107	0.0167979
613.185	0.0168566
613.263	0.0167153
613.341	0.0167104
613.419	0.0168425
613.497	0.0168654
613.575	0.0166759
613.654	0.0166768
613.732	0.0168018
613.810	0.0169502
613.888	0.0167458
613.966	0.0167121
614.044	0.0169057
614.122	0.0167539
614.200	0.0167181
614.279	0.0167072
614.357	0.0168954
614.435	0.0167993
614.513	0.0167731
614.591	0.0169376
614.669	0.0166294
614.747	0.0166463
614.825	0.0167690
614.904	0.0167558
614.982	0.0168251
615.060	0.0167805
615.138	0.0168098
615.216	0.0167921
615.294	0.0166401
615.372	0.0169022
615.450	0.0166802
615.529	0.0167144
615.607	0.0168100
615.685	0.0168080
615.763	0.0167847
615.841	0.0166185
615.919	0.0166898
615.997	0.0167403
616.075	0.0167762
616.154	0.0166985
616.232	0.0167615
616.310	0.0168056
616.388	0.0165650
616.466	0.0168195
616.544	0.0168346
616.622	0.0167324
616.700	0.0166933
616.779	0.0167989
616.857	0.0167140
616.935	0.0167091
617.013	0.0167920
617.091	0.0168495
617.169	0.0167906
617.247	0.0165974
617.325	0.0167135
617.404	0.0166516
617.482	0.0167396
617.560	0.0169296
617.638	0.0168054
617.716	0.0167216
617.794	0.0167261
617.872	0.0167432
617.950	0.0167139
618.029	0.0167620
618.107	0.0168377
618.185	0.0167507
618.263	0.0167848
618.341	0.0166796
618.419	0.0168941
618.497	0.0167750
618.575	0.0166358
618.654	0.0168215
618.732	0.0167731
618.810	0.0168152
618.888	0.0168681
618.966	0.0168316
619.044	0.0167475
619.122	0.0168404
619.200	0.0166628
619.279	0.0167200
619.357	0.0168125
619.435	0.0167416
619.513	0.0167516
619.591	0.0167460
619.669	0.0167021
619.747	0.0166606
619.825	0.0167114
619.904	0.0167665
619.982	0.0166962
620.060	0.0167775
620.138	0.0168425
620.216	0.0166486
620.294	0.0167566
620.372	0.0169245
620.450	0.0167747
620.529	0.0166375
620.607	0.0167973
620.685	0.0168815
620.763	0.0167030
620.841	0.0167477
620.919	0.0167048
620.997	0.0166261
621.075	0.0167725
621.154	0.0167758
621.232	0.0167153
621.310	0.0167821
621.388	0.0167658
621.466	0.0166685
621.544	0.0167981
621.622	0.0168118
621.700	0.0166147
621.779	0.0167389
621.857	0.0167179
621.935	0.0166882
622.013	0.0168385
622.091	0.0168768
622.169	0.0168514
622.247	0.0167126
622.325	0.0167959
622.404	0.0166991
622.482	0.0167757
622.560	0.0168687
622.638	0.0166188
622.716	0.0168587
622.794	0.0167820
622.872	0.0167262
622.950	0.0168259
623.029	0.0168213
623.107	0.0167560
623.185	0.0167847
623.263	0.0167760
623.341	0.0168309
623.419	0.0167915
623.497	0.0167068
623.575	0.0167024
623.654	0.0168333
623.732	0.0167120
623.810	0.0166942
623.888	0.0167901
623.966	0.0168577
624.044	0.0167281
624.122	0.0166063
624.200	0.0166566
624.279	0.0167205
624.357	0.0167176
624.435	0.0166149
624.513	0.0167296
624.591	0.0167811
624.669	0.0167085
624.747	0.0167654
624.825	0.0168736
624.904	0.0170000
624.982	0.0166731
625.060	0.0167027
625.138	0.0168256
625.216	0.0168027
625.294	0.0169267
625.372	0.0167595
625.450	0.0167212
625.529	0.0168387
625.607	0.0168101
625.685	0.0167246
625.763	0.0167209
625.841	0.0167233
625.919	0.0167600
625.997	0.0167434
626.075	0.0167554
626.154	0.0167625
626.232	0.0167837
626.310	0.0167803
626.388	0.0167952
626.466	0.0167026
626.544	0.0167032
626.622	0.0168336
626.700	0.0167726
626.779	0.0168213
626.857	0.0168029
626.935	0.0167924
627.013	0.0167117
627.091	0.0167675
627.169	0.0166619
627.247	0.0167640
627.325	0.0166135
627.404	0.0167445
627.482	0.0168105
627.560	0.0168788
627.638	0.0167895
627.716	0.0167973
627.794	0.0166916
627.872	0.0169077
627.950	0.0167053
628.029	0.0167570
628.107	0.0166868
628.185	0.0167580
628.263	0.0167578
628.341	0.0167346
628.419	0.0167068
628.497	0.0168604
628.575	0.0167990
628.654	0.0168454
628.732	0.0166880
628.810	0.0168287
628.888	0.0166583
628.966	0.0167273
629.044	0.0167525
629.122	0.0167292
629.200	0.0166879
629.279	0.0167367
629.357	0.0167733
629.435	0.0167670
629.513	0.0167967
629.591	0.0168829
629.669	0.0168825
629.747	0.0167563
629.825	0.0166310
629.904	0.0167336
629.982	0.0168283
630.060	0.0168132
630.138	0.0168264
630.216	0.0168552
630.294	0.0168651
630.372	0.0167668
630.450	0.0167152
630.529	0.0166576
630.607	0.0166337
630.685	0.0167574
630.763	0.0168007
630.841	0.0167393
630.919	0.0168079
630.997	0.0169167
631.075	0.0167408
631.154	0.0167706
631.232	0.0168300
631.310	0.0167708
631.388	0.0167915
631.466	0.0167860
631.544	0.0168992
631.622	0.0168950
631.700	0.0167726
631.779	0.0168389
631.857	0.0168469
631.935	0.0168027
632.013	0.0168137
632.091	0.0168629
632.169	0.0167393
632.247	0.0168282
632.325	0.0167966
632.404	0.0167099
632.482	0.0168268
632.560	0.0166981
632.638	0.0167841
632.716	0.0168014
632.794	0.0166050
632.872	0.0166692
632.950	0.0169193
633.029	0.0168376
633.107	0.0167004
633.185	0.0168205
633.263	0.0168606
633.341	0.0167078
633.419	0.0168446
633.497	0.0168922
633.575	0.0167211
633.654	0.0166515
633.732	0.0167805
633.810	0.0168878
633.888	0.0167452
633.966	0.0167129
634.044	0.0167026
634.122	0.0167142
634.200	0.0166196
634.279	0.0168458
634.357	0.0168999
634.435	0.0166797
634.513	0.0168106
634.591	0.0167433
634.669	0.0167289
634.747	0.0168613
634.825	0.0167578
634.904	0.0167912
634.982	0.0165793
635.060	0.0168415
635.138	0.0168130
635.216	0.0167155
635.294	0.0168696
635.372	0.0167580
635.450	0.0167090
635.529	0.0167578
635.607	0.0168496
635.685	0.0168786
635.763	0.0167914
635.841	0.0169067
635.919	0.0166541
635.997	0.0168835
636.075	0.0168301
636.154	0.0167473
636.232	0.0166833
636.310	0.0167677
636.388	0.0167737
636.466	0.0167519
636.544	0.0167364
636.622	0.0168914
636.700	0.0166827
636.779	0.0167745
636.857	0.0169481
636.935	0.0168292
637.013	0.0168468
637.091	0.0168153
637.169	0.0167498
637.247	0.0168029
637.325	0.0168571
637.404	0.0168396
637.482	0.0167457
637.560	0.0167429
637.638	0.0165971
637.716	0.0167958
637.794	0.0166462
637.872	0.0167951
637.950	0.0168787
638.029	0.0167664
638.107	0.0168803
638.185	0.0167068
638.263	0.0168579
638.341	0.0166303
638.419	0.0167120
638.497	0.0168057
638.575	0.0167815
638.654	0.0166664
638.732	0.0167506
638.810	0.0168523
638.888	0.0167611
638.966	0.0167766
639.044	0.0167451
639.122	0.0167211
639.200	0.0167286
639.279	0.0166396
639.357	0.0166348
639.435	0.0167379
639.513	0.0167392
639.591	0.0168280
639.669	0.0168373
639.747	0.0168095
639.825	0.0168036
639.904	0.0167032
639.982	0.0168051
640.060	0.0167297
640.138	0.0168159
640.216	0.0169675
640.294	0.0167150
640.372	0.0166501
640.450	0.0167074
640.529	0.0166736
640.607	0.0167795
640.685	0.0167053
640.763	0.0168037
640.841	0.0167937
640.919	0.0168357
640.997	0.0167307
641.075	0.0166514
641.154	0.0168011
641.232	0.0166663
641.310	0.0168105
641.388	0.0167489
641.466	0.0166969
641.544	0.0168216
641.622	0.0168455
641.700	0.0166106
641.779	0.0167406
641.857	0.0167944
641.935	0.0167445
642.013	0.0167776
642.091	0.0167945
642.169	0.0168071
642.247	0.0167847
642.325	0.0167458
642.404	0.0166700
642.482	0.0167842
642.560	0.0167223
642.638	0.0168117
642.716	0.0167901
642.794	0.0167541
642.872	0.0168184
642.950	0.0168643
643.029	0.0167014
643.107	0.0167707
643.185	0.0167816
643.263	0.0169009
643.341	0.0167153
643.419	0.0168348
643.497	0.0168622
643.575	0.0167525
643.654	0.0168097
643.732	0.0167567
643.810	0.0166747
643.888	0.0168045
643.966	0.0167790
644.044	0.0168331
644.122	0.0168148
644.200	0.0169167
644.279	0.0167497
644.357	0.0168189
644.435	0.0167928
644.513	0.0167525
644.591	0.0168710
644.669	0.0168250
644.747	0.0167575
644.825	0.0167207
644.904	0.0167564
644.982	0.0168497
645.060	0.0167947
645.138	0.0167271
645.216	0.0168105
645.294	0.0168455
645.372	0.0168599
645.450	0.0168140
645.529	0.0167106
645.607	0.0167465
645.685	0.0166969
645.763	0.0168806
645.841	0.0168152
645.919	0.0167301
645.997	0.0167880
646.075	0.0168575
646.154	0.0167324
646.232	0.0167390
646.310	0.0166390
646.388	0.0167992
646.466	0.0168269
646.544	0.0167686
646.622	0.0167875
646.700	0.0167825
646.779	0.0167037
646.857	0.0168288
646.935	0.0167204
647.013	0.0168877
647.091	0.0168094
647.169	0.0167645
647.247	0.0167580
647.325	0.0166702
647.404	0.0167571
647.482	0.0167235
647.560	0.0168407
647.638	0.0168414
647.716	0.0167673
647.794	0.0166969
647.872	0.0166682
647.950	0.0167577
648.029	0.0167505
648.107	0.0167791
648.185	0.0167249
648.263	0.0167341
648.341	0.0168312
648.419	0.0168007
648.497	0.0166866
648.575	0.0168301
648.654	0.0166247
648.732	0.0167236
648.810	0.0166634
648.888	0.0167490
648.966	0.0168127
649.044	0.0167090
649.122	0.0168759
649.200	0.0167165
649.279	0.0168282
649.357	0.0168654
649.435	0.0166566
649.513	0.0167583
649.591	0.0168667
649.669	0.0168268
649.747	0.0168320
649.825	0.0168539
649.904	0.0167869
649.982	0.0168430
650.060	0.0167259
650.138	0.0167197
650.216	0.0166882
650.294	0.0167906
650.372	0.0168936
650.450	0.0168111
650.529	0.0168549
650.607	0.0168098
650.685	0.0167734
650.763	0.0167658
650.841	0.0167463
650.919	0.0168799
650.997	0.0166872
651.075	0.0167415
651.154	0.0168756
651.232	0.0167019
651.310	0.0167963
651.388	0.0168023
651.466	0.0168890
651.544	0.0167234
651.622	0.0167340
651.700	0.0167101
651.779	0.0167752
651.857	0.0167583
651.935	0.0168492
652.013	0.0169144
652.091	0.0167046
652.169	0.0167963
652.247	0.0167366
652.325	0.0167417
652.404	0.0167610
652.482	0.0168487
652.560	0.0168098
652.638	0.0166568
652.716	0.0167040
652.794	0.0167855
652.872	0.0167579
652.950	0.0168356
653.029	0.0167266
653.107	0.0167494
653.185	0.0168909
653.263	0.0168141
653.341	0.0168432
653.419	0.0167516
653.497	0.0167231
653.575	0.0166406
653.654	0.0168669
653.732	0.0167828
653.810	0.0168024
653.888	0.0167361
653.966	0.0167608
654.044	0.0167854
654.122	0.0168320
654.200	0.0167582
654.279	0.0167236
654.357	0.0168071
654.435	0.0168419
654.513	0.0168065
654.591	0.0166576
654.669	0.0167101
654.747	0.0169559
654.825	0.0168479
654.904	0.0166331
654.982	0.0167407
655.060	0.0168742
655.138	0.0167082
655.216	0.0167699
655.294	0.0168707
655.372	0.0168372
655.450	0.0168562
655.529	0.0167858
655.607	0.0166862
655.685	0.0167319
655.763	0.0168687
655.841	0.0167683
655.919	0.0167490
655.997	0.0168789
656.075	0.0168194
656.154	0.0168422
656.232	0.0168511
656.310	0.0166753
656.388	0.0167719
656.466	0.0168806
656.544	0.0169061
656.622	0.0167432
656.700	0.0167403
656.779	0.0167411
656.857	0.0168853
656.935	0.0167649
657.013	0.0167834
657.091	0.0167420
657.169	0.0167239
657.247	0.0167399
657.325	0.0167888
657.404	0.0168534
657.482	0.0168629
657.560	0.0167393
657.638	0.0167990
657.716	0.0168859
657.794	0.0166570
657.872	0.0167738
657.950	0.0166820
658.029	0.0168264
658.107	0.0167877
658.185	0.0167377
658.263	0.0166995
658.341	0.0168044
658.419	0.0167192
658.497	0.0166940
658.575	0.0166653
658.654	0.0166662
658.732	0.0168323
658.810	0.0167424
658.888	0.0167062
658.966	0.0167341
659.044	0.0166512
659.122	0.0167412
659.200	0.0167676
659.279	0.0168362
659.357	0.0166570
659.435	0.0168140
659.513	0.0168720
659.591	0.0166606
659.669	0.0166853
659.747	0.0167114
659.825	0.0166160
659.904	0.0167577
659.982	0.0168428
660.060	0.0168525
660.138	0.0168210
660.216	0.0166581
660.294	0.0167549
660.372	0.0166966
660.450	0.0167467
660.529	0.0167616
660.607	0.0167460
660.685	0.0168577
660.763	0.0167558
660.841	0.0167566
660.919	0.0168413
660.997	0.0167571
661.075	0.0168525
661.154	0.0166568
661.232	0.0167649
661.310	0.0168174
661.388	0.0168826
661.466	0.0168712
661.544	0.0166226
661.622	0.0167334
661.700	0.0168342
661.779	0.0168115
661.857	0.0168735
661.935	0.0168384
662.013	0.0166582
662.091	0.0167205
662.169	0.0168472
662.247	0.0167872
662.325	0.0167008
662.404	0.0167010
662.482	0.0168059
662.560	0.0168050
662.638	0.0167295
662.716	0.0167850
662.794	0.0168372
662.872	0.0168510
662.950	0.0166669
663.029	0.0168053
663.107	0.0166755
663.185	0.0167079
663.263	0.0168102
663.341	0.0167352
663.419	0.0167297
663.497	0.0168105
663.575	0.0167947
663.654	0.0166892
663.732	0.0167358
663.810	0.0167650
663.888	0.0168635
663.966	0.0168531
664.044	0.0167046
664.122	0.0167313
664.200	0.0167850
664.279	0.0167052
664.357	0.0166705
664.435	0.0167851
664.513	0.0167859
664.591	0.0167741
664.669	0.0167159
664.747	0.0167070
664.825	0.0166889
664.904	0.0169467
664.982	0.0168530
665.060	0.0168285
665.138	0.0167261
665.216	0.0166264
665.294	0.0167773
665.372	0.0169270
665.450	0.0168542
665.529	0.0167253
665.607	0.0168132
665.685	0.0167039
665.763	0.0167347
665.841	0.0168862
665.919	0.0168353
665.997	0.0167068
666.075	0.0168499
666.154	0.0168926
666.232	0.0168678
666.310	0.0165828
666.388	0.0167668
666.466	0.0167900
666.544	0.0167471
666.622	0.0167892
666.700	0.0167561
666.779	0.0167890
666.857	0.0167574
666.935	0.0167549
667.013	0.0169005
667.091	0.0168095
667.169	0.0168839
667.247	0.0168359
667.325	0.0167974
667.404	0.0167360
667.482	0.0168299
667.560	0.0167411
667.638	0.0168611
667.716	0.0166968
667.794	0.0168004
667.872	0.0167651
667.950	0.0168685
668.029	0.0168188
668.107	0.0169588
668.185	0.0168004
668.263	0.0167694
668.341	0.0168351
668.419	0.0168686
668.497	0.0167805
668.575	0.0167223
668.654	0.0166535
668.732	0.0167790
668.810	0.0166710
668.888	0.0167410
668.966	0.0167024
669.044	0.0168289
669.122	0.0167986
669.200	0.0167626
669.279	0.0167444
669.357	0.0168955
669.435	0.0167260
669.513	0.0167956
669.591	0.0167652
669.669	0.0167564
669.747	0.0167304
669.825	0.0168645
669.904	0.0168935
669.982	0.0167895
670.060	0.0167623
670.138	0.0168560
670.216	0.0167915
670.294	0.0167747
670.372	0.0169005
670.450	0.0167224
670.529	0.0167981
670.607	0.0166424
670.685	0.0168465
670.763	0.0168195
670.841	0.0167934
670.919	0.0168504
670.997	0.0167925
671.075	0.0166829
671.154	0.0168237
671.232	0.0167278
671.310	0.0167036
671.388	0.0167652
671.466	0.0167535
671.544	0.0167191
671.622	0.0167226
671.700	0.0167051
671.779	0.0167599
671.857	0.0167056
671.935	0.0166881
672.013	0.0169167
672.091	0.0167989
672.169	0.0168086
672.247	0.0168388
672.325	0.0167455
672.404	0.0167664
672.482	0.0167795
672.560	0.0167207
672.638	0.0167087
672.716	0.0167289
672.794	0.0167278
672.872	0.0167806
672.950	0.0167416
673.029	0.0167715
673.107	0.0167198
673.185	0.0167382
673.263	0.0167430
673.341	0.0168666
673.419	0.0167596
673.497	0.0167288
673.575	0.0168739
673.654	0.0168670
673.732	0.0167220
673.810	0.0167500
673.888	0.0168480
673.966	0.0168542
674.044	0.0168408
674.122	0.0168340
674.200	0.0167126
674.279	0.0168478
674.357	0.0169121
674.435	0.0167693
674.513	0.0167657
674.591	0.0167220
674.669	0.0168680
674.747	0.0166879
674.825	0.0167329
674.904	0.0166000
674.982	0.0166420
675.060	0.0168097
675.138	0.0167909
675.216	0.0168577
675.294	0.0167738
675.372	0.0167212
675.450	0.0166824
675.529	0.0166493
675.607	0.0168388
675.685	0.0167943
675.763	0.0166553
675.841	0.0167268
675.919	0.0166669
675.997	0.0166098
676.075	0.0169117
676.154	0.0167662
676.232	0.0166096
676.310	0.0168790
676.388	0.0166953
676.466	0.0167163
676.544	0.0167271
676.622	0.0168243
676.700	0.0168046
676.779	0.0166402
676.857	0.0167139
676.935	0.0169087
677.013	0.0167213
677.091	0.0167944
677.169	0.0166871
677.247	0.0167906
677.325	0.0168528
677.404	0.0167508
677.482	0.0167792
677.560	0.0167035
677.638	0.0168075
677.716	0.0167712
677.794	0.0168167
677.872	0.0167916
677.950	0.0168882
678.029	0.0167821
678.107	0.0168364
678.185	0.0167733
678.263	0.0167512
678.341	0.0166980
678.419	0.0168184
678.497	0.0166615
678.575	0.0166685
678.654	0.0167202
678.732	0.0167487
678.810	0.0168491
678.888	0.0167853
678.966	0.0166865
679.044	0.0167883
679.122	0.0166808
679.200	0.0167043
679.279	0.0167368
679.357	0.0167316
679.435	0.0166891
679.513	0.0168505
679.591	0.0168243
679.669	0.0166516
679.747	0.0167973
679.825	0.0167780
679.904	0.0166389
679.982	0.0167872
680.060	0.0167715
680.138	0.0167081
680.216	0.0167281
680.294	0.0167599
680.372	0.0167546
680.450	0.0167563
680.529	0.0166926
680.607	0.0166552
680.685	0.0168852
680.763	0.0167139
680.841	0.0166036
680.919	0.0166952
680.997	0.0167965
681.075	0.0166781
681.154	0.0168287
681.232	0.0167857
681.310	0.0166804
681.388	0.0168003
681.466	0.0167855
681.544	0.0167397
681.622	0.0168104
681.700	0.0167896
681.779	0.0166778
681.857	0.0166734
681.935	0.0167787
682.013	0.0168784
682.091	0.0166525
682.169	0.0166938
682.247	0.0167051
682.325	0.0167240
682.404	0.0167091
682.482	0.0167536
682.560	0.0166758
682.638	0.0166550
682.716	0.0166135
682.794	0.0167143
682.872	0.0167564
682.950	0.0167505
683.029	0.0166332
683.107	0.0167339
683.185	0.0166457
683.263	0.0168070
683.341	0.0167757
683.419	0.0167212
683.497	0.0167999
683.575	0.0166718
683.654	0.0167809
683.732	0.0168609
683.810	0.0168732
683.888	0.0166914
683.966	0.0167050
684.044	0.0167805
684.122	0.0167757
684.200	0.0167233
684.279	0.0167608
684.357	0.0167104
684.435	0.0166857
684.513	0.0167651
684.591	0.0167384
684.669	0.0168375
684.747	0.0167501
684.825	0.0167244
684.904	0.0167883
684.982	0.0167088
685.060	0.0167413
685.138	0.0167976
685.216	0.0168598
685.294	0.0166869
685.372	0.0167252
685.450	0.0167731
685.529	0.0166973
685.607	0.0167862
685.685	0.0168548
685.763	0.0167262
685.841	0.0167294
685.919	0.0166969
685.997	0.0167390
686.075	0.0168318
686.154	0.0168919
686.232	0.0168057
686.310	0.0167577
686.388	0.0168562
686.466	0.0167007
686.544	0.0167513
686.622	0.0167502
686.700	0.0168058
686.779	0.0168018
686.857	0.0168611
686.935	0.0168375
687.013	0.0167805
687.091	0.0168898
687.169	0.0167645
687.247	0.0167713
687.325	0.0169614
687.404	0.0167680
687.482	0.0167400
687.560	0.0169246
687.638	0.0167175
687.716	0.0169308
687.794	0.0166830
687.872	0.0166906
687.950	0.0168768
688.029	0.0167918
688.107	0.0167748
688.185	0.0168284
688.263	0.0167836
688.341	0.0168920
688.419	0.0168375
688.497	0.0168024
688.575	0.0167404
688.654	0.0167942
688.732	0.0167063
688.810	0.0168381
688.888	0.0167988
688.966	0.0167161
689.044	0.0166817
689.122	0.0169231
689.200	0.0168484
689.279	0.0168272
689.357	0.0167695
689.435	0.0167997
689.513	0.0168718
689.591	0.0168351
689.669	0.0168268
689.747	0.0167292
689.825	0.0167907
689.904	0.0168133
689.982	0.0168215
690.060	0.0167809
690.138	0.0167506
690.216	0.0166834
690.294	0.0167903
690.372	0.0167823
690.450	0.0166756
690.529	0.0167316
690.607	0.0167403
690.685	0.0168362
690.763	0.0168070
690.841	0.0167548
690.919	0.0168549
690.997	0.0168697
691.075	0.0167137
691.154	0.0167677
691.232	0.0167661
691.310	0.0167426
691.388	0.0166554
691.466	0.0167600
691.544	0.0167621
691.622	0.0167687
691.700	0.0167902
691.779	0.0167365
691.857	0.0167020
691.935	0.0168344
692.013	0.0167901
692.091	0.0166823
692.169	0.0166206
692.247	0.0167660
692.325	0.0167393
692.404	0.0168017
692.482	0.0167237
692.560	0.0168111
692.638	0.0167335
692.716	0.0167304
692.794	0.0167529
692.872	0.0167471
692.950	0.0167657
693.029	0.0167952
693.107	0.0166894
693.185	0.0167168
693.263	0.0167972
693.341	0.0166727
693.419	0.0168045
693.497	0.0167808
693.575	0.0167570
693.654	0.0167617
693.732	0.0167105
693.810	0.0168495
693.888	0.0168183
693.966	0.0168256
694.044	0.0167196
694.122	0.0167403
694.200	0.0168282
694.279	0.0165664
694.357	0.0166732
694.435	0.0168223
694.513	0.0166183
694.591	0.0167406
694.669	0.0167330
694.747	0.0167626
694.825	0.0165774
694.904	0.0167229
694.982	0.0167926
695.060	0.0168284
695.138	0.0167326
695.216	0.0166535
695.294	0.0167368
695.372	0.0168175
695.450	0.0168015
695.529	0.0167502
695.607	0.0168267
695.685	0.0166560
695.763	0.0167184
695.841	0.0166475
695.919	0.0167630
695.997	0.0167474
696.075	0.0168114
696.154	0.0167798
696.232	0.0167786
696.310	0.0168241
696.388	0.0167645
696.466	0.0166442
696.544	0.0166873
696.622	0.0168285
696.700	0.0168873
696.779	0.0167173
696.857	0.0168217
696.935	0.0167123
697.013	0.0167259
697.091	0.0167552
697.169	0.0167303
697.247	0.0167628
697.325	0.0168859
697.404	0.0169022
697.482	0.0168682
697.560	0.0167916
697.638	0.0169332
697.716	0.0165916
697.794	0.0166119
697.872	0.0168302
697.950	0.0166280
698.029	0.0167450
698.107	0.0168105
698.185	0.0166437
698.263	0.0166721
698.341	0.0167851
698.419	0.0168317
698.497	0.0168848
698.575	0.0167994
698.654	0.0167987
698.732	0.0168565
698.810	0.0169939
698.888	0.0169578
698.966	0.0168637
699.044	0.0168626
699.122	0.0166273
699.200	0.0168598
699.279	0.0166744
699.357	0.0167840
699.435	0.0168307
699.513	0.0168192
699.591	0.0168021
699.669	0.0167394
699.747	0.0168726
699.825	0.0167033
699.904	0.0167725
699.982	0.0165972
700.060	0.0166689
700.138	0.0166367
700.216	0.0167011
700.294	0.0166817
700.372	0.0167522
700.450	0.0167461
700.529	0.0167211
700.607	0.0168242
700.685	0.0167850
700.763	0.0166523
700.841	0.0167765
700.919	0.0168540
700.997	0.0169762
701.075	0.0168724
701.154	0.0168191
701.232	0.0168442
701.310	0.0169286
701.388	0.0168929
701.466	0.0168622
701.544	0.0167921
701.622	0.0168302
701.700	0.0168855
701.779	0.0169491
701.857	0.0168597
701.935	0.0168546
702.013	0.0167941
702.091	0.0168691
702.169	0.0168796
702.247	0.0168931
702.325	0.0168623
702.404	0.0167860
702.482	0.0167240
702.560	0.0167905
702.638	0.0167073
702.716	0.0166463
702.794	0.0166537
702.872	0.0166648
702.950	0.0164301
703.029	0.0165765
703.107	0.0166264
703.185	0.0166747
703.263	0.0165797
703.341	0.0166116
703.419	0.0166498
703.497	0.0167257
703.575	0.0166614
703.654	0.0167896
703.732	0.0168101
703.810	0.0167790
703.888	0.0167828
703.966	0.0169971
704.044	0.0169618
704.122	0.0168295
704.200	0.0170284
704.279	0.0168916
704.357	0.0168954
704.435	0.0169713
704.513	0.0170203
704.591	0.0169272
704.669	0.0169128
704.747	0.0169459
704.825	0.0169641
704.904	0.0167978
704.982	0.0168883
705.060	0.0167772
705.138	0.0167357
705.216	0.0167786
705.294	0.0167455
705.372	0.0166512
705.450	0.0166345
705.529	0.0165401
705.607	0.0165104
705.685	0.0166150
705.763	0.0165565
705.841	0.0165554
705.919	0.0164278
705.997	0.0165121
706.075	0.0167153
706.154	0.0166674
706.232	0.0166576
706.310	0.0166308
706.388	0.0166887
706.466	0.0165981
706.544	0.0165817
706.622	0.0167385
706.700	0.0167572
706.779	0.0166847
706.857	0.0168224
706.935	0.0165913
707.013	0.0167970
707.091	0.0167288
707.169	0.0167519
707.247	0.0168900
707.325	0.0168518
707.404	0.0169138
707.482	0.0169188
707.560	0.0167575
707.638	0.0168679
707.716	0.0169122
707.794	0.0169904
707.872	0.0170380
707.950	0.0168713
708.029	0.0169239
708.107	0.0169107
708.185	0.0169794
708.263	0.0169087
708.341	0.0169583
708.419	0.0168833
708.497	0.0167522
708.575	0.0169311
708.654	0.0167695
708.732	0.0167448
708.810	0.0166161
708.888	0.0168183
708.966	0.0167931
709.044	0.0167262
709.122	0.0167478
709.200	0.0166888
709.279	0.0167091
709.357	0.0166389
709.435	0.0166897
709.513	0.0166711
709.591	0.0166818
709.669	0.0166899
709.747	0.0166801
709.825	0.0166363
709.904	0.0165508
709.982	0.0167231
710.060	0.0164943
710.138	0.0166150
710.216	0.0167859
710.294	0.0167406
710.372	0.0166578
710.450	0.0167242
710.529	0.0166734
710.607	0.0167163
710.685	0.0168777
710.763	0.0167426
710.841	0.0167273
710.919	0.0167187
710.997	0.0166212
711.075	0.0168169
711.154	0.0166492
711.232	0.0168134
711.310	0.0167445
711.388	0.0167886
711.466	0.0167413
711.544	0.0167668
711.622	0.0168686
711.700	0.0169107
711.779	0.0169386
711.857	0.0167940
711.935	0.0168423
712.013	0.0167954
712.091	0.0168709
712.169	0.0169872
712.247	0.0169189
712.325	0.0168551
712.404	0.0169211
712.482	0.0169452
712.560	0.0169032
712.638	0.0167906
712.716	0.0167393
712.794	0.0167441
712.872	0.0167443
712.950	0.0168497
713.029	0.0169212
713.107	0.0168260
713.185	0.0167006
713.263	0.0167525
713.341	0.0167427
713.419	0.0168304
713.497	0.0167799
713.575	0.0166416
713.654	0.0167381
713.732	0.0166688
713.810	0.0166708
713.888	0.0167236
713.966	0.0165713
714.044	0.0166936
714.122	0.0167844
714.200	0.0166859
714.279	0.0167312
714.357	0.0167767
714.435	0.0168254
714.513	0.0167606
714.591	0.0166660
714.669	0.0166568
714.747	0.0164802
714.825	0.0166222
714.904	0.0166545
714.982	0.0166663
715.060	0.0166706
715.138	0.0167117
715.216	0.0167199
715.294	0.0167500
715.372	0.0167857
715.450	0.0166624
715.529	0.0167875
715.607	0.0167673
715.685	0.0167682
715.763	0.0168423
715.841	0.0166756
715.919	0.0167667
715.997	0.0168508
716.075	0.0168286
716.154	0.0168758
716.232	0.0167873
716.310	0.0168378
716.388	0.0170545
716.466	0.0168977
716.544	0.0169021
716.622	0.0170147
716.700	0.0168806
716.779	0.0168463
716.857	0.0168194
716.935	0.0169302
717.013	0.0169019
717.091	0.0169395
717.169	0.0167503
717.247	0.0167461
717.325	0.0167217
717.404	0.0168908
717.482	0.0167883
717.560	0.0169672
717.638	0.0168709
717.716	0.0167429
717.794	0.0168185
717.872	0.0169013
717.950	0.0167617
718.029	0.0168706
718.107	0.0166821
718.185	0.0167314
718.263	0.0168442
718.341	0.0166616
718.419	0.0167308
718.497	0.0167419
718.575	0.0167834
718.654	0.0168767
718.732	0.0167392
718.810	0.0166222
718.888	0.0167713
718.966	0.0166764
719.044	0.0166781
719.122	0.0166661
719.200	0.0166352
719.279	0.0166188
719.357	0.0166216
719.435	0.0165734
719.513	0.0166285
719.591	0.0167070
719.669	0.0165475
719.747	0.0166902
719.825	0.0167483
719.904	0.0165410
719.982	0.0166531
720.060	0.0168029
720.138	0.0167463
720.216	0.0167043
720.294	0.0166321
720.372	0.0167177
720.450	0.0167091
720.529	0.0165985
720.607	0.0167594
720.685	0.0168198
720.763	0.0168280
720.841	0.0167908
720.919	0.0168354
720.997	0.0167662
721.075	0.0167873
721.154	0.0168205
721.232	0.0168016
721.310	0.0169083
721.388	0.0169207
721.466	0.0166964
721.544	0.0168014
721.622	0.0169379
721.700	0.0168964
721.779	0.0168452
721.857	0.0167567
721.935	0.0168517
722.013	0.0167970
722.091	0.0168900
722.169	0.0167680
722.247	0.0168501
722.325	0.0167365
722.404	0.0166459
722.482	0.0168623
722.560	0.0168077
722.638	0.0166932
722.716	0.0165757
722.794	0.0166172
722.872	0.0167373
722.950	0.0168436
723.029	0.0167432
723.107	0.0167426
723.185	0.0167692
723.263	0.0167024
723.341	0.0167861
723.419	0.0166573
723.497	0.0167132
723.575	0.0167946
723.654	0.0166583
723.732	0.0166778
723.810	0.0167471
723.888	0.0166750
723.966	0.0166732
724.044	0.0167302
724.122	0.0165652
724.200	0.0166529
724.279	0.0167296
724.357	0.0166885
724.435	0.0166959
724.513	0.0165469
724.591	0.0165908
724.669	0.0167436
724.747	0.0165517
724.825	0.0166216
724.904	0.0166586
724.982	0.0165594
725.060	0.0166802
725.138	0.0167105
725.216	0.0167429
725.294	0.0166863
725.372	0.0166452
725.450	0.0167997
725.529	0.0166576
725.607	0.0167182
725.685	0.0166563
725.763	0.0165094
725.841	0.0167274
725.919	0.0168521
725.997	0.0166914
726.075	0.0166816
726.154	0.0168170
726.232	0.0168092
726.310	0.0169043
726.388	0.0167863
726.466	0.0167731
726.544	0.0169226
726.622	0.0168341
726.700	0.0167617
726.779	0.0169357
726.857	0.0168935
726.935	0.0167799
727.013	0.0168604
727.091	0.0170232
727.169	0.0169337
727.247	0.0168227
727.325	0.0167967
727.404	0.0167857
727.482	0.0169289
727.560	0.0169011
727.638	0.0167657
727.716	0.0166988
727.794	0.0166419
727.872	0.0167335
727.950	0.0170145
728.029	0.0168416
728.107	0.0168078
728.185	0.0168227
728.263	0.0167007
728.341	0.0165914
728.419	0.0167850
728.497	0.0167268
728.575	0.0167133
728.654	0.0169460
728.732	0.0167395
728.810	0.0166212
728.888	0.0167632
728.966	0.0167865
729.044	0.0166927
729.122	0.0166808
729.200	0.0167177
729.279	0.0167342
729.357	0.0167180
729.435	0.0167973
729.513	0.0167119
729.591	0.0167299
729.669	0.0167320
729.747	0.0167511
729.825	0.0167063
729.904	0.0166354
729.982	0.0166472
730.060	0.0167178
730.138	0.0165696
730.216	0.0167252
730.294	0.0167500
730.372	0.0167921
730.450	0.0167698
730.529	0.0168392
730.607	0.0166923
730.685	0.0166840
730.763	0.0169466
730.841	0.0166770
730.919	0.0167123
730.997	0.0168324
731.075	0.0165631
731.154	0.0168246
731.232	0.0167160
731.310	0.0167160
731.388	0.0166530
731.466	0.0167722
731.544	0.0166933
731.622	0.0167641
731.700	0.0167484
731.779	0.0167442
731.857	0.0167002
731.935	0.0167752
732.013	0.0167205
732.091	0.0167369
732.169	0.0167122
732.247	0.0166830
732.325	0.0167386
732.404	0.0166824
732.482	0.0168011
732.560	0.0166898
732.638	0.0168218
732.716	0.0167065
732.794	0.0167188
732.872	0.0167955
732.950	0.0166370
733.029	0.0166692
733.107	0.0167316
733.185	0.0167941
733.263	0.0166763
733.341	0.0166976
733.419	0.0165804
733.497	0.0166373
733.575	0.0167150
733.654	0.0165784
733.732	0.0166322
733.810	0.0166088
733.888	0.0166347
733.966	0.0166244
734.044	0.0167381
734.122	0.0165974
734.200	0.0166829
734.279	0.0166754
734.357	0.0168375
734.435	0.0164775
734.513	0.0166809
734.591	0.0166449
734.669	0.0166948
734.747	0.0166128
734.825	0.0166473
734.904	0.0165411
734.982	0.0167477
735.060	0.0167440
735.138	0.0167188
735.216	0.0166809
735.294	0.0166658
735.372	0.0167641
735.450	0.0166953
735.529	0.0166319
735.607	0.0166481
735.685	0.0166772
735.763	0.0164958
735.841	0.0166943
735.919	0.0167770
735.997	0.0166782
736.075	0.0166997
736.154	0.0167015
736.232	0.0166589
736.310	0.0166629
736.388	0.0167580
736.466	0.0166988
736.544	0.0166659
736.622	0.0166533
736.700	0.0167709
736.779	0.0167592
736.857	0.0167673
736.935	0.0167144
737.013	0.0167819
737.091	0.0168386
737.169	0.0167099
737.247	0.0165217
737.325	0.0167739
737.404	0.0168410
737.482	0.0166283
737.560	0.0167004
737.638	0.0167667
737.716	0.0168772
737.794	0.0168810
737.872	0.0167094
737.950	0.0168297
738.029	0.0167875
738.107	0.0167783
738.185	0.0167123
738.263	0.0167588
738.341	0.0168612
738.419	0.0167709
738.497	0.0167435
738.575	0.0167997
738.654	0.0167907
738.732	0.0167560
738.810	0.0167841
738.888	0.0166925
738.966	0.0167079
739.044	0.0168129
739.122	0.0168143
739.200	0.0168855
739.279	0.0167613
739.357	0.0167014
739.435	0.0168888
739.513	0.0168343
739.591	0.0168400
739.669	0.0166152
739.747	0.0168517
739.825	0.0168194
739.904	0.0166952
739.982	0.0167918
740.060	0.0168287
740.138	0.0168690
740.216	0.0166873
740.294	0.0167957
740.372	0.0168979
740.450	0.0169543
740.529	0.0168916
740.607	0.0168119
740.685	0.0166536
740.763	0.0166734
740.841	0.0167877
740.919	0.0168121
740.997	0.0168202
741.075	0.0167766
741.154	0.0166949
741.232	0.0166792
741.310	0.0168326
741.388	0.0167288
741.466	0.0167285
741.544	0.0167608
741.622	0.0166248
741.700	0.0166856
741.779	0.0166319
741.857	0.0166754
741.935	0.0167575
742.013	0.0166870
742.091	0.0167448
742.169	0.0166273
742.247	0.0167744
742.325	0.0167049
742.404	0.0166636
742.482	0.0166532
742.560	0.0167863
742.638	0.0167923
742.716	0.0167374
742.794	0.0167470
742.872	0.0167444
742.950	0.0167016
743.029	0.0165765
743.107	0.0167920
743.185	0.0167767
743.263	0.0167323
743.341	0.0167437
743.419	0.0168736
743.497	0.0168692
743.575	0.0168326
743.654	0.0168381
743.732	0.0167956
743.810	0.0167354
743.888	0.0167707
743.966	0.0167528
744.044	0.0168024
744.122	0.0166863
744.200	0.0166927
744.279	0.0168108
744.357	0.0167278
744.435	0.0169060
744.513	0.0166811
744.591	0.0167474
744.669	0.0167749
744.747	0.0166565
744.825	0.0168446
744.904	0.0167891
744.982	0.0167118
745.060	0.0166681
745.138	0.0167225
745.216	0.0166489
745.294	0.0167878
745.372	0.0168079
745.450	0.0167966
745.529	0.0168107
745.607	0.0167638
745.685	0.0167152
745.763	0.0167297
745.841	0.0166337
745.919	0.0167656
745.997	0.0168665
746.075	0.0166712
746.154	0.0166628
746.232	0.0167253
746.310	0.0168272
746.388	0.0169389
746.466	0.0167588
746.544	0.0166753
746.622	0.0167941
746.700	0.0167786
746.779	0.0167658
746.857	0.0167890
746.935	0.0167723
747.013	0.0168297
747.091	0.0168243
747.169	0.0166991
747.247	0.0165865
747.325	0.0168169
747.404	0.0167986
747.482	0.0166890
747.560	0.0167114
747.638	0.0167183
747.716	0.0167855
747.794	0.0166953
747.872	0.0166459
747.950	0.0166955
748.029	0.0167226
748.107	0.0167242
748.185	0.0166939
748.263	0.0167596
748.341	0.0166535
748.419	0.0168304
748.497	0.0166996
748.575	0.0167999
748.654	0.0166901
748.732	0.0166410
748.810	0.0166283
748.888	0.0166876
748.966	0.0167205
749.044	0.0168437
749.122	0.0166648
749.200	0.0167179
749.279	0.0166663
749.357	0.0167712
749.435	0.0166992
749.513	0.0166733
749.591	0.0167691
749.669	0.0166705
749.747	0.0165926
749.825	0.0167271
749.904	0.0167516
749.982	0.0168466
750.060	0.0167925
750.138	0.0166446
750.216	0.0166771
750.294	0.0167912
750.372	0.0166714
750.450	0.0168739
750.529	0.0169201
750.607	0.0166255
750.685	0.0168205
750.763	0.0168194
750.841	0.0167540
750.919	0.0167323
750.997	0.0168201
751.075	0.0166696
751.154	0.0168252
751.232	0.0166819
751.310	0.0167744
751.388	0.0168061
751.466	0.0168022
751.544	0.0167353
751.622	0.0166727
751.700	0.0167219
751.779	0.0166738
751.857	0.0168640
751.935	0.0167496
752.013	0.0167449
752.091	0.0167843
752.169	0.0167443
752.247	0.0166697
752.325	0.0168410
752.404	0.0167323
752.482	0.0167015
752.560	0.0167830
752.638	0.0167283
752.716	0.0168503
752.794	0.0168549
752.872	0.0167945
752.950	0.0167422
753.029	0.0167562
753.107	0.0168062
753.185	0.0167503
753.263	0.0168196
753.341	0.0168258
753.419	0.0167555
753.497	0.0168423
753.575	0.0167874
753.654	0.0166635
753.732	0.0167251
753.810	0.0167745
753.888	0.0166758
753.966	0.0167184
754.044	0.0166321
754.122	0.0167467
754.200	0.0167382
754.279	0.0167771
754.357	0.0168040
754.435	0.0166418
754.513	0.0167877
754.591	0.0166302
754.669	0.0165889
754.747	0.0168946
754.825	0.0166895
754.904	0.0167372
754.982	0.0167249
755.060	0.0167953
755.138	0.0166874
755.216	0.0166613
755.294	0.0166653
755.372	0.0167989
755.450	0.0165986
755.529	0.0166113
755.607	0.0166008
755.685	0.0166457
755.763	0.0167378
755.841	0.0169567
755.919	0.0168456
755.997	0.0167780
756.075	0.0167622
756.154	0.0168331
756.232	0.0167073
756.310	0.0167628
756.388	0.0168541
756.466	0.0168115
756.544	0.0167333
756.622	0.0166663
756.700	0.0168542
756.779	0.0167303
756.857	0.0167996
756.935	0.0168270
757.013	0.0167206
757.091	0.0166622
757.169	0.0166824
757.247	0.0167455
757.325	0.0167457
757.404	0.0167059
757.482	0.0168453
757.560	0.0169103
757.638	0.0168320
757.716	0.0167585
757.794	0.0166850
757.872	0.0167929
757.950	0.0167667
758.029	0.0168221
758.107	0.0167282
758.185	0.0167718
758.263	0.0166912
758.341	0.0168011
758.419	0.0166814
758.497	0.0166621
758.575	0.0167610
758.654	0.0166576
758.732	0.0167713
758.810	0.0168105
758.888	0.0167007
758.966	0.0167869
759.044	0.0166084
759.122	0.0167613
759.200	0.0168406
759.279	0.0167059
759.357	0.0168273
759.435	0.0168637
759.513	0.0166920
759.591	0.0165036
759.669	0.0167722
759.747	0.0168139
759.825	0.0167932
759.904	0.0167145
759.982	0.0168761
760.060	0.0168613
760.138	0.0167134
760.216	0.0167496
760.294	0.0169044
760.372	0.0167634
760.450	0.0166949
760.529	0.0168360
760.607	0.0167004
760.685	0.0168375
760.763	0.0168460
760.841	0.0167647
760.919	0.0166175
760.997	0.0166770
761.075	0.0167687
761.154	0.0167882
761.232	0.0166721
761.310	0.0166951
761.388	0.0166356
761.466	0.0166085
761.544	0.0167249
761.622	0.0167514
761.700	0.0166594
761.779	0.0166918
761.857	0.0168543
761.935	0.0167902
762.013	0.0167535
762.091	0.0167216
762.169	0.0167437
762.247	0.0167111
762.325	0.0167517
762.404	0.0168057
762.482	0.0167979
762.560	0.0167196
762.638	0.0167328
762.716	0.0166698
762.794	0.0167747
762.872	0.0167615
762.950	0.0167500
763.029	0.0166431
763.107	0.0167581
763.185	0.0166772
763.263	0.0167897
763.341	0.0167712
763.419	0.0167250
763.497	0.0166693
763.575	0.0167482
763.654	0.0167087
763.732	0.0168658
763.810	0.0167198
763.888	0.0167812
763.966	0.0169502
764.044	0.0168054
764.122	0.0166912
764.200	0.0166375
764.279	0.0166466
764.357	0.0167127
764.435	0.0166817
764.513	0.0167436
764.591	0.0168507
764.669	0.0168752
764.747	0.0166473
764.825	0.0167165
764.904	0.0167767
764.982	0.0168351
765.060	0.0168550
765.138	0.0168264
765.216	0.0167697
765.294	0.0167843
765.372	0.0168336
765.450	0.0168576
765.529	0.0167249
765.607	0.0165395
765.685	0.0166882
765.763	0.0167857
765.841	0.0167326
765.919	0.0167622
765.997	0.0167315
766.075	0.0166708
766.154	0.0167939
766.232	0.0168437
766.310	0.0166811
766.388	0.0166700
766.466	0.0167669
766.544	0.0169238
766.622	0.0167735
766.700	0.0167863
766.779	0.0167931
766.857	0.0167702
766.935	0.0168290
767.013	0.0167393
767.091	0.0168790
767.169	0.0166492
767.247	0.0167715
767.325	0.0168923
767.404	0.0167699
767.482	0.0167075
767.560	0.0168772
767.638	0.0167738
767.716	0.0166997
767.794	0.0166996
767.872	0.0166409
767.950	0.0167403
768.029	0.0168002
768.107	0.0166483
768.185	0.0167146
768.263	0.0165899
768.341	0.0167203
768.419	0.0167735
768.497	0.0167465
768.575	0.0165961
768.654	0.0166646
768.732	0.0166438
768.810	0.0167262
768.888	0.0167197
768.966	0.0167200
769.044	0.0166689
769.122	0.0166033
769.200	0.0166675
769.279	0.0166467
769.357	0.0166226
769.435	0.0167528
769.513	0.0167549
769.591	0.0166577
769.669	0.0166611
769.747	0.0167333
769.825	0.0167880
769.904	0.0166660
769.982	0.0166730
770.060	0.0167011
770.138	0.0167007
770.216	0.0167584
770.294	0.0167504
770.372	0.0167290
770.450	0.0167126
770.529	0.0168661
770.607	0.0167546
770.685	0.0168246
770.763	0.0167867
770.841	0.0167419
770.919	0.0166387
770.997	0.0167844
771.075	0.0165768
771.154	0.0166604
771.232	0.0168155
771.310	0.0167027
771.388	0.0168004
771.466	0.0167176
771.544	0.0167071
771.622	0.0167329
771.700	0.0167916
771.779	0.0167686
771.857	0.0165819
771.935	0.0166991
772.013	0.0167685
772.091	0.0165339
772.169	0.0167709
772.247	0.0166807
772.325	0.0166613
772.404	0.0165585
772.482	0.0167890
772.560	0.0167525
772.638	0.0166537
772.716	0.0168601
772.794	0.0166995
772.872	0.0166641
772.950	0.0165993
773.029	0.0167382
773.107	0.0167001
773.185	0.0164941
773.263	0.0166428
773.341	0.0167388
773.419	0.0167946
773.497	0.0168141
773.575	0.0167057
773.654	0.0167219
773.732	0.0168179
773.810	0.0166726
773.888	0.0166631
773.966	0.0166482
774.044	0.0167525
774.122	0.0168395
774.200	0.0167129
774.279	0.0166352
774.357	0.0167233
774.435	0.0168687
774.513	0.0167493
774.591	0.0167882
774.669	0.0167387
774.747	0.0167099
774.825	0.0166722
774.904	0.0166832
774.982	0.0168598
775.060	0.0166796
775.138	0.0167739
775.216	0.0168083
775.294	0.0168736
775.372	0.0167886
775.450	0.0166967
775.529	0.0166286
775.607	0.0166261
775.685	0.0167020
775.763	0.0166254
775.841	0.0167242
775.919	0.0166892
775.997	0.0167078
776.075	0.0168034
776.154	0.0167221
776.232	0.0166994
776.310	0.0166721
776.388	0.0166553
776.466	0.0166241
776.544	0.0166922
776.622	0.0166718
776.700	0.0167229
776.779	0.0165516
776.857	0.0167253
776.935	0.0167709
777.013	0.0165824
777.091	0.0166109
777.169	0.0168237
777.247	0.0167120
777.325	0.0166867
777.404	0.0167262
777.482	0.0167632
777.560	0.0167295
777.638	0.0165883
777.716	0.0167093
777.794	0.0166956
777.872	0.0167338
777.950	0.0167664
778.029	0.0167830
778.107	0.0167577
778.185	0.0166821
778.263	0.0166851
778.341	0.0168510
778.419	0.0168127
778.497	0.0166813
778.575	0.0167289
778.654	0.0168269
778.732	0.0167805
778.810	0.0167638
778.888	0.0166600
778.966	0.0167162
779.044	0.0167242
779.122	0.0166345
779.200	0.0166972
779.279	0.0167858
779.357	0.0167492
779.435	0.0167423
779.513	0.0166289
779.591	0.0167599
779.669	0.0168557
779.747	0.0167242
779.825	0.0167465
779.904	0.0167474
779.982	0.0167056
780.060	0.0168219
780.138	0.0166898
780.216	0.0168031
780.294	0.0168892
780.372	0.0168689
780.450	0.0167088
780.529	0.0167837
780.607	0.0165875
780.685	0.0168644
780.763	0.0168129
780.841	0.0167524
780.919	0.0167415
780.997	0.0166896
781.075	0.0166891
781.154	0.0167212
781.232	0.0167638
781.310	0.0167272
781.388	0.0166914
781.466	0.0168040
781.544	0.0167267
781.622	0.0167382
781.700	0.0166827
781.779	0.0166113
781.857	0.0167548
781.935	0.0166522
782.013	0.0167435
782.091	0.0166572
782.169	0.0166548
782.247	0.0167742
782.325	0.0167567
782.404	0.0166891
782.482	0.0167033
782.560	0.0166054
782.638	0.0167248
782.716	0.0166057
782.794	0.0168149
782.872	0.0167266
782.950	0.0167311
783.029	0.0166768
783.107	0.0166370
783.185	0.0167993
783.263	0.0167440
783.341	0.0166602
783.419	0.0167543
783.497	0.0167588
783.575	0.0167304
783.654	0.0167518
783.732	0.0168611
783.810	0.0166598
783.888	0.0167696
783.966	0.0167980
784.044	0.0167640
784.122	0.0167780
784.200	0.0166802
784.279	0.0167730
784.357	0.0168479
784.435	0.0167484
784.513	0.0167792
784.591	0.0167717
784.669	0.0168513
784.747	0.0168393
784.825	0.0167499
784.904	0.0165124
784.982	0.0166956
785.060	0.0167548
785.138	0.0167693
785.216	0.0167522
785.294	0.0167039
785.372	0.0168015
785.450	0.0167955
785.529	0.0165738
785.607	0.0168088
785.685	0.0166852
785.763	0.0167233
785.841	0.0168251
785.919	0.0167913
785.997	0.0166422
786.075	0.0166472
786.154	0.0167210
786.232	0.0167105
786.310	0.0167487
786.388	0.0167673
786.466	0.0166874
786.544	0.0168175
786.622	0.0168351
786.700	0.0166640
786.779	0.0167358
786.857	0.0167055
786.935	0.0167092
787.013	0.0167741
787.091	0.0167344
787.169	0.0168414
787.247	0.0167792
787.325	0.0167728
787.404	0.0167764
787.482	0.0167623
787.560	0.0165836
787.638	0.0167493
787.716	0.0167441
787.794	0.0167261
787.872	0.0167799
787.950	0.0167152
788.029	0.0168287
788.107	0.0167934
788.185	0.0166827
788.263	0.0168350
788.341	0.0168521
788.419	0.0167040
788.497	0.0168674
788.575	0.0168964
788.654	0.0168585
788.732	0.0166687
788.810	0.0167188
788.888	0.0167280
788.966	0.0168151
789.044	0.0167666
789.122	0.0167741
789.200	0.0167389
789.279	0.0168191
789.357	0.0166565
789.435	0.0167664
789.513	0.0167598
789.591	0.0166319
789.669	0.0167258
789.747	0.0167747
789.825	0.0167188
789.904	0.0166843
789.982	0.0166465
790.060	0.0167429
790.138	0.0166908
790.216	0.0167413
790.294	0.0167681
790.372	0.0166481
790.450	0.0166926
790.529	0.0167342
790.607	0.0168253
790.685	0.0167597
790.763	0.0166768
790.841	0.0168010
790.919	0.0167507
790.997	0.0166393
791.075	0.0167735
791.154	0.0168032
791.232	0.0167850
791.310	0.0169115
791.388	0.0167397
791.466	0.0168020
791.544	0.0167184
791.622	0.0167859
791.700	0.0167560
791.779	0.0167236
791.857	0.0167303
791.935	0.0167773
792.013	0.0166560
792.091	0.0167046
792.169	0.0168798
792.247	0.0166277
792.325	0.0166610
792.404	0.0167685
792.482	0.0167292
792.560	0.0166611
792.638	0.0169514
792.716	0.0168578
792.794	0.0167575
792.872	0.0167095
792.950	0.0168893
793.029	0.0168612
793.107	0.0167566
793.185	0.0167689
793.263	0.0166882
793.341	0.0166984
793.419	0.0168475
793.497	0.0168129
793.575	0.0168091
793.654	0.0167949
793.732	0.0168226
793.810	0.0168709
793.888	0.0166984
793.966	0.0167339
794.044	0.0166775
794.122	0.0168003
794.200	0.0167384
794.279	0.0169129
794.357	0.0166722
794.435	0.0166901
794.513	0.0166561
794.591	0.0167481
794.669	0.0167706
794.747	0.0165697
794.825	0.0166940
794.904	0.0168552
794.982	0.0167718
795.060	0.0167825
795.138	0.0167637
795.216	0.0167825
795.294	0.0168144
795.372	0.0166527
795.450	0.0167915
795.529	0.0166856
795.607	0.0166525
795.685	0.0167290
795.763	0.0167934
795.841	0.0167317
795.919	0.0167911
795.997	0.0166236
796.075	0.0166843
796.154	0.0168001
796.232	0.0167699
796.310	0.0166682
796.388	0.0167223
796.466	0.0169018
796.544	0.0168059
796.622	0.0168149
796.700	0.0168871
796.779	0.0166952
796.857	0.0166668
796.935	0.0168979
797.013	0.0168353
797.091	0.0168663
797.169	0.0167825
797.247	0.0168101
797.325	0.0168124
797.404	0.0168168
797.482	0.0166833
797.560	0.0168309
797.638	0.0167955
797.716	0.0167412
797.794	0.0168242
797.872	0.0168304
797.950	0.0167832
798.029	0.0168447
798.107	0.0167229
798.185	0.0166514
798.263	0.0167474
798.341	0.0166911
798.419	0.0167999
798.497	0.0167052
798.575	0.0167098
798.654	0.0166347
798.732	0.0166575
798.810	0.0168551
798.888	0.0166460
798.966	0.0167606
799.044	0.0168342
799.122	0.0167110
799.200	0.0167329
799.279	0.0166485
799.357	0.0168048
799.435	0.0166920
799.513	0.0167429
799.591	0.0168285
799.669	0.0167719
799.747	0.0167862
799.825	0.0167178
799.904	0.0167628
799.982	0.0166186
800.060	0.0167043
800.138	0.0167278
800.216	0.0168498
800.294	0.0167731
800.372	0.0167255
800.450	0.0167224
800.529	0.0167609
800.607	0.0169082
800.685	0.0167501
800.763	0.0168471
800.841	0.0167886
800.919	0.0166726
800.997	0.0168030
801.075	0.0168113
801.154	0.0167819
801.232	0.0168167
801.310	0.0165741
801.388	0.0166329
801.466	0.0168152
801.544	0.0167332
801.622	0.0168152
801.700	0.0167169
801.779	0.0166637
801.857	0.0168065
801.935	0.0167369
802.013	0.0166871
802.091	0.0166604
802.169	0.0166552
802.247	0.0166868
802.325	0.0167865
802.404	0.0167693
802.482	0.0167570
802.560	0.0166603
802.638	0.0166763
802.716	0.0168304
802.794	0.0168418
802.872	0.0168292
802.950	0.0167097
803.029	0.0166544
803.107	0.0167471
803.185	0.0167947
803.263	0.0167992
803.341	0.0167499
803.419	0.0168705
803.497	0.0167259
803.575	0.0166063
803.654	0.0167103
803.732	0.0167110
803.810	0.0168175
803.888	0.0168206
803.966	0.0167719
804.044	0.0167815
804.122	0.0167751
804.200	0.0167103
804.279	0.0167543
804.357	0.0166350
804.435	0.0168871
804.513	0.0167300
804.591	0.0168172
804.669	0.0167738
804.747	0.0168330
804.825	0.0168204
804.904	0.0168050
804.982	0.0167146
805.060	0.0166576
805.138	0.0167286
805.216	0.0166769
805.294	0.0168449
805.372	0.0166810
805.450	0.0166779
805.529	0.0168104
805.607	0.0167111
805.685	0.0167724
805.763	0.0167514
805.841	0.0166223
805.919	0.0167581
805.997	0.0167947
806.075	0.0167049
806.154	0.0166849
806.232	0.0167176
806.310	0.0167914
806.388	0.0168096
806.466	0.0167007
806.544	0.0167369
806.622	0.0168195
806.700	0.0164452
806.779	0.0166948
806.857	0.0167863
806.935	0.0167214
807.013	0.0166195
807.091	0.0167021
807.169	0.0167377
807.247	0.0166409
807.325	0.0167605
807.404	0.0167982
807.482	0.0167300
807.560	0.0168367
807.638	0.0167126
807.716	0.0166711
807.794	0.0166621
807.872	0.0167355
807.950	0.0167266
808.029	0.0165932
808.107	0.0167297
808.185	0.0168327
808.263	0.0167083
808.341	0.0166518
808.419	0.0168064
808.497	0.0167725
808.575	0.0167098
808.654	0.0166321
808.732	0.0167298
808.810	0.0167017
808.888	0.0168368
808.966	0.0168810
809.044	0.0167995
809.122	0.0167783
809.200	0.0166734
809.279	0.0166692
809.357	0.0166705
809.435	0.0168113
809.513	0.0168547
809.591	0.0167447
809.669	0.0166757
809.747	0.0166689
809.825	0.0168179
809.904	0.0168209
809.982	0.0168446
810.060	0.0168447
810.138	0.0167470
810.216	0.0166737
810.294	0.0166630
810.372	0.0167680
810.450	0.0166538
810.529	0.0167012
810.607	0.0167571
810.685	0.0168011
810.763	0.0166910
810.841	0.0166708
810.919	0.0166389
810.997	0.0167448
811.075	0.0167539
811.154	0.0166116
811.232	0.0167166
811.310	0.0167078
811.388	0.0167229
811.466	0.0166019
811.544	0.0167245
811.622	0.0166795
811.700	0.0167896
811.779	0.0167815
811.857	0.0168133
811.935	0.0167347
812.013	0.0167590
812.091	0.0167205
812.169	0.0167120
812.247	0.0167278
812.325	0.0166810
812.404	0.0168253
812.482	0.0167771
812.560	0.0168424
812.638	0.0166779
812.716	0.0167264
812.794	0.0168496
812.872	0.0167005
812.950	0.0166080
813.029	0.0168085
813.107	0.0167714
813.185	0.0167352
813.263	0.0167299
813.341	0.0167596
813.419	0.0168027
813.497	0.0167664
813.575	0.0167085
813.654	0.0168155
813.732	0.0167036
813.810	0.0166107
813.888	0.0168169
813.966	0.0167341
814.044	0.0167465
814.122	0.0168738
814.200	0.0166682
814.279	0.0168620
814.357	0.0168035
814.435	0.0168617
814.513	0.0168669
814.591	0.0168243
814.669	0.0167223
814.747	0.0165889
814.825	0.0166981
814.904	0.0167679
814.982	0.0166059
815.060	0.0167633
815.138	0.0166151
815.216	0.0168300
815.294	0.0165796
815.372	0.0167058
815.450	0.0165647
815.529	0.0166856
815.607	0.0169299
815.685	0.0166332
815.763	0.0166666
815.841	0.0167728
815.919	0.0166113
815.997	0.0167712
816.075	0.0168320
816.154	0.0167929
816.232	0.0167708
816.310	0.0167574
816.388	0.0167297
816.466	0.0167905
816.544	0.0167220
816.622	0.0167564
816.700	0.0166685
816.779	0.0166029
816.857	0.0166203
816.935	0.0165942
817.013	0.0166714
817.091	0.0166289
817.169	0.0166071
817.247	0.0165792
817.325	0.0166931
817.404	0.0165910
817.482	0.0166336
817.560	0.0166554
817.638	0.0166669
817.716	0.0166552
817.794	0.0165715
817.872	0.0166485
817.950	0.0166650
818.029	0.0167283
818.107	0.0168395
818.185	0.0167201
818.263	0.0167616
818.341	0.0168066
818.419	0.0168641
818.497	0.0167490
818.575	0.0167699
818.654	0.0169427
818.732	0.0169466
818.810	0.0168765
818.888	0.0167164
818.966	0.0168552
819.044	0.0169192
819.122	0.0168951
819.200	0.0169179
819.279	0.0169505
819.357	0.0168607
819.435	0.0168593
819.513	0.0168243
819.591	0.0168348
819.669	0.0168145
819.747	0.0168475
819.825	0.0167931
819.904	0.0167381
819.982	0.0168050
820.060	0.0166813
820.138	0.0167297
820.216	0.0167300
820.294	0.0165752
820.372	0.0166100
820.450	0.0166511
820.529	0.0167220
820.607	0.0165810
820.685	0.0165839
820.763	0.0166966
820.841	0.0166543
820.919	0.0165984
820.997	0.0165302
821.075	0.0166716
821.154	0.0166371
821.232	0.0166021
821.310	0.0164886
821.388	0.0166434
821.466	0.0166987
821.544	0.0167163
821.622	0.0166464
821.700	0.0168247
821.779	0.0166929
821.857	0.0167455
821.935	0.0167854
822.013	0.0167574
822.091	0.0167472
822.169	0.0167724
822.247	0.0168318
822.325	0.0168501
822.404	0.0167967
822.482	0.0167527
822.560	0.0167471
822.638	0.0168898
822.716	0.0167323
822.794	0.0169154
822.872	0.0169023
822.950	0.0168445
823.029	0.0168294
823.107	0.0166512
823.185	0.0166759
823.263	0.0165906
823.341	0.0169060
823.419	0.0168131
823.497	0.0167132
823.575	0.0167908
823.654	0.0167574
823.732	0.0167330
823.810	0.0168174
823.888	0.0168764
823.966	0.0167470
824.044	0.0167928
824.122	0.0167236
824.200	0.0168364
824.279	0.0168470
824.357	0.0167748
824.435	0.0167834
824.513	0.0167783
824.591	0.0168227
824.669	0.0168223
824.747	0.0165375
824.825	0.0167296
824.904	0.0168153
824.982	0.0167173
825.060	0.0168112
825.138	0.0166381
825.216	0.0167047
825.294	0.0166048
825.372	0.0165960
825.450	0.0164955
825.529	0.0165756
825.607	0.0166894
825.685	0.0166200
825.763	0.0164435
825.841	0.0164446
825.919	0.0165922
825.997	0.0166376
826.075	0.0164576
826.154	0.0165363
826.232	0.0167106
826.310	0.0167068
826.388	0.0166208
826.466	0.0168118
826.544	0.0167157
826.622	0.0168697
826.700	0.0168574
826.779	0.0168420
826.857	0.0168272
826.935	0.0168778
827.013	0.0168746
827.091	0.0169595
827.169	0.0168904
827.247	0.0168998
827.325	0.0168945
827.404	0.0169883
827.482	0.0170803
827.560	0.0169505
827.638	0.0169003
827.716	0.0169286
827.794	0.0167790
827.872	0.0168549
827.950	0.0168504
828.029	0.0166268
828.107	0.0170393
828.185	0.0170390
828.263	0.0169096
828.341	0.0167754
828.419	0.0167496
828.497	0.0167989
828.575	0.0168214
828.654	0.0165794
828.732	0.0166821
828.810	0.0165249
828.888	0.0165936
828.966	0.0165743
829.044	0.0165604
829.122	0.0165868
829.200	0.0165979
829.279	0.0165949
829.357	0.0165698
829.435	0.0164843
829.513	0.0166317
829.591	0.0164584
829.669	0.0165610
829.747	0.0166936
829.825	0.0164967
829.904	0.0165212
829.982	0.0166102
830.060	0.0166701
830.138	0.0167345
830.216	0.0167665
830.294	0.0166309
830.372	0.0167723
830.450	0.0167623
830.529	0.0168036
830.607	0.0168380
830.685	0.0167001
830.763	0.0168865
830.841	0.0168576
830.919	0.0169141
830.997	0.0169639
831.075	0.0169235
831.154	0.0168682
831.232	0.0168723
831.310	0.0168227
831.388	0.0168140
831.466	0.0168977
831.544	0.0169746
831.622	0.0168865
831.700	0.0169153
831.779	0.0168304
831.857	0.0168214
831.935	0.0167990
832.013	0.0167989
832.091	0.0167618
832.169	0.0169447
832.247	0.0167469
832.325	0.0168327
832.404	0.0168150
832.482	0.0167619
832.560	0.0166802
832.638	0.0168910
832.716	0.0167039
832.794	0.0167233
832.872	0.0165501
832.950	0.0164943
833.029	0.0165498
833.107	0.0165817
833.185	0.0167525
833.263	0.0165142
833.341	0.0166169
833.419	0.0165104
833.497	0.0164311
833.575	0.0165749
833.654	0.0166762
833.732	0.0166814
833.810	0.0167110
833.888	0.0168089
833.966	0.0166055
834.044	0.0168213
834.122	0.0168095
834.200	0.0168659
834.279	0.0166815
834.357	0.0168996
834.435	0.0170551
834.513	0.0170495
834.591	0.0170861
834.669	0.0168415
834.747	0.0169814
834.825	0.0168805
834.904	0.0169278
834.982	0.0169225
835.060	0.0169346
835.138	0.0170079
835.216	0.0169225
835.294	0.0167135
835.372	0.0168681
835.450	0.0167211
835.529	0.0167816
835.607	0.0167175
835.685	0.0166911
835.763	0.0167217
835.841	0.0167123
835.919	0.0166525
835.997	0.0166276
836.075	0.0167230
836.154	0.0165724
836.232	0.0165633
836.310	0.0165932
836.388	0.0165694
836.466	0.0166679
836.544	0.0166213
836.622	0.0165601
836.700	0.0164353
836.779	0.0165559
836.857	0.0165509
836.935	0.0167750
837.013	0.0167361
837.091	0.0165929
837.169	0.0167450
837.247	0.0167032
837.325	0.0167510
837.404	0.0168114
837.482	0.0168240
837.560	0.0167316
837.638	0.0167645
837.716	0.0167569
837.794	0.0168155
837.872	0.0168940
837.950	0.0168076
838.029	0.0168738
838.107	0.0169463
838.185	0.0169913
838.263	0.0168587
838.341	0.0168664
838.419	0.0168314
838.497	0.0167533
838.575	0.0168928
838.654	0.0168426
838.732	0.0168107
838.810	0.0168151
838.888	0.0169588
838.966	0.0168551
839.044	0.0168754
839.122	0.0167889
839.200	0.0168652
839.279	0.0167456
839.357	0.0167709
839.435	0.0167904
839.513	0.0167546
839.591	0.0168292
839.669	0.0166351
839.747	0.0167740
839.825	0.0167976
839.904	0.0167399
839.982	0.0166392
840.060	0.0166473
840.138	0.0167624
840.216	0.0166569
840.294	0.0166964
840.372	0.0166367
840.450	0.0166476
840.529	0.0166605
840.607	0.0165725
840.685	0.0166916
840.763	0.0164921
840.841	0.0164725
840.919	0.0165145
840.997	0.0165039
841.075	0.0165012
841.154	0.0164727
841.232	0.0164657
841.310	0.0164690
841.388	0.0163988
841.466	0.0165444
841.544	0.0165883
841.622	0.0164976
841.700	0.0164827
841.779	0.0166915
841.857	0.0167204
841.935	0.0167647
842.013	0.0167594
842.091	0.0166705
842.169	0.0169239
842.247	0.0169643
842.325	0.0169374
842.404	0.0169515
842.482	0.0171228
842.560	0.0171432
842.638	0.0171506
842.716	0.0170922
842.794	0.0171694
842.872	0.0171613
842.950	0.0171082
843.029	0.0171732
843.107	0.0171036
843.185	0.0170357
843.263	0.0168449
843.341	0.0170558
843.419	0.0170512
843.497	0.0170473
843.575	0.0169267
843.654	0.0169463
843.732	0.0169769
843.810	0.0169232
843.888	0.0167841
843.966	0.0168219
844.044	0.0167848
844.122	0.0166005
844.200	0.0166270
844.279	0.0166614
844.357	0.0165944
844.435	0.0165675
844.513	0.0166397
844.591	0.0165888
844.669	0.0165144
844.747	0.0166988
844.825	0.0165969
844.904	0.0165749
844.982	0.0163731
845.060	0.0163975
845.138	0.0166450
845.216	0.0165401
845.294	0.0164257
845.372	0.0163831
845.450	0.0164539
845.529	0.0163950
845.607	0.0163973
845.685	0.0165273
845.763	0.0164897
845.841	0.0164622
845.919	0.0165099
845.997	0.0166476
846.075	0.0166522
846.154	0.0165016
846.232	0.0162766
846.310	0.0166908
846.388	0.0167413
846.466	0.0165771
846.544	0.0167198
846.622	0.0166621
846.700	0.0168385
846.779	0.0168687
846.857	0.0170437
846.935	0.0168761
847.013	0.0170368
847.091	0.0168984
847.169	0.0170647
847.247	0.0169138
847.325	0.0171432
847.404	0.0171631
847.482	0.0169507
847.560	0.0170939
847.638	0.0170444
847.716	0.0170068
847.794	0.0170382
847.872	0.0171562
847.950	0.0170053
848.029	0.0170380
848.107	0.0171551
848.185	0.0172305
848.263	0.0170528
848.341	0.0169994
848.419	0.0170784
848.497	0.0169636
848.575	0.0168604
848.654	0.0169833
848.732	0.0169778
848.810	0.0169205
848.888	0.0167525
848.966	0.0168344
849.044	0.0167646
849.122	0.0166451
849.200	0.0165982
849.279	0.0166479
849.357	0.0166944
849.435	0.0165861
849.513	0.0165082
849.591	0.0165267
849.669	0.0165118
849.747	0.0165163
849.825	0.0163842
849.904	0.0165508
849.982	0.0164396
850.060	0.0163348
850.138	0.0164581
850.216	0.0163924
850.294	0.0164823
850.372	0.0164368
850.450	0.0165163
850.529	0.0164627
850.607	0.0167204
850.685	0.0166409
850.763	0.0166530
850.841	0.0167088
850.919	0.0166666
850.997	0.0167074
851.075	0.0167133
851.154	0.0167070
851.232	0.0168253
851.310	0.0167989
851.388	0.0168023
851.466	0.0169181
851.544	0.0168679
851.622	0.0167663
851.700	0.0166989
851.779	0.0168271
851.857	0.0169727
851.935	0.0168871
852.013	0.0167912
852.091	0.0169530
852.169	0.0168382
852.247	0.0168774
852.325	0.0167616
852.404	0.0168978
852.482	0.0168947
852.560	0.0169221
852.638	0.0168408
852.716	0.0168713
852.794	0.0169936
852.872	0.0168462
852.950	0.0169237
853.029	0.0168388
853.107	0.0167481
853.185	0.0166373
853.263	0.0168165
853.341	0.0168411
853.419	0.0168018
853.497	0.0166755
853.575	0.0166789
853.654	0.0165163
853.732	0.0165552
853.810	0.0166713
853.888	0.0166064
853.966	0.0168224
854.044	0.0168013
854.122	0.0167384
854.200	0.0166912
854.279	0.0168134
854.357	0.0168532
854.435	0.0168593
854.513	0.0168884
854.591	0.0168834
854.669	0.0166489
854.747	0.0168536
854.825	0.0169360
854.904	0.0168074
854.982	0.0167181
855.060	0.0166763
855.138	0.0167999
855.216	0.0166884
855.294	0.0168429
855.372	0.0166743
855.450	0.0167391
855.529	0.0167757
855.607	0.0166590
855.685	0.0167126
855.763	0.0167867
855.841	0.0166475
855.919	0.0166907
855.997	0.0164909
856.075	0.0165923
856.154	0.0165730
856.232	0.0165533
856.310	0.0165423
856.388	0.0164645
856.466	0.0166468
856.544	0.0166100
856.622	0.0165090
856.700	0.0166348
856.779	0.0167477
856.857	0.0167790
856.935	0.0166352
857.013	0.0166402
857.091	0.0168364
857.169	0.0168125
857.247	0.0168350
857.325	0.0169418
857.404	0.0167752
857.482	0.0169347
857.560	0.0170354
857.638	0.0169943
857.716	0.0170668
857.794	0.0169532
857.872	0.0170573
857.950	0.0170026
858.029	0.0169021
858.107	0.0169016
858.185	0.0169154
858.263	0.0169715
858.341	0.0169375
858.419	0.0169952
858.497	0.0168547
858.575	0.0169302
858.654	0.0167870
858.732	0.0168763
858.810	0.0168163
858.888	0.0168911
858.966	0.0168252
859.044	0.0169433
859.122	0.0166433
859.200	0.0166626
859.279	0.0167498
859.357	0.0167043
859.435	0.0166348
859.513	0.0167218
859.591	0.0165593
859.669	0.0166566
859.747	0.0165919
859.825	0.0165258
859.904	0.0166613
859.982	0.0166911
860.060	0.0165053
860.138	0.0167078
860.216	0.0167119
860.294	0.0167332
860.372	0.0166697
860.450	0.0166015
860.529	0.0166072
860.607	0.0167242
860.685	0.0168452
860.763	0.0167704
860.841	0.0165116
860.919	0.0167677
860.997	0.0169313
861.075	0.0167869
861.154	0.0168427
861.232	0.0169186
861.310	0.0168063
861.388	0.0169346
861.466	0.0169870
861.544	0.0168912
861.622	0.0170068
861.700	0.0169334
861.779	0.0168900
861.857	0.0168591
861.935	0.0169224
862.013	0.0168410
862.091	0.0169292
862.169	0.0167953
862.247	0.0167027
862.325	0.0166823
862.404	0.0167814
862.482	0.0166292
862.560	0.0167493
862.638	0.0167295
862.716	0.0166879
862.794	0.0166531
862.872	0.0169865
862.950	0.0168787
863.029	0.0168188
863.107	0.0168052
863.185	0.0168703
863.263	0.0168354
863.341	0.0167759
863.419	0.0168933
863.497	0.0166971
863.575	0.0166100
863.654	0.0167576
863.732	0.0167967
863.810	0.0167672
863.888	0.0166666
863.966	0.0165244
864.044	0.0166923
864.122	0.0166242
864.200	0.0166436
864.279	0.0165395
864.357	0.0164096
864.435	0.0166188
864.513	0.0167052
864.591	0.0167638
864.669	0.0167246
864.747	0.0166636
864.825	0.0167464
864.904	0.0168657
864.982	0.0168131
865.060	0.0167513
865.138	0.0169897
865.216	0.0168406
865.294	0.0168583
865.372	0.0168007
865.450	0.0167407
865.529	0.0167146
865.607	0.0167897
865.685	0.0167671
865.763	0.0168043
865.841	0.0168194
865.919	0.0167727
865.997	0.0169688
866.075	0.0169117
866.154	0.0168665
866.232	0.0169898
866.310	0.0169247
866.388	0.0169404
866.466	0.0171083
866.544	0.0168181
866.622	0.0167941
866.700	0.0169592
866.779	0.0169931
866.857	0.0169704
866.935	0.0169236
867.013	0.0168223
867.091	0.0169164
867.169	0.0168689
867.247	0.0168875
867.325	0.0167967
867.404	0.0167506
867.482	0.0168772
867.560	0.0168434
867.638	0.0168421
867.716	0.0167519
867.794	0.0167111
867.872	0.0168129
867.950	0.0168789
868.029	0.0168407
868.107	0.0166180
868.185	0.0167492
868.263	0.0166036
868.341	0.0166879
868.419	0.0168740
868.497	0.0166398
868.575	0.0166758
868.654	0.0166371
868.732	0.0167806
868.810	0.0167043
868.888	0.0166577
868.966	0.0168485
869.044	0.0165779
869.122	0.0165899
869.200	0.0164855
869.279	0.0165488
869.357	0.0166692
869.435	0.0165434
869.513	0.0166234
869.591	0.0165752
869.669	0.0166604
869.747	0.0166174
869.825	0.0165573
869.904	0.0167076
869.982	0.0167046
870.060	0.0167044
870.138	0.0166180
870.216	0.0167582
870.294	0.0168530
870.372	0.0167643
870.450	0.0167170
870.529	0.0168613
870.607	0.0168874
870.685	0.0167272
870.763	0.0167992
870.841	0.0167969
870.919	0.0168794
870.997	0.0167805
871.075	0.0167444
871.154	0.0168921
871.232	0.0169041
871.310	0.0168000
871.388	0.0167036
871.466	0.0167683
871.544	0.0168814
871.622	0.0168699
871.700	0.0169236
871.779	0.0168411
871.857	0.0167807
871.935	0.0169387
872.013	0.0168744
872.091	0.0169199
872.169	0.0167966
872.247	0.0168613
872.325	0.0169495
872.404	0.0168518
872.482	0.0168872
872.560	0.0167738
872.638	0.0168362
872.716	0.0168932
872.794	0.0167149
872.872	0.0167310
872.950	0.0167935
873.029	0.0167146
873.107	0.0168184
873.185	0.0168475
873.263	0.0168142
873.341	0.0167116
873.419	0.0168012
873.497	0.0167516
873.575	0.0167754
873.654	0.0166589
873.732	0.0166745
873.810	0.0167062
873.888	0.0166656
873.966	0.0167216
874.044	0.0167411
874.122	0.0166883
874.200	0.0167459
874.279	0.0166898
874.357	0.0166282
874.435	0.0167243
874.513	0.0167368
874.591	0.0167485
874.669	0.0169158
874.747	0.0168198
874.825	0.0168888
874.904	0.0168991
874.982	0.0167562
875.060	0.0167426
875.138	0.0167062
875.216	0.0167353
875.294	0.0167065
875.372	0.0167457
875.450	0.0166160
875.529	0.0167514
875.607	0.0167416
875.685	0.0167593
875.763	0.0167358
875.841	0.0166464
875.919	0.0166372
875.997	0.0167361
876.075	0.0168189
876.154	0.0167500
876.232	0.0166809
876.310	0.0167141
876.388	0.0168438
876.466	0.0168834
876.544	0.0169330
876.622	0.0167744
876.700	0.0166782
876.779	0.0166539
876.857	0.0167130
876.935	0.0169164
877.013	0.0168087
877.091	0.0169161
877.169	0.0168076
877.247	0.0167496
877.325	0.0168608
877.404	0.0167480
877.482	0.0168224
877.560	0.0168607
877.638	0.0169086
877.716	0.0168258
877.794	0.0166594
877.872	0.0167196
877.950	0.0166795
878.029	0.0167632
878.107	0.0167001
878.185	0.0168028
878.263	0.0168078
878.341	0.0166830
878.419	0.0166993
878.497	0.0167889
878.575	0.0167918
878.654	0.0168141
878.732	0.0168039
878.810	0.0167339
878.888	0.0167788
878.966	0.0167031
879.044	0.0167591
879.122	0.0168082
879.200	0.0168380
879.279	0.0166441
879.357	0.0166836
879.435	0.0167004
879.513	0.0168017
879.591	0.0167472
879.669	0.0167201
879.747	0.0167062
879.825	0.0167031
879.904	0.0167873
879.982	0.0167965
880.060	0.0166990
880.138	0.0166975
880.216	0.0167587
880.294	0.0166992
880.372	0.0168314
880.450	0.0169143
880.529	0.0169125
880.607	0.0168824
880.685	0.0167963
880.763	0.0167352
880.841	0.0169743
880.919	0.0167880
880.997	0.0167309
881.075	0.0168190
881.154	0.0166866
881.232	0.0167628
881.310	0.0167540
881.388	0.0167303
881.466	0.0167465
881.544	0.0168212
881.622	0.0167788
881.700	0.0167093
881.779	0.0168732
881.857	0.0167317
881.935	0.0168197
882.013	0.0167171
882.091	0.0166525
882.169	0.0166213
882.247	0.0167581
882.325	0.0167009
882.404	0.0166363
882.482	0.0166268
882.560	0.0167089
882.638	0.0166023
882.716	0.0167015
882.794	0.0166402
882.872	0.0164667
882.950	0.0163730
883.029	0.0163930
883.107	0.0166079
883.185	0.0165758
883.263	0.0166069
883.341	0.0166571
883.419	0.0166946
883.497	0.0165554
883.575	0.0165367
883.654	0.0166830
883.732	0.0166261
883.810	0.0167892
883.888	0.0167123
883.966	0.0165752
884.044	0.0169894
884.122	0.0168264
884.200	0.0168272
884.279	0.0168517
884.357	0.0168378
884.435	0.0167446
884.513	0.0168786
884.591	0.0169533
884.669	0.0170542
884.747	0.0168771
884.825	0.0170795
884.904	0.0169334
884.982	0.0168626
885.060	0.0168966
885.138	0.0169325
885.216	0.0169082
885.294	0.0170114
885.372	0.0168923
885.450	0.0168073
885.529	0.0168781
885.607	0.0169057
885.685	0.0168047
885.763	0.0168279
885.841	0.0168299
885.919	0.0168354
885.997	0.0168531
886.075	0.0168220
886.154	0.0166320
886.232	0.0168951
886.310	0.0168257
886.388	0.0167032
886.466	0.0166691
886.544	0.0167842
886.622	0.0168677
886.700	0.0168212
886.779	0.0166794
886.857	0.0166087
886.935	0.0167057
887.013	0.0167206
887.091	0.0167548
887.169	0.0166949
887.247	0.0166553
887.325	0.0167709
887.404	0.0167567
887.482	0.0165778
887.560	0.0166961
887.638	0.0167153
887.716	0.0166619
887.794	0.0166597
887.872	0.0166154
887.950	0.0167235
888.029	0.0166361
888.107	0.0166898
888.185	0.0165776
888.263	0.0165589
888.341	0.0165791
888.419	0.0166250
888.497	0.0166954
888.575	0.0167184
888.654	0.0165972
888.732	0.0166579
888.810	0.0167098
888.888	0.0166187
888.966	0.0166589
889.044	0.0167647
889.122	0.0166426
889.200	0.0167371
889.279	0.0167587
889.357	0.0168499
889.435	0.0167132
889.513	0.0167305
889.591	0.0166226
889.669	0.0166736
889.747	0.0167060
889.825	0.0166922
889.904	0.0167986
889.982	0.0167518
890.060	0.0167911
890.138	0.0169184
890.216	0.0169355
890.294	0.0169243
890.372	0.0167610
890.450	0.0169538
890.529	0.0168501
890.607	0.0170670
890.685	0.0170611
890.763	0.0169437
890.841	0.0169603
890.919	0.0170622
890.997	0.0169254
891.075	0.0171009
891.154	0.0171173
891.232	0.0169358
891.310	0.0169627
891.388	0.0169054
891.466	0.0168935
891.544	0.0169445
891.622	0.0168509
891.700	0.0168859
891.779	0.0169942
891.857	0.0169588
891.935	0.0168099
892.013	0.0168812
892.091	0.0168237
892.169	0.0168237
892.247	0.0168048
892.325	0.0168202
892.404	0.0168494
892.482	0.0167000
892.560	0.0168346
892.638	0.0167419
892.716	0.0167160
892.794	0.0167587
892.872	0.0168955
892.950	0.0167065
893.029	0.0166740
893.107	0.0167083
893.185	0.0168566
893.263	0.0167140
893.341	0.0167754
893.419	0.0165895
893.497	0.0166422
893.575	0.0167306
893.654	0.0165628
893.732	0.0166692
893.810	0.0166215
893.888	0.0166328
893.966	0.0165069
894.044	0.0166940
894.122	0.0165585
894.200	0.0165884
894.279	0.0167101
894.357	0.0166010
894.435	0.0165911
894.513	0.0166224
894.591	0.0166936
894.669	0.0167075
894.747	0.0167025
894.825	0.0166673
894.904	0.0166105
894.982	0.0166376
895.060	0.0167168
895.138	0.0166846
895.216	0.0166961
895.294	0.0166334
895.372	0.0166386
895.450	0.0167642
895.529	0.0165569
895.607	0.0166632
895.685	0.0167626
895.763	0.0166352
895.841	0.0165929
895.919	0.0166394
895.997	0.0167226
896.075	0.0166949
896.154	0.0167633
896.232	0.0167693
896.310	0.0167196
896.388	0.0168983
896.466	0.0169032
896.544	0.0167305
896.622	0.0167339
896.700	0.0167819
896.779	0.0168581
896.857	0.0167485
896.935	0.0168414
897.013	0.0169261
897.091	0.0169533
897.169	0.0168795
897.247	0.0168787
897.325	0.0168822
897.404	0.0168656
897.482	0.0167723
897.560	0.0169388
897.638	0.0168513
897.716	0.0169611
897.794	0.0168219
897.872	0.0169501
897.950	0.0170149
898.029	0.0169508
898.107	0.0168739
898.185	0.0169112
898.263	0.0169146
898.341	0.0168939
898.419	0.0169273
898.497	0.0167085
898.575	0.0169044
898.654	0.0167886
898.732	0.0167731
898.810	0.0168376
898.888	0.0168851
898.966	0.0165257
899.044	0.0166900
899.122	0.0166825
899.200	0.0167510
899.279	0.0166177
899.357	0.0167336
899.435	0.0166190
899.513	0.0165768
899.591	0.0166199
899.669	0.0166940
899.747	0.0166360
899.825	0.0166520
899.904	0.0166789
899.982	0.0166535
900.060	0.0167202
900.138	0.0166481
900.216	0.0165807
900.294	0.0167233
900.372	0.0167274
900.450	0.0167149
900.529	0.0168801
900.607	0.0167309
900.685	0.0167113
900.763	0.0165963
900.841	0.0167911
900.919	0.0166859
900.997	0.0167744
901.075	0.0166959
901.154	0.0167599
901.232	0.0167685
901.310	0.0167740
901.388	0.0168197
901.466	0.0168136
901.544	0.0168076
901.622	0.0168427
901.700	0.0168538
901.779	0.0168388
901.857	0.0168382
901.935	0.0167111
902.013	0.0168713
902.091	0.0168288
902.169	0.0168694
902.247	0.0167606
902.325	0.0167696
902.404	0.0168826
902.482	0.0168361
902.560	0.0167590
902.638	0.0166451
902.716	0.0166335
902.794	0.0166681
902.872	0.0166394
902.950	0.0167574
903.029	0.0167377
903.107	0.0167125
903.185	0.0165721
903.263	0.0167355
903.341	0.0166811
903.419	0.0167044
903.497	0.0166293
903.575	0.0166174
903.654	0.0167470
903.732	0.0166375
903.810	0.0166734
903.888	0.0167490
903.966	0.0166628
904.044	0.0167922
904.122	0.0167596
904.200	0.0166311
904.279	0.0167113
904.357	0.0168332
904.435	0.0168961
904.513	0.0168326
904.591	0.0169778
904.669	0.0169729
904.747	0.0168993
904.825	0.0168766
904.904	0.0169334
904.982	0.0170771
905.060	0.0170427
905.138	0.0169738
905.216	0.0171303
905.294	0.0170795
905.372	0.0167902
905.450	0.0170481
905.529	0.0168665
905.607	0.0170212
905.685	0.0168094
905.763	0.0168882
905.841	0.0167979
905.919	0.0166450
905.997	0.0167694
906.075	0.0166040
906.154	0.0168761
906.232	0.0166177
906.310	0.0165620
906.388	0.0164371
906.466	0.0165646
906.544	0.0166447
906.622	0.0164268
906.700	0.0165527
906.779	0.0166042
906.857	0.0165707
906.935	0.0166155
907.013	0.0165134
907.091	0.0165931
907.169	0.0166343
907.247	0.0165909
907.325	0.0167470
907.404	0.0165663
907.482	0.0167022
907.560	0.0167235
907.638	0.0168066
907.716	0.0166724
907.794	0.0168707
907.872	0.0169381
907.950	0.0169041
908.029	0.0167801
908.107	0.0169956
908.185	0.0168002
908.263	0.0166880
908.341	0.0168076
908.419	0.0168019
908.497	0.0168092
908.575	0.0168825
908.654	0.0168135
908.732	0.0167676
908.810	0.0167610
908.888	0.0167656
908.966	0.0165948
909.044	0.0166663
909.122	0.0166077
909.200	0.0165853
909.279	0.0167018
909.357	0.0165887
909.435	0.0166528
909.513	0.0165707
909.591	0.0165347
909.669	0.0165491
909.747	0.0164845
909.825	0.0164606
909.904	0.0164777
909.982	0.0165209
910.060	0.0165504
910.138	0.0164541
910.216	0.0165948
910.294	0.0165714
910.372	0.0166289
910.450	0.0166455
910.529	0.0168091
910.607	0.0167313
910.685	0.0166315
910.763	0.0167770
910.841	0.0168726
910.919	0.0168256
910.997	0.0167854
911.075	0.0168004
911.154	0.0167891
911.232	0.0169894
911.310	0.0169279
911.388	0.0169962
911.466	0.0169727
911.544	0.0170429
911.622	0.0168317
911.700	0.0168688
911.779	0.0169604
911.857	0.0169942
911.935	0.0169238
912.013	0.0168303
912.091	0.0168925
912.169	0.0168746
912.247	0.0168427
912.325	0.0169083
912.404	0.0167588
912.482	0.0167345
912.560	0.0168517
912.638	0.0166117
912.716	0.0166647
912.794	0.0167886
912.872	0.0166298
912.950	0.0166993
913.029	0.0166398
913.107	0.0165644
913.185	0.0165702
913.263	0.0166658
913.341	0.0164493
913.419	0.0165002
913.497	0.0166924
913.575	0.0165234
913.654	0.0165405
913.732	0.0167253
913.810	0.0167692
913.888	0.0167500
913.966	0.0167384
914.044	0.0166750
914.122	0.0167892
914.200	0.0166766
914.279	0.0165630
914.357	0.0167366
914.435	0.0167762
914.513	0.0168459
914.591	0.0168738
914.669	0.0167020
914.747	0.0168080
914.825	0.0169009
914.904	0.0167728
914.982	0.0168215
915.060	0.0166866
915.138	0.0166914
915.216	0.0168082
915.294	0.0167158
915.372	0.0166454
915.450	0.0167141
915.529	0.0167423
915.607	0.0166955
915.685	0.0166385
915.763	0.0166617
915.841	0.0166294
915.919	0.0166280
915.997	0.0166550
916.075	0.0165712
916.154	0.0165099
916.232	0.0166766
916.310	0.0165971
916.388	0.0166677
916.466	0.0166700
916.544	0.0168024
916.622	0.0167387
916.700	0.0166933
916.779	0.0166823
916.857	0.0166835
916.935	0.0167548
917.013	0.0166903
917.091	0.0167905
917.169	0.0167513
917.247	0.0167557
917.325	0.0168024
917.404	0.0167654
917.482	0.0167551
917.560	0.0168713
917.638	0.0168962
917.716	0.0167494
917.794	0.0167856
917.872	0.0166190
917.950	0.0166747
918.029	0.0166763
918.107	0.0167892
918.185	0.0168480
918.263	0.0168410
918.341	0.0166801
918.419	0.0167349
918.497	0.0168127
918.575	0.0167790
918.654	0.0167085
918.732	0.0168874
918.810	0.0168191
918.888	0.0168159
918.966	0.0166914
919.044	0.0167960
919.122	0.0168783
919.200	0.0168335
919.279	0.0169500
919.357	0.0166965
919.435	0.0170078
919.513	0.0167946
919.591	0.0170077
919.669	0.0169077
919.747	0.0168990
919.825	0.0168887
919.904	0.0170215
