06/01/2022	17:45:07	Ver.	4.1	UNKNOWN
Optical Delay	539.993571	Delta X		0.078125	Sweeps	1	Scan Rate	0/0
Coordinates	Axis 1	NaN	Axis 2	NaN	Axis 3	NaN	Axis 4	NaN	Axis 5	NaN	Axis 6	0.000000
TX Power	0.000000	RX Power	0.000000

539.994	0.0165704
540.072	0.0166534
540.150	0.0166507
540.228	0.0165733
540.306	0.0165154
540.384	0.0165374
540.462	0.0166373
540.540	0.0166039
540.619	0.0165085
540.697	0.0164458
540.775	0.0165946
540.853	0.0165970
540.931	0.0165637
541.009	0.0165110
541.087	0.0165832
541.165	0.0163557
541.244	0.0166373
541.322	0.0165501
541.400	0.0166137
541.478	0.0166419
541.556	0.0165682
541.634	0.0164956
541.712	0.0165157
541.790	0.0165542
541.869	0.0165684
541.947	0.0165626
542.025	0.0166837
542.103	0.0164774
542.181	0.0165129
542.259	0.0165656
542.337	0.0165286
542.415	0.0165601
542.494	0.0166011
542.572	0.0165730
542.650	0.0164458
542.728	0.0164506
542.806	0.0166128
542.884	0.0165968
542.962	0.0167062
543.040	0.0167109
543.119	0.0167359
543.197	0.0165933
543.275	0.0167233
543.353	0.0165281
543.431	0.0165413
543.509	0.0165057
543.587	0.0166019
543.665	0.0166955
543.744	0.0166903
543.822	0.0164982
543.900	0.0165777
543.978	0.0165534
544.056	0.0166563
544.134	0.0165300
544.212	0.0166154
544.290	0.0165437
544.369	0.0166161
544.447	0.0167070
544.525	0.0166027
544.603	0.0165436
544.681	0.0166540
544.759	0.0165557
544.837	0.0165953
544.915	0.0166315
544.994	0.0165007
545.072	0.0167406
545.150	0.0166063
545.228	0.0165572
545.306	0.0166393
545.384	0.0165982
545.462	0.0165860
545.540	0.0166370
545.619	0.0167101
545.697	0.0166412
545.775	0.0165681
545.853	0.0167001
545.931	0.0166451
546.009	0.0167001
546.087	0.0168000
546.165	0.0165485
546.244	0.0167849
546.322	0.0166644
546.400	0.0167612
546.478	0.0166980
546.556	0.0166550
546.634	0.0166540
546.712	0.0167087
546.790	0.0166485
546.869	0.0166374
546.947	0.0166457
547.025	0.0168098
547.103	0.0167723
547.181	0.0166669
547.259	0.0167216
547.337	0.0166679
547.415	0.0166591
547.494	0.0167509
547.572	0.0167195
547.650	0.0166766
547.728	0.0166729
547.806	0.0165894
547.884	0.0167178
547.962	0.0167091
548.040	0.0166005
548.119	0.0166309
548.197	0.0167001
548.275	0.0166916
548.353	0.0166757
548.431	0.0165855
548.509	0.0166700
548.587	0.0165334
548.665	0.0165133
548.744	0.0166903
548.822	0.0166061
548.900	0.0165065
548.978	0.0165739
549.056	0.0166177
549.134	0.0165240
549.212	0.0165651
549.290	0.0165054
549.369	0.0165149
549.447	0.0166077
549.525	0.0165421
549.603	0.0165717
549.681	0.0165467
549.759	0.0163970
549.837	0.0164229
549.915	0.0165807
549.994	0.0164954
550.072	0.0164900
550.150	0.0164008
550.228	0.0165683
550.306	0.0163097
550.384	0.0165360
550.462	0.0165591
550.540	0.0163662
550.619	0.0164785
550.697	0.0166441
550.775	0.0165144
550.853	0.0164454
550.931	0.0165441
551.009	0.0163847
551.087	0.0165968
551.165	0.0164515
551.244	0.0165091
551.322	0.0164880
551.400	0.0165731
551.478	0.0164433
551.556	0.0164928
551.634	0.0165240
551.712	0.0165738
551.790	0.0164745
551.869	0.0164637
551.947	0.0163836
552.025	0.0166067
552.103	0.0164286
552.181	0.0163119
552.259	0.0164423
552.337	0.0164337
552.415	0.0164318
552.494	0.0163683
552.572	0.0165614
552.650	0.0164077
552.728	0.0163258
552.806	0.0166501
552.884	0.0165092
552.962	0.0164378
553.040	0.0163957
553.119	0.0163637
553.197	0.0164168
553.275	0.0165808
553.353	0.0165353
553.431	0.0164041
553.509	0.0165362
553.587	0.0165173
553.665	0.0164394
553.744	0.0165696
553.822	0.0163845
553.900	0.0164295
553.978	0.0165385
554.056	0.0164536
554.134	0.0161994
554.212	0.0161974
554.290	0.0164021
554.369	0.0164909
554.447	0.0163878
554.525	0.0163729
554.603	0.0164143
554.681	0.0162981
554.759	0.0162585
554.837	0.0164297
554.915	0.0162952
554.994	0.0162663
555.072	0.0163165
555.150	0.0163335
555.228	0.0162845
555.306	0.0164590
555.384	0.0162843
555.462	0.0163247
555.540	0.0163159
555.619	0.0162891
555.697	0.0163598
555.775	0.0164183
555.853	0.0164188
555.931	0.0163519
556.009	0.0163902
556.087	0.0164309
556.165	0.0164870
556.244	0.0165329
556.322	0.0165201
556.400	0.0163547
556.478	0.0162781
556.556	0.0164181
556.634	0.0166230
556.712	0.0165385
556.790	0.0165386
556.869	0.0163900
556.947	0.0165561
557.025	0.0165173
557.103	0.0164431
557.181	0.0165972
557.259	0.0166762
557.337	0.0165353
557.415	0.0166278
557.494	0.0164754
557.572	0.0166083
557.650	0.0165649
557.728	0.0165913
557.806	0.0166244
557.884	0.0166168
557.962	0.0164911
558.040	0.0166321
558.119	0.0166447
558.197	0.0167336
558.275	0.0165553
558.353	0.0166586
558.431	0.0167378
558.509	0.0167419
558.587	0.0165347
558.665	0.0165069
558.744	0.0166683
558.822	0.0166382
558.900	0.0166480
558.978	0.0166206
559.056	0.0166991
559.134	0.0166135
559.212	0.0165239
559.290	0.0166159
559.369	0.0164586
559.447	0.0164861
559.525	0.0165691
559.603	0.0165687
559.681	0.0164277
559.759	0.0164865
559.837	0.0165279
559.915	0.0164337
559.994	0.0165814
560.072	0.0164233
560.150	0.0163926
560.228	0.0164005
560.306	0.0165668
560.384	0.0164771
560.462	0.0164037
560.540	0.0165623
560.619	0.0164223
560.697	0.0164465
560.775	0.0164909
560.853	0.0165093
560.931	0.0164708
561.009	0.0164268
561.087	0.0164851
561.165	0.0165183
561.244	0.0165681
561.322	0.0164656
561.400	0.0164973
561.478	0.0165484
561.556	0.0165257
561.634	0.0166187
561.712	0.0164799
561.790	0.0164148
561.869	0.0165132
561.947	0.0166051
562.025	0.0164717
562.103	0.0164450
562.181	0.0163848
562.259	0.0164727
562.337	0.0165945
562.415	0.0165203
562.494	0.0165546
562.572	0.0165467
562.650	0.0165632
562.728	0.0164788
562.806	0.0165565
562.884	0.0164395
562.962	0.0163743
563.040	0.0165767
563.119	0.0166332
563.197	0.0165213
563.275	0.0164430
563.353	0.0165253
563.431	0.0164868
563.509	0.0164994
563.587	0.0165263
563.665	0.0164929
563.744	0.0164803
563.822	0.0165142
563.900	0.0165315
563.978	0.0164973
564.056	0.0165591
564.134	0.0165710
564.212	0.0165526
564.290	0.0165160
564.369	0.0165270
564.447	0.0165175
564.525	0.0165130
564.603	0.0165580
564.681	0.0164540
564.759	0.0164750
564.837	0.0166650
564.915	0.0168232
564.994	0.0165633
565.072	0.0164845
565.150	0.0164439
565.228	0.0165676
565.306	0.0165760
565.384	0.0165184
565.462	0.0163008
565.540	0.0164879
565.619	0.0165383
565.697	0.0165107
565.775	0.0164742
565.853	0.0163683
565.931	0.0165279
566.009	0.0165392
566.087	0.0164597
566.165	0.0164389
566.244	0.0164951
566.322	0.0165444
566.400	0.0164089
566.478	0.0163716
566.556	0.0164240
566.634	0.0165232
566.712	0.0165549
566.790	0.0165499
566.869	0.0165705
566.947	0.0164165
567.025	0.0165588
567.103	0.0164782
567.181	0.0166285
567.259	0.0164907
567.337	0.0164153
567.415	0.0163788
567.494	0.0164061
567.572	0.0165249
567.650	0.0164796
567.728	0.0164442
567.806	0.0164635
567.884	0.0164581
567.962	0.0163960
568.040	0.0164486
568.119	0.0163900
568.197	0.0163348
568.275	0.0164365
568.353	0.0163087
568.431	0.0163931
568.509	0.0163408
568.587	0.0162054
568.665	0.0163203
568.744	0.0165723
568.822	0.0164783
568.900	0.0164597
568.978	0.0163726
569.056	0.0164203
569.134	0.0164283
569.212	0.0164380
569.290	0.0163388
569.369	0.0164382
569.447	0.0163295
569.525	0.0164230
569.603	0.0163460
569.681	0.0164075
569.759	0.0164409
569.837	0.0163329
569.915	0.0164404
569.994	0.0164098
570.072	0.0163560
570.150	0.0164484
570.228	0.0164618
570.306	0.0165387
570.384	0.0164307
570.462	0.0164707
570.540	0.0164758
570.619	0.0164170
570.697	0.0163115
570.775	0.0163155
570.853	0.0164516
570.931	0.0164248
571.009	0.0164867
571.087	0.0162852
571.165	0.0163582
571.244	0.0163957
571.322	0.0163448
571.400	0.0164036
571.478	0.0163460
571.556	0.0164848
571.634	0.0165249
571.712	0.0162768
571.790	0.0163390
571.869	0.0164739
571.947	0.0164212
572.025	0.0164306
572.103	0.0165314
572.181	0.0163731
572.259	0.0165649
572.337	0.0165849
572.415	0.0164419
572.494	0.0164830
572.572	0.0165431
572.650	0.0165617
572.728	0.0166654
572.806	0.0165623
572.884	0.0166617
572.962	0.0167324
573.040	0.0167071
573.119	0.0165991
573.197	0.0168261
573.275	0.0166873
573.353	0.0167985
573.431	0.0168278
573.509	0.0169770
573.587	0.0168134
573.665	0.0169017
573.744	0.0169484
573.822	0.0169827
573.900	0.0169948
573.978	0.0170090
574.056	0.0169557
574.134	0.0168561
574.212	0.0168789
574.290	0.0167448
574.369	0.0168680
574.447	0.0168049
574.525	0.0168016
574.603	0.0166631
574.681	0.0166265
574.759	0.0166979
574.837	0.0167307
574.915	0.0166719
574.994	0.0166905
575.072	0.0167583
575.150	0.0167569
575.228	0.0166857
575.306	0.0169489
575.384	0.0169512
575.462	0.0168969
575.540	0.0169789
575.619	0.0169553
575.697	0.0168915
575.775	0.0168481
575.853	0.0167743
575.931	0.0167112
576.009	0.0167622
576.087	0.0166006
576.165	0.0166438
576.244	0.0166972
576.322	0.0166883
576.400	0.0164888
576.478	0.0163632
576.556	0.0165788
576.634	0.0165617
576.712	0.0165777
576.790	0.0164072
576.869	0.0162978
576.947	0.0164430
577.025	0.0162894
577.103	0.0163152
577.181	0.0163142
577.259	0.0163186
577.337	0.0161428
577.415	0.0162605
577.494	0.0163330
577.572	0.0161967
577.650	0.0162926
577.728	0.0163981
577.806	0.0162478
577.884	0.0161500
577.962	0.0162849
578.040	0.0162001
578.119	0.0163248
578.197	0.0162441
578.275	0.0163557
578.353	0.0162815
578.431	0.0161826
578.509	0.0163123
578.587	0.0162861
578.665	0.0161996
578.744	0.0163799
578.822	0.0163337
578.900	0.0161983
578.978	0.0163055
579.056	0.0163914
579.134	0.0162489
579.212	0.0161932
579.290	0.0162745
579.369	0.0163460
579.447	0.0163146
579.525	0.0164644
579.603	0.0163345
579.681	0.0163269
579.759	0.0162614
579.837	0.0162385
579.915	0.0163875
579.994	0.0162938
580.072	0.0165031
580.150	0.0164124
580.228	0.0164091
580.306	0.0162797
580.384	0.0163548
580.462	0.0164050
580.540	0.0164256
580.619	0.0163039
580.697	0.0162978
580.775	0.0163902
580.853	0.0163537
580.931	0.0163255
581.009	0.0162222
581.087	0.0161708
581.165	0.0162439
581.244	0.0162844
581.322	0.0162150
581.400	0.0162071
581.478	0.0162820
581.556	0.0161869
581.634	0.0162487
581.712	0.0162627
581.790	0.0163398
581.869	0.0160833
581.947	0.0163725
582.025	0.0162212
582.103	0.0163297
582.181	0.0163489
582.259	0.0162406
582.337	0.0164362
582.415	0.0163888
582.494	0.0163618
582.572	0.0164241
582.650	0.0164349
582.728	0.0163052
582.806	0.0163914
582.884	0.0163537
582.962	0.0164644
583.040	0.0163046
583.119	0.0163106
583.197	0.0164841
583.275	0.0164137
583.353	0.0163976
583.431	0.0163322
583.509	0.0164700
583.587	0.0164762
583.665	0.0163268
583.744	0.0164105
583.822	0.0163519
583.900	0.0164468
583.978	0.0165187
584.056	0.0165239
584.134	0.0165835
584.212	0.0165934
584.290	0.0165098
584.369	0.0165823
584.447	0.0166601
584.525	0.0165402
584.603	0.0165676
584.681	0.0165282
584.759	0.0165536
584.837	0.0165929
584.915	0.0165643
584.994	0.0164954
585.072	0.0165525
585.150	0.0164675
585.228	0.0165214
585.306	0.0165055
585.384	0.0164134
585.462	0.0163660
585.540	0.0166211
585.619	0.0167027
585.697	0.0165028
585.775	0.0163177
585.853	0.0164712
585.931	0.0166084
586.009	0.0165276
586.087	0.0165607
586.165	0.0165856
586.244	0.0164390
586.322	0.0165714
586.400	0.0164609
586.478	0.0164137
586.556	0.0165206
586.634	0.0166197
586.712	0.0165126
586.790	0.0165831
586.869	0.0164964
586.947	0.0165156
587.025	0.0165473
587.103	0.0165578
587.181	0.0164929
587.259	0.0164977
587.337	0.0165291
587.415	0.0163748
587.494	0.0165977
587.572	0.0164824
587.650	0.0165724
587.728	0.0164413
587.806	0.0165944
587.884	0.0165720
587.962	0.0164764
588.040	0.0165282
588.119	0.0163987
588.197	0.0164934
588.275	0.0165765
588.353	0.0165106
588.431	0.0165088
588.509	0.0163901
588.587	0.0165171
588.665	0.0165723
588.744	0.0164331
588.822	0.0165526
588.900	0.0165974
588.978	0.0163285
589.056	0.0164359
589.134	0.0163477
589.212	0.0164845
589.290	0.0163070
589.369	0.0163831
589.447	0.0163927
589.525	0.0163586
589.603	0.0164425
589.681	0.0163723
589.759	0.0162946
589.837	0.0164764
589.915	0.0163486
589.994	0.0164459
590.072	0.0164763
590.150	0.0164991
590.228	0.0163776
590.306	0.0165726
590.384	0.0166252
590.462	0.0165849
590.540	0.0165394
590.619	0.0167030
590.697	0.0164468
590.775	0.0164667
590.853	0.0164625
590.931	0.0166531
591.009	0.0164622
591.087	0.0164722
591.165	0.0166747
591.244	0.0165791
591.322	0.0163441
591.400	0.0164414
591.478	0.0164291
591.556	0.0166264
591.634	0.0165355
591.712	0.0163917
591.790	0.0166694
591.869	0.0166822
591.947	0.0166864
592.025	0.0167429
592.103	0.0168796
592.181	0.0170340
592.259	0.0169621
592.337	0.0169755
592.415	0.0171324
592.494	0.0172919
592.572	0.0171304
592.650	0.0171191
592.728	0.0173335
592.806	0.0171195
592.884	0.0168881
592.962	0.0168977
593.040	0.0170096
593.119	0.0167281
593.197	0.0166267
593.275	0.0164725
593.353	0.0163207
593.431	0.0162234
593.509	0.0160497
593.587	0.0159618
593.665	0.0158409
593.744	0.0157884
593.822	0.0158465
593.900	0.0158650
593.978	0.0159422
594.056	0.0159414
594.134	0.0159789
594.212	0.0163233
594.290	0.0164574
594.369	0.0165146
594.447	0.0166378
594.525	0.0167774
594.603	0.0170004
594.681	0.0172211
594.759	0.0172690
594.837	0.0174345
594.915	0.0175525
594.994	0.0174917
595.072	0.0175494
595.150	0.0176413
595.228	0.0173062
595.306	0.0173930
595.384	0.0172389
595.462	0.0171156
595.540	0.0168538
595.619	0.0166089
595.697	0.0164277
595.775	0.0161994
595.853	0.0159276
595.931	0.0156908
596.009	0.0154955
596.087	0.0153811
596.165	0.0153233
596.244	0.0150906
596.322	0.0150007
596.400	0.0150368
596.478	0.0149639
596.556	0.0151019
596.634	0.0152598
596.712	0.0153313
596.790	0.0154314
596.869	0.0157019
596.947	0.0159070
597.025	0.0161069
597.103	0.0162036
597.181	0.0165160
597.259	0.0167359
597.337	0.0167439
597.415	0.0170247
597.494	0.0171674
597.572	0.0174421
597.650	0.0174126
597.728	0.0175710
597.806	0.0177190
597.884	0.0177808
597.962	0.0179980
598.040	0.0178331
598.119	0.0180680
598.197	0.0180862
598.275	0.0179847
598.353	0.0178764
598.431	0.0176315
598.509	0.0178475
598.587	0.0177346
598.665	0.0175874
598.744	0.0175838
598.822	0.0173173
598.900	0.0171688
598.978	0.0170543
599.056	0.0167223
599.134	0.0166284
599.212	0.0163894
599.290	0.0161704
599.369	0.0159245
599.447	0.0156313
599.525	0.0154510
599.603	0.0152947
599.681	0.0149839
599.759	0.0149313
599.837	0.0148028
599.915	0.0146296
599.994	0.0147136
600.072	0.0147729
600.150	0.0147919
600.228	0.0148515
600.306	0.0150000
600.384	0.0150311
600.462	0.0153250
600.540	0.0154519
600.619	0.0156041
600.697	0.0158344
600.775	0.0160638
600.853	0.0163601
600.931	0.0165769
601.009	0.0167162
601.087	0.0169942
601.165	0.0169848
601.244	0.0171324
601.322	0.0173766
601.400	0.0172873
601.478	0.0174573
601.556	0.0175313
601.634	0.0174847
601.712	0.0175316
601.790	0.0175854
601.869	0.0174761
601.947	0.0174886
602.025	0.0175685
602.103	0.0176263
602.181	0.0176293
602.259	0.0176055
602.337	0.0176842
602.415	0.0175588
602.494	0.0175251
602.572	0.0175187
602.650	0.0174217
602.728	0.0173000
602.806	0.0171993
602.884	0.0170526
602.962	0.0169164
603.040	0.0167857
603.119	0.0166658
603.197	0.0164836
603.275	0.0162726
603.353	0.0159608
603.431	0.0159086
603.509	0.0158468
603.587	0.0156551
603.665	0.0155994
603.744	0.0153529
603.822	0.0152676
603.900	0.0151839
603.978	0.0152599
604.056	0.0149719
604.134	0.0149340
604.212	0.0149485
604.290	0.0149728
604.369	0.0150543
604.447	0.0151792
604.525	0.0152934
604.603	0.0155035
604.681	0.0156894
604.759	0.0158910
604.837	0.0161388
604.915	0.0163940
604.994	0.0165334
605.072	0.0168229
605.150	0.0169890
605.228	0.0172588
605.306	0.0173310
605.384	0.0175408
605.462	0.0176763
605.540	0.0177399
605.619	0.0177944
605.697	0.0178454
605.775	0.0179243
605.853	0.0179202
605.931	0.0179124
606.009	0.0178426
606.087	0.0178471
606.165	0.0177831
606.244	0.0177367
606.322	0.0177180
606.400	0.0175426
606.478	0.0172585
606.556	0.0173199
606.634	0.0171407
606.712	0.0169727
606.790	0.0166703
606.869	0.0166270
606.947	0.0165359
607.025	0.0163094
607.103	0.0161813
607.181	0.0161289
607.259	0.0161474
607.337	0.0159691
607.415	0.0160063
607.494	0.0160132
607.572	0.0159846
607.650	0.0159045
607.728	0.0158694
607.806	0.0159766
607.884	0.0159605
607.962	0.0158676
608.040	0.0160027
608.119	0.0161024
608.197	0.0159995
608.275	0.0160294
608.353	0.0159050
608.431	0.0157726
608.509	0.0157649
608.587	0.0157252
608.665	0.0155495
608.744	0.0155357
608.822	0.0155093
608.900	0.0153912
608.978	0.0154680
609.056	0.0154152
609.134	0.0155956
609.212	0.0153844
609.290	0.0156049
609.369	0.0157079
609.447	0.0158284
609.525	0.0159309
609.603	0.0160283
609.681	0.0160439
609.759	0.0163885
609.837	0.0164152
609.915	0.0164534
609.994	0.0167278
610.072	0.0169015
610.150	0.0170932
610.228	0.0171449
610.306	0.0175536
610.384	0.0177294
610.462	0.0178599
610.540	0.0181828
610.619	0.0183243
610.697	0.0185833
610.775	0.0187878
610.853	0.0188293
610.931	0.0189662
611.009	0.0190229
611.087	0.0191126
611.165	0.0192415
611.244	0.0191718
611.322	0.0191978
611.400	0.0191603
611.478	0.0190704
611.556	0.0189090
611.634	0.0187040
611.712	0.0184145
611.790	0.0182476
611.869	0.0177421
611.947	0.0174493
612.025	0.0171133
612.103	0.0165907
612.181	0.0161137
612.259	0.0155766
612.337	0.0152517
612.415	0.0146915
612.494	0.0142134
612.572	0.0140914
612.650	0.0138329
612.728	0.0133672
612.806	0.0131428
612.884	0.0129591
612.962	0.0129304
613.040	0.0128348
613.119	0.0129543
613.197	0.0130103
613.275	0.0129873
613.353	0.0131882
613.431	0.0133690
613.509	0.0136356
613.587	0.0141413
613.665	0.0143055
613.744	0.0145926
613.822	0.0150912
613.900	0.0155547
613.978	0.0159090
614.056	0.0163304
614.134	0.0167227
614.212	0.0172304
614.290	0.0176251
614.369	0.0178800
614.447	0.0183552
614.525	0.0185992
614.603	0.0189917
614.681	0.0192377
614.759	0.0194508
614.837	0.0196284
614.915	0.0197185
614.994	0.0198563
615.072	0.0197630
615.150	0.0199365
615.228	0.0199876
615.306	0.0197955
615.384	0.0198518
615.462	0.0198125
615.540	0.0195756
615.619	0.0193885
615.697	0.0191279
615.775	0.0187833
615.853	0.0187116
615.931	0.0182452
616.009	0.0179854
616.087	0.0176673
616.165	0.0172530
616.244	0.0169563
616.322	0.0164803
616.400	0.0160373
616.478	0.0158385
616.556	0.0155655
616.634	0.0153024
616.712	0.0149084
616.790	0.0146825
616.869	0.0145550
616.947	0.0141658
617.025	0.0139945
617.103	0.0138757
617.181	0.0136390
617.259	0.0137224
617.337	0.0135833
617.415	0.0135368
617.494	0.0135889
617.572	0.0137040
617.650	0.0135870
617.728	0.0137502
617.806	0.0139878
617.884	0.0141890
617.962	0.0143845
618.040	0.0147187
618.119	0.0150665
618.197	0.0154913
618.275	0.0157003
618.353	0.0160938
618.431	0.0165072
618.509	0.0167392
618.587	0.0170379
618.665	0.0171704
618.744	0.0173209
618.822	0.0174146
618.900	0.0175752
618.978	0.0175078
619.056	0.0176231
619.134	0.0175866
619.212	0.0176777
619.290	0.0177127
619.369	0.0178208
619.447	0.0180794
619.525	0.0181045
619.603	0.0182771
619.681	0.0185767
619.759	0.0185381
619.837	0.0186405
619.915	0.0188203
619.994	0.0188358
620.072	0.0188229
620.150	0.0188337
620.228	0.0187600
620.306	0.0185270
620.384	0.0183612
620.462	0.0179135
620.540	0.0176705
620.619	0.0175761
620.697	0.0172797
620.775	0.0169785
620.853	0.0165885
620.931	0.0164471
621.009	0.0161733
621.087	0.0159778
621.165	0.0160410
621.244	0.0156567
621.322	0.0157565
621.400	0.0154979
621.478	0.0152775
621.556	0.0152784
621.634	0.0153561
621.712	0.0152067
621.790	0.0150649
621.869	0.0151240
621.947	0.0149878
622.025	0.0151106
622.103	0.0151572
622.181	0.0151250
622.259	0.0153054
622.337	0.0152614
622.415	0.0154118
622.494	0.0155801
622.572	0.0158025
622.650	0.0159796
622.728	0.0159774
622.806	0.0162460
622.884	0.0163286
622.962	0.0162981
623.040	0.0163483
623.119	0.0164886
623.197	0.0166418
623.275	0.0165405
623.353	0.0166309
623.431	0.0167944
623.509	0.0168852
623.587	0.0168926
623.665	0.0169698
623.744	0.0169379
623.822	0.0171193
623.900	0.0172526
623.978	0.0172532
624.056	0.0172016
624.134	0.0173230
624.212	0.0172209
624.290	0.0172633
624.369	0.0172359
624.447	0.0174359
624.525	0.0173275
624.603	0.0174390
624.681	0.0174877
624.759	0.0172608
624.837	0.0172507
624.915	0.0173498
624.994	0.0172411
625.072	0.0171970
625.150	0.0171157
625.228	0.0172473
625.306	0.0170293
625.384	0.0168023
625.462	0.0168377
625.540	0.0165665
625.619	0.0163617
625.697	0.0161200
625.775	0.0159528
625.853	0.0156451
625.931	0.0156098
626.009	0.0154084
626.087	0.0152836
626.165	0.0150703
626.244	0.0150186
626.322	0.0151424
626.400	0.0150660
626.478	0.0149400
626.556	0.0149767
626.634	0.0149174
626.712	0.0150352
626.790	0.0151794
626.869	0.0152174
626.947	0.0151315
627.025	0.0152124
627.103	0.0154221
627.181	0.0154811
627.259	0.0156731
627.337	0.0158964
627.415	0.0160963
627.494	0.0162396
627.572	0.0165549
627.650	0.0168301
627.728	0.0169809
627.806	0.0174885
627.884	0.0177042
627.962	0.0180748
628.040	0.0182641
628.119	0.0184120
628.197	0.0185442
628.275	0.0186247
628.353	0.0186573
628.431	0.0186317
628.509	0.0187067
628.587	0.0186285
628.665	0.0185442
628.744	0.0185146
628.822	0.0183633
628.900	0.0184314
628.978	0.0184626
629.056	0.0183166
629.134	0.0181279
629.212	0.0179907
629.290	0.0178719
629.369	0.0176579
629.447	0.0172721
629.525	0.0170943
629.603	0.0167717
629.681	0.0164372
629.759	0.0158768
629.837	0.0156646
629.915	0.0152414
629.994	0.0147530
630.072	0.0142995
630.150	0.0140565
630.228	0.0138872
630.306	0.0134426
630.384	0.0134292
630.462	0.0134000
630.540	0.0132618
630.619	0.0132578
630.697	0.0132204
630.775	0.0131307
630.853	0.0133991
630.931	0.0135316
631.009	0.0136630
631.087	0.0139377
631.165	0.0140844
631.244	0.0144484
631.322	0.0146884
631.400	0.0150215
631.478	0.0155727
631.556	0.0160080
631.634	0.0163244
631.712	0.0170132
631.790	0.0175717
631.869	0.0178403
631.947	0.0182394
632.025	0.0186469
632.103	0.0189632
632.181	0.0193230
632.259	0.0192071
632.337	0.0194264
632.415	0.0194505
632.494	0.0194437
632.572	0.0195425
632.650	0.0194918
632.728	0.0192442
632.806	0.0190153
632.884	0.0188633
632.962	0.0188051
633.040	0.0184655
633.119	0.0182709
633.197	0.0182633
633.275	0.0181322
633.353	0.0178424
633.431	0.0175015
633.509	0.0173631
633.587	0.0171021
633.665	0.0169944
633.744	0.0166918
633.822	0.0166416
633.900	0.0165716
633.978	0.0163789
634.056	0.0161882
634.134	0.0162786
634.212	0.0162820
634.290	0.0161472
634.369	0.0162807
634.447	0.0161921
634.525	0.0162418
634.603	0.0163008
634.681	0.0161235
634.759	0.0161939
634.837	0.0162707
634.915	0.0160568
634.994	0.0159995
635.072	0.0158968
635.150	0.0158549
635.228	0.0158971
635.306	0.0157601
635.384	0.0157878
635.462	0.0156508
635.540	0.0156635
635.619	0.0155122
635.697	0.0155268
635.775	0.0155457
635.853	0.0155423
635.931	0.0155727
636.009	0.0155061
636.087	0.0155808
636.165	0.0157195
636.244	0.0157017
636.322	0.0156390
636.400	0.0157263
636.478	0.0158131
636.556	0.0158564
636.634	0.0157954
636.712	0.0160059
636.790	0.0159344
636.869	0.0161237
636.947	0.0161814
637.025	0.0162774
637.103	0.0163836
637.181	0.0163660
637.259	0.0163588
637.337	0.0165752
637.415	0.0165023
637.494	0.0168077
637.572	0.0167469
637.650	0.0168850
637.728	0.0170575
637.806	0.0171079
637.884	0.0171135
637.962	0.0173148
638.040	0.0174231
638.119	0.0175816
638.197	0.0178935
638.275	0.0179639
638.353	0.0179225
638.431	0.0182244
638.509	0.0183112
638.587	0.0183516
638.665	0.0184805
638.744	0.0183416
638.822	0.0183541
638.900	0.0180830
638.978	0.0179881
639.056	0.0176820
639.134	0.0172955
639.212	0.0170491
639.290	0.0169046
639.369	0.0165496
639.447	0.0161244
639.525	0.0160448
639.603	0.0157905
639.681	0.0155519
639.759	0.0152859
639.837	0.0154057
639.915	0.0154247
639.994	0.0154066
640.072	0.0153401
640.150	0.0153587
640.228	0.0154775
640.306	0.0155331
640.384	0.0156623
640.462	0.0157945
640.540	0.0157936
640.619	0.0161010
640.697	0.0161558
640.775	0.0162855
640.853	0.0162712
640.931	0.0164383
641.009	0.0165911
641.087	0.0167908
641.165	0.0167741
641.244	0.0168350
641.322	0.0169743
641.400	0.0169616
641.478	0.0170036
641.556	0.0170998
641.634	0.0169828
641.712	0.0170337
641.790	0.0169679
641.869	0.0169169
641.947	0.0171059
642.025	0.0169095
642.103	0.0170270
642.181	0.0171165
642.259	0.0169210
642.337	0.0168961
642.415	0.0169061
642.494	0.0170315
642.572	0.0167021
642.650	0.0166243
642.728	0.0165478
642.806	0.0165625
642.884	0.0163364
642.962	0.0161784
643.040	0.0161138
643.119	0.0160652
643.197	0.0158368
643.275	0.0155430
643.353	0.0153359
643.431	0.0153533
643.509	0.0152677
643.587	0.0150782
643.665	0.0149117
643.744	0.0148866
643.822	0.0146206
643.900	0.0147498
643.978	0.0148234
644.056	0.0148914
644.134	0.0150394
644.212	0.0151063
644.290	0.0151451
644.369	0.0151997
644.447	0.0154343
644.525	0.0155299
644.603	0.0158057
644.681	0.0160443
644.759	0.0161804
644.837	0.0163947
644.915	0.0166711
644.994	0.0167863
645.072	0.0169669
645.150	0.0172630
645.228	0.0174966
645.306	0.0176576
645.384	0.0177809
645.462	0.0179366
645.540	0.0180605
645.619	0.0181006
645.697	0.0181847
645.775	0.0182875
645.853	0.0182996
645.931	0.0181920
646.009	0.0181965
646.087	0.0181760
646.165	0.0183118
646.244	0.0182861
646.322	0.0180665
646.400	0.0179874
646.478	0.0180105
646.556	0.0179733
646.634	0.0178603
646.712	0.0177177
646.790	0.0176465
646.869	0.0175220
646.947	0.0172792
647.025	0.0170350
647.103	0.0169495
647.181	0.0166728
647.259	0.0163541
647.337	0.0160323
647.415	0.0157856
647.494	0.0153640
647.572	0.0151487
647.650	0.0148713
647.728	0.0146263
647.806	0.0144234
647.884	0.0143199
647.962	0.0141894
648.040	0.0142097
648.119	0.0141389
648.197	0.0142049
648.275	0.0142894
648.353	0.0143532
648.431	0.0145680
648.509	0.0146578
648.587	0.0147746
648.665	0.0149522
648.744	0.0151900
648.822	0.0154958
648.900	0.0154607
648.978	0.0157236
649.056	0.0158755
649.134	0.0160569
649.212	0.0162289
649.290	0.0165234
649.369	0.0166012
649.447	0.0168604
649.525	0.0168985
649.603	0.0169724
649.681	0.0169503
649.759	0.0170801
649.837	0.0171437
649.915	0.0173430
649.994	0.0172659
650.072	0.0172860
650.150	0.0172415
650.228	0.0171843
650.306	0.0170770
650.384	0.0170328
650.462	0.0171653
650.540	0.0170872
650.619	0.0171532
650.697	0.0170961
650.775	0.0171767
650.853	0.0172025
650.931	0.0171250
651.009	0.0171393
651.087	0.0171059
651.165	0.0171201
651.244	0.0171012
651.322	0.0170156
651.400	0.0167585
651.478	0.0167616
651.556	0.0166216
651.634	0.0165289
651.712	0.0162552
651.790	0.0162511
651.869	0.0163035
651.947	0.0162527
652.025	0.0160541
652.103	0.0161443
652.181	0.0162811
652.259	0.0163634
652.337	0.0163435
652.415	0.0162626
652.494	0.0164602
652.572	0.0165655
652.650	0.0166013
652.728	0.0164706
652.806	0.0165060
652.884	0.0165643
652.962	0.0165677
653.040	0.0166375
653.119	0.0166724
653.197	0.0165782
653.275	0.0165291
653.353	0.0167590
653.431	0.0164839
653.509	0.0166025
653.587	0.0166237
653.665	0.0167971
653.744	0.0168088
653.822	0.0166419
653.900	0.0166987
653.978	0.0167470
654.056	0.0165099
654.134	0.0165816
654.212	0.0167053
654.290	0.0166527
654.369	0.0165833
654.447	0.0164954
654.525	0.0165377
654.603	0.0163419
654.681	0.0165005
654.759	0.0163631
654.837	0.0163343
654.915	0.0162717
654.994	0.0162461
655.072	0.0162281
655.150	0.0161613
655.228	0.0162304
655.306	0.0163156
655.384	0.0163409
655.462	0.0165014
655.540	0.0164700
655.619	0.0164384
655.697	0.0164082
655.775	0.0164304
655.853	0.0165823
655.931	0.0165615
656.009	0.0163233
656.087	0.0164193
656.165	0.0165083
656.244	0.0165488
656.322	0.0165209
656.400	0.0165284
656.478	0.0166749
656.556	0.0163301
656.634	0.0166054
656.712	0.0165181
656.790	0.0163839
656.869	0.0163734
656.947	0.0163955
657.025	0.0163950
657.103	0.0162137
657.181	0.0161706
657.259	0.0161967
657.337	0.0161391
657.415	0.0159792
657.494	0.0160493
657.572	0.0161375
657.650	0.0161339
657.728	0.0160807
657.806	0.0160867
657.884	0.0162794
657.962	0.0163443
658.040	0.0162534
658.119	0.0165095
658.197	0.0164719
658.275	0.0165209
658.353	0.0166940
658.431	0.0167023
658.509	0.0169543
658.587	0.0169762
658.665	0.0170997
658.744	0.0171201
658.822	0.0172551
658.900	0.0174177
658.978	0.0174152
659.056	0.0175031
659.134	0.0176143
659.212	0.0176103
659.290	0.0176820
659.369	0.0177593
659.447	0.0177260
659.525	0.0178728
659.603	0.0178378
659.681	0.0177165
659.759	0.0177776
659.837	0.0175307
659.915	0.0175859
659.994	0.0173785
660.072	0.0172559
660.150	0.0173913
660.228	0.0171958
660.306	0.0169788
660.384	0.0168867
660.462	0.0169660
660.540	0.0168739
660.619	0.0168650
660.697	0.0168546
660.775	0.0166350
660.853	0.0164014
660.931	0.0164108
661.009	0.0162351
661.087	0.0160599
661.165	0.0160633
661.244	0.0158558
661.322	0.0156100
661.400	0.0156157
661.478	0.0155329
661.556	0.0153938
661.634	0.0153423
661.712	0.0151523
661.790	0.0152632
661.869	0.0152557
661.947	0.0152412
662.025	0.0151360
662.103	0.0151669
662.181	0.0152101
662.259	0.0151469
662.337	0.0152190
662.415	0.0152486
662.494	0.0151617
662.572	0.0151886
662.650	0.0153396
662.728	0.0152660
662.806	0.0153313
662.884	0.0155454
662.962	0.0154626
663.040	0.0157603
663.119	0.0158617
663.197	0.0158999
663.275	0.0160710
663.353	0.0162482
663.431	0.0163926
663.509	0.0165030
663.587	0.0165859
663.665	0.0166898
663.744	0.0168833
663.822	0.0169886
663.900	0.0172065
663.978	0.0172389
664.056	0.0172413
664.134	0.0172618
664.212	0.0172710
664.290	0.0173093
664.369	0.0172454
664.447	0.0172457
664.525	0.0170871
664.603	0.0171632
664.681	0.0170271
664.759	0.0169949
664.837	0.0169939
664.915	0.0167813
664.994	0.0166350
665.072	0.0165724
665.150	0.0165746
665.228	0.0165118
665.306	0.0164903
665.384	0.0166142
665.462	0.0163789
665.540	0.0163799
665.619	0.0164852
665.697	0.0164487
665.775	0.0166346
665.853	0.0166589
665.931	0.0166710
666.009	0.0167319
666.087	0.0168302
666.165	0.0169485
666.244	0.0168981
666.322	0.0168010
666.400	0.0170786
666.478	0.0169748
666.556	0.0169476
666.634	0.0170023
666.712	0.0170776
666.790	0.0171173
666.869	0.0170510
666.947	0.0170364
667.025	0.0170868
667.103	0.0169645
667.181	0.0171072
667.259	0.0170588
667.337	0.0168770
667.415	0.0168602
667.494	0.0169021
667.572	0.0168791
667.650	0.0166854
667.728	0.0166489
667.806	0.0166528
667.884	0.0164568
667.962	0.0164044
668.040	0.0163925
668.119	0.0162833
668.197	0.0161433
668.275	0.0161271
668.353	0.0159462
668.431	0.0158911
668.509	0.0158435
668.587	0.0158404
668.665	0.0157568
668.744	0.0157665
668.822	0.0157494
668.900	0.0157656
668.978	0.0156885
669.056	0.0156860
669.134	0.0155892
669.212	0.0155424
669.290	0.0156109
669.369	0.0156521
669.447	0.0157347
669.525	0.0157142
669.603	0.0156494
669.681	0.0157904
669.759	0.0158461
669.837	0.0158636
669.915	0.0158392
669.994	0.0160384
670.072	0.0162442
670.150	0.0162271
670.228	0.0164064
670.306	0.0164068
670.384	0.0165053
670.462	0.0168017
670.540	0.0166943
670.619	0.0168675
670.697	0.0168551
670.775	0.0169546
670.853	0.0170475
670.931	0.0171407
671.009	0.0171485
671.087	0.0170504
671.165	0.0170798
671.244	0.0170107
671.322	0.0170599
671.400	0.0170760
671.478	0.0171381
671.556	0.0170001
671.634	0.0170373
671.712	0.0168433
671.790	0.0167995
671.869	0.0167506
671.947	0.0168155
672.025	0.0168147
672.103	0.0166920
672.181	0.0166309
672.259	0.0164584
672.337	0.0166684
672.415	0.0164610
672.494	0.0163791
672.572	0.0163204
672.650	0.0164253
672.728	0.0164230
672.806	0.0165554
672.884	0.0165107
672.962	0.0164770
673.040	0.0165231
673.119	0.0165521
673.197	0.0165321
673.275	0.0167281
673.353	0.0166943
673.431	0.0166871
673.509	0.0169049
673.587	0.0168643
673.665	0.0168665
673.744	0.0170116
673.822	0.0168768
673.900	0.0169171
673.978	0.0168573
674.056	0.0169332
674.134	0.0169328
674.212	0.0169161
674.290	0.0167745
674.369	0.0167886
674.447	0.0170128
674.525	0.0167894
674.603	0.0167266
674.681	0.0166495
674.759	0.0166068
674.837	0.0165421
674.915	0.0164613
674.994	0.0164867
675.072	0.0165527
675.150	0.0162572
675.228	0.0161726
675.306	0.0162364
675.384	0.0160700
675.462	0.0159358
675.540	0.0159639
675.619	0.0159639
675.697	0.0159315
675.775	0.0157551
675.853	0.0156981
675.931	0.0158002
676.009	0.0157273
676.087	0.0157740
676.165	0.0158717
676.244	0.0157903
676.322	0.0160851
676.400	0.0160309
676.478	0.0162334
676.556	0.0161387
676.634	0.0162059
676.712	0.0163742
676.790	0.0164280
676.869	0.0164655
676.947	0.0164591
677.025	0.0166092
677.103	0.0165768
677.181	0.0168126
677.259	0.0168378
677.337	0.0168803
677.415	0.0168411
677.494	0.0170810
677.572	0.0170907
677.650	0.0171000
677.728	0.0171803
677.806	0.0172913
677.884	0.0171388
677.962	0.0172134
678.040	0.0171166
678.119	0.0171301
678.197	0.0172158
678.275	0.0172022
678.353	0.0170647
678.431	0.0170607
678.509	0.0170380
678.587	0.0170837
678.665	0.0169327
678.744	0.0169804
678.822	0.0170216
678.900	0.0168549
678.978	0.0167392
679.056	0.0167097
679.134	0.0167153
679.212	0.0165906
679.290	0.0164529
679.369	0.0163286
679.447	0.0163791
679.525	0.0161239
679.603	0.0160204
679.681	0.0159363
679.759	0.0158475
679.837	0.0158745
679.915	0.0158637
679.994	0.0158537
680.072	0.0157877
680.150	0.0156841
680.228	0.0156819
680.306	0.0157766
680.384	0.0158499
680.462	0.0160126
680.540	0.0160638
680.619	0.0160351
680.697	0.0160846
680.775	0.0162756
680.853	0.0164108
680.931	0.0164999
681.009	0.0164321
681.087	0.0164918
681.165	0.0166234
681.244	0.0165552
681.322	0.0165106
681.400	0.0166931
681.478	0.0166801
681.556	0.0167101
681.634	0.0167276
681.712	0.0166982
681.790	0.0168082
681.869	0.0167247
681.947	0.0167831
682.025	0.0169679
682.103	0.0169540
682.181	0.0168754
682.259	0.0169373
682.337	0.0169138
682.415	0.0168395
682.494	0.0169825
682.572	0.0168645
682.650	0.0167062
682.728	0.0165687
682.806	0.0167544
682.884	0.0166676
682.962	0.0165300
683.040	0.0164075
683.119	0.0163409
683.197	0.0161839
683.275	0.0161417
683.353	0.0161099
683.431	0.0159635
683.509	0.0159052
683.587	0.0160828
683.665	0.0159563
683.744	0.0159615
683.822	0.0160818
683.900	0.0161848
683.978	0.0162038
684.056	0.0162607
684.134	0.0163641
684.212	0.0164259
684.290	0.0164658
684.369	0.0165283
684.447	0.0165901
684.525	0.0167330
684.603	0.0166566
684.681	0.0167081
684.759	0.0168129
684.837	0.0168168
684.915	0.0168828
684.994	0.0170511
685.072	0.0169402
685.150	0.0169131
685.228	0.0170150
685.306	0.0169940
685.384	0.0169810
685.462	0.0170773
685.540	0.0170788
685.619	0.0170184
685.697	0.0169209
685.775	0.0168383
685.853	0.0169624
685.931	0.0169396
686.009	0.0169034
686.087	0.0168789
686.165	0.0167944
686.244	0.0166759
686.322	0.0165739
686.400	0.0166154
686.478	0.0166327
686.556	0.0165257
686.634	0.0165658
686.712	0.0165023
686.790	0.0163938
686.869	0.0164328
686.947	0.0164140
687.025	0.0162817
687.103	0.0163052
687.181	0.0160905
687.259	0.0162588
687.337	0.0162938
687.415	0.0161515
687.494	0.0160720
687.572	0.0162051
687.650	0.0162500
687.728	0.0162210
687.806	0.0161758
687.884	0.0162948
687.962	0.0163073
688.040	0.0163550
688.119	0.0163032
688.197	0.0162751
688.275	0.0164233
688.353	0.0162478
688.431	0.0162574
688.509	0.0164330
688.587	0.0164343
688.665	0.0164132
688.744	0.0164743
688.822	0.0163914
688.900	0.0165987
688.978	0.0165578
689.056	0.0165672
689.134	0.0165303
689.212	0.0167734
689.290	0.0168764
689.369	0.0166882
689.447	0.0167657
689.525	0.0169003
689.603	0.0167683
689.681	0.0168198
689.759	0.0169314
689.837	0.0168739
689.915	0.0169589
689.994	0.0167481
690.072	0.0167834
690.150	0.0166780
690.228	0.0168061
690.306	0.0166182
690.384	0.0166306
690.462	0.0166315
690.540	0.0165148
690.619	0.0165607
690.697	0.0165263
690.775	0.0166051
690.853	0.0165711
690.931	0.0165935
691.009	0.0165739
691.087	0.0165824
691.165	0.0165874
691.244	0.0166505
691.322	0.0168593
691.400	0.0167840
691.478	0.0165877
691.556	0.0166992
691.634	0.0166126
691.712	0.0165781
691.790	0.0167152
691.869	0.0166888
691.947	0.0165872
692.025	0.0163944
692.103	0.0164624
692.181	0.0164001
692.259	0.0162418
692.337	0.0164130
692.415	0.0162910
692.494	0.0161848
692.572	0.0160983
692.650	0.0163126
692.728	0.0161531
692.806	0.0162665
692.884	0.0160446
692.962	0.0160157
693.040	0.0161189
693.119	0.0160342
693.197	0.0161133
693.275	0.0161797
693.353	0.0160905
693.431	0.0160719
693.509	0.0161725
693.587	0.0161378
693.665	0.0162952
693.744	0.0162949
693.822	0.0163161
693.900	0.0163548
693.978	0.0164149
694.056	0.0164833
694.134	0.0164846
694.212	0.0165763
694.290	0.0166393
694.369	0.0167517
694.447	0.0167101
694.525	0.0166234
694.603	0.0166639
694.681	0.0169691
694.759	0.0169883
694.837	0.0167980
694.915	0.0167268
694.994	0.0168517
695.072	0.0169479
695.150	0.0170135
695.228	0.0170257
695.306	0.0170571
695.384	0.0169131
695.462	0.0168367
695.540	0.0169299
695.619	0.0168166
695.697	0.0168800
695.775	0.0168355
695.853	0.0166412
695.931	0.0167080
696.009	0.0167267
696.087	0.0167759
696.165	0.0166753
696.244	0.0166323
696.322	0.0166575
696.400	0.0167240
696.478	0.0166351
696.556	0.0166507
696.634	0.0166618
696.712	0.0167028
696.790	0.0167365
696.869	0.0167934
696.947	0.0167374
697.025	0.0168226
697.103	0.0167010
697.181	0.0168423
697.259	0.0168282
697.337	0.0167566
697.415	0.0168055
697.494	0.0167011
697.572	0.0168063
697.650	0.0167492
697.728	0.0166850
697.806	0.0166431
697.884	0.0167256
697.962	0.0166101
698.040	0.0165142
698.119	0.0164060
698.197	0.0164303
698.275	0.0165480
698.353	0.0164991
698.431	0.0165924
698.509	0.0165252
698.587	0.0166023
698.665	0.0167191
698.744	0.0165145
698.822	0.0166104
698.900	0.0166046
698.978	0.0166849
699.056	0.0166354
699.134	0.0165520
699.212	0.0166363
699.290	0.0165649
699.369	0.0165745
699.447	0.0165698
699.525	0.0165375
699.603	0.0164885
699.681	0.0164249
699.759	0.0163824
699.837	0.0164050
699.915	0.0164650
699.994	0.0164110
700.072	0.0164052
700.150	0.0164576
700.228	0.0164642
700.306	0.0164697
700.384	0.0164696
700.462	0.0164375
700.540	0.0164412
700.619	0.0163923
700.697	0.0165099
700.775	0.0165388
700.853	0.0165450
700.931	0.0165024
701.009	0.0164632
701.087	0.0164697
701.165	0.0164729
701.244	0.0165588
701.322	0.0165330
701.400	0.0166103
701.478	0.0164973
701.556	0.0165520
701.634	0.0164330
701.712	0.0164867
701.790	0.0166113
701.869	0.0166338
701.947	0.0165339
702.025	0.0164837
702.103	0.0165868
702.181	0.0165688
702.259	0.0165468
702.337	0.0165187
702.415	0.0164886
702.494	0.0163174
702.572	0.0164881
702.650	0.0163649
702.728	0.0165055
702.806	0.0165818
702.884	0.0165551
702.962	0.0163868
703.040	0.0166306
703.119	0.0165461
703.197	0.0164290
703.275	0.0165614
703.353	0.0164124
703.431	0.0165455
703.509	0.0165854
703.587	0.0164723
703.665	0.0166429
703.744	0.0164175
703.822	0.0164433
703.900	0.0164716
703.978	0.0164993
704.056	0.0163598
704.134	0.0165176
704.212	0.0164651
704.290	0.0164366
704.369	0.0165202
704.447	0.0163727
704.525	0.0162821
704.603	0.0164661
704.681	0.0163828
704.759	0.0163471
704.837	0.0163665
704.915	0.0163255
704.994	0.0164130
705.072	0.0162955
705.150	0.0163614
705.228	0.0163012
705.306	0.0164143
705.384	0.0164224
705.462	0.0164349
705.540	0.0163000
705.619	0.0164064
705.697	0.0163890
705.775	0.0163286
705.853	0.0164299
705.931	0.0163551
706.009	0.0165967
706.087	0.0163309
706.165	0.0163293
706.244	0.0164145
706.322	0.0163782
706.400	0.0163250
706.478	0.0165320
706.556	0.0164387
706.634	0.0163532
706.712	0.0164548
706.790	0.0165828
706.869	0.0165171
706.947	0.0165831
707.025	0.0166512
707.103	0.0165891
707.181	0.0165721
707.259	0.0165647
707.337	0.0167366
707.415	0.0169068
707.494	0.0166879
707.572	0.0168092
707.650	0.0168295
707.728	0.0170444
707.806	0.0168417
707.884	0.0168240
707.962	0.0168906
708.040	0.0170216
708.119	0.0169684
708.197	0.0167815
708.275	0.0169485
708.353	0.0168663
708.431	0.0169714
708.509	0.0170205
708.587	0.0166977
708.665	0.0168642
708.744	0.0168152
708.822	0.0168089
708.900	0.0166026
708.978	0.0165993
709.056	0.0166871
709.134	0.0165201
709.212	0.0165201
709.290	0.0164506
709.369	0.0163844
709.447	0.0165043
709.525	0.0163686
709.603	0.0163345
709.681	0.0162231
709.759	0.0162614
709.837	0.0163231
709.915	0.0162656
709.994	0.0164412
710.072	0.0161689
710.150	0.0162478
710.228	0.0163391
710.306	0.0165567
710.384	0.0164473
710.462	0.0163614
710.540	0.0165494
710.619	0.0165618
710.697	0.0166531
710.775	0.0167786
710.853	0.0166760
710.931	0.0167722
711.009	0.0166861
711.087	0.0167822
711.165	0.0168707
711.244	0.0168089
711.322	0.0168358
711.400	0.0169013
711.478	0.0168267
711.556	0.0168681
711.634	0.0169021
711.712	0.0168835
711.790	0.0168086
711.869	0.0169257
711.947	0.0167793
712.025	0.0168177
712.103	0.0166151
712.181	0.0167368
712.259	0.0167513
712.337	0.0168222
712.415	0.0167578
712.494	0.0165784
712.572	0.0165022
712.650	0.0166033
712.728	0.0165404
712.806	0.0164216
712.884	0.0165736
712.962	0.0164175
713.040	0.0163644
713.119	0.0163927
713.197	0.0164421
713.275	0.0162339
713.353	0.0164162
713.431	0.0162833
713.509	0.0164244
713.587	0.0164436
713.665	0.0163078
713.744	0.0164395
713.822	0.0163137
713.900	0.0165050
713.978	0.0163993
714.056	0.0163818
714.134	0.0162638
714.212	0.0162207
714.290	0.0163260
714.369	0.0163180
714.447	0.0161142
714.525	0.0162016
714.603	0.0163192
714.681	0.0163064
714.759	0.0162868
714.837	0.0163149
714.915	0.0164727
714.994	0.0165611
715.072	0.0164597
715.150	0.0164767
715.228	0.0163820
715.306	0.0165140
715.384	0.0165479
715.462	0.0164501
715.540	0.0164783
715.619	0.0164516
715.697	0.0165437
715.775	0.0167922
715.853	0.0167780
715.931	0.0166611
716.009	0.0166500
716.087	0.0167506
716.165	0.0168552
716.244	0.0167728
716.322	0.0168899
716.400	0.0167898
716.478	0.0168434
716.556	0.0168684
716.634	0.0168823
716.712	0.0168774
716.790	0.0166773
716.869	0.0167451
716.947	0.0166878
717.025	0.0166687
717.103	0.0167493
717.181	0.0167039
717.259	0.0167300
717.337	0.0167025
717.415	0.0167561
717.494	0.0167880
717.572	0.0166415
717.650	0.0166428
717.728	0.0166665
717.806	0.0167283
717.884	0.0165951
717.962	0.0165691
718.040	0.0166676
718.119	0.0168706
718.197	0.0168176
718.275	0.0166149
718.353	0.0166026
718.431	0.0165110
718.509	0.0166497
718.587	0.0165382
718.665	0.0165276
718.744	0.0165126
718.822	0.0165656
718.900	0.0165658
718.978	0.0165108
719.056	0.0166359
719.134	0.0166566
719.212	0.0165178
719.290	0.0165052
719.369	0.0166132
719.447	0.0165611
719.525	0.0164697
719.603	0.0165287
719.681	0.0165242
719.759	0.0165629
719.837	0.0165090
719.915	0.0166112
719.994	0.0166581
720.072	0.0166531
720.150	0.0164374
720.228	0.0166332
720.306	0.0165169
720.384	0.0164601
720.462	0.0165862
720.540	0.0165132
720.619	0.0165245
720.697	0.0164680
720.775	0.0165030
720.853	0.0165285
720.931	0.0164835
721.009	0.0163866
721.087	0.0163016
721.165	0.0162211
721.244	0.0163873
721.322	0.0163433
721.400	0.0162449
721.478	0.0162491
721.556	0.0163210
721.634	0.0162025
721.712	0.0163338
721.790	0.0162072
721.869	0.0162762
721.947	0.0162061
722.025	0.0162823
722.103	0.0162469
722.181	0.0161414
722.259	0.0162354
722.337	0.0162513
722.415	0.0161543
722.494	0.0163496
722.572	0.0162678
722.650	0.0162791
722.728	0.0162240
722.806	0.0161609
722.884	0.0163328
722.962	0.0163162
723.040	0.0163230
723.119	0.0163761
723.197	0.0162776
723.275	0.0162082
723.353	0.0164216
723.431	0.0163122
723.509	0.0163777
723.587	0.0163295
723.665	0.0163557
723.744	0.0163578
723.822	0.0162428
723.900	0.0164455
723.978	0.0162720
724.056	0.0163008
724.134	0.0163834
724.212	0.0163823
724.290	0.0164725
724.369	0.0163386
724.447	0.0165993
724.525	0.0165829
724.603	0.0166029
724.681	0.0164789
724.759	0.0165263
724.837	0.0165280
724.915	0.0165163
724.994	0.0165708
725.072	0.0167146
725.150	0.0166827
725.228	0.0167698
725.306	0.0165543
725.384	0.0165134
725.462	0.0166649
725.540	0.0166136
725.619	0.0165745
725.697	0.0165662
725.775	0.0166331
725.853	0.0167172
725.931	0.0166032
726.009	0.0165098
726.087	0.0164084
726.165	0.0164792
726.244	0.0166009
726.322	0.0165919
726.400	0.0164406
726.478	0.0164191
726.556	0.0164452
726.634	0.0164539
726.712	0.0163465
726.790	0.0163857
726.869	0.0162064
726.947	0.0161865
727.025	0.0162142
727.103	0.0161658
727.181	0.0162741
727.259	0.0163512
727.337	0.0161993
727.415	0.0161436
727.494	0.0162962
727.572	0.0163546
727.650	0.0163155
727.728	0.0163010
727.806	0.0162679
727.884	0.0162602
727.962	0.0163728
728.040	0.0164910
728.119	0.0164158
728.197	0.0166479
728.275	0.0165359
728.353	0.0164993
728.431	0.0166756
728.509	0.0166816
728.587	0.0166792
728.665	0.0167616
728.744	0.0169147
728.822	0.0167748
728.900	0.0168252
728.978	0.0168506
729.056	0.0167227
729.134	0.0168008
729.212	0.0169225
729.290	0.0167887
729.369	0.0166960
729.447	0.0166546
729.525	0.0166928
729.603	0.0167136
729.681	0.0165556
729.759	0.0165124
729.837	0.0165839
729.915	0.0166109
729.994	0.0163846
730.072	0.0164480
730.150	0.0165456
730.228	0.0164130
730.306	0.0165441
730.384	0.0164265
730.462	0.0163806
730.540	0.0162277
730.619	0.0162962
730.697	0.0163911
730.775	0.0163783
730.853	0.0164169
730.931	0.0164327
731.009	0.0164467
731.087	0.0164852
731.165	0.0165561
731.244	0.0166965
731.322	0.0164826
731.400	0.0166462
731.478	0.0166497
731.556	0.0165897
731.634	0.0166515
731.712	0.0166214
731.790	0.0165868
731.869	0.0166402
731.947	0.0165887
732.025	0.0165639
732.103	0.0166960
732.181	0.0168127
732.259	0.0167290
732.337	0.0167104
732.415	0.0167176
732.494	0.0166506
732.572	0.0166676
732.650	0.0165555
732.728	0.0165916
732.806	0.0166089
732.884	0.0166151
732.962	0.0165518
733.040	0.0164871
733.119	0.0165856
733.197	0.0166369
733.275	0.0164196
733.353	0.0165987
733.431	0.0165025
733.509	0.0164880
733.587	0.0165635
733.665	0.0163892
733.744	0.0163308
733.822	0.0164586
733.900	0.0164464
733.978	0.0165940
734.056	0.0165654
734.134	0.0165854
734.212	0.0164932
734.290	0.0164372
734.369	0.0165344
734.447	0.0164901
734.525	0.0165298
734.603	0.0166233
734.681	0.0164618
734.759	0.0166279
734.837	0.0166010
734.915	0.0166847
734.994	0.0166881
735.072	0.0166305
735.150	0.0168878
735.228	0.0166592
735.306	0.0166084
735.384	0.0167941
735.462	0.0165987
735.540	0.0166374
735.619	0.0166865
735.697	0.0166615
735.775	0.0166937
735.853	0.0167273
735.931	0.0166873
736.009	0.0166917
736.087	0.0166843
736.165	0.0164810
736.244	0.0165688
736.322	0.0166711
736.400	0.0166547
736.478	0.0165649
736.556	0.0165405
736.634	0.0166101
736.712	0.0166110
736.790	0.0166087
736.869	0.0165276
736.947	0.0164944
737.025	0.0165744
737.103	0.0165366
737.181	0.0165665
737.259	0.0166154
737.337	0.0164979
737.415	0.0166521
737.494	0.0164759
737.572	0.0165303
737.650	0.0165128
737.728	0.0165679
737.806	0.0165517
737.884	0.0164802
737.962	0.0164245
738.040	0.0163681
738.119	0.0163967
738.197	0.0165131
738.275	0.0164610
738.353	0.0163318
738.431	0.0163349
738.509	0.0163163
738.587	0.0162631
738.665	0.0164577
738.744	0.0163848
738.822	0.0163926
738.900	0.0163715
738.978	0.0164156
739.056	0.0165284
739.134	0.0165140
739.212	0.0164743
739.290	0.0164352
739.369	0.0165565
739.447	0.0166016
739.525	0.0164001
739.603	0.0165847
739.681	0.0165582
739.759	0.0165395
739.837	0.0164232
739.915	0.0163610
739.994	0.0164828
740.072	0.0164828
740.150	0.0164764
740.228	0.0164600
740.306	0.0164854
740.384	0.0164551
740.462	0.0164871
740.540	0.0164228
740.619	0.0163372
740.697	0.0163264
740.775	0.0163167
740.853	0.0164056
740.931	0.0163360
741.009	0.0164815
741.087	0.0164830
741.165	0.0164861
741.244	0.0165553
741.322	0.0165557
741.400	0.0165416
741.478	0.0166039
741.556	0.0167612
741.634	0.0166685
741.712	0.0164277
741.790	0.0165289
741.869	0.0166961
741.947	0.0166144
742.025	0.0166954
742.103	0.0166884
742.181	0.0165104
742.259	0.0165272
742.337	0.0166242
742.415	0.0165858
742.494	0.0165535
742.572	0.0164819
742.650	0.0165379
742.728	0.0166028
742.806	0.0165005
742.884	0.0165022
742.962	0.0165451
743.040	0.0165921
743.119	0.0164423
743.197	0.0164932
743.275	0.0163780
743.353	0.0163845
743.431	0.0164980
743.509	0.0163389
743.587	0.0163561
743.665	0.0165543
743.744	0.0164507
743.822	0.0163945
743.900	0.0163251
743.978	0.0162714
744.056	0.0162307
744.134	0.0162473
744.212	0.0162779
744.290	0.0160506
744.369	0.0162781
744.447	0.0162460
744.525	0.0162785
744.603	0.0162054
744.681	0.0161906
744.759	0.0162457
744.837	0.0163381
744.915	0.0163145
744.994	0.0163611
745.072	0.0165056
745.150	0.0163952
745.228	0.0164884
745.306	0.0163306
745.384	0.0164224
745.462	0.0164646
745.540	0.0163658
745.619	0.0164865
745.697	0.0166528
745.775	0.0166267
745.853	0.0165579
745.931	0.0166882
746.009	0.0165822
746.087	0.0166106
746.165	0.0165114
746.244	0.0167052
746.322	0.0166029
746.400	0.0165485
746.478	0.0167073
746.556	0.0166140
746.634	0.0165482
746.712	0.0164603
746.790	0.0165035
746.869	0.0165473
746.947	0.0167015
747.025	0.0165835
747.103	0.0164836
747.181	0.0165106
747.259	0.0164413
747.337	0.0165930
747.415	0.0166576
747.494	0.0165456
747.572	0.0165942
747.650	0.0166094
747.728	0.0166389
747.806	0.0168071
747.884	0.0167910
747.962	0.0166743
748.040	0.0166705
748.119	0.0167159
748.197	0.0166743
748.275	0.0167980
748.353	0.0168101
748.431	0.0167844
748.509	0.0167101
748.587	0.0167589
748.665	0.0165487
748.744	0.0167087
748.822	0.0166225
748.900	0.0165472
748.978	0.0165823
749.056	0.0166518
749.134	0.0166074
749.212	0.0166343
749.290	0.0165199
749.369	0.0166528
749.447	0.0164913
749.525	0.0164043
749.603	0.0165483
749.681	0.0164019
749.759	0.0164536
749.837	0.0165028
749.915	0.0165704
749.994	0.0164506
750.072	0.0165218
750.150	0.0165088
750.228	0.0164331
750.306	0.0165743
750.384	0.0164059
750.462	0.0165256
750.540	0.0164687
750.619	0.0163596
750.697	0.0164022
750.775	0.0165326
750.853	0.0162959
750.931	0.0164046
751.009	0.0164003
751.087	0.0164136
751.165	0.0163538
751.244	0.0164816
751.322	0.0163642
751.400	0.0164467
751.478	0.0163194
751.556	0.0163807
751.634	0.0163270
751.712	0.0163296
751.790	0.0163654
751.869	0.0162771
751.947	0.0164520
752.025	0.0165002
752.103	0.0163037
752.181	0.0164709
752.259	0.0164862
752.337	0.0164306
752.415	0.0163377
752.494	0.0164843
752.572	0.0165078
752.650	0.0163746
752.728	0.0164335
752.806	0.0164548
752.884	0.0164023
752.962	0.0166045
753.040	0.0164842
753.119	0.0162860
753.197	0.0163685
753.275	0.0163845
753.353	0.0162939
753.431	0.0163058
753.509	0.0163929
753.587	0.0163473
753.665	0.0164583
753.744	0.0163616
753.822	0.0162228
753.900	0.0162743
753.978	0.0163393
754.056	0.0163276
754.134	0.0162423
754.212	0.0163892
754.290	0.0163287
754.369	0.0164018
754.447	0.0163883
754.525	0.0163609
754.603	0.0163118
754.681	0.0164498
754.759	0.0164301
754.837	0.0162245
754.915	0.0164699
754.994	0.0164172
755.072	0.0165017
755.150	0.0164331
755.228	0.0164167
755.306	0.0165138
755.384	0.0165878
755.462	0.0164568
755.540	0.0164350
755.619	0.0165238
755.697	0.0166006
755.775	0.0165416
755.853	0.0165754
755.931	0.0167151
756.009	0.0166534
756.087	0.0167086
756.165	0.0165672
756.244	0.0166517
756.322	0.0166307
756.400	0.0167834
756.478	0.0167598
756.556	0.0166157
756.634	0.0166572
756.712	0.0166954
756.790	0.0167398
756.869	0.0167872
756.947	0.0166769
757.025	0.0166609
757.103	0.0166983
757.181	0.0167760
757.259	0.0165578
757.337	0.0167075
757.415	0.0165698
757.494	0.0165878
757.572	0.0165462
757.650	0.0165665
757.728	0.0164628
757.806	0.0164565
757.884	0.0164043
757.962	0.0165553
758.040	0.0165094
758.119	0.0164590
758.197	0.0164946
758.275	0.0165615
758.353	0.0164977
758.431	0.0164925
758.509	0.0163803
758.587	0.0165877
758.665	0.0165780
758.744	0.0165007
758.822	0.0165830
758.900	0.0165557
758.978	0.0163604
759.056	0.0164745
759.134	0.0164912
759.212	0.0165557
759.290	0.0164301
759.369	0.0164325
759.447	0.0165974
759.525	0.0165562
759.603	0.0165084
759.681	0.0164762
759.759	0.0164275
759.837	0.0165720
759.915	0.0165495
759.994	0.0164821
760.072	0.0164267
760.150	0.0162886
760.228	0.0164882
760.306	0.0166050
760.384	0.0164442
760.462	0.0165054
760.540	0.0165038
760.619	0.0164775
760.697	0.0165211
760.775	0.0164981
760.853	0.0166685
760.931	0.0167586
761.009	0.0165819
761.087	0.0166510
761.165	0.0166193
761.244	0.0165610
761.322	0.0166711
761.400	0.0167684
761.478	0.0166953
761.556	0.0166567
761.634	0.0167406
761.712	0.0166915
761.790	0.0167310
761.869	0.0167121
761.947	0.0167326
762.025	0.0167489
762.103	0.0168091
762.181	0.0168935
762.259	0.0167836
762.337	0.0167593
762.415	0.0167886
762.494	0.0167236
762.572	0.0166614
762.650	0.0165562
762.728	0.0165777
762.806	0.0166817
762.884	0.0166053
762.962	0.0164859
763.040	0.0167293
763.119	0.0165687
763.197	0.0167638
763.275	0.0166896
763.353	0.0167033
763.431	0.0166370
763.509	0.0166528
763.587	0.0165475
763.665	0.0166260
763.744	0.0165949
763.822	0.0166933
763.900	0.0165225
763.978	0.0164748
764.056	0.0165237
764.134	0.0164500
764.212	0.0164896
764.290	0.0164849
764.369	0.0164792
764.447	0.0164044
764.525	0.0164224
764.603	0.0163718
764.681	0.0163277
764.759	0.0162327
764.837	0.0163443
764.915	0.0163582
764.994	0.0163493
765.072	0.0163261
765.150	0.0162816
765.228	0.0162810
765.306	0.0162431
765.384	0.0162696
765.462	0.0162310
765.540	0.0162931
765.619	0.0162610
765.697	0.0163012
765.775	0.0163063
765.853	0.0162880
765.931	0.0164545
766.009	0.0164414
766.087	0.0163805
766.165	0.0164460
766.244	0.0165836
766.322	0.0165862
766.400	0.0165923
766.478	0.0165585
766.556	0.0165228
766.634	0.0165294
766.712	0.0166168
766.790	0.0165070
766.869	0.0166932
766.947	0.0166315
767.025	0.0166169
767.103	0.0165815
767.181	0.0165559
767.259	0.0166100
767.337	0.0165881
767.415	0.0166495
767.494	0.0165283
767.572	0.0166215
767.650	0.0167498
767.728	0.0164482
767.806	0.0166300
767.884	0.0165910
767.962	0.0165000
768.040	0.0164438
768.119	0.0164864
768.197	0.0165034
768.275	0.0165587
768.353	0.0165425
768.431	0.0165644
768.509	0.0164867
768.587	0.0163987
768.665	0.0164580
768.744	0.0166142
768.822	0.0165061
768.900	0.0165066
768.978	0.0164331
769.056	0.0165111
769.134	0.0164752
769.212	0.0165082
769.290	0.0164867
769.369	0.0163963
769.447	0.0164734
769.525	0.0164851
769.603	0.0164958
769.681	0.0163984
769.759	0.0165415
769.837	0.0164591
769.915	0.0164567
769.994	0.0164521
770.072	0.0163873
770.150	0.0164050
770.228	0.0163670
770.306	0.0164000
770.384	0.0163752
770.462	0.0164753
770.540	0.0164616
770.619	0.0165111
770.697	0.0164012
770.775	0.0164848
770.853	0.0163685
770.931	0.0164703
771.009	0.0165343
771.087	0.0164321
771.165	0.0164997
771.244	0.0165044
771.322	0.0165664
771.400	0.0165447
771.478	0.0166431
771.556	0.0166029
771.634	0.0166877
771.712	0.0165230
771.790	0.0164592
771.869	0.0164007
771.947	0.0164687
772.025	0.0165378
772.103	0.0165222
772.181	0.0165774
772.259	0.0166544
772.337	0.0165000
772.415	0.0165724
772.494	0.0165086
772.572	0.0164835
772.650	0.0165945
772.728	0.0166095
772.806	0.0166162
772.884	0.0165848
772.962	0.0165821
773.040	0.0166795
773.119	0.0167805
773.197	0.0166623
773.275	0.0167350
773.353	0.0166875
773.431	0.0168345
773.509	0.0167946
773.587	0.0168565
773.665	0.0168787
773.744	0.0168837
773.822	0.0167377
773.900	0.0168428
773.978	0.0168811
774.056	0.0168431
774.134	0.0169819
774.212	0.0168822
774.290	0.0169604
774.369	0.0168739
774.447	0.0167675
774.525	0.0168774
774.603	0.0169494
774.681	0.0167866
774.759	0.0167860
774.837	0.0168987
774.915	0.0168993
774.994	0.0167852
775.072	0.0167553
775.150	0.0168456
775.228	0.0166965
775.306	0.0166107
775.384	0.0166970
775.462	0.0165258
775.540	0.0166472
775.619	0.0166129
775.697	0.0165915
775.775	0.0164967
775.853	0.0164056
775.931	0.0164870
776.009	0.0164835
776.087	0.0165144
776.165	0.0164611
776.244	0.0163803
776.322	0.0164420
776.400	0.0164252
776.478	0.0163372
776.556	0.0163601
776.634	0.0163451
776.712	0.0164330
776.790	0.0164134
776.869	0.0164536
776.947	0.0165022
777.025	0.0163103
777.103	0.0163913
777.181	0.0164530
777.259	0.0165517
777.337	0.0166374
777.415	0.0165251
777.494	0.0166096
777.572	0.0164026
777.650	0.0165768
777.728	0.0166506
777.806	0.0165279
777.884	0.0165730
777.962	0.0165881
778.040	0.0166108
778.119	0.0164954
778.197	0.0166741
778.275	0.0164977
778.353	0.0164375
778.431	0.0165202
778.509	0.0165103
778.587	0.0164202
778.665	0.0164767
778.744	0.0166844
778.822	0.0165210
778.900	0.0164588
778.978	0.0164200
779.056	0.0164659
779.134	0.0166734
779.212	0.0164664
779.290	0.0165046
779.369	0.0163808
779.447	0.0164214
779.525	0.0164344
779.603	0.0164310
779.681	0.0163003
779.759	0.0165316
779.837	0.0163148
779.915	0.0162642
779.994	0.0163043
780.072	0.0163260
780.150	0.0164373
780.228	0.0163836
780.306	0.0164643
780.384	0.0163565
780.462	0.0162434
780.540	0.0165157
780.619	0.0165086
780.697	0.0164185
780.775	0.0164634
780.853	0.0164396
780.931	0.0164684
781.009	0.0165175
781.087	0.0166141
781.165	0.0165448
781.244	0.0164685
781.322	0.0165443
781.400	0.0164904
781.478	0.0165262
781.556	0.0166156
781.634	0.0165906
781.712	0.0165525
781.790	0.0166444
781.869	0.0165993
781.947	0.0164719
782.025	0.0165011
782.103	0.0166042
782.181	0.0166215
782.259	0.0166868
782.337	0.0167028
782.415	0.0166350
782.494	0.0164894
782.572	0.0164124
782.650	0.0164769
782.728	0.0165176
782.806	0.0164861
782.884	0.0164843
782.962	0.0164137
783.040	0.0163573
783.119	0.0163743
783.197	0.0163665
783.275	0.0162966
783.353	0.0163516
783.431	0.0163795
783.509	0.0162699
783.587	0.0164845
783.665	0.0163753
783.744	0.0164172
783.822	0.0165146
783.900	0.0163525
783.978	0.0163354
784.056	0.0164584
784.134	0.0164048
784.212	0.0164310
784.290	0.0163188
784.369	0.0163086
784.447	0.0164387
784.525	0.0163248
784.603	0.0163719
784.681	0.0164044
784.759	0.0163667
784.837	0.0163157
784.915	0.0165164
784.994	0.0162235
785.072	0.0163885
785.150	0.0164265
785.228	0.0163168
785.306	0.0163004
785.384	0.0163781
785.462	0.0162751
785.540	0.0162728
785.619	0.0163230
785.697	0.0164179
785.775	0.0164656
785.853	0.0165279
785.931	0.0165340
786.009	0.0163509
786.087	0.0163819
786.165	0.0165498
786.244	0.0167960
786.322	0.0165057
786.400	0.0167136
786.478	0.0166152
786.556	0.0166521
786.634	0.0167091
786.712	0.0167378
786.790	0.0167689
786.869	0.0167209
786.947	0.0167126
787.025	0.0168954
787.103	0.0169024
787.181	0.0166504
787.259	0.0166214
787.337	0.0166100
787.415	0.0168255
787.494	0.0166559
787.572	0.0167105
787.650	0.0166734
787.728	0.0166879
787.806	0.0165887
787.884	0.0166760
787.962	0.0165647
788.040	0.0165966
788.119	0.0167812
788.197	0.0166889
788.275	0.0166389
788.353	0.0167072
788.431	0.0167901
788.509	0.0166679
788.587	0.0167839
788.665	0.0167531
788.744	0.0166762
788.822	0.0166086
788.900	0.0167610
788.978	0.0167149
789.056	0.0165926
789.134	0.0166158
789.212	0.0164463
789.290	0.0166998
789.369	0.0166159
789.447	0.0166135
789.525	0.0165543
789.603	0.0164667
789.681	0.0165749
789.759	0.0165302
789.837	0.0165749
789.915	0.0164774
789.994	0.0165894
790.072	0.0164691
790.150	0.0165237
790.228	0.0167572
790.306	0.0165361
790.384	0.0165337
790.462	0.0164469
790.540	0.0164469
790.619	0.0163968
790.697	0.0166170
790.775	0.0164809
790.853	0.0165057
790.931	0.0165543
791.009	0.0165324
791.087	0.0165362
791.165	0.0165389
791.244	0.0164494
791.322	0.0165646
791.400	0.0166925
791.478	0.0166942
791.556	0.0165977
791.634	0.0166931
791.712	0.0166471
791.790	0.0166740
791.869	0.0167667
791.947	0.0167698
792.025	0.0168319
792.103	0.0167403
792.181	0.0169195
792.259	0.0169515
792.337	0.0168703
792.415	0.0166818
792.494	0.0168813
792.572	0.0169588
792.650	0.0168665
792.728	0.0168346
792.806	0.0168261
792.884	0.0168188
792.962	0.0167769
793.040	0.0167786
793.119	0.0167294
793.197	0.0167007
793.275	0.0166408
793.353	0.0165311
793.431	0.0165475
793.509	0.0165735
793.587	0.0165402
793.665	0.0163929
793.744	0.0165383
793.822	0.0164289
793.900	0.0165342
793.978	0.0164084
794.056	0.0164243
794.134	0.0163844
794.212	0.0163662
794.290	0.0164145
794.369	0.0163580
794.447	0.0164426
794.525	0.0163634
794.603	0.0162484
794.681	0.0163530
794.759	0.0165385
794.837	0.0163408
794.915	0.0163006
794.994	0.0164687
795.072	0.0162629
795.150	0.0164546
795.228	0.0163744
795.306	0.0164236
795.384	0.0165023
795.462	0.0164412
795.540	0.0165622
795.619	0.0165833
795.697	0.0165327
795.775	0.0164339
795.853	0.0165723
795.931	0.0166822
796.009	0.0167139
796.087	0.0166956
796.165	0.0166608
796.244	0.0167743
796.322	0.0167874
796.400	0.0167272
796.478	0.0167580
796.556	0.0168459
796.634	0.0168697
796.712	0.0168038
796.790	0.0168112
796.869	0.0169010
796.947	0.0167925
797.025	0.0167548
797.103	0.0170440
797.181	0.0169366
797.259	0.0168031
797.337	0.0167406
797.415	0.0167447
797.494	0.0167358
797.572	0.0168990
797.650	0.0167938
797.728	0.0166869
797.806	0.0166984
797.884	0.0166811
797.962	0.0167023
798.040	0.0166899
798.119	0.0168567
798.197	0.0168127
798.275	0.0166857
798.353	0.0166618
798.431	0.0165826
798.509	0.0167102
798.587	0.0166888
798.665	0.0165724
798.744	0.0165314
798.822	0.0165984
798.900	0.0165318
798.978	0.0165058
799.056	0.0166030
799.134	0.0163950
799.212	0.0165215
799.290	0.0166009
799.369	0.0165276
799.447	0.0166400
799.525	0.0164645
799.603	0.0164676
799.681	0.0165933
799.759	0.0165297
799.837	0.0165106
799.915	0.0166422
799.994	0.0164922
800.072	0.0164998
800.150	0.0165284
800.228	0.0163973
800.306	0.0166617
800.384	0.0165973
800.462	0.0164425
800.540	0.0164823
800.619	0.0166035
800.697	0.0164827
800.775	0.0164724
800.853	0.0166168
800.931	0.0164922
801.009	0.0164552
801.087	0.0165012
801.165	0.0164903
801.244	0.0165728
801.322	0.0166232
801.400	0.0165536
801.478	0.0165854
801.556	0.0165385
801.634	0.0166169
801.712	0.0168144
801.790	0.0167410
801.869	0.0167742
801.947	0.0168253
802.025	0.0167366
802.103	0.0167761
802.181	0.0167562
802.259	0.0167947
802.337	0.0167569
802.415	0.0167885
802.494	0.0166458
802.572	0.0167623
802.650	0.0168422
802.728	0.0165744
802.806	0.0166453
802.884	0.0167801
802.962	0.0167488
803.040	0.0167944
803.119	0.0166554
803.197	0.0164915
803.275	0.0166933
803.353	0.0166315
803.431	0.0165106
803.509	0.0167302
803.587	0.0166573
803.665	0.0165732
803.744	0.0164597
803.822	0.0164742
803.900	0.0165466
803.978	0.0163865
804.056	0.0163424
804.134	0.0163516
804.212	0.0162440
804.290	0.0163225
804.369	0.0162455
804.447	0.0164162
804.525	0.0162865
804.603	0.0163178
804.681	0.0162932
804.759	0.0162458
804.837	0.0163332
804.915	0.0162247
804.994	0.0163599
805.072	0.0164873
805.150	0.0162913
805.228	0.0164812
805.306	0.0166862
805.384	0.0166817
805.462	0.0166048
805.540	0.0166824
805.619	0.0167648
805.697	0.0166476
805.775	0.0167347
805.853	0.0167215
805.931	0.0167857
806.009	0.0168877
806.087	0.0167319
806.165	0.0166997
806.244	0.0167338
806.322	0.0166214
806.400	0.0167041
806.478	0.0165842
806.556	0.0166107
806.634	0.0165399
806.712	0.0165859
806.790	0.0166507
806.869	0.0163863
806.947	0.0165105
807.025	0.0163790
807.103	0.0164049
807.181	0.0163528
807.259	0.0163165
807.337	0.0163122
807.415	0.0162322
807.494	0.0160962
807.572	0.0162157
807.650	0.0161382
807.728	0.0162164
807.806	0.0162537
807.884	0.0162766
807.962	0.0162074
808.040	0.0161745
808.119	0.0160604
808.197	0.0160424
808.275	0.0161653
808.353	0.0161806
808.431	0.0161394
808.509	0.0161646
808.587	0.0161224
808.665	0.0161420
808.744	0.0162019
808.822	0.0162017
808.900	0.0162509
808.978	0.0161508
809.056	0.0161169
809.134	0.0163165
809.212	0.0162524
809.290	0.0162914
809.369	0.0162604
809.447	0.0164144
809.525	0.0164624
809.603	0.0164561
809.681	0.0165860
809.759	0.0168016
809.837	0.0167287
809.915	0.0166780
809.994	0.0166215
810.072	0.0167088
810.150	0.0167996
810.228	0.0169154
810.306	0.0167065
810.384	0.0167846
810.462	0.0168186
810.540	0.0165907
810.619	0.0165902
810.697	0.0167085
810.775	0.0167045
810.853	0.0167379
810.931	0.0165158
811.009	0.0165799
811.087	0.0165468
811.165	0.0165002
811.244	0.0165308
811.322	0.0165430
811.400	0.0164951
811.478	0.0165218
811.556	0.0165397
811.634	0.0162935
811.712	0.0164653
811.790	0.0164174
811.869	0.0163924
811.947	0.0163491
812.025	0.0162952
812.103	0.0162596
812.181	0.0161848
812.259	0.0163512
812.337	0.0162513
812.415	0.0163388
812.494	0.0163470
812.572	0.0161602
812.650	0.0161771
812.728	0.0162183
812.806	0.0161739
812.884	0.0161592
812.962	0.0163016
813.040	0.0162502
813.119	0.0163360
813.197	0.0164331
813.275	0.0163477
813.353	0.0164288
813.431	0.0164767
813.509	0.0164530
813.587	0.0165118
813.665	0.0164330
813.744	0.0165884
813.822	0.0166724
813.900	0.0166161
813.978	0.0166360
814.056	0.0166591
814.134	0.0167485
814.212	0.0167963
814.290	0.0169073
814.369	0.0167735
814.447	0.0167503
814.525	0.0168592
814.603	0.0168767
814.681	0.0167810
814.759	0.0169065
814.837	0.0169202
814.915	0.0168968
814.994	0.0169328
815.072	0.0170010
815.150	0.0169051
815.228	0.0168239
815.306	0.0170896
815.384	0.0170035
815.462	0.0168719
815.540	0.0168952
815.619	0.0169194
815.697	0.0166714
815.775	0.0167553
815.853	0.0168040
815.931	0.0165526
816.009	0.0166474
816.087	0.0166338
816.165	0.0165549
816.244	0.0166306
816.322	0.0165565
816.400	0.0165841
816.478	0.0164845
816.556	0.0163061
816.634	0.0164608
816.712	0.0164997
816.790	0.0161687
816.869	0.0161639
816.947	0.0162650
817.025	0.0163413
817.103	0.0163150
817.181	0.0162097
817.259	0.0161679
817.337	0.0161558
817.415	0.0161818
817.494	0.0161591
817.572	0.0160338
817.650	0.0160559
817.728	0.0160244
817.806	0.0160702
817.884	0.0160583
817.962	0.0162431
818.040	0.0162736
818.119	0.0161964
818.197	0.0162212
818.275	0.0162706
818.353	0.0162866
818.431	0.0163723
818.509	0.0163733
818.587	0.0163126
818.665	0.0164304
818.744	0.0163885
818.822	0.0165172
818.900	0.0165031
818.978	0.0165417
819.056	0.0166006
819.134	0.0166622
819.212	0.0167418
819.290	0.0167445
819.369	0.0165873
819.447	0.0167114
819.525	0.0169543
819.603	0.0169326
819.681	0.0168721
819.759	0.0168188
819.837	0.0168809
819.915	0.0168030
819.994	0.0168508
820.072	0.0168611
820.150	0.0167104
820.228	0.0168296
820.306	0.0167570
820.384	0.0166875
820.462	0.0167207
820.540	0.0166443
820.619	0.0167447
820.697	0.0167310
820.775	0.0166763
820.853	0.0165969
820.931	0.0166421
821.009	0.0166653
821.087	0.0166387
821.165	0.0165960
821.244	0.0166500
821.322	0.0166662
821.400	0.0166774
821.478	0.0165112
821.556	0.0165537
821.634	0.0167390
821.712	0.0165681
821.790	0.0165885
821.869	0.0164913
821.947	0.0165873
822.025	0.0165397
822.103	0.0166344
822.181	0.0165760
822.259	0.0166187
822.337	0.0165816
822.415	0.0166517
822.494	0.0166844
822.572	0.0166415
822.650	0.0167296
822.728	0.0167121
822.806	0.0166916
822.884	0.0167835
822.962	0.0168575
823.040	0.0169645
823.119	0.0167035
823.197	0.0166706
823.275	0.0168477
823.353	0.0169529
823.431	0.0168223
823.509	0.0168010
823.587	0.0168671
823.665	0.0168487
823.744	0.0168040
823.822	0.0168999
823.900	0.0168282
823.978	0.0167953
824.056	0.0168695
824.134	0.0166882
824.212	0.0166287
824.290	0.0165082
824.369	0.0166274
824.447	0.0164600
824.525	0.0164145
824.603	0.0163028
824.681	0.0163215
824.759	0.0162254
824.837	0.0164221
824.915	0.0162254
824.994	0.0161992
825.072	0.0162836
825.150	0.0163343
825.228	0.0160783
825.306	0.0161461
825.384	0.0161178
825.462	0.0160225
825.540	0.0159622
825.619	0.0160740
825.697	0.0162195
825.775	0.0162537
825.853	0.0160740
825.931	0.0161726
826.009	0.0161757
826.087	0.0161877
826.165	0.0162728
826.244	0.0163040
826.322	0.0163279
826.400	0.0163342
826.478	0.0163284
826.556	0.0163100
826.634	0.0164441
826.712	0.0163909
826.790	0.0164293
826.869	0.0164624
826.947	0.0163997
827.025	0.0164307
827.103	0.0163322
827.181	0.0164292
827.259	0.0163002
827.337	0.0164742
827.415	0.0164750
827.494	0.0165027
827.572	0.0162486
827.650	0.0165339
827.728	0.0163681
827.806	0.0163984
827.884	0.0163692
827.962	0.0164024
828.040	0.0164640
828.119	0.0162862
828.197	0.0163312
828.275	0.0165702
828.353	0.0164224
828.431	0.0165305
828.509	0.0164060
828.587	0.0164264
828.665	0.0163596
828.744	0.0164359
828.822	0.0163603
828.900	0.0163230
828.978	0.0163266
829.056	0.0163837
829.134	0.0162753
829.212	0.0162898
829.290	0.0163544
829.369	0.0163302
829.447	0.0163557
829.525	0.0163422
829.603	0.0163412
829.681	0.0162879
829.759	0.0163645
829.837	0.0163842
829.915	0.0163517
829.994	0.0163661
830.072	0.0164330
830.150	0.0164693
830.228	0.0163529
830.306	0.0163288
830.384	0.0163865
830.462	0.0163493
830.540	0.0164053
830.619	0.0164461
830.697	0.0164613
830.775	0.0164154
830.853	0.0163022
830.931	0.0163780
831.009	0.0163502
831.087	0.0162437
831.165	0.0163828
831.244	0.0163504
831.322	0.0164323
831.400	0.0164431
831.478	0.0164660
831.556	0.0163967
831.634	0.0163622
831.712	0.0164874
831.790	0.0163747
831.869	0.0165448
831.947	0.0167501
832.025	0.0165288
832.103	0.0165874
832.181	0.0167358
832.259	0.0166352
832.337	0.0166309
832.415	0.0166968
832.494	0.0168262
832.572	0.0168672
832.650	0.0168579
832.728	0.0167973
832.806	0.0169479
832.884	0.0167988
832.962	0.0167588
833.040	0.0168176
833.119	0.0167168
833.197	0.0167996
833.275	0.0167574
833.353	0.0168179
833.431	0.0167656
833.509	0.0168623
833.587	0.0167271
833.665	0.0166875
833.744	0.0166538
833.822	0.0167409
833.900	0.0165697
833.978	0.0167509
834.056	0.0165934
834.134	0.0165491
834.212	0.0166054
834.290	0.0165552
834.369	0.0163633
834.447	0.0164930
834.525	0.0163680
834.603	0.0164795
834.681	0.0163643
834.759	0.0163075
834.837	0.0162343
834.915	0.0163192
834.994	0.0163433
835.072	0.0161845
835.150	0.0162989
835.228	0.0162936
835.306	0.0163084
835.384	0.0162201
835.462	0.0163492
835.540	0.0163218
835.619	0.0162782
835.697	0.0162548
835.775	0.0162396
835.853	0.0164105
835.931	0.0163729
836.009	0.0162200
836.087	0.0163522
836.165	0.0163975
836.244	0.0163744
836.322	0.0166351
836.400	0.0166061
836.478	0.0165651
836.556	0.0165905
836.634	0.0164143
836.712	0.0165733
836.790	0.0165023
836.869	0.0164008
836.947	0.0165166
837.025	0.0164032
837.103	0.0164942
837.181	0.0164605
837.259	0.0164538
837.337	0.0164175
837.415	0.0163673
837.494	0.0164391
837.572	0.0162260
837.650	0.0162977
837.728	0.0162987
837.806	0.0162560
837.884	0.0162792
837.962	0.0161751
838.040	0.0162462
838.119	0.0162376
838.197	0.0163663
838.275	0.0162136
838.353	0.0162209
838.431	0.0161550
838.509	0.0160960
838.587	0.0162334
838.665	0.0162957
838.744	0.0161035
838.822	0.0161539
838.900	0.0162424
838.978	0.0162929
839.056	0.0161709
839.134	0.0160271
839.212	0.0159498
839.290	0.0160798
839.369	0.0163179
839.447	0.0163461
839.525	0.0162714
839.603	0.0163638
839.681	0.0162297
839.759	0.0163417
839.837	0.0163365
839.915	0.0163253
839.994	0.0163793
840.072	0.0163562
840.150	0.0165406
840.228	0.0164243
840.306	0.0164794
840.384	0.0165033
840.462	0.0165019
840.540	0.0163561
840.619	0.0164632
840.697	0.0164783
840.775	0.0164516
840.853	0.0162707
840.931	0.0164339
841.009	0.0163297
841.087	0.0163274
841.165	0.0164718
841.244	0.0163662
841.322	0.0164774
841.400	0.0165701
841.478	0.0164298
841.556	0.0166084
841.634	0.0165357
841.712	0.0163981
841.790	0.0165727
841.869	0.0164891
841.947	0.0164657
842.025	0.0164695
842.103	0.0166502
842.181	0.0166207
842.259	0.0165566
842.337	0.0165407
842.415	0.0165540
842.494	0.0165170
842.572	0.0165120
842.650	0.0166669
842.728	0.0166463
842.806	0.0165282
842.884	0.0165716
842.962	0.0165076
843.040	0.0165701
843.119	0.0166045
843.197	0.0165067
843.275	0.0164818
843.353	0.0165010
843.431	0.0163344
843.509	0.0165038
843.587	0.0165514
843.665	0.0163626
843.744	0.0163788
843.822	0.0164041
843.900	0.0164659
843.978	0.0164057
844.056	0.0162994
844.134	0.0164993
844.212	0.0164577
844.290	0.0165713
844.369	0.0165034
844.447	0.0164520
844.525	0.0164697
844.603	0.0165085
844.681	0.0165383
844.759	0.0165273
844.837	0.0165573
844.915	0.0165398
844.994	0.0166028
845.072	0.0165679
845.150	0.0165586
845.228	0.0165569
845.306	0.0165498
845.384	0.0166654
845.462	0.0166255
845.540	0.0167159
845.619	0.0166772
845.697	0.0166902
845.775	0.0166862
845.853	0.0167361
845.931	0.0166988
846.009	0.0166565
846.087	0.0166901
846.165	0.0166830
846.244	0.0166733
846.322	0.0167598
846.400	0.0167533
846.478	0.0168359
846.556	0.0167689
846.634	0.0166612
846.712	0.0166425
846.790	0.0167622
846.869	0.0167783
846.947	0.0166604
847.025	0.0167124
847.103	0.0167259
847.181	0.0168643
847.259	0.0167400
847.337	0.0167313
847.415	0.0167593
847.494	0.0166985
847.572	0.0167632
847.650	0.0168017
847.728	0.0166798
847.806	0.0166883
847.884	0.0166933
847.962	0.0166702
848.040	0.0166081
848.119	0.0166319
848.197	0.0166373
848.275	0.0166435
848.353	0.0164238
848.431	0.0164060
848.509	0.0164931
848.587	0.0164330
848.665	0.0164073
848.744	0.0162846
848.822	0.0164970
848.900	0.0163976
848.978	0.0162633
849.056	0.0162934
849.134	0.0163334
849.212	0.0162879
849.290	0.0163158
849.369	0.0163963
849.447	0.0165177
849.525	0.0163754
849.603	0.0165373
849.681	0.0163216
849.759	0.0163710
849.837	0.0165640
849.915	0.0165140
849.994	0.0166166
850.072	0.0166525
850.150	0.0166674
850.228	0.0166402
850.306	0.0167085
850.384	0.0167351
850.462	0.0165929
850.540	0.0166436
850.619	0.0166613
850.697	0.0166959
850.775	0.0167278
850.853	0.0165771
850.931	0.0165092
851.009	0.0166691
851.087	0.0163896
851.165	0.0165319
851.244	0.0164245
851.322	0.0163496
851.400	0.0165704
851.478	0.0164282
851.556	0.0163322
851.634	0.0163617
851.712	0.0164005
851.790	0.0163863
851.869	0.0162697
851.947	0.0163855
852.025	0.0164908
852.103	0.0165658
852.181	0.0164651
852.259	0.0165240
852.337	0.0163844
852.415	0.0166229
852.494	0.0166705
852.572	0.0165150
852.650	0.0166076
852.728	0.0168044
852.806	0.0167544
852.884	0.0164808
852.962	0.0165937
853.040	0.0166072
853.119	0.0164382
853.197	0.0164489
853.275	0.0165376
853.353	0.0164801
853.431	0.0165549
853.509	0.0166795
853.587	0.0165928
853.665	0.0165412
853.744	0.0165232
853.822	0.0166399
853.900	0.0165201
853.978	0.0166197
854.056	0.0166697
854.134	0.0166493
854.212	0.0164832
854.290	0.0165890
854.369	0.0165581
854.447	0.0166702
854.525	0.0166223
854.603	0.0166707
854.681	0.0164722
854.759	0.0166325
854.837	0.0166799
854.915	0.0165234
854.994	0.0166014
855.072	0.0165796
855.150	0.0165714
855.228	0.0166473
855.306	0.0165559
855.384	0.0165013
855.462	0.0165843
855.540	0.0166757
855.619	0.0166089
855.697	0.0165958
855.775	0.0167085
855.853	0.0165204
855.931	0.0167403
856.009	0.0165755
856.087	0.0165462
856.165	0.0165617
856.244	0.0166000
856.322	0.0164861
856.400	0.0164705
856.478	0.0164648
856.556	0.0162754
856.634	0.0164416
856.712	0.0165075
856.790	0.0163726
856.869	0.0165064
856.947	0.0165276
857.025	0.0164305
857.103	0.0163345
857.181	0.0164434
857.259	0.0164569
857.337	0.0165290
857.415	0.0165732
857.494	0.0163433
857.572	0.0163941
857.650	0.0164289
857.728	0.0164082
857.806	0.0164295
857.884	0.0164011
857.962	0.0164043
858.040	0.0164783
858.119	0.0163927
858.197	0.0164378
858.275	0.0164390
858.353	0.0164542
858.431	0.0163486
858.509	0.0162851
858.587	0.0164723
858.665	0.0164783
858.744	0.0163567
858.822	0.0164731
858.900	0.0163889
858.978	0.0164110
859.056	0.0165370
859.134	0.0164254
859.212	0.0164594
859.290	0.0164307
859.369	0.0164990
859.447	0.0164669
859.525	0.0164803
859.603	0.0164117
859.681	0.0164051
859.759	0.0164272
859.837	0.0166113
859.915	0.0164141
