06/01/2022	17:46:27	Ver.	4.1	UNKNOWN
Optical Delay	539.993571	Delta X		0.078125	Sweeps	1	Scan Rate	0/0
Coordinates	Axis 1	NaN	Axis 2	NaN	Axis 3	NaN	Axis 4	NaN	Axis 5	NaN	Axis 6	0.000000
TX Power	0.000000	RX Power	0.000000

539.994	0.0168255
540.072	0.0168763
540.150	0.0168276
540.228	0.0168177
540.306	0.0168391
540.384	0.0167931
540.462	0.0167595
540.540	0.0168169
540.619	0.0168349
540.697	0.0168316
540.775	0.0168255
540.853	0.0168001
540.931	0.0168243
541.009	0.0168483
541.087	0.0168908
541.165	0.0169880
541.244	0.0169084
541.322	0.0169785
541.400	0.0168192
541.478	0.0169101
541.556	0.0169164
541.634	0.0168920
541.712	0.0169341
541.790	0.0168482
541.869	0.0168188
541.947	0.0169130
542.025	0.0167672
542.103	0.0168797
542.181	0.0167815
542.259	0.0168121
542.337	0.0168189
542.415	0.0168362
542.494	0.0168428
542.572	0.0168581
542.650	0.0167982
542.728	0.0166920
542.806	0.0167844
542.884	0.0167908
542.962	0.0167829
543.040	0.0168455
543.119	0.0167174
543.197	0.0167282
543.275	0.0167886
543.353	0.0170042
543.431	0.0169493
543.509	0.0166605
543.587	0.0168333
543.665	0.0167370
543.744	0.0168699
543.822	0.0168262
543.900	0.0168298
543.978	0.0167716
544.056	0.0166844
544.134	0.0167365
544.212	0.0167992
544.290	0.0167532
544.369	0.0166904
544.447	0.0167090
544.525	0.0167303
544.603	0.0167495
544.681	0.0168176
544.759	0.0166250
544.837	0.0167360
544.915	0.0166660
544.994	0.0165961
545.072	0.0167924
545.150	0.0167426
545.228	0.0166400
545.306	0.0166935
545.384	0.0166800
545.462	0.0166796
545.540	0.0166924
545.619	0.0167464
545.697	0.0167236
545.775	0.0167165
545.853	0.0167875
545.931	0.0167876
546.009	0.0167327
546.087	0.0166989
546.165	0.0167757
546.244	0.0168411
546.322	0.0167693
546.400	0.0167004
546.478	0.0168618
546.556	0.0166704
546.634	0.0166736
546.712	0.0167348
546.790	0.0167970
546.869	0.0166716
546.947	0.0167845
547.025	0.0167153
547.103	0.0166960
547.181	0.0165662
547.259	0.0167326
547.337	0.0168169
547.415	0.0167725
547.494	0.0167064
547.572	0.0167783
547.650	0.0166793
547.728	0.0166959
547.806	0.0168755
547.884	0.0168185
547.962	0.0166740
548.040	0.0169367
548.119	0.0167262
548.197	0.0167319
548.275	0.0168047
548.353	0.0168603
548.431	0.0168408
548.509	0.0167729
548.587	0.0169381
548.665	0.0168706
548.744	0.0168996
548.822	0.0168695
548.900	0.0168086
548.978	0.0169124
549.056	0.0168292
549.134	0.0169493
549.212	0.0168545
549.290	0.0169311
549.369	0.0168843
549.447	0.0167786
549.525	0.0168674
549.603	0.0168684
549.681	0.0168565
549.759	0.0169202
549.837	0.0168810
549.915	0.0168605
549.994	0.0166989
550.072	0.0167252
550.150	0.0169666
550.228	0.0167571
550.306	0.0167952
550.384	0.0168700
550.462	0.0169231
550.540	0.0167998
550.619	0.0167803
550.697	0.0167719
550.775	0.0166769
550.853	0.0166075
550.931	0.0167374
551.009	0.0167059
551.087	0.0166760
551.165	0.0167048
551.244	0.0166699
551.322	0.0165943
551.400	0.0166859
551.478	0.0167473
551.556	0.0167609
551.634	0.0166100
551.712	0.0168850
551.790	0.0169009
551.869	0.0167127
551.947	0.0167082
552.025	0.0167352
552.103	0.0167924
552.181	0.0167554
552.259	0.0168354
552.337	0.0167805
552.415	0.0167155
552.494	0.0167881
552.572	0.0167783
552.650	0.0167248
552.728	0.0167620
552.806	0.0168622
552.884	0.0167783
552.962	0.0167676
553.040	0.0166476
553.119	0.0168010
553.197	0.0168971
553.275	0.0167278
553.353	0.0166874
553.431	0.0167152
553.509	0.0167977
553.587	0.0167386
553.665	0.0168119
553.744	0.0168385
553.822	0.0167370
553.900	0.0168166
553.978	0.0167418
554.056	0.0166233
554.134	0.0169100
554.212	0.0168590
554.290	0.0168670
554.369	0.0166829
554.447	0.0168099
554.525	0.0167028
554.603	0.0167723
554.681	0.0167895
554.759	0.0166326
554.837	0.0166510
554.915	0.0168011
554.994	0.0167779
555.072	0.0167902
555.150	0.0166680
555.228	0.0166277
555.306	0.0166817
555.384	0.0167729
555.462	0.0167263
555.540	0.0167072
555.619	0.0167184
555.697	0.0168645
555.775	0.0168526
555.853	0.0167271
555.931	0.0169073
556.009	0.0169245
556.087	0.0168886
556.165	0.0167971
556.244	0.0168629
556.322	0.0167962
556.400	0.0168476
556.478	0.0169532
556.556	0.0168953
556.634	0.0169367
556.712	0.0168878
556.790	0.0169575
556.869	0.0170940
556.947	0.0170083
557.025	0.0170099
557.103	0.0170795
557.181	0.0170033
557.259	0.0170943
557.337	0.0172797
557.415	0.0172248
557.494	0.0175416
557.572	0.0173837
557.650	0.0172178
557.728	0.0173199
557.806	0.0173206
557.884	0.0172846
557.962	0.0171160
558.040	0.0172741
558.119	0.0173309
558.197	0.0173210
558.275	0.0171308
558.353	0.0170660
558.431	0.0171700
558.509	0.0172766
558.587	0.0172581
558.665	0.0171139
558.744	0.0170001
558.822	0.0170625
558.900	0.0171371
558.978	0.0169759
559.056	0.0170134
559.134	0.0170047
559.212	0.0171432
559.290	0.0170546
559.369	0.0170996
559.447	0.0169532
559.525	0.0170049
559.603	0.0169201
559.681	0.0169803
559.759	0.0168633
559.837	0.0170018
559.915	0.0168209
559.994	0.0168482
560.072	0.0168316
560.150	0.0167991
560.228	0.0167037
560.306	0.0166651
560.384	0.0166155
560.462	0.0166366
560.540	0.0166715
560.619	0.0167456
560.697	0.0166262
560.775	0.0167709
560.853	0.0168362
560.931	0.0166805
561.009	0.0166950
561.087	0.0167069
561.165	0.0166883
561.244	0.0167226
561.322	0.0166783
561.400	0.0166848
561.478	0.0167249
561.556	0.0165935
561.634	0.0166826
561.712	0.0167383
561.790	0.0167448
561.869	0.0167113
561.947	0.0166491
562.025	0.0166644
562.103	0.0167549
562.181	0.0166404
562.259	0.0167494
562.337	0.0167106
562.415	0.0167270
562.494	0.0165932
562.572	0.0166331
562.650	0.0167438
562.728	0.0167930
562.806	0.0167793
562.884	0.0167751
562.962	0.0168312
563.040	0.0168352
563.119	0.0168868
563.197	0.0167564
563.275	0.0168221
563.353	0.0168242
563.431	0.0166800
563.509	0.0168661
563.587	0.0167433
563.665	0.0166335
563.744	0.0167455
563.822	0.0165804
563.900	0.0166295
563.978	0.0165932
564.056	0.0167510
564.134	0.0166691
564.212	0.0164813
564.290	0.0165629
564.369	0.0166013
564.447	0.0165199
564.525	0.0165623
564.603	0.0166068
564.681	0.0166847
564.759	0.0165975
564.837	0.0164862
564.915	0.0164683
564.994	0.0165622
565.072	0.0163538
565.150	0.0165331
565.228	0.0164880
565.306	0.0164209
565.384	0.0164657
565.462	0.0164897
565.540	0.0164922
565.619	0.0166059
565.697	0.0165446
565.775	0.0166200
565.853	0.0166990
565.931	0.0166494
566.009	0.0166657
566.087	0.0165340
566.165	0.0165147
566.244	0.0166851
566.322	0.0167671
566.400	0.0166727
566.478	0.0168054
566.556	0.0166509
566.634	0.0166186
566.712	0.0169136
566.790	0.0169318
566.869	0.0167828
566.947	0.0167583
567.025	0.0169450
567.103	0.0168850
567.181	0.0168211
567.259	0.0168504
567.337	0.0168503
567.415	0.0169137
567.494	0.0169032
567.572	0.0167497
567.650	0.0168224
567.728	0.0168816
567.806	0.0170580
567.884	0.0170831
567.962	0.0169607
568.040	0.0170377
568.119	0.0171351
568.197	0.0170419
568.275	0.0170008
568.353	0.0171082
568.431	0.0169361
568.509	0.0169043
568.587	0.0169752
568.665	0.0169850
568.744	0.0168191
568.822	0.0168433
568.900	0.0168736
568.978	0.0168871
569.056	0.0169379
569.134	0.0168991
569.212	0.0167044
569.290	0.0166473
569.369	0.0165711
569.447	0.0167067
569.525	0.0166257
569.603	0.0168204
569.681	0.0168074
569.759	0.0166367
569.837	0.0167021
569.915	0.0165369
569.994	0.0166432
570.072	0.0167818
570.150	0.0166376
570.228	0.0165895
570.306	0.0167398
570.384	0.0168049
570.462	0.0168021
570.540	0.0167509
570.619	0.0166678
570.697	0.0166667
570.775	0.0165562
570.853	0.0167211
570.931	0.0167081
571.009	0.0167131
571.087	0.0166804
571.165	0.0168537
571.244	0.0166885
571.322	0.0167194
571.400	0.0165937
571.478	0.0166282
571.556	0.0166129
571.634	0.0165148
571.712	0.0164857
571.790	0.0165246
571.869	0.0165240
571.947	0.0165576
572.025	0.0164261
572.103	0.0166688
572.181	0.0165634
572.259	0.0166375
572.337	0.0165308
572.415	0.0166757
572.494	0.0166296
572.572	0.0165875
572.650	0.0166511
572.728	0.0167625
572.806	0.0165733
572.884	0.0165992
572.962	0.0167200
573.040	0.0167535
573.119	0.0167155
573.197	0.0166528
573.275	0.0167507
573.353	0.0167568
573.431	0.0166856
573.509	0.0168059
573.587	0.0168466
573.665	0.0166791
573.744	0.0167558
573.822	0.0168914
573.900	0.0168377
573.978	0.0169067
574.056	0.0168685
574.134	0.0168678
574.212	0.0168016
574.290	0.0169897
574.369	0.0169511
574.447	0.0168780
574.525	0.0169971
574.603	0.0169850
574.681	0.0170636
574.759	0.0171214
574.837	0.0170799
574.915	0.0169785
574.994	0.0170824
575.072	0.0170172
575.150	0.0171152
575.228	0.0169836
575.306	0.0169938
575.384	0.0170301
575.462	0.0170458
575.540	0.0170030
575.619	0.0169199
575.697	0.0170139
575.775	0.0172031
575.853	0.0171058
575.931	0.0171118
576.009	0.0170539
576.087	0.0170663
576.165	0.0171367
576.244	0.0171165
576.322	0.0169928
576.400	0.0169868
576.478	0.0170359
576.556	0.0169723
576.634	0.0170443
576.712	0.0169360
576.790	0.0170174
576.869	0.0170280
576.947	0.0169336
577.025	0.0170651
577.103	0.0168836
577.181	0.0169014
577.259	0.0168474
577.337	0.0169489
577.415	0.0168858
577.494	0.0168319
577.572	0.0168791
577.650	0.0168378
577.728	0.0168785
577.806	0.0168378
577.884	0.0169061
577.962	0.0168326
578.040	0.0168480
578.119	0.0168388
578.197	0.0168556
578.275	0.0169358
578.353	0.0168797
578.431	0.0168603
578.509	0.0169673
578.587	0.0168450
578.665	0.0168738
578.744	0.0168922
578.822	0.0168567
578.900	0.0169778
578.978	0.0170431
579.056	0.0169606
579.134	0.0168886
579.212	0.0168481
579.290	0.0169710
579.369	0.0169946
579.447	0.0169592
579.525	0.0170673
579.603	0.0169354
579.681	0.0169184
579.759	0.0169889
579.837	0.0169474
579.915	0.0170426
579.994	0.0169429
580.072	0.0169702
580.150	0.0169396
580.228	0.0168283
580.306	0.0169426
580.384	0.0168410
580.462	0.0167590
580.540	0.0170443
580.619	0.0169980
580.697	0.0168874
580.775	0.0167583
580.853	0.0170512
580.931	0.0169195
581.009	0.0169422
581.087	0.0168205
581.165	0.0169147
581.244	0.0169435
581.322	0.0169730
581.400	0.0170156
581.478	0.0169464
581.556	0.0169948
581.634	0.0170664
581.712	0.0170618
581.790	0.0170444
581.869	0.0170666
581.947	0.0170074
582.025	0.0170333
582.103	0.0169830
582.181	0.0168507
582.259	0.0170875
582.337	0.0169768
582.415	0.0169630
582.494	0.0170479
582.572	0.0169015
582.650	0.0167607
582.728	0.0166347
582.806	0.0164957
582.884	0.0165363
582.962	0.0164896
583.040	0.0165958
583.119	0.0165881
583.197	0.0165818
583.275	0.0165381
583.353	0.0164972
583.431	0.0167305
583.509	0.0166051
583.587	0.0166277
583.665	0.0166302
583.744	0.0164809
583.822	0.0166663
583.900	0.0166141
583.978	0.0166871
584.056	0.0165578
584.134	0.0167359
584.212	0.0165791
584.290	0.0166164
584.369	0.0168400
584.447	0.0168701
584.525	0.0167931
584.603	0.0166906
584.681	0.0166219
584.759	0.0166719
584.837	0.0166969
584.915	0.0167520
584.994	0.0166084
585.072	0.0165722
585.150	0.0166010
585.228	0.0165248
585.306	0.0166109
585.384	0.0166419
585.462	0.0166782
585.540	0.0167857
585.619	0.0168211
585.697	0.0167947
585.775	0.0169967
585.853	0.0169975
585.931	0.0170997
586.009	0.0172100
586.087	0.0172736
586.165	0.0173518
586.244	0.0173213
586.322	0.0173514
586.400	0.0173020
586.478	0.0174474
586.556	0.0172666
586.634	0.0172736
586.712	0.0172489
586.790	0.0172325
586.869	0.0171028
586.947	0.0169510
587.025	0.0170960
587.103	0.0169435
587.181	0.0169881
587.259	0.0170885
587.337	0.0168349
587.415	0.0169107
587.494	0.0169041
587.572	0.0170673
587.650	0.0170230
587.728	0.0169759
587.806	0.0170639
587.884	0.0170944
587.962	0.0171521
588.040	0.0172259
588.119	0.0171526
588.197	0.0173164
588.275	0.0172038
588.353	0.0171603
588.431	0.0171418
588.509	0.0169967
588.587	0.0169407
588.665	0.0169277
588.744	0.0168963
588.822	0.0166641
588.900	0.0166559
588.978	0.0164285
589.056	0.0162751
589.134	0.0163367
589.212	0.0162151
589.290	0.0159293
589.369	0.0160269
589.447	0.0158447
589.525	0.0158750
589.603	0.0158813
589.681	0.0159624
589.759	0.0159617
589.837	0.0161607
589.915	0.0163191
589.994	0.0165632
590.072	0.0167040
590.150	0.0169102
590.228	0.0171208
590.306	0.0172767
590.384	0.0174454
590.462	0.0177942
590.540	0.0178040
590.619	0.0179125
590.697	0.0179890
590.775	0.0180485
590.853	0.0182706
590.931	0.0181619
591.009	0.0180460
591.087	0.0180567
591.165	0.0179614
591.244	0.0177203
591.322	0.0175890
591.400	0.0173220
591.478	0.0171246
591.556	0.0170377
591.634	0.0168519
591.712	0.0166016
591.790	0.0163380
591.869	0.0161892
591.947	0.0159229
592.025	0.0159830
592.103	0.0158428
592.181	0.0158346
592.259	0.0158923
592.337	0.0157088
592.415	0.0158913
592.494	0.0159674
592.572	0.0161635
592.650	0.0162347
592.728	0.0166310
592.806	0.0167418
592.884	0.0168571
592.962	0.0170744
593.040	0.0173386
593.119	0.0172936
593.197	0.0175115
593.275	0.0176286
593.353	0.0177808
593.431	0.0180814
593.509	0.0180899
593.587	0.0181765
593.665	0.0181895
593.744	0.0182070
593.822	0.0182117
593.900	0.0182053
593.978	0.0180902
594.056	0.0180363
594.134	0.0179455
594.212	0.0178889
594.290	0.0178345
594.369	0.0176571
594.447	0.0174191
594.525	0.0173855
594.603	0.0172420
594.681	0.0168858
594.759	0.0168230
594.837	0.0167787
594.915	0.0163678
594.994	0.0161179
595.072	0.0160366
595.150	0.0159139
595.228	0.0156895
595.306	0.0154693
595.384	0.0154498
595.462	0.0151343
595.540	0.0152448
595.619	0.0151566
595.697	0.0151208
595.775	0.0152055
595.853	0.0152449
595.931	0.0153203
596.009	0.0154325
596.087	0.0156241
596.165	0.0157619
596.244	0.0160149
596.322	0.0163589
596.400	0.0165916
596.478	0.0169886
596.556	0.0171840
596.634	0.0173587
596.712	0.0176951
596.790	0.0178603
596.869	0.0180387
596.947	0.0181572
597.025	0.0182703
597.103	0.0182394
597.181	0.0184632
597.259	0.0182771
597.337	0.0184462
597.415	0.0183930
597.494	0.0182455
597.572	0.0181890
597.650	0.0181082
597.728	0.0181170
597.806	0.0179781
597.884	0.0178822
597.962	0.0177401
598.040	0.0176955
598.119	0.0176321
598.197	0.0175945
598.275	0.0175350
598.353	0.0173905
598.431	0.0173573
598.509	0.0172762
598.587	0.0171836
598.665	0.0169850
598.744	0.0169093
598.822	0.0169492
598.900	0.0169333
598.978	0.0167418
599.056	0.0165415
599.134	0.0166087
599.212	0.0163865
599.290	0.0163125
599.369	0.0161417
599.447	0.0158197
599.525	0.0158289
599.603	0.0155908
599.681	0.0155957
599.759	0.0155083
599.837	0.0153100
599.915	0.0153786
599.994	0.0152477
600.072	0.0152325
600.150	0.0153992
600.228	0.0153826
600.306	0.0155824
600.384	0.0157861
600.462	0.0159299
600.540	0.0159933
600.619	0.0162613
600.697	0.0164523
600.775	0.0167274
600.853	0.0168900
600.931	0.0171567
601.009	0.0174886
601.087	0.0175784
601.165	0.0179566
601.244	0.0181688
601.322	0.0181795
601.400	0.0182989
601.478	0.0184560
601.556	0.0185223
601.634	0.0185957
601.712	0.0186366
601.790	0.0184703
601.869	0.0183166
601.947	0.0181919
602.025	0.0182581
602.103	0.0180494
602.181	0.0179984
602.259	0.0177811
602.337	0.0174863
602.415	0.0175533
602.494	0.0173882
602.572	0.0171525
602.650	0.0171468
602.728	0.0167612
602.806	0.0166585
602.884	0.0165553
602.962	0.0163673
603.040	0.0161905
603.119	0.0160315
603.197	0.0159985
603.275	0.0159270
603.353	0.0156360
603.431	0.0156425
603.509	0.0155573
603.587	0.0153773
603.665	0.0153960
603.744	0.0154364
603.822	0.0154773
603.900	0.0155440
603.978	0.0155479
604.056	0.0156439
604.134	0.0156901
604.212	0.0157571
604.290	0.0157455
604.369	0.0159060
604.447	0.0161042
604.525	0.0161924
604.603	0.0162129
604.681	0.0162222
604.759	0.0163472
604.837	0.0165592
604.915	0.0165263
604.994	0.0165372
605.072	0.0167313
605.150	0.0168330
605.228	0.0168810
605.306	0.0168601
605.384	0.0168687
605.462	0.0169920
605.540	0.0170618
605.619	0.0172551
605.697	0.0169138
605.775	0.0171513
605.853	0.0172303
605.931	0.0172995
606.009	0.0174555
606.087	0.0175263
606.165	0.0175792
606.244	0.0175443
606.322	0.0175655
606.400	0.0177772
606.478	0.0176807
606.556	0.0178720
606.634	0.0178386
606.712	0.0179733
606.790	0.0181090
606.869	0.0181576
606.947	0.0182628
607.025	0.0183601
607.103	0.0184104
607.181	0.0182887
607.259	0.0182731
607.337	0.0184382
607.415	0.0182131
607.494	0.0181723
607.572	0.0178993
607.650	0.0178510
607.728	0.0176970
607.806	0.0175807
607.884	0.0171725
607.962	0.0170096
608.040	0.0166126
608.119	0.0164999
608.197	0.0162612
608.275	0.0159988
608.353	0.0156676
608.431	0.0155276
608.509	0.0151603
608.587	0.0150469
608.665	0.0147575
608.744	0.0144765
608.822	0.0144563
608.900	0.0142424
608.978	0.0141837
609.056	0.0143159
609.134	0.0140947
609.212	0.0142697
609.290	0.0143889
609.369	0.0145691
609.447	0.0147472
609.525	0.0148061
609.603	0.0150038
609.681	0.0152931
609.759	0.0154870
609.837	0.0157144
609.915	0.0159747
609.994	0.0161412
610.072	0.0162646
610.150	0.0165262
610.228	0.0168315
610.306	0.0170161
610.384	0.0174404
610.462	0.0177238
610.540	0.0177751
610.619	0.0182404
610.697	0.0183466
610.775	0.0184634
610.853	0.0185027
610.931	0.0187825
611.009	0.0188448
611.087	0.0189107
611.165	0.0189631
611.244	0.0190317
611.322	0.0189996
611.400	0.0191216
611.478	0.0190108
611.556	0.0191959
611.634	0.0193024
611.712	0.0192883
611.790	0.0194740
611.869	0.0194206
611.947	0.0194724
612.025	0.0194331
612.103	0.0192937
612.181	0.0191282
612.259	0.0189273
612.337	0.0187714
612.415	0.0185177
612.494	0.0181721
612.572	0.0177738
612.650	0.0173574
612.728	0.0168596
612.806	0.0163267
612.884	0.0158463
612.962	0.0152178
613.040	0.0147227
613.119	0.0142641
613.197	0.0136786
613.275	0.0131866
613.353	0.0128937
613.431	0.0123991
613.509	0.0122615
613.587	0.0120596
613.665	0.0119933
613.744	0.0121372
613.822	0.0123560
613.900	0.0125821
613.978	0.0127094
614.056	0.0131270
614.134	0.0134845
614.212	0.0139745
614.290	0.0146644
614.369	0.0151965
614.447	0.0156811
614.525	0.0161914
614.603	0.0166568
614.681	0.0175262
614.759	0.0179159
614.837	0.0182854
614.915	0.0188268
614.994	0.0192459
615.072	0.0197140
615.150	0.0201390
615.228	0.0203848
615.306	0.0204722
615.384	0.0206024
615.462	0.0207001
615.540	0.0207612
615.619	0.0206100
615.697	0.0204754
615.775	0.0202797
615.853	0.0203036
615.931	0.0198487
616.009	0.0194880
616.087	0.0194707
616.165	0.0188953
616.244	0.0185336
616.322	0.0181912
616.400	0.0178832
616.478	0.0175434
616.556	0.0171368
616.634	0.0167854
616.712	0.0165450
616.790	0.0165511
616.869	0.0163062
616.947	0.0159460
617.025	0.0158002
617.103	0.0156224
617.181	0.0155364
617.259	0.0155067
617.337	0.0154388
617.415	0.0154912
617.494	0.0154472
617.572	0.0155093
617.650	0.0153871
617.728	0.0157009
617.806	0.0156229
617.884	0.0157177
617.962	0.0158813
618.040	0.0160711
618.119	0.0162291
618.197	0.0165390
618.275	0.0165305
618.353	0.0166626
618.431	0.0168474
618.509	0.0169030
618.587	0.0169437
618.665	0.0168832
618.744	0.0167854
618.822	0.0168600
618.900	0.0169641
618.978	0.0167043
619.056	0.0166750
619.134	0.0168148
619.212	0.0166351
619.290	0.0166925
619.369	0.0167581
619.447	0.0167653
619.525	0.0168388
619.603	0.0168307
619.681	0.0167879
619.759	0.0169394
619.837	0.0169256
619.915	0.0167595
619.994	0.0169444
620.072	0.0168288
620.150	0.0167702
620.228	0.0169720
620.306	0.0169896
620.384	0.0168837
620.462	0.0170119
620.540	0.0170362
620.619	0.0173673
620.697	0.0174879
620.775	0.0175292
620.853	0.0178225
620.931	0.0180217
621.009	0.0180811
621.087	0.0181750
621.165	0.0182804
621.244	0.0183726
621.322	0.0183533
621.400	0.0184102
621.478	0.0183392
621.556	0.0181854
621.634	0.0178691
621.712	0.0178307
621.790	0.0176424
621.869	0.0173805
621.947	0.0170193
622.025	0.0168434
622.103	0.0166077
622.181	0.0162383
622.259	0.0160703
622.337	0.0158279
622.415	0.0157559
622.494	0.0156359
622.572	0.0156480
622.650	0.0154113
622.728	0.0154306
622.806	0.0153283
622.884	0.0152981
622.962	0.0152934
623.040	0.0152615
623.119	0.0151818
623.197	0.0152757
623.275	0.0153517
623.353	0.0153200
623.431	0.0156059
623.509	0.0154903
623.587	0.0156100
623.665	0.0158044
623.744	0.0161559
623.822	0.0164150
623.900	0.0166823
623.978	0.0168929
624.056	0.0169946
624.134	0.0172557
624.212	0.0173233
624.290	0.0175898
624.369	0.0179907
624.447	0.0179100
624.525	0.0182089
624.603	0.0181793
624.681	0.0182881
624.759	0.0182668
624.837	0.0183591
624.915	0.0184829
624.994	0.0183945
625.072	0.0182791
625.150	0.0181467
625.228	0.0180738
625.306	0.0180779
625.384	0.0178838
625.462	0.0176291
625.540	0.0175708
625.619	0.0173301
625.697	0.0170512
625.775	0.0168882
625.853	0.0167030
625.931	0.0166652
626.009	0.0164939
626.087	0.0161278
626.165	0.0160899
626.244	0.0158787
626.322	0.0158107
626.400	0.0153584
626.478	0.0152666
626.556	0.0150931
626.634	0.0148453
626.712	0.0147820
626.790	0.0147849
626.869	0.0148447
626.947	0.0147270
627.025	0.0146844
627.103	0.0149566
627.181	0.0151683
627.259	0.0152869
627.337	0.0155933
627.415	0.0157249
627.494	0.0161611
627.572	0.0165694
627.650	0.0169118
627.728	0.0170544
627.806	0.0174793
627.884	0.0176891
627.962	0.0178780
628.040	0.0180334
628.119	0.0180241
628.197	0.0181269
628.275	0.0182003
628.353	0.0179404
628.431	0.0176969
628.509	0.0177468
628.587	0.0174787
628.665	0.0172280
628.744	0.0171297
628.822	0.0168362
628.900	0.0168003
628.978	0.0168395
629.056	0.0166264
629.134	0.0166412
629.212	0.0166472
629.290	0.0166708
629.369	0.0167162
629.447	0.0166689
629.525	0.0167768
629.603	0.0167018
629.681	0.0166673
629.759	0.0169217
629.837	0.0167963
629.915	0.0166987
629.994	0.0167323
630.072	0.0168111
630.150	0.0167329
630.228	0.0167065
630.306	0.0168724
630.384	0.0169592
630.462	0.0170687
630.540	0.0172762
630.619	0.0173128
630.697	0.0175336
630.775	0.0176463
630.853	0.0177740
630.931	0.0179377
631.009	0.0178840
631.087	0.0179640
631.165	0.0179986
631.244	0.0178684
631.322	0.0179117
631.400	0.0177111
631.478	0.0176681
631.556	0.0173983
631.634	0.0172633
631.712	0.0169542
631.790	0.0166195
631.869	0.0165489
631.947	0.0162734
632.025	0.0161256
632.103	0.0158604
632.181	0.0156916
632.259	0.0153865
632.337	0.0150648
632.415	0.0149748
632.494	0.0147815
632.572	0.0145626
632.650	0.0144817
632.728	0.0144619
632.806	0.0143493
632.884	0.0144330
632.962	0.0144131
633.040	0.0143925
633.119	0.0145532
633.197	0.0146815
633.275	0.0148089
633.353	0.0150502
633.431	0.0152248
633.509	0.0155332
633.587	0.0155272
633.665	0.0158418
633.744	0.0163324
633.822	0.0165077
633.900	0.0166933
633.978	0.0171847
634.056	0.0174199
634.134	0.0177615
634.212	0.0181675
634.290	0.0183630
634.369	0.0186064
634.447	0.0188651
634.525	0.0189182
634.603	0.0191509
634.681	0.0192369
634.759	0.0193997
634.837	0.0194836
634.915	0.0195783
634.994	0.0195693
635.072	0.0195495
635.150	0.0194517
635.228	0.0194380
635.306	0.0193788
635.384	0.0193739
635.462	0.0192217
635.540	0.0189986
635.619	0.0189663
635.697	0.0187438
635.775	0.0184345
635.853	0.0179971
635.931	0.0178516
636.009	0.0174603
636.087	0.0171914
636.165	0.0168788
636.244	0.0164745
636.322	0.0160893
636.400	0.0158205
636.478	0.0154240
636.556	0.0152898
636.634	0.0150409
636.712	0.0148344
636.790	0.0147057
636.869	0.0146610
636.947	0.0145464
637.025	0.0146953
637.103	0.0147046
637.181	0.0146876
637.259	0.0151575
637.337	0.0151530
637.415	0.0154441
637.494	0.0155748
637.572	0.0156630
637.650	0.0158054
637.728	0.0160661
637.806	0.0162234
637.884	0.0162370
637.962	0.0165087
638.040	0.0165636
638.119	0.0165546
638.197	0.0167309
638.275	0.0167935
638.353	0.0169184
638.431	0.0170121
638.509	0.0170852
638.587	0.0170193
638.665	0.0169996
638.744	0.0170974
638.822	0.0171400
638.900	0.0172327
638.978	0.0170169
639.056	0.0170314
639.134	0.0170641
639.212	0.0170231
639.290	0.0170151
639.369	0.0170276
639.447	0.0170161
639.525	0.0170876
639.603	0.0171260
639.681	0.0172971
639.759	0.0173943
639.837	0.0173300
639.915	0.0173572
639.994	0.0174895
640.072	0.0175159
640.150	0.0173252
640.228	0.0173586
640.306	0.0172234
640.384	0.0173306
640.462	0.0172231
640.540	0.0171219
640.619	0.0170807
640.697	0.0171075
640.775	0.0170558
640.853	0.0171978
640.931	0.0172694
641.009	0.0171933
641.087	0.0171683
641.165	0.0172020
641.244	0.0171732
641.322	0.0170909
641.400	0.0171591
641.478	0.0171361
641.556	0.0169300
641.634	0.0167384
641.712	0.0168589
641.790	0.0166769
641.869	0.0164273
641.947	0.0161782
642.025	0.0161887
642.103	0.0163046
642.181	0.0161827
642.259	0.0161220
642.337	0.0162759
642.415	0.0163502
642.494	0.0163058
642.572	0.0164748
642.650	0.0166085
642.728	0.0165672
642.806	0.0167310
642.884	0.0170736
642.962	0.0170293
643.040	0.0170538
643.119	0.0171885
643.197	0.0171857
643.275	0.0173704
643.353	0.0172401
643.431	0.0172209
643.509	0.0172552
643.587	0.0172305
643.665	0.0171999
643.744	0.0172755
643.822	0.0171742
643.900	0.0171870
643.978	0.0170976
644.056	0.0171998
644.134	0.0172573
644.212	0.0171306
644.290	0.0173792
644.369	0.0173063
644.447	0.0171066
644.525	0.0172527
644.603	0.0171326
644.681	0.0170854
644.759	0.0169968
644.837	0.0169618
644.915	0.0168811
644.994	0.0166228
645.072	0.0167136
645.150	0.0165281
645.228	0.0163984
645.306	0.0162137
645.384	0.0160574
645.462	0.0159844
645.540	0.0160719
645.619	0.0159584
645.697	0.0159110
645.775	0.0158345
645.853	0.0158789
645.931	0.0158810
646.009	0.0158557
646.087	0.0159305
646.165	0.0157759
646.244	0.0158752
646.322	0.0159316
646.400	0.0159617
646.478	0.0159591
646.556	0.0160777
646.634	0.0161161
646.712	0.0162173
646.790	0.0162162
646.869	0.0164757
646.947	0.0165495
647.025	0.0165351
647.103	0.0167655
647.181	0.0169128
647.259	0.0170512
647.337	0.0171220
647.415	0.0172611
647.494	0.0176224
647.572	0.0176357
647.650	0.0177462
647.728	0.0176881
647.806	0.0178120
647.884	0.0180089
647.962	0.0178445
648.040	0.0178159
648.119	0.0178190
648.197	0.0179934
648.275	0.0179356
648.353	0.0179420
648.431	0.0179561
648.509	0.0180325
648.587	0.0179314
648.665	0.0180885
648.744	0.0180422
648.822	0.0178957
648.900	0.0178993
648.978	0.0177695
649.056	0.0177493
649.134	0.0174638
649.212	0.0173865
649.290	0.0173662
649.369	0.0172880
649.447	0.0171334
649.525	0.0169925
649.603	0.0167960
649.681	0.0168069
649.759	0.0165692
649.837	0.0163340
649.915	0.0162943
649.994	0.0161146
650.072	0.0159945
650.150	0.0158895
650.228	0.0157069
650.306	0.0156593
650.384	0.0157994
650.462	0.0156875
650.540	0.0158285
650.619	0.0158445
650.697	0.0158704
650.775	0.0160712
650.853	0.0161257
650.931	0.0163106
651.009	0.0165087
651.087	0.0166798
651.165	0.0167720
651.244	0.0168620
651.322	0.0170302
651.400	0.0171111
651.478	0.0171803
651.556	0.0173754
651.634	0.0173391
651.712	0.0171688
651.790	0.0172289
651.869	0.0172721
651.947	0.0171948
652.025	0.0172034
652.103	0.0169573
652.181	0.0169796
652.259	0.0169454
652.337	0.0169269
652.415	0.0167940
652.494	0.0167654
652.572	0.0167963
652.650	0.0168356
652.728	0.0166363
652.806	0.0165713
652.884	0.0166174
652.962	0.0165759
653.040	0.0163885
653.119	0.0163609
653.197	0.0164616
653.275	0.0162953
653.353	0.0163132
653.431	0.0163699
653.509	0.0162971
653.587	0.0164141
653.665	0.0165160
653.744	0.0164907
653.822	0.0165904
653.900	0.0165628
653.978	0.0167104
654.056	0.0166775
654.134	0.0168184
654.212	0.0167845
654.290	0.0167608
654.369	0.0169561
654.447	0.0170640
654.525	0.0170288
654.603	0.0170113
654.681	0.0171413
654.759	0.0170841
654.837	0.0169968
654.915	0.0172892
654.994	0.0172018
655.072	0.0172353
655.150	0.0173513
655.228	0.0174382
655.306	0.0176334
655.384	0.0175454
655.462	0.0176133
655.540	0.0177832
655.619	0.0177473
655.697	0.0177113
655.775	0.0176885
655.853	0.0178510
655.931	0.0176651
656.009	0.0177699
656.087	0.0176205
656.165	0.0173467
656.244	0.0172143
656.322	0.0171141
656.400	0.0170178
656.478	0.0169937
656.556	0.0169708
656.634	0.0166960
656.712	0.0164617
656.790	0.0164322
656.869	0.0163506
656.947	0.0162571
657.025	0.0162170
657.103	0.0161211
657.181	0.0161890
657.259	0.0162447
657.337	0.0161796
657.415	0.0161499
657.494	0.0162868
657.572	0.0161694
657.650	0.0162241
657.728	0.0164727
657.806	0.0164174
657.884	0.0163455
657.962	0.0164357
658.040	0.0164368
658.119	0.0164792
658.197	0.0165892
658.275	0.0167979
658.353	0.0167444
658.431	0.0167890
658.509	0.0168215
658.587	0.0169083
658.665	0.0169897
658.744	0.0170573
658.822	0.0170879
658.900	0.0170947
658.978	0.0169710
659.056	0.0171599
659.134	0.0171386
659.212	0.0170750
659.290	0.0169116
659.369	0.0169974
659.447	0.0170350
659.525	0.0169444
659.603	0.0168690
659.681	0.0166807
659.759	0.0166938
659.837	0.0167042
659.915	0.0164433
659.994	0.0164663
660.072	0.0164546
660.150	0.0165379
660.228	0.0165343
660.306	0.0165782
660.384	0.0165368
660.462	0.0165214
660.540	0.0167110
660.619	0.0167665
660.697	0.0168150
660.775	0.0167661
660.853	0.0169793
660.931	0.0169695
661.009	0.0171354
661.087	0.0171502
661.165	0.0171006
661.244	0.0171240
661.322	0.0170565
661.400	0.0172703
661.478	0.0171927
661.556	0.0171780
661.634	0.0172264
661.712	0.0174553
661.790	0.0174586
661.869	0.0172818
661.947	0.0173899
662.025	0.0174630
662.103	0.0174446
662.181	0.0175220
662.259	0.0176145
662.337	0.0174500
662.415	0.0174576
662.494	0.0173738
662.572	0.0175015
662.650	0.0173582
662.728	0.0172507
662.806	0.0172911
662.884	0.0171832
662.962	0.0171271
663.040	0.0170865
663.119	0.0170348
663.197	0.0168945
663.275	0.0168948
663.353	0.0169093
663.431	0.0167236
663.509	0.0169415
663.587	0.0167290
663.665	0.0166271
663.744	0.0167554
663.822	0.0166608
663.900	0.0166534
663.978	0.0166280
664.056	0.0165929
664.134	0.0166674
664.212	0.0166208
664.290	0.0165624
664.369	0.0165005
664.447	0.0165990
664.525	0.0165361
664.603	0.0165205
664.681	0.0164368
664.759	0.0164532
664.837	0.0164968
664.915	0.0163204
664.994	0.0161756
665.072	0.0162025
665.150	0.0162521
665.228	0.0162396
665.306	0.0159004
665.384	0.0161128
665.462	0.0160574
665.540	0.0159940
665.619	0.0160148
665.697	0.0160748
665.775	0.0161304
665.853	0.0159431
665.931	0.0160918
666.009	0.0162063
666.087	0.0162851
666.165	0.0162161
666.244	0.0162032
666.322	0.0162726
666.400	0.0163779
666.478	0.0164946
666.556	0.0166238
666.634	0.0166193
666.712	0.0164523
666.790	0.0167471
666.869	0.0166608
666.947	0.0166359
667.025	0.0168037
667.103	0.0168590
667.181	0.0168382
667.259	0.0170824
667.337	0.0171121
667.415	0.0171181
667.494	0.0171028
667.572	0.0169789
667.650	0.0171638
667.728	0.0169994
667.806	0.0171255
667.884	0.0170461
667.962	0.0170196
668.040	0.0172533
668.119	0.0172424
668.197	0.0172445
668.275	0.0172086
668.353	0.0172243
668.431	0.0171326
668.509	0.0172190
668.587	0.0173418
668.665	0.0174860
668.744	0.0174246
668.822	0.0175458
668.900	0.0175198
668.978	0.0174866
669.056	0.0177251
669.134	0.0176784
669.212	0.0176580
669.290	0.0176319
669.369	0.0178072
669.447	0.0176566
669.525	0.0176370
669.603	0.0176295
669.681	0.0175116
669.759	0.0174747
669.837	0.0173077
669.915	0.0172896
669.994	0.0172204
670.072	0.0172712
670.150	0.0171838
670.228	0.0171291
670.306	0.0171806
670.384	0.0170406
670.462	0.0170295
670.540	0.0170105
670.619	0.0170380
670.697	0.0171018
670.775	0.0169296
670.853	0.0169189
670.931	0.0167876
671.009	0.0170197
671.087	0.0168133
671.165	0.0167406
671.244	0.0166766
671.322	0.0164839
671.400	0.0165188
671.478	0.0165075
671.556	0.0165289
671.634	0.0164090
671.712	0.0163396
671.790	0.0161957
671.869	0.0162766
671.947	0.0161675
672.025	0.0162761
672.103	0.0161325
672.181	0.0160822
672.259	0.0161442
672.337	0.0161971
672.415	0.0161825
672.494	0.0160833
672.572	0.0162451
672.650	0.0163383
672.728	0.0162314
672.806	0.0163000
672.884	0.0164860
672.962	0.0164294
673.040	0.0165005
673.119	0.0165530
673.197	0.0165864
673.275	0.0167927
673.353	0.0169218
673.431	0.0168765
673.509	0.0171167
673.587	0.0171817
673.665	0.0172285
673.744	0.0174156
673.822	0.0175306
673.900	0.0174815
673.978	0.0176519
674.056	0.0177806
674.134	0.0175842
674.212	0.0175661
674.290	0.0176648
674.369	0.0175420
674.447	0.0174921
674.525	0.0174692
674.603	0.0173811
674.681	0.0172858
674.759	0.0171889
674.837	0.0169543
674.915	0.0168048
674.994	0.0166416
675.072	0.0165957
675.150	0.0165607
675.228	0.0164334
675.306	0.0163628
675.384	0.0162335
675.462	0.0162329
675.540	0.0161600
675.619	0.0162154
675.697	0.0163137
675.775	0.0163786
675.853	0.0162513
675.931	0.0163926
676.009	0.0164578
676.087	0.0166010
676.165	0.0166181
676.244	0.0168129
676.322	0.0167808
676.400	0.0169178
676.478	0.0169064
676.556	0.0169794
676.634	0.0170877
676.712	0.0170835
676.790	0.0171060
676.869	0.0170287
676.947	0.0170410
677.025	0.0172094
677.103	0.0169917
677.181	0.0169965
677.259	0.0170226
677.337	0.0170925
677.415	0.0171043
677.494	0.0172696
677.572	0.0172750
677.650	0.0171065
677.728	0.0174101
677.806	0.0173346
677.884	0.0173687
677.962	0.0173172
678.040	0.0174026
678.119	0.0174328
678.197	0.0174327
678.275	0.0173383
678.353	0.0173088
678.431	0.0172359
678.509	0.0171598
678.587	0.0170023
678.665	0.0169228
678.744	0.0168177
678.822	0.0167530
678.900	0.0167958
678.978	0.0168143
679.056	0.0165520
679.134	0.0166156
679.212	0.0167206
679.290	0.0166197
679.369	0.0166972
679.447	0.0166055
679.525	0.0165563
679.603	0.0165782
679.681	0.0165939
679.759	0.0163969
679.837	0.0165614
679.915	0.0165176
679.994	0.0166010
680.072	0.0164712
680.150	0.0163441
680.228	0.0165449
680.306	0.0165343
680.384	0.0164318
680.462	0.0164603
680.540	0.0166745
680.619	0.0166998
680.697	0.0168069
680.775	0.0168861
680.853	0.0167821
680.931	0.0169416
681.009	0.0170255
681.087	0.0169810
681.165	0.0170078
681.244	0.0171144
681.322	0.0170863
681.400	0.0171384
681.478	0.0171684
681.556	0.0172992
681.634	0.0173248
681.712	0.0171630
681.790	0.0172025
681.869	0.0172237
681.947	0.0172359
682.025	0.0172559
682.103	0.0171174
682.181	0.0173436
682.259	0.0173376
682.337	0.0173907
682.415	0.0173381
682.494	0.0170693
682.572	0.0172290
682.650	0.0171957
682.728	0.0170264
682.806	0.0172051
682.884	0.0172139
682.962	0.0170769
683.040	0.0169488
683.119	0.0171021
683.197	0.0169792
683.275	0.0169514
683.353	0.0168275
683.431	0.0169505
683.509	0.0169186
683.587	0.0170200
683.665	0.0170042
683.744	0.0169773
683.822	0.0170359
683.900	0.0170661
683.978	0.0169957
684.056	0.0170845
684.134	0.0171127
684.212	0.0171719
684.290	0.0170067
684.369	0.0170198
684.447	0.0169904
684.525	0.0170791
684.603	0.0170029
684.681	0.0170087
684.759	0.0169884
684.837	0.0169582
684.915	0.0168497
684.994	0.0167712
685.072	0.0169176
685.150	0.0167932
685.228	0.0166566
685.306	0.0166806
685.384	0.0166576
685.462	0.0166870
685.540	0.0165963
685.619	0.0164256
685.697	0.0164849
685.775	0.0165276
685.853	0.0164134
685.931	0.0165344
686.009	0.0164673
686.087	0.0164958
686.165	0.0163895
686.244	0.0163136
686.322	0.0165044
686.400	0.0164255
686.478	0.0162963
686.556	0.0161884
686.634	0.0163464
686.712	0.0163354
686.790	0.0163474
686.869	0.0163545
686.947	0.0165066
687.025	0.0164613
687.103	0.0164655
687.181	0.0164932
687.259	0.0164896
687.337	0.0165083
687.415	0.0164508
687.494	0.0165379
687.572	0.0166199
687.650	0.0165482
687.728	0.0165775
687.806	0.0167954
687.884	0.0168090
687.962	0.0167748
688.040	0.0168527
688.119	0.0167651
688.197	0.0169472
688.275	0.0169153
688.353	0.0167764
688.431	0.0168114
688.509	0.0168221
688.587	0.0168114
688.665	0.0168962
688.744	0.0168573
688.822	0.0168694
688.900	0.0168163
688.978	0.0168616
689.056	0.0167245
689.134	0.0169135
689.212	0.0167467
689.290	0.0169363
689.369	0.0167440
689.447	0.0168089
689.525	0.0169212
689.603	0.0168372
689.681	0.0168105
689.759	0.0167158
689.837	0.0167406
689.915	0.0167486
689.994	0.0167470
690.072	0.0167573
690.150	0.0166501
690.228	0.0168507
690.306	0.0167662
690.384	0.0167227
690.462	0.0167847
690.540	0.0168213
690.619	0.0167716
690.697	0.0169839
690.775	0.0169056
690.853	0.0168439
690.931	0.0169736
691.009	0.0169408
691.087	0.0169938
691.165	0.0170456
691.244	0.0170265
691.322	0.0168849
691.400	0.0169646
691.478	0.0170520
691.556	0.0169222
691.634	0.0168639
691.712	0.0169116
691.790	0.0172083
691.869	0.0170793
691.947	0.0169991
692.025	0.0168643
692.103	0.0170586
692.181	0.0170479
692.259	0.0172277
692.337	0.0170048
692.415	0.0169721
692.494	0.0170785
692.572	0.0170083
692.650	0.0171027
692.728	0.0171572
692.806	0.0171072
692.884	0.0171842
692.962	0.0172952
693.040	0.0171507
693.119	0.0171239
693.197	0.0172810
693.275	0.0171134
693.353	0.0171358
693.431	0.0172103
693.509	0.0171782
693.587	0.0171072
693.665	0.0170747
693.744	0.0170444
693.822	0.0169410
693.900	0.0170321
693.978	0.0170110
694.056	0.0168950
694.134	0.0168925
694.212	0.0169012
694.290	0.0167407
694.369	0.0169073
694.447	0.0165858
694.525	0.0166779
694.603	0.0166391
694.681	0.0167368
694.759	0.0166588
694.837	0.0166213
694.915	0.0167268
694.994	0.0167344
695.072	0.0164791
695.150	0.0166211
695.228	0.0166619
695.306	0.0167384
695.384	0.0167214
695.462	0.0168417
695.540	0.0165687
695.619	0.0168452
695.697	0.0167612
695.775	0.0167805
695.853	0.0167352
695.931	0.0168183
696.009	0.0168405
696.087	0.0166385
696.165	0.0167283
696.244	0.0167635
696.322	0.0166417
696.400	0.0167448
696.478	0.0166145
696.556	0.0166949
696.634	0.0166672
696.712	0.0167217
696.790	0.0167874
696.869	0.0167125
696.947	0.0167731
697.025	0.0167651
697.103	0.0168632
697.181	0.0168147
697.259	0.0168714
697.337	0.0168890
697.415	0.0169467
697.494	0.0170309
697.572	0.0169316
697.650	0.0168570
697.728	0.0171085
697.806	0.0170522
697.884	0.0170439
697.962	0.0170505
698.040	0.0170428
698.119	0.0171838
698.197	0.0172675
698.275	0.0170365
698.353	0.0171526
698.431	0.0169987
698.509	0.0169352
698.587	0.0168339
698.665	0.0168440
698.744	0.0169755
698.822	0.0168559
698.900	0.0167987
698.978	0.0167376
699.056	0.0167453
699.134	0.0167741
699.212	0.0168313
699.290	0.0167793
699.369	0.0167036
699.447	0.0166602
699.525	0.0168030
699.603	0.0167613
699.681	0.0166922
699.759	0.0169298
699.837	0.0168876
699.915	0.0168707
699.994	0.0169982
700.072	0.0169785
700.150	0.0169154
700.228	0.0171794
700.306	0.0170772
700.384	0.0171633
700.462	0.0170152
700.540	0.0171204
700.619	0.0170892
700.697	0.0171623
700.775	0.0171443
700.853	0.0172088
700.931	0.0170655
701.009	0.0170917
701.087	0.0171329
701.165	0.0168373
701.244	0.0170318
701.322	0.0170461
701.400	0.0170039
701.478	0.0170380
701.556	0.0170872
701.634	0.0169283
701.712	0.0168734
701.790	0.0168046
701.869	0.0167867
701.947	0.0168461
702.025	0.0169341
702.103	0.0168742
702.181	0.0168106
702.259	0.0168522
702.337	0.0167005
702.415	0.0168232
702.494	0.0168502
702.572	0.0167567
702.650	0.0168861
702.728	0.0168583
702.806	0.0169476
702.884	0.0168557
702.962	0.0167787
703.040	0.0167552
703.119	0.0169217
703.197	0.0169017
703.275	0.0168941
703.353	0.0167482
703.431	0.0169400
703.509	0.0168726
703.587	0.0169678
703.665	0.0168791
703.744	0.0169022
703.822	0.0167648
703.900	0.0166953
703.978	0.0166496
704.056	0.0165871
704.134	0.0168576
704.212	0.0166712
704.290	0.0166576
704.369	0.0165897
704.447	0.0165108
704.525	0.0166238
704.603	0.0165905
704.681	0.0164737
704.759	0.0165409
704.837	0.0163913
704.915	0.0164286
704.994	0.0164447
705.072	0.0164619
705.150	0.0165170
705.228	0.0164374
705.306	0.0163680
705.384	0.0162882
705.462	0.0162903
705.540	0.0163344
705.619	0.0164639
705.697	0.0163458
705.775	0.0163425
705.853	0.0162968
705.931	0.0163937
706.009	0.0164323
706.087	0.0164790
706.165	0.0165790
706.244	0.0164798
706.322	0.0166148
706.400	0.0167801
706.478	0.0166283
706.556	0.0167294
706.634	0.0168600
706.712	0.0169126
706.790	0.0171238
706.869	0.0170218
706.947	0.0170992
707.025	0.0172222
707.103	0.0172345
707.181	0.0172494
707.259	0.0174132
707.337	0.0173606
707.415	0.0173502
707.494	0.0173301
707.572	0.0174673
707.650	0.0174616
707.728	0.0174292
707.806	0.0173803
707.884	0.0173473
707.962	0.0173678
708.040	0.0174296
708.119	0.0173344
708.197	0.0173333
708.275	0.0173132
708.353	0.0172194
708.431	0.0174860
708.509	0.0172037
708.587	0.0171820
708.665	0.0171705
708.744	0.0173064
708.822	0.0170979
708.900	0.0169025
708.978	0.0169192
709.056	0.0168913
709.134	0.0168140
709.212	0.0167170
709.290	0.0166933
709.369	0.0166946
709.447	0.0164774
709.525	0.0164785
709.603	0.0163636
709.681	0.0164198
709.759	0.0163200
709.837	0.0162710
709.915	0.0159751
709.994	0.0160561
710.072	0.0159843
710.150	0.0158903
710.228	0.0159000
710.306	0.0159106
710.384	0.0160841
710.462	0.0158927
710.540	0.0158981
710.619	0.0160194
710.697	0.0159619
710.775	0.0160997
710.853	0.0160863
710.931	0.0163680
711.009	0.0163669
711.087	0.0164609
711.165	0.0165300
711.244	0.0165987
711.322	0.0167049
711.400	0.0168208
711.478	0.0169495
711.556	0.0170245
711.634	0.0169847
711.712	0.0171609
711.790	0.0171833
711.869	0.0172673
711.947	0.0172334
712.025	0.0173637
712.103	0.0173095
712.181	0.0172552
712.259	0.0173757
712.337	0.0174338
712.415	0.0174326
712.494	0.0174246
712.572	0.0171880
712.650	0.0171824
712.728	0.0173264
712.806	0.0170681
712.884	0.0171149
712.962	0.0172316
713.040	0.0170384
713.119	0.0170098
713.197	0.0171456
713.275	0.0171370
713.353	0.0169071
713.431	0.0170094
713.509	0.0169662
713.587	0.0169624
713.665	0.0170662
713.744	0.0170015
713.822	0.0169016
713.900	0.0169038
713.978	0.0170194
714.056	0.0170736
714.134	0.0170316
714.212	0.0171083
714.290	0.0171026
714.369	0.0170722
714.447	0.0170499
714.525	0.0171504
714.603	0.0171635
714.681	0.0171064
714.759	0.0170444
714.837	0.0171944
714.915	0.0171193
714.994	0.0170800
715.072	0.0170641
715.150	0.0171305
715.228	0.0170974
715.306	0.0169156
715.384	0.0168997
715.462	0.0170567
715.540	0.0170694
715.619	0.0169579
715.697	0.0170149
715.775	0.0170308
715.853	0.0168137
715.931	0.0168346
716.009	0.0169280
716.087	0.0169127
716.165	0.0166935
716.244	0.0167595
716.322	0.0168062
716.400	0.0167227
716.478	0.0166794
716.556	0.0167028
716.634	0.0167330
716.712	0.0165108
716.790	0.0165200
716.869	0.0164990
716.947	0.0165074
717.025	0.0165078
717.103	0.0163721
717.181	0.0165367
717.259	0.0165317
717.337	0.0164806
717.415	0.0164381
717.494	0.0164017
717.572	0.0164879
717.650	0.0165915
717.728	0.0165478
717.806	0.0165983
717.884	0.0166022
717.962	0.0164909
718.040	0.0166167
718.119	0.0166160
718.197	0.0165598
718.275	0.0166500
718.353	0.0166227
718.431	0.0167839
718.509	0.0167680
718.587	0.0168500
718.665	0.0168333
718.744	0.0167743
718.822	0.0166954
718.900	0.0167946
718.978	0.0168578
719.056	0.0168071
719.134	0.0168398
719.212	0.0167209
719.290	0.0168503
719.369	0.0169651
719.447	0.0166052
719.525	0.0167007
719.603	0.0167287
719.681	0.0167942
719.759	0.0168198
719.837	0.0166956
719.915	0.0166946
719.994	0.0168117
720.072	0.0167815
720.150	0.0167610
720.228	0.0167226
720.306	0.0168921
720.384	0.0169824
720.462	0.0168295
720.540	0.0168295
720.619	0.0169967
720.697	0.0170211
720.775	0.0169969
720.853	0.0170564
720.931	0.0169284
721.009	0.0169308
721.087	0.0167974
721.165	0.0168059
721.244	0.0169379
721.322	0.0168770
721.400	0.0168668
721.478	0.0170748
721.556	0.0170251
721.634	0.0169901
721.712	0.0169897
721.790	0.0169380
721.869	0.0170052
721.947	0.0168497
722.025	0.0168718
722.103	0.0169224
722.181	0.0168719
722.259	0.0168711
722.337	0.0167029
722.415	0.0167366
722.494	0.0166636
722.572	0.0167830
722.650	0.0166579
722.728	0.0166806
722.806	0.0167146
722.884	0.0164297
722.962	0.0164885
723.040	0.0166989
723.119	0.0166405
723.197	0.0166630
723.275	0.0166486
723.353	0.0166170
723.431	0.0167284
723.509	0.0167739
723.587	0.0167491
723.665	0.0168790
723.744	0.0169430
723.822	0.0168079
723.900	0.0168792
723.978	0.0169193
724.056	0.0170679
724.134	0.0170573
724.212	0.0169209
724.290	0.0170564
724.369	0.0172569
724.447	0.0169236
724.525	0.0169718
724.603	0.0172192
724.681	0.0169767
724.759	0.0169269
724.837	0.0169667
724.915	0.0167565
724.994	0.0169959
725.072	0.0168429
725.150	0.0168008
725.228	0.0165389
725.306	0.0166310
725.384	0.0167359
725.462	0.0164861
725.540	0.0164140
725.619	0.0164800
725.697	0.0163946
725.775	0.0165398
725.853	0.0165787
725.931	0.0164399
726.009	0.0162560
726.087	0.0163415
726.165	0.0165002
726.244	0.0163676
726.322	0.0162655
726.400	0.0163186
726.478	0.0164064
726.556	0.0164853
726.634	0.0165760
726.712	0.0165351
726.790	0.0164786
726.869	0.0166575
726.947	0.0166487
727.025	0.0168443
727.103	0.0168054
727.181	0.0166807
727.259	0.0170496
727.337	0.0168176
727.415	0.0168387
727.494	0.0169924
727.572	0.0169942
727.650	0.0171201
727.728	0.0170773
727.806	0.0170117
727.884	0.0170493
727.962	0.0170850
728.040	0.0172350
728.119	0.0171059
728.197	0.0171638
728.275	0.0171596
728.353	0.0171661
728.431	0.0171410
728.509	0.0170752
728.587	0.0171076
728.665	0.0170020
728.744	0.0170169
728.822	0.0170194
728.900	0.0170322
728.978	0.0169504
729.056	0.0168236
729.134	0.0168670
729.212	0.0168800
729.290	0.0167182
729.369	0.0167554
729.447	0.0167928
729.525	0.0167335
729.603	0.0167599
729.681	0.0166544
729.759	0.0166119
729.837	0.0165591
729.915	0.0167136
729.994	0.0167838
730.072	0.0166908
730.150	0.0167266
730.228	0.0168585
730.306	0.0167530
730.384	0.0169646
730.462	0.0169145
730.540	0.0171091
730.619	0.0170583
730.697	0.0170744
730.775	0.0171810
730.853	0.0173199
730.931	0.0173409
731.009	0.0174191
731.087	0.0173886
731.165	0.0173421
731.244	0.0174540
731.322	0.0174866
731.400	0.0173951
731.478	0.0173559
731.556	0.0175576
731.634	0.0175797
731.712	0.0175407
731.790	0.0173099
731.869	0.0172690
731.947	0.0171850
732.025	0.0173302
732.103	0.0172697
732.181	0.0172044
732.259	0.0171530
732.337	0.0171936
732.415	0.0171267
732.494	0.0170123
732.572	0.0168603
732.650	0.0168523
732.728	0.0168520
732.806	0.0167707
732.884	0.0168123
732.962	0.0168112
733.040	0.0167455
733.119	0.0166284
733.197	0.0165078
733.275	0.0167558
733.353	0.0166586
733.431	0.0165782
733.509	0.0166399
733.587	0.0164867
733.665	0.0166192
733.744	0.0166213
733.822	0.0165492
733.900	0.0165247
733.978	0.0166023
734.056	0.0165591
734.134	0.0165044
734.212	0.0165489
734.290	0.0166141
734.369	0.0166004
734.447	0.0165745
734.525	0.0167323
734.603	0.0166631
734.681	0.0168055
734.759	0.0167596
734.837	0.0165924
734.915	0.0166936
734.994	0.0168241
735.072	0.0168293
735.150	0.0167127
735.228	0.0168396
735.306	0.0169630
735.384	0.0168089
735.462	0.0168271
735.540	0.0166364
735.619	0.0167594
735.697	0.0166998
735.775	0.0168185
735.853	0.0166949
735.931	0.0168713
736.009	0.0168116
736.087	0.0168467
736.165	0.0166943
736.244	0.0167851
736.322	0.0167336
736.400	0.0167268
736.478	0.0169008
736.556	0.0167993
736.634	0.0167355
736.712	0.0168343
736.790	0.0167886
736.869	0.0167239
736.947	0.0167467
737.025	0.0168185
737.103	0.0169476
737.181	0.0170312
737.259	0.0167898
737.337	0.0169238
737.415	0.0170257
737.494	0.0169492
737.572	0.0169714
737.650	0.0169666
737.728	0.0169562
737.806	0.0169694
737.884	0.0169539
737.962	0.0171273
738.040	0.0169457
738.119	0.0170364
738.197	0.0169628
738.275	0.0168735
738.353	0.0169590
738.431	0.0168285
738.509	0.0168216
738.587	0.0168524
738.665	0.0168588
738.744	0.0169611
738.822	0.0166416
738.900	0.0167525
738.978	0.0169393
739.056	0.0167461
739.134	0.0167451
739.212	0.0167345
739.290	0.0166907
739.369	0.0166598
739.447	0.0165691
739.525	0.0166326
739.603	0.0166753
739.681	0.0166938
739.759	0.0167622
739.837	0.0168291
739.915	0.0166825
739.994	0.0165667
740.072	0.0166816
740.150	0.0166941
740.228	0.0168040
740.306	0.0167178
740.384	0.0167403
740.462	0.0168192
740.540	0.0165934
740.619	0.0167601
740.697	0.0168298
740.775	0.0166013
740.853	0.0167907
740.931	0.0168505
741.009	0.0167579
741.087	0.0167653
741.165	0.0168011
741.244	0.0167487
741.322	0.0168043
741.400	0.0169480
741.478	0.0168283
741.556	0.0168080
741.634	0.0167872
741.712	0.0167631
741.790	0.0168212
741.869	0.0167667
741.947	0.0166908
742.025	0.0167710
742.103	0.0169217
742.181	0.0167240
742.259	0.0167155
742.337	0.0167059
742.415	0.0167694
742.494	0.0167652
742.572	0.0167076
742.650	0.0167045
742.728	0.0166426
742.806	0.0168404
742.884	0.0167897
742.962	0.0165504
743.040	0.0166525
743.119	0.0167425
743.197	0.0168613
743.275	0.0168234
743.353	0.0167612
743.431	0.0167527
743.509	0.0168410
743.587	0.0168453
743.665	0.0168327
743.744	0.0167240
743.822	0.0168910
743.900	0.0168433
743.978	0.0169512
744.056	0.0170110
744.134	0.0169799
744.212	0.0170573
744.290	0.0169343
744.369	0.0169844
744.447	0.0170798
744.525	0.0170147
744.603	0.0170441
744.681	0.0170857
744.759	0.0173148
744.837	0.0172404
744.915	0.0170172
744.994	0.0170795
745.072	0.0172448
745.150	0.0172820
745.228	0.0172128
745.306	0.0170922
745.384	0.0170970
745.462	0.0171049
745.540	0.0171421
745.619	0.0170408
745.697	0.0170887
745.775	0.0170872
745.853	0.0170647
745.931	0.0171067
746.009	0.0169874
746.087	0.0170494
746.165	0.0169093
746.244	0.0167973
746.322	0.0167986
746.400	0.0168748
746.478	0.0167458
746.556	0.0167421
746.634	0.0168227
746.712	0.0167590
746.790	0.0166390
746.869	0.0166139
746.947	0.0166972
747.025	0.0167447
747.103	0.0166074
747.181	0.0164656
747.259	0.0165614
747.337	0.0166586
747.415	0.0167085
747.494	0.0167641
747.572	0.0167877
747.650	0.0167122
747.728	0.0167592
747.806	0.0166939
747.884	0.0167313
747.962	0.0169922
748.040	0.0167934
748.119	0.0168774
748.197	0.0168285
748.275	0.0168610
748.353	0.0169473
748.431	0.0169192
748.509	0.0168427
748.587	0.0168377
748.665	0.0168925
748.744	0.0168254
748.822	0.0168507
748.900	0.0169789
748.978	0.0168665
749.056	0.0168685
749.134	0.0168373
749.212	0.0169122
749.290	0.0169371
749.369	0.0168959
749.447	0.0167789
749.525	0.0169309
749.603	0.0168996
749.681	0.0169619
749.759	0.0170156
749.837	0.0170419
749.915	0.0169370
749.994	0.0169450
750.072	0.0169489
750.150	0.0169286
750.228	0.0170737
750.306	0.0170109
750.384	0.0169993
750.462	0.0169126
750.540	0.0170113
750.619	0.0169348
750.697	0.0168346
750.775	0.0169765
750.853	0.0169535
750.931	0.0169844
751.009	0.0169718
751.087	0.0169565
751.165	0.0170167
751.244	0.0169790
751.322	0.0169218
751.400	0.0170877
751.478	0.0169860
751.556	0.0168810
751.634	0.0170316
751.712	0.0169626
751.790	0.0170556
751.869	0.0171394
751.947	0.0169669
752.025	0.0171049
752.103	0.0172093
752.181	0.0169460
752.259	0.0170775
752.337	0.0170941
752.415	0.0171512
752.494	0.0170847
752.572	0.0168477
752.650	0.0170152
752.728	0.0169765
752.806	0.0168481
752.884	0.0170042
752.962	0.0169297
753.040	0.0167049
753.119	0.0169316
753.197	0.0168886
753.275	0.0168552
753.353	0.0168079
753.431	0.0167638
753.509	0.0168794
753.587	0.0167863
753.665	0.0167282
753.744	0.0168008
753.822	0.0167810
753.900	0.0167825
753.978	0.0168813
754.056	0.0168240
754.134	0.0167069
754.212	0.0167831
754.290	0.0167639
754.369	0.0167521
754.447	0.0167723
754.525	0.0167048
754.603	0.0167674
754.681	0.0167159
754.759	0.0167402
754.837	0.0168015
754.915	0.0167172
754.994	0.0168625
755.072	0.0167208
755.150	0.0166177
755.228	0.0166810
755.306	0.0166944
755.384	0.0166042
755.462	0.0167770
755.540	0.0167076
755.619	0.0168439
755.697	0.0166875
755.775	0.0167117
755.853	0.0166364
755.931	0.0166914
756.009	0.0166769
756.087	0.0167286
756.165	0.0166693
756.244	0.0168128
756.322	0.0167405
756.400	0.0167644
756.478	0.0167365
756.556	0.0167865
756.634	0.0168025
756.712	0.0167815
756.790	0.0167632
756.869	0.0168188
756.947	0.0167965
757.025	0.0167690
757.103	0.0168591
757.181	0.0168276
757.259	0.0168265
757.337	0.0168871
757.415	0.0168333
757.494	0.0169361
757.572	0.0168414
757.650	0.0169930
757.728	0.0171393
757.806	0.0169879
757.884	0.0170999
757.962	0.0171481
758.040	0.0169313
758.119	0.0170329
758.197	0.0172032
758.275	0.0172397
758.353	0.0171523
758.431	0.0171052
758.509	0.0171236
758.587	0.0171896
758.665	0.0171941
758.744	0.0172064
758.822	0.0169778
758.900	0.0171015
758.978	0.0171144
759.056	0.0170695
759.134	0.0171589
759.212	0.0169376
759.290	0.0169299
759.369	0.0169370
759.447	0.0169925
759.525	0.0170380
759.603	0.0170101
759.681	0.0170399
759.759	0.0169674
759.837	0.0168650
759.915	0.0169804
759.994	0.0168512
760.072	0.0169444
760.150	0.0167554
760.228	0.0168282
760.306	0.0168897
760.384	0.0168195
760.462	0.0170877
760.540	0.0170117
760.619	0.0166693
760.697	0.0167973
760.775	0.0167561
760.853	0.0169059
760.931	0.0168392
761.009	0.0168092
761.087	0.0168328
761.165	0.0167033
761.244	0.0167752
761.322	0.0166356
761.400	0.0167187
761.478	0.0168082
761.556	0.0166866
761.634	0.0166161
761.712	0.0167225
761.790	0.0168304
761.869	0.0166585
761.947	0.0167322
762.025	0.0166725
762.103	0.0167546
762.181	0.0167585
762.259	0.0167745
762.337	0.0167091
762.415	0.0167624
762.494	0.0167107
762.572	0.0166928
762.650	0.0166301
762.728	0.0166911
762.806	0.0167515
762.884	0.0165755
762.962	0.0166813
763.040	0.0167909
763.119	0.0164988
763.197	0.0166329
763.275	0.0167393
763.353	0.0166557
763.431	0.0167661
763.509	0.0167002
763.587	0.0166227
763.665	0.0167116
763.744	0.0166948
763.822	0.0166110
763.900	0.0167449
763.978	0.0167530
764.056	0.0168063
764.134	0.0168282
764.212	0.0166938
764.290	0.0168488
764.369	0.0169368
764.447	0.0168417
764.525	0.0168348
764.603	0.0168129
764.681	0.0167860
764.759	0.0167860
764.837	0.0167094
764.915	0.0168051
764.994	0.0168357
765.072	0.0169331
765.150	0.0168157
765.228	0.0167457
765.306	0.0168082
765.384	0.0167910
765.462	0.0167121
765.540	0.0167360
765.619	0.0167557
765.697	0.0166266
765.775	0.0166076
765.853	0.0167604
765.931	0.0168403
766.009	0.0167643
766.087	0.0167052
766.165	0.0166067
766.244	0.0167666
766.322	0.0167620
766.400	0.0166645
766.478	0.0167461
766.556	0.0167471
766.634	0.0167213
766.712	0.0167119
766.790	0.0168719
766.869	0.0166675
766.947	0.0168732
767.025	0.0168311
767.103	0.0168475
767.181	0.0169247
767.259	0.0168893
767.337	0.0168613
767.415	0.0168868
767.494	0.0168635
767.572	0.0168975
767.650	0.0169508
767.728	0.0169324
767.806	0.0168501
767.884	0.0169444
767.962	0.0168571
768.040	0.0167393
768.119	0.0169646
768.197	0.0168795
768.275	0.0169185
768.353	0.0168433
768.431	0.0169528
768.509	0.0170467
768.587	0.0167832
768.665	0.0169485
768.744	0.0170575
768.822	0.0169341
768.900	0.0169994
768.978	0.0169341
769.056	0.0168674
769.134	0.0168870
769.212	0.0171294
769.290	0.0169274
769.369	0.0170369
769.447	0.0169572
769.525	0.0169373
769.603	0.0170518
769.681	0.0171022
769.759	0.0169842
769.837	0.0169938
769.915	0.0171629
769.994	0.0173151
770.072	0.0172353
770.150	0.0172000
770.228	0.0171397
770.306	0.0171371
770.384	0.0172845
770.462	0.0172188
770.540	0.0171672
770.619	0.0172326
770.697	0.0174042
770.775	0.0172276
770.853	0.0171060
770.931	0.0172604
771.009	0.0171807
771.087	0.0170296
771.165	0.0170546
771.244	0.0170501
771.322	0.0170511
771.400	0.0170710
771.478	0.0170676
771.556	0.0169949
771.634	0.0168184
771.712	0.0169438
771.790	0.0169624
771.869	0.0169758
771.947	0.0169649
772.025	0.0169371
772.103	0.0168524
772.181	0.0169609
772.259	0.0169225
772.337	0.0169781
772.415	0.0169234
772.494	0.0167243
772.572	0.0168237
772.650	0.0168434
772.728	0.0168794
772.806	0.0168819
772.884	0.0168355
772.962	0.0168819
773.040	0.0167467
773.119	0.0168714
773.197	0.0168471
773.275	0.0168626
773.353	0.0168876
773.431	0.0167935
773.509	0.0168073
773.587	0.0168411
773.665	0.0169746
773.744	0.0168098
773.822	0.0169007
773.900	0.0168319
773.978	0.0169285
774.056	0.0169479
774.134	0.0167643
774.212	0.0169929
774.290	0.0170319
774.369	0.0169341
774.447	0.0170689
774.525	0.0168748
774.603	0.0168975
774.681	0.0170128
774.759	0.0169051
774.837	0.0169766
774.915	0.0169389
774.994	0.0168568
775.072	0.0169814
775.150	0.0168604
775.228	0.0168567
775.306	0.0169514
775.384	0.0169578
775.462	0.0168481
775.540	0.0169958
775.619	0.0169470
775.697	0.0170445
775.775	0.0168710
775.853	0.0168605
775.931	0.0169216
776.009	0.0169109
776.087	0.0169125
776.165	0.0168471
776.244	0.0168215
776.322	0.0166444
776.400	0.0169055
776.478	0.0168518
776.556	0.0167336
776.634	0.0168113
776.712	0.0168011
776.790	0.0167589
776.869	0.0167965
776.947	0.0167331
777.025	0.0168998
777.103	0.0167776
777.181	0.0168924
777.259	0.0169558
777.337	0.0168380
777.415	0.0168751
777.494	0.0168285
777.572	0.0168888
777.650	0.0169812
777.728	0.0169753
777.806	0.0168270
777.884	0.0168776
777.962	0.0168487
778.040	0.0169582
778.119	0.0169072
778.197	0.0168828
778.275	0.0168475
778.353	0.0167583
778.431	0.0168780
778.509	0.0168444
778.587	0.0167293
778.665	0.0168522
778.744	0.0168178
778.822	0.0168223
778.900	0.0168276
778.978	0.0167072
779.056	0.0168369
779.134	0.0166918
779.212	0.0168208
779.290	0.0168457
779.369	0.0167669
779.447	0.0167902
779.525	0.0168485
779.603	0.0167402
779.681	0.0167665
779.759	0.0167887
779.837	0.0168021
779.915	0.0169717
779.994	0.0169499
780.072	0.0168082
780.150	0.0170047
780.228	0.0170474
780.306	0.0169231
780.384	0.0168533
780.462	0.0168384
780.540	0.0168881
780.619	0.0168372
780.697	0.0167533
780.775	0.0167934
780.853	0.0168469
780.931	0.0167859
781.009	0.0167525
781.087	0.0167849
781.165	0.0168192
781.244	0.0168418
781.322	0.0167609
781.400	0.0168311
781.478	0.0168243
781.556	0.0167744
781.634	0.0168293
781.712	0.0169008
781.790	0.0167877
781.869	0.0169529
781.947	0.0168466
782.025	0.0168571
782.103	0.0169645
782.181	0.0170045
782.259	0.0168549
782.337	0.0169529
782.415	0.0169405
782.494	0.0169803
782.572	0.0170103
782.650	0.0169151
782.728	0.0167564
782.806	0.0169372
782.884	0.0168974
782.962	0.0168811
783.040	0.0169884
783.119	0.0167628
783.197	0.0168079
783.275	0.0169832
783.353	0.0167296
783.431	0.0167701
783.509	0.0166616
783.587	0.0167319
783.665	0.0167803
783.744	0.0167092
783.822	0.0167952
783.900	0.0168333
783.978	0.0166665
784.056	0.0167068
784.134	0.0168040
784.212	0.0166739
784.290	0.0168388
784.369	0.0168678
784.447	0.0168111
784.525	0.0168830
784.603	0.0168602
784.681	0.0168969
784.759	0.0169403
784.837	0.0169341
784.915	0.0169667
784.994	0.0169727
785.072	0.0169849
785.150	0.0170073
785.228	0.0169350
785.306	0.0169386
785.384	0.0168819
785.462	0.0170250
785.540	0.0169977
785.619	0.0169800
785.697	0.0169204
785.775	0.0167645
785.853	0.0167654
785.931	0.0167667
786.009	0.0167040
786.087	0.0167393
786.165	0.0166192
786.244	0.0167187
786.322	0.0166833
786.400	0.0167486
786.478	0.0166628
786.556	0.0167057
786.634	0.0166738
786.712	0.0165179
786.790	0.0166951
786.869	0.0165746
786.947	0.0167014
787.025	0.0166051
787.103	0.0166476
787.181	0.0166853
787.259	0.0167583
787.337	0.0166713
787.415	0.0167584
787.494	0.0168317
787.572	0.0168115
787.650	0.0168465
787.728	0.0168368
787.806	0.0168500
787.884	0.0169657
787.962	0.0168951
788.040	0.0168839
788.119	0.0168570
788.197	0.0169047
788.275	0.0170394
788.353	0.0169258
788.431	0.0169998
788.509	0.0169792
788.587	0.0170214
788.665	0.0168848
788.744	0.0168056
788.822	0.0167744
788.900	0.0169588
788.978	0.0169080
789.056	0.0167371
789.134	0.0167255
789.212	0.0169714
789.290	0.0169688
789.369	0.0167789
789.447	0.0166788
789.525	0.0167885
789.603	0.0167649
789.681	0.0169135
789.759	0.0168121
789.837	0.0167325
789.915	0.0168401
789.994	0.0168402
790.072	0.0169096
790.150	0.0167635
790.228	0.0167038
790.306	0.0168698
790.384	0.0169429
790.462	0.0169255
790.540	0.0168422
790.619	0.0169370
790.697	0.0169360
790.775	0.0169519
790.853	0.0170177
790.931	0.0168640
791.009	0.0168420
791.087	0.0169795
791.165	0.0170901
791.244	0.0170208
791.322	0.0168812
791.400	0.0169705
791.478	0.0168735
791.556	0.0168987
791.634	0.0168701
791.712	0.0169354
791.790	0.0169849
791.869	0.0167792
791.947	0.0169939
792.025	0.0170595
792.103	0.0170730
792.181	0.0169828
792.259	0.0170018
792.337	0.0168815
792.415	0.0170597
792.494	0.0168359
792.572	0.0169386
792.650	0.0169682
792.728	0.0171365
792.806	0.0171600
792.884	0.0170610
792.962	0.0170773
793.040	0.0170729
793.119	0.0171243
793.197	0.0169851
793.275	0.0170060
793.353	0.0169006
793.431	0.0168613
793.509	0.0169683
793.587	0.0168457
793.665	0.0167436
793.744	0.0167796
793.822	0.0169597
793.900	0.0167687
793.978	0.0166551
794.056	0.0167700
794.134	0.0168875
794.212	0.0167823
794.290	0.0166940
794.369	0.0167233
794.447	0.0166981
794.525	0.0166733
794.603	0.0166493
794.681	0.0166888
794.759	0.0167421
794.837	0.0166258
794.915	0.0166607
794.994	0.0166911
795.072	0.0166470
795.150	0.0166650
795.228	0.0166975
795.306	0.0167237
795.384	0.0167101
795.462	0.0167252
795.540	0.0167831
795.619	0.0167638
795.697	0.0167845
795.775	0.0166456
795.853	0.0167397
795.931	0.0168362
796.009	0.0168143
796.087	0.0167383
796.165	0.0167674
796.244	0.0166823
796.322	0.0167706
796.400	0.0168698
796.478	0.0169047
796.556	0.0168321
796.634	0.0167902
796.712	0.0167638
796.790	0.0168697
796.869	0.0169105
796.947	0.0168121
797.025	0.0167979
797.103	0.0169173
797.181	0.0168781
797.259	0.0170576
797.337	0.0169976
797.415	0.0169494
797.494	0.0170048
797.572	0.0170458
797.650	0.0171210
797.728	0.0171435
797.806	0.0171868
797.884	0.0170329
797.962	0.0171853
798.040	0.0173026
798.119	0.0171503
798.197	0.0170589
798.275	0.0170430
798.353	0.0170565
798.431	0.0170610
798.509	0.0171607
798.587	0.0172088
798.665	0.0171043
798.744	0.0171870
798.822	0.0170198
798.900	0.0170314
798.978	0.0170283
799.056	0.0170391
799.134	0.0169644
799.212	0.0169019
799.290	0.0167809
799.369	0.0168824
799.447	0.0166909
799.525	0.0166537
799.603	0.0166595
799.681	0.0167153
799.759	0.0165134
799.837	0.0165781
799.915	0.0165618
799.994	0.0163660
800.072	0.0164261
800.150	0.0164867
800.228	0.0164649
800.306	0.0164098
800.384	0.0164421
800.462	0.0164404
800.540	0.0164455
800.619	0.0164412
800.697	0.0165362
800.775	0.0164887
800.853	0.0165527
800.931	0.0165916
801.009	0.0165168
801.087	0.0166642
801.165	0.0167539
801.244	0.0166346
801.322	0.0167065
801.400	0.0166515
801.478	0.0166340
801.556	0.0167653
801.634	0.0166956
801.712	0.0166830
801.790	0.0167475
801.869	0.0168017
801.947	0.0167947
802.025	0.0167892
802.103	0.0167961
802.181	0.0166839
802.259	0.0167618
802.337	0.0168021
802.415	0.0167959
802.494	0.0167566
802.572	0.0166151
802.650	0.0167013
802.728	0.0166679
802.806	0.0167086
802.884	0.0167300
802.962	0.0167905
803.040	0.0167030
803.119	0.0167108
803.197	0.0167326
803.275	0.0168170
803.353	0.0168903
803.431	0.0166728
803.509	0.0169096
803.587	0.0168813
803.665	0.0168681
803.744	0.0168742
803.822	0.0169290
803.900	0.0168642
803.978	0.0170004
804.056	0.0167995
804.134	0.0167816
804.212	0.0168424
804.290	0.0168703
804.369	0.0167410
804.447	0.0167139
804.525	0.0165966
804.603	0.0165999
804.681	0.0164133
804.759	0.0165326
804.837	0.0164879
804.915	0.0165765
804.994	0.0164085
805.072	0.0164277
805.150	0.0164737
805.228	0.0165981
805.306	0.0165574
805.384	0.0166072
805.462	0.0165695
805.540	0.0166718
805.619	0.0166078
805.697	0.0167255
805.775	0.0168106
805.853	0.0170240
805.931	0.0169280
806.009	0.0169714
806.087	0.0168789
806.165	0.0171112
806.244	0.0171928
806.322	0.0170341
806.400	0.0172549
806.478	0.0173325
806.556	0.0173854
806.634	0.0171838
806.712	0.0172718
806.790	0.0172201
806.869	0.0172885
806.947	0.0173070
807.025	0.0171642
807.103	0.0170408
807.181	0.0172018
807.259	0.0170592
807.337	0.0169093
807.415	0.0169650
807.494	0.0170359
807.572	0.0169587
807.650	0.0168777
807.728	0.0167464
807.806	0.0167594
807.884	0.0167519
807.962	0.0165509
808.040	0.0165824
808.119	0.0165952
808.197	0.0167260
808.275	0.0166400
808.353	0.0166709
808.431	0.0166685
808.509	0.0166721
808.587	0.0165363
808.665	0.0166086
808.744	0.0166475
808.822	0.0166527
808.900	0.0166047
808.978	0.0166563
809.056	0.0166378
809.134	0.0167348
809.212	0.0167226
809.290	0.0167894
809.369	0.0166853
809.447	0.0167045
809.525	0.0168719
809.603	0.0168303
809.681	0.0168474
809.759	0.0168226
809.837	0.0168685
809.915	0.0167716
809.994	0.0169099
810.072	0.0168916
810.150	0.0169068
810.228	0.0167941
810.306	0.0167657
810.384	0.0169614
810.462	0.0168727
810.540	0.0167304
810.619	0.0168611
810.697	0.0168252
810.775	0.0166738
810.853	0.0165942
810.931	0.0166979
811.009	0.0167268
811.087	0.0168230
811.165	0.0167149
811.244	0.0167269
811.322	0.0165990
811.400	0.0165385
811.478	0.0166480
811.556	0.0168353
811.634	0.0167724
811.712	0.0167127
811.790	0.0166297
811.869	0.0167252
811.947	0.0166374
812.025	0.0166155
812.103	0.0167830
812.181	0.0169760
812.259	0.0167491
812.337	0.0167002
812.415	0.0167625
812.494	0.0167362
812.572	0.0167769
812.650	0.0166859
812.728	0.0166625
812.806	0.0167357
812.884	0.0166167
812.962	0.0167388
813.040	0.0165948
813.119	0.0165524
813.197	0.0166746
813.275	0.0166760
813.353	0.0165604
813.431	0.0166084
813.509	0.0164404
813.587	0.0164098
813.665	0.0163376
813.744	0.0164026
813.822	0.0165427
813.900	0.0164840
813.978	0.0165240
814.056	0.0163739
814.134	0.0163541
814.212	0.0165780
814.290	0.0165461
814.369	0.0165336
814.447	0.0167062
814.525	0.0166585
814.603	0.0167177
814.681	0.0167609
814.759	0.0167510
814.837	0.0169108
814.915	0.0168242
814.994	0.0169248
815.072	0.0169762
815.150	0.0169864
815.228	0.0168050
815.306	0.0169821
815.384	0.0170609
815.462	0.0170222
815.540	0.0170285
815.619	0.0171432
815.697	0.0172747
815.775	0.0171938
815.853	0.0171942
815.931	0.0170951
816.009	0.0173127
816.087	0.0171036
816.165	0.0171735
816.244	0.0171745
816.322	0.0171784
816.400	0.0172444
816.478	0.0172832
816.556	0.0170977
816.634	0.0170927
816.712	0.0171644
816.790	0.0171339
816.869	0.0169427
816.947	0.0170932
817.025	0.0170733
817.103	0.0169480
817.181	0.0167455
817.259	0.0169014
817.337	0.0169878
817.415	0.0169900
817.494	0.0169818
817.572	0.0167857
817.650	0.0167711
817.728	0.0169431
817.806	0.0169316
817.884	0.0168348
817.962	0.0167805
818.040	0.0167709
818.119	0.0167807
818.197	0.0168168
818.275	0.0166386
818.353	0.0167472
818.431	0.0167802
818.509	0.0169368
818.587	0.0167078
818.665	0.0165629
818.744	0.0166806
818.822	0.0167520
818.900	0.0166393
818.978	0.0167736
819.056	0.0166931
819.134	0.0167299
819.212	0.0167810
819.290	0.0169195
819.369	0.0167065
819.447	0.0169308
819.525	0.0167819
819.603	0.0169140
819.681	0.0169764
819.759	0.0169177
819.837	0.0168565
819.915	0.0168007
819.994	0.0168261
820.072	0.0167124
820.150	0.0166136
820.228	0.0165810
820.306	0.0168215
820.384	0.0166225
820.462	0.0165086
820.540	0.0164584
820.619	0.0165122
820.697	0.0165556
820.775	0.0162968
820.853	0.0165535
820.931	0.0164517
821.009	0.0164034
821.087	0.0164909
821.165	0.0165625
821.244	0.0166505
821.322	0.0164712
821.400	0.0164632
821.478	0.0165282
821.556	0.0165765
821.634	0.0163168
821.712	0.0164819
821.790	0.0165824
821.869	0.0164925
821.947	0.0166180
822.025	0.0165569
822.103	0.0165575
822.181	0.0166452
822.259	0.0165188
822.337	0.0167230
822.415	0.0166255
822.494	0.0165983
822.572	0.0167132
822.650	0.0168994
822.728	0.0166382
822.806	0.0166800
822.884	0.0168679
822.962	0.0167001
823.040	0.0166817
823.119	0.0168392
823.197	0.0167475
823.275	0.0167493
823.353	0.0167093
823.431	0.0166557
823.509	0.0168336
823.587	0.0166357
823.665	0.0165861
823.744	0.0166837
823.822	0.0166290
823.900	0.0166082
823.978	0.0166485
824.056	0.0166869
824.134	0.0164643
824.212	0.0166184
824.290	0.0167506
824.369	0.0166547
824.447	0.0166497
824.525	0.0167572
824.603	0.0166969
824.681	0.0167547
824.759	0.0166714
824.837	0.0167297
824.915	0.0168896
824.994	0.0168043
825.072	0.0168652
825.150	0.0169645
825.228	0.0167964
825.306	0.0168855
825.384	0.0166586
825.462	0.0167788
825.540	0.0168574
825.619	0.0169869
825.697	0.0168908
825.775	0.0169273
825.853	0.0170384
825.931	0.0168941
826.009	0.0168336
826.087	0.0170142
826.165	0.0170920
826.244	0.0169137
826.322	0.0170997
826.400	0.0169396
826.478	0.0169337
826.556	0.0170742
826.634	0.0169427
826.712	0.0169807
826.790	0.0170875
826.869	0.0170063
826.947	0.0168767
827.025	0.0169818
827.103	0.0170676
827.181	0.0170186
827.259	0.0169170
827.337	0.0167777
827.415	0.0169176
827.494	0.0168417
827.572	0.0169178
827.650	0.0167727
827.728	0.0166502
827.806	0.0167085
827.884	0.0168387
827.962	0.0168078
828.040	0.0166335
828.119	0.0167719
828.197	0.0166582
828.275	0.0166353
828.353	0.0166146
828.431	0.0167805
828.509	0.0167318
828.587	0.0168297
828.665	0.0166980
828.744	0.0168502
828.822	0.0168589
828.900	0.0167645
828.978	0.0168884
829.056	0.0169231
829.134	0.0169794
829.212	0.0170034
829.290	0.0170580
829.369	0.0171602
829.447	0.0171004
829.525	0.0171312
829.603	0.0171844
829.681	0.0172467
829.759	0.0173631
829.837	0.0171373
829.915	0.0172521
829.994	0.0173525
830.072	0.0171918
830.150	0.0171457
830.228	0.0172682
830.306	0.0172416
830.384	0.0171843
830.462	0.0171792
830.540	0.0172170
830.619	0.0171547
830.697	0.0171034
830.775	0.0168967
830.853	0.0170862
830.931	0.0169459
831.009	0.0170387
831.087	0.0169450
831.165	0.0169426
831.244	0.0170591
831.322	0.0170349
831.400	0.0171633
831.478	0.0169367
831.556	0.0169194
831.634	0.0169739
831.712	0.0170591
831.790	0.0170489
831.869	0.0168800
831.947	0.0169565
832.025	0.0168969
832.103	0.0168307
832.181	0.0169324
832.259	0.0168929
832.337	0.0168172
832.415	0.0169598
832.494	0.0170156
832.572	0.0169449
832.650	0.0169151
832.728	0.0167860
832.806	0.0168983
832.884	0.0168276
832.962	0.0169755
833.040	0.0168252
833.119	0.0167319
833.197	0.0167944
833.275	0.0169474
833.353	0.0167357
833.431	0.0167236
833.509	0.0166225
833.587	0.0167062
833.665	0.0165511
833.744	0.0164694
833.822	0.0166514
833.900	0.0167784
833.978	0.0166647
834.056	0.0164662
834.134	0.0165804
834.212	0.0166718
834.290	0.0166683
834.369	0.0166873
834.447	0.0166466
834.525	0.0168636
834.603	0.0168755
834.681	0.0168324
834.759	0.0168877
834.837	0.0169048
834.915	0.0168472
834.994	0.0169637
835.072	0.0169557
835.150	0.0168706
835.228	0.0169363
835.306	0.0171360
835.384	0.0169069
835.462	0.0168111
835.540	0.0169724
835.619	0.0169627
835.697	0.0168689
835.775	0.0169057
835.853	0.0167905
835.931	0.0168723
836.009	0.0169447
836.087	0.0169176
836.165	0.0168362
836.244	0.0166915
836.322	0.0167113
836.400	0.0168272
836.478	0.0167779
836.556	0.0168357
836.634	0.0166255
836.712	0.0165603
836.790	0.0166094
836.869	0.0165483
836.947	0.0165859
837.025	0.0166514
837.103	0.0166265
837.181	0.0167091
837.259	0.0165235
837.337	0.0166745
837.415	0.0164826
837.494	0.0166405
837.572	0.0165874
837.650	0.0165362
837.728	0.0166302
837.806	0.0166796
837.884	0.0166727
837.962	0.0167479
838.040	0.0167548
838.119	0.0167687
838.197	0.0165237
838.275	0.0167445
838.353	0.0168152
838.431	0.0167058
838.509	0.0168424
838.587	0.0169757
838.665	0.0170119
838.744	0.0168876
838.822	0.0168608
838.900	0.0169383
838.978	0.0170623
839.056	0.0170317
839.134	0.0169573
839.212	0.0170274
839.290	0.0169405
839.369	0.0170097
839.447	0.0170818
839.525	0.0170218
839.603	0.0169656
839.681	0.0169155
839.759	0.0170509
839.837	0.0168214
839.915	0.0169905
839.994	0.0167659
840.072	0.0167663
840.150	0.0167732
840.228	0.0169091
840.306	0.0167312
840.384	0.0168179
840.462	0.0167769
840.540	0.0167667
840.619	0.0167547
840.697	0.0168309
840.775	0.0168504
840.853	0.0168578
840.931	0.0167719
841.009	0.0166801
841.087	0.0168248
841.165	0.0167203
841.244	0.0166322
841.322	0.0166643
841.400	0.0166547
841.478	0.0165841
841.556	0.0166524
841.634	0.0165923
841.712	0.0166216
841.790	0.0165396
841.869	0.0166131
841.947	0.0167516
842.025	0.0166448
842.103	0.0165716
842.181	0.0166519
842.259	0.0166753
842.337	0.0167333
842.415	0.0166378
842.494	0.0167526
842.572	0.0166499
842.650	0.0167426
842.728	0.0166438
842.806	0.0166421
842.884	0.0167339
842.962	0.0167355
843.040	0.0167945
843.119	0.0166759
843.197	0.0166097
843.275	0.0168538
843.353	0.0167202
843.431	0.0167189
843.509	0.0167879
843.587	0.0167685
843.665	0.0168955
843.744	0.0167515
843.822	0.0168042
843.900	0.0170440
843.978	0.0168994
844.056	0.0168776
844.134	0.0168810
844.212	0.0169200
844.290	0.0169771
844.369	0.0168602
844.447	0.0170377
844.525	0.0170252
844.603	0.0170525
844.681	0.0170380
844.759	0.0169864
844.837	0.0169122
844.915	0.0168475
844.994	0.0170217
845.072	0.0170573
845.150	0.0170045
845.228	0.0169699
845.306	0.0169469
845.384	0.0169214
845.462	0.0168913
845.540	0.0169958
845.619	0.0168807
845.697	0.0169983
845.775	0.0168919
845.853	0.0169910
845.931	0.0170588
846.009	0.0169582
846.087	0.0169466
846.165	0.0170539
846.244	0.0169593
846.322	0.0170496
846.400	0.0170332
846.478	0.0170446
846.556	0.0168813
846.634	0.0168951
846.712	0.0169256
846.790	0.0169247
846.869	0.0167914
846.947	0.0167699
847.025	0.0167695
847.103	0.0168481
847.181	0.0167613
847.259	0.0167534
847.337	0.0165883
847.415	0.0168835
847.494	0.0168228
847.572	0.0169510
847.650	0.0168318
847.728	0.0167287
847.806	0.0168511
847.884	0.0168634
847.962	0.0167232
848.040	0.0167606
848.119	0.0168671
848.197	0.0167525
848.275	0.0168180
848.353	0.0168211
848.431	0.0168355
848.509	0.0170026
848.587	0.0168204
848.665	0.0168061
848.744	0.0171042
848.822	0.0170003
848.900	0.0169772
848.978	0.0169683
849.056	0.0170138
849.134	0.0170589
849.212	0.0170519
849.290	0.0169302
849.369	0.0170369
849.447	0.0169144
849.525	0.0170367
849.603	0.0169286
849.681	0.0169548
849.759	0.0168811
849.837	0.0169429
849.915	0.0168571
849.994	0.0168452
850.072	0.0169781
850.150	0.0168533
850.228	0.0167997
850.306	0.0168738
850.384	0.0169268
850.462	0.0169225
850.540	0.0167437
850.619	0.0168061
850.697	0.0167588
850.775	0.0167697
850.853	0.0166634
850.931	0.0167908
851.009	0.0170467
851.087	0.0169073
851.165	0.0167607
851.244	0.0168301
851.322	0.0168367
851.400	0.0169302
851.478	0.0168877
851.556	0.0167635
851.634	0.0165382
851.712	0.0166963
851.790	0.0167616
851.869	0.0165825
851.947	0.0167293
852.025	0.0165607
852.103	0.0164980
852.181	0.0166488
852.259	0.0165382
852.337	0.0165804
852.415	0.0165361
852.494	0.0166053
852.572	0.0166270
852.650	0.0166675
852.728	0.0166026
852.806	0.0165975
852.884	0.0165652
852.962	0.0165927
853.040	0.0165210
853.119	0.0166982
853.197	0.0165922
853.275	0.0167372
853.353	0.0167438
853.431	0.0166507
853.509	0.0166861
853.587	0.0165762
853.665	0.0167233
853.744	0.0167657
853.822	0.0167950
853.900	0.0168135
853.978	0.0167112
854.056	0.0169312
854.134	0.0167497
854.212	0.0167879
854.290	0.0167643
854.369	0.0168530
854.447	0.0167654
854.525	0.0168523
854.603	0.0169077
854.681	0.0167832
854.759	0.0168539
854.837	0.0168165
854.915	0.0168761
854.994	0.0167575
855.072	0.0169680
855.150	0.0168821
855.228	0.0168126
855.306	0.0169341
855.384	0.0169484
855.462	0.0169310
855.540	0.0170424
855.619	0.0170507
855.697	0.0171375
855.775	0.0170631
855.853	0.0170222
855.931	0.0171961
856.009	0.0172536
856.087	0.0170361
856.165	0.0170406
856.244	0.0171381
856.322	0.0171031
856.400	0.0170760
856.478	0.0171461
856.556	0.0171529
856.634	0.0171836
856.712	0.0171645
856.790	0.0170100
856.869	0.0169189
856.947	0.0170362
857.025	0.0170107
857.103	0.0170775
857.181	0.0171087
857.259	0.0169875
857.337	0.0169790
857.415	0.0169346
857.494	0.0169690
857.572	0.0170376
857.650	0.0169595
857.728	0.0169352
857.806	0.0170419
857.884	0.0169960
857.962	0.0168192
858.040	0.0169257
858.119	0.0168552
858.197	0.0168722
858.275	0.0168620
858.353	0.0170049
858.431	0.0167687
858.509	0.0168013
858.587	0.0169453
858.665	0.0168438
858.744	0.0169899
858.822	0.0169954
858.900	0.0168552
858.978	0.0168374
859.056	0.0170540
859.134	0.0171421
859.212	0.0170399
859.290	0.0169975
859.369	0.0172513
859.447	0.0170379
859.525	0.0169189
859.603	0.0170025
859.681	0.0171700
859.759	0.0169936
859.837	0.0169367
859.915	0.0171310
