06/01/2022	17:51:27	Ver.	4.1	UNKNOWN
Optical Delay	539.993571	Delta X		0.078125	Sweeps	1	Scan Rate	0/0
Coordinates	Axis 1	NaN	Axis 2	NaN	Axis 3	NaN	Axis 4	NaN	Axis 5	NaN	Axis 6	0.000000
TX Power	0.000000	RX Power	0.000000

539.994	0.0169263
540.072	0.0167602
540.150	0.0170124
540.228	0.0170640
540.306	0.0167271
540.384	0.0168007
540.462	0.0169535
540.540	0.0168158
540.619	0.0167683
540.697	0.0168519
540.775	0.0167974
540.853	0.0168691
540.931	0.0168256
541.009	0.0166203
541.087	0.0166698
541.165	0.0168053
541.244	0.0167573
541.322	0.0166573
541.400	0.0168257
541.478	0.0168302
541.556	0.0167823
541.634	0.0169060
541.712	0.0168497
541.790	0.0169204
541.869	0.0168895
541.947	0.0168873
542.025	0.0169060
542.103	0.0168436
542.181	0.0169473
542.259	0.0168999
542.337	0.0168633
542.415	0.0167317
542.494	0.0169433
542.572	0.0169857
542.650	0.0169530
542.728	0.0168988
542.806	0.0169239
542.884	0.0169902
542.962	0.0169499
543.040	0.0169130
543.119	0.0170993
543.197	0.0169440
543.275	0.0169738
543.353	0.0169553
543.431	0.0169377
543.509	0.0169444
543.587	0.0170810
543.665	0.0171036
543.744	0.0170318
543.822	0.0169646
543.900	0.0170835
543.978	0.0169643
544.056	0.0169159
544.134	0.0169964
544.212	0.0171297
544.290	0.0168951
544.369	0.0170147
544.447	0.0170522
544.525	0.0169918
544.603	0.0168367
544.681	0.0170512
544.759	0.0169951
544.837	0.0169098
544.915	0.0170498
544.994	0.0170539
545.072	0.0169890
545.150	0.0168782
545.228	0.0169224
545.306	0.0169047
545.384	0.0168675
545.462	0.0170325
545.540	0.0169896
545.619	0.0169356
545.697	0.0169071
545.775	0.0170781
545.853	0.0170217
545.931	0.0170013
546.009	0.0169259
546.087	0.0169900
546.165	0.0169987
546.244	0.0169717
546.322	0.0169740
546.400	0.0170549
546.478	0.0167908
546.556	0.0168503
546.634	0.0169192
546.712	0.0170128
546.790	0.0170104
546.869	0.0168993
546.947	0.0168179
547.025	0.0168536
547.103	0.0168629
547.181	0.0167484
547.259	0.0168985
547.337	0.0169207
547.415	0.0168156
547.494	0.0167854
547.572	0.0167973
547.650	0.0168083
547.728	0.0167445
547.806	0.0169260
547.884	0.0168932
547.962	0.0169318
548.040	0.0168551
548.119	0.0169299
548.197	0.0167905
548.275	0.0168019
548.353	0.0169083
548.431	0.0170025
548.509	0.0169032
548.587	0.0169661
548.665	0.0170412
548.744	0.0169980
548.822	0.0170783
548.900	0.0170200
548.978	0.0170509
549.056	0.0169694
549.134	0.0169871
549.212	0.0168772
549.290	0.0169814
549.369	0.0171323
549.447	0.0169421
549.525	0.0171858
549.603	0.0170097
549.681	0.0169844
549.759	0.0169971
549.837	0.0170274
549.915	0.0170229
549.994	0.0170628
550.072	0.0170476
550.150	0.0169493
550.228	0.0170050
550.306	0.0171006
550.384	0.0170367
550.462	0.0170809
550.540	0.0170628
550.619	0.0169729
550.697	0.0170100
550.775	0.0168945
550.853	0.0169025
550.931	0.0170261
551.009	0.0169036
551.087	0.0170252
551.165	0.0169368
551.244	0.0168905
551.322	0.0169917
551.400	0.0170581
551.478	0.0168610
551.556	0.0169423
551.634	0.0168744
551.712	0.0169426
551.790	0.0169918
551.869	0.0169588
551.947	0.0168856
552.025	0.0168677
552.103	0.0170088
552.181	0.0170317
552.259	0.0170405
552.337	0.0170336
552.415	0.0170084
552.494	0.0169560
552.572	0.0170673
552.650	0.0169945
552.728	0.0168952
552.806	0.0169277
552.884	0.0169427
552.962	0.0170245
553.040	0.0170236
553.119	0.0169297
553.197	0.0169483
553.275	0.0168683
553.353	0.0169305
553.431	0.0169622
553.509	0.0168190
553.587	0.0168478
553.665	0.0169064
553.744	0.0168662
553.822	0.0167609
553.900	0.0165256
553.978	0.0167863
554.056	0.0167644
554.134	0.0167479
554.212	0.0169098
554.290	0.0168162
554.369	0.0167604
554.447	0.0167966
554.525	0.0167612
554.603	0.0168114
554.681	0.0169419
554.759	0.0167221
554.837	0.0167970
554.915	0.0168855
554.994	0.0169201
555.072	0.0169391
555.150	0.0168344
555.228	0.0168683
555.306	0.0169176
555.384	0.0169305
555.462	0.0170449
555.540	0.0170013
555.619	0.0168286
555.697	0.0168488
555.775	0.0171236
555.853	0.0170656
555.931	0.0170075
556.009	0.0170630
556.087	0.0171633
556.165	0.0170029
556.244	0.0170701
556.322	0.0170451
556.400	0.0170943
556.478	0.0172479
556.556	0.0170879
556.634	0.0170200
556.712	0.0171387
556.790	0.0171261
556.869	0.0170486
556.947	0.0170506
557.025	0.0170332
557.103	0.0171110
557.181	0.0169479
557.259	0.0168986
557.337	0.0170376
557.415	0.0169469
557.494	0.0170200
557.572	0.0168446
557.650	0.0168997
557.728	0.0168395
557.806	0.0168616
557.884	0.0169003
557.962	0.0166285
558.040	0.0165263
558.119	0.0166209
558.197	0.0167315
558.275	0.0168203
558.353	0.0166383
558.431	0.0166803
558.509	0.0168328
558.587	0.0167164
558.665	0.0167618
558.744	0.0167280
558.822	0.0167565
558.900	0.0166926
558.978	0.0169096
559.056	0.0168745
559.134	0.0167476
559.212	0.0166771
559.290	0.0167323
559.369	0.0167255
559.447	0.0167672
559.525	0.0167486
559.603	0.0168097
559.681	0.0168272
559.759	0.0168217
559.837	0.0166637
559.915	0.0167693
559.994	0.0167522
560.072	0.0168047
560.150	0.0167116
560.228	0.0168117
560.306	0.0167890
560.384	0.0167520
560.462	0.0169958
560.540	0.0169147
560.619	0.0169440
560.697	0.0168167
560.775	0.0168230
560.853	0.0168827
560.931	0.0168353
561.009	0.0168781
561.087	0.0169926
561.165	0.0168371
561.244	0.0168573
561.322	0.0170026
561.400	0.0168561
561.478	0.0168420
561.556	0.0168543
561.634	0.0168790
561.712	0.0167774
561.790	0.0169256
561.869	0.0168964
561.947	0.0167639
562.025	0.0169609
562.103	0.0169355
562.181	0.0169149
562.259	0.0167696
562.337	0.0167873
562.415	0.0168484
562.494	0.0167381
562.572	0.0167107
562.650	0.0167863
562.728	0.0168180
562.806	0.0167313
562.884	0.0167690
562.962	0.0167336
563.040	0.0165390
563.119	0.0167733
563.197	0.0167453
563.275	0.0166960
563.353	0.0165691
563.431	0.0166802
563.509	0.0168525
563.587	0.0168982
563.665	0.0165928
563.744	0.0168265
563.822	0.0167740
563.900	0.0168687
563.978	0.0168421
564.056	0.0168289
564.134	0.0168385
564.212	0.0168854
564.290	0.0170304
564.369	0.0169691
564.447	0.0170379
564.525	0.0171563
564.603	0.0170224
564.681	0.0169301
564.759	0.0169862
564.837	0.0171515
564.915	0.0171796
564.994	0.0170590
565.072	0.0170626
565.150	0.0170710
565.228	0.0171183
565.306	0.0169736
565.384	0.0170267
565.462	0.0170897
565.540	0.0169783
565.619	0.0168662
565.697	0.0168951
565.775	0.0171044
565.853	0.0170235
565.931	0.0171381
566.009	0.0168776
566.087	0.0170771
566.165	0.0169651
566.244	0.0169493
566.322	0.0169492
566.400	0.0170689
566.478	0.0170347
566.556	0.0170170
566.634	0.0170919
566.712	0.0170027
566.790	0.0169300
566.869	0.0170530
566.947	0.0169965
567.025	0.0168574
567.103	0.0169543
567.181	0.0169213
567.259	0.0169034
567.337	0.0169685
567.415	0.0170654
567.494	0.0170705
567.572	0.0170045
567.650	0.0170784
567.728	0.0169901
567.806	0.0170078
567.884	0.0170734
567.962	0.0170506
568.040	0.0170062
568.119	0.0170183
568.197	0.0171018
568.275	0.0171318
568.353	0.0169485
568.431	0.0170129
568.509	0.0171241
568.587	0.0170240
568.665	0.0170117
568.744	0.0170316
568.822	0.0171031
568.900	0.0171139
568.978	0.0170058
569.056	0.0169906
569.134	0.0170095
569.212	0.0169865
569.290	0.0169534
569.369	0.0170329
569.447	0.0171048
569.525	0.0170103
569.603	0.0170229
569.681	0.0170099
569.759	0.0171550
569.837	0.0170308
569.915	0.0169784
569.994	0.0170762
570.072	0.0169471
570.150	0.0171378
570.228	0.0171820
570.306	0.0170388
570.384	0.0169423
570.462	0.0170374
570.540	0.0168786
570.619	0.0167453
570.697	0.0169193
570.775	0.0170242
570.853	0.0169313
570.931	0.0168452
571.009	0.0169332
571.087	0.0168593
571.165	0.0168588
571.244	0.0168053
571.322	0.0168881
571.400	0.0168449
571.478	0.0168156
571.556	0.0167976
571.634	0.0168434
571.712	0.0168142
571.790	0.0167832
571.869	0.0169022
571.947	0.0168810
572.025	0.0169430
572.103	0.0169562
572.181	0.0167896
572.259	0.0169709
572.337	0.0169747
572.415	0.0166737
572.494	0.0168978
572.572	0.0168378
572.650	0.0168832
572.728	0.0167204
572.806	0.0169713
572.884	0.0168846
572.962	0.0167503
573.040	0.0167819
573.119	0.0168388
573.197	0.0167036
573.275	0.0168103
573.353	0.0169405
573.431	0.0168158
573.509	0.0167236
573.587	0.0168990
573.665	0.0168508
573.744	0.0169232
573.822	0.0168294
573.900	0.0167607
573.978	0.0170480
574.056	0.0171149
574.134	0.0169894
574.212	0.0170834
574.290	0.0170760
574.369	0.0170195
574.447	0.0169474
574.525	0.0170215
574.603	0.0170995
574.681	0.0170634
574.759	0.0170453
574.837	0.0170547
574.915	0.0169321
574.994	0.0170552
575.072	0.0170635
575.150	0.0169793
575.228	0.0168843
575.306	0.0168712
575.384	0.0168736
575.462	0.0167636
575.540	0.0166502
575.619	0.0166092
575.697	0.0166168
575.775	0.0167895
575.853	0.0166939
575.931	0.0166137
576.009	0.0166402
576.087	0.0166541
576.165	0.0166580
576.244	0.0166843
576.322	0.0167226
576.400	0.0167194
576.478	0.0169252
576.556	0.0168889
576.634	0.0169790
576.712	0.0169708
576.790	0.0168034
576.869	0.0169598
576.947	0.0170176
577.025	0.0170722
577.103	0.0171086
577.181	0.0169897
577.259	0.0170587
577.337	0.0170468
577.415	0.0170998
577.494	0.0170360
577.572	0.0170338
577.650	0.0171244
577.728	0.0170375
577.806	0.0170775
577.884	0.0170411
577.962	0.0170245
578.040	0.0168621
578.119	0.0167999
578.197	0.0167108
578.275	0.0166869
578.353	0.0165814
578.431	0.0165474
578.509	0.0164947
578.587	0.0166594
578.665	0.0164655
578.744	0.0164061
578.822	0.0164999
578.900	0.0165592
578.978	0.0167464
579.056	0.0168004
579.134	0.0167952
579.212	0.0169793
579.290	0.0170513
579.369	0.0170071
579.447	0.0173047
579.525	0.0175501
579.603	0.0176151
579.681	0.0175375
579.759	0.0177370
579.837	0.0177791
579.915	0.0179040
579.994	0.0178545
580.072	0.0178016
580.150	0.0177792
580.228	0.0177118
580.306	0.0176299
580.384	0.0171701
580.462	0.0170726
580.540	0.0169775
580.619	0.0168501
580.697	0.0166384
580.775	0.0164653
580.853	0.0163259
580.931	0.0161120
581.009	0.0159434
581.087	0.0155953
581.165	0.0155022
581.244	0.0154408
581.322	0.0155023
581.400	0.0153735
581.478	0.0153605
581.556	0.0155211
581.634	0.0155518
581.712	0.0157808
581.790	0.0160392
581.869	0.0160852
581.947	0.0163807
582.025	0.0165928
582.103	0.0167798
582.181	0.0170207
582.259	0.0174232
582.337	0.0174714
582.415	0.0178547
582.494	0.0180464
582.572	0.0182703
582.650	0.0182522
582.728	0.0184347
582.806	0.0186254
582.884	0.0185487
582.962	0.0186531
583.040	0.0183588
583.119	0.0183593
583.197	0.0183188
583.275	0.0181045
583.353	0.0178171
583.431	0.0176536
583.509	0.0174223
583.587	0.0173772
583.665	0.0170391
583.744	0.0166366
583.822	0.0164736
583.900	0.0162174
583.978	0.0159527
584.056	0.0157802
584.134	0.0154950
584.212	0.0153924
584.290	0.0152599
584.369	0.0150642
584.447	0.0148917
584.525	0.0148718
584.603	0.0149212
584.681	0.0149832
584.759	0.0150435
584.837	0.0152216
584.915	0.0154174
584.994	0.0154070
585.072	0.0156458
585.150	0.0160776
585.228	0.0163226
585.306	0.0165318
585.384	0.0166445
585.462	0.0169798
585.540	0.0171226
585.619	0.0173626
585.697	0.0175423
585.775	0.0177968
585.853	0.0178749
585.931	0.0179252
586.009	0.0181721
586.087	0.0181968
586.165	0.0182317
586.244	0.0182278
586.322	0.0181332
586.400	0.0180947
586.478	0.0182100
586.556	0.0181641
586.634	0.0179833
586.712	0.0179056
586.790	0.0177339
586.869	0.0174065
586.947	0.0174921
587.025	0.0172088
587.103	0.0170612
587.181	0.0169363
587.259	0.0169205
587.337	0.0167348
587.415	0.0165297
587.494	0.0164271
587.572	0.0164366
587.650	0.0162293
587.728	0.0162951
587.806	0.0162570
587.884	0.0162823
587.962	0.0160841
588.040	0.0160930
588.119	0.0162076
588.197	0.0160873
588.275	0.0160442
588.353	0.0162122
588.431	0.0160709
588.509	0.0159708
588.587	0.0160175
588.665	0.0160638
588.744	0.0159631
588.822	0.0161547
588.900	0.0160359
588.978	0.0158095
589.056	0.0159439
589.134	0.0159075
589.212	0.0160551
589.290	0.0161464
589.369	0.0162277
589.447	0.0163534
589.525	0.0164932
589.603	0.0167330
589.681	0.0167371
589.759	0.0169447
589.837	0.0171247
589.915	0.0173354
589.994	0.0175388
590.072	0.0177290
590.150	0.0179234
590.228	0.0178682
590.306	0.0180960
590.384	0.0182123
590.462	0.0183253
590.540	0.0182639
590.619	0.0183607
590.697	0.0183865
590.775	0.0184849
590.853	0.0185381
590.931	0.0183460
591.009	0.0184291
591.087	0.0184445
591.165	0.0182941
591.244	0.0182165
591.322	0.0182484
591.400	0.0181628
591.478	0.0180365
591.556	0.0179008
591.634	0.0178613
591.712	0.0177854
591.790	0.0176894
591.869	0.0176130
591.947	0.0174379
592.025	0.0172018
592.103	0.0171864
592.181	0.0169791
592.259	0.0167139
592.337	0.0165826
592.415	0.0164180
592.494	0.0162173
592.572	0.0160838
592.650	0.0159773
592.728	0.0156190
592.806	0.0155840
592.884	0.0153545
592.962	0.0154108
593.040	0.0153873
593.119	0.0153319
593.197	0.0152382
593.275	0.0152064
593.353	0.0150567
593.431	0.0152104
593.509	0.0152513
593.587	0.0152495
593.665	0.0152792
593.744	0.0152942
593.822	0.0152383
593.900	0.0153705
593.978	0.0154952
594.056	0.0157439
594.134	0.0159440
594.212	0.0160250
594.290	0.0161900
594.369	0.0165218
594.447	0.0166535
594.525	0.0168469
594.603	0.0171104
594.681	0.0176021
594.759	0.0176384
594.837	0.0179862
594.915	0.0181740
594.994	0.0185078
595.072	0.0185743
595.150	0.0187064
595.228	0.0187811
595.306	0.0188368
595.384	0.0188918
595.462	0.0188708
595.540	0.0186981
595.619	0.0186495
595.697	0.0185838
595.775	0.0185580
595.853	0.0182683
595.931	0.0182027
596.009	0.0178860
596.087	0.0176274
596.165	0.0174233
596.244	0.0171808
596.322	0.0168843
596.400	0.0165738
596.478	0.0163912
596.556	0.0160168
596.634	0.0158270
596.712	0.0155156
596.790	0.0152404
596.869	0.0151283
596.947	0.0148817
597.025	0.0145811
597.103	0.0144530
597.181	0.0143187
597.259	0.0143045
597.337	0.0142521
597.415	0.0144862
597.494	0.0145536
597.572	0.0148218
597.650	0.0151202
597.728	0.0152902
597.806	0.0156895
597.884	0.0159189
597.962	0.0162296
598.040	0.0165428
598.119	0.0168400
598.197	0.0171274
598.275	0.0175002
598.353	0.0174949
598.431	0.0177155
598.509	0.0178417
598.587	0.0179476
598.665	0.0181235
598.744	0.0181956
598.822	0.0182762
598.900	0.0182378
598.978	0.0182449
599.056	0.0183038
599.134	0.0182704
599.212	0.0180634
599.290	0.0181546
599.369	0.0181038
599.447	0.0179935
599.525	0.0179914
599.603	0.0178236
599.681	0.0177528
599.759	0.0176809
599.837	0.0174426
599.915	0.0173343
599.994	0.0173318
600.072	0.0170525
600.150	0.0169637
600.228	0.0168054
600.306	0.0167404
600.384	0.0168082
600.462	0.0167092
600.540	0.0165938
600.619	0.0168430
600.697	0.0167597
600.775	0.0168858
600.853	0.0170760
600.931	0.0170273
601.009	0.0173233
601.087	0.0174481
601.165	0.0175944
601.244	0.0175439
601.322	0.0177778
601.400	0.0176643
601.478	0.0177672
601.556	0.0178433
601.634	0.0179106
601.712	0.0176241
601.790	0.0174345
601.869	0.0176353
601.947	0.0174309
602.025	0.0173838
602.103	0.0172428
602.181	0.0168701
602.259	0.0169116
602.337	0.0167432
602.415	0.0167239
602.494	0.0164691
602.572	0.0164735
602.650	0.0165662
602.728	0.0162856
602.806	0.0162711
602.884	0.0164526
602.962	0.0163950
603.040	0.0164372
603.119	0.0163192
603.197	0.0164335
603.275	0.0163978
603.353	0.0165854
603.431	0.0165166
603.509	0.0165528
603.587	0.0166290
603.665	0.0166769
603.744	0.0166664
603.822	0.0165977
603.900	0.0165720
603.978	0.0167636
604.056	0.0165618
604.134	0.0165388
604.212	0.0164207
604.290	0.0164272
604.369	0.0164683
604.447	0.0162133
604.525	0.0162505
604.603	0.0161629
604.681	0.0160078
604.759	0.0159058
604.837	0.0160558
604.915	0.0159441
604.994	0.0159019
605.072	0.0158969
605.150	0.0159856
605.228	0.0160900
605.306	0.0162370
605.384	0.0163965
605.462	0.0166531
605.540	0.0166711
605.619	0.0167793
605.697	0.0169864
605.775	0.0168906
605.853	0.0171622
605.931	0.0172002
606.009	0.0176193
606.087	0.0176760
606.165	0.0177240
606.244	0.0179248
606.322	0.0179751
606.400	0.0182509
606.478	0.0184929
606.556	0.0187240
606.634	0.0187981
606.712	0.0187900
606.790	0.0188725
606.869	0.0188832
606.947	0.0190308
607.025	0.0190375
607.103	0.0189314
607.181	0.0188834
607.259	0.0188559
607.337	0.0186466
607.415	0.0184295
607.494	0.0181673
607.572	0.0181949
607.650	0.0178844
607.728	0.0176093
607.806	0.0173441
607.884	0.0169391
607.962	0.0166469
608.040	0.0164178
608.119	0.0159814
608.197	0.0156611
608.275	0.0153259
608.353	0.0150137
608.431	0.0146910
608.509	0.0143666
608.587	0.0141345
608.665	0.0137585
608.744	0.0135966
608.822	0.0134636
608.900	0.0133250
608.978	0.0132837
609.056	0.0131620
609.134	0.0132997
609.212	0.0135065
609.290	0.0136059
609.369	0.0138190
609.447	0.0139945
609.525	0.0143435
609.603	0.0147778
609.681	0.0151098
609.759	0.0155257
609.837	0.0159882
609.915	0.0164053
609.994	0.0170565
610.072	0.0174173
610.150	0.0178613
610.228	0.0184513
610.306	0.0189044
610.384	0.0193086
610.462	0.0194707
610.540	0.0198257
610.619	0.0202110
610.697	0.0204171
610.775	0.0206374
610.853	0.0206238
610.931	0.0208323
611.009	0.0208720
611.087	0.0206882
611.165	0.0206552
611.244	0.0203391
611.322	0.0200066
611.400	0.0198334
611.478	0.0192442
611.556	0.0189841
611.634	0.0185683
611.712	0.0181755
611.790	0.0176865
611.869	0.0171863
611.947	0.0167622
612.025	0.0162846
612.103	0.0161007
612.181	0.0154281
612.259	0.0154650
612.337	0.0150897
612.415	0.0149799
612.494	0.0147806
612.572	0.0147643
612.650	0.0147643
612.728	0.0148779
612.806	0.0150408
612.884	0.0150578
612.962	0.0152457
613.040	0.0153654
613.119	0.0155399
613.197	0.0157716
613.275	0.0160468
613.353	0.0161427
613.431	0.0162516
613.509	0.0164504
613.587	0.0163763
613.665	0.0164716
613.744	0.0166615
613.822	0.0166426
613.900	0.0166096
613.978	0.0167638
614.056	0.0168186
614.134	0.0168507
614.212	0.0168262
614.290	0.0168771
614.369	0.0168060
614.447	0.0166324
614.525	0.0168276
614.603	0.0168941
614.681	0.0167791
614.759	0.0168125
614.837	0.0168451
614.915	0.0168654
614.994	0.0167384
615.072	0.0167860
615.150	0.0168961
615.228	0.0168400
615.306	0.0168661
615.384	0.0171548
615.462	0.0171652
615.540	0.0172139
615.619	0.0173051
615.697	0.0173351
615.775	0.0175125
615.853	0.0173449
615.931	0.0175294
616.009	0.0176298
616.087	0.0175877
616.165	0.0176680
616.244	0.0177671
616.322	0.0177275
616.400	0.0178185
616.478	0.0177582
616.556	0.0175929
616.634	0.0177595
616.712	0.0177429
616.790	0.0177926
616.869	0.0177301
616.947	0.0178162
617.025	0.0176982
617.103	0.0175480
617.181	0.0174475
617.259	0.0172895
617.337	0.0171509
617.415	0.0170683
617.494	0.0167745
617.572	0.0165836
617.650	0.0163280
617.728	0.0162564
617.806	0.0160604
617.884	0.0157797
617.962	0.0157338
618.040	0.0155193
618.119	0.0155484
618.197	0.0154925
618.275	0.0156718
618.353	0.0156319
618.431	0.0156015
618.509	0.0159571
618.587	0.0160615
618.665	0.0162164
618.744	0.0164678
618.822	0.0166090
618.900	0.0168948
618.978	0.0169154
619.056	0.0169943
619.134	0.0171394
619.212	0.0172902
619.290	0.0174483
619.369	0.0173566
619.447	0.0174731
619.525	0.0174439
619.603	0.0174063
619.681	0.0173051
619.759	0.0173201
619.837	0.0171244
619.915	0.0172900
619.994	0.0171778
620.072	0.0170707
620.150	0.0170293
620.228	0.0167545
620.306	0.0167690
620.384	0.0168597
620.462	0.0167999
620.540	0.0166348
620.619	0.0167474
620.697	0.0166573
620.775	0.0167670
620.853	0.0166692
620.931	0.0166561
621.009	0.0167328
621.087	0.0168764
621.165	0.0167521
621.244	0.0168039
621.322	0.0168856
621.400	0.0168855
621.478	0.0170649
621.556	0.0169549
621.634	0.0170347
621.712	0.0173550
621.790	0.0171877
621.869	0.0172832
621.947	0.0173775
622.025	0.0173730
622.103	0.0173415
622.181	0.0173259
622.259	0.0173856
622.337	0.0171905
622.415	0.0171793
622.494	0.0171881
622.572	0.0170746
622.650	0.0171716
622.728	0.0170145
622.806	0.0169468
622.884	0.0168407
622.962	0.0168006
623.040	0.0167742
623.119	0.0167564
623.197	0.0168677
623.275	0.0169038
623.353	0.0168452
623.431	0.0167508
623.509	0.0168854
623.587	0.0168038
623.665	0.0167699
623.744	0.0169523
623.822	0.0167908
623.900	0.0170425
623.978	0.0169432
624.056	0.0167013
624.134	0.0167974
624.212	0.0167164
624.290	0.0166779
624.369	0.0166839
624.447	0.0164330
624.525	0.0165113
624.603	0.0165403
624.681	0.0166853
624.759	0.0165899
624.837	0.0165235
624.915	0.0167009
624.994	0.0167715
625.072	0.0168317
625.150	0.0168897
625.228	0.0169428
625.306	0.0171057
625.384	0.0171873
625.462	0.0171256
625.540	0.0170357
625.619	0.0170808
625.697	0.0172355
625.775	0.0171917
625.853	0.0172075
625.931	0.0172477
626.009	0.0172620
626.087	0.0174046
626.165	0.0175018
626.244	0.0176640
626.322	0.0178597
626.400	0.0179514
626.478	0.0180621
626.556	0.0182322
626.634	0.0182165
626.712	0.0183636
626.790	0.0184829
626.869	0.0184599
626.947	0.0184290
627.025	0.0182993
627.103	0.0182696
627.181	0.0181624
627.259	0.0179319
627.337	0.0176901
627.415	0.0177686
627.494	0.0175384
627.572	0.0173300
627.650	0.0169816
627.728	0.0168001
627.806	0.0166076
627.884	0.0164493
627.962	0.0162140
628.040	0.0160942
628.119	0.0158273
628.197	0.0157411
628.275	0.0155022
628.353	0.0154235
628.431	0.0152946
628.509	0.0152269
628.587	0.0152273
628.665	0.0153072
628.744	0.0152384
628.822	0.0152975
628.900	0.0153509
628.978	0.0153572
629.056	0.0155573
629.134	0.0155844
629.212	0.0155123
629.290	0.0159446
629.369	0.0159231
629.447	0.0162526
629.525	0.0163268
629.603	0.0164907
629.681	0.0166794
629.759	0.0168686
629.837	0.0169858
629.915	0.0171798
629.994	0.0174292
630.072	0.0176026
630.150	0.0177344
630.228	0.0178847
630.306	0.0179710
630.384	0.0181002
630.462	0.0181084
630.540	0.0182675
630.619	0.0184221
630.697	0.0183051
630.775	0.0182522
630.853	0.0182354
630.931	0.0180527
631.009	0.0180013
631.087	0.0177710
631.165	0.0176509
631.244	0.0176120
631.322	0.0176273
631.400	0.0174259
631.478	0.0171484
631.556	0.0171071
631.634	0.0172136
631.712	0.0171609
631.790	0.0172321
631.869	0.0169582
631.947	0.0170514
632.025	0.0170729
632.103	0.0170340
632.181	0.0168822
632.259	0.0168844
632.337	0.0168703
632.415	0.0168589
632.494	0.0168173
632.572	0.0166089
632.650	0.0164769
632.728	0.0164447
632.806	0.0162965
632.884	0.0163688
632.962	0.0161713
633.040	0.0161491
633.119	0.0162273
633.197	0.0162880
633.275	0.0161237
633.353	0.0162724
633.431	0.0163326
633.509	0.0161861
633.587	0.0162663
633.665	0.0163063
633.744	0.0162577
633.822	0.0164365
633.900	0.0163746
633.978	0.0165858
634.056	0.0164384
634.134	0.0164459
634.212	0.0164532
634.290	0.0163528
634.369	0.0164318
634.447	0.0164443
634.525	0.0165519
634.603	0.0163940
634.681	0.0164867
634.759	0.0164413
634.837	0.0163406
634.915	0.0164017
634.994	0.0165568
635.072	0.0167023
635.150	0.0165584
635.228	0.0167146
635.306	0.0168353
635.384	0.0168845
635.462	0.0168408
635.540	0.0169366
635.619	0.0170543
635.697	0.0170122
635.775	0.0171022
635.853	0.0169955
635.931	0.0170264
636.009	0.0169499
636.087	0.0169011
636.165	0.0169678
636.244	0.0169309
636.322	0.0169498
636.400	0.0169241
636.478	0.0169468
636.556	0.0170102
636.634	0.0170069
636.712	0.0171205
636.790	0.0172633
636.869	0.0174152
636.947	0.0174847
637.025	0.0177621
637.103	0.0179899
637.181	0.0181306
637.259	0.0181532
637.337	0.0182285
637.415	0.0182095
637.494	0.0183593
637.572	0.0185440
637.650	0.0184174
637.728	0.0183761
637.806	0.0182497
637.884	0.0183228
637.962	0.0182067
638.040	0.0180317
638.119	0.0181882
638.197	0.0178924
638.275	0.0178125
638.353	0.0178267
638.431	0.0175899
638.509	0.0173874
638.587	0.0172403
638.665	0.0168493
638.744	0.0166946
638.822	0.0165582
638.900	0.0163125
638.978	0.0159162
639.056	0.0159028
639.134	0.0155409
639.212	0.0154967
639.290	0.0154247
639.369	0.0153007
639.447	0.0152182
639.525	0.0151614
639.603	0.0150938
639.681	0.0151077
639.759	0.0150430
639.837	0.0152095
639.915	0.0154746
639.994	0.0155518
640.072	0.0157572
640.150	0.0159726
640.228	0.0160673
640.306	0.0163319
640.384	0.0164498
640.462	0.0167408
640.540	0.0169483
640.619	0.0171120
640.697	0.0172816
640.775	0.0172710
640.853	0.0175301
640.931	0.0177232
641.009	0.0177235
641.087	0.0178691
641.165	0.0179298
641.244	0.0178826
641.322	0.0181383
641.400	0.0182267
641.478	0.0183482
641.556	0.0182793
641.634	0.0181251
641.712	0.0182185
641.790	0.0180582
641.869	0.0179922
641.947	0.0178084
642.025	0.0177281
642.103	0.0174102
642.181	0.0173829
642.259	0.0171333
642.337	0.0170930
642.415	0.0167965
642.494	0.0167187
642.572	0.0164401
642.650	0.0163329
642.728	0.0163428
642.806	0.0163329
642.884	0.0161966
642.962	0.0161887
643.040	0.0163187
643.119	0.0162550
643.197	0.0163792
643.275	0.0162874
643.353	0.0163943
643.431	0.0164407
643.509	0.0164294
643.587	0.0164124
643.665	0.0163943
643.744	0.0164423
643.822	0.0165931
643.900	0.0166059
643.978	0.0167194
644.056	0.0168092
644.134	0.0169483
644.212	0.0168663
644.290	0.0169596
644.369	0.0171396
644.447	0.0172884
644.525	0.0171453
644.603	0.0172350
644.681	0.0173510
644.759	0.0173705
644.837	0.0174835
644.915	0.0174257
644.994	0.0172572
645.072	0.0172649
645.150	0.0173637
645.228	0.0171605
645.306	0.0169142
645.384	0.0169190
645.462	0.0169288
645.540	0.0168331
645.619	0.0167422
645.697	0.0167561
645.775	0.0166326
645.853	0.0163689
645.931	0.0165643
646.009	0.0164249
646.087	0.0163946
646.165	0.0164949
646.244	0.0164211
646.322	0.0163972
646.400	0.0164790
646.478	0.0162901
646.556	0.0163137
646.634	0.0163685
646.712	0.0163989
646.790	0.0164113
646.869	0.0163744
646.947	0.0161237
647.025	0.0162352
647.103	0.0165161
647.181	0.0164542
647.259	0.0165478
647.337	0.0165163
647.415	0.0164975
647.494	0.0166891
647.572	0.0167300
647.650	0.0166752
647.728	0.0168436
647.806	0.0168880
647.884	0.0170195
647.962	0.0171370
648.040	0.0170936
648.119	0.0172797
648.197	0.0172916
648.275	0.0173444
648.353	0.0175333
648.431	0.0174924
648.509	0.0176841
648.587	0.0177168
648.665	0.0175617
648.744	0.0175879
648.822	0.0175318
648.900	0.0175471
648.978	0.0174600
649.056	0.0171996
649.134	0.0171623
649.212	0.0171343
649.290	0.0171528
649.369	0.0168198
649.447	0.0168294
649.525	0.0167770
649.603	0.0166734
649.681	0.0163686
649.759	0.0164448
649.837	0.0163757
649.915	0.0162836
649.994	0.0161832
650.072	0.0162827
650.150	0.0162447
650.228	0.0163218
650.306	0.0163995
650.384	0.0162684
650.462	0.0164332
650.540	0.0165156
650.619	0.0167436
650.697	0.0167310
650.775	0.0169698
650.853	0.0171767
650.931	0.0171181
651.009	0.0172355
651.087	0.0173620
651.165	0.0174213
651.244	0.0174722
651.322	0.0175780
651.400	0.0175494
651.478	0.0174621
651.556	0.0175616
651.634	0.0175892
651.712	0.0174026
651.790	0.0175516
651.869	0.0175613
651.947	0.0175965
652.025	0.0175729
652.103	0.0175710
652.181	0.0174397
652.259	0.0175580
652.337	0.0176098
652.415	0.0176192
652.494	0.0175126
652.572	0.0175703
652.650	0.0175301
652.728	0.0173973
652.806	0.0173407
652.884	0.0170780
652.962	0.0170668
653.040	0.0169725
653.119	0.0168208
653.197	0.0167615
653.275	0.0168224
653.353	0.0165760
653.431	0.0163930
653.509	0.0164849
653.587	0.0165289
653.665	0.0164712
653.744	0.0163251
653.822	0.0162579
653.900	0.0163197
653.978	0.0164475
654.056	0.0164011
654.134	0.0165429
654.212	0.0164795
654.290	0.0165714
654.369	0.0165574
654.447	0.0166299
654.525	0.0165408
654.603	0.0166142
654.681	0.0166603
654.759	0.0166299
654.837	0.0167113
654.915	0.0167670
654.994	0.0168667
655.072	0.0169205
655.150	0.0168645
655.228	0.0169817
655.306	0.0169292
655.384	0.0170242
655.462	0.0170606
655.540	0.0170896
655.619	0.0171754
655.697	0.0171013
655.775	0.0170853
655.853	0.0170178
655.931	0.0170664
656.009	0.0170584
656.087	0.0171192
656.165	0.0169467
656.244	0.0169540
656.322	0.0170856
656.400	0.0169312
656.478	0.0169090
656.556	0.0169939
656.634	0.0167568
656.712	0.0168162
656.790	0.0168700
656.869	0.0166911
656.947	0.0165890
657.025	0.0167739
657.103	0.0167356
657.181	0.0167267
657.259	0.0166654
657.337	0.0166859
657.415	0.0167223
657.494	0.0166772
657.572	0.0167738
657.650	0.0168577
657.728	0.0169659
657.806	0.0169352
657.884	0.0169991
657.962	0.0169866
658.040	0.0170660
658.119	0.0172080
658.197	0.0171799
658.275	0.0174074
658.353	0.0173998
658.431	0.0172072
658.509	0.0174461
658.587	0.0176408
658.665	0.0173888
658.744	0.0174094
658.822	0.0175534
658.900	0.0175082
658.978	0.0173192
659.056	0.0173277
659.134	0.0172530
659.212	0.0172034
659.290	0.0172652
659.369	0.0171310
659.447	0.0171104
659.525	0.0170661
659.603	0.0170659
659.681	0.0169170
659.759	0.0169958
659.837	0.0170077
659.915	0.0169461
659.994	0.0169297
660.072	0.0169805
660.150	0.0169243
660.228	0.0168710
660.306	0.0169734
660.384	0.0168127
660.462	0.0167802
660.540	0.0167697
660.619	0.0166201
660.697	0.0167502
660.775	0.0165444
660.853	0.0165735
660.931	0.0166828
661.009	0.0164967
661.087	0.0164025
661.165	0.0162898
661.244	0.0165940
661.322	0.0164365
661.400	0.0163354
661.478	0.0162703
661.556	0.0162931
661.634	0.0162945
661.712	0.0162981
661.790	0.0161641
661.869	0.0163810
661.947	0.0163949
662.025	0.0164407
662.103	0.0164267
662.181	0.0164192
662.259	0.0164790
662.337	0.0167007
662.415	0.0166748
662.494	0.0166538
662.572	0.0168198
662.650	0.0169276
662.728	0.0169508
662.806	0.0169434
662.884	0.0170802
662.962	0.0169074
663.040	0.0171706
663.119	0.0171510
663.197	0.0170308
663.275	0.0171091
663.353	0.0170412
663.431	0.0171482
663.509	0.0170246
663.587	0.0170581
663.665	0.0169720
663.744	0.0169708
663.822	0.0168661
663.900	0.0167986
663.978	0.0168282
664.056	0.0167001
664.134	0.0165247
664.212	0.0166858
664.290	0.0166165
664.369	0.0165250
664.447	0.0164932
664.525	0.0164568
664.603	0.0164378
664.681	0.0164807
664.759	0.0165517
664.837	0.0165392
664.915	0.0165272
664.994	0.0167144
665.072	0.0167218
665.150	0.0165437
665.228	0.0167725
665.306	0.0168596
665.384	0.0168656
665.462	0.0168885
665.540	0.0168909
665.619	0.0169633
665.697	0.0170108
665.775	0.0170773
665.853	0.0170717
665.931	0.0171093
666.009	0.0170831
666.087	0.0170421
666.165	0.0169705
666.244	0.0171296
666.322	0.0171090
666.400	0.0171501
666.478	0.0172237
666.556	0.0172028
666.634	0.0173955
666.712	0.0174164
666.790	0.0172344
666.869	0.0173270
666.947	0.0173615
667.025	0.0174926
667.103	0.0175488
667.181	0.0174448
667.259	0.0173984
667.337	0.0173746
667.415	0.0173190
667.494	0.0171873
667.572	0.0170982
667.650	0.0169814
667.728	0.0169532
667.806	0.0169949
667.884	0.0168127
667.962	0.0167480
668.040	0.0168107
668.119	0.0167628
668.197	0.0167345
668.275	0.0167717
668.353	0.0168612
668.431	0.0167303
668.509	0.0167445
668.587	0.0168185
668.665	0.0168064
668.744	0.0167654
668.822	0.0168827
668.900	0.0168235
668.978	0.0167688
669.056	0.0169650
669.134	0.0168435
669.212	0.0167094
669.290	0.0168246
669.369	0.0168494
669.447	0.0168913
669.525	0.0169872
669.603	0.0169446
669.681	0.0169995
669.759	0.0171100
669.837	0.0171135
669.915	0.0170463
669.994	0.0171204
670.072	0.0172614
670.150	0.0170465
670.228	0.0170901
670.306	0.0171944
670.384	0.0172209
670.462	0.0171478
670.540	0.0172341
670.619	0.0171395
670.697	0.0170487
670.775	0.0170310
670.853	0.0170076
670.931	0.0168948
671.009	0.0170384
671.087	0.0170928
671.165	0.0168246
671.244	0.0169247
671.322	0.0168909
671.400	0.0170210
671.478	0.0169736
671.556	0.0170730
671.634	0.0168601
671.712	0.0169651
671.790	0.0170147
671.869	0.0168722
671.947	0.0167541
672.025	0.0168496
672.103	0.0168852
672.181	0.0168207
672.259	0.0167298
672.337	0.0167805
672.415	0.0166813
672.494	0.0165927
672.572	0.0167220
672.650	0.0166866
672.728	0.0167144
672.806	0.0166824
672.884	0.0167176
672.962	0.0165324
673.040	0.0165308
673.119	0.0166252
673.197	0.0165282
673.275	0.0164560
673.353	0.0165201
673.431	0.0165226
673.509	0.0164326
673.587	0.0164941
673.665	0.0166406
673.744	0.0165384
673.822	0.0166206
673.900	0.0166504
673.978	0.0167017
674.056	0.0168362
674.134	0.0168266
674.212	0.0168805
674.290	0.0169637
674.369	0.0168815
674.447	0.0169802
674.525	0.0170616
674.603	0.0170907
674.681	0.0169756
674.759	0.0169256
674.837	0.0170308
674.915	0.0170392
674.994	0.0169683
675.072	0.0169183
675.150	0.0168748
675.228	0.0167595
675.306	0.0168682
675.384	0.0169170
675.462	0.0165863
675.540	0.0167581
675.619	0.0167543
675.697	0.0166096
675.775	0.0167036
675.853	0.0167426
675.931	0.0168299
676.009	0.0168668
676.087	0.0168868
676.165	0.0168385
676.244	0.0167428
676.322	0.0167524
676.400	0.0168284
676.478	0.0168266
676.556	0.0168730
676.634	0.0168324
676.712	0.0167667
676.790	0.0168474
676.869	0.0167039
676.947	0.0168414
677.025	0.0166325
677.103	0.0166805
677.181	0.0167520
677.259	0.0165611
677.337	0.0166809
677.415	0.0166798
677.494	0.0167644
677.572	0.0163313
677.650	0.0165407
677.728	0.0166733
677.806	0.0164401
677.884	0.0165221
677.962	0.0165054
678.040	0.0164314
678.119	0.0165079
678.197	0.0165884
678.275	0.0166779
678.353	0.0166347
678.431	0.0168174
678.509	0.0168641
678.587	0.0169572
678.665	0.0170816
678.744	0.0170829
678.822	0.0170854
678.900	0.0170660
678.978	0.0171420
679.056	0.0172592
679.134	0.0172234
679.212	0.0173335
679.290	0.0173972
679.369	0.0173013
679.447	0.0172643
679.525	0.0173090
679.603	0.0173543
679.681	0.0172309
679.759	0.0173345
679.837	0.0172947
679.915	0.0174364
679.994	0.0172261
680.072	0.0171957
680.150	0.0172366
680.228	0.0173008
680.306	0.0173422
680.384	0.0172800
680.462	0.0171629
680.540	0.0171252
680.619	0.0171648
680.697	0.0171693
680.775	0.0170699
680.853	0.0171659
680.931	0.0169619
681.009	0.0169869
681.087	0.0169180
681.165	0.0169169
681.244	0.0168437
681.322	0.0168470
681.400	0.0169041
681.478	0.0167249
681.556	0.0169089
681.634	0.0169936
681.712	0.0168488
681.790	0.0167633
681.869	0.0168024
681.947	0.0169756
682.025	0.0167805
682.103	0.0168492
682.181	0.0169785
682.259	0.0169373
682.337	0.0170033
682.415	0.0171289
682.494	0.0170730
682.572	0.0169987
682.650	0.0171296
682.728	0.0171329
682.806	0.0171708
682.884	0.0174478
682.962	0.0173494
683.040	0.0172513
683.119	0.0172806
683.197	0.0171891
683.275	0.0173470
683.353	0.0171861
683.431	0.0170391
683.509	0.0170718
683.587	0.0169134
683.665	0.0169978
683.744	0.0169516
683.822	0.0167428
683.900	0.0167365
683.978	0.0167445
684.056	0.0166493
684.134	0.0166745
684.212	0.0167818
684.290	0.0165317
684.369	0.0166421
684.447	0.0165291
684.525	0.0165430
684.603	0.0165521
684.681	0.0164479
684.759	0.0165321
684.837	0.0165222
684.915	0.0166096
684.994	0.0166087
685.072	0.0167439
685.150	0.0166604
685.228	0.0166724
685.306	0.0167657
685.384	0.0167210
685.462	0.0167918
685.540	0.0168947
685.619	0.0169805
685.697	0.0169186
685.775	0.0170583
685.853	0.0171210
685.931	0.0171268
686.009	0.0170405
686.087	0.0171667
686.165	0.0172456
686.244	0.0171973
686.322	0.0172285
686.400	0.0171928
686.478	0.0172214
686.556	0.0170898
686.634	0.0171616
686.712	0.0171758
686.790	0.0171115
686.869	0.0170477
686.947	0.0171600
687.025	0.0171911
687.103	0.0169078
687.181	0.0171007
687.259	0.0171393
687.337	0.0170379
687.415	0.0169815
687.494	0.0171313
687.572	0.0172203
687.650	0.0170428
687.728	0.0170074
687.806	0.0169126
687.884	0.0170415
687.962	0.0170821
688.040	0.0169867
688.119	0.0169427
688.197	0.0169660
688.275	0.0169482
688.353	0.0170245
688.431	0.0168736
688.509	0.0170060
688.587	0.0168863
688.665	0.0168996
688.744	0.0169689
688.822	0.0168426
688.900	0.0169828
688.978	0.0170414
689.056	0.0169493
689.134	0.0169290
689.212	0.0169569
689.290	0.0168028
689.369	0.0168972
689.447	0.0168781
689.525	0.0169460
689.603	0.0169633
689.681	0.0168590
689.759	0.0169139
689.837	0.0170045
689.915	0.0167848
689.994	0.0168568
690.072	0.0167559
690.150	0.0167501
690.228	0.0168916
690.306	0.0167438
690.384	0.0166593
690.462	0.0167704
690.540	0.0167088
690.619	0.0167051
690.697	0.0167909
690.775	0.0168873
690.853	0.0168005
690.931	0.0169342
691.009	0.0167460
691.087	0.0169753
691.165	0.0169892
691.244	0.0170441
691.322	0.0168224
691.400	0.0171071
691.478	0.0170396
691.556	0.0170215
691.634	0.0170387
691.712	0.0169704
691.790	0.0170802
691.869	0.0169411
691.947	0.0170026
692.025	0.0171796
692.103	0.0171505
692.181	0.0169897
692.259	0.0169814
692.337	0.0172106
692.415	0.0171123
692.494	0.0170862
692.572	0.0170642
692.650	0.0169993
692.728	0.0168205
692.806	0.0170835
692.884	0.0169025
692.962	0.0170576
693.040	0.0169167
693.119	0.0169303
693.197	0.0169516
693.275	0.0168967
693.353	0.0168432
693.431	0.0168889
693.509	0.0168025
693.587	0.0167029
693.665	0.0168630
693.744	0.0168210
693.822	0.0167274
693.900	0.0167167
693.978	0.0166441
694.056	0.0168085
694.134	0.0167667
694.212	0.0166373
694.290	0.0165508
694.369	0.0167685
694.447	0.0168368
694.525	0.0167622
694.603	0.0167188
694.681	0.0167015
694.759	0.0168116
694.837	0.0168439
694.915	0.0170074
694.994	0.0170272
695.072	0.0169672
695.150	0.0169821
695.228	0.0168862
695.306	0.0169429
695.384	0.0168895
695.462	0.0168778
695.540	0.0170213
695.619	0.0170596
695.697	0.0169800
695.775	0.0170050
695.853	0.0170055
695.931	0.0170654
696.009	0.0169016
696.087	0.0169529
696.165	0.0170696
696.244	0.0170152
696.322	0.0169381
696.400	0.0171484
696.478	0.0170345
696.556	0.0172086
696.634	0.0170918
696.712	0.0170601
696.790	0.0172240
696.869	0.0171786
696.947	0.0170541
697.025	0.0170429
697.103	0.0171802
697.181	0.0170579
697.259	0.0171813
697.337	0.0171140
697.415	0.0171535
697.494	0.0171033
697.572	0.0169503
697.650	0.0170622
697.728	0.0169005
697.806	0.0168945
697.884	0.0171407
697.962	0.0171188
698.040	0.0169627
698.119	0.0170243
698.197	0.0169135
698.275	0.0169737
698.353	0.0171004
698.431	0.0169288
698.509	0.0168519
698.587	0.0169405
698.665	0.0169481
698.744	0.0168738
698.822	0.0167615
698.900	0.0166980
698.978	0.0168015
699.056	0.0167525
699.134	0.0167030
699.212	0.0165787
699.290	0.0165522
699.369	0.0166511
699.447	0.0165411
699.525	0.0165986
699.603	0.0164924
699.681	0.0164947
699.759	0.0163211
699.837	0.0164784
699.915	0.0165572
699.994	0.0164836
700.072	0.0166306
700.150	0.0165649
700.228	0.0163818
700.306	0.0166014
700.384	0.0166772
700.462	0.0164404
700.540	0.0164704
700.619	0.0165454
700.697	0.0166779
700.775	0.0166723
700.853	0.0165882
700.931	0.0167281
701.009	0.0169755
701.087	0.0168113
701.165	0.0166988
701.244	0.0169787
701.322	0.0169091
701.400	0.0169733
701.478	0.0169401
701.556	0.0170287
701.634	0.0170487
701.712	0.0171094
701.790	0.0172339
701.869	0.0170595
701.947	0.0170284
702.025	0.0169936
702.103	0.0170808
702.181	0.0170695
702.259	0.0170813
702.337	0.0170034
702.415	0.0170427
702.494	0.0171206
702.572	0.0169809
702.650	0.0171373
702.728	0.0171757
702.806	0.0171792
702.884	0.0172074
702.962	0.0172952
703.040	0.0172487
703.119	0.0172504
703.197	0.0172562
703.275	0.0173637
703.353	0.0173881
703.431	0.0173212
703.509	0.0173627
703.587	0.0172723
703.665	0.0173022
703.744	0.0173791
703.822	0.0173537
703.900	0.0174702
703.978	0.0174429
704.056	0.0172903
704.134	0.0172829
704.212	0.0172388
704.290	0.0172411
704.369	0.0171799
704.447	0.0172945
704.525	0.0172215
704.603	0.0172376
704.681	0.0172063
704.759	0.0170363
704.837	0.0170010
704.915	0.0168795
704.994	0.0169283
705.072	0.0168946
705.150	0.0167335
705.228	0.0166363
705.306	0.0166140
705.384	0.0166324
705.462	0.0165032
705.540	0.0164555
705.619	0.0164765
705.697	0.0164998
705.775	0.0165286
705.853	0.0165950
705.931	0.0165621
706.009	0.0166347
706.087	0.0165931
706.165	0.0167274
706.244	0.0168970
706.322	0.0167714
706.400	0.0168072
706.478	0.0169706
706.556	0.0169645
706.634	0.0168415
706.712	0.0170884
706.790	0.0170787
706.869	0.0171315
706.947	0.0171292
707.025	0.0172575
707.103	0.0172726
707.181	0.0171065
707.259	0.0170891
707.337	0.0173599
707.415	0.0174203
707.494	0.0173561
707.572	0.0171741
707.650	0.0173441
707.728	0.0173736
707.806	0.0172430
707.884	0.0172866
707.962	0.0173285
708.040	0.0173213
708.119	0.0172503
708.197	0.0171444
708.275	0.0170307
708.353	0.0169269
708.431	0.0169904
708.509	0.0169526
708.587	0.0167073
708.665	0.0167287
708.744	0.0166624
708.822	0.0166675
708.900	0.0168734
708.978	0.0166866
709.056	0.0165617
709.134	0.0166368
709.212	0.0164561
709.290	0.0165462
709.369	0.0164490
709.447	0.0165119
709.525	0.0164875
709.603	0.0164656
709.681	0.0164668
709.759	0.0164449
709.837	0.0166496
709.915	0.0165346
709.994	0.0166271
710.072	0.0164081
710.150	0.0165560
710.228	0.0166460
710.306	0.0165839
710.384	0.0165971
710.462	0.0168027
710.540	0.0166710
710.619	0.0166392
710.697	0.0167802
710.775	0.0167046
710.853	0.0168958
710.931	0.0168657
711.009	0.0167794
711.087	0.0166933
711.165	0.0167916
711.244	0.0169078
711.322	0.0168800
711.400	0.0168279
711.478	0.0168890
711.556	0.0168171
711.634	0.0167490
711.712	0.0167657
711.790	0.0167950
711.869	0.0169292
711.947	0.0168406
712.025	0.0168430
712.103	0.0169606
712.181	0.0169242
712.259	0.0169078
712.337	0.0169461
712.415	0.0170691
712.494	0.0169967
712.572	0.0172313
712.650	0.0171782
712.728	0.0170681
712.806	0.0171918
712.884	0.0171415
712.962	0.0171078
713.040	0.0171952
713.119	0.0171252
713.197	0.0170750
713.275	0.0171576
713.353	0.0172488
713.431	0.0173277
713.509	0.0172874
713.587	0.0172211
713.665	0.0170917
713.744	0.0169086
713.822	0.0170086
713.900	0.0170119
713.978	0.0170469
714.056	0.0171108
714.134	0.0170241
714.212	0.0169033
714.290	0.0170079
714.369	0.0168964
714.447	0.0167187
714.525	0.0168610
714.603	0.0166896
714.681	0.0167757
714.759	0.0167239
714.837	0.0166605
714.915	0.0166785
714.994	0.0166020
715.072	0.0166756
715.150	0.0167216
715.228	0.0167423
715.306	0.0168478
715.384	0.0169721
715.462	0.0168103
715.540	0.0167909
715.619	0.0169078
715.697	0.0169056
715.775	0.0169266
715.853	0.0170058
715.931	0.0169985
716.009	0.0170078
716.087	0.0168391
716.165	0.0170528
716.244	0.0169760
716.322	0.0168530
716.400	0.0169740
716.478	0.0170290
716.556	0.0169181
716.634	0.0170023
716.712	0.0169524
716.790	0.0169119
716.869	0.0169475
716.947	0.0170001
717.025	0.0169472
717.103	0.0170112
717.181	0.0170143
717.259	0.0170036
717.337	0.0171395
717.415	0.0170546
717.494	0.0170167
717.572	0.0169887
717.650	0.0170583
717.728	0.0170807
717.806	0.0171461
717.884	0.0169926
717.962	0.0169945
718.040	0.0171191
718.119	0.0170004
718.197	0.0168865
718.275	0.0169492
718.353	0.0170216
718.431	0.0169235
718.509	0.0168483
718.587	0.0169675
718.665	0.0168963
718.744	0.0168981
718.822	0.0169411
718.900	0.0169388
718.978	0.0168323
719.056	0.0168907
719.134	0.0169559
719.212	0.0169725
719.290	0.0168930
719.369	0.0168809
719.447	0.0168346
719.525	0.0170596
719.603	0.0169746
719.681	0.0169829
719.759	0.0168151
719.837	0.0168816
719.915	0.0169558
719.994	0.0169350
720.072	0.0169261
720.150	0.0169198
720.228	0.0169663
720.306	0.0170161
720.384	0.0168994
720.462	0.0168919
720.540	0.0169914
720.619	0.0169559
720.697	0.0169508
720.775	0.0168288
720.853	0.0168409
720.931	0.0168111
721.009	0.0169779
721.087	0.0167843
721.165	0.0167632
721.244	0.0168383
721.322	0.0168692
721.400	0.0168446
721.478	0.0168970
721.556	0.0167191
721.634	0.0166968
721.712	0.0167259
721.790	0.0169598
721.869	0.0169310
721.947	0.0168742
722.025	0.0166862
722.103	0.0166185
722.181	0.0167946
722.259	0.0167910
722.337	0.0168270
722.415	0.0168398
722.494	0.0168623
722.572	0.0168369
722.650	0.0168286
722.728	0.0169446
722.806	0.0168811
722.884	0.0169458
722.962	0.0168570
723.040	0.0169766
723.119	0.0169650
723.197	0.0170421
723.275	0.0168583
723.353	0.0170113
723.431	0.0171165
723.509	0.0170708
723.587	0.0170589
723.665	0.0170914
723.744	0.0168491
723.822	0.0169061
723.900	0.0169937
723.978	0.0169790
724.056	0.0170966
724.134	0.0169402
724.212	0.0169586
724.290	0.0169656
724.369	0.0170756
724.447	0.0168667
724.525	0.0168398
724.603	0.0168991
724.681	0.0169231
724.759	0.0169101
724.837	0.0168363
724.915	0.0168018
724.994	0.0168718
725.072	0.0169173
725.150	0.0168669
725.228	0.0169401
725.306	0.0168111
725.384	0.0167694
725.462	0.0168418
725.540	0.0166522
725.619	0.0168148
725.697	0.0169614
725.775	0.0168954
725.853	0.0168980
725.931	0.0169749
726.009	0.0169553
726.087	0.0169924
726.165	0.0170235
726.244	0.0166881
726.322	0.0168511
726.400	0.0170499
726.478	0.0170593
726.556	0.0170848
726.634	0.0171072
726.712	0.0169808
726.790	0.0169016
726.869	0.0170694
726.947	0.0171090
727.025	0.0170564
727.103	0.0171286
727.181	0.0171555
727.259	0.0172116
727.337	0.0170168
727.415	0.0170598
727.494	0.0171224
727.572	0.0171568
727.650	0.0171792
727.728	0.0171439
727.806	0.0171657
727.884	0.0172525
727.962	0.0172111
728.040	0.0171294
728.119	0.0170558
728.197	0.0172895
728.275	0.0172202
728.353	0.0171650
728.431	0.0171596
728.509	0.0171847
728.587	0.0172204
728.665	0.0171875
728.744	0.0171668
728.822	0.0170473
728.900	0.0169903
728.978	0.0169665
729.056	0.0170756
729.134	0.0168087
729.212	0.0168663
729.290	0.0168999
729.369	0.0167954
729.447	0.0168046
729.525	0.0167747
729.603	0.0167161
729.681	0.0166302
729.759	0.0166415
729.837	0.0166174
729.915	0.0166111
729.994	0.0166814
730.072	0.0165186
730.150	0.0164799
730.228	0.0165327
730.306	0.0164822
730.384	0.0164086
730.462	0.0165179
730.540	0.0164340
730.619	0.0163742
730.697	0.0164507
730.775	0.0163993
730.853	0.0164627
730.931	0.0165196
731.009	0.0164278
731.087	0.0164371
731.165	0.0165208
731.244	0.0165704
731.322	0.0164788
731.400	0.0164603
731.478	0.0163707
731.556	0.0166018
731.634	0.0166936
731.712	0.0165918
731.790	0.0166709
731.869	0.0168311
731.947	0.0168559
732.025	0.0167897
732.103	0.0167931
732.181	0.0167265
732.259	0.0168335
732.337	0.0167590
732.415	0.0168714
732.494	0.0171111
732.572	0.0169579
732.650	0.0169278
732.728	0.0170091
732.806	0.0171039
732.884	0.0170396
732.962	0.0170854
733.040	0.0171231
733.119	0.0171790
733.197	0.0170490
733.275	0.0171068
733.353	0.0170367
733.431	0.0170509
733.509	0.0171446
733.587	0.0172125
733.665	0.0172839
733.744	0.0172665
733.822	0.0171542
733.900	0.0172092
733.978	0.0171389
734.056	0.0172169
734.134	0.0172929
734.212	0.0172858
734.290	0.0172601
734.369	0.0172527
734.447	0.0173985
734.525	0.0172265
734.603	0.0172263
734.681	0.0172537
734.759	0.0172218
734.837	0.0171005
734.915	0.0171349
734.994	0.0172368
735.072	0.0171221
735.150	0.0169803
735.228	0.0169630
735.306	0.0170496
735.384	0.0169606
735.462	0.0167996
735.540	0.0169248
735.619	0.0168736
735.697	0.0167715
735.775	0.0169004
735.853	0.0167264
735.931	0.0166086
736.009	0.0167051
736.087	0.0167551
736.165	0.0167193
736.244	0.0165434
736.322	0.0166859
736.400	0.0166181
736.478	0.0164409
736.556	0.0164874
736.634	0.0166649
736.712	0.0165911
736.790	0.0166141
736.869	0.0166959
736.947	0.0168227
737.025	0.0167625
737.103	0.0166819
737.181	0.0168260
737.259	0.0168163
737.337	0.0168311
737.415	0.0169157
737.494	0.0170220
737.572	0.0169125
737.650	0.0169198
737.728	0.0170935
737.806	0.0171674
737.884	0.0170322
737.962	0.0170788
738.040	0.0172281
738.119	0.0172425
738.197	0.0172318
738.275	0.0170348
738.353	0.0170895
738.431	0.0170300
738.509	0.0171275
738.587	0.0170702
738.665	0.0170810
738.744	0.0170296
738.822	0.0169437
738.900	0.0169624
738.978	0.0171255
739.056	0.0169741
739.134	0.0170110
739.212	0.0170147
739.290	0.0169976
739.369	0.0170328
739.447	0.0168769
739.525	0.0169997
739.603	0.0171046
739.681	0.0168637
739.759	0.0169234
739.837	0.0168358
739.915	0.0169316
739.994	0.0169907
740.072	0.0169020
740.150	0.0167841
740.228	0.0169299
740.306	0.0169489
740.384	0.0169934
740.462	0.0167493
740.540	0.0168028
740.619	0.0168166
740.697	0.0168572
740.775	0.0168934
740.853	0.0169382
740.931	0.0168964
741.009	0.0169005
741.087	0.0169757
741.165	0.0169231
741.244	0.0168293
741.322	0.0168564
741.400	0.0168430
741.478	0.0169213
741.556	0.0168512
741.634	0.0169608
741.712	0.0169227
741.790	0.0168549
741.869	0.0168280
741.947	0.0169550
742.025	0.0167678
742.103	0.0168849
742.181	0.0168308
742.259	0.0169154
742.337	0.0168147
742.415	0.0168478
742.494	0.0169797
742.572	0.0167810
742.650	0.0169964
742.728	0.0169937
742.806	0.0168192
742.884	0.0168113
742.962	0.0167648
743.040	0.0168333
743.119	0.0170369
743.197	0.0168024
743.275	0.0167463
743.353	0.0169520
743.431	0.0169559
743.509	0.0169097
743.587	0.0168613
743.665	0.0168488
743.744	0.0170015
743.822	0.0169539
743.900	0.0169579
743.978	0.0169244
744.056	0.0169633
744.134	0.0170343
744.212	0.0168639
744.290	0.0169901
744.369	0.0170843
744.447	0.0169926
744.525	0.0169278
744.603	0.0169157
744.681	0.0169177
744.759	0.0169426
744.837	0.0169925
744.915	0.0169113
744.994	0.0168681
745.072	0.0170341
745.150	0.0168305
745.228	0.0168931
745.306	0.0169282
745.384	0.0168636
745.462	0.0169504
745.540	0.0168824
745.619	0.0167424
745.697	0.0168457
745.775	0.0168575
745.853	0.0168422
745.931	0.0168077
746.009	0.0167399
746.087	0.0167361
746.165	0.0165656
746.244	0.0165707
746.322	0.0167429
746.400	0.0164861
746.478	0.0165338
746.556	0.0165649
746.634	0.0167377
746.712	0.0166776
746.790	0.0166947
746.869	0.0168986
746.947	0.0166669
747.025	0.0166592
747.103	0.0168279
747.181	0.0166869
747.259	0.0166633
747.337	0.0167568
747.415	0.0167494
747.494	0.0168834
747.572	0.0168205
747.650	0.0168995
747.728	0.0168763
747.806	0.0169413
747.884	0.0168100
747.962	0.0169500
748.040	0.0168411
748.119	0.0168777
748.197	0.0169382
748.275	0.0169947
748.353	0.0170154
748.431	0.0170544
748.509	0.0169460
748.587	0.0170996
748.665	0.0170712
748.744	0.0172198
748.822	0.0170620
748.900	0.0171291
748.978	0.0170317
749.056	0.0171798
749.134	0.0171210
749.212	0.0170495
749.290	0.0171154
749.369	0.0168961
749.447	0.0171777
749.525	0.0171119
749.603	0.0170383
749.681	0.0169727
749.759	0.0170365
749.837	0.0169231
749.915	0.0169534
749.994	0.0168361
750.072	0.0168391
750.150	0.0168940
750.228	0.0169353
750.306	0.0168236
750.384	0.0168703
750.462	0.0168148
750.540	0.0166881
750.619	0.0168656
750.697	0.0167953
750.775	0.0167488
750.853	0.0166582
750.931	0.0167451
751.009	0.0165440
751.087	0.0166393
751.165	0.0167210
751.244	0.0167157
751.322	0.0166112
751.400	0.0164571
751.478	0.0166908
751.556	0.0167690
751.634	0.0166452
751.712	0.0166214
751.790	0.0167019
751.869	0.0165911
751.947	0.0166537
752.025	0.0166939
752.103	0.0166883
752.181	0.0167471
752.259	0.0167007
752.337	0.0166284
752.415	0.0165567
752.494	0.0167267
752.572	0.0166444
752.650	0.0166532
752.728	0.0166289
752.806	0.0167493
752.884	0.0165867
752.962	0.0166621
753.040	0.0165786
753.119	0.0166636
753.197	0.0167871
753.275	0.0167618
753.353	0.0166501
753.431	0.0166763
753.509	0.0168395
753.587	0.0168095
753.665	0.0168430
753.744	0.0168501
753.822	0.0167806
753.900	0.0168247
753.978	0.0168832
754.056	0.0170020
754.134	0.0169672
754.212	0.0168851
754.290	0.0170541
754.369	0.0170258
754.447	0.0169401
754.525	0.0169228
754.603	0.0169583
754.681	0.0170477
754.759	0.0169957
754.837	0.0171096
754.915	0.0170525
754.994	0.0170275
755.072	0.0171484
755.150	0.0170255
755.228	0.0168858
755.306	0.0169097
755.384	0.0170145
755.462	0.0171384
755.540	0.0169267
755.619	0.0170693
755.697	0.0170902
755.775	0.0168877
755.853	0.0170827
755.931	0.0172587
756.009	0.0170780
756.087	0.0171500
756.165	0.0170389
756.244	0.0171165
756.322	0.0171619
756.400	0.0172507
756.478	0.0171337
756.556	0.0171603
756.634	0.0170728
756.712	0.0170909
756.790	0.0172005
756.869	0.0171661
756.947	0.0170926
757.025	0.0170908
757.103	0.0169576
757.181	0.0169591
757.259	0.0170869
757.337	0.0170295
757.415	0.0169448
757.494	0.0169601
757.572	0.0169863
757.650	0.0169100
757.728	0.0170165
757.806	0.0169044
757.884	0.0169720
757.962	0.0169429
758.040	0.0169894
758.119	0.0170112
758.197	0.0169097
758.275	0.0168386
758.353	0.0169650
758.431	0.0169884
758.509	0.0169926
758.587	0.0170160
758.665	0.0169569
758.744	0.0168695
758.822	0.0169378
758.900	0.0168984
758.978	0.0170589
759.056	0.0170701
759.134	0.0168974
759.212	0.0168991
759.290	0.0170455
759.369	0.0169485
759.447	0.0169821
759.525	0.0168710
759.603	0.0168848
759.681	0.0168250
759.759	0.0169193
759.837	0.0168956
759.915	0.0168999
759.994	0.0167107
760.072	0.0168620
760.150	0.0169048
760.228	0.0168840
760.306	0.0168484
760.384	0.0167206
760.462	0.0166786
760.540	0.0168130
760.619	0.0167887
760.697	0.0166879
760.775	0.0169522
760.853	0.0168486
760.931	0.0167074
761.009	0.0167374
761.087	0.0166806
761.165	0.0168496
761.244	0.0167407
761.322	0.0166458
761.400	0.0168396
761.478	0.0168340
761.556	0.0167130
761.634	0.0166726
761.712	0.0166601
761.790	0.0167631
761.869	0.0167555
761.947	0.0166930
762.025	0.0166293
762.103	0.0166712
762.181	0.0166206
762.259	0.0166621
762.337	0.0166004
762.415	0.0166303
762.494	0.0166417
762.572	0.0167570
762.650	0.0165985
762.728	0.0165969
762.806	0.0167242
762.884	0.0166283
762.962	0.0166779
763.040	0.0165699
763.119	0.0166640
763.197	0.0166422
763.275	0.0166695
763.353	0.0167198
763.431	0.0166631
763.509	0.0166930
763.587	0.0167102
763.665	0.0166002
763.744	0.0167203
763.822	0.0166417
763.900	0.0167630
763.978	0.0167597
764.056	0.0167903
764.134	0.0168150
764.212	0.0168777
764.290	0.0167894
764.369	0.0168529
764.447	0.0167120
764.525	0.0168290
764.603	0.0169160
764.681	0.0168643
764.759	0.0168614
764.837	0.0169904
764.915	0.0169405
764.994	0.0170395
765.072	0.0171005
765.150	0.0170671
765.228	0.0170956
765.306	0.0170872
765.384	0.0171425
765.462	0.0171277
765.540	0.0171554
765.619	0.0171842
765.697	0.0172245
765.775	0.0172918
765.853	0.0172092
765.931	0.0172815
766.009	0.0172928
766.087	0.0172584
766.165	0.0172349
766.244	0.0172048
766.322	0.0172375
766.400	0.0172289
766.478	0.0172138
766.556	0.0173013
766.634	0.0172420
766.712	0.0171636
766.790	0.0171175
766.869	0.0171857
766.947	0.0170039
767.025	0.0170253
767.103	0.0171417
767.181	0.0170110
767.259	0.0169566
767.337	0.0170160
767.415	0.0170198
767.494	0.0170941
767.572	0.0169537
767.650	0.0168958
767.728	0.0168861
767.806	0.0168810
767.884	0.0169172
767.962	0.0170130
768.040	0.0169813
768.119	0.0170100
768.197	0.0169318
768.275	0.0169205
768.353	0.0169868
768.431	0.0169454
768.509	0.0169524
768.587	0.0170417
768.665	0.0169563
768.744	0.0170029
768.822	0.0170293
768.900	0.0169319
768.978	0.0171777
769.056	0.0169959
769.134	0.0169803
769.212	0.0170297
769.290	0.0169815
769.369	0.0169411
769.447	0.0168427
769.525	0.0169741
769.603	0.0169665
769.681	0.0169833
769.759	0.0167589
769.837	0.0168368
769.915	0.0169820
769.994	0.0169046
770.072	0.0167946
770.150	0.0167519
770.228	0.0167403
770.306	0.0168534
770.384	0.0167914
770.462	0.0167731
770.540	0.0168695
770.619	0.0168044
770.697	0.0167491
770.775	0.0167648
770.853	0.0169176
770.931	0.0167783
771.009	0.0167682
771.087	0.0168457
771.165	0.0169183
771.244	0.0168779
771.322	0.0168951
771.400	0.0167771
771.478	0.0168477
771.556	0.0169107
771.634	0.0168447
771.712	0.0168169
771.790	0.0169878
771.869	0.0168578
771.947	0.0168139
772.025	0.0167327
772.103	0.0167447
772.181	0.0168620
772.259	0.0167558
772.337	0.0166255
772.415	0.0168108
772.494	0.0167358
772.572	0.0166827
772.650	0.0169154
772.728	0.0166869
772.806	0.0166918
772.884	0.0168018
772.962	0.0168375
773.040	0.0166570
773.119	0.0167593
773.197	0.0168713
773.275	0.0168597
773.353	0.0169228
773.431	0.0169424
773.509	0.0170766
773.587	0.0171911
773.665	0.0169434
773.744	0.0170958
773.822	0.0171227
773.900	0.0170893
773.978	0.0170840
774.056	0.0170425
774.134	0.0171291
774.212	0.0170303
774.290	0.0171829
774.369	0.0171411
774.447	0.0169776
774.525	0.0171946
774.603	0.0172432
774.681	0.0170001
774.759	0.0169891
774.837	0.0168958
774.915	0.0170802
774.994	0.0168774
775.072	0.0169074
775.150	0.0167432
775.228	0.0167852
775.306	0.0167787
775.384	0.0167759
775.462	0.0165709
775.540	0.0167085
775.619	0.0166222
775.697	0.0166090
775.775	0.0164206
775.853	0.0165897
775.931	0.0167065
776.009	0.0165625
776.087	0.0165620
776.165	0.0165560
776.244	0.0165930
776.322	0.0165020
776.400	0.0165794
776.478	0.0166417
776.556	0.0166463
776.634	0.0167951
776.712	0.0167856
776.790	0.0167316
776.869	0.0168239
776.947	0.0168713
777.025	0.0168049
777.103	0.0168770
777.181	0.0168991
777.259	0.0167773
777.337	0.0168980
777.415	0.0169421
777.494	0.0168652
777.572	0.0168216
777.650	0.0169385
777.728	0.0168452
777.806	0.0170319
777.884	0.0168581
777.962	0.0167873
778.040	0.0167755
778.119	0.0169802
778.197	0.0168649
778.275	0.0168952
778.353	0.0168059
778.431	0.0169281
778.509	0.0168488
778.587	0.0167421
778.665	0.0169238
778.744	0.0168755
778.822	0.0168475
778.900	0.0169505
778.978	0.0168958
779.056	0.0169801
779.134	0.0169224
779.212	0.0168235
779.290	0.0169128
779.369	0.0169829
779.447	0.0169469
779.525	0.0170029
779.603	0.0169048
779.681	0.0167496
779.759	0.0168653
779.837	0.0168601
779.915	0.0168986
779.994	0.0168210
780.072	0.0169321
780.150	0.0168304
780.228	0.0168690
780.306	0.0169124
780.384	0.0168594
780.462	0.0169611
780.540	0.0167482
780.619	0.0170030
780.697	0.0169106
780.775	0.0168649
780.853	0.0169205
780.931	0.0169312
781.009	0.0168902
781.087	0.0169985
781.165	0.0170731
781.244	0.0170475
781.322	0.0169249
781.400	0.0170075
781.478	0.0170837
781.556	0.0171037
781.634	0.0171981
781.712	0.0171057
781.790	0.0171596
781.869	0.0172789
781.947	0.0171404
782.025	0.0172768
782.103	0.0170192
782.181	0.0172181
782.259	0.0173005
782.337	0.0172145
782.415	0.0171548
782.494	0.0172202
782.572	0.0172195
782.650	0.0171797
782.728	0.0170710
782.806	0.0170710
782.884	0.0170296
782.962	0.0170639
783.040	0.0171253
783.119	0.0170959
783.197	0.0169345
783.275	0.0168425
783.353	0.0170901
783.431	0.0169100
783.509	0.0170336
783.587	0.0171210
783.665	0.0170470
783.744	0.0169725
783.822	0.0169862
783.900	0.0168974
783.978	0.0168594
784.056	0.0169646
784.134	0.0170302
784.212	0.0168366
784.290	0.0168818
784.369	0.0168286
784.447	0.0168221
784.525	0.0168407
784.603	0.0169159
784.681	0.0169390
784.759	0.0167550
784.837	0.0166504
784.915	0.0167976
784.994	0.0167243
785.072	0.0167877
785.150	0.0167906
785.228	0.0167617
785.306	0.0167798
785.384	0.0167331
785.462	0.0167997
785.540	0.0169041
785.619	0.0168336
785.697	0.0166901
785.775	0.0167238
785.853	0.0166794
785.931	0.0168089
786.009	0.0168059
786.087	0.0168874
786.165	0.0167749
786.244	0.0168128
786.322	0.0168544
786.400	0.0168336
786.478	0.0168303
786.556	0.0169013
786.634	0.0168771
786.712	0.0169450
786.790	0.0168149
786.869	0.0168012
786.947	0.0167657
787.025	0.0169380
787.103	0.0170164
787.181	0.0168545
787.259	0.0168957
787.337	0.0168935
787.415	0.0169412
787.494	0.0167880
787.572	0.0170269
787.650	0.0168721
787.728	0.0168066
787.806	0.0169315
787.884	0.0168980
787.962	0.0168455
788.040	0.0167669
788.119	0.0168761
788.197	0.0168288
788.275	0.0168379
788.353	0.0169451
788.431	0.0168256
788.509	0.0169384
788.587	0.0167757
788.665	0.0167606
788.744	0.0167933
788.822	0.0168282
788.900	0.0169474
788.978	0.0169284
789.056	0.0168431
789.134	0.0170026
789.212	0.0171429
789.290	0.0169456
789.369	0.0168977
789.447	0.0170994
789.525	0.0170910
789.603	0.0171571
789.681	0.0171525
789.759	0.0172507
789.837	0.0171301
789.915	0.0171379
789.994	0.0171525
790.072	0.0172631
790.150	0.0173092
790.228	0.0170112
790.306	0.0171329
790.384	0.0170818
790.462	0.0171585
790.540	0.0171545
790.619	0.0171829
790.697	0.0170837
790.775	0.0171915
790.853	0.0171315
790.931	0.0172091
791.009	0.0170935
791.087	0.0171065
791.165	0.0170791
791.244	0.0169792
791.322	0.0169608
791.400	0.0170123
791.478	0.0169721
791.556	0.0169775
791.634	0.0170179
791.712	0.0168664
791.790	0.0168536
791.869	0.0169463
791.947	0.0169968
792.025	0.0169479
792.103	0.0169854
792.181	0.0169968
792.259	0.0168860
792.337	0.0169346
792.415	0.0170300
792.494	0.0171245
792.572	0.0170728
792.650	0.0170463
792.728	0.0171372
792.806	0.0172215
792.884	0.0173014
792.962	0.0170500
793.040	0.0172039
793.119	0.0171320
793.197	0.0172044
793.275	0.0170274
793.353	0.0171239
793.431	0.0170862
793.509	0.0169601
793.587	0.0168781
793.665	0.0169946
793.744	0.0171622
793.822	0.0170306
793.900	0.0168378
793.978	0.0168357
794.056	0.0168717
794.134	0.0168864
794.212	0.0169308
794.290	0.0169165
794.369	0.0169386
794.447	0.0168001
794.525	0.0168936
794.603	0.0169212
794.681	0.0168278
794.759	0.0170551
794.837	0.0170394
794.915	0.0170181
794.994	0.0169508
795.072	0.0169830
795.150	0.0169769
795.228	0.0171112
795.306	0.0170029
795.384	0.0170102
795.462	0.0171033
795.540	0.0169558
795.619	0.0169028
795.697	0.0169231
795.775	0.0170918
795.853	0.0171468
795.931	0.0169448
796.009	0.0169966
796.087	0.0169450
796.165	0.0168889
796.244	0.0169699
796.322	0.0168400
796.400	0.0168596
796.478	0.0169524
796.556	0.0168980
796.634	0.0167248
796.712	0.0167213
796.790	0.0167962
796.869	0.0169109
796.947	0.0168747
797.025	0.0168299
797.103	0.0168584
797.181	0.0168652
797.259	0.0168285
797.337	0.0168298
797.415	0.0169926
797.494	0.0169412
797.572	0.0168703
797.650	0.0170181
797.728	0.0169507
797.806	0.0170229
797.884	0.0169478
797.962	0.0169605
798.040	0.0169904
798.119	0.0169535
798.197	0.0169814
798.275	0.0170431
798.353	0.0170412
798.431	0.0169887
798.509	0.0169431
798.587	0.0169676
798.665	0.0168517
798.744	0.0169713
798.822	0.0168994
798.900	0.0169392
798.978	0.0168330
799.056	0.0168124
799.134	0.0168412
799.212	0.0168767
799.290	0.0169871
799.369	0.0168061
799.447	0.0166826
799.525	0.0168772
799.603	0.0168307
799.681	0.0167722
799.759	0.0168661
799.837	0.0167808
799.915	0.0167236
799.994	0.0169136
800.072	0.0169128
800.150	0.0167287
800.228	0.0167129
800.306	0.0168398
800.384	0.0168372
800.462	0.0166547
800.540	0.0166964
800.619	0.0167659
800.697	0.0167850
800.775	0.0167567
800.853	0.0167246
800.931	0.0167624
801.009	0.0168092
801.087	0.0168775
801.165	0.0168243
801.244	0.0167463
801.322	0.0170249
801.400	0.0169823
801.478	0.0169888
801.556	0.0170107
801.634	0.0169798
801.712	0.0169508
801.790	0.0171258
801.869	0.0170124
801.947	0.0170247
802.025	0.0170668
802.103	0.0170521
802.181	0.0172317
802.259	0.0171691
802.337	0.0171545
802.415	0.0172762
802.494	0.0171861
802.572	0.0172243
802.650	0.0172601
802.728	0.0172510
802.806	0.0170362
802.884	0.0170082
802.962	0.0170679
803.040	0.0170180
803.119	0.0170473
803.197	0.0169846
803.275	0.0169604
803.353	0.0168552
803.431	0.0169936
803.509	0.0168081
803.587	0.0168385
803.665	0.0167477
803.744	0.0167308
803.822	0.0166828
803.900	0.0167938
803.978	0.0166492
804.056	0.0167551
804.134	0.0168553
804.212	0.0168395
804.290	0.0168649
804.369	0.0169232
804.447	0.0168359
804.525	0.0169640
804.603	0.0169714
804.681	0.0168524
804.759	0.0168494
804.837	0.0168710
804.915	0.0168053
804.994	0.0169764
805.072	0.0169290
805.150	0.0166065
805.228	0.0168459
805.306	0.0169125
805.384	0.0168559
805.462	0.0168639
805.540	0.0168577
805.619	0.0168629
805.697	0.0168817
805.775	0.0168002
805.853	0.0168498
805.931	0.0168916
806.009	0.0169540
806.087	0.0169199
806.165	0.0170300
806.244	0.0168740
806.322	0.0169597
806.400	0.0170526
806.478	0.0169942
806.556	0.0170428
806.634	0.0169572
806.712	0.0169173
806.790	0.0168137
806.869	0.0167903
806.947	0.0169952
807.025	0.0169057
807.103	0.0169321
807.181	0.0169778
807.259	0.0168694
807.337	0.0170005
807.415	0.0169191
807.494	0.0168176
807.572	0.0169711
807.650	0.0169090
807.728	0.0169568
807.806	0.0169099
807.884	0.0168990
807.962	0.0170506
808.040	0.0170280
808.119	0.0170538
808.197	0.0168540
808.275	0.0170441
808.353	0.0169946
808.431	0.0170872
808.509	0.0169933
808.587	0.0169544
808.665	0.0170246
808.744	0.0169482
808.822	0.0169459
808.900	0.0168647
808.978	0.0170061
809.056	0.0169682
809.134	0.0169176
809.212	0.0167525
809.290	0.0167574
809.369	0.0165508
809.447	0.0167167
809.525	0.0166207
809.603	0.0166649
809.681	0.0164978
809.759	0.0166183
809.837	0.0166546
809.915	0.0165614
809.994	0.0165697
810.072	0.0167163
810.150	0.0167602
810.228	0.0167918
810.306	0.0166946
810.384	0.0166433
810.462	0.0168102
810.540	0.0169535
810.619	0.0169322
810.697	0.0170508
810.775	0.0168308
810.853	0.0169450
810.931	0.0171724
811.009	0.0170542
811.087	0.0169619
811.165	0.0169588
811.244	0.0169442
811.322	0.0170461
811.400	0.0169573
811.478	0.0169290
811.556	0.0172327
811.634	0.0170401
811.712	0.0170763
811.790	0.0170685
811.869	0.0169693
811.947	0.0171402
812.025	0.0169405
812.103	0.0170133
812.181	0.0171569
812.259	0.0171384
812.337	0.0171124
812.415	0.0170958
812.494	0.0171166
812.572	0.0170737
812.650	0.0170755
812.728	0.0170078
812.806	0.0170394
812.884	0.0170524
812.962	0.0170062
813.040	0.0169952
813.119	0.0170963
813.197	0.0171042
813.275	0.0170753
813.353	0.0170740
813.431	0.0170715
813.509	0.0170862
813.587	0.0169912
813.665	0.0169901
813.744	0.0170752
813.822	0.0171671
813.900	0.0170867
813.978	0.0170744
814.056	0.0171119
814.134	0.0171550
814.212	0.0171759
814.290	0.0170977
814.369	0.0172242
814.447	0.0170782
814.525	0.0170843
814.603	0.0170543
814.681	0.0171711
814.759	0.0170715
814.837	0.0169866
814.915	0.0169476
814.994	0.0171148
815.072	0.0169318
815.150	0.0171279
815.228	0.0169686
815.306	0.0169994
815.384	0.0171752
815.462	0.0170198
815.540	0.0170942
815.619	0.0171500
815.697	0.0169373
815.775	0.0169890
815.853	0.0169240
815.931	0.0169754
816.009	0.0170340
816.087	0.0170392
816.165	0.0170513
816.244	0.0169794
816.322	0.0168755
816.400	0.0170148
816.478	0.0169315
816.556	0.0171445
816.634	0.0170690
816.712	0.0170216
816.790	0.0169073
816.869	0.0169902
816.947	0.0169109
817.025	0.0170078
817.103	0.0168954
817.181	0.0169727
817.259	0.0168945
817.337	0.0168369
817.415	0.0169220
817.494	0.0169565
817.572	0.0169188
817.650	0.0170679
817.728	0.0168786
817.806	0.0169360
817.884	0.0170512
817.962	0.0171401
818.040	0.0169790
818.119	0.0171954
818.197	0.0170253
818.275	0.0169737
818.353	0.0172279
818.431	0.0171841
818.509	0.0170835
818.587	0.0170766
818.665	0.0170665
818.744	0.0170465
818.822	0.0170827
818.900	0.0168902
818.978	0.0168771
819.056	0.0169170
819.134	0.0169255
819.212	0.0167397
819.290	0.0167809
819.369	0.0170206
819.447	0.0169279
819.525	0.0167543
819.603	0.0167378
819.681	0.0168056
819.759	0.0168803
819.837	0.0167940
819.915	0.0167815
819.994	0.0167303
820.072	0.0168774
820.150	0.0168594
820.228	0.0168077
820.306	0.0169066
820.384	0.0170126
820.462	0.0169771
820.540	0.0169810
820.619	0.0169924
820.697	0.0169891
820.775	0.0171684
820.853	0.0170949
820.931	0.0169917
821.009	0.0171667
821.087	0.0169786
821.165	0.0172085
821.244	0.0170911
821.322	0.0170306
821.400	0.0171107
821.478	0.0170658
821.556	0.0170377
821.634	0.0170863
821.712	0.0172155
821.790	0.0171351
821.869	0.0171906
821.947	0.0172297
822.025	0.0170412
822.103	0.0171595
822.181	0.0170629
822.259	0.0170593
822.337	0.0169993
822.415	0.0171105
822.494	0.0169663
822.572	0.0168917
822.650	0.0168335
822.728	0.0167054
822.806	0.0169685
822.884	0.0167890
822.962	0.0168336
823.040	0.0169832
823.119	0.0168906
823.197	0.0166113
823.275	0.0169546
823.353	0.0168153
823.431	0.0168600
823.509	0.0169498
823.587	0.0167439
823.665	0.0169852
823.744	0.0169067
823.822	0.0169940
823.900	0.0170669
823.978	0.0169540
824.056	0.0170313
824.134	0.0169795
824.212	0.0169938
824.290	0.0169804
824.369	0.0170847
824.447	0.0170556
824.525	0.0169346
824.603	0.0168481
824.681	0.0170992
824.759	0.0170247
824.837	0.0170125
824.915	0.0168520
824.994	0.0170515
825.072	0.0169138
825.150	0.0169510
825.228	0.0170148
825.306	0.0169736
825.384	0.0169499
825.462	0.0170410
825.540	0.0171503
825.619	0.0170049
825.697	0.0169823
825.775	0.0169721
825.853	0.0171436
825.931	0.0168236
826.009	0.0169100
826.087	0.0169189
826.165	0.0168552
826.244	0.0169646
826.322	0.0167065
826.400	0.0166810
826.478	0.0167137
826.556	0.0166673
826.634	0.0165748
826.712	0.0166838
826.790	0.0166691
826.869	0.0166908
826.947	0.0167258
827.025	0.0164579
827.103	0.0164814
827.181	0.0166575
827.259	0.0166040
827.337	0.0165071
827.415	0.0165626
827.494	0.0164813
827.572	0.0164899
827.650	0.0165318
827.728	0.0166819
827.806	0.0165618
827.884	0.0165221
827.962	0.0165598
828.040	0.0164241
828.119	0.0167125
828.197	0.0166339
828.275	0.0166496
828.353	0.0166433
828.431	0.0166486
828.509	0.0167482
828.587	0.0167241
828.665	0.0168008
828.744	0.0166769
828.822	0.0166605
828.900	0.0169036
828.978	0.0168124
829.056	0.0166811
829.134	0.0170034
829.212	0.0168546
829.290	0.0170020
829.369	0.0168587
829.447	0.0168818
829.525	0.0169025
829.603	0.0169247
829.681	0.0169837
829.759	0.0168555
829.837	0.0170095
829.915	0.0168667
829.994	0.0168604
830.072	0.0168865
830.150	0.0169168
830.228	0.0167900
830.306	0.0169218
830.384	0.0169585
830.462	0.0168784
830.540	0.0167030
830.619	0.0169064
830.697	0.0168695
830.775	0.0167126
830.853	0.0167674
830.931	0.0166412
831.009	0.0169362
831.087	0.0168005
831.165	0.0168383
831.244	0.0167358
831.322	0.0167460
831.400	0.0169294
831.478	0.0167795
831.556	0.0167368
831.634	0.0168124
831.712	0.0169243
831.790	0.0170254
831.869	0.0169292
831.947	0.0168237
832.025	0.0169844
832.103	0.0169378
832.181	0.0167979
832.259	0.0168218
832.337	0.0169508
832.415	0.0169936
832.494	0.0168393
832.572	0.0168710
832.650	0.0168315
832.728	0.0169258
832.806	0.0170183
832.884	0.0169595
832.962	0.0167958
833.040	0.0169581
833.119	0.0168895
833.197	0.0169053
833.275	0.0168778
833.353	0.0170899
833.431	0.0169868
833.509	0.0169922
833.587	0.0168812
833.665	0.0169436
833.744	0.0170829
833.822	0.0169933
833.900	0.0170087
833.978	0.0169334
834.056	0.0168394
834.134	0.0168544
834.212	0.0168993
834.290	0.0169519
834.369	0.0169418
834.447	0.0168937
834.525	0.0168813
834.603	0.0170387
834.681	0.0169924
834.759	0.0171738
834.837	0.0168876
834.915	0.0169939
834.994	0.0169334
835.072	0.0169238
835.150	0.0171638
835.228	0.0171806
835.306	0.0170278
835.384	0.0169440
835.462	0.0170492
835.540	0.0171158
835.619	0.0171429
835.697	0.0171291
835.775	0.0170589
835.853	0.0168998
835.931	0.0170654
836.009	0.0170415
836.087	0.0170134
836.165	0.0170968
836.244	0.0169466
836.322	0.0168673
836.400	0.0169617
836.478	0.0169085
836.556	0.0169524
836.634	0.0169486
836.712	0.0169267
836.790	0.0168421
836.869	0.0168281
836.947	0.0168533
837.025	0.0168754
837.103	0.0168259
837.181	0.0166945
837.259	0.0167873
837.337	0.0168602
837.415	0.0167915
837.494	0.0169537
837.572	0.0169268
837.650	0.0168762
837.728	0.0169019
837.806	0.0169800
837.884	0.0168661
837.962	0.0169584
838.040	0.0169743
838.119	0.0169169
838.197	0.0167772
838.275	0.0168214
838.353	0.0171014
838.431	0.0169093
838.509	0.0169286
838.587	0.0170364
838.665	0.0170461
838.744	0.0169884
838.822	0.0171521
838.900	0.0170644
838.978	0.0171664
839.056	0.0170850
839.134	0.0171968
839.212	0.0171248
839.290	0.0171390
839.369	0.0172726
839.447	0.0170836
839.525	0.0171240
839.603	0.0171683
839.681	0.0171711
839.759	0.0169672
839.837	0.0172285
839.915	0.0173026
839.994	0.0172147
840.072	0.0171919
840.150	0.0172214
840.228	0.0173391
840.306	0.0171711
840.384	0.0172021
840.462	0.0171996
840.540	0.0171487
840.619	0.0171423
840.697	0.0170345
840.775	0.0170743
840.853	0.0170779
840.931	0.0170419
841.009	0.0169561
841.087	0.0169572
841.165	0.0168632
841.244	0.0168461
841.322	0.0168572
841.400	0.0169601
841.478	0.0167837
841.556	0.0168169
841.634	0.0168052
841.712	0.0169020
841.790	0.0167809
841.869	0.0167797
841.947	0.0167959
842.025	0.0167621
842.103	0.0167948
842.181	0.0167297
842.259	0.0167554
842.337	0.0168694
842.415	0.0168210
842.494	0.0167752
842.572	0.0168177
842.650	0.0166524
842.728	0.0167487
842.806	0.0166770
842.884	0.0167785
842.962	0.0167178
843.040	0.0167055
843.119	0.0165736
843.197	0.0167078
843.275	0.0166690
843.353	0.0165756
843.431	0.0165124
843.509	0.0166466
843.587	0.0167114
843.665	0.0167081
843.744	0.0167255
843.822	0.0165870
843.900	0.0167557
843.978	0.0167321
844.056	0.0168655
844.134	0.0167797
844.212	0.0167702
844.290	0.0168449
844.369	0.0168095
844.447	0.0168205
844.525	0.0169263
844.603	0.0169582
844.681	0.0168822
844.759	0.0167451
844.837	0.0169682
844.915	0.0169219
844.994	0.0168866
845.072	0.0169825
845.150	0.0168796
845.228	0.0169077
845.306	0.0169109
845.384	0.0171470
845.462	0.0169770
845.540	0.0170551
845.619	0.0169891
845.697	0.0169153
845.775	0.0169711
845.853	0.0170102
845.931	0.0169146
846.009	0.0168849
846.087	0.0168508
846.165	0.0168237
846.244	0.0169165
846.322	0.0169068
846.400	0.0168184
846.478	0.0168385
846.556	0.0169234
846.634	0.0168416
846.712	0.0169006
846.790	0.0167628
846.869	0.0167443
846.947	0.0168125
847.025	0.0167645
847.103	0.0165916
847.181	0.0168568
847.259	0.0168598
847.337	0.0168118
847.415	0.0167610
847.494	0.0167847
847.572	0.0167038
847.650	0.0167566
847.728	0.0167752
847.806	0.0166904
847.884	0.0167950
847.962	0.0168161
848.040	0.0167992
848.119	0.0167201
848.197	0.0169489
848.275	0.0169646
848.353	0.0170161
848.431	0.0171062
848.509	0.0169695
848.587	0.0170366
848.665	0.0170145
848.744	0.0170100
848.822	0.0170306
848.900	0.0169648
848.978	0.0170447
849.056	0.0170081
849.134	0.0168903
849.212	0.0170195
849.290	0.0169749
849.369	0.0170014
849.447	0.0170270
849.525	0.0170121
849.603	0.0169620
849.681	0.0170075
849.759	0.0169356
849.837	0.0169533
849.915	0.0169971
849.994	0.0170167
850.072	0.0169016
850.150	0.0169740
850.228	0.0170560
850.306	0.0169454
850.384	0.0170908
850.462	0.0168566
850.540	0.0170201
850.619	0.0170167
850.697	0.0168810
850.775	0.0168600
850.853	0.0168682
850.931	0.0168446
851.009	0.0168412
851.087	0.0168767
851.165	0.0169021
851.244	0.0167418
851.322	0.0170120
851.400	0.0169041
851.478	0.0169222
851.556	0.0168466
851.634	0.0168372
851.712	0.0169366
851.790	0.0169620
851.869	0.0169569
851.947	0.0168401
852.025	0.0169229
852.103	0.0168999
852.181	0.0168782
852.259	0.0168812
852.337	0.0168095
852.415	0.0169828
852.494	0.0168037
852.572	0.0166838
852.650	0.0167323
852.728	0.0167247
852.806	0.0168840
852.884	0.0167096
852.962	0.0167194
853.040	0.0168687
853.119	0.0167007
853.197	0.0167369
853.275	0.0166057
853.353	0.0167262
853.431	0.0167297
853.509	0.0166160
853.587	0.0165636
853.665	0.0166692
853.744	0.0167157
853.822	0.0166397
853.900	0.0165794
853.978	0.0166792
854.056	0.0167122
854.134	0.0167795
854.212	0.0168418
854.290	0.0167492
854.369	0.0168809
854.447	0.0167806
854.525	0.0168542
854.603	0.0168745
854.681	0.0168088
854.759	0.0168662
854.837	0.0168366
854.915	0.0168022
854.994	0.0168711
855.072	0.0168027
855.150	0.0168631
855.228	0.0169603
855.306	0.0170750
855.384	0.0167314
855.462	0.0168526
855.540	0.0169048
855.619	0.0170157
855.697	0.0167748
855.775	0.0168011
855.853	0.0168578
855.931	0.0166983
856.009	0.0168413
856.087	0.0169794
856.165	0.0168848
856.244	0.0168275
856.322	0.0168417
856.400	0.0169365
856.478	0.0168275
856.556	0.0168261
856.634	0.0168927
856.712	0.0169054
856.790	0.0169678
856.869	0.0169207
856.947	0.0168835
857.025	0.0169097
857.103	0.0168509
857.181	0.0169049
857.259	0.0168953
857.337	0.0168722
857.415	0.0167842
857.494	0.0167638
857.572	0.0168511
857.650	0.0169104
857.728	0.0167593
857.806	0.0168395
857.884	0.0167929
857.962	0.0168520
858.040	0.0168146
858.119	0.0168832
858.197	0.0167652
858.275	0.0167522
858.353	0.0166734
858.431	0.0167950
858.509	0.0168377
858.587	0.0167791
858.665	0.0165014
858.744	0.0166875
858.822	0.0168748
858.900	0.0167139
858.978	0.0167204
859.056	0.0167330
859.134	0.0167511
859.212	0.0166520
859.290	0.0167633
859.369	0.0168207
859.447	0.0168439
859.525	0.0167061
859.603	0.0166827
859.681	0.0168314
859.759	0.0167982
859.837	0.0168697
859.915	0.0169076
