06/01/2022	17:52:53	Ver.	4.1	UNKNOWN
Optical Delay	539.986900	Delta X		0.078125	Sweeps	1	Scan Rate	0/0
Coordinates	Axis 1	NaN	Axis 2	NaN	Axis 3	NaN	Axis 4	NaN	Axis 5	NaN	Axis 6	0.000000
TX Power	0.000000	RX Power	0.000000

539.987	0.0165777
540.065	0.0165081
540.143	0.0166314
540.221	0.0166380
540.299	0.0166269
540.378	0.0165518
540.456	0.0165274
540.534	0.0167033
540.612	0.0165944
540.690	0.0166360
540.768	0.0165482
540.846	0.0166876
540.924	0.0167313
541.003	0.0167728
541.081	0.0167163
541.159	0.0167700
541.237	0.0165888
541.315	0.0166836
541.393	0.0167093
541.471	0.0166640
541.549	0.0166687
541.628	0.0167383
541.706	0.0167522
541.784	0.0166457
541.862	0.0167469
541.940	0.0165855
542.018	0.0165482
542.096	0.0167162
542.174	0.0166965
542.253	0.0164872
542.331	0.0164365
542.409	0.0165524
542.487	0.0166853
542.565	0.0166102
542.643	0.0165818
542.721	0.0166801
542.799	0.0166034
542.878	0.0166414
542.956	0.0166150
543.034	0.0164618
543.112	0.0165728
543.190	0.0165680
543.268	0.0165582
543.346	0.0166048
543.424	0.0165979
543.503	0.0165586
543.581	0.0166042
543.659	0.0166682
543.737	0.0164901
543.815	0.0165520
543.893	0.0166636
543.971	0.0166167
544.049	0.0165829
544.128	0.0166133
544.206	0.0164859
544.284	0.0166782
544.362	0.0166234
544.440	0.0166920
544.518	0.0166928
544.596	0.0166322
544.674	0.0166153
544.753	0.0167254
544.831	0.0168292
544.909	0.0165298
544.987	0.0165820
545.065	0.0166020
545.143	0.0167413
545.221	0.0166529
545.299	0.0165919
545.378	0.0165990
545.456	0.0164562
545.534	0.0164859
545.612	0.0164998
545.690	0.0165875
545.768	0.0164766
545.846	0.0164403
545.924	0.0164448
546.003	0.0163789
546.081	0.0163580
546.159	0.0164141
546.237	0.0163379
546.315	0.0163086
546.393	0.0164355
546.471	0.0164516
546.549	0.0164014
546.628	0.0163569
546.706	0.0165436
546.784	0.0166196
546.862	0.0163883
546.940	0.0164007
547.018	0.0165641
547.096	0.0164919
547.174	0.0164722
547.253	0.0164609
547.331	0.0164044
547.409	0.0166026
547.487	0.0165874
547.565	0.0163817
547.643	0.0164996
547.721	0.0165565
547.799	0.0166677
547.878	0.0165958
547.956	0.0166505
548.034	0.0166265
548.112	0.0167693
548.190	0.0166607
548.268	0.0165961
548.346	0.0166190
548.424	0.0166730
548.503	0.0165990
548.581	0.0165774
548.659	0.0166467
548.737	0.0165995
548.815	0.0165485
548.893	0.0165375
548.971	0.0164642
549.049	0.0165879
549.128	0.0166530
549.206	0.0165782
549.284	0.0166537
549.362	0.0164853
549.440	0.0165221
549.518	0.0165776
549.596	0.0165011
549.674	0.0164533
549.753	0.0165579
549.831	0.0165528
549.909	0.0165331
549.987	0.0164532
550.065	0.0164874
550.143	0.0164684
550.221	0.0165382
550.299	0.0164639
550.378	0.0165501
550.456	0.0166465
550.534	0.0166598
550.612	0.0166985
550.690	0.0166617
550.768	0.0167136
550.846	0.0167144
550.924	0.0166581
551.003	0.0167576
551.081	0.0167664
551.159	0.0166522
551.237	0.0166719
551.315	0.0168513
551.393	0.0167581
551.471	0.0167017
551.549	0.0168257
551.628	0.0166911
551.706	0.0168077
551.784	0.0167971
551.862	0.0166974
551.940	0.0167593
552.018	0.0168797
552.096	0.0167983
552.174	0.0167326
552.253	0.0168217
552.331	0.0168422
552.409	0.0168041
552.487	0.0168166
552.565	0.0166235
552.643	0.0167078
552.721	0.0168089
552.799	0.0165599
552.878	0.0165868
552.956	0.0166514
553.034	0.0166447
553.112	0.0166689
553.190	0.0165659
553.268	0.0166955
553.346	0.0165871
553.424	0.0165330
553.503	0.0166635
553.581	0.0165913
553.659	0.0167164
553.737	0.0166542
553.815	0.0166677
553.893	0.0167368
553.971	0.0168064
554.049	0.0165626
554.128	0.0166985
554.206	0.0167836
554.284	0.0167333
554.362	0.0167543
554.440	0.0166853
554.518	0.0167502
554.596	0.0167349
554.674	0.0167525
554.753	0.0166529
554.831	0.0168068
554.909	0.0166935
554.987	0.0166741
555.065	0.0168069
555.143	0.0166809
555.221	0.0167448
555.299	0.0167244
555.378	0.0168227
555.456	0.0167343
555.534	0.0167470
555.612	0.0166295
555.690	0.0167486
555.768	0.0166393
555.846	0.0167185
555.924	0.0167990
556.003	0.0166979
556.081	0.0165546
556.159	0.0166663
556.237	0.0166504
556.315	0.0166327
556.393	0.0166429
556.471	0.0167200
556.549	0.0164799
556.628	0.0165253
556.706	0.0165063
556.784	0.0166545
556.862	0.0164752
556.940	0.0166685
557.018	0.0164803
557.096	0.0164861
557.174	0.0165483
557.253	0.0165090
557.331	0.0165409
557.409	0.0166153
557.487	0.0164585
557.565	0.0162823
557.643	0.0165819
557.721	0.0164273
557.799	0.0163376
557.878	0.0163045
557.956	0.0162820
558.034	0.0163767
558.112	0.0164618
558.190	0.0162420
558.268	0.0163811
558.346	0.0163734
558.424	0.0163100
558.503	0.0162202
558.581	0.0161771
558.659	0.0163760
558.737	0.0162576
558.815	0.0164532
558.893	0.0162802
558.971	0.0163428
559.049	0.0163542
559.128	0.0163622
559.206	0.0163454
559.284	0.0165740
559.362	0.0165324
559.440	0.0165462
559.518	0.0165362
559.596	0.0167002
559.674	0.0167858
559.753	0.0167031
559.831	0.0167903
559.909	0.0167653
559.987	0.0168739
560.065	0.0168771
560.143	0.0170022
560.221	0.0169108
560.299	0.0168316
560.378	0.0169878
560.456	0.0168889
560.534	0.0169481
560.612	0.0168922
560.690	0.0169332
560.768	0.0169199
560.846	0.0167379
560.924	0.0166213
561.003	0.0166515
561.081	0.0167330
561.159	0.0166089
561.237	0.0166224
561.315	0.0166966
561.393	0.0165224
561.471	0.0166122
561.549	0.0167567
561.628	0.0165614
561.706	0.0165451
561.784	0.0166276
561.862	0.0164334
561.940	0.0166016
562.018	0.0165142
562.096	0.0165314
562.174	0.0166026
562.253	0.0165483
562.331	0.0165513
562.409	0.0164352
562.487	0.0165279
562.565	0.0166438
562.643	0.0164994
562.721	0.0164928
562.799	0.0165340
562.878	0.0166394
562.956	0.0165504
563.034	0.0165865
563.112	0.0166135
563.190	0.0164934
563.268	0.0165174
563.346	0.0165828
563.424	0.0166775
563.503	0.0167214
563.581	0.0165946
563.659	0.0166739
563.737	0.0165582
563.815	0.0165147
563.893	0.0167287
563.971	0.0167134
564.049	0.0165747
564.128	0.0166772
564.206	0.0167941
564.284	0.0167484
564.362	0.0166482
564.440	0.0166763
564.518	0.0166148
564.596	0.0167764
564.674	0.0167888
564.753	0.0166907
564.831	0.0167322
564.909	0.0168548
564.987	0.0167914
565.065	0.0167587
565.143	0.0166930
565.221	0.0166512
565.299	0.0167420
565.378	0.0166886
565.456	0.0167352
565.534	0.0166337
565.612	0.0165809
565.690	0.0165374
565.768	0.0166657
565.846	0.0166808
565.924	0.0166176
566.003	0.0166949
566.081	0.0165958
566.159	0.0166216
566.237	0.0165318
566.315	0.0166246
566.393	0.0166631
566.471	0.0165746
566.549	0.0164938
566.628	0.0165404
566.706	0.0165672
566.784	0.0165099
566.862	0.0165230
566.940	0.0166088
567.018	0.0166068
567.096	0.0164070
567.174	0.0164272
567.253	0.0164046
567.331	0.0165076
567.409	0.0164301
567.487	0.0164780
567.565	0.0164639
567.643	0.0163524
567.721	0.0165472
567.799	0.0164948
567.878	0.0165996
567.956	0.0164552
568.034	0.0164471
568.112	0.0165515
568.190	0.0166891
568.268	0.0165443
568.346	0.0165430
568.424	0.0165808
568.503	0.0163518
568.581	0.0164999
568.659	0.0165899
568.737	0.0165671
568.815	0.0166056
568.893	0.0164711
568.971	0.0164865
569.049	0.0165015
569.128	0.0165533
569.206	0.0164292
569.284	0.0165372
569.362	0.0164568
569.440	0.0164724
569.518	0.0165495
569.596	0.0165533
569.674	0.0164621
569.753	0.0164878
569.831	0.0165078
569.909	0.0165370
569.987	0.0165326
570.065	0.0165237
570.143	0.0165852
570.221	0.0164485
570.299	0.0163976
570.378	0.0165379
570.456	0.0163174
570.534	0.0164610
570.612	0.0164851
570.690	0.0163813
570.768	0.0164170
570.846	0.0163537
570.924	0.0164487
571.003	0.0164754
571.081	0.0165215
571.159	0.0164578
571.237	0.0164053
571.315	0.0163068
571.393	0.0164618
571.471	0.0163762
571.549	0.0165003
571.628	0.0165500
571.706	0.0164579
571.784	0.0163989
571.862	0.0162959
571.940	0.0163389
572.018	0.0164115
572.096	0.0162861
572.174	0.0162633
572.253	0.0162970
572.331	0.0164410
572.409	0.0164402
572.487	0.0165971
572.565	0.0165734
572.643	0.0165634
572.721	0.0166343
572.799	0.0166946
572.878	0.0166619
572.956	0.0168298
573.034	0.0167322
573.112	0.0166850
573.190	0.0168465
573.268	0.0168875
573.346	0.0169196
573.424	0.0166932
573.503	0.0167974
573.581	0.0169483
573.659	0.0168568
573.737	0.0169546
573.815	0.0169555
573.893	0.0168682
573.971	0.0168439
574.049	0.0170119
574.128	0.0170160
574.206	0.0171520
574.284	0.0170460
574.362	0.0168251
574.440	0.0168735
574.518	0.0169193
574.596	0.0169006
574.674	0.0167403
574.753	0.0166320
574.831	0.0166257
574.909	0.0166483
574.987	0.0164117
575.065	0.0162837
575.143	0.0165014
575.221	0.0165582
575.299	0.0163988
575.378	0.0164002
575.456	0.0164977
575.534	0.0165940
575.612	0.0166956
575.690	0.0168539
575.768	0.0168725
575.846	0.0169738
575.924	0.0172739
576.003	0.0171267
576.081	0.0170925
576.159	0.0173846
576.237	0.0174126
576.315	0.0175648
576.393	0.0175368
576.471	0.0175037
576.549	0.0175188
576.628	0.0176370
576.706	0.0174287
576.784	0.0173663
576.862	0.0171722
576.940	0.0170835
577.018	0.0169044
577.096	0.0166290
577.174	0.0165796
577.253	0.0161082
577.331	0.0160355
577.409	0.0158780
577.487	0.0156001
577.565	0.0154179
577.643	0.0153186
577.721	0.0154178
577.799	0.0152168
577.878	0.0151637
577.956	0.0151973
578.034	0.0150317
578.112	0.0152067
578.190	0.0154805
578.268	0.0157268
578.346	0.0157545
578.424	0.0158482
578.503	0.0162015
578.581	0.0163392
578.659	0.0165693
578.737	0.0167381
578.815	0.0170161
578.893	0.0173895
578.971	0.0176015
579.049	0.0177414
579.128	0.0178161
579.206	0.0180921
579.284	0.0179498
579.362	0.0182212
579.440	0.0182868
579.518	0.0180706
579.596	0.0181882
579.674	0.0179604
579.753	0.0179168
579.831	0.0178100
579.909	0.0175657
579.987	0.0171961
580.065	0.0171034
580.143	0.0167885
580.221	0.0164369
580.299	0.0161388
580.378	0.0158043
580.456	0.0156802
580.534	0.0154450
580.612	0.0151182
580.690	0.0148587
580.768	0.0146708
580.846	0.0144404
580.924	0.0144433
581.003	0.0142761
581.081	0.0142364
581.159	0.0143398
581.237	0.0142936
581.315	0.0144156
581.393	0.0146786
581.471	0.0147282
581.549	0.0150687
581.628	0.0153081
581.706	0.0153912
581.784	0.0158224
581.862	0.0161642
581.940	0.0161945
582.018	0.0164957
582.096	0.0168175
582.174	0.0171102
582.253	0.0172323
582.331	0.0175267
582.409	0.0175907
582.487	0.0179475
582.565	0.0180820
582.643	0.0180827
582.721	0.0180415
582.799	0.0181456
582.878	0.0180366
582.956	0.0181945
583.034	0.0181119
583.112	0.0180532
583.190	0.0178901
583.268	0.0177753
583.346	0.0175905
583.424	0.0173290
583.503	0.0173890
583.581	0.0171227
583.659	0.0169066
583.737	0.0167776
583.815	0.0165611
583.893	0.0164447
583.971	0.0163332
584.049	0.0161456
584.128	0.0160476
584.206	0.0160644
584.284	0.0159370
584.362	0.0159495
584.440	0.0157211
584.518	0.0156185
584.596	0.0157673
584.674	0.0157751
584.753	0.0158859
584.831	0.0156783
584.909	0.0156472
584.987	0.0158491
585.065	0.0158934
585.143	0.0158848
585.221	0.0159647
585.299	0.0159663
585.378	0.0157648
585.456	0.0160461
585.534	0.0161005
585.612	0.0161032
585.690	0.0162151
585.768	0.0162688
585.846	0.0163585
585.924	0.0164155
586.003	0.0165782
586.081	0.0166373
586.159	0.0167422
586.237	0.0168439
586.315	0.0170060
586.393	0.0172224
586.471	0.0173154
586.549	0.0175584
586.628	0.0178000
586.706	0.0178598
586.784	0.0178709
586.862	0.0180090
586.940	0.0182178
587.018	0.0182735
587.096	0.0182626
587.174	0.0183125
587.253	0.0183577
587.331	0.0183775
587.409	0.0181857
587.487	0.0182331
587.565	0.0180736
587.643	0.0179025
587.721	0.0177563
587.799	0.0175346
587.878	0.0174199
587.956	0.0173139
588.034	0.0171482
588.112	0.0168774
588.190	0.0168484
588.268	0.0167657
588.346	0.0165054
588.424	0.0166161
588.503	0.0163715
588.581	0.0161288
588.659	0.0161447
588.737	0.0159788
588.815	0.0158630
588.893	0.0157220
588.971	0.0157597
589.049	0.0155512
589.128	0.0155878
589.206	0.0155117
589.284	0.0153307
589.362	0.0154077
589.440	0.0152864
589.518	0.0152909
589.596	0.0152655
589.674	0.0152634
589.753	0.0153727
589.831	0.0152982
589.909	0.0152449
589.987	0.0152330
590.065	0.0154311
590.143	0.0153389
590.221	0.0154701
590.299	0.0153586
590.378	0.0154623
590.456	0.0156366
590.534	0.0156699
590.612	0.0156476
590.690	0.0157690
590.768	0.0158839
590.846	0.0160784
590.924	0.0161169
591.003	0.0161921
591.081	0.0164587
591.159	0.0165746
591.237	0.0168925
591.315	0.0171871
591.393	0.0171941
591.471	0.0175497
591.549	0.0179321
591.628	0.0179626
591.706	0.0181739
591.784	0.0182951
591.862	0.0185587
591.940	0.0187349
592.018	0.0188671
592.096	0.0187078
592.174	0.0188590
592.253	0.0189513
592.331	0.0188593
592.409	0.0186435
592.487	0.0185255
592.565	0.0184089
592.643	0.0180851
592.721	0.0178107
592.799	0.0176419
592.878	0.0173653
592.956	0.0171314
593.034	0.0168040
593.112	0.0165434
593.190	0.0160925
593.268	0.0158274
593.346	0.0156143
593.424	0.0151365
593.503	0.0149536
593.581	0.0147086
593.659	0.0145982
593.737	0.0144811
593.815	0.0142167
593.893	0.0142384
593.971	0.0140957
594.049	0.0141866
594.128	0.0141082
594.206	0.0142043
594.284	0.0144592
594.362	0.0146208
594.440	0.0146127
594.518	0.0148940
594.596	0.0153520
594.674	0.0155246
594.753	0.0157624
594.831	0.0162165
594.909	0.0164097
594.987	0.0168018
595.065	0.0170975
595.143	0.0173409
595.221	0.0176283
595.299	0.0176916
595.378	0.0180203
595.456	0.0181787
595.534	0.0181918
595.612	0.0183849
595.690	0.0184575
595.768	0.0184750
595.846	0.0184943
595.924	0.0183816
596.003	0.0184104
596.081	0.0182743
596.159	0.0180850
596.237	0.0180039
596.315	0.0178528
596.393	0.0176234
596.471	0.0175329
596.549	0.0172434
596.628	0.0172183
596.706	0.0168550
596.784	0.0166281
596.862	0.0164459
596.940	0.0162360
597.018	0.0161828
597.096	0.0160413
597.174	0.0160069
597.253	0.0160781
597.331	0.0158947
597.409	0.0159498
597.487	0.0161066
597.565	0.0160583
597.643	0.0162342
597.721	0.0162883
597.799	0.0163306
597.878	0.0163809
597.956	0.0164440
598.034	0.0165267
598.112	0.0164897
598.190	0.0163409
598.268	0.0164076
598.346	0.0165093
598.424	0.0163258
598.503	0.0163466
598.581	0.0161935
598.659	0.0161476
598.737	0.0160924
598.815	0.0160368
598.893	0.0160159
598.971	0.0159158
599.049	0.0160147
599.128	0.0159460
599.206	0.0160453
599.284	0.0160346
599.362	0.0163226
599.440	0.0162396
599.518	0.0163887
599.596	0.0166242
599.674	0.0167527
599.753	0.0168316
599.831	0.0169698
599.909	0.0169041
599.987	0.0171297
600.065	0.0170755
600.143	0.0171204
600.221	0.0173152
600.299	0.0171944
600.378	0.0172347
600.456	0.0172653
600.534	0.0172312
600.612	0.0171462
600.690	0.0170772
600.768	0.0171130
600.846	0.0169800
600.924	0.0168880
601.003	0.0167870
601.081	0.0167174
601.159	0.0167048
601.237	0.0165173
601.315	0.0161684
601.393	0.0161208
601.471	0.0160159
601.549	0.0158446
601.628	0.0157375
601.706	0.0154829
601.784	0.0155233
601.862	0.0154456
601.940	0.0152332
602.018	0.0152449
602.096	0.0152283
602.174	0.0153008
602.253	0.0152632
602.331	0.0155723
602.409	0.0156049
602.487	0.0157887
602.565	0.0160429
602.643	0.0163039
602.721	0.0164467
602.799	0.0166433
602.878	0.0170027
602.956	0.0171509
603.034	0.0173229
603.112	0.0173695
603.190	0.0176382
603.268	0.0176393
603.346	0.0176950
603.424	0.0178547
603.503	0.0180280
603.581	0.0179453
603.659	0.0182484
603.737	0.0182640
603.815	0.0181971
603.893	0.0183131
603.971	0.0181962
604.049	0.0181258
604.128	0.0182651
604.206	0.0180650
604.284	0.0180243
604.362	0.0177409
604.440	0.0176222
604.518	0.0175063
604.596	0.0171088
604.674	0.0168600
604.753	0.0165873
604.831	0.0164234
604.909	0.0162550
604.987	0.0160090
605.065	0.0156971
605.143	0.0156302
605.221	0.0152482
605.299	0.0151057
605.378	0.0149667
605.456	0.0148340
605.534	0.0147498
605.612	0.0146992
605.690	0.0145602
605.768	0.0144777
605.846	0.0142379
605.924	0.0142503
606.003	0.0141615
606.081	0.0141333
606.159	0.0141221
606.237	0.0141517
606.315	0.0142333
606.393	0.0142493
606.471	0.0143922
606.549	0.0145535
606.628	0.0148064
606.706	0.0150979
606.784	0.0153278
606.862	0.0156915
606.940	0.0160226
607.018	0.0163189
607.096	0.0167693
607.174	0.0171437
607.253	0.0174724
607.331	0.0180144
607.409	0.0180035
607.487	0.0184729
607.565	0.0187588
607.643	0.0187177
607.721	0.0190417
607.799	0.0191107
607.878	0.0193049
607.956	0.0193350
608.034	0.0192175
608.112	0.0192905
608.190	0.0195234
608.268	0.0193857
608.346	0.0191443
608.424	0.0191380
608.503	0.0189605
608.581	0.0187524
608.659	0.0184302
608.737	0.0181960
608.815	0.0179625
608.893	0.0176814
608.971	0.0173670
609.049	0.0171454
609.128	0.0168984
609.206	0.0165203
609.284	0.0164294
609.362	0.0160497
609.440	0.0158764
609.518	0.0158234
609.596	0.0156818
609.674	0.0155472
609.753	0.0154086
609.831	0.0154141
609.909	0.0153151
609.987	0.0153407
610.065	0.0153883
610.143	0.0153220
610.221	0.0154429
610.299	0.0154299
610.378	0.0153649
610.456	0.0154434
610.534	0.0155162
610.612	0.0155555
610.690	0.0154593
610.768	0.0154798
610.846	0.0154936
610.924	0.0155250
611.003	0.0155273
611.081	0.0156304
611.159	0.0157540
611.237	0.0159193
611.315	0.0160417
611.393	0.0160395
611.471	0.0162051
611.549	0.0161942
611.628	0.0162598
611.706	0.0164098
611.784	0.0165737
611.862	0.0165947
611.940	0.0166433
612.018	0.0167526
612.096	0.0165743
612.174	0.0166507
612.253	0.0165545
612.331	0.0166998
612.409	0.0168848
612.487	0.0169804
612.565	0.0170728
612.643	0.0171685
612.721	0.0174498
612.799	0.0176560
612.878	0.0177764
612.956	0.0177795
613.034	0.0180653
613.112	0.0183526
613.190	0.0185194
613.268	0.0184064
613.346	0.0185876
613.424	0.0187478
613.503	0.0187676
613.581	0.0188327
613.659	0.0188606
613.737	0.0184854
613.815	0.0183141
613.893	0.0181725
613.971	0.0179844
614.049	0.0176585
614.128	0.0173344
614.206	0.0170226
614.284	0.0167459
614.362	0.0165112
614.440	0.0161208
614.518	0.0158690
614.596	0.0157610
614.674	0.0155766
614.753	0.0154342
614.831	0.0152633
614.909	0.0152854
614.987	0.0151940
615.065	0.0149281
615.143	0.0151417
615.221	0.0152126
615.299	0.0152161
615.378	0.0152483
615.456	0.0153981
615.534	0.0154171
615.612	0.0154264
615.690	0.0157098
615.768	0.0157821
615.846	0.0158148
615.924	0.0159480
616.003	0.0160911
616.081	0.0163775
616.159	0.0163630
616.237	0.0164597
616.315	0.0166410
616.393	0.0167116
616.471	0.0166821
616.549	0.0167255
616.628	0.0169542
616.706	0.0170694
616.784	0.0170159
616.862	0.0169795
616.940	0.0169635
617.018	0.0172102
617.096	0.0170935
617.174	0.0171300
617.253	0.0171468
617.331	0.0170660
617.409	0.0169307
617.487	0.0169952
617.565	0.0168124
617.643	0.0169028
617.721	0.0167903
617.799	0.0166639
617.878	0.0166175
617.956	0.0165028
618.034	0.0164814
618.112	0.0164285
618.190	0.0162883
618.268	0.0163580
618.346	0.0163543
618.424	0.0162560
618.503	0.0163014
618.581	0.0163074
618.659	0.0162593
618.737	0.0163515
618.815	0.0163536
618.893	0.0164352
618.971	0.0162898
619.049	0.0164348
619.128	0.0164880
619.206	0.0164165
619.284	0.0164860
619.362	0.0162889
619.440	0.0165450
619.518	0.0166288
619.596	0.0166473
619.674	0.0165582
619.753	0.0165452
619.831	0.0166062
619.909	0.0166660
619.987	0.0166592
620.065	0.0166679
620.143	0.0168135
620.221	0.0165959
620.299	0.0167153
620.378	0.0166000
620.456	0.0166773
620.534	0.0167230
620.612	0.0165170
620.690	0.0163575
620.768	0.0164574
620.846	0.0165083
620.924	0.0164656
621.003	0.0163800
621.081	0.0163320
621.159	0.0163506
621.237	0.0164539
621.315	0.0163788
621.393	0.0164776
621.471	0.0163614
621.549	0.0163143
621.628	0.0163841
621.706	0.0162897
621.784	0.0163314
621.862	0.0161465
621.940	0.0160070
622.018	0.0162178
622.096	0.0161676
622.174	0.0161622
622.253	0.0162406
622.331	0.0162541
622.409	0.0163010
622.487	0.0164329
622.565	0.0166666
622.643	0.0166326
622.721	0.0169576
622.799	0.0170387
622.878	0.0172002
622.956	0.0173058
623.034	0.0174519
623.112	0.0176556
623.190	0.0175249
623.268	0.0176054
623.346	0.0177885
623.424	0.0178728
623.503	0.0177223
623.581	0.0176387
623.659	0.0177436
623.737	0.0177143
623.815	0.0176369
623.893	0.0175359
623.971	0.0174570
624.049	0.0173568
624.128	0.0172346
624.206	0.0171314
624.284	0.0167473
624.362	0.0168037
624.440	0.0166230
624.518	0.0162788
624.596	0.0160577
624.674	0.0158789
624.753	0.0156768
624.831	0.0154591
624.909	0.0152593
624.987	0.0152704
625.065	0.0150993
625.143	0.0150083
625.221	0.0149903
625.299	0.0149739
625.378	0.0150528
625.456	0.0150690
625.534	0.0150661
625.612	0.0151511
625.690	0.0153394
625.768	0.0155428
625.846	0.0156357
625.924	0.0157208
626.003	0.0158729
626.081	0.0161052
626.159	0.0160520
626.237	0.0163869
626.315	0.0165594
626.393	0.0167927
626.471	0.0170391
626.549	0.0172114
626.628	0.0172924
626.706	0.0173190
626.784	0.0175627
626.862	0.0177413
626.940	0.0179037
627.018	0.0180570
627.096	0.0181118
627.174	0.0182415
627.253	0.0182349
627.331	0.0182651
627.409	0.0180431
627.487	0.0180013
627.565	0.0178475
627.643	0.0177501
627.721	0.0177110
627.799	0.0174637
627.878	0.0173025
627.956	0.0172484
628.034	0.0169062
628.112	0.0168771
628.190	0.0165556
628.268	0.0165469
628.346	0.0163121
628.424	0.0161607
628.503	0.0161297
628.581	0.0161792
628.659	0.0160236
628.737	0.0158624
628.815	0.0159753
628.893	0.0159273
628.971	0.0158473
629.049	0.0158466
629.128	0.0158348
629.206	0.0158443
629.284	0.0156049
629.362	0.0158990
629.440	0.0158011
629.518	0.0159321
629.596	0.0159845
629.674	0.0161047
629.753	0.0162252
629.831	0.0161502
629.909	0.0163258
629.987	0.0163715
630.065	0.0165092
630.143	0.0164964
630.221	0.0165986
630.299	0.0166880
630.378	0.0165545
630.456	0.0166626
630.534	0.0167054
630.612	0.0167486
630.690	0.0166011
630.768	0.0165730
630.846	0.0167291
630.924	0.0166033
631.003	0.0165494
631.081	0.0165235
631.159	0.0164931
631.237	0.0163519
631.315	0.0163967
631.393	0.0164100
631.471	0.0161448
631.549	0.0161131
631.628	0.0161644
631.706	0.0160963
631.784	0.0162545
631.862	0.0162957
631.940	0.0161790
632.018	0.0162116
632.096	0.0162034
632.174	0.0163445
632.253	0.0162751
632.331	0.0164085
632.409	0.0162803
632.487	0.0163184
632.565	0.0164249
632.643	0.0164532
632.721	0.0164356
632.799	0.0163865
632.878	0.0164081
632.956	0.0164407
633.034	0.0164304
633.112	0.0164883
633.190	0.0165908
633.268	0.0167319
633.346	0.0169564
633.424	0.0169486
633.503	0.0169022
633.581	0.0169650
633.659	0.0170425
633.737	0.0171726
633.815	0.0172366
633.893	0.0173080
633.971	0.0174194
634.049	0.0174792
634.128	0.0175256
634.206	0.0175883
634.284	0.0176791
634.362	0.0176002
634.440	0.0176405
634.518	0.0175772
634.596	0.0176640
634.674	0.0175538
634.753	0.0174388
634.831	0.0174150
634.909	0.0173931
634.987	0.0173443
635.065	0.0172247
635.143	0.0171494
635.221	0.0171703
635.299	0.0168613
635.378	0.0166944
635.456	0.0166892
635.534	0.0165965
635.612	0.0165065
635.690	0.0162366
635.768	0.0161880
635.846	0.0160714
635.924	0.0160751
636.003	0.0160368
636.081	0.0157499
636.159	0.0157704
636.237	0.0158676
636.315	0.0157165
636.393	0.0158462
636.471	0.0158274
636.549	0.0158590
636.628	0.0158640
636.706	0.0159199
636.784	0.0158523
636.862	0.0160419
636.940	0.0161398
637.018	0.0162062
637.096	0.0162351
637.174	0.0162367
637.253	0.0164212
637.331	0.0165836
637.409	0.0166324
637.487	0.0166649
637.565	0.0167713
637.643	0.0167529
637.721	0.0168057
637.799	0.0169568
637.878	0.0168414
637.956	0.0171071
638.034	0.0170368
638.112	0.0169790
638.190	0.0170114
638.268	0.0170719
638.346	0.0169260
638.424	0.0169895
638.503	0.0170090
638.581	0.0171081
638.659	0.0170747
638.737	0.0169337
638.815	0.0169761
638.893	0.0170164
638.971	0.0169952
639.049	0.0169028
639.128	0.0170393
639.206	0.0168878
639.284	0.0169699
639.362	0.0169086
639.440	0.0168690
639.518	0.0169177
639.596	0.0166981
639.674	0.0167300
639.753	0.0168073
639.831	0.0168740
639.909	0.0169193
639.987	0.0168383
640.065	0.0168475
640.143	0.0167209
640.221	0.0167046
640.299	0.0167844
640.378	0.0168202
640.456	0.0166135
640.534	0.0166907
640.612	0.0167422
640.690	0.0167644
640.768	0.0168696
640.846	0.0168465
640.924	0.0168524
641.003	0.0168835
641.081	0.0167796
641.159	0.0169131
641.237	0.0167337
641.315	0.0168190
641.393	0.0166718
641.471	0.0168024
641.549	0.0168037
641.628	0.0168246
641.706	0.0169084
641.784	0.0167733
641.862	0.0166310
641.940	0.0167034
642.018	0.0166222
642.096	0.0166499
642.174	0.0164205
642.253	0.0165329
642.331	0.0164870
642.409	0.0163177
642.487	0.0162017
642.565	0.0162714
642.643	0.0162743
642.721	0.0162673
642.799	0.0162379
642.878	0.0160605
642.956	0.0160961
643.034	0.0161266
643.112	0.0160755
643.190	0.0161153
643.268	0.0161948
643.346	0.0160979
643.424	0.0161350
643.503	0.0160878
643.581	0.0162077
643.659	0.0163152
643.737	0.0163084
643.815	0.0162900
643.893	0.0163097
643.971	0.0163921
644.049	0.0164565
644.128	0.0164202
644.206	0.0164233
644.284	0.0164126
644.362	0.0165309
644.440	0.0165449
644.518	0.0166103
644.596	0.0166178
644.674	0.0167093
644.753	0.0166495
644.831	0.0168484
644.909	0.0168806
644.987	0.0169793
645.065	0.0170594
645.143	0.0171869
645.221	0.0172797
645.299	0.0172647
645.378	0.0171722
645.456	0.0172578
645.534	0.0173672
645.612	0.0173072
645.690	0.0170929
645.768	0.0169377
645.846	0.0169253
645.924	0.0168253
646.003	0.0166490
646.081	0.0165245
646.159	0.0163661
646.237	0.0163016
646.315	0.0161533
646.393	0.0160211
646.471	0.0159989
646.549	0.0158150
646.628	0.0156722
646.706	0.0157888
646.784	0.0157887
646.862	0.0158297
646.940	0.0157700
647.018	0.0158353
647.096	0.0158231
647.174	0.0159760
647.253	0.0160367
647.331	0.0161196
647.409	0.0162722
647.487	0.0161893
647.565	0.0164102
647.643	0.0164714
647.721	0.0164570
647.799	0.0165452
647.878	0.0167762
647.956	0.0166633
648.034	0.0168098
648.112	0.0167946
648.190	0.0168296
648.268	0.0167897
648.346	0.0167869
648.424	0.0167764
648.503	0.0166106
648.581	0.0166201
648.659	0.0167060
648.737	0.0164395
648.815	0.0165989
648.893	0.0165482
648.971	0.0164539
649.049	0.0164272
649.128	0.0164149
649.206	0.0164630
649.284	0.0164051
649.362	0.0162169
649.440	0.0162475
649.518	0.0162427
649.596	0.0162780
649.674	0.0163683
649.753	0.0163983
649.831	0.0163326
649.909	0.0163099
649.987	0.0163627
650.065	0.0163834
650.143	0.0164906
650.221	0.0166095
650.299	0.0164724
650.378	0.0165276
650.456	0.0167587
650.534	0.0166619
650.612	0.0166670
650.690	0.0168028
650.768	0.0167570
650.846	0.0166953
650.924	0.0167410
651.003	0.0165147
651.081	0.0166666
651.159	0.0167890
651.237	0.0166699
651.315	0.0164535
651.393	0.0167062
651.471	0.0166833
651.549	0.0166634
651.628	0.0166367
651.706	0.0166088
651.784	0.0167883
651.862	0.0167994
651.940	0.0168692
652.018	0.0168453
652.096	0.0171014
652.174	0.0170650
652.253	0.0169781
652.331	0.0170230
652.409	0.0171526
652.487	0.0172242
652.565	0.0171831
652.643	0.0171608
652.721	0.0171318
652.799	0.0170633
652.878	0.0170248
652.956	0.0170812
653.034	0.0170092
653.112	0.0169386
653.190	0.0170701
653.268	0.0170916
653.346	0.0168661
653.424	0.0170001
653.503	0.0167517
653.581	0.0167172
653.659	0.0167458
653.737	0.0166156
653.815	0.0167443
653.893	0.0166162
653.971	0.0164884
654.049	0.0164668
654.128	0.0165185
654.206	0.0163422
654.284	0.0163811
654.362	0.0163557
654.440	0.0162289
654.518	0.0161903
654.596	0.0163024
654.674	0.0161567
654.753	0.0162337
654.831	0.0163824
654.909	0.0163644
654.987	0.0164820
655.065	0.0165112
655.143	0.0165797
655.221	0.0166876
655.299	0.0167155
655.378	0.0167935
655.456	0.0168453
655.534	0.0168964
655.612	0.0169922
655.690	0.0169763
655.768	0.0170230
655.846	0.0171803
655.924	0.0172020
656.003	0.0171243
656.081	0.0172914
656.159	0.0171133
656.237	0.0172919
656.315	0.0172189
656.393	0.0171977
656.471	0.0172095
656.549	0.0172190
656.628	0.0170494
656.706	0.0171035
656.784	0.0170438
656.862	0.0170083
656.940	0.0169161
657.018	0.0168372
657.096	0.0168077
657.174	0.0166071
657.253	0.0164719
657.331	0.0165472
657.409	0.0164707
657.487	0.0163141
657.565	0.0163525
657.643	0.0162593
657.721	0.0161472
657.799	0.0161852
657.878	0.0162431
657.956	0.0163289
658.034	0.0161774
658.112	0.0161506
658.190	0.0162068
658.268	0.0163552
658.346	0.0160637
658.424	0.0161636
658.503	0.0160999
658.581	0.0161459
658.659	0.0161620
658.737	0.0161919
658.815	0.0162833
658.893	0.0161842
658.971	0.0161031
659.049	0.0162229
659.128	0.0162592
659.206	0.0162457
659.284	0.0162617
659.362	0.0163717
659.440	0.0165419
659.518	0.0165142
659.596	0.0163993
659.674	0.0164423
659.753	0.0165878
659.831	0.0164810
659.909	0.0166984
659.987	0.0164455
660.065	0.0164636
660.143	0.0166018
660.221	0.0167091
660.299	0.0166087
660.378	0.0165707
660.456	0.0166161
660.534	0.0165989
660.612	0.0165364
660.690	0.0165607
660.768	0.0166031
660.846	0.0166656
660.924	0.0166685
661.003	0.0165417
661.081	0.0167067
661.159	0.0165755
661.237	0.0165292
661.315	0.0166466
661.393	0.0165535
661.471	0.0164843
661.549	0.0164492
661.628	0.0164957
661.706	0.0165023
661.784	0.0164731
661.862	0.0166574
661.940	0.0166257
662.018	0.0164884
662.096	0.0165240
662.174	0.0164612
662.253	0.0164457
662.331	0.0165260
662.409	0.0165417
662.487	0.0164342
662.565	0.0166224
662.643	0.0166949
662.721	0.0166504
662.799	0.0168129
662.878	0.0168481
662.956	0.0168456
663.034	0.0167386
663.112	0.0167857
663.190	0.0169242
663.268	0.0168793
663.346	0.0169672
663.424	0.0169681
663.503	0.0170132
663.581	0.0170513
663.659	0.0170419
663.737	0.0168761
663.815	0.0168787
663.893	0.0167532
663.971	0.0169547
664.049	0.0166439
664.128	0.0166659
664.206	0.0167389
664.284	0.0166473
664.362	0.0166685
664.440	0.0165424
664.518	0.0164816
664.596	0.0165179
664.674	0.0164790
664.753	0.0164246
664.831	0.0163692
664.909	0.0163045
664.987	0.0162256
665.065	0.0163016
665.143	0.0161908
665.221	0.0163691
665.299	0.0163546
665.378	0.0163328
665.456	0.0164061
665.534	0.0164330
665.612	0.0162731
665.690	0.0162805
665.768	0.0163093
665.846	0.0163289
665.924	0.0165968
666.003	0.0165820
666.081	0.0165852
666.159	0.0166599
666.237	0.0166851
666.315	0.0168212
666.393	0.0168952
666.471	0.0168945
666.549	0.0169587
666.628	0.0171013
666.706	0.0168594
666.784	0.0169561
666.862	0.0172555
666.940	0.0172173
667.018	0.0171603
667.096	0.0171969
667.174	0.0170935
667.253	0.0171133
667.331	0.0171507
667.409	0.0170307
667.487	0.0170788
667.565	0.0170206
667.643	0.0170422
667.721	0.0169254
667.799	0.0167731
667.878	0.0168314
667.956	0.0167527
668.034	0.0168901
668.112	0.0166930
668.190	0.0167159
668.268	0.0166283
668.346	0.0166256
668.424	0.0167748
668.503	0.0165494
668.581	0.0166940
668.659	0.0166400
668.737	0.0165279
668.815	0.0166826
668.893	0.0166908
668.971	0.0165773
669.049	0.0164845
669.128	0.0163951
669.206	0.0165743
669.284	0.0164738
669.362	0.0165387
669.440	0.0166161
669.518	0.0165785
669.596	0.0164194
669.674	0.0166032
669.753	0.0165713
669.831	0.0165431
669.909	0.0167178
669.987	0.0166473
670.065	0.0165770
670.143	0.0167316
670.221	0.0167051
670.299	0.0166896
670.378	0.0168862
670.456	0.0167864
670.534	0.0168948
670.612	0.0168849
670.690	0.0167862
670.768	0.0170745
670.846	0.0170151
670.924	0.0169759
671.003	0.0170974
671.081	0.0170318
671.159	0.0167690
671.237	0.0169032
671.315	0.0168520
671.393	0.0168291
671.471	0.0168681
671.549	0.0166903
671.628	0.0168557
671.706	0.0166591
671.784	0.0166747
671.862	0.0166858
671.940	0.0164848
672.018	0.0166261
672.096	0.0166230
672.174	0.0165352
672.253	0.0164598
672.331	0.0164848
672.409	0.0163553
672.487	0.0164791
672.565	0.0163100
672.643	0.0163319
672.721	0.0164455
672.799	0.0164747
672.878	0.0163556
672.956	0.0163968
673.034	0.0163065
673.112	0.0163105
673.190	0.0162823
673.268	0.0163309
673.346	0.0163087
673.424	0.0164110
673.503	0.0163325
673.581	0.0164770
673.659	0.0164763
673.737	0.0164471
673.815	0.0164300
673.893	0.0164999
673.971	0.0164619
674.049	0.0166425
674.128	0.0166333
674.206	0.0167177
674.284	0.0165291
674.362	0.0167957
674.440	0.0168049
674.518	0.0167350
674.596	0.0166315
674.674	0.0168346
674.753	0.0168671
674.831	0.0169084
674.909	0.0169095
674.987	0.0169885
675.065	0.0170676
675.143	0.0171056
675.221	0.0170827
675.299	0.0170718
675.378	0.0171970
675.456	0.0170238
675.534	0.0170155
675.612	0.0170031
675.690	0.0170786
675.768	0.0170979
675.846	0.0170290
675.924	0.0170237
676.003	0.0168354
676.081	0.0169205
676.159	0.0168961
676.237	0.0166920
676.315	0.0168273
676.393	0.0166611
676.471	0.0165073
676.549	0.0164871
676.628	0.0165623
676.706	0.0164566
676.784	0.0163775
676.862	0.0163799
676.940	0.0162660
677.018	0.0162307
677.096	0.0161794
677.174	0.0161524
677.253	0.0161566
677.331	0.0162316
677.409	0.0162174
677.487	0.0161932
677.565	0.0162592
677.643	0.0162471
677.721	0.0160937
677.799	0.0162642
677.878	0.0163487
677.956	0.0164689
678.034	0.0164166
678.112	0.0164875
678.190	0.0165630
678.268	0.0165629
678.346	0.0167167
678.424	0.0166373
678.503	0.0168007
678.581	0.0168342
678.659	0.0168214
678.737	0.0168673
678.815	0.0169936
678.893	0.0169601
678.971	0.0169804
679.049	0.0169530
679.128	0.0170965
679.206	0.0170583
679.284	0.0169075
679.362	0.0170045
679.440	0.0170131
679.518	0.0169948
679.596	0.0169621
679.674	0.0169663
679.753	0.0170193
679.831	0.0168771
679.909	0.0168970
679.987	0.0167183
680.065	0.0168961
680.143	0.0167927
680.221	0.0167564
680.299	0.0166541
680.378	0.0166408
680.456	0.0167900
680.534	0.0165180
680.612	0.0164855
680.690	0.0165363
680.768	0.0165137
680.846	0.0163452
680.924	0.0164266
681.003	0.0163792
681.081	0.0164042
681.159	0.0163393
681.237	0.0164235
681.315	0.0162688
681.393	0.0163412
681.471	0.0162535
681.549	0.0162620
681.628	0.0162668
681.706	0.0162712
681.784	0.0162460
681.862	0.0163196
681.940	0.0162705
682.018	0.0163431
682.096	0.0163750
682.174	0.0163182
682.253	0.0163975
682.331	0.0163364
682.409	0.0165224
682.487	0.0165470
682.565	0.0165282
682.643	0.0166757
682.721	0.0166322
682.799	0.0164437
682.878	0.0165360
682.956	0.0165098
683.034	0.0166266
683.112	0.0164156
683.190	0.0164015
683.268	0.0163991
683.346	0.0162681
683.424	0.0164655
683.503	0.0163333
683.581	0.0162147
683.659	0.0163430
683.737	0.0162164
683.815	0.0161711
683.893	0.0162405
683.971	0.0162945
684.049	0.0162246
684.128	0.0160481
684.206	0.0161888
684.284	0.0163374
684.362	0.0162830
684.440	0.0163207
684.518	0.0164606
684.596	0.0164301
684.674	0.0165041
684.753	0.0164523
684.831	0.0166487
684.909	0.0166167
684.987	0.0165403
685.065	0.0165636
685.143	0.0165614
685.221	0.0168150
685.299	0.0167613
685.378	0.0166284
685.456	0.0165839
685.534	0.0168383
685.612	0.0167753
685.690	0.0166693
685.768	0.0166898
685.846	0.0165491
685.924	0.0168811
686.003	0.0168701
686.081	0.0167709
686.159	0.0167579
686.237	0.0168773
686.315	0.0168557
686.393	0.0166537
686.471	0.0167121
686.549	0.0167518
686.628	0.0167350
686.706	0.0166312
686.784	0.0166467
686.862	0.0166051
686.940	0.0165495
687.018	0.0166026
687.096	0.0165619
687.174	0.0166390
687.253	0.0166966
687.331	0.0166039
687.409	0.0165887
687.487	0.0167675
687.565	0.0166190
687.643	0.0166205
687.721	0.0166295
687.799	0.0167564
687.878	0.0165871
687.956	0.0166619
688.034	0.0165861
688.112	0.0167841
688.190	0.0168784
688.268	0.0167399
688.346	0.0168218
688.424	0.0169291
688.503	0.0169692
688.581	0.0167921
688.659	0.0169653
688.737	0.0169234
688.815	0.0170516
688.893	0.0170148
688.971	0.0168409
689.049	0.0170478
689.128	0.0170528
689.206	0.0170850
689.284	0.0171948
689.362	0.0170121
689.440	0.0170417
689.518	0.0169953
689.596	0.0168736
689.674	0.0169604
689.753	0.0169549
689.831	0.0170056
689.909	0.0169562
689.987	0.0168759
690.065	0.0169184
690.143	0.0168073
690.221	0.0167084
690.299	0.0166844
690.378	0.0165836
690.456	0.0166194
690.534	0.0165675
690.612	0.0165850
690.690	0.0166017
690.768	0.0166087
690.846	0.0165021
690.924	0.0164995
691.003	0.0164326
691.081	0.0165696
691.159	0.0165367
691.237	0.0164414
691.315	0.0166940
691.393	0.0166969
691.471	0.0165562
691.549	0.0166091
691.628	0.0166777
691.706	0.0166633
691.784	0.0166824
691.862	0.0166526
691.940	0.0166164
692.018	0.0167835
692.096	0.0167609
692.174	0.0166304
692.253	0.0168056
692.331	0.0166367
692.409	0.0166616
692.487	0.0167117
692.565	0.0168446
692.643	0.0166508
692.721	0.0166994
692.799	0.0167754
692.878	0.0167562
692.956	0.0167826
693.034	0.0167414
693.112	0.0167638
693.190	0.0169053
693.268	0.0168369
693.346	0.0168098
693.424	0.0168048
693.503	0.0168120
693.581	0.0167738
693.659	0.0167068
693.737	0.0168374
693.815	0.0168998
693.893	0.0168459
693.971	0.0168053
694.049	0.0167959
694.128	0.0167996
694.206	0.0168230
694.284	0.0169022
694.362	0.0168676
694.440	0.0169235
694.518	0.0168435
694.596	0.0166780
694.674	0.0167502
694.753	0.0166584
694.831	0.0167554
694.909	0.0166951
694.987	0.0166418
695.065	0.0166033
695.143	0.0165171
695.221	0.0166085
695.299	0.0164854
695.378	0.0164735
695.456	0.0165544
695.534	0.0163336
695.612	0.0163926
695.690	0.0164036
695.768	0.0162698
695.846	0.0162533
695.924	0.0163052
696.003	0.0163300
696.081	0.0163541
696.159	0.0162779
696.237	0.0162504
696.315	0.0162550
696.393	0.0163567
696.471	0.0162222
696.549	0.0163097
696.628	0.0165025
696.706	0.0164169
696.784	0.0164117
696.862	0.0164458
696.940	0.0163763
697.018	0.0166055
697.096	0.0165036
697.174	0.0163911
697.253	0.0164191
697.331	0.0166055
697.409	0.0165759
697.487	0.0166380
697.565	0.0166489
697.643	0.0167453
697.721	0.0166787
697.799	0.0166495
697.878	0.0166198
697.956	0.0166093
698.034	0.0166398
698.112	0.0165459
698.190	0.0166844
698.268	0.0166148
698.346	0.0165864
698.424	0.0167275
698.503	0.0165171
698.581	0.0165806
698.659	0.0167104
698.737	0.0166309
698.815	0.0167684
698.893	0.0166768
698.971	0.0165825
699.049	0.0166453
699.128	0.0166465
699.206	0.0166870
699.284	0.0167040
699.362	0.0166947
699.440	0.0167757
699.518	0.0167314
699.596	0.0168072
699.674	0.0166965
699.753	0.0168893
699.831	0.0167136
699.909	0.0167650
699.987	0.0167862
700.065	0.0168940
700.143	0.0168399
700.221	0.0168387
700.299	0.0169372
700.378	0.0169109
700.456	0.0167698
700.534	0.0168040
700.612	0.0168959
700.690	0.0167694
700.768	0.0169427
700.846	0.0168521
700.924	0.0169501
701.003	0.0168057
701.081	0.0168982
701.159	0.0169054
701.237	0.0166858
701.315	0.0166889
701.393	0.0167229
701.471	0.0167970
701.549	0.0165805
701.628	0.0164519
701.706	0.0165343
701.784	0.0165432
701.862	0.0163633
701.940	0.0165014
702.018	0.0164727
702.096	0.0163580
702.174	0.0162370
702.253	0.0162255
702.331	0.0161744
702.409	0.0161607
702.487	0.0161176
702.565	0.0162778
702.643	0.0163042
702.721	0.0161349
702.799	0.0161200
702.878	0.0162124
702.956	0.0162387
703.034	0.0162400
703.112	0.0164017
703.190	0.0164466
703.268	0.0162401
703.346	0.0163684
703.424	0.0164570
703.503	0.0164399
703.581	0.0165559
703.659	0.0166325
703.737	0.0166045
703.815	0.0167141
703.893	0.0168208
703.971	0.0169133
704.049	0.0168118
704.128	0.0168229
704.206	0.0168799
704.284	0.0169859
704.362	0.0168401
704.440	0.0169639
704.518	0.0170451
704.596	0.0169020
704.674	0.0167902
704.753	0.0168690
704.831	0.0167374
704.909	0.0168563
704.987	0.0168287
705.065	0.0167377
705.143	0.0166986
705.221	0.0166437
705.299	0.0163947
705.378	0.0166429
705.456	0.0166349
705.534	0.0165450
705.612	0.0166654
705.690	0.0163753
705.768	0.0164621
705.846	0.0164003
705.924	0.0162955
706.003	0.0162939
706.081	0.0163215
706.159	0.0163174
706.237	0.0162066
706.315	0.0162220
706.393	0.0162835
706.471	0.0164515
706.549	0.0163420
706.628	0.0163174
706.706	0.0163396
706.784	0.0162767
706.862	0.0163721
706.940	0.0162097
707.018	0.0164385
707.096	0.0164735
707.174	0.0163876
707.253	0.0164771
707.331	0.0163689
707.409	0.0164473
707.487	0.0163451
707.565	0.0164620
707.643	0.0165473
707.721	0.0165777
707.799	0.0166262
707.878	0.0166201
707.956	0.0164729
708.034	0.0166552
708.112	0.0166262
708.190	0.0165845
708.268	0.0166468
708.346	0.0166950
708.424	0.0167712
708.503	0.0166523
708.581	0.0166971
708.659	0.0167273
708.737	0.0168863
708.815	0.0167606
708.893	0.0167113
708.971	0.0167295
709.049	0.0169053
709.128	0.0169448
709.206	0.0170090
709.284	0.0168465
709.362	0.0169093
709.440	0.0169320
709.518	0.0167245
709.596	0.0169026
709.674	0.0169744
709.753	0.0167384
709.831	0.0167916
709.909	0.0170074
709.987	0.0169211
710.065	0.0170135
710.143	0.0169895
710.221	0.0170227
710.299	0.0166213
710.378	0.0167525
710.456	0.0168867
710.534	0.0167354
710.612	0.0166832
710.690	0.0167961
710.768	0.0166488
710.846	0.0165858
710.924	0.0167006
711.003	0.0165515
711.081	0.0166348
711.159	0.0165244
711.237	0.0163614
711.315	0.0165925
711.393	0.0164140
711.471	0.0163432
711.549	0.0162906
711.628	0.0162616
711.706	0.0163554
711.784	0.0162055
711.862	0.0163220
711.940	0.0163519
712.018	0.0162558
712.096	0.0162865
712.174	0.0162794
712.253	0.0164648
712.331	0.0164463
712.409	0.0164160
712.487	0.0162747
712.565	0.0164257
712.643	0.0163778
712.721	0.0163454
712.799	0.0163680
712.878	0.0164090
712.956	0.0165219
713.034	0.0164424
713.112	0.0165081
713.190	0.0165049
713.268	0.0164826
713.346	0.0166482
713.424	0.0165469
713.503	0.0165549
713.581	0.0167229
713.659	0.0166566
713.737	0.0167157
713.815	0.0167014
713.893	0.0166863
713.971	0.0166380
714.049	0.0165622
714.128	0.0167310
714.206	0.0166470
714.284	0.0167869
714.362	0.0167345
714.440	0.0167329
714.518	0.0167683
714.596	0.0166485
714.674	0.0166967
714.753	0.0167336
714.831	0.0166698
714.909	0.0166254
714.987	0.0166371
715.065	0.0166512
715.143	0.0167905
715.221	0.0166897
715.299	0.0166750
715.378	0.0166839
715.456	0.0165563
715.534	0.0168114
715.612	0.0167043
715.690	0.0166710
715.768	0.0165959
715.846	0.0165099
715.924	0.0166828
716.003	0.0166957
716.081	0.0166680
716.159	0.0165546
716.237	0.0165611
716.315	0.0165712
716.393	0.0166201
716.471	0.0167606
716.549	0.0165540
716.628	0.0166568
716.706	0.0167234
716.784	0.0166203
716.862	0.0165881
716.940	0.0166064
717.018	0.0167953
717.096	0.0166512
717.174	0.0165363
717.253	0.0165922
717.331	0.0165353
717.409	0.0165639
717.487	0.0166261
717.565	0.0164982
717.643	0.0165311
717.721	0.0164394
717.799	0.0164651
717.878	0.0165359
717.956	0.0166079
718.034	0.0165987
718.112	0.0165115
718.190	0.0166375
718.268	0.0165074
718.346	0.0165517
718.424	0.0164099
718.503	0.0165285
718.581	0.0164644
718.659	0.0165941
718.737	0.0165394
718.815	0.0164368
718.893	0.0165080
718.971	0.0165983
719.049	0.0165790
719.128	0.0165028
719.206	0.0164784
719.284	0.0166380
719.362	0.0167316
719.440	0.0165928
719.518	0.0165855
719.596	0.0165459
719.674	0.0166557
719.753	0.0167260
719.831	0.0167726
719.909	0.0166737
719.987	0.0165553
720.065	0.0166201
720.143	0.0166712
720.221	0.0165897
720.299	0.0166836
720.378	0.0167277
720.456	0.0167100
720.534	0.0167314
720.612	0.0165803
720.690	0.0165083
720.768	0.0165934
720.846	0.0165485
720.924	0.0166341
721.003	0.0165398
721.081	0.0165175
721.159	0.0166170
721.237	0.0167121
721.315	0.0166355
721.393	0.0164795
721.471	0.0165531
721.549	0.0166791
721.628	0.0166588
721.706	0.0166807
721.784	0.0165834
721.862	0.0167855
721.940	0.0167871
722.018	0.0166570
722.096	0.0166682
722.174	0.0165828
722.253	0.0166928
722.331	0.0166242
722.409	0.0167220
722.487	0.0167304
722.565	0.0166668
722.643	0.0167496
722.721	0.0166889
722.799	0.0167451
722.878	0.0167641
722.956	0.0167755
723.034	0.0166388
723.112	0.0169058
723.190	0.0166602
723.268	0.0167915
723.346	0.0167555
723.424	0.0167941
723.503	0.0167548
723.581	0.0167187
723.659	0.0167596
723.737	0.0167868
723.815	0.0168551
723.893	0.0167769
723.971	0.0167895
724.049	0.0168877
724.128	0.0168050
724.206	0.0168022
724.284	0.0165874
724.362	0.0168385
724.440	0.0167299
724.518	0.0165901
724.596	0.0166613
724.674	0.0166676
724.753	0.0167847
724.831	0.0166862
724.909	0.0166978
724.987	0.0166035
725.065	0.0164951
725.143	0.0165305
725.221	0.0166123
725.299	0.0165957
725.378	0.0163732
725.456	0.0164371
725.534	0.0165468
725.612	0.0164568
725.690	0.0163976
725.768	0.0164948
725.846	0.0163286
725.924	0.0163665
726.003	0.0163671
726.081	0.0162536
726.159	0.0163032
726.237	0.0163118
726.315	0.0164119
726.393	0.0164423
726.471	0.0163738
726.549	0.0161279
726.628	0.0161907
726.706	0.0161738
726.784	0.0163135
726.862	0.0161435
726.940	0.0161861
727.018	0.0162115
727.096	0.0161645
727.174	0.0161613
727.253	0.0162482
727.331	0.0163091
727.409	0.0162415
727.487	0.0162273
727.565	0.0162477
727.643	0.0163890
727.721	0.0162211
727.799	0.0161549
727.878	0.0163553
727.956	0.0162360
728.034	0.0162350
728.112	0.0162734
728.190	0.0161844
728.268	0.0163619
728.346	0.0162285
728.424	0.0163263
728.503	0.0163622
728.581	0.0163211
728.659	0.0164071
728.737	0.0164031
728.815	0.0165278
728.893	0.0165759
728.971	0.0164057
729.049	0.0164429
729.128	0.0167487
729.206	0.0167502
729.284	0.0165776
729.362	0.0167763
729.440	0.0167026
729.518	0.0167289
729.596	0.0166490
729.674	0.0167400
729.753	0.0167876
729.831	0.0168554
729.909	0.0168490
729.987	0.0167431
730.065	0.0169159
730.143	0.0169287
730.221	0.0169353
730.299	0.0169931
730.378	0.0169588
730.456	0.0170773
730.534	0.0170290
730.612	0.0170351
730.690	0.0170349
730.768	0.0169328
730.846	0.0169372
730.924	0.0168848
731.003	0.0169274
731.081	0.0168887
731.159	0.0168226
731.237	0.0169545
731.315	0.0168707
731.393	0.0168470
731.471	0.0167559
731.549	0.0167669
731.628	0.0166100
731.706	0.0166033
731.784	0.0166961
731.862	0.0167172
731.940	0.0167200
732.018	0.0165804
732.096	0.0165374
732.174	0.0165961
732.253	0.0164745
732.331	0.0165794
732.409	0.0164458
732.487	0.0163522
732.565	0.0165322
732.643	0.0165269
732.721	0.0164753
732.799	0.0164317
732.878	0.0164199
732.956	0.0163866
733.034	0.0163976
733.112	0.0164023
733.190	0.0162861
733.268	0.0163215
733.346	0.0163850
733.424	0.0165136
733.503	0.0165120
733.581	0.0165802
733.659	0.0165662
733.737	0.0165025
733.815	0.0166318
733.893	0.0166547
733.971	0.0165855
734.049	0.0168220
734.128	0.0166187
734.206	0.0167784
734.284	0.0168584
734.362	0.0167373
734.440	0.0167017
734.518	0.0167126
734.596	0.0167052
734.674	0.0168642
734.753	0.0166817
734.831	0.0167651
734.909	0.0166245
734.987	0.0166407
735.065	0.0164851
735.143	0.0166337
735.221	0.0167001
735.299	0.0165739
735.378	0.0165946
735.456	0.0165607
735.534	0.0164409
735.612	0.0165994
735.690	0.0164961
735.768	0.0165070
735.846	0.0164201
735.924	0.0164026
736.003	0.0163226
736.081	0.0164690
736.159	0.0164730
736.237	0.0165366
736.315	0.0164420
736.393	0.0163631
736.471	0.0164153
736.549	0.0163843
736.628	0.0162595
736.706	0.0165203
736.784	0.0164467
736.862	0.0164262
736.940	0.0165233
737.018	0.0162845
737.096	0.0163939
737.174	0.0164585
737.253	0.0164938
737.331	0.0165090
737.409	0.0165670
737.487	0.0166884
737.565	0.0165675
737.643	0.0167496
737.721	0.0167013
737.799	0.0166283
737.878	0.0165407
737.956	0.0166935
738.034	0.0166327
738.112	0.0166562
738.190	0.0168324
738.268	0.0166946
738.346	0.0166457
738.424	0.0167818
738.503	0.0167279
738.581	0.0167239
738.659	0.0167443
738.737	0.0166615
738.815	0.0164766
738.893	0.0166729
738.971	0.0167014
739.049	0.0165220
739.128	0.0166066
739.206	0.0166135
739.284	0.0164978
739.362	0.0165031
739.440	0.0166737
739.518	0.0167489
739.596	0.0165005
739.674	0.0166208
739.753	0.0167223
739.831	0.0167690
739.909	0.0165937
739.987	0.0166109
740.065	0.0167171
740.143	0.0165341
740.221	0.0167313
740.299	0.0167229
740.378	0.0167570
740.456	0.0168319
740.534	0.0168240
740.612	0.0167200
740.690	0.0166846
740.768	0.0167712
740.846	0.0166386
740.924	0.0166729
741.003	0.0167523
741.081	0.0168165
741.159	0.0166933
741.237	0.0167423
741.315	0.0166832
741.393	0.0168288
741.471	0.0167593
741.549	0.0169171
741.628	0.0167354
741.706	0.0168258
741.784	0.0168835
741.862	0.0167679
741.940	0.0166708
742.018	0.0168822
742.096	0.0168620
742.174	0.0168968
742.253	0.0167702
742.331	0.0167095
742.409	0.0168128
742.487	0.0166771
742.565	0.0167231
742.643	0.0166602
742.721	0.0165939
742.799	0.0165433
742.878	0.0165533
742.956	0.0166844
743.034	0.0165857
743.112	0.0165408
743.190	0.0165644
743.268	0.0165127
743.346	0.0165297
743.424	0.0165669
743.503	0.0164919
743.581	0.0165129
743.659	0.0166131
743.737	0.0165623
743.815	0.0165470
743.893	0.0165421
743.971	0.0165891
744.049	0.0165395
744.128	0.0165218
744.206	0.0163929
744.284	0.0165569
744.362	0.0165554
744.440	0.0164248
744.518	0.0163835
744.596	0.0164182
744.674	0.0165469
744.753	0.0165627
744.831	0.0164916
744.909	0.0164502
744.987	0.0163891
745.065	0.0164585
745.143	0.0164583
745.221	0.0165208
745.299	0.0165040
745.378	0.0165054
745.456	0.0164428
745.534	0.0164773
745.612	0.0165174
745.690	0.0164146
745.768	0.0165401
745.846	0.0165488
745.924	0.0164753
746.003	0.0164561
746.081	0.0164720
746.159	0.0164518
746.237	0.0163546
746.315	0.0166482
746.393	0.0166061
746.471	0.0164197
746.549	0.0165198
746.628	0.0164187
746.706	0.0163827
746.784	0.0165423
746.862	0.0165343
746.940	0.0165419
747.018	0.0164912
747.096	0.0165178
747.174	0.0165882
747.253	0.0164761
747.331	0.0164159
747.409	0.0164950
747.487	0.0164522
747.565	0.0163914
747.643	0.0165115
747.721	0.0165313
747.799	0.0163551
747.878	0.0163841
747.956	0.0163432
748.034	0.0164246
748.112	0.0163248
748.190	0.0162667
748.268	0.0163963
748.346	0.0163517
748.424	0.0162527
748.503	0.0165083
748.581	0.0163574
748.659	0.0163122
748.737	0.0163655
748.815	0.0162803
748.893	0.0164124
748.971	0.0163599
749.049	0.0164327
749.128	0.0164480
749.206	0.0163999
749.284	0.0163202
749.362	0.0164494
749.440	0.0164016
749.518	0.0164739
749.596	0.0165375
749.674	0.0166702
749.753	0.0166117
749.831	0.0163359
749.909	0.0165255
749.987	0.0166852
750.065	0.0165205
750.143	0.0166777
750.221	0.0167522
750.299	0.0165797
750.378	0.0166817
750.456	0.0167015
750.534	0.0167249
750.612	0.0168266
750.690	0.0167713
750.768	0.0167613
750.846	0.0167105
750.924	0.0168237
751.003	0.0169173
751.081	0.0166866
751.159	0.0168002
751.237	0.0168037
751.315	0.0169698
751.393	0.0167020
751.471	0.0168838
751.549	0.0169373
751.628	0.0168237
751.706	0.0167653
751.784	0.0168352
751.862	0.0169128
751.940	0.0168456
752.018	0.0168429
752.096	0.0168258
752.174	0.0168719
752.253	0.0167128
752.331	0.0166794
752.409	0.0168746
752.487	0.0168204
752.565	0.0169633
752.643	0.0167625
752.721	0.0167192
752.799	0.0167498
752.878	0.0167047
752.956	0.0167651
753.034	0.0167542
753.112	0.0168704
753.190	0.0167548
753.268	0.0166712
753.346	0.0167641
753.424	0.0168549
753.503	0.0167213
753.581	0.0167326
753.659	0.0166424
753.737	0.0166563
753.815	0.0166775
753.893	0.0167184
753.971	0.0166769
754.049	0.0167293
754.128	0.0167226
754.206	0.0166543
754.284	0.0165574
754.362	0.0166845
754.440	0.0167501
754.518	0.0166186
754.596	0.0167736
754.674	0.0168124
754.753	0.0166432
754.831	0.0167148
754.909	0.0166492
754.987	0.0167253
755.065	0.0167704
755.143	0.0167229
755.221	0.0166447
755.299	0.0167237
755.378	0.0167390
755.456	0.0166241
755.534	0.0167344
755.612	0.0165884
755.690	0.0166353
755.768	0.0167160
755.846	0.0167490
755.924	0.0166246
756.003	0.0166689
756.081	0.0165514
756.159	0.0165936
756.237	0.0164773
756.315	0.0167312
756.393	0.0166821
756.471	0.0164233
756.549	0.0166104
756.628	0.0165052
756.706	0.0165131
756.784	0.0165126
756.862	0.0164797
756.940	0.0165797
757.018	0.0165321
757.096	0.0163983
757.174	0.0164167
757.253	0.0163981
757.331	0.0165535
757.409	0.0164744
757.487	0.0163815
757.565	0.0165234
757.643	0.0165663
757.721	0.0164169
757.799	0.0162737
757.878	0.0164590
757.956	0.0164652
758.034	0.0163383
758.112	0.0163400
758.190	0.0164179
758.268	0.0164188
758.346	0.0162601
758.424	0.0163213
758.503	0.0164879
758.581	0.0163865
758.659	0.0166228
758.737	0.0164281
758.815	0.0164079
758.893	0.0165924
758.971	0.0165221
759.049	0.0165309
759.128	0.0164693
759.206	0.0165981
759.284	0.0166621
759.362	0.0165614
759.440	0.0165821
759.518	0.0165208
759.596	0.0166342
759.674	0.0165365
759.753	0.0164079
759.831	0.0165333
759.909	0.0164711
759.987	0.0165501
760.065	0.0165324
760.143	0.0164394
760.221	0.0166001
760.299	0.0165452
760.378	0.0164561
760.456	0.0165114
760.534	0.0165350
760.612	0.0164279
760.690	0.0165029
760.768	0.0165094
760.846	0.0166473
760.924	0.0165781
761.003	0.0164816
761.081	0.0166451
761.159	0.0166091
761.237	0.0166109
761.315	0.0166039
761.393	0.0165771
761.471	0.0164970
761.549	0.0165580
761.628	0.0165710
761.706	0.0164839
761.784	0.0165701
761.862	0.0166487
761.940	0.0165683
762.018	0.0167045
762.096	0.0166656
762.174	0.0166761
762.253	0.0167360
762.331	0.0167278
762.409	0.0166521
762.487	0.0165746
762.565	0.0166821
762.643	0.0165469
762.721	0.0166059
762.799	0.0166606
762.878	0.0168423
762.956	0.0166626
763.034	0.0165435
763.112	0.0167605
763.190	0.0167795
763.268	0.0167157
763.346	0.0167950
763.424	0.0166119
763.503	0.0168287
763.581	0.0167192
763.659	0.0167000
763.737	0.0166859
763.815	0.0166368
763.893	0.0166552
763.971	0.0166423
764.049	0.0166359
764.128	0.0166430
764.206	0.0164786
764.284	0.0166257
764.362	0.0166814
764.440	0.0166577
764.518	0.0166298
764.596	0.0166859
764.674	0.0167018
764.753	0.0165165
764.831	0.0165965
764.909	0.0164381
764.987	0.0164624
765.065	0.0166340
765.143	0.0164471
765.221	0.0165109
765.299	0.0165453
765.378	0.0165306
765.456	0.0163548
765.534	0.0164975
765.612	0.0165591
765.690	0.0163087
765.768	0.0162122
765.846	0.0164256
765.924	0.0164236
766.003	0.0163906
766.081	0.0164259
766.159	0.0162869
766.237	0.0165057
766.315	0.0164422
766.393	0.0164480
766.471	0.0165448
766.549	0.0164207
766.628	0.0164922
766.706	0.0165291
766.784	0.0166125
766.862	0.0164998
766.940	0.0164654
767.018	0.0166768
767.096	0.0166302
767.174	0.0165884
767.253	0.0165039
767.331	0.0166348
767.409	0.0167733
767.487	0.0166965
767.565	0.0166838
767.643	0.0166462
767.721	0.0166509
767.799	0.0166523
767.878	0.0166060
767.956	0.0168173
768.034	0.0167783
768.112	0.0168758
768.190	0.0168320
768.268	0.0168465
768.346	0.0167653
768.424	0.0167160
768.503	0.0166618
768.581	0.0168403
768.659	0.0167854
768.737	0.0167300
768.815	0.0166401
768.893	0.0167099
768.971	0.0166331
769.049	0.0167458
769.128	0.0166320
769.206	0.0167526
769.284	0.0167038
769.362	0.0166899
769.440	0.0167514
769.518	0.0166270
769.596	0.0166311
769.674	0.0167712
769.753	0.0167294
769.831	0.0167463
769.909	0.0166749
769.987	0.0166257
770.065	0.0166615
770.143	0.0165978
770.221	0.0167636
770.299	0.0167908
770.378	0.0167594
770.456	0.0167561
770.534	0.0168124
770.612	0.0168494
770.690	0.0167389
770.768	0.0167794
770.846	0.0168226
770.924	0.0168987
771.003	0.0168278
771.081	0.0168492
771.159	0.0167356
771.237	0.0165672
771.315	0.0167075
771.393	0.0166912
771.471	0.0167002
771.549	0.0167304
771.628	0.0167386
771.706	0.0165292
771.784	0.0165545
771.862	0.0164532
771.940	0.0164380
772.018	0.0164107
772.096	0.0164555
772.174	0.0164175
772.253	0.0162648
772.331	0.0162732
772.409	0.0162404
772.487	0.0163552
772.565	0.0162732
772.643	0.0162177
772.721	0.0163634
772.799	0.0161890
772.878	0.0163271
772.956	0.0162531
773.034	0.0161868
773.112	0.0162720
773.190	0.0162672
773.268	0.0163139
773.346	0.0164532
773.424	0.0164769
773.503	0.0165446
773.581	0.0165597
773.659	0.0165786
773.737	0.0164819
773.815	0.0166805
773.893	0.0165176
773.971	0.0166447
774.049	0.0167578
774.128	0.0166985
774.206	0.0168420
774.284	0.0167403
774.362	0.0167931
774.440	0.0166255
774.518	0.0167692
774.596	0.0167846
774.674	0.0167738
774.753	0.0166208
774.831	0.0167216
774.909	0.0167665
774.987	0.0166139
775.065	0.0165530
775.143	0.0167110
775.221	0.0165693
775.299	0.0165861
775.378	0.0165852
775.456	0.0166346
775.534	0.0165747
775.612	0.0167651
775.690	0.0166811
775.768	0.0166418
775.846	0.0167873
775.924	0.0166338
776.003	0.0165565
776.081	0.0167719
776.159	0.0167815
776.237	0.0167645
776.315	0.0167435
776.393	0.0167619
776.471	0.0167931
776.549	0.0166380
776.628	0.0168814
776.706	0.0167253
776.784	0.0166964
776.862	0.0167371
776.940	0.0169530
777.018	0.0167922
777.096	0.0165742
777.174	0.0167958
777.253	0.0167181
777.331	0.0166084
777.409	0.0167972
777.487	0.0167551
777.565	0.0166186
777.643	0.0166283
777.721	0.0167742
777.799	0.0167723
777.878	0.0167336
777.956	0.0166237
778.034	0.0167417
778.112	0.0167675
778.190	0.0167941
778.268	0.0167268
778.346	0.0167657
778.424	0.0167992
778.503	0.0169461
778.581	0.0168318
778.659	0.0167149
778.737	0.0166925
778.815	0.0167709
778.893	0.0169966
778.971	0.0168441
779.049	0.0167197
779.128	0.0167131
779.206	0.0167809
779.284	0.0166962
779.362	0.0167070
779.440	0.0165934
779.518	0.0164725
779.596	0.0165839
779.674	0.0165582
779.753	0.0163829
779.831	0.0164312
779.909	0.0165677
779.987	0.0165157
780.065	0.0164858
780.143	0.0164963
780.221	0.0163416
780.299	0.0165293
780.378	0.0167180
780.456	0.0166244
780.534	0.0164381
780.612	0.0164017
780.690	0.0164572
780.768	0.0163824
780.846	0.0166292
780.924	0.0165214
781.003	0.0165209
781.081	0.0165665
781.159	0.0163559
781.237	0.0164348
781.315	0.0165237
781.393	0.0164522
781.471	0.0165617
781.549	0.0165587
781.628	0.0165889
781.706	0.0165649
781.784	0.0164986
781.862	0.0166520
781.940	0.0165111
782.018	0.0165107
782.096	0.0165302
782.174	0.0166707
782.253	0.0166817
782.331	0.0167428
782.409	0.0166780
782.487	0.0166339
782.565	0.0165665
782.643	0.0167009
782.721	0.0165717
782.799	0.0166450
782.878	0.0167003
782.956	0.0166930
783.034	0.0167574
783.112	0.0166476
783.190	0.0169184
783.268	0.0167763
783.346	0.0166761
783.424	0.0167915
783.503	0.0168211
783.581	0.0167480
783.659	0.0168583
783.737	0.0168925
783.815	0.0167842
783.893	0.0165762
783.971	0.0166784
784.049	0.0167120
784.128	0.0166618
784.206	0.0165910
784.284	0.0166033
784.362	0.0165945
784.440	0.0165298
784.518	0.0165122
784.596	0.0165366
784.674	0.0165667
784.753	0.0165987
784.831	0.0165746
784.909	0.0164104
784.987	0.0163878
785.065	0.0164807
785.143	0.0164519
785.221	0.0164523
785.299	0.0162707
785.378	0.0163780
785.456	0.0164539
785.534	0.0164130
785.612	0.0163840
785.690	0.0165417
785.768	0.0165025
785.846	0.0165635
785.924	0.0165730
786.003	0.0165366
786.081	0.0165423
786.159	0.0166171
786.237	0.0165014
786.315	0.0165414
786.393	0.0166499
786.471	0.0167347
786.549	0.0167433
786.628	0.0166172
786.706	0.0167522
786.784	0.0167587
786.862	0.0166108
786.940	0.0167191
787.018	0.0166766
787.096	0.0165763
787.174	0.0168196
787.253	0.0166455
787.331	0.0165875
787.409	0.0167295
787.487	0.0167333
787.565	0.0165728
787.643	0.0165538
787.721	0.0165953
787.799	0.0165693
787.878	0.0165987
787.956	0.0164297
788.034	0.0166326
788.112	0.0165960
788.190	0.0165749
788.268	0.0166086
788.346	0.0166082
788.424	0.0164113
788.503	0.0166000
788.581	0.0165271
788.659	0.0167422
788.737	0.0167818
788.815	0.0166190
788.893	0.0165911
788.971	0.0168011
789.049	0.0169047
789.128	0.0167990
789.206	0.0169783
789.284	0.0167434
789.362	0.0168094
789.440	0.0168268
789.518	0.0168320
789.596	0.0169178
789.674	0.0168750
789.753	0.0168264
789.831	0.0168851
789.909	0.0167336
789.987	0.0167981
790.065	0.0167858
790.143	0.0166058
790.221	0.0166517
790.299	0.0166656
790.378	0.0166824
790.456	0.0167508
790.534	0.0165536
790.612	0.0166061
790.690	0.0165327
790.768	0.0166690
790.846	0.0167160
790.924	0.0165404
791.003	0.0165244
791.081	0.0164816
791.159	0.0166316
791.237	0.0166322
791.315	0.0166244
791.393	0.0165157
791.471	0.0166843
791.549	0.0167268
791.628	0.0166418
791.706	0.0165572
791.784	0.0166249
791.862	0.0166547
791.940	0.0167515
792.018	0.0167197
792.096	0.0167147
792.174	0.0166337
792.253	0.0166452
792.331	0.0166654
792.409	0.0166091
792.487	0.0168062
792.565	0.0167203
792.643	0.0166753
792.721	0.0167079
792.799	0.0165004
792.878	0.0166972
792.956	0.0165622
793.034	0.0165553
793.112	0.0165951
793.190	0.0167365
793.268	0.0166223
793.346	0.0164639
793.424	0.0165961
793.503	0.0165268
793.581	0.0165486
793.659	0.0165429
793.737	0.0165829
793.815	0.0165453
793.893	0.0166997
793.971	0.0165736
794.049	0.0165798
794.128	0.0167365
794.206	0.0166557
794.284	0.0166045
794.362	0.0167444
794.440	0.0167888
794.518	0.0168435
794.596	0.0167638
794.674	0.0169691
794.753	0.0170160
794.831	0.0168293
794.909	0.0168732
794.987	0.0169590
795.065	0.0169548
795.143	0.0169139
795.221	0.0169301
795.299	0.0168777
795.378	0.0169138
795.456	0.0169974
795.534	0.0167555
795.612	0.0167593
795.690	0.0166780
795.768	0.0166220
795.846	0.0168047
795.924	0.0166408
796.003	0.0166217
796.081	0.0165723
796.159	0.0167008
796.237	0.0166056
796.315	0.0166014
796.393	0.0164045
796.471	0.0165990
796.549	0.0164047
796.628	0.0165270
796.706	0.0164434
796.784	0.0165524
796.862	0.0164928
796.940	0.0163316
797.018	0.0164572
797.096	0.0163422
797.174	0.0164951
797.253	0.0164305
797.331	0.0165773
797.409	0.0163754
797.487	0.0164400
797.565	0.0164977
797.643	0.0164895
797.721	0.0164421
797.799	0.0165698
797.878	0.0164445
797.956	0.0164690
798.034	0.0164429
798.112	0.0165584
798.190	0.0164795
798.268	0.0164650
798.346	0.0165165
798.424	0.0166668
798.503	0.0166793
798.581	0.0166430
798.659	0.0166780
798.737	0.0166093
798.815	0.0168172
798.893	0.0166033
798.971	0.0167799
799.049	0.0168658
799.128	0.0168578
799.206	0.0167982
799.284	0.0167961
799.362	0.0168188
799.440	0.0167600
799.518	0.0167364
799.596	0.0168144
799.674	0.0167390
799.753	0.0167905
799.831	0.0166794
799.909	0.0167535
799.987	0.0166681
800.065	0.0167814
800.143	0.0166843
800.221	0.0166052
800.299	0.0167348
800.378	0.0166550
800.456	0.0165391
800.534	0.0165379
800.612	0.0166393
800.690	0.0165854
800.768	0.0165617
800.846	0.0164418
800.924	0.0164545
801.003	0.0164857
801.081	0.0166087
801.159	0.0165398
801.237	0.0163840
801.315	0.0165910
801.393	0.0165676
801.471	0.0164613
801.549	0.0165115
801.628	0.0165069
801.706	0.0166403
801.784	0.0164835
801.862	0.0166486
801.940	0.0166055
802.018	0.0167295
802.096	0.0166302
802.174	0.0165420
802.253	0.0166192
802.331	0.0166200
802.409	0.0165520
802.487	0.0165793
802.565	0.0165501
802.643	0.0165258
802.721	0.0166119
802.799	0.0165772
802.878	0.0165996
802.956	0.0166224
803.034	0.0165849
803.112	0.0165647
803.190	0.0164945
803.268	0.0165395
803.346	0.0165609
803.424	0.0165020
803.503	0.0165675
803.581	0.0167017
803.659	0.0165612
803.737	0.0165144
803.815	0.0166596
803.893	0.0165620
803.971	0.0165768
804.049	0.0166328
804.128	0.0166602
804.206	0.0166460
804.284	0.0166334
804.362	0.0166406
804.440	0.0166919
804.518	0.0167896
804.596	0.0166900
804.674	0.0167907
804.753	0.0168884
804.831	0.0167546
804.909	0.0168745
804.987	0.0168831
805.065	0.0167713
805.143	0.0168842
805.221	0.0168423
805.299	0.0168080
805.378	0.0166574
805.456	0.0166234
805.534	0.0166827
805.612	0.0166148
805.690	0.0166273
805.768	0.0166102
805.846	0.0166193
805.924	0.0164471
806.003	0.0164322
806.081	0.0164206
806.159	0.0165456
806.237	0.0164054
806.315	0.0164707
806.393	0.0164180
806.471	0.0164151
806.549	0.0163846
806.628	0.0166024
806.706	0.0163438
806.784	0.0164960
806.862	0.0165542
806.940	0.0166373
807.018	0.0165131
807.096	0.0165115
807.174	0.0165930
807.253	0.0167062
807.331	0.0167226
807.409	0.0169820
807.487	0.0168834
807.565	0.0166105
807.643	0.0166416
807.721	0.0168428
807.799	0.0167696
807.878	0.0167887
807.956	0.0167799
808.034	0.0169289
808.112	0.0168135
808.190	0.0167876
808.268	0.0168353
808.346	0.0166233
808.424	0.0167277
808.503	0.0166988
808.581	0.0167966
808.659	0.0166492
808.737	0.0165768
808.815	0.0166643
808.893	0.0166699
808.971	0.0166535
809.049	0.0165781
809.128	0.0166479
809.206	0.0166170
809.284	0.0167442
809.362	0.0165586
809.440	0.0166290
809.518	0.0167162
809.596	0.0166640
809.674	0.0165910
809.753	0.0166827
809.831	0.0167280
809.909	0.0165507
809.987	0.0165125
810.065	0.0167015
810.143	0.0165564
810.221	0.0167202
810.299	0.0168185
810.378	0.0166543
810.456	0.0166319
810.534	0.0164958
810.612	0.0166152
810.690	0.0165816
810.768	0.0167461
810.846	0.0166100
810.924	0.0165985
811.003	0.0166001
811.081	0.0167512
811.159	0.0166666
811.237	0.0166533
811.315	0.0167144
811.393	0.0164125
811.471	0.0164220
811.549	0.0165780
811.628	0.0165440
811.706	0.0165353
811.784	0.0166025
811.862	0.0166506
811.940	0.0165203
812.018	0.0165639
812.096	0.0165499
812.174	0.0166256
812.253	0.0165900
812.331	0.0165144
812.409	0.0164494
812.487	0.0165186
812.565	0.0166663
812.643	0.0164957
812.721	0.0166070
812.799	0.0166533
812.878	0.0165836
812.956	0.0164158
813.034	0.0165647
813.112	0.0166300
813.190	0.0167506
813.268	0.0166034
813.346	0.0165997
813.424	0.0167086
813.503	0.0165612
813.581	0.0166218
813.659	0.0165308
813.737	0.0166229
813.815	0.0165670
813.893	0.0167032
813.971	0.0165179
814.049	0.0163927
814.128	0.0166412
814.206	0.0166919
814.284	0.0163963
814.362	0.0165142
814.440	0.0166180
814.518	0.0166002
814.596	0.0165055
814.674	0.0165108
814.753	0.0164505
814.831	0.0165697
814.909	0.0165044
814.987	0.0164949
815.065	0.0165425
815.143	0.0165347
815.221	0.0165987
815.299	0.0165272
815.378	0.0165291
815.456	0.0165942
815.534	0.0166062
815.612	0.0165152
815.690	0.0165037
815.768	0.0165672
815.846	0.0165992
815.924	0.0165594
816.003	0.0164168
816.081	0.0165091
816.159	0.0166830
816.237	0.0164335
816.315	0.0164350
816.393	0.0165908
816.471	0.0164827
816.549	0.0165390
816.628	0.0165746
816.706	0.0164191
816.784	0.0165386
816.862	0.0165838
816.940	0.0163969
817.018	0.0165275
817.096	0.0165167
817.174	0.0165163
817.253	0.0166151
817.331	0.0166140
817.409	0.0166599
817.487	0.0168346
817.565	0.0167755
817.643	0.0167854
817.721	0.0167545
817.799	0.0167223
817.878	0.0168605
817.956	0.0169176
818.034	0.0168162
818.112	0.0167575
818.190	0.0168296
818.268	0.0169127
818.346	0.0168502
818.424	0.0167407
818.503	0.0167301
818.581	0.0168205
818.659	0.0168593
818.737	0.0166849
818.815	0.0166676
818.893	0.0168297
818.971	0.0168787
819.049	0.0168232
819.128	0.0166177
819.206	0.0165823
819.284	0.0166971
819.362	0.0166965
819.440	0.0166986
819.518	0.0164783
819.596	0.0165739
819.674	0.0165057
819.753	0.0166368
819.831	0.0165778
819.909	0.0166225
819.987	0.0165847
820.065	0.0165664
820.143	0.0166195
820.221	0.0166241
820.299	0.0166035
820.378	0.0167258
820.456	0.0166125
820.534	0.0166230
820.612	0.0167539
820.690	0.0167775
820.768	0.0166726
820.846	0.0167181
820.924	0.0167622
821.003	0.0167233
821.081	0.0166259
821.159	0.0167651
821.237	0.0166933
821.315	0.0167568
821.393	0.0166618
821.471	0.0168620
821.549	0.0168788
821.628	0.0169050
821.706	0.0168157
821.784	0.0168296
821.862	0.0167533
821.940	0.0168362
822.018	0.0167964
822.096	0.0167459
822.174	0.0167611
822.253	0.0166513
822.331	0.0168272
822.409	0.0166205
822.487	0.0164871
822.565	0.0166415
822.643	0.0165770
822.721	0.0165344
822.799	0.0166167
822.878	0.0166092
822.956	0.0164694
823.034	0.0165510
823.112	0.0165331
823.190	0.0163639
823.268	0.0163757
823.346	0.0165174
823.424	0.0165444
823.503	0.0165588
823.581	0.0164653
823.659	0.0165140
823.737	0.0164261
823.815	0.0164562
823.893	0.0164012
823.971	0.0163805
824.049	0.0164642
824.128	0.0164223
824.206	0.0163078
824.284	0.0163499
824.362	0.0165596
824.440	0.0164970
824.518	0.0164560
824.596	0.0164782
824.674	0.0164964
824.753	0.0163837
824.831	0.0164468
824.909	0.0165103
824.987	0.0164700
825.065	0.0165321
825.143	0.0164559
825.221	0.0165807
825.299	0.0163959
825.378	0.0164671
825.456	0.0166534
825.534	0.0166704
825.612	0.0165267
825.690	0.0166312
825.768	0.0166531
825.846	0.0165440
825.924	0.0166348
826.003	0.0168400
826.081	0.0168458
826.159	0.0167092
826.237	0.0166890
826.315	0.0166856
826.393	0.0167805
826.471	0.0167671
826.549	0.0167545
826.628	0.0167046
826.706	0.0166213
826.784	0.0167089
826.862	0.0168248
826.940	0.0167912
827.018	0.0167382
827.096	0.0166323
827.174	0.0167572
827.253	0.0166717
827.331	0.0167175
827.409	0.0167207
827.487	0.0166994
827.565	0.0167271
827.643	0.0167663
827.721	0.0165826
827.799	0.0165851
827.878	0.0166465
827.956	0.0166337
828.034	0.0165511
828.112	0.0166182
828.190	0.0167208
828.268	0.0165448
828.346	0.0165643
828.424	0.0165356
828.503	0.0166692
828.581	0.0165247
828.659	0.0166008
828.737	0.0166548
828.815	0.0165672
828.893	0.0166557
828.971	0.0163979
829.049	0.0164310
829.128	0.0165475
829.206	0.0163624
829.284	0.0163850
829.362	0.0164348
829.440	0.0163698
829.518	0.0164808
829.596	0.0165704
829.674	0.0163815
829.753	0.0165488
829.831	0.0163277
829.909	0.0163470
829.987	0.0162724
830.065	0.0163524
830.143	0.0163208
830.221	0.0163648
830.299	0.0164568
830.378	0.0165185
830.456	0.0164135
830.534	0.0163074
830.612	0.0163166
830.690	0.0165098
830.768	0.0163232
830.846	0.0165292
830.924	0.0163573
831.003	0.0163650
831.081	0.0164449
831.159	0.0164375
831.237	0.0165286
831.315	0.0164182
831.393	0.0164629
831.471	0.0166265
831.549	0.0165823
831.628	0.0165791
831.706	0.0166865
831.784	0.0167548
831.862	0.0165859
831.940	0.0164589
832.018	0.0167168
832.096	0.0166870
832.174	0.0166840
832.253	0.0166706
832.331	0.0167245
832.409	0.0167433
832.487	0.0166250
832.565	0.0167839
832.643	0.0167961
832.721	0.0168295
832.799	0.0166756
832.878	0.0168420
832.956	0.0167048
833.034	0.0167477
833.112	0.0168493
833.190	0.0167004
833.268	0.0165942
833.346	0.0167391
833.424	0.0166930
833.503	0.0167776
833.581	0.0167622
833.659	0.0167999
833.737	0.0167915
833.815	0.0167763
833.893	0.0168678
833.971	0.0168201
834.049	0.0167922
834.128	0.0166251
834.206	0.0167124
834.284	0.0167870
834.362	0.0166376
834.440	0.0167847
834.518	0.0166489
834.596	0.0166557
834.674	0.0167448
834.753	0.0168225
834.831	0.0167238
834.909	0.0166899
834.987	0.0168033
835.065	0.0167039
835.143	0.0168189
835.221	0.0167379
835.299	0.0166278
835.378	0.0165870
835.456	0.0166705
835.534	0.0166024
835.612	0.0166049
835.690	0.0166125
835.768	0.0166505
835.846	0.0166247
835.924	0.0165556
836.003	0.0166434
836.081	0.0165498
836.159	0.0166064
836.237	0.0165804
836.315	0.0167854
836.393	0.0167408
836.471	0.0167081
836.549	0.0167096
836.628	0.0167225
836.706	0.0166962
836.784	0.0167467
836.862	0.0168080
836.940	0.0167207
837.018	0.0168510
837.096	0.0166542
837.174	0.0169361
837.253	0.0168627
837.331	0.0168681
837.409	0.0167658
837.487	0.0166899
837.565	0.0167372
837.643	0.0165826
837.721	0.0167187
837.799	0.0167170
837.878	0.0167406
837.956	0.0165810
838.034	0.0165650
838.112	0.0164680
838.190	0.0165328
838.268	0.0165031
838.346	0.0165612
838.424	0.0165522
838.503	0.0164502
838.581	0.0163734
838.659	0.0165102
838.737	0.0164465
838.815	0.0164295
838.893	0.0164140
838.971	0.0165308
839.049	0.0163887
839.128	0.0162784
839.206	0.0163292
839.284	0.0163533
839.362	0.0163737
839.440	0.0162989
839.518	0.0163898
839.596	0.0164741
839.674	0.0163354
839.753	0.0162671
839.831	0.0163168
839.909	0.0162920
839.987	0.0162867
840.065	0.0163357
840.143	0.0163407
840.221	0.0164796
840.299	0.0165072
840.378	0.0164244
840.456	0.0165639
840.534	0.0165709
840.612	0.0165303
840.690	0.0165993
840.768	0.0166893
840.846	0.0165484
840.924	0.0166498
841.003	0.0165038
841.081	0.0165015
841.159	0.0165737
841.237	0.0164864
841.315	0.0165239
841.393	0.0165557
841.471	0.0165270
841.549	0.0165631
841.628	0.0163612
841.706	0.0166033
841.784	0.0165836
841.862	0.0165533
841.940	0.0165545
842.018	0.0166814
842.096	0.0165810
842.174	0.0166622
842.253	0.0166223
842.331	0.0167381
842.409	0.0167803
842.487	0.0166535
842.565	0.0166591
842.643	0.0166582
842.721	0.0165580
842.799	0.0166383
842.878	0.0166402
842.956	0.0166127
843.034	0.0166071
843.112	0.0166089
843.190	0.0165729
843.268	0.0166129
843.346	0.0165330
843.424	0.0166038
843.503	0.0166125
843.581	0.0166785
843.659	0.0167299
843.737	0.0167167
843.815	0.0165518
843.893	0.0164946
843.971	0.0166259
844.049	0.0165478
844.128	0.0165807
844.206	0.0165837
844.284	0.0164299
844.362	0.0165587
844.440	0.0165826
844.518	0.0164043
844.596	0.0165480
844.674	0.0165457
844.753	0.0164737
844.831	0.0164485
844.909	0.0163927
844.987	0.0164677
845.065	0.0165334
845.143	0.0165849
845.221	0.0165161
845.299	0.0167192
845.378	0.0164600
845.456	0.0165364
845.534	0.0165358
845.612	0.0165233
845.690	0.0165793
845.768	0.0164939
845.846	0.0164214
845.924	0.0164690
846.003	0.0164835
846.081	0.0165700
846.159	0.0164576
846.237	0.0164868
846.315	0.0165160
846.393	0.0165847
846.471	0.0166760
846.549	0.0165514
846.628	0.0164880
846.706	0.0164265
846.784	0.0165804
846.862	0.0165908
846.940	0.0164939
847.018	0.0166357
847.096	0.0166286
847.174	0.0165421
847.253	0.0166158
847.331	0.0167152
847.409	0.0167003
847.487	0.0166298
847.565	0.0166312
847.643	0.0165928
847.721	0.0166178
847.799	0.0166265
847.878	0.0166096
847.956	0.0165784
848.034	0.0166649
848.112	0.0167418
848.190	0.0168208
848.268	0.0166625
848.346	0.0165338
848.424	0.0165926
848.503	0.0166559
848.581	0.0167057
848.659	0.0166230
848.737	0.0164961
848.815	0.0166653
848.893	0.0165853
848.971	0.0164834
849.049	0.0165533
849.128	0.0164959
849.206	0.0164690
849.284	0.0164164
849.362	0.0166305
849.440	0.0163319
849.518	0.0164137
849.596	0.0165409
849.674	0.0164709
849.753	0.0164742
849.831	0.0163390
849.909	0.0164030
849.987	0.0163182
850.065	0.0164354
850.143	0.0163721
850.221	0.0163601
850.299	0.0164550
850.378	0.0164003
850.456	0.0164164
850.534	0.0162918
850.612	0.0162937
850.690	0.0162463
850.768	0.0163514
850.846	0.0163626
850.924	0.0163503
851.003	0.0163481
851.081	0.0163047
851.159	0.0164137
851.237	0.0164362
851.315	0.0164661
851.393	0.0164780
851.471	0.0164564
851.549	0.0165641
851.628	0.0165224
851.706	0.0165615
851.784	0.0165536
851.862	0.0165190
851.940	0.0166414
852.018	0.0164561
852.096	0.0166210
852.174	0.0165803
852.253	0.0167113
852.331	0.0164968
852.409	0.0165119
852.487	0.0166403
852.565	0.0165936
852.643	0.0166859
852.721	0.0168072
852.799	0.0167122
852.878	0.0167815
852.956	0.0167267
853.034	0.0167332
853.112	0.0167018
853.190	0.0168740
853.268	0.0167896
853.346	0.0166881
853.424	0.0168208
853.503	0.0168433
853.581	0.0167902
853.659	0.0167137
853.737	0.0166853
853.815	0.0168136
853.893	0.0167590
853.971	0.0168749
854.049	0.0166235
854.128	0.0167639
854.206	0.0167040
854.284	0.0168253
854.362	0.0167450
854.440	0.0166252
854.518	0.0165892
854.596	0.0163889
854.674	0.0166635
854.753	0.0167461
854.831	0.0166821
854.909	0.0166273
854.987	0.0164303
855.065	0.0165915
855.143	0.0166682
855.221	0.0164951
855.299	0.0164452
855.378	0.0166012
855.456	0.0165990
855.534	0.0166975
855.612	0.0166261
855.690	0.0165616
855.768	0.0165714
855.846	0.0166557
855.924	0.0165562
856.003	0.0165910
856.081	0.0164678
856.159	0.0164996
856.237	0.0165583
856.315	0.0165863
856.393	0.0165877
856.471	0.0165434
856.549	0.0163898
856.628	0.0163982
856.706	0.0165459
856.784	0.0165720
856.862	0.0165044
856.940	0.0165496
857.018	0.0166114
857.096	0.0165984
857.174	0.0165563
857.253	0.0165707
857.331	0.0165771
857.409	0.0166022
857.487	0.0167770
857.565	0.0167651
857.643	0.0165111
857.721	0.0167183
857.799	0.0167265
857.878	0.0167327
857.956	0.0166225
858.034	0.0167243
858.112	0.0168140
858.190	0.0167873
858.268	0.0167069
858.346	0.0166947
858.424	0.0165924
858.503	0.0165196
858.581	0.0165916
858.659	0.0164622
858.737	0.0167497
858.815	0.0165817
858.893	0.0166387
858.971	0.0166573
859.049	0.0165629
859.128	0.0166119
859.206	0.0165475
859.284	0.0164729
859.362	0.0165391
859.440	0.0166440
859.518	0.0164956
859.596	0.0165594
859.674	0.0165081
859.753	0.0164883
859.831	0.0163841
859.909	0.0164705
