06/01/2022	17:15:23	Ver.	4.1	UNKNOWN
Optical Delay	599.981738	Delta X		0.078125	Sweeps	1	Scan Rate	0/0
Coordinates	Axis 1	NaN	Axis 2	NaN	Axis 3	NaN	Axis 4	NaN	Axis 5	NaN	Axis 6	0.000000
TX Power	0.000000	RX Power	0.000000

599.982	0.0161868
600.060	0.0161191
600.138	0.0160409
600.216	0.0160147
600.294	0.0161905
600.372	0.0161783
600.450	0.0162405
600.529	0.0161220
600.607	0.0161787
600.685	0.0160563
600.763	0.0160546
600.841	0.0161414
600.919	0.0162115
600.997	0.0161436
601.075	0.0161807
601.154	0.0161700
601.232	0.0160403
601.310	0.0161023
601.388	0.0162009
601.466	0.0161388
601.544	0.0163143
601.622	0.0161125
601.700	0.0160793
601.779	0.0161825
601.857	0.0161233
601.935	0.0161254
602.013	0.0161860
602.091	0.0160621
602.169	0.0161229
602.247	0.0161859
602.325	0.0160569
602.404	0.0160862
602.482	0.0162296
602.560	0.0160493
602.638	0.0161227
602.716	0.0162523
602.794	0.0161016
602.872	0.0161821
602.950	0.0162054
603.029	0.0162155
603.107	0.0160566
603.185	0.0161645
603.263	0.0162521
603.341	0.0161408
603.419	0.0161002
603.497	0.0162325
603.575	0.0161828
603.654	0.0161569
603.732	0.0160751
603.810	0.0162444
603.888	0.0161810
603.966	0.0162643
604.044	0.0161849
604.122	0.0161441
604.200	0.0160950
604.279	0.0161065
604.357	0.0162505
604.435	0.0162531
604.513	0.0162682
604.591	0.0162243
604.669	0.0160892
604.747	0.0161295
604.825	0.0161276
604.904	0.0160477
604.982	0.0160737
605.060	0.0161211
605.138	0.0162045
605.216	0.0161914
605.294	0.0160776
605.372	0.0161754
605.450	0.0161912
605.529	0.0162254
605.607	0.0161536
605.685	0.0161633
605.763	0.0161382
605.841	0.0161962
605.919	0.0162446
605.997	0.0161414
606.075	0.0161629
606.154	0.0161352
606.232	0.0161587
606.310	0.0160650
606.388	0.0162598
606.466	0.0162191
606.544	0.0161515
606.622	0.0162451
606.700	0.0162352
606.779	0.0161250
606.857	0.0161713
606.935	0.0160956
607.013	0.0161053
607.091	0.0162260
607.169	0.0162487
607.247	0.0161894
607.325	0.0161566
607.404	0.0161958
607.482	0.0161468
607.560	0.0161658
607.638	0.0162385
607.716	0.0162085
607.794	0.0161254
607.872	0.0161434
607.950	0.0161972
608.029	0.0161938
608.107	0.0163133
608.185	0.0161189
608.263	0.0161248
608.341	0.0161761
608.419	0.0161725
608.497	0.0160457
608.575	0.0161887
608.654	0.0161831
608.732	0.0161432
608.810	0.0161875
608.888	0.0163700
608.966	0.0162018
609.044	0.0161716
609.122	0.0162546
609.200	0.0162098
609.279	0.0160600
609.357	0.0161482
609.435	0.0162917
609.513	0.0163133
609.591	0.0161713
609.669	0.0161320
609.747	0.0161417
609.825	0.0161322
609.904	0.0160706
609.982	0.0160656
610.060	0.0162632
610.138	0.0161664
610.216	0.0161946
610.294	0.0160490
610.372	0.0161045
610.450	0.0162804
610.529	0.0161839
610.607	0.0160084
610.685	0.0162179
610.763	0.0162585
610.841	0.0161945
610.919	0.0161652
610.997	0.0161401
611.075	0.0160701
611.154	0.0161815
611.232	0.0163197
611.310	0.0160743
611.388	0.0162067
611.466	0.0161899
611.544	0.0160872
611.622	0.0161324
611.700	0.0161931
611.779	0.0161504
611.857	0.0161279
611.935	0.0162166
612.013	0.0162623
612.091	0.0162117
612.169	0.0161433
612.247	0.0161512
612.325	0.0160972
612.404	0.0160277
612.482	0.0162202
612.560	0.0162374
612.638	0.0162077
612.716	0.0161285
612.794	0.0162978
612.872	0.0161517
612.950	0.0161617
613.029	0.0162640
613.107	0.0162181
613.185	0.0160629
613.263	0.0162264
613.341	0.0162954
613.419	0.0160917
613.497	0.0162228
613.575	0.0161752
613.654	0.0162122
613.732	0.0160341
613.810	0.0162268
613.888	0.0162019
613.966	0.0162075
614.044	0.0162918
614.122	0.0163300
614.200	0.0162265
614.279	0.0161797
614.357	0.0161890
614.435	0.0161422
614.513	0.0162030
614.591	0.0161308
614.669	0.0162290
614.747	0.0161299
614.825	0.0162055
614.904	0.0162581
614.982	0.0162454
615.060	0.0161625
615.138	0.0161823
615.216	0.0162048
615.294	0.0161134
615.372	0.0162543
615.450	0.0160738
615.529	0.0161156
615.607	0.0161713
615.685	0.0161615
615.763	0.0161223
615.841	0.0160485
615.919	0.0160323
615.997	0.0163251
616.075	0.0162383
616.154	0.0162186
616.232	0.0161465
616.310	0.0162402
616.388	0.0161375
616.466	0.0161517
616.544	0.0161240
616.622	0.0160549
616.700	0.0161691
616.779	0.0162569
616.857	0.0161587
616.935	0.0161057
617.013	0.0161755
617.091	0.0160537
617.169	0.0161393
617.247	0.0161694
617.325	0.0161692
617.404	0.0162211
617.482	0.0162119
617.560	0.0161967
617.638	0.0162679
617.716	0.0161652
617.794	0.0161992
617.872	0.0162238
617.950	0.0161219
618.029	0.0162252
618.107	0.0161055
618.185	0.0160857
618.263	0.0162536
618.341	0.0162859
618.419	0.0161208
618.497	0.0162418
618.575	0.0161532
618.654	0.0160329
618.732	0.0161997
618.810	0.0161839
618.888	0.0161034
618.966	0.0162014
619.044	0.0162031
619.122	0.0161958
619.200	0.0161118
619.279	0.0161922
619.357	0.0161421
619.435	0.0162916
619.513	0.0162388
619.591	0.0161993
619.669	0.0162230
619.747	0.0162369
619.825	0.0161584
619.904	0.0161660
619.982	0.0162132
620.060	0.0161330
620.138	0.0160802
620.216	0.0162009
620.294	0.0161053
620.372	0.0161359
620.450	0.0161143
620.529	0.0160926
620.607	0.0161335
620.685	0.0161694
620.763	0.0161820
620.841	0.0160973
620.919	0.0162005
620.997	0.0159543
621.075	0.0161312
621.154	0.0162047
621.232	0.0161526
621.310	0.0161150
621.388	0.0159800
621.466	0.0161510
621.544	0.0161737
621.622	0.0160883
621.700	0.0160889
621.779	0.0160567
621.857	0.0161948
621.935	0.0160456
622.013	0.0161558
622.091	0.0161326
622.169	0.0161322
622.247	0.0160697
622.325	0.0160989
622.404	0.0160305
622.482	0.0160802
622.560	0.0161848
622.638	0.0162003
622.716	0.0160558
622.794	0.0160807
622.872	0.0160543
622.950	0.0162195
623.029	0.0161023
623.107	0.0161252
623.185	0.0161947
623.263	0.0161771
623.341	0.0161205
623.419	0.0160693
623.497	0.0161218
623.575	0.0162029
623.654	0.0160851
623.732	0.0162407
623.810	0.0163091
623.888	0.0161126
623.966	0.0161671
624.044	0.0161635
624.122	0.0162422
624.200	0.0160796
624.279	0.0161052
624.357	0.0162190
624.435	0.0162268
624.513	0.0161576
624.591	0.0162412
624.669	0.0161106
624.747	0.0161229
624.825	0.0162020
624.904	0.0161406
624.982	0.0161534
625.060	0.0160983
625.138	0.0161921
625.216	0.0161335
625.294	0.0161925
625.372	0.0161552
625.450	0.0161077
625.529	0.0162467
625.607	0.0160502
625.685	0.0160102
625.763	0.0160311
625.841	0.0161524
625.919	0.0160435
625.997	0.0161018
626.075	0.0162192
626.154	0.0162992
626.232	0.0161197
626.310	0.0161273
626.388	0.0160693
626.466	0.0161938
626.544	0.0162085
626.622	0.0161887
626.700	0.0161723
626.779	0.0160533
626.857	0.0160572
626.935	0.0161803
627.013	0.0160977
627.091	0.0162128
627.169	0.0162211
627.247	0.0161736
627.325	0.0160712
627.404	0.0159599
627.482	0.0160743
627.560	0.0162223
627.638	0.0160111
627.716	0.0160441
627.794	0.0162062
627.872	0.0161901
627.950	0.0161801
628.029	0.0161578
628.107	0.0161804
628.185	0.0161733
628.263	0.0160004
628.341	0.0160886
628.419	0.0161545
628.497	0.0162696
628.575	0.0160486
628.654	0.0160553
628.732	0.0161799
628.810	0.0160852
628.888	0.0161980
628.966	0.0161535
629.044	0.0161478
629.122	0.0160468
629.200	0.0162432
629.279	0.0161324
629.357	0.0161047
629.435	0.0161751
629.513	0.0161842
629.591	0.0162240
629.669	0.0162000
629.747	0.0160978
629.825	0.0160152
629.904	0.0160896
629.982	0.0161788
630.060	0.0161897
630.138	0.0162402
630.216	0.0161804
630.294	0.0161105
630.372	0.0162099
630.450	0.0161546
630.529	0.0160677
630.607	0.0160921
630.685	0.0161008
630.763	0.0162522
630.841	0.0162247
630.919	0.0162471
630.997	0.0161868
631.075	0.0161379
631.154	0.0161188
631.232	0.0162502
631.310	0.0161160
631.388	0.0161369
631.466	0.0161414
631.544	0.0160984
631.622	0.0160779
631.700	0.0162497
631.779	0.0161610
631.857	0.0161892
631.935	0.0161810
632.013	0.0160957
632.091	0.0161367
632.169	0.0160974
632.247	0.0161671
632.325	0.0161103
632.404	0.0160226
632.482	0.0161750
632.560	0.0161761
632.638	0.0161369
632.716	0.0161079
632.794	0.0160728
632.872	0.0161372
632.950	0.0163534
633.029	0.0161724
633.107	0.0160519
633.185	0.0161050
633.263	0.0161111
633.341	0.0160869
633.419	0.0161416
633.497	0.0161686
633.575	0.0162415
633.654	0.0161935
633.732	0.0162013
633.810	0.0161363
633.888	0.0162827
633.966	0.0162401
634.044	0.0161726
634.122	0.0162054
634.200	0.0162194
634.279	0.0162370
634.357	0.0162718
634.435	0.0162671
634.513	0.0161894
634.591	0.0161951
634.669	0.0162048
634.747	0.0161354
634.825	0.0161550
634.904	0.0161413
634.982	0.0162500
635.060	0.0161656
635.138	0.0160930
635.216	0.0160459
635.294	0.0162516
635.372	0.0161665
635.450	0.0160648
635.529	0.0161423
635.607	0.0162249
635.685	0.0161517
635.763	0.0161871
635.841	0.0162534
635.919	0.0161183
635.997	0.0160883
636.075	0.0162518
636.154	0.0162466
636.232	0.0161792
636.310	0.0160933
636.388	0.0161442
636.466	0.0163222
636.544	0.0162514
636.622	0.0161658
636.700	0.0161338
636.779	0.0160969
636.857	0.0162315
636.935	0.0161469
637.013	0.0161951
637.091	0.0161859
637.169	0.0162415
637.247	0.0161775
637.325	0.0161472
637.404	0.0162675
637.482	0.0161620
637.560	0.0161459
637.638	0.0161745
637.716	0.0160528
637.794	0.0160529
637.872	0.0162503
637.950	0.0161334
638.029	0.0162078
638.107	0.0161329
638.185	0.0162177
638.263	0.0161233
638.341	0.0161676
638.419	0.0160483
638.497	0.0161035
638.575	0.0160945
638.654	0.0161615
638.732	0.0161678
638.810	0.0161192
638.888	0.0161765
638.966	0.0162099
639.044	0.0161826
639.122	0.0160269
639.200	0.0160443
639.279	0.0162123
639.357	0.0162392
639.435	0.0162203
639.513	0.0160582
639.591	0.0162169
639.669	0.0161286
639.747	0.0162274
639.825	0.0162151
639.904	0.0161204
639.982	0.0162320
640.060	0.0160880
640.138	0.0160176
640.216	0.0160821
640.294	0.0162810
640.372	0.0161785
640.450	0.0160764
640.529	0.0161842
640.607	0.0162289
640.685	0.0161948
640.763	0.0161983
640.841	0.0160667
640.919	0.0160100
640.997	0.0161211
641.075	0.0160755
641.154	0.0161761
641.232	0.0161530
641.310	0.0161470
641.388	0.0160030
641.466	0.0161935
641.544	0.0161220
641.622	0.0161882
641.700	0.0162160
641.779	0.0161141
641.857	0.0159918
641.935	0.0162296
642.013	0.0161290
642.091	0.0160922
642.169	0.0161227
642.247	0.0161465
642.325	0.0162225
642.404	0.0160125
642.482	0.0160662
642.560	0.0161976
642.638	0.0161545
642.716	0.0160464
642.794	0.0160371
642.872	0.0161612
642.950	0.0160744
643.029	0.0161488
643.107	0.0159942
643.185	0.0161253
643.263	0.0162752
643.341	0.0160622
643.419	0.0160560
643.497	0.0163184
643.575	0.0161062
643.654	0.0161501
643.732	0.0161442
643.810	0.0161545
643.888	0.0161506
643.966	0.0162482
644.044	0.0161115
644.122	0.0162647
644.200	0.0161906
644.279	0.0160847
644.357	0.0161858
644.435	0.0161618
644.513	0.0161795
644.591	0.0160846
644.669	0.0161898
644.747	0.0162012
644.825	0.0161726
644.904	0.0162519
644.982	0.0160964
645.060	0.0160548
645.138	0.0161137
645.216	0.0161077
645.294	0.0161008
645.372	0.0161172
645.450	0.0161182
645.529	0.0161333
645.607	0.0161481
645.685	0.0160658
645.763	0.0161053
645.841	0.0162129
645.919	0.0162099
645.997	0.0161981
646.075	0.0162521
646.154	0.0161547
646.232	0.0161663
646.310	0.0161458
646.388	0.0162478
646.466	0.0160880
646.544	0.0160587
646.622	0.0162499
646.700	0.0160732
646.779	0.0161991
646.857	0.0161694
646.935	0.0161796
647.013	0.0162087
647.091	0.0161449
647.169	0.0160722
647.247	0.0161557
647.325	0.0161010
647.404	0.0161340
647.482	0.0160667
647.560	0.0161231
647.638	0.0161302
647.716	0.0160545
647.794	0.0162313
647.872	0.0161498
647.950	0.0161172
648.029	0.0160141
648.107	0.0160650
648.185	0.0160803
648.263	0.0162445
648.341	0.0161009
648.419	0.0161649
648.497	0.0161896
648.575	0.0162110
648.654	0.0160836
648.732	0.0162781
648.810	0.0162748
648.888	0.0160938
648.966	0.0161176
649.044	0.0160491
649.122	0.0161430
649.200	0.0162107
649.279	0.0162533
649.357	0.0161546
649.435	0.0161772
649.513	0.0161888
649.591	0.0161327
649.669	0.0160914
649.747	0.0160769
649.825	0.0162164
649.904	0.0161481
649.982	0.0163181
650.060	0.0160805
650.138	0.0161824
650.216	0.0161168
650.294	0.0160995
650.372	0.0160829
650.450	0.0161681
650.529	0.0163041
650.607	0.0160102
650.685	0.0160637
650.763	0.0161994
650.841	0.0162002
650.919	0.0163126
650.997	0.0161467
651.075	0.0160874
651.154	0.0162242
651.232	0.0160999
651.310	0.0160184
651.388	0.0162074
651.466	0.0163136
651.544	0.0160324
651.622	0.0161214
651.700	0.0161419
651.779	0.0162978
651.857	0.0160838
651.935	0.0161121
652.013	0.0161124
652.091	0.0161191
652.169	0.0161040
652.247	0.0161676
652.325	0.0161230
652.404	0.0161433
652.482	0.0160477
652.560	0.0161587
652.638	0.0160554
652.716	0.0161444
652.794	0.0160693
652.872	0.0159571
652.950	0.0161232
653.029	0.0160163
653.107	0.0161875
653.185	0.0161047
653.263	0.0160736
653.341	0.0162047
653.419	0.0161918
653.497	0.0161700
653.575	0.0161574
653.654	0.0161877
653.732	0.0160723
653.810	0.0161185
653.888	0.0160945
653.966	0.0161548
654.044	0.0162502
654.122	0.0161819
654.200	0.0161304
654.279	0.0162743
654.357	0.0161160
654.435	0.0160204
654.513	0.0160815
654.591	0.0160969
654.669	0.0161973
654.747	0.0162654
654.825	0.0161903
654.904	0.0160700
654.982	0.0159480
655.060	0.0161362
655.138	0.0162170
655.216	0.0162357
655.294	0.0161533
655.372	0.0160851
655.450	0.0162346
655.529	0.0161711
655.607	0.0160630
655.685	0.0161922
655.763	0.0161244
655.841	0.0160502
655.919	0.0162457
655.997	0.0160622
656.075	0.0160364
656.154	0.0160352
656.232	0.0162248
656.310	0.0161601
656.388	0.0160831
656.466	0.0160419
656.544	0.0160337
656.622	0.0160355
656.700	0.0160758
656.779	0.0161575
656.857	0.0160907
656.935	0.0160506
657.013	0.0160748
657.091	0.0162213
657.169	0.0161478
657.247	0.0160416
657.325	0.0161859
657.404	0.0161284
657.482	0.0160681
657.560	0.0160879
657.638	0.0162215
657.716	0.0161832
657.794	0.0159971
657.872	0.0162603
657.950	0.0160392
658.029	0.0160838
658.107	0.0161372
658.185	0.0160723
658.263	0.0160705
658.341	0.0160821
658.419	0.0160985
658.497	0.0161311
658.575	0.0161758
658.654	0.0161665
658.732	0.0160739
658.810	0.0160069
658.888	0.0162052
658.966	0.0162460
659.044	0.0160999
659.122	0.0161173
659.200	0.0160606
659.279	0.0161617
659.357	0.0160295
659.435	0.0161410
659.513	0.0161864
659.591	0.0161567
659.669	0.0160741
659.747	0.0159819
659.825	0.0160863
659.904	0.0162209
659.982	0.0161204
660.060	0.0161143
660.138	0.0162096
660.216	0.0161160
660.294	0.0160916
660.372	0.0160453
660.450	0.0161153
660.529	0.0161123
660.607	0.0161045
660.685	0.0161288
660.763	0.0161984
660.841	0.0162149
660.919	0.0161591
660.997	0.0160983
661.075	0.0161772
661.154	0.0161496
661.232	0.0162303
661.310	0.0162769
661.388	0.0163190
661.466	0.0161041
661.544	0.0159832
661.622	0.0161481
661.700	0.0161382
661.779	0.0160960
661.857	0.0161628
661.935	0.0160602
662.013	0.0160701
662.091	0.0161254
662.169	0.0162055
662.247	0.0161345
662.325	0.0159696
662.404	0.0161873
662.482	0.0162128
662.560	0.0160937
662.638	0.0161590
662.716	0.0160692
662.794	0.0161525
662.872	0.0161727
662.950	0.0161497
663.029	0.0161256
663.107	0.0163132
663.185	0.0162012
663.263	0.0161154
663.341	0.0160315
663.419	0.0162217
663.497	0.0161699
663.575	0.0160492
663.654	0.0160750
663.732	0.0161483
663.810	0.0160709
663.888	0.0162400
663.966	0.0161975
664.044	0.0161143
664.122	0.0161420
664.200	0.0160455
664.279	0.0160676
664.357	0.0161275
664.435	0.0161435
664.513	0.0161641
664.591	0.0160985
664.669	0.0161301
664.747	0.0161629
664.825	0.0162017
664.904	0.0161144
664.982	0.0160357
665.060	0.0162886
665.138	0.0160463
665.216	0.0160168
665.294	0.0161829
665.372	0.0162103
665.450	0.0161113
665.529	0.0161762
665.607	0.0163017
665.685	0.0162489
665.763	0.0160944
665.841	0.0160621
665.919	0.0161156
665.997	0.0161741
666.075	0.0161127
666.154	0.0162771
666.232	0.0161227
666.310	0.0162234
666.388	0.0164059
666.466	0.0162157
666.544	0.0161338
666.622	0.0161095
666.700	0.0161664
666.779	0.0162041
666.857	0.0160934
666.935	0.0162290
667.013	0.0162088
667.091	0.0162315
667.169	0.0161237
667.247	0.0161873
667.325	0.0161115
667.404	0.0160793
667.482	0.0162632
667.560	0.0162211
667.638	0.0160512
667.716	0.0161017
667.794	0.0163108
667.872	0.0161644
667.950	0.0161153
668.029	0.0162447
668.107	0.0160917
668.185	0.0161671
668.263	0.0160135
668.341	0.0162939
668.419	0.0163118
668.497	0.0161203
668.575	0.0162193
668.654	0.0161970
668.732	0.0160865
668.810	0.0160724
668.888	0.0161796
668.966	0.0161606
669.044	0.0161401
669.122	0.0161405
669.200	0.0162005
669.279	0.0161353
669.357	0.0161908
669.435	0.0160807
669.513	0.0162804
669.591	0.0159983
669.669	0.0160653
669.747	0.0162883
669.825	0.0162412
669.904	0.0161558
669.982	0.0161588
670.060	0.0161758
670.138	0.0161484
670.216	0.0161948
670.294	0.0162031
670.372	0.0162092
670.450	0.0161804
670.529	0.0162815
670.607	0.0162502
670.685	0.0162930
670.763	0.0161296
670.841	0.0159969
670.919	0.0162594
670.997	0.0162077
671.075	0.0159859
671.154	0.0161312
671.232	0.0161613
671.310	0.0160593
671.388	0.0161097
671.466	0.0162572
671.544	0.0160474
671.622	0.0160484
671.700	0.0160086
671.779	0.0161195
671.857	0.0161491
671.935	0.0161436
672.013	0.0159662
672.091	0.0159856
672.169	0.0160030
672.247	0.0162073
672.325	0.0160083
672.404	0.0160924
672.482	0.0160793
672.560	0.0160975
672.638	0.0161353
672.716	0.0160317
672.794	0.0159984
672.872	0.0161513
672.950	0.0160731
673.029	0.0160052
673.107	0.0161353
673.185	0.0161292
673.263	0.0158721
673.341	0.0160071
673.419	0.0159441
673.497	0.0159680
673.575	0.0159214
673.654	0.0159536
673.732	0.0158817
673.810	0.0160321
673.888	0.0159923
673.966	0.0160780
674.044	0.0160468
674.122	0.0160151
674.200	0.0160352
674.279	0.0161182
674.357	0.0160423
674.435	0.0160550
674.513	0.0160199
674.591	0.0160093
674.669	0.0159978
674.747	0.0159825
674.825	0.0160184
674.904	0.0161826
674.982	0.0160404
675.060	0.0161016
675.138	0.0160795
675.216	0.0160070
675.294	0.0161021
675.372	0.0160953
675.450	0.0162321
675.529	0.0162675
675.607	0.0162263
675.685	0.0160483
675.763	0.0161915
675.841	0.0161625
675.919	0.0160407
675.997	0.0160903
676.075	0.0161668
676.154	0.0161747
676.232	0.0161001
676.310	0.0162312
676.388	0.0162215
676.466	0.0161686
676.544	0.0160254
676.622	0.0160606
676.700	0.0162156
676.779	0.0161713
676.857	0.0161913
676.935	0.0163305
677.013	0.0162615
677.091	0.0160430
677.169	0.0163157
677.247	0.0162717
677.325	0.0162217
677.404	0.0162713
677.482	0.0161787
677.560	0.0161887
677.638	0.0163082
677.716	0.0162495
677.794	0.0163323
677.872	0.0162792
677.950	0.0161852
678.029	0.0163152
678.107	0.0164064
678.185	0.0162269
678.263	0.0161964
678.341	0.0162802
678.419	0.0164317
678.497	0.0162778
678.575	0.0163026
678.654	0.0163484
678.732	0.0163756
678.810	0.0163514
678.888	0.0162240
678.966	0.0163077
679.044	0.0162234
679.122	0.0164054
679.200	0.0164488
679.279	0.0161886
679.357	0.0162128
679.435	0.0161726
679.513	0.0164487
679.591	0.0161488
679.669	0.0162175
679.747	0.0163112
679.825	0.0161633
679.904	0.0161713
679.982	0.0162346
680.060	0.0163257
680.138	0.0163402
680.216	0.0162317
680.294	0.0161108
680.372	0.0161492
680.450	0.0160650
680.529	0.0161417
680.607	0.0162370
680.685	0.0160284
680.763	0.0162273
680.841	0.0161597
680.919	0.0160689
680.997	0.0161278
681.075	0.0160626
681.154	0.0163012
681.232	0.0162385
681.310	0.0162698
681.388	0.0160591
681.466	0.0162009
681.544	0.0160255
681.622	0.0160607
681.700	0.0161271
681.779	0.0160807
681.857	0.0161692
681.935	0.0162762
682.013	0.0161913
682.091	0.0160162
682.169	0.0161939
682.247	0.0162129
682.325	0.0161562
682.404	0.0161626
682.482	0.0159185
682.560	0.0161240
682.638	0.0160290
682.716	0.0160406
682.794	0.0160802
682.872	0.0160736
682.950	0.0160447
683.029	0.0160289
683.107	0.0161642
683.185	0.0161638
683.263	0.0159850
683.341	0.0161333
683.419	0.0160731
683.497	0.0160467
683.575	0.0161961
683.654	0.0160272
683.732	0.0160628
683.810	0.0160349
683.888	0.0161776
683.966	0.0160325
684.044	0.0160123
684.122	0.0160445
684.200	0.0161674
684.279	0.0161244
684.357	0.0158228
684.435	0.0159856
684.513	0.0161830
684.591	0.0160287
684.669	0.0160543
684.747	0.0160095
684.825	0.0160237
684.904	0.0160442
684.982	0.0160226
685.060	0.0160257
685.138	0.0161327
685.216	0.0161024
685.294	0.0160715
685.372	0.0160020
685.450	0.0160324
685.529	0.0161179
685.607	0.0160048
685.685	0.0159917
685.763	0.0160513
685.841	0.0160904
685.919	0.0161629
685.997	0.0159898
686.075	0.0159929
686.154	0.0160635
686.232	0.0160587
686.310	0.0160669
686.388	0.0159850
686.466	0.0161739
686.544	0.0161435
686.622	0.0160170
686.700	0.0161375
686.779	0.0160149
686.857	0.0162046
686.935	0.0161162
687.013	0.0160536
687.091	0.0161175
687.169	0.0161101
687.247	0.0162176
687.325	0.0160550
687.404	0.0159478
687.482	0.0161868
687.560	0.0162432
687.638	0.0162594
687.716	0.0161617
687.794	0.0159675
687.872	0.0160884
687.950	0.0160848
688.029	0.0161505
688.107	0.0160676
688.185	0.0161765
688.263	0.0160880
688.341	0.0160892
688.419	0.0161569
688.497	0.0162386
688.575	0.0160155
688.654	0.0161874
688.732	0.0160768
688.810	0.0161662
688.888	0.0163036
688.966	0.0160810
689.044	0.0160114
689.122	0.0162594
689.200	0.0162552
689.279	0.0161259
689.357	0.0160190
689.435	0.0158605
689.513	0.0159659
689.591	0.0159418
689.669	0.0159559
689.747	0.0160209
689.825	0.0161388
689.904	0.0160919
689.982	0.0162366
690.060	0.0164829
690.138	0.0166343
690.216	0.0166549
690.294	0.0166555
690.372	0.0166756
690.450	0.0165798
690.529	0.0163187
690.607	0.0161576
690.685	0.0159270
690.763	0.0157262
690.841	0.0155637
690.919	0.0154360
690.997	0.0152155
691.075	0.0151760
691.154	0.0153189
691.232	0.0155619
691.310	0.0157561
691.388	0.0161242
691.466	0.0164586
691.544	0.0167271
691.622	0.0168894
691.700	0.0171137
691.779	0.0174035
691.857	0.0174970
691.935	0.0172751
692.013	0.0171329
692.091	0.0167896
692.169	0.0166685
692.247	0.0164739
692.325	0.0162149
692.404	0.0158199
692.482	0.0153707
692.560	0.0151384
692.638	0.0149546
692.716	0.0147159
692.794	0.0146822
692.872	0.0146684
692.950	0.0148721
693.029	0.0149658
693.107	0.0152290
693.185	0.0155980
693.263	0.0158919
693.341	0.0162433
693.419	0.0164439
693.497	0.0166596
693.575	0.0169251
693.654	0.0171627
693.732	0.0172029
693.810	0.0171622
693.888	0.0173547
693.966	0.0171928
694.044	0.0168713
694.122	0.0169025
694.200	0.0168178
694.279	0.0167002
694.357	0.0165600
694.435	0.0162784
694.513	0.0162103
694.591	0.0161423
694.669	0.0159241
694.747	0.0159663
694.825	0.0159715
694.904	0.0158654
694.982	0.0158153
695.060	0.0156622
695.138	0.0157638
695.216	0.0156417
695.294	0.0155557
695.372	0.0153270
695.450	0.0152525
695.529	0.0152046
695.607	0.0150259
695.685	0.0150215
695.763	0.0151167
695.841	0.0150318
695.919	0.0149164
695.997	0.0150849
696.075	0.0151210
696.154	0.0154970
696.232	0.0156422
696.310	0.0158544
696.388	0.0160009
696.466	0.0162692
696.544	0.0165199
696.622	0.0167920
696.700	0.0170404
696.779	0.0172699
696.857	0.0173952
696.935	0.0175971
697.013	0.0176047
697.091	0.0178355
697.169	0.0177457
697.247	0.0176698
697.325	0.0176863
697.404	0.0176162
697.482	0.0173969
697.560	0.0172254
697.638	0.0169787
697.716	0.0166763
697.794	0.0165075
697.872	0.0161775
697.950	0.0159058
698.029	0.0155200
698.107	0.0152459
698.185	0.0149801
698.263	0.0146159
698.341	0.0144920
698.419	0.0143507
698.497	0.0142046
698.575	0.0141775
698.654	0.0143514
698.732	0.0143253
698.810	0.0145746
698.888	0.0148548
698.966	0.0150002
699.044	0.0151407
699.122	0.0155666
699.200	0.0156570
699.279	0.0159555
699.357	0.0161427
699.435	0.0162267
699.513	0.0164851
699.591	0.0166267
699.669	0.0166332
699.747	0.0165820
699.825	0.0167832
699.904	0.0169138
699.982	0.0169049
700.060	0.0168549
700.138	0.0169012
700.216	0.0168416
700.294	0.0167951
700.372	0.0168474
700.450	0.0168929
700.529	0.0168707
700.607	0.0169465
700.685	0.0170984
700.763	0.0170542
700.841	0.0172012
700.919	0.0171965
700.997	0.0171786
701.075	0.0172623
701.154	0.0171780
701.232	0.0170363
701.310	0.0170414
701.388	0.0169293
701.466	0.0169081
701.544	0.0165024
701.622	0.0163346
701.700	0.0160977
701.779	0.0159974
701.857	0.0156788
701.935	0.0154921
702.013	0.0151400
702.091	0.0148240
702.169	0.0147294
702.247	0.0144308
702.325	0.0143117
702.404	0.0142619
702.482	0.0142793
702.560	0.0143311
702.638	0.0144664
702.716	0.0145168
702.794	0.0145543
702.872	0.0147897
702.950	0.0152158
703.029	0.0152846
703.107	0.0156054
703.185	0.0158295
703.263	0.0161098
703.341	0.0164581
703.419	0.0165511
703.497	0.0166644
703.575	0.0167773
703.654	0.0169538
703.732	0.0169701
703.810	0.0170055
703.888	0.0169953
703.966	0.0171005
704.044	0.0170142
704.122	0.0169043
704.200	0.0168326
704.279	0.0168016
704.357	0.0167209
704.435	0.0167100
704.513	0.0167091
704.591	0.0167805
704.669	0.0167022
704.747	0.0167462
704.825	0.0167799
704.904	0.0167230
704.982	0.0167987
705.060	0.0166702
705.138	0.0166041
705.216	0.0167364
705.294	0.0166937
705.372	0.0166129
705.450	0.0164767
705.529	0.0163762
705.607	0.0162810
705.685	0.0161160
705.763	0.0161155
705.841	0.0161265
705.919	0.0159424
705.997	0.0160809
706.075	0.0158975
706.154	0.0156763
706.232	0.0157890
706.310	0.0157302
706.388	0.0156143
706.466	0.0156297
706.544	0.0156808
706.622	0.0156343
706.700	0.0157652
706.779	0.0156977
706.857	0.0155138
706.935	0.0155809
707.013	0.0155789
707.091	0.0155839
707.169	0.0155734
707.247	0.0155363
707.325	0.0155698
707.404	0.0154362
707.482	0.0155264
707.560	0.0155620
707.638	0.0156084
707.716	0.0156808
707.794	0.0156689
707.872	0.0157272
707.950	0.0157800
708.029	0.0157401
708.107	0.0157866
708.185	0.0159419
708.263	0.0159882
708.341	0.0160071
708.419	0.0161225
708.497	0.0161069
708.575	0.0164606
708.654	0.0165271
708.732	0.0166248
708.810	0.0167905
708.888	0.0168642
708.966	0.0170525
709.044	0.0170380
709.122	0.0171247
709.200	0.0172615
709.279	0.0173022
709.357	0.0172826
709.435	0.0172219
709.513	0.0171517
709.591	0.0170451
709.669	0.0167310
709.747	0.0166547
709.825	0.0165955
709.904	0.0165386
709.982	0.0162545
710.060	0.0162231
710.138	0.0161398
710.216	0.0159349
710.294	0.0156895
710.372	0.0158698
710.450	0.0157396
710.529	0.0157430
710.607	0.0158467
710.685	0.0158187
710.763	0.0157166
710.841	0.0157010
710.919	0.0156956
710.997	0.0156717
711.075	0.0157340
711.154	0.0157805
711.232	0.0157214
711.310	0.0157449
711.388	0.0156517
711.466	0.0156847
711.544	0.0155895
711.622	0.0154420
711.700	0.0155691
711.779	0.0156380
711.857	0.0156548
711.935	0.0156222
712.013	0.0154926
712.091	0.0156772
712.169	0.0156452
712.247	0.0156992
712.325	0.0156487
712.404	0.0156270
712.482	0.0156484
712.560	0.0158115
712.638	0.0157085
712.716	0.0158152
712.794	0.0157607
712.872	0.0159686
712.950	0.0159049
713.029	0.0159587
713.107	0.0160298
713.185	0.0160896
713.263	0.0159975
713.341	0.0162576
713.419	0.0163395
713.497	0.0163779
713.575	0.0165200
713.654	0.0164793
713.732	0.0165027
713.810	0.0165977
713.888	0.0167876
713.966	0.0167286
714.044	0.0168353
714.122	0.0169123
714.200	0.0169748
714.279	0.0170061
714.357	0.0169772
714.435	0.0168059
714.513	0.0167262
714.591	0.0168574
714.669	0.0167943
714.747	0.0167041
714.825	0.0167242
714.904	0.0164993
714.982	0.0165041
715.060	0.0162901
715.138	0.0160756
715.216	0.0162743
715.294	0.0162957
715.372	0.0159796
715.450	0.0158892
715.529	0.0159219
715.607	0.0159290
715.685	0.0159204
715.763	0.0157214
715.841	0.0157001
715.919	0.0158920
715.997	0.0158077
716.075	0.0157204
716.154	0.0159339
716.232	0.0158441
716.310	0.0158589
716.388	0.0159554
716.466	0.0160589
716.544	0.0158707
716.622	0.0160104
716.700	0.0159486
716.779	0.0157955
716.857	0.0157536
716.935	0.0156798
717.013	0.0156746
717.091	0.0155415
717.169	0.0155283
717.247	0.0153174
717.325	0.0156202
717.404	0.0155103
717.482	0.0156336
717.560	0.0156719
717.638	0.0157761
717.716	0.0155855
717.794	0.0158521
717.872	0.0159407
717.950	0.0161044
718.029	0.0162978
718.107	0.0161454
718.185	0.0162220
718.263	0.0164259
718.341	0.0162371
718.419	0.0164035
718.497	0.0162436
718.575	0.0164532
718.654	0.0164017
718.732	0.0162435
718.810	0.0161144
718.888	0.0161997
718.966	0.0162463
719.044	0.0163725
719.122	0.0165117
719.200	0.0163376
719.279	0.0164294
719.357	0.0165960
719.435	0.0167081
719.513	0.0169284
719.591	0.0168891
719.669	0.0169479
719.747	0.0169824
719.825	0.0170448
719.904	0.0169754
719.982	0.0169975
720.060	0.0169047
720.138	0.0167814
720.216	0.0167668
720.294	0.0165801
720.372	0.0164420
720.450	0.0163080
720.529	0.0162222
720.607	0.0160868
720.685	0.0159419
720.763	0.0159333
720.841	0.0159225
720.919	0.0156821
720.997	0.0156538
721.075	0.0157763
721.154	0.0156572
721.232	0.0156354
721.310	0.0157266
721.388	0.0157833
721.466	0.0158567
721.544	0.0157896
721.622	0.0157079
721.700	0.0156680
721.779	0.0155331
721.857	0.0156545
721.935	0.0156838
722.013	0.0155254
722.091	0.0156634
722.169	0.0155901
722.247	0.0156994
722.325	0.0157780
722.404	0.0157413
722.482	0.0158845
722.560	0.0158215
722.638	0.0158538
722.716	0.0159139
722.794	0.0159888
722.872	0.0159492
722.950	0.0161147
723.029	0.0161870
723.107	0.0161772
723.185	0.0162487
723.263	0.0161933
723.341	0.0162676
723.419	0.0161297
723.497	0.0161130
723.575	0.0161221
723.654	0.0161542
723.732	0.0161756
723.810	0.0161295
723.888	0.0161994
723.966	0.0161004
724.044	0.0161655
724.122	0.0159971
724.200	0.0161755
724.279	0.0162402
724.357	0.0162836
724.435	0.0161997
724.513	0.0163754
724.591	0.0164880
724.669	0.0165608
724.747	0.0164904
724.825	0.0163653
724.904	0.0164981
724.982	0.0167093
725.060	0.0164854
725.138	0.0164793
725.216	0.0164442
725.294	0.0166435
725.372	0.0163959
725.450	0.0163946
725.529	0.0163340
725.607	0.0162469
725.685	0.0161953
725.763	0.0161574
725.841	0.0161085
725.919	0.0159999
725.997	0.0159322
726.075	0.0158962
726.154	0.0158114
726.232	0.0158852
726.310	0.0159190
726.388	0.0160063
726.466	0.0158038
726.544	0.0159108
726.622	0.0159048
726.700	0.0160244
726.779	0.0160605
726.857	0.0161546
726.935	0.0161491
727.013	0.0161568
727.091	0.0162437
727.169	0.0161264
727.247	0.0162347
727.325	0.0160752
727.404	0.0162613
727.482	0.0162489
727.560	0.0162629
727.638	0.0160899
727.716	0.0161403
727.794	0.0159512
727.872	0.0159414
727.950	0.0158767
728.029	0.0159126
728.107	0.0157365
728.185	0.0158769
728.263	0.0159044
728.341	0.0158823
728.419	0.0160159
728.497	0.0158455
728.575	0.0159055
728.654	0.0159261
728.732	0.0161046
728.810	0.0161128
728.888	0.0160843
728.966	0.0160905
729.044	0.0161503
729.122	0.0162573
729.200	0.0162781
729.279	0.0162929
729.357	0.0162300
729.435	0.0163792
729.513	0.0164262
729.591	0.0162628
729.669	0.0163180
729.747	0.0163736
729.825	0.0162809
729.904	0.0161832
729.982	0.0162863
730.060	0.0164091
730.138	0.0162099
730.216	0.0162435
730.294	0.0163391
730.372	0.0162852
730.450	0.0163315
730.529	0.0163857
730.607	0.0162064
730.685	0.0162313
730.763	0.0163538
730.841	0.0161980
730.919	0.0163004
730.997	0.0163374
731.075	0.0163256
731.154	0.0161201
731.232	0.0162424
731.310	0.0162862
731.388	0.0162612
731.466	0.0162810
731.544	0.0160892
731.622	0.0162186
731.700	0.0162929
731.779	0.0163586
731.857	0.0163352
731.935	0.0164514
732.013	0.0164056
732.091	0.0162785
732.169	0.0162940
732.247	0.0163248
732.325	0.0164133
732.404	0.0162888
732.482	0.0161561
732.560	0.0162595
732.638	0.0161516
732.716	0.0160025
732.794	0.0160847
732.872	0.0160521
732.950	0.0160574
733.029	0.0160437
733.107	0.0161056
733.185	0.0158666
733.263	0.0158439
733.341	0.0158637
733.419	0.0158505
733.497	0.0158411
733.575	0.0159675
733.654	0.0158538
733.732	0.0157263
733.810	0.0158536
733.888	0.0156735
733.966	0.0156440
734.044	0.0158093
734.122	0.0157051
734.200	0.0155956
734.279	0.0157266
734.357	0.0157328
734.435	0.0157018
734.513	0.0158278
734.591	0.0159196
734.669	0.0158168
734.747	0.0158692
734.825	0.0159587
734.904	0.0159492
734.982	0.0160209
735.060	0.0161500
735.138	0.0159562
735.216	0.0161754
735.294	0.0162224
735.372	0.0161284
735.450	0.0162771
735.529	0.0163562
735.607	0.0162835
735.685	0.0163451
735.763	0.0163121
735.841	0.0163966
735.919	0.0162838
735.997	0.0161937
736.075	0.0162708
736.154	0.0164046
736.232	0.0164535
736.310	0.0164177
736.388	0.0162985
736.466	0.0162642
736.544	0.0163065
736.622	0.0161718
736.700	0.0162130
736.779	0.0162138
736.857	0.0161111
736.935	0.0161327
737.013	0.0162065
737.091	0.0161549
737.169	0.0160992
737.247	0.0160688
737.325	0.0160007
737.404	0.0159495
737.482	0.0160526
737.560	0.0160715
737.638	0.0160868
737.716	0.0162122
737.794	0.0162550
737.872	0.0160634
737.950	0.0160467
738.029	0.0162947
738.107	0.0161298
738.185	0.0162289
738.263	0.0162660
738.341	0.0162609
738.419	0.0162998
738.497	0.0163354
738.575	0.0162136
738.654	0.0161462
738.732	0.0161158
738.810	0.0161713
738.888	0.0162960
738.966	0.0162460
739.044	0.0160938
739.122	0.0161778
739.200	0.0162675
739.279	0.0163679
739.357	0.0162078
739.435	0.0161693
739.513	0.0162071
739.591	0.0163483
739.669	0.0163412
739.747	0.0162708
739.825	0.0161302
739.904	0.0161889
739.982	0.0161381
740.060	0.0161377
740.138	0.0159993
740.216	0.0159363
740.294	0.0160439
740.372	0.0160102
740.450	0.0159134
740.529	0.0159712
740.607	0.0159122
740.685	0.0158539
740.763	0.0159724
740.841	0.0158085
740.919	0.0158179
740.997	0.0159779
741.075	0.0159750
741.154	0.0158084
741.232	0.0157565
741.310	0.0158805
741.388	0.0161126
741.466	0.0159402
741.544	0.0158485
741.622	0.0159922
741.700	0.0160074
741.779	0.0159784
741.857	0.0159158
741.935	0.0159277
742.013	0.0159843
742.091	0.0159144
742.169	0.0160355
742.247	0.0161425
742.325	0.0161343
742.404	0.0161457
742.482	0.0161898
742.560	0.0161497
742.638	0.0161575
742.716	0.0162823
742.794	0.0163054
742.872	0.0163549
742.950	0.0162907
743.029	0.0162788
743.107	0.0163043
743.185	0.0162347
743.263	0.0163601
743.341	0.0163038
743.419	0.0162712
743.497	0.0162784
743.575	0.0163594
743.654	0.0162566
743.732	0.0162234
743.810	0.0162146
743.888	0.0162782
743.966	0.0162821
744.044	0.0162158
744.122	0.0162260
744.200	0.0163600
744.279	0.0162547
744.357	0.0161855
744.435	0.0161517
744.513	0.0160371
744.591	0.0161629
744.669	0.0160705
744.747	0.0162828
744.825	0.0161605
744.904	0.0162096
744.982	0.0161738
745.060	0.0161577
745.138	0.0161552
745.216	0.0161671
745.294	0.0161782
745.372	0.0160609
745.450	0.0162157
745.529	0.0162003
745.607	0.0161505
745.685	0.0162540
745.763	0.0161993
745.841	0.0161745
745.919	0.0161569
745.997	0.0160713
746.075	0.0162611
746.154	0.0162503
746.232	0.0161108
746.310	0.0160475
746.388	0.0161072
746.466	0.0160651
746.544	0.0160803
746.622	0.0158888
746.700	0.0159992
746.779	0.0158373
746.857	0.0158334
746.935	0.0159849
747.013	0.0158566
747.091	0.0158390
747.169	0.0158820
747.247	0.0158283
747.325	0.0157644
747.404	0.0158646
747.482	0.0157038
747.560	0.0158912
747.638	0.0157442
747.716	0.0157124
747.794	0.0159230
747.872	0.0159869
747.950	0.0159988
748.029	0.0159531
748.107	0.0160462
748.185	0.0160549
748.263	0.0159548
748.341	0.0162353
748.419	0.0162693
748.497	0.0162354
748.575	0.0162051
748.654	0.0161449
748.732	0.0162319
748.810	0.0163142
748.888	0.0162408
748.966	0.0161082
749.044	0.0162041
749.122	0.0161923
749.200	0.0162572
749.279	0.0162760
749.357	0.0162958
749.435	0.0161590
749.513	0.0162590
749.591	0.0162196
749.669	0.0162605
749.747	0.0161954
749.825	0.0163146
749.904	0.0163843
749.982	0.0162301
750.060	0.0164046
750.138	0.0162260
750.216	0.0163048
750.294	0.0162309
750.372	0.0161949
750.450	0.0162093
750.529	0.0160869
750.607	0.0161050
750.685	0.0160781
750.763	0.0160865
750.841	0.0159531
750.919	0.0160222
750.997	0.0160555
751.075	0.0160289
751.154	0.0158019
751.232	0.0159116
751.310	0.0159200
751.388	0.0159367
751.466	0.0161196
751.544	0.0160427
751.622	0.0160782
751.700	0.0159158
751.779	0.0160146
751.857	0.0162111
751.935	0.0162305
752.013	0.0163056
752.091	0.0163857
752.169	0.0162943
752.247	0.0163502
752.325	0.0165021
752.404	0.0165455
752.482	0.0165202
752.560	0.0163633
752.638	0.0163992
752.716	0.0164819
752.794	0.0164559
752.872	0.0162711
752.950	0.0162787
753.029	0.0163133
753.107	0.0161548
753.185	0.0161040
753.263	0.0159557
753.341	0.0160757
753.419	0.0160502
753.497	0.0159376
753.575	0.0159845
753.654	0.0160349
753.732	0.0162074
753.810	0.0159695
753.888	0.0159924
753.966	0.0160665
754.044	0.0160890
754.122	0.0161909
754.200	0.0161238
754.279	0.0162216
754.357	0.0163210
754.435	0.0162241
754.513	0.0163328
754.591	0.0162904
754.669	0.0162509
754.747	0.0163754
754.825	0.0163711
754.904	0.0163263
754.982	0.0162165
755.060	0.0162675
755.138	0.0162968
755.216	0.0161808
755.294	0.0160934
755.372	0.0160091
755.450	0.0159292
755.529	0.0162074
755.607	0.0160834
755.685	0.0159134
755.763	0.0160194
755.841	0.0158903
755.919	0.0160446
755.997	0.0161057
756.075	0.0158449
756.154	0.0159203
756.232	0.0160580
756.310	0.0160493
756.388	0.0159521
756.466	0.0160854
756.544	0.0161237
756.622	0.0160933
756.700	0.0161500
756.779	0.0162992
756.857	0.0162404
756.935	0.0161681
757.013	0.0161241
757.091	0.0162230
757.169	0.0161602
757.247	0.0162160
757.325	0.0161829
757.404	0.0161981
757.482	0.0161891
757.560	0.0161626
757.638	0.0161658
757.716	0.0161788
757.794	0.0162122
757.872	0.0161688
757.950	0.0163005
758.029	0.0162469
758.107	0.0162561
758.185	0.0162540
758.263	0.0161610
758.341	0.0162601
758.419	0.0162315
758.497	0.0161086
758.575	0.0161401
758.654	0.0162241
758.732	0.0162459
758.810	0.0162241
758.888	0.0161947
758.966	0.0161413
759.044	0.0161573
759.122	0.0160160
759.200	0.0160331
759.279	0.0161752
759.357	0.0162141
759.435	0.0161530
759.513	0.0160843
759.591	0.0160570
759.669	0.0162772
759.747	0.0161840
759.825	0.0162151
759.904	0.0164082
759.982	0.0162687
760.060	0.0162022
760.138	0.0161478
760.216	0.0161138
760.294	0.0161504
760.372	0.0163226
760.450	0.0162653
760.529	0.0160109
760.607	0.0160797
760.685	0.0160174
760.763	0.0159926
760.841	0.0160522
760.919	0.0158363
760.997	0.0158376
761.075	0.0158842
761.154	0.0159324
761.232	0.0161043
761.310	0.0158806
761.388	0.0158569
761.466	0.0159988
761.544	0.0159564
761.622	0.0158823
761.700	0.0159532
761.779	0.0161061
761.857	0.0159603
761.935	0.0159466
762.013	0.0160873
762.091	0.0160978
762.169	0.0161935
762.247	0.0161466
762.325	0.0162193
762.404	0.0162637
762.482	0.0161717
762.560	0.0160863
762.638	0.0162581
762.716	0.0162529
762.794	0.0162222
762.872	0.0162827
762.950	0.0161939
763.029	0.0161850
763.107	0.0162308
763.185	0.0163714
763.263	0.0162643
763.341	0.0163766
763.419	0.0162088
763.497	0.0163187
763.575	0.0161726
763.654	0.0161232
763.732	0.0162147
763.810	0.0160970
763.888	0.0159852
763.966	0.0161448
764.044	0.0161102
764.122	0.0160475
764.200	0.0160537
764.279	0.0161311
764.357	0.0159945
764.435	0.0159943
764.513	0.0160092
764.591	0.0161145
764.669	0.0161053
764.747	0.0160610
764.825	0.0161353
764.904	0.0161584
764.982	0.0160757
765.060	0.0161427
765.138	0.0161977
765.216	0.0162245
765.294	0.0161239
765.372	0.0161387
765.450	0.0162910
765.529	0.0163055
765.607	0.0161857
765.685	0.0161115
765.763	0.0161119
765.841	0.0161832
765.919	0.0161791
765.997	0.0161166
766.075	0.0159718
766.154	0.0160003
766.232	0.0161797
766.310	0.0162104
766.388	0.0161717
766.466	0.0160561
766.544	0.0160467
766.622	0.0160879
766.700	0.0161149
766.779	0.0161674
766.857	0.0162183
766.935	0.0160825
767.013	0.0162192
767.091	0.0163744
767.169	0.0163414
767.247	0.0163229
767.325	0.0163026
767.404	0.0164365
767.482	0.0164103
767.560	0.0163910
767.638	0.0164358
767.716	0.0164613
767.794	0.0163960
767.872	0.0162361
767.950	0.0163637
768.029	0.0163866
768.107	0.0161610
768.185	0.0161600
768.263	0.0162324
768.341	0.0159438
768.419	0.0160503
768.497	0.0160329
768.575	0.0161726
768.654	0.0158857
768.732	0.0158716
768.810	0.0159264
768.888	0.0158328
768.966	0.0156599
769.044	0.0157520
769.122	0.0158713
769.200	0.0157625
769.279	0.0157655
769.357	0.0157053
769.435	0.0157458
769.513	0.0158775
769.591	0.0157705
769.669	0.0159361
769.747	0.0159444
769.825	0.0159907
769.904	0.0161570
769.982	0.0159937
770.060	0.0160403
770.138	0.0160531
770.216	0.0162347
770.294	0.0162464
770.372	0.0162720
770.450	0.0162260
770.529	0.0161597
770.607	0.0162521
770.685	0.0162442
770.763	0.0163422
770.841	0.0163749
770.919	0.0160727
770.997	0.0162470
771.075	0.0163214
771.154	0.0162206
771.232	0.0162521
771.310	0.0162543
771.388	0.0162225
771.466	0.0160384
771.544	0.0161353
771.622	0.0161065
771.700	0.0160419
771.779	0.0163090
771.857	0.0160919
771.935	0.0161896
772.013	0.0160408
772.091	0.0160550
772.169	0.0160997
772.247	0.0162069
772.325	0.0161590
772.404	0.0161285
772.482	0.0162363
772.560	0.0161874
772.638	0.0163071
772.716	0.0163100
772.794	0.0162453
772.872	0.0163792
772.950	0.0163261
773.029	0.0163874
773.107	0.0163407
773.185	0.0163409
773.263	0.0162597
773.341	0.0163107
773.419	0.0163502
773.497	0.0163033
773.575	0.0161914
773.654	0.0161282
773.732	0.0162481
773.810	0.0161936
773.888	0.0160754
773.966	0.0162141
774.044	0.0160414
774.122	0.0160352
774.200	0.0158829
774.279	0.0159312
774.357	0.0159460
774.435	0.0159780
774.513	0.0159535
774.591	0.0157626
774.669	0.0158284
774.747	0.0159583
774.825	0.0158599
774.904	0.0159291
774.982	0.0157666
775.060	0.0156996
775.138	0.0158075
775.216	0.0161006
775.294	0.0159704
775.372	0.0159898
775.450	0.0160307
775.529	0.0160517
775.607	0.0163084
775.685	0.0161167
775.763	0.0163365
775.841	0.0162816
775.919	0.0163797
775.997	0.0164095
776.075	0.0163516
776.154	0.0164294
776.232	0.0165022
776.310	0.0165112
776.388	0.0166574
776.466	0.0164672
776.544	0.0164095
776.622	0.0163514
776.700	0.0164226
776.779	0.0163044
776.857	0.0162994
776.935	0.0162537
777.013	0.0162158
777.091	0.0160735
777.169	0.0160202
777.247	0.0159967
777.325	0.0160246
777.404	0.0160307
777.482	0.0159579
777.560	0.0158870
777.638	0.0159413
777.716	0.0158163
777.794	0.0160031
777.872	0.0159691
777.950	0.0159884
778.029	0.0160291
778.107	0.0160286
778.185	0.0159507
778.263	0.0159621
778.341	0.0160558
778.419	0.0161466
778.497	0.0160286
778.575	0.0161475
778.654	0.0163025
778.732	0.0162708
778.810	0.0162465
778.888	0.0162595
778.966	0.0162400
779.044	0.0163599
779.122	0.0162876
779.200	0.0162875
779.279	0.0162874
779.357	0.0163361
779.435	0.0163836
779.513	0.0162688
779.591	0.0163251
779.669	0.0163791
779.747	0.0164266
779.825	0.0164443
779.904	0.0163714
779.982	0.0163734
780.060	0.0163655
780.138	0.0162967
780.216	0.0163125
780.294	0.0162872
780.372	0.0162627
780.450	0.0162257
780.529	0.0162507
780.607	0.0160208
780.685	0.0161382
780.763	0.0161752
780.841	0.0160048
780.919	0.0160951
780.997	0.0160728
781.075	0.0160507
781.154	0.0158620
781.232	0.0161420
781.310	0.0161259
781.388	0.0160008
781.466	0.0161126
781.544	0.0160890
781.622	0.0159764
781.700	0.0160913
781.779	0.0161091
781.857	0.0160538
781.935	0.0161954
782.013	0.0162053
782.091	0.0160063
782.169	0.0159682
782.247	0.0161709
782.325	0.0160789
782.404	0.0160809
782.482	0.0159648
782.560	0.0161174
782.638	0.0161868
782.716	0.0159637
782.794	0.0160978
782.872	0.0160526
782.950	0.0159677
783.029	0.0159203
783.107	0.0160484
783.185	0.0161060
783.263	0.0160211
783.341	0.0160902
783.419	0.0161907
783.497	0.0161260
783.575	0.0160882
783.654	0.0162270
783.732	0.0161813
783.810	0.0161729
783.888	0.0160911
783.966	0.0161311
784.044	0.0162624
784.122	0.0163110
784.200	0.0160729
784.279	0.0159518
784.357	0.0161852
784.435	0.0162813
784.513	0.0162332
784.591	0.0163200
784.669	0.0161341
784.747	0.0161845
784.825	0.0161534
784.904	0.0161732
784.982	0.0163343
785.060	0.0163158
785.138	0.0162443
785.216	0.0162366
785.294	0.0161771
785.372	0.0162589
785.450	0.0161962
785.529	0.0163383
785.607	0.0162118
785.685	0.0161796
785.763	0.0161420
785.841	0.0160829
785.919	0.0160841
785.997	0.0161285
786.075	0.0161501
786.154	0.0162556
786.232	0.0161091
786.310	0.0159589
786.388	0.0161694
786.466	0.0161207
786.544	0.0159434
786.622	0.0159957
786.700	0.0160677
786.779	0.0160265
786.857	0.0160310
786.935	0.0159148
787.013	0.0159991
787.091	0.0160191
787.169	0.0160221
787.247	0.0158671
787.325	0.0160015
787.404	0.0160399
787.482	0.0161923
787.560	0.0161479
787.638	0.0162052
787.716	0.0162178
787.794	0.0162177
787.872	0.0164343
787.950	0.0163454
788.029	0.0163828
788.107	0.0162447
788.185	0.0163326
788.263	0.0163078
788.341	0.0162138
788.419	0.0161135
788.497	0.0164227
788.575	0.0161846
788.654	0.0161868
788.732	0.0161453
788.810	0.0161757
788.888	0.0161491
788.966	0.0160008
789.044	0.0160300
789.122	0.0161455
789.200	0.0162041
789.279	0.0163110
789.357	0.0161858
789.435	0.0162302
789.513	0.0162284
789.591	0.0163499
789.669	0.0161925
789.747	0.0162597
789.825	0.0161411
789.904	0.0159296
789.982	0.0160135
790.060	0.0161182
790.138	0.0161376
790.216	0.0159724
790.294	0.0159287
790.372	0.0160203
790.450	0.0159702
790.529	0.0158422
790.607	0.0159188
790.685	0.0158479
790.763	0.0158733
790.841	0.0158858
790.919	0.0159033
790.997	0.0158706
791.075	0.0159159
791.154	0.0160921
791.232	0.0160339
791.310	0.0160214
791.388	0.0161053
791.466	0.0161838
791.544	0.0161720
791.622	0.0160400
791.700	0.0161496
791.779	0.0161453
791.857	0.0161893
791.935	0.0161102
792.013	0.0161767
792.091	0.0161324
792.169	0.0161299
792.247	0.0160332
792.325	0.0160941
792.404	0.0160155
792.482	0.0161168
792.560	0.0160475
792.638	0.0159966
792.716	0.0160894
792.794	0.0163379
792.872	0.0162558
792.950	0.0160844
793.029	0.0162647
793.107	0.0161820
793.185	0.0162893
793.263	0.0162674
793.341	0.0161312
793.419	0.0162672
793.497	0.0163809
793.575	0.0163469
793.654	0.0164606
793.732	0.0162234
793.810	0.0161387
793.888	0.0161178
793.966	0.0162635
794.044	0.0162933
794.122	0.0162247
794.200	0.0161875
794.279	0.0161545
794.357	0.0160473
794.435	0.0162595
794.513	0.0161981
794.591	0.0162363
794.669	0.0161900
794.747	0.0161215
794.825	0.0161946
794.904	0.0161714
794.982	0.0161732
795.060	0.0160098
795.138	0.0161680
795.216	0.0162036
795.294	0.0162461
795.372	0.0161490
795.450	0.0161375
795.529	0.0160794
795.607	0.0160549
795.685	0.0161897
795.763	0.0160368
795.841	0.0162236
795.919	0.0160047
795.997	0.0160191
796.075	0.0159365
796.154	0.0159568
796.232	0.0159255
796.310	0.0159999
796.388	0.0159600
796.466	0.0160479
796.544	0.0159618
796.622	0.0159597
796.700	0.0161937
796.779	0.0161839
796.857	0.0162098
796.935	0.0162381
797.013	0.0163493
797.091	0.0162116
797.169	0.0162954
797.247	0.0163489
797.325	0.0161364
797.404	0.0163256
797.482	0.0162577
797.560	0.0161315
797.638	0.0160957
797.716	0.0160663
797.794	0.0160519
797.872	0.0159924
797.950	0.0159692
798.029	0.0159266
798.107	0.0158760
798.185	0.0159782
798.263	0.0159676
798.341	0.0160009
798.419	0.0159915
798.497	0.0158797
798.575	0.0160193
798.654	0.0159109
798.732	0.0160240
798.810	0.0159703
798.888	0.0160658
798.966	0.0160271
799.044	0.0160973
799.122	0.0160820
799.200	0.0161087
799.279	0.0162312
799.357	0.0161548
799.435	0.0162235
799.513	0.0161598
799.591	0.0160890
799.669	0.0161442
799.747	0.0162045
799.825	0.0160340
799.904	0.0160856
799.982	0.0159477
800.060	0.0162140
800.138	0.0161883
800.216	0.0160552
800.294	0.0161574
800.372	0.0162994
800.450	0.0162339
800.529	0.0163120
800.607	0.0163192
800.685	0.0164072
800.763	0.0163501
800.841	0.0164317
800.919	0.0163798
800.997	0.0164524
801.075	0.0164423
801.154	0.0164403
801.232	0.0163534
801.310	0.0163253
801.388	0.0162934
801.466	0.0164054
801.544	0.0161561
801.622	0.0163329
801.700	0.0163397
801.779	0.0162183
801.857	0.0163461
801.935	0.0162991
802.013	0.0163290
802.091	0.0162946
802.169	0.0162094
802.247	0.0161329
802.325	0.0161980
802.404	0.0161913
802.482	0.0162039
802.560	0.0161343
802.638	0.0161679
802.716	0.0161684
802.794	0.0160890
802.872	0.0160874
802.950	0.0161856
803.029	0.0162079
803.107	0.0160172
803.185	0.0159960
803.263	0.0160078
803.341	0.0160898
803.419	0.0160840
803.497	0.0160087
803.575	0.0160775
803.654	0.0160489
803.732	0.0160661
803.810	0.0160168
803.888	0.0160384
803.966	0.0159857
804.044	0.0159564
804.122	0.0160282
804.200	0.0159401
804.279	0.0160303
804.357	0.0159002
804.435	0.0159357
804.513	0.0159382
804.591	0.0159985
804.669	0.0160516
804.747	0.0160411
804.825	0.0160804
804.904	0.0160927
804.982	0.0161087
805.060	0.0162114
805.138	0.0161355
805.216	0.0161327
805.294	0.0162460
805.372	0.0161326
805.450	0.0160616
805.529	0.0162862
805.607	0.0163105
805.685	0.0163573
805.763	0.0161937
805.841	0.0161807
805.919	0.0163092
805.997	0.0163823
806.075	0.0163222
806.154	0.0162859
806.232	0.0164232
806.310	0.0162859
806.388	0.0163545
806.466	0.0162154
806.544	0.0162673
806.622	0.0163922
806.700	0.0164370
806.779	0.0161275
806.857	0.0163305
806.935	0.0163563
807.013	0.0163208
807.091	0.0161874
807.169	0.0161971
807.247	0.0162697
807.325	0.0160560
807.404	0.0160781
807.482	0.0160227
807.560	0.0159904
807.638	0.0159441
807.716	0.0158684
807.794	0.0161727
807.872	0.0159603
807.950	0.0160103
808.029	0.0159444
808.107	0.0158350
808.185	0.0159705
808.263	0.0158865
808.341	0.0159299
808.419	0.0159535
808.497	0.0158861
808.575	0.0159410
808.654	0.0160497
808.732	0.0159945
808.810	0.0161472
808.888	0.0159774
808.966	0.0160488
809.044	0.0160718
809.122	0.0160925
809.200	0.0160606
809.279	0.0160744
809.357	0.0160622
809.435	0.0160937
809.513	0.0161337
809.591	0.0161462
809.669	0.0160716
809.747	0.0160903
809.825	0.0161884
809.904	0.0160887
809.982	0.0161597
810.060	0.0161549
810.138	0.0160760
810.216	0.0161761
810.294	0.0161740
810.372	0.0161671
810.450	0.0161813
810.529	0.0161679
810.607	0.0161768
810.685	0.0162343
810.763	0.0162383
810.841	0.0161695
810.919	0.0161243
810.997	0.0162717
811.075	0.0162693
811.154	0.0163428
811.232	0.0162753
811.310	0.0163573
811.388	0.0163751
811.466	0.0163924
811.544	0.0162171
811.622	0.0162593
811.700	0.0162306
811.779	0.0163367
811.857	0.0161560
811.935	0.0162101
812.013	0.0161991
812.091	0.0162304
812.169	0.0162164
812.247	0.0161573
812.325	0.0161121
812.404	0.0162918
812.482	0.0161016
812.560	0.0160384
812.638	0.0162116
812.716	0.0161633
812.794	0.0161894
812.872	0.0159760
812.950	0.0161157
813.029	0.0161046
813.107	0.0161629
813.185	0.0161598
813.263	0.0160561
813.341	0.0159311
813.419	0.0160595
813.497	0.0160471
813.575	0.0160173
813.654	0.0158993
813.732	0.0158105
813.810	0.0158110
813.888	0.0158256
813.966	0.0158315
814.044	0.0158256
814.122	0.0158482
814.200	0.0158373
814.279	0.0158407
814.357	0.0160793
814.435	0.0159132
814.513	0.0157458
814.591	0.0158946
814.669	0.0160424
814.747	0.0160435
814.825	0.0161526
814.904	0.0160025
814.982	0.0162421
815.060	0.0162221
815.138	0.0163371
815.216	0.0163430
815.294	0.0162978
815.372	0.0165452
815.450	0.0165308
815.529	0.0164584
815.607	0.0166036
815.685	0.0164600
815.763	0.0164816
815.841	0.0166017
815.919	0.0163068
815.997	0.0163131
816.075	0.0164190
816.154	0.0163049
816.232	0.0161889
816.310	0.0161824
816.388	0.0161165
816.466	0.0158997
816.544	0.0160497
816.622	0.0160863
816.700	0.0157729
816.779	0.0159483
816.857	0.0160306
816.935	0.0159847
817.013	0.0162145
817.091	0.0160967
817.169	0.0160390
817.247	0.0160833
817.325	0.0160455
817.404	0.0161502
817.482	0.0161647
817.560	0.0160300
817.638	0.0161016
817.716	0.0164063
817.794	0.0163918
817.872	0.0160987
817.950	0.0162098
818.029	0.0163079
818.107	0.0160769
818.185	0.0162006
818.263	0.0163348
818.341	0.0162567
818.419	0.0162967
818.497	0.0161221
818.575	0.0162008
818.654	0.0162550
818.732	0.0162133
818.810	0.0159677
818.888	0.0161601
818.966	0.0162476
819.044	0.0161339
819.122	0.0161996
819.200	0.0160980
819.279	0.0161111
819.357	0.0160744
819.435	0.0160602
819.513	0.0160339
819.591	0.0160331
819.669	0.0159527
819.747	0.0160620
819.825	0.0158472
819.904	0.0159146
819.982	0.0159319
820.060	0.0157762
820.138	0.0158154
820.216	0.0158321
820.294	0.0158073
820.372	0.0157542
820.450	0.0158340
820.529	0.0159701
820.607	0.0158656
820.685	0.0159160
820.763	0.0160507
820.841	0.0160391
820.919	0.0159590
820.997	0.0160258
821.075	0.0160860
821.154	0.0162615
821.232	0.0160802
821.310	0.0161170
821.388	0.0163660
821.466	0.0163846
821.544	0.0161096
821.622	0.0162759
821.700	0.0162084
821.779	0.0162093
821.857	0.0161720
821.935	0.0162844
822.013	0.0162917
822.091	0.0162371
822.169	0.0162282
822.247	0.0163780
822.325	0.0162126
822.404	0.0163924
822.482	0.0163733
822.560	0.0162614
822.638	0.0163894
822.716	0.0164011
822.794	0.0162541
822.872	0.0162584
822.950	0.0163191
823.029	0.0163488
823.107	0.0161980
823.185	0.0162698
823.263	0.0163853
823.341	0.0163085
823.419	0.0163950
823.497	0.0162368
823.575	0.0163245
823.654	0.0162051
823.732	0.0161832
823.810	0.0162450
823.888	0.0160220
823.966	0.0161071
824.044	0.0159579
824.122	0.0158647
824.200	0.0160890
824.279	0.0158987
824.357	0.0157867
824.435	0.0157368
824.513	0.0156594
824.591	0.0157504
824.669	0.0157980
824.747	0.0158138
824.825	0.0157493
824.904	0.0156760
824.982	0.0159238
825.060	0.0159460
825.138	0.0156910
825.216	0.0158765
825.294	0.0159616
825.372	0.0159277
825.450	0.0159550
825.529	0.0163516
825.607	0.0161612
825.685	0.0161652
825.763	0.0161977
825.841	0.0163657
825.919	0.0161977
825.997	0.0163255
826.075	0.0163069
826.154	0.0164213
826.232	0.0165430
826.310	0.0164058
826.388	0.0163577
826.466	0.0164662
826.544	0.0165116
826.622	0.0164941
826.700	0.0165154
826.779	0.0166238
826.857	0.0165005
826.935	0.0164356
827.013	0.0164028
827.091	0.0164445
827.169	0.0163655
827.247	0.0162125
827.325	0.0162968
827.404	0.0162565
827.482	0.0162638
827.560	0.0161108
827.638	0.0161655
827.716	0.0160875
827.794	0.0161378
827.872	0.0160406
827.950	0.0159683
828.029	0.0161613
828.107	0.0161023
828.185	0.0161283
828.263	0.0160533
828.341	0.0159753
828.419	0.0160898
828.497	0.0160159
828.575	0.0160091
828.654	0.0158986
828.732	0.0158978
828.810	0.0157694
828.888	0.0158946
828.966	0.0159517
829.044	0.0158435
829.122	0.0157569
829.200	0.0158344
829.279	0.0157659
829.357	0.0158730
829.435	0.0157931
829.513	0.0158453
829.591	0.0158604
829.669	0.0157811
829.747	0.0160158
829.825	0.0159627
829.904	0.0159470
829.982	0.0161055
830.060	0.0159886
830.138	0.0160629
830.216	0.0161519
830.294	0.0163503
830.372	0.0163269
830.450	0.0163121
830.529	0.0163070
830.607	0.0163315
830.685	0.0163911
830.763	0.0164973
830.841	0.0164980
830.919	0.0164149
830.997	0.0164274
831.075	0.0166068
831.154	0.0163422
831.232	0.0163602
831.310	0.0164061
831.388	0.0164142
831.466	0.0164121
831.544	0.0164590
831.622	0.0164159
831.700	0.0164289
831.779	0.0162659
831.857	0.0162493
831.935	0.0161677
832.013	0.0163484
832.091	0.0162054
832.169	0.0162067
832.247	0.0161821
832.325	0.0162523
832.404	0.0162549
832.482	0.0162725
832.560	0.0162269
832.638	0.0163021
832.716	0.0162892
832.794	0.0162153
832.872	0.0161278
832.950	0.0160263
833.029	0.0160383
833.107	0.0160262
833.185	0.0159971
833.263	0.0158966
833.341	0.0160376
833.419	0.0158475
833.497	0.0160390
833.575	0.0159479
833.654	0.0158582
833.732	0.0158095
833.810	0.0159240
833.888	0.0159100
833.966	0.0159023
834.044	0.0160425
834.122	0.0159410
834.200	0.0159119
834.279	0.0158740
834.357	0.0159567
834.435	0.0159538
834.513	0.0158220
834.591	0.0159691
834.669	0.0158159
834.747	0.0157631
834.825	0.0158251
834.904	0.0158150
834.982	0.0159983
835.060	0.0158018
835.138	0.0159093
835.216	0.0158558
835.294	0.0157687
835.372	0.0158841
835.450	0.0159705
835.529	0.0161758
835.607	0.0160040
835.685	0.0162246
835.763	0.0163557
835.841	0.0161855
835.919	0.0163928
835.997	0.0163928
836.075	0.0163688
836.154	0.0165132
836.232	0.0166012
836.310	0.0167259
836.388	0.0167113
836.466	0.0167341
836.544	0.0168267
836.622	0.0167774
836.700	0.0167635
836.779	0.0167333
836.857	0.0167953
836.935	0.0166112
837.013	0.0166644
837.091	0.0166953
837.169	0.0166204
837.247	0.0163152
837.325	0.0163926
837.404	0.0161939
837.482	0.0161670
837.560	0.0162125
837.638	0.0159428
837.716	0.0159347
837.794	0.0157158
837.872	0.0155975
837.950	0.0154884
838.029	0.0153828
838.107	0.0154533
838.185	0.0153892
838.263	0.0153622
838.341	0.0152254
838.419	0.0153388
838.497	0.0153828
838.575	0.0153488
838.654	0.0153280
838.732	0.0155857
838.810	0.0156322
838.888	0.0158363
838.966	0.0158386
839.044	0.0158617
839.122	0.0160691
839.200	0.0162525
839.279	0.0162573
839.357	0.0163548
839.435	0.0165219
839.513	0.0164838
839.591	0.0165301
839.669	0.0166989
839.747	0.0168565
839.825	0.0169209
839.904	0.0168250
839.982	0.0168756
840.060	0.0170399
840.138	0.0168537
840.216	0.0168729
840.294	0.0168524
840.372	0.0167076
840.450	0.0167451
840.529	0.0164505
840.607	0.0165484
840.685	0.0164008
840.763	0.0161552
840.841	0.0159930
840.919	0.0162199
840.997	0.0161234
841.075	0.0160337
841.154	0.0158964
841.232	0.0158540
841.310	0.0156636
841.388	0.0157773
841.466	0.0156724
841.544	0.0156567
841.622	0.0156339
841.700	0.0155156
841.779	0.0156059
841.857	0.0155105
841.935	0.0155314
842.013	0.0155098
842.091	0.0155603
842.169	0.0155582
842.247	0.0157978
842.325	0.0158659
842.404	0.0159499
842.482	0.0160077
842.560	0.0160162
842.638	0.0160621
842.716	0.0160517
842.794	0.0162833
842.872	0.0164061
842.950	0.0166154
843.029	0.0165309
843.107	0.0164697
843.185	0.0165297
843.263	0.0165656
843.341	0.0165505
843.419	0.0164909
843.497	0.0165697
843.575	0.0166467
843.654	0.0165681
843.732	0.0165586
843.810	0.0165031
843.888	0.0165057
843.966	0.0163730
844.044	0.0164659
844.122	0.0162671
844.200	0.0163416
844.279	0.0164762
844.357	0.0162331
844.435	0.0159878
844.513	0.0159613
844.591	0.0158517
844.669	0.0158970
844.747	0.0159725
844.825	0.0157654
844.904	0.0157019
844.982	0.0157252
845.060	0.0156415
845.138	0.0155878
845.216	0.0156013
845.294	0.0155793
845.372	0.0154810
845.450	0.0156048
845.529	0.0154760
845.607	0.0155625
845.685	0.0156127
845.763	0.0156149
845.841	0.0156921
845.919	0.0155859
845.997	0.0156743
846.075	0.0157868
846.154	0.0157845
846.232	0.0159061
846.310	0.0158799
846.388	0.0159752
846.466	0.0159322
846.544	0.0160362
846.622	0.0163500
846.700	0.0163197
846.779	0.0163231
846.857	0.0161876
846.935	0.0162331
847.013	0.0164250
847.091	0.0164595
847.169	0.0165975
847.247	0.0164730
847.325	0.0166517
847.404	0.0167108
847.482	0.0167580
847.560	0.0167695
847.638	0.0168324
847.716	0.0169230
847.794	0.0168505
847.872	0.0168620
847.950	0.0169550
848.029	0.0169270
848.107	0.0169176
848.185	0.0168004
848.263	0.0166872
848.341	0.0167797
848.419	0.0168317
848.497	0.0165885
848.575	0.0166335
848.654	0.0165405
848.732	0.0165149
848.810	0.0163337
848.888	0.0160804
848.966	0.0161542
849.044	0.0160868
849.122	0.0158621
849.200	0.0159099
849.279	0.0158742
849.357	0.0157710
849.435	0.0157971
849.513	0.0156425
849.591	0.0156966
849.669	0.0155217
849.747	0.0155526
849.825	0.0154720
849.904	0.0154575
849.982	0.0156145
850.060	0.0154578
850.138	0.0155183
850.216	0.0155815
850.294	0.0156358
850.372	0.0155083
850.450	0.0155834
850.529	0.0157039
850.607	0.0157460
850.685	0.0157885
850.763	0.0156427
850.841	0.0157416
850.919	0.0158742
850.997	0.0157771
851.075	0.0159492
851.154	0.0158728
851.232	0.0160750
851.310	0.0159898
851.388	0.0160741
851.466	0.0160854
851.544	0.0162250
851.622	0.0162765
851.700	0.0163655
851.779	0.0164261
851.857	0.0164001
851.935	0.0164390
852.013	0.0163690
852.091	0.0165334
852.169	0.0165378
852.247	0.0165871
852.325	0.0168306
852.404	0.0168068
852.482	0.0166759
852.560	0.0167536
852.638	0.0168897
852.716	0.0168944
852.794	0.0167767
852.872	0.0167967
852.950	0.0168184
853.029	0.0166611
853.107	0.0165149
853.185	0.0165607
853.263	0.0164964
853.341	0.0163964
853.419	0.0162384
853.497	0.0161531
853.575	0.0162012
853.654	0.0160577
853.732	0.0160565
853.810	0.0159547
853.888	0.0159940
853.966	0.0159518
854.044	0.0158063
854.122	0.0158540
854.200	0.0157549
854.279	0.0157710
854.357	0.0159203
854.435	0.0158139
854.513	0.0157534
854.591	0.0157869
854.669	0.0158585
854.747	0.0157703
854.825	0.0159071
854.904	0.0159607
854.982	0.0157510
855.060	0.0158851
855.138	0.0158412
855.216	0.0156760
855.294	0.0159870
855.372	0.0158439
855.450	0.0158582
855.529	0.0160400
855.607	0.0159782
855.685	0.0159562
855.763	0.0159019
855.841	0.0159721
855.919	0.0162272
855.997	0.0161431
856.075	0.0161432
856.154	0.0161607
856.232	0.0161422
856.310	0.0162820
856.388	0.0162787
856.466	0.0162045
856.544	0.0162115
856.622	0.0160994
856.700	0.0161912
856.779	0.0162420
856.857	0.0162449
856.935	0.0164358
857.013	0.0163722
857.091	0.0162574
857.169	0.0162927
857.247	0.0163965
857.325	0.0164268
857.404	0.0163899
857.482	0.0163363
857.560	0.0163407
857.638	0.0164446
857.716	0.0164162
857.794	0.0164584
857.872	0.0164270
857.950	0.0164069
858.029	0.0161889
858.107	0.0162335
858.185	0.0162657
858.263	0.0163261
858.341	0.0162490
858.419	0.0162105
858.497	0.0161801
858.575	0.0162653
858.654	0.0161311
858.732	0.0160357
858.810	0.0160065
858.888	0.0160571
858.966	0.0161613
859.044	0.0159448
859.122	0.0160500
859.200	0.0160294
859.279	0.0160169
859.357	0.0160412
859.435	0.0160995
859.513	0.0160997
859.591	0.0160208
859.669	0.0161542
859.747	0.0160260
859.825	0.0160654
859.904	0.0161126
859.982	0.0161121
860.060	0.0161340
860.138	0.0162231
860.216	0.0161301
860.294	0.0162235
860.372	0.0162757
860.450	0.0162331
860.529	0.0162350
860.607	0.0161476
860.685	0.0161584
860.763	0.0162885
860.841	0.0161596
860.919	0.0160571
860.997	0.0160250
861.075	0.0160258
861.154	0.0162090
861.232	0.0161453
861.310	0.0159567
861.388	0.0161337
861.466	0.0161543
861.544	0.0159765
861.622	0.0161325
861.700	0.0160603
861.779	0.0160043
861.857	0.0160168
861.935	0.0159856
862.013	0.0159620
862.091	0.0158698
862.169	0.0159850
862.247	0.0161107
862.325	0.0160258
862.404	0.0160215
862.482	0.0161610
862.560	0.0160574
862.638	0.0161515
862.716	0.0161312
862.794	0.0159949
862.872	0.0162141
862.950	0.0162935
863.029	0.0163097
863.107	0.0162745
863.185	0.0163990
863.263	0.0163250
863.341	0.0163457
863.419	0.0163379
863.497	0.0164603
863.575	0.0164507
863.654	0.0163823
863.732	0.0163941
863.810	0.0164267
863.888	0.0163477
863.966	0.0164965
864.044	0.0164277
864.122	0.0164986
864.200	0.0164425
864.279	0.0162554
864.357	0.0163541
864.435	0.0162579
864.513	0.0163660
864.591	0.0163212
864.669	0.0163182
864.747	0.0164211
864.825	0.0162436
864.904	0.0163406
864.982	0.0163109
865.060	0.0162209
865.138	0.0163042
865.216	0.0162836
865.294	0.0161771
865.372	0.0160857
865.450	0.0161055
865.529	0.0162079
865.607	0.0163259
865.685	0.0161707
865.763	0.0161665
865.841	0.0161115
865.919	0.0160741
865.997	0.0160885
866.075	0.0161340
866.154	0.0160703
866.232	0.0160926
866.310	0.0160548
866.388	0.0160474
866.466	0.0159886
866.544	0.0159127
866.622	0.0160541
866.700	0.0159617
866.779	0.0160632
866.857	0.0157722
866.935	0.0158846
867.013	0.0158246
867.091	0.0159174
867.169	0.0159649
867.247	0.0157552
867.325	0.0157561
867.404	0.0158622
867.482	0.0157281
867.560	0.0156200
867.638	0.0156902
867.716	0.0158133
867.794	0.0156688
867.872	0.0157388
867.950	0.0158591
868.029	0.0157450
868.107	0.0157307
868.185	0.0160101
868.263	0.0159280
868.341	0.0158778
868.419	0.0161293
868.497	0.0161941
868.575	0.0162515
868.654	0.0163122
868.732	0.0163570
868.810	0.0164763
868.888	0.0164742
868.966	0.0165952
869.044	0.0165800
869.122	0.0166672
869.200	0.0167662
869.279	0.0167280
869.357	0.0168657
869.435	0.0168738
869.513	0.0168557
869.591	0.0168851
869.669	0.0169188
869.747	0.0166573
869.825	0.0166573
869.904	0.0167440
869.982	0.0166999
870.060	0.0166234
870.138	0.0165324
870.216	0.0163673
870.294	0.0164043
870.372	0.0163261
870.450	0.0163744
870.529	0.0162968
870.607	0.0162643
870.685	0.0161219
870.763	0.0161251
870.841	0.0160369
870.919	0.0162064
870.997	0.0161148
871.075	0.0161508
871.154	0.0161344
871.232	0.0161156
871.310	0.0160553
871.388	0.0160751
871.466	0.0160674
871.544	0.0160880
871.622	0.0160269
871.700	0.0158942
871.779	0.0157844
871.857	0.0158908
871.935	0.0157846
872.013	0.0158681
872.091	0.0159430
872.169	0.0157188
872.247	0.0156282
872.325	0.0155681
872.404	0.0156319
872.482	0.0156233
872.560	0.0156966
872.638	0.0156984
872.716	0.0156563
872.794	0.0157838
872.872	0.0157015
872.950	0.0157039
873.029	0.0157693
873.107	0.0158463
873.185	0.0157804
873.263	0.0157183
873.341	0.0158715
873.419	0.0160600
873.497	0.0159209
873.575	0.0160046
873.654	0.0160563
873.732	0.0160925
873.810	0.0161587
873.888	0.0163997
873.966	0.0163319
874.044	0.0163554
874.122	0.0163393
874.200	0.0163515
874.279	0.0165205
874.357	0.0164754
874.435	0.0164970
874.513	0.0165721
874.591	0.0165605
874.669	0.0167210
874.747	0.0165522
874.825	0.0166396
874.904	0.0166427
874.982	0.0165306
875.060	0.0166037
875.138	0.0165477
875.216	0.0165074
875.294	0.0164077
875.372	0.0163972
875.450	0.0163988
875.529	0.0163408
875.607	0.0162823
875.685	0.0162637
875.763	0.0162705
875.841	0.0162019
875.919	0.0161420
875.997	0.0161041
876.075	0.0161160
876.154	0.0161335
876.232	0.0161066
876.310	0.0160919
876.388	0.0160781
876.466	0.0159910
876.544	0.0161372
876.622	0.0161244
876.700	0.0160012
876.779	0.0159641
876.857	0.0161584
876.935	0.0162132
877.013	0.0160649
877.091	0.0160835
877.169	0.0161546
877.247	0.0161739
877.325	0.0161744
877.404	0.0161867
877.482	0.0162415
877.560	0.0161274
877.638	0.0161862
877.716	0.0160999
877.794	0.0160240
877.872	0.0161620
877.950	0.0161142
878.029	0.0160372
878.107	0.0160551
878.185	0.0160603
878.263	0.0159879
878.341	0.0158935
878.419	0.0159805
878.497	0.0159205
878.575	0.0158974
878.654	0.0157262
878.732	0.0158044
878.810	0.0158391
878.888	0.0158522
878.966	0.0157434
879.044	0.0157025
879.122	0.0158074
879.200	0.0158529
879.279	0.0158692
879.357	0.0158646
879.435	0.0159946
879.513	0.0159026
879.591	0.0159454
879.669	0.0160670
879.747	0.0161182
879.825	0.0162217
879.904	0.0162522
879.982	0.0163802
880.060	0.0163891
880.138	0.0163034
880.216	0.0163719
880.294	0.0164558
880.372	0.0164202
880.450	0.0164065
880.529	0.0163120
880.607	0.0164041
880.685	0.0163860
880.763	0.0162675
880.841	0.0163811
880.919	0.0161031
880.997	0.0162286
881.075	0.0163544
881.154	0.0161443
881.232	0.0161775
881.310	0.0162350
881.388	0.0161679
881.466	0.0161690
881.544	0.0161461
881.622	0.0163301
881.700	0.0163219
881.779	0.0162493
881.857	0.0162189
881.935	0.0162404
882.013	0.0163147
882.091	0.0161340
882.169	0.0162020
882.247	0.0161002
882.325	0.0159850
882.404	0.0158960
882.482	0.0158866
882.560	0.0160052
882.638	0.0158995
882.716	0.0158398
882.794	0.0157722
882.872	0.0156654
882.950	0.0157780
883.029	0.0159620
883.107	0.0158950
883.185	0.0158259
883.263	0.0159658
883.341	0.0161987
883.419	0.0161166
883.497	0.0159437
883.575	0.0159944
883.654	0.0159621
883.732	0.0159156
883.810	0.0158820
883.888	0.0159394
883.966	0.0158756
884.044	0.0159673
884.122	0.0159364
884.200	0.0158278
884.279	0.0159324
884.357	0.0159663
884.435	0.0160789
884.513	0.0161146
884.591	0.0161317
884.669	0.0162460
884.747	0.0163213
884.825	0.0162795
884.904	0.0162775
884.982	0.0162954
885.060	0.0163178
885.138	0.0162690
885.216	0.0163401
885.294	0.0162631
885.372	0.0162318
885.450	0.0162331
885.529	0.0162347
885.607	0.0162817
885.685	0.0161584
885.763	0.0161228
885.841	0.0162605
885.919	0.0161876
885.997	0.0162267
886.075	0.0161034
886.154	0.0162703
886.232	0.0163434
886.310	0.0164404
886.388	0.0163914
886.466	0.0163232
886.544	0.0163953
886.622	0.0163473
886.700	0.0163668
886.779	0.0162189
886.857	0.0163497
886.935	0.0163324
887.013	0.0160427
887.091	0.0162153
887.169	0.0159641
887.247	0.0160497
887.325	0.0159583
887.404	0.0160368
887.482	0.0158770
887.560	0.0157951
887.638	0.0157583
887.716	0.0157902
887.794	0.0160093
887.872	0.0160580
887.950	0.0158971
888.029	0.0159695
888.107	0.0160025
888.185	0.0160162
888.263	0.0161014
888.341	0.0162030
888.419	0.0161459
888.497	0.0161222
888.575	0.0161983
888.654	0.0162331
888.732	0.0161416
888.810	0.0160825
888.888	0.0162209
888.966	0.0161503
889.044	0.0159553
889.122	0.0161014
889.200	0.0160655
889.279	0.0160847
889.357	0.0160403
889.435	0.0160162
889.513	0.0160667
889.591	0.0160962
889.669	0.0160393
889.747	0.0158517
889.825	0.0160728
889.904	0.0161824
889.982	0.0160385
890.060	0.0161041
890.138	0.0159079
890.216	0.0161736
890.294	0.0160898
890.372	0.0160028
890.450	0.0162576
890.529	0.0161445
890.607	0.0159539
890.685	0.0159679
890.763	0.0162261
890.841	0.0161993
890.919	0.0162357
890.997	0.0164428
891.075	0.0163885
891.154	0.0162679
891.232	0.0162585
891.310	0.0163850
891.388	0.0162835
891.466	0.0162570
891.544	0.0164411
891.622	0.0162968
891.700	0.0161250
891.779	0.0162578
891.857	0.0162789
891.935	0.0163297
892.013	0.0161183
892.091	0.0162682
892.169	0.0163321
892.247	0.0161515
892.325	0.0162220
892.404	0.0162369
892.482	0.0162509
892.560	0.0160544
892.638	0.0159623
892.716	0.0160428
892.794	0.0159996
892.872	0.0159843
892.950	0.0158740
893.029	0.0160561
893.107	0.0159106
893.185	0.0158208
893.263	0.0158238
893.341	0.0159579
893.419	0.0159693
893.497	0.0158923
893.575	0.0159060
893.654	0.0159338
893.732	0.0159414
893.810	0.0160059
893.888	0.0159569
893.966	0.0160899
894.044	0.0160312
894.122	0.0161701
894.200	0.0160793
894.279	0.0160926
894.357	0.0161681
894.435	0.0162303
894.513	0.0162778
894.591	0.0160397
894.669	0.0162847
894.747	0.0162796
894.825	0.0162802
894.904	0.0163146
894.982	0.0162341
895.060	0.0160846
895.138	0.0161421
895.216	0.0161667
895.294	0.0160003
895.372	0.0158905
895.450	0.0159296
895.529	0.0158018
895.607	0.0158183
895.685	0.0159018
895.763	0.0158424
895.841	0.0158829
895.919	0.0158881
895.997	0.0158786
896.075	0.0160932
896.154	0.0160078
896.232	0.0160868
896.310	0.0160316
896.388	0.0161864
896.466	0.0160330
896.544	0.0161158
896.622	0.0161098
896.700	0.0162799
896.779	0.0161775
896.857	0.0161706
896.935	0.0162753
897.013	0.0161829
897.091	0.0161151
897.169	0.0161388
897.247	0.0160756
897.325	0.0161386
897.404	0.0161605
897.482	0.0160215
897.560	0.0160937
897.638	0.0160831
897.716	0.0160213
897.794	0.0160081
897.872	0.0160294
897.950	0.0160062
898.029	0.0161009
898.107	0.0160859
898.185	0.0160698
898.263	0.0160345
898.341	0.0160285
898.419	0.0160384
898.497	0.0161514
898.575	0.0161375
898.654	0.0161463
898.732	0.0162025
898.810	0.0162022
898.888	0.0161897
898.966	0.0160881
899.044	0.0161739
899.122	0.0162714
899.200	0.0163181
899.279	0.0161659
899.357	0.0160247
899.435	0.0160787
899.513	0.0160414
899.591	0.0160281
899.669	0.0159667
899.747	0.0159443
899.825	0.0161414
899.904	0.0161813
899.982	0.0161721
900.060	0.0161871
900.138	0.0162546
900.216	0.0163405
900.294	0.0162533
900.372	0.0161087
900.450	0.0161875
900.529	0.0163035
900.607	0.0162434
900.685	0.0163030
900.763	0.0162539
900.841	0.0162190
900.919	0.0162286
900.997	0.0162911
901.075	0.0161295
901.154	0.0160601
901.232	0.0161266
901.310	0.0159563
901.388	0.0161046
901.466	0.0159378
901.544	0.0159518
901.622	0.0158813
901.700	0.0158764
901.779	0.0157343
901.857	0.0157244
901.935	0.0158562
902.013	0.0157458
902.091	0.0157072
902.169	0.0157397
902.247	0.0157290
902.325	0.0158390
902.404	0.0159000
902.482	0.0158811
902.560	0.0160529
902.638	0.0160067
902.716	0.0159358
902.794	0.0159849
902.872	0.0161704
902.950	0.0162867
903.029	0.0161360
903.107	0.0161806
903.185	0.0161689
903.263	0.0161655
903.341	0.0162962
903.419	0.0162245
903.497	0.0162041
903.575	0.0162421
903.654	0.0162285
903.732	0.0162714
903.810	0.0162598
903.888	0.0160964
903.966	0.0161663
904.044	0.0160236
904.122	0.0159862
904.200	0.0160557
904.279	0.0161052
904.357	0.0160677
904.435	0.0160121
904.513	0.0159331
904.591	0.0160352
904.669	0.0159580
904.747	0.0161887
904.825	0.0161333
904.904	0.0161668
904.982	0.0161739
905.060	0.0161833
905.138	0.0163097
905.216	0.0161214
905.294	0.0162140
905.372	0.0163050
905.450	0.0165353
905.529	0.0163459
905.607	0.0164044
905.685	0.0164719
905.763	0.0165107
905.841	0.0161539
905.919	0.0162653
905.997	0.0163155
906.075	0.0161621
906.154	0.0161769
906.232	0.0161412
906.310	0.0161739
906.388	0.0160655
906.466	0.0159527
906.544	0.0159768
906.622	0.0158708
906.700	0.0159821
906.779	0.0158165
906.857	0.0158958
906.935	0.0157526
907.013	0.0157432
907.091	0.0158749
907.169	0.0157549
907.247	0.0157481
907.325	0.0157696
907.404	0.0158868
907.482	0.0159354
907.560	0.0160162
907.638	0.0159644
907.716	0.0160160
907.794	0.0159694
907.872	0.0160474
907.950	0.0163138
908.029	0.0162234
908.107	0.0161727
908.185	0.0162289
908.263	0.0162419
908.341	0.0162132
908.419	0.0161380
908.497	0.0161963
908.575	0.0159940
908.654	0.0161895
908.732	0.0159636
908.810	0.0160108
908.888	0.0160202
908.966	0.0161832
909.044	0.0161095
909.122	0.0160204
909.200	0.0161025
909.279	0.0160248
909.357	0.0160472
909.435	0.0160744
909.513	0.0160207
909.591	0.0158732
909.669	0.0158449
909.747	0.0157808
909.825	0.0159370
909.904	0.0160654
909.982	0.0159404
910.060	0.0158902
910.138	0.0158981
910.216	0.0161908
910.294	0.0160509
910.372	0.0161279
910.450	0.0162186
910.529	0.0162280
910.607	0.0164582
910.685	0.0164837
910.763	0.0164996
910.841	0.0165120
910.919	0.0166861
910.997	0.0167939
911.075	0.0166640
911.154	0.0166978
911.232	0.0166801
911.310	0.0167117
911.388	0.0166161
911.466	0.0165401
911.544	0.0165717
911.622	0.0166154
911.700	0.0165089
911.779	0.0161510
911.857	0.0160929
911.935	0.0161468
912.013	0.0160487
912.091	0.0160185
912.169	0.0159344
912.247	0.0158226
912.325	0.0158165
912.404	0.0157427
912.482	0.0158311
912.560	0.0157094
912.638	0.0157195
912.716	0.0156911
912.794	0.0156452
912.872	0.0158440
912.950	0.0158261
913.029	0.0156540
913.107	0.0158804
913.185	0.0159988
913.263	0.0159165
913.341	0.0159644
913.419	0.0158430
913.497	0.0159300
913.575	0.0160892
913.654	0.0160883
913.732	0.0158349
913.810	0.0159038
913.888	0.0160388
913.966	0.0160200
914.044	0.0160631
914.122	0.0159573
914.200	0.0161947
914.279	0.0161909
914.357	0.0162016
914.435	0.0162379
914.513	0.0161094
914.591	0.0162241
914.669	0.0164069
914.747	0.0162316
914.825	0.0163757
914.904	0.0162783
914.982	0.0163210
915.060	0.0164904
915.138	0.0165367
915.216	0.0163361
915.294	0.0162669
915.372	0.0163986
915.450	0.0163633
915.529	0.0163177
915.607	0.0162907
915.685	0.0161924
915.763	0.0160919
915.841	0.0161274
915.919	0.0161189
915.997	0.0160181
916.075	0.0158518
916.154	0.0158910
916.232	0.0159519
916.310	0.0157574
916.388	0.0161285
916.466	0.0158401
916.544	0.0157935
916.622	0.0159744
916.700	0.0160165
916.779	0.0158482
916.857	0.0158030
916.935	0.0157993
917.013	0.0160783
917.091	0.0158820
917.169	0.0159984
917.247	0.0160863
917.325	0.0160750
917.404	0.0160191
917.482	0.0159883
917.560	0.0160441
917.638	0.0158968
917.716	0.0159656
917.794	0.0160682
917.872	0.0161160
917.950	0.0159845
918.029	0.0161280
918.107	0.0160915
918.185	0.0162162
918.263	0.0163080
918.341	0.0162486
918.419	0.0162743
918.497	0.0164777
918.575	0.0163479
918.654	0.0163577
918.732	0.0164516
918.810	0.0164118
918.888	0.0164799
918.966	0.0164977
919.044	0.0164176
919.122	0.0164951
919.200	0.0165087
919.279	0.0164864
919.357	0.0162304
919.435	0.0162318
919.513	0.0161293
919.591	0.0160847
919.669	0.0160122
919.747	0.0159258
919.825	0.0158319
919.904	0.0157431
