06/01/2022	17:56:08	Ver.	4.1	UNKNOWN
Optical Delay	539.993571	Delta X		0.078125	Sweeps	1	Scan Rate	0/0
Coordinates	Axis 1	NaN	Axis 2	NaN	Axis 3	NaN	Axis 4	NaN	Axis 5	NaN	Axis 6	0.000000
TX Power	0.000000	RX Power	0.000000

539.994	0.0179967
540.072	0.0179871
540.150	0.0180672
540.228	0.0180639
540.306	0.0180244
540.384	0.0180473
540.462	0.0181081
540.540	0.0179137
540.619	0.0179426
540.697	0.0179927
540.775	0.0180219
540.853	0.0180525
540.931	0.0180825
541.009	0.0178802
541.087	0.0180232
541.165	0.0179407
541.244	0.0180003
541.322	0.0180034
541.400	0.0178616
541.478	0.0180370
541.556	0.0180158
541.634	0.0179786
541.712	0.0180103
541.790	0.0180279
541.869	0.0180720
541.947	0.0181896
542.025	0.0182243
542.103	0.0181690
542.181	0.0181260
542.259	0.0181613
542.337	0.0182152
542.415	0.0182111
542.494	0.0183523
542.572	0.0182463
542.650	0.0183669
542.728	0.0183344
542.806	0.0182681
542.884	0.0182033
542.962	0.0181807
543.040	0.0183717
543.119	0.0182443
543.197	0.0181688
543.275	0.0183490
543.353	0.0182919
543.431	0.0182849
543.509	0.0181844
543.587	0.0183050
543.665	0.0183647
543.744	0.0182661
543.822	0.0182503
543.900	0.0183116
543.978	0.0182914
544.056	0.0182137
544.134	0.0182700
544.212	0.0182711
544.290	0.0182809
544.369	0.0182426
544.447	0.0182845
544.525	0.0183749
544.603	0.0182156
544.681	0.0181493
544.759	0.0182700
544.837	0.0182529
544.915	0.0180819
544.994	0.0181326
545.072	0.0181246
545.150	0.0182233
545.228	0.0181899
545.306	0.0180968
545.384	0.0180890
545.462	0.0180725
545.540	0.0180127
545.619	0.0179848
545.697	0.0181496
545.775	0.0180466
545.853	0.0180865
545.931	0.0180177
546.009	0.0181779
546.087	0.0181444
546.165	0.0179581
546.244	0.0180907
546.322	0.0180167
546.400	0.0180466
546.478	0.0181546
546.556	0.0179946
546.634	0.0181757
546.712	0.0181588
546.790	0.0179854
546.869	0.0180396
546.947	0.0181351
547.025	0.0181737
547.103	0.0182008
547.181	0.0180981
547.259	0.0180932
547.337	0.0181218
547.415	0.0180376
547.494	0.0181255
547.572	0.0180171
547.650	0.0179649
547.728	0.0180377
547.806	0.0180333
547.884	0.0181793
547.962	0.0181285
548.040	0.0180429
548.119	0.0181341
548.197	0.0179855
548.275	0.0179716
548.353	0.0180933
548.431	0.0181327
548.509	0.0180300
548.587	0.0179888
548.665	0.0182488
548.744	0.0180276
548.822	0.0181738
548.900	0.0180654
548.978	0.0179951
549.056	0.0180007
549.134	0.0179719
549.212	0.0179459
549.290	0.0180537
549.369	0.0179521
549.447	0.0179597
549.525	0.0179411
549.603	0.0178577
549.681	0.0177789
549.759	0.0178555
549.837	0.0178675
549.915	0.0179585
549.994	0.0178815
550.072	0.0177720
550.150	0.0177043
550.228	0.0177705
550.306	0.0177538
550.384	0.0178306
550.462	0.0178445
550.540	0.0177300
550.619	0.0177406
550.697	0.0178925
550.775	0.0178351
550.853	0.0177471
550.931	0.0178047
551.009	0.0179846
551.087	0.0179142
551.165	0.0178667
551.244	0.0178850
551.322	0.0178863
551.400	0.0179208
551.478	0.0180406
551.556	0.0181366
551.634	0.0180045
551.712	0.0179939
551.790	0.0180199
551.869	0.0180018
551.947	0.0179583
552.025	0.0181306
552.103	0.0180253
552.181	0.0180319
552.259	0.0180257
552.337	0.0178699
552.415	0.0180146
552.494	0.0181868
552.572	0.0180904
552.650	0.0181071
552.728	0.0180403
552.806	0.0180248
552.884	0.0180841
552.962	0.0181609
553.040	0.0181099
553.119	0.0180935
553.197	0.0182519
553.275	0.0181661
553.353	0.0182281
553.431	0.0181207
553.509	0.0182207
553.587	0.0181815
553.665	0.0181477
553.744	0.0181107
553.822	0.0182014
553.900	0.0181389
553.978	0.0180951
554.056	0.0182140
554.134	0.0182310
554.212	0.0181693
554.290	0.0180649
554.369	0.0180770
554.447	0.0180228
554.525	0.0182135
554.603	0.0181706
554.681	0.0182473
554.759	0.0181284
554.837	0.0182040
554.915	0.0179400
554.994	0.0181229
555.072	0.0181239
555.150	0.0179703
555.228	0.0180386
555.306	0.0180749
555.384	0.0181069
555.462	0.0181628
555.540	0.0182372
555.619	0.0181359
555.697	0.0181181
555.775	0.0182571
555.853	0.0181843
555.931	0.0181024
556.009	0.0179105
556.087	0.0180621
556.165	0.0179467
556.244	0.0178947
556.322	0.0179207
556.400	0.0179633
556.478	0.0178784
556.556	0.0180688
556.634	0.0179504
556.712	0.0179945
556.790	0.0180866
556.869	0.0182018
556.947	0.0179995
557.025	0.0181400
557.103	0.0181402
557.181	0.0180572
557.259	0.0181323
557.337	0.0181789
557.415	0.0180303
557.494	0.0182167
557.572	0.0181539
557.650	0.0180693
557.728	0.0181601
557.806	0.0180325
557.884	0.0180602
557.962	0.0179013
558.040	0.0179729
558.119	0.0179367
558.197	0.0178098
558.275	0.0178606
558.353	0.0180545
558.431	0.0179156
558.509	0.0177419
558.587	0.0179301
558.665	0.0181316
558.744	0.0181136
558.822	0.0180726
558.900	0.0179845
558.978	0.0180796
559.056	0.0181563
559.134	0.0180492
559.212	0.0179672
559.290	0.0180107
559.369	0.0181952
559.447	0.0180114
559.525	0.0180040
559.603	0.0179427
559.681	0.0178973
559.759	0.0179450
559.837	0.0179201
559.915	0.0179456
559.994	0.0177544
560.072	0.0179195
560.150	0.0177757
560.228	0.0177612
560.306	0.0179021
560.384	0.0178822
560.462	0.0180087
560.540	0.0180141
560.619	0.0179446
560.697	0.0179443
560.775	0.0180428
560.853	0.0181435
560.931	0.0180233
561.009	0.0180282
561.087	0.0180033
561.165	0.0180261
561.244	0.0180518
561.322	0.0180991
561.400	0.0181667
561.478	0.0181143
561.556	0.0180682
561.634	0.0180596
561.712	0.0181145
561.790	0.0180502
561.869	0.0179589
561.947	0.0181110
562.025	0.0179968
562.103	0.0180009
562.181	0.0179160
562.259	0.0179235
562.337	0.0178925
562.415	0.0180711
562.494	0.0180627
562.572	0.0180737
562.650	0.0178253
562.728	0.0180011
562.806	0.0180099
562.884	0.0180517
562.962	0.0180132
563.040	0.0179700
563.119	0.0177405
563.197	0.0180804
563.275	0.0180260
563.353	0.0179709
563.431	0.0180452
563.509	0.0180108
563.587	0.0179435
563.665	0.0179809
563.744	0.0181461
563.822	0.0180373
563.900	0.0180989
563.978	0.0180368
564.056	0.0181065
564.134	0.0180370
564.212	0.0179694
564.290	0.0181821
564.369	0.0181087
564.447	0.0180752
564.525	0.0180527
564.603	0.0181341
564.681	0.0181151
564.759	0.0181652
564.837	0.0181151
564.915	0.0181805
564.994	0.0181127
565.072	0.0181171
565.150	0.0181658
565.228	0.0181977
565.306	0.0181751
565.384	0.0181188
565.462	0.0182449
565.540	0.0182189
565.619	0.0181966
565.697	0.0181644
565.775	0.0178654
565.853	0.0181116
565.931	0.0179789
566.009	0.0179579
566.087	0.0178742
566.165	0.0177921
566.244	0.0179104
566.322	0.0178424
566.400	0.0178075
566.478	0.0178440
566.556	0.0178691
566.634	0.0179131
566.712	0.0178869
566.790	0.0179562
566.869	0.0179441
566.947	0.0180870
567.025	0.0181315
567.103	0.0181872
567.181	0.0182354
567.259	0.0182514
567.337	0.0182734
567.415	0.0184301
567.494	0.0184824
567.572	0.0185876
567.650	0.0184303
567.728	0.0185932
567.806	0.0185746
567.884	0.0185230
567.962	0.0186222
568.040	0.0186022
568.119	0.0184166
568.197	0.0183793
568.275	0.0184008
568.353	0.0182110
568.431	0.0180363
568.509	0.0179510
568.587	0.0178150
568.665	0.0177341
568.744	0.0176451
568.822	0.0175030
568.900	0.0174165
568.978	0.0172476
569.056	0.0172553
569.134	0.0171452
569.212	0.0170333
569.290	0.0171835
569.369	0.0171575
569.447	0.0172424
569.525	0.0173694
569.603	0.0174045
569.681	0.0176285
569.759	0.0177959
569.837	0.0180166
569.915	0.0183165
569.994	0.0182922
570.072	0.0185664
570.150	0.0186774
570.228	0.0187405
570.306	0.0188685
570.384	0.0190864
570.462	0.0191629
570.540	0.0192942
570.619	0.0193214
570.697	0.0193729
570.775	0.0193806
570.853	0.0193376
570.931	0.0192909
571.009	0.0192558
571.087	0.0190923
571.165	0.0189192
571.244	0.0186977
571.322	0.0186531
571.400	0.0183505
571.478	0.0180215
571.556	0.0179256
571.634	0.0178136
571.712	0.0175846
571.790	0.0173145
571.869	0.0170789
571.947	0.0168630
572.025	0.0167017
572.103	0.0167364
572.181	0.0165925
572.259	0.0164062
572.337	0.0164234
572.415	0.0164738
572.494	0.0163158
572.572	0.0164043
572.650	0.0166158
572.728	0.0165729
572.806	0.0169146
572.884	0.0171078
572.962	0.0170026
573.040	0.0174064
573.119	0.0178216
573.197	0.0179994
573.275	0.0181639
573.353	0.0183655
573.431	0.0186775
573.509	0.0190054
573.587	0.0191649
573.665	0.0192970
573.744	0.0195522
573.822	0.0197367
573.900	0.0199851
573.978	0.0199677
574.056	0.0199474
574.134	0.0199826
574.212	0.0199913
574.290	0.0199034
574.369	0.0198306
574.447	0.0196561
574.525	0.0193942
574.603	0.0193442
574.681	0.0191882
574.759	0.0188438
574.837	0.0185797
574.915	0.0185302
574.994	0.0183997
575.072	0.0181503
575.150	0.0178597
575.228	0.0177496
575.306	0.0176228
575.384	0.0174292
575.462	0.0172406
575.540	0.0171103
575.619	0.0171776
575.697	0.0170177
575.775	0.0169733
575.853	0.0168388
575.931	0.0168478
576.009	0.0167867
576.087	0.0168823
576.165	0.0168266
576.244	0.0170350
576.322	0.0170088
576.400	0.0170368
576.478	0.0170441
576.556	0.0170058
576.634	0.0172379
576.712	0.0173368
576.790	0.0174043
576.869	0.0174278
576.947	0.0175954
577.025	0.0176876
577.103	0.0178030
577.181	0.0179301
577.259	0.0179428
577.337	0.0180938
577.415	0.0181687
577.494	0.0182742
577.572	0.0184579
577.650	0.0185542
577.728	0.0186913
577.806	0.0188275
577.884	0.0188263
577.962	0.0189217
578.040	0.0191751
578.119	0.0191933
578.197	0.0194667
578.275	0.0194083
578.353	0.0194186
578.431	0.0194202
578.509	0.0193008
578.587	0.0194115
578.665	0.0193320
578.744	0.0193095
578.822	0.0192338
578.900	0.0189782
578.978	0.0189792
579.056	0.0189251
579.134	0.0185666
579.212	0.0185081
579.290	0.0183921
579.369	0.0181075
579.447	0.0180979
579.525	0.0178758
579.603	0.0176706
579.681	0.0176032
579.759	0.0175040
579.837	0.0173788
579.915	0.0170848
579.994	0.0169747
580.072	0.0170971
580.150	0.0167763
580.228	0.0166698
580.306	0.0167295
580.384	0.0166694
580.462	0.0165126
580.540	0.0165871
580.619	0.0166933
580.697	0.0165757
580.775	0.0167608
580.853	0.0168372
580.931	0.0168642
581.009	0.0171013
581.087	0.0171922
581.165	0.0172233
581.244	0.0174255
581.322	0.0175060
581.400	0.0175408
581.478	0.0177383
581.556	0.0177722
581.634	0.0180558
581.712	0.0180005
581.790	0.0182225
581.869	0.0184064
581.947	0.0184204
582.025	0.0182737
582.103	0.0185607
582.181	0.0186813
582.259	0.0187161
582.337	0.0188085
582.415	0.0188421
582.494	0.0188297
582.572	0.0189850
582.650	0.0190857
582.728	0.0191127
582.806	0.0190621
582.884	0.0191058
582.962	0.0192387
583.040	0.0193311
583.119	0.0193651
583.197	0.0192803
583.275	0.0192892
583.353	0.0192327
583.431	0.0191584
583.509	0.0191992
583.587	0.0188251
583.665	0.0187601
583.744	0.0187711
583.822	0.0186459
583.900	0.0184734
583.978	0.0182697
584.056	0.0181774
584.134	0.0180270
584.212	0.0178909
584.290	0.0177403
584.369	0.0176807
584.447	0.0174084
584.525	0.0174099
584.603	0.0173736
584.681	0.0173871
584.759	0.0173762
584.837	0.0174405
584.915	0.0172715
584.994	0.0173371
585.072	0.0172401
585.150	0.0172972
585.228	0.0171336
585.306	0.0172100
585.384	0.0172079
585.462	0.0170293
585.540	0.0171512
585.619	0.0171920
585.697	0.0172217
585.775	0.0172459
585.853	0.0171242
585.931	0.0171851
586.009	0.0173571
586.087	0.0175826
586.165	0.0174432
586.244	0.0176064
586.322	0.0177781
586.400	0.0178802
586.478	0.0179076
586.556	0.0179098
586.634	0.0180965
586.712	0.0182264
586.790	0.0182788
586.869	0.0182229
586.947	0.0183878
587.025	0.0185085
587.103	0.0186694
587.181	0.0187734
587.259	0.0188538
587.337	0.0189578
587.415	0.0190524
587.494	0.0190103
587.572	0.0191543
587.650	0.0191204
587.728	0.0191801
587.806	0.0192693
587.884	0.0192682
587.962	0.0191003
588.040	0.0191486
588.119	0.0191069
588.197	0.0190096
588.275	0.0189264
588.353	0.0190865
588.431	0.0189330
588.509	0.0187233
588.587	0.0186921
588.665	0.0188650
588.744	0.0188469
588.822	0.0186008
588.900	0.0184508
588.978	0.0182813
589.056	0.0181872
589.134	0.0180240
589.212	0.0179810
589.290	0.0177769
589.369	0.0175408
589.447	0.0174501
589.525	0.0172278
589.603	0.0169535
589.681	0.0168993
589.759	0.0167513
589.837	0.0167916
589.915	0.0165770
589.994	0.0165509
590.072	0.0164981
590.150	0.0165970
590.228	0.0166346
590.306	0.0165992
590.384	0.0166104
590.462	0.0167432
590.540	0.0167992
590.619	0.0169456
590.697	0.0169951
590.775	0.0172997
590.853	0.0174635
590.931	0.0177122
591.009	0.0176778
591.087	0.0179367
591.165	0.0181799
591.244	0.0184240
591.322	0.0185106
591.400	0.0187688
591.478	0.0189825
591.556	0.0190736
591.634	0.0191096
591.712	0.0192896
591.790	0.0193064
591.869	0.0194656
591.947	0.0195274
592.025	0.0195155
592.103	0.0197267
592.181	0.0194978
592.259	0.0193148
592.337	0.0194652
592.415	0.0192988
592.494	0.0190575
592.572	0.0189750
592.650	0.0188126
592.728	0.0187347
592.806	0.0184119
592.884	0.0181981
592.962	0.0181570
593.040	0.0180642
593.119	0.0177924
593.197	0.0177196
593.275	0.0176916
593.353	0.0176933
593.431	0.0175677
593.509	0.0174679
593.587	0.0174599
593.665	0.0173785
593.744	0.0174588
593.822	0.0173668
593.900	0.0174145
593.978	0.0176443
594.056	0.0174361
594.134	0.0174143
594.212	0.0174889
594.290	0.0176061
594.369	0.0176042
594.447	0.0175861
594.525	0.0178893
594.603	0.0180263
594.681	0.0180439
594.759	0.0181477
594.837	0.0182201
594.915	0.0184072
594.994	0.0185134
595.072	0.0187663
595.150	0.0187681
595.228	0.0189443
595.306	0.0190565
595.384	0.0190726
595.462	0.0191403
595.540	0.0191981
595.619	0.0191866
595.697	0.0191661
595.775	0.0189236
595.853	0.0187569
595.931	0.0186423
596.009	0.0186095
596.087	0.0184715
596.165	0.0183478
596.244	0.0182269
596.322	0.0181778
596.400	0.0180929
596.478	0.0181336
596.556	0.0180817
596.634	0.0180360
596.712	0.0180424
596.790	0.0179539
596.869	0.0181613
596.947	0.0181989
597.025	0.0181115
597.103	0.0180840
597.181	0.0181132
597.259	0.0182133
597.337	0.0180734
597.415	0.0181966
597.494	0.0182266
597.572	0.0181998
597.650	0.0183993
597.728	0.0183113
597.806	0.0182271
597.884	0.0181892
597.962	0.0182174
598.040	0.0183180
598.119	0.0184066
598.197	0.0181029
598.275	0.0181915
598.353	0.0181976
598.431	0.0183076
598.509	0.0181110
598.587	0.0181873
598.665	0.0180772
598.744	0.0181686
598.822	0.0181384
598.900	0.0180070
598.978	0.0180046
599.056	0.0180549
599.134	0.0178192
599.212	0.0177773
599.290	0.0178783
599.369	0.0177825
599.447	0.0176955
599.525	0.0177779
599.603	0.0177066
599.681	0.0178094
599.759	0.0177902
599.837	0.0178826
599.915	0.0179282
599.994	0.0179154
600.072	0.0181055
600.150	0.0180015
600.228	0.0181936
600.306	0.0182127
600.384	0.0182817
600.462	0.0184021
600.540	0.0185369
600.619	0.0186755
600.697	0.0185948
600.775	0.0185797
600.853	0.0187076
600.931	0.0190049
601.009	0.0188775
601.087	0.0190979
601.165	0.0191743
601.244	0.0190052
601.322	0.0192345
601.400	0.0191050
601.478	0.0190849
601.556	0.0191487
601.634	0.0190182
601.712	0.0188920
601.790	0.0189785
601.869	0.0187622
601.947	0.0186167
602.025	0.0187255
602.103	0.0185246
602.181	0.0184570
602.259	0.0185484
602.337	0.0181032
602.415	0.0179369
602.494	0.0178247
602.572	0.0177693
602.650	0.0175513
602.728	0.0175484
602.806	0.0174718
602.884	0.0174049
602.962	0.0172827
603.040	0.0171220
603.119	0.0170725
603.197	0.0170643
603.275	0.0170180
603.353	0.0171110
603.431	0.0170559
603.509	0.0169370
603.587	0.0169467
603.665	0.0170708
603.744	0.0170142
603.822	0.0169696
603.900	0.0170738
603.978	0.0172386
604.056	0.0172784
604.134	0.0172465
604.212	0.0173730
604.290	0.0174808
604.369	0.0175871
604.447	0.0175961
604.525	0.0178736
604.603	0.0178432
604.681	0.0181350
604.759	0.0182766
604.837	0.0183397
604.915	0.0184802
604.994	0.0185741
605.072	0.0186817
605.150	0.0187928
605.228	0.0189243
605.306	0.0188947
605.384	0.0187465
605.462	0.0187878
605.540	0.0188558
605.619	0.0189093
605.697	0.0187128
605.775	0.0187773
605.853	0.0186238
605.931	0.0185677
606.009	0.0185671
606.087	0.0184986
606.165	0.0184248
606.244	0.0184451
606.322	0.0184915
606.400	0.0185795
606.478	0.0185871
606.556	0.0186113
606.634	0.0186609
606.712	0.0187432
606.790	0.0187080
606.869	0.0186822
606.947	0.0186181
607.025	0.0186945
607.103	0.0185959
607.181	0.0184954
607.259	0.0186002
607.337	0.0182620
607.415	0.0181409
607.494	0.0182019
607.572	0.0182497
607.650	0.0180212
607.728	0.0179797
607.806	0.0179587
607.884	0.0179196
607.962	0.0177983
608.040	0.0178248
608.119	0.0177446
608.197	0.0177358
608.275	0.0178198
608.353	0.0179256
608.431	0.0177820
608.509	0.0177632
608.587	0.0179150
608.665	0.0177264
608.744	0.0177807
608.822	0.0177347
608.900	0.0176433
608.978	0.0176234
609.056	0.0175906
609.134	0.0176671
609.212	0.0173959
609.290	0.0175430
609.369	0.0175291
609.447	0.0176241
609.525	0.0176589
609.603	0.0175710
609.681	0.0174651
609.759	0.0176058
609.837	0.0177065
609.915	0.0176385
609.994	0.0175455
610.072	0.0175807
610.150	0.0177155
610.228	0.0179691
610.306	0.0178865
610.384	0.0177628
610.462	0.0181174
610.540	0.0182897
610.619	0.0182870
610.697	0.0183099
610.775	0.0186793
610.853	0.0187453
610.931	0.0187959
611.009	0.0190479
611.087	0.0192378
611.165	0.0192064
611.244	0.0193658
611.322	0.0192773
611.400	0.0193639
611.478	0.0193656
611.556	0.0193947
611.634	0.0194202
611.712	0.0192523
611.790	0.0189875
611.869	0.0191402
611.947	0.0190608
612.025	0.0187450
612.103	0.0185777
612.181	0.0187098
612.259	0.0185288
612.337	0.0183215
612.415	0.0183725
612.494	0.0184016
612.572	0.0179918
612.650	0.0179410
612.728	0.0178821
612.806	0.0179685
612.884	0.0177700
612.962	0.0176376
613.040	0.0176547
613.119	0.0175798
613.197	0.0174019
613.275	0.0173665
613.353	0.0173192
613.431	0.0173441
613.509	0.0174638
613.587	0.0175159
613.665	0.0173271
613.744	0.0174622
613.822	0.0174996
613.900	0.0174667
613.978	0.0175745
614.056	0.0176443
614.134	0.0176699
614.212	0.0177505
614.290	0.0177570
614.369	0.0179005
614.447	0.0179320
614.525	0.0180769
614.603	0.0180186
614.681	0.0180399
614.759	0.0182245
614.837	0.0181246
614.915	0.0183018
614.994	0.0182079
615.072	0.0183759
615.150	0.0183027
615.228	0.0183311
615.306	0.0183165
615.384	0.0183248
615.462	0.0185101
615.540	0.0183878
615.619	0.0186462
615.697	0.0184351
615.775	0.0182940
615.853	0.0183304
615.931	0.0183595
616.009	0.0183495
616.087	0.0182558
616.165	0.0182198
616.244	0.0180634
616.322	0.0180694
616.400	0.0179648
616.478	0.0179874
616.556	0.0178388
616.634	0.0176050
616.712	0.0176887
616.790	0.0175617
616.869	0.0174997
616.947	0.0175739
617.025	0.0175668
617.103	0.0173280
617.181	0.0172111
617.259	0.0174403
617.337	0.0175512
617.415	0.0174049
617.494	0.0174282
617.572	0.0176663
617.650	0.0177426
617.728	0.0179324
617.806	0.0179851
617.884	0.0181809
617.962	0.0183710
618.040	0.0184760
618.119	0.0185175
618.197	0.0187811
618.275	0.0188144
618.353	0.0190264
618.431	0.0190170
618.509	0.0190072
618.587	0.0191719
618.665	0.0191122
618.744	0.0190308
618.822	0.0191880
618.900	0.0191552
618.978	0.0189481
619.056	0.0188911
619.134	0.0188753
619.212	0.0187882
619.290	0.0187394
619.369	0.0185737
619.447	0.0184681
619.525	0.0183307
619.603	0.0182826
619.681	0.0183455
619.759	0.0182180
619.837	0.0180325
619.915	0.0179847
619.994	0.0179202
620.072	0.0177061
620.150	0.0179945
620.228	0.0179506
620.306	0.0176215
620.384	0.0180162
620.462	0.0179236
620.540	0.0178903
620.619	0.0176426
620.697	0.0178575
620.775	0.0178469
620.853	0.0177593
620.931	0.0176411
621.009	0.0179247
621.087	0.0179487
621.165	0.0179118
621.244	0.0178345
621.322	0.0178390
621.400	0.0177359
621.478	0.0177666
621.556	0.0177993
621.634	0.0177700
621.712	0.0178978
621.790	0.0178652
621.869	0.0179348
621.947	0.0179324
622.025	0.0179143
622.103	0.0179269
622.181	0.0178764
622.259	0.0179504
622.337	0.0180282
622.415	0.0179299
622.494	0.0178591
622.572	0.0178212
622.650	0.0178016
622.728	0.0179541
622.806	0.0177996
622.884	0.0179031
622.962	0.0177122
623.040	0.0177596
623.119	0.0178017
623.197	0.0180109
623.275	0.0180197
623.353	0.0180760
623.431	0.0180222
623.509	0.0182724
623.587	0.0181766
623.665	0.0183201
623.744	0.0184182
623.822	0.0182710
623.900	0.0183419
623.978	0.0184653
624.056	0.0182008
624.134	0.0181483
624.212	0.0182518
624.290	0.0181310
624.369	0.0180312
624.447	0.0179711
624.525	0.0179900
624.603	0.0179527
624.681	0.0178708
624.759	0.0177278
624.837	0.0180590
624.915	0.0181256
624.994	0.0181962
625.072	0.0183049
625.150	0.0182027
625.228	0.0183377
625.306	0.0184756
625.384	0.0185964
625.462	0.0185136
625.540	0.0185324
625.619	0.0187157
625.697	0.0186018
625.775	0.0186921
625.853	0.0186859
625.931	0.0188175
626.009	0.0186115
626.087	0.0187620
626.165	0.0186722
626.244	0.0187296
626.322	0.0185690
626.400	0.0184449
626.478	0.0184357
626.556	0.0184870
626.634	0.0183326
626.712	0.0182871
626.790	0.0182817
626.869	0.0182260
626.947	0.0180663
627.025	0.0179504
627.103	0.0179693
627.181	0.0179144
627.259	0.0179984
627.337	0.0178919
627.415	0.0177837
627.494	0.0177789
627.572	0.0177366
627.650	0.0177060
627.728	0.0175677
627.806	0.0174319
627.884	0.0176437
627.962	0.0175348
628.040	0.0175464
628.119	0.0175717
628.197	0.0176616
628.275	0.0176841
628.353	0.0176788
628.431	0.0177589
628.509	0.0177887
628.587	0.0180461
628.665	0.0181207
628.744	0.0182502
628.822	0.0181352
628.900	0.0181596
628.978	0.0182847
629.056	0.0183171
629.134	0.0183784
629.212	0.0183262
629.290	0.0183343
629.369	0.0183738
629.447	0.0182710
629.525	0.0181181
629.603	0.0180810
629.681	0.0180550
629.759	0.0180728
629.837	0.0178336
629.915	0.0178084
629.994	0.0177338
630.072	0.0176126
630.150	0.0176531
630.228	0.0174705
630.306	0.0175578
630.384	0.0176660
630.462	0.0174697
630.540	0.0175783
630.619	0.0176735
630.697	0.0174954
630.775	0.0175549
630.853	0.0176573
630.931	0.0178867
631.009	0.0178389
631.087	0.0178329
631.165	0.0180816
631.244	0.0179692
631.322	0.0181550
631.400	0.0181998
631.478	0.0182953
631.556	0.0186298
631.634	0.0185844
631.712	0.0186350
631.790	0.0186123
631.869	0.0187720
631.947	0.0189367
632.025	0.0188577
632.103	0.0189111
632.181	0.0189449
632.259	0.0189848
632.337	0.0190742
632.415	0.0189220
632.494	0.0188611
632.572	0.0188483
632.650	0.0188990
632.728	0.0186902
632.806	0.0187364
632.884	0.0186252
632.962	0.0184757
633.040	0.0184142
633.119	0.0185114
633.197	0.0181889
633.275	0.0182421
633.353	0.0180543
633.431	0.0180899
633.509	0.0179479
633.587	0.0176910
633.665	0.0178061
633.744	0.0177560
633.822	0.0176763
633.900	0.0175693
633.978	0.0175842
634.056	0.0175223
634.134	0.0175973
634.212	0.0175775
634.290	0.0175926
634.369	0.0176088
634.447	0.0174994
634.525	0.0176937
634.603	0.0175925
634.681	0.0177265
634.759	0.0178844
634.837	0.0177036
634.915	0.0179218
634.994	0.0179289
635.072	0.0178194
635.150	0.0177342
635.228	0.0178737
635.306	0.0179022
635.384	0.0178094
635.462	0.0177029
635.540	0.0179237
635.619	0.0181302
635.697	0.0180537
635.775	0.0181048
635.853	0.0180968
635.931	0.0181083
636.009	0.0182274
636.087	0.0183608
636.165	0.0183846
636.244	0.0183540
636.322	0.0184418
636.400	0.0185619
636.478	0.0184676
636.556	0.0185453
636.634	0.0184014
636.712	0.0183492
636.790	0.0184306
636.869	0.0184541
636.947	0.0183265
637.025	0.0183507
637.103	0.0182288
637.181	0.0180711
637.259	0.0181898
637.337	0.0182599
637.415	0.0179734
637.494	0.0180170
637.572	0.0179991
637.650	0.0179112
637.728	0.0178881
637.806	0.0179788
637.884	0.0179395
637.962	0.0179538
638.040	0.0179412
638.119	0.0179751
638.197	0.0179501
638.275	0.0179951
638.353	0.0180781
638.431	0.0181318
638.509	0.0180095
638.587	0.0180927
638.665	0.0179888
638.744	0.0180816
638.822	0.0181008
638.900	0.0181935
638.978	0.0181844
639.056	0.0182515
639.134	0.0182620
639.212	0.0182705
639.290	0.0180255
639.369	0.0181592
639.447	0.0181877
639.525	0.0181869
639.603	0.0182402
639.681	0.0183463
639.759	0.0182738
639.837	0.0182963
639.915	0.0183385
639.994	0.0184238
640.072	0.0183334
640.150	0.0183410
640.228	0.0183813
640.306	0.0184423
640.384	0.0184499
640.462	0.0184029
640.540	0.0184089
640.619	0.0183965
640.697	0.0182700
640.775	0.0183120
640.853	0.0182446
640.931	0.0183466
641.009	0.0183204
641.087	0.0181245
641.165	0.0180256
641.244	0.0180856
641.322	0.0180772
641.400	0.0180158
641.478	0.0178009
641.556	0.0178136
641.634	0.0178363
641.712	0.0177667
641.790	0.0177333
641.869	0.0177847
641.947	0.0178192
642.025	0.0176788
642.103	0.0176614
642.181	0.0176464
642.259	0.0177866
642.337	0.0177879
642.415	0.0178603
642.494	0.0176662
642.572	0.0175806
642.650	0.0177234
642.728	0.0178252
642.806	0.0177571
642.884	0.0176694
642.962	0.0176308
643.040	0.0176525
643.119	0.0176799
643.197	0.0177867
643.275	0.0177308
643.353	0.0180320
643.431	0.0180489
643.509	0.0180604
643.587	0.0180261
643.665	0.0181768
643.744	0.0181975
643.822	0.0182619
643.900	0.0182849
643.978	0.0181486
644.056	0.0180112
644.134	0.0181383
644.212	0.0180872
644.290	0.0182157
644.369	0.0181323
644.447	0.0180438
644.525	0.0178967
644.603	0.0178777
644.681	0.0178259
644.759	0.0178172
644.837	0.0178625
644.915	0.0179615
644.994	0.0179814
645.072	0.0177774
645.150	0.0178736
645.228	0.0179157
645.306	0.0178597
645.384	0.0178783
645.462	0.0179271
645.540	0.0180347
645.619	0.0179736
645.697	0.0181032
645.775	0.0181967
645.853	0.0181640
645.931	0.0182006
646.009	0.0181335
646.087	0.0181187
646.165	0.0180922
646.244	0.0183247
646.322	0.0181841
646.400	0.0180220
646.478	0.0180753
646.556	0.0182940
646.634	0.0183051
646.712	0.0183550
646.790	0.0183598
646.869	0.0183183
646.947	0.0183279
647.025	0.0182699
647.103	0.0182175
647.181	0.0182497
647.259	0.0183189
647.337	0.0183875
647.415	0.0183148
647.494	0.0182803
647.572	0.0182969
647.650	0.0184207
647.728	0.0183654
647.806	0.0182260
647.884	0.0182737
647.962	0.0181302
648.040	0.0182592
648.119	0.0180724
648.197	0.0182587
648.275	0.0181654
648.353	0.0179613
648.431	0.0180621
648.509	0.0180648
648.587	0.0179429
648.665	0.0177616
648.744	0.0179190
648.822	0.0178964
648.900	0.0177911
648.978	0.0178150
649.056	0.0176641
649.134	0.0177235
649.212	0.0177667
649.290	0.0176767
649.369	0.0177713
649.447	0.0177175
649.525	0.0177066
649.603	0.0177705
649.681	0.0177290
649.759	0.0178671
649.837	0.0177038
649.915	0.0178433
649.994	0.0181090
650.072	0.0179571
650.150	0.0179080
650.228	0.0180592
650.306	0.0181151
650.384	0.0182624
650.462	0.0182457
650.540	0.0182738
650.619	0.0183191
650.697	0.0183585
650.775	0.0181556
650.853	0.0183079
650.931	0.0182610
651.009	0.0183793
651.087	0.0184760
651.165	0.0184445
651.244	0.0184412
651.322	0.0185062
651.400	0.0184303
651.478	0.0182095
651.556	0.0182607
651.634	0.0182133
651.712	0.0184136
651.790	0.0182893
651.869	0.0183389
651.947	0.0181357
652.025	0.0183200
652.103	0.0181705
652.181	0.0180872
652.259	0.0181900
652.337	0.0181223
652.415	0.0181742
652.494	0.0181065
652.572	0.0181174
652.650	0.0180042
652.728	0.0179980
652.806	0.0180278
652.884	0.0179603
652.962	0.0179976
653.040	0.0179507
653.119	0.0180151
653.197	0.0178947
653.275	0.0178836
653.353	0.0179042
653.431	0.0178891
653.509	0.0178826
653.587	0.0178310
653.665	0.0179192
653.744	0.0178970
653.822	0.0176707
653.900	0.0177628
653.978	0.0179431
654.056	0.0179549
654.134	0.0178545
654.212	0.0178922
654.290	0.0178902
654.369	0.0180087
654.447	0.0178673
654.525	0.0179773
654.603	0.0179556
654.681	0.0179127
654.759	0.0179818
654.837	0.0180484
654.915	0.0178574
654.994	0.0178070
655.072	0.0179037
655.150	0.0180991
655.228	0.0180744
655.306	0.0180122
655.384	0.0180708
655.462	0.0179221
655.540	0.0179669
655.619	0.0179959
655.697	0.0179104
655.775	0.0178400
655.853	0.0178961
655.931	0.0178870
656.009	0.0178671
656.087	0.0178524
656.165	0.0178391
656.244	0.0178441
656.322	0.0178043
656.400	0.0177067
656.478	0.0177413
656.556	0.0176459
656.634	0.0177402
656.712	0.0177693
656.790	0.0177492
656.869	0.0177518
656.947	0.0177489
657.025	0.0177608
657.103	0.0178779
657.181	0.0178336
657.259	0.0178716
657.337	0.0180207
657.415	0.0179253
657.494	0.0180431
657.572	0.0181333
657.650	0.0181438
657.728	0.0182616
657.806	0.0182639
657.884	0.0182832
657.962	0.0182632
658.040	0.0184225
658.119	0.0183157
658.197	0.0184293
658.275	0.0184685
658.353	0.0184389
658.431	0.0185281
658.509	0.0184630
658.587	0.0185917
658.665	0.0186182
658.744	0.0185272
658.822	0.0185693
658.900	0.0183587
658.978	0.0185275
659.056	0.0185421
659.134	0.0184299
659.212	0.0184917
659.290	0.0182154
659.369	0.0185078
659.447	0.0182395
659.525	0.0182180
659.603	0.0182909
659.681	0.0183086
659.759	0.0181610
659.837	0.0182100
659.915	0.0182224
659.994	0.0182128
660.072	0.0182490
660.150	0.0181720
660.228	0.0180724
660.306	0.0181501
660.384	0.0182033
660.462	0.0179748
660.540	0.0181651
660.619	0.0181591
660.697	0.0180556
660.775	0.0178477
660.853	0.0179156
660.931	0.0179248
661.009	0.0178500
661.087	0.0177827
661.165	0.0178367
661.244	0.0177879
661.322	0.0179262
661.400	0.0178860
661.478	0.0177276
661.556	0.0177892
661.634	0.0177298
661.712	0.0178291
661.790	0.0177975
661.869	0.0179021
661.947	0.0178301
662.025	0.0177813
662.103	0.0178567
662.181	0.0179227
662.259	0.0179041
662.337	0.0179156
662.415	0.0179719
662.494	0.0180222
662.572	0.0180824
662.650	0.0179691
662.728	0.0180198
662.806	0.0180672
662.884	0.0180058
662.962	0.0180270
663.040	0.0180307
663.119	0.0180331
663.197	0.0179681
663.275	0.0180257
663.353	0.0179702
663.431	0.0179451
663.509	0.0179384
663.587	0.0178895
663.665	0.0179117
663.744	0.0178813
663.822	0.0179833
663.900	0.0180288
663.978	0.0178533
664.056	0.0178346
664.134	0.0178020
664.212	0.0180193
664.290	0.0179528
664.369	0.0179980
664.447	0.0179087
664.525	0.0178687
664.603	0.0180215
664.681	0.0179832
664.759	0.0178178
664.837	0.0178786
664.915	0.0177873
664.994	0.0177580
665.072	0.0178583
665.150	0.0178334
665.228	0.0177734
665.306	0.0178344
665.384	0.0177493
665.462	0.0179142
665.540	0.0179131
665.619	0.0179996
665.697	0.0181043
665.775	0.0179053
665.853	0.0179518
665.931	0.0179449
666.009	0.0182816
666.087	0.0182416
666.165	0.0182452
666.244	0.0181745
666.322	0.0182101
666.400	0.0184092
666.478	0.0183224
666.556	0.0183981
666.634	0.0183530
666.712	0.0183661
666.790	0.0185513
666.869	0.0184625
666.947	0.0183662
667.025	0.0183946
667.103	0.0185205
667.181	0.0183829
667.259	0.0183797
667.337	0.0182729
667.415	0.0184020
667.494	0.0183193
667.572	0.0183040
667.650	0.0182477
667.728	0.0180628
667.806	0.0182143
667.884	0.0180349
667.962	0.0179404
668.040	0.0178991
668.119	0.0179340
668.197	0.0178967
668.275	0.0179469
668.353	0.0177664
668.431	0.0176999
668.509	0.0177605
668.587	0.0176942
668.665	0.0176732
668.744	0.0177892
668.822	0.0178360
668.900	0.0177987
668.978	0.0177374
669.056	0.0178591
669.134	0.0178624
669.212	0.0178299
669.290	0.0178533
669.369	0.0179456
669.447	0.0179388
669.525	0.0178975
669.603	0.0181264
669.681	0.0181039
669.759	0.0180557
669.837	0.0180817
669.915	0.0182456
669.994	0.0180647
670.072	0.0181183
670.150	0.0183437
670.228	0.0183409
670.306	0.0180984
670.384	0.0181986
670.462	0.0181189
670.540	0.0182365
670.619	0.0182800
670.697	0.0180522
670.775	0.0181108
670.853	0.0179591
670.931	0.0181490
671.009	0.0181648
671.087	0.0180661
671.165	0.0179989
671.244	0.0180682
671.322	0.0179185
671.400	0.0179692
671.478	0.0179539
671.556	0.0179465
671.634	0.0180028
671.712	0.0179625
671.790	0.0178782
671.869	0.0179095
671.947	0.0180779
672.025	0.0178326
672.103	0.0178366
672.181	0.0176684
672.259	0.0176884
672.337	0.0177144
672.415	0.0176209
672.494	0.0176425
672.572	0.0176354
672.650	0.0177131
672.728	0.0177077
672.806	0.0177293
672.884	0.0177291
672.962	0.0177690
673.040	0.0177982
673.119	0.0179347
673.197	0.0179266
673.275	0.0180330
673.353	0.0180027
673.431	0.0180393
673.509	0.0180501
673.587	0.0180810
673.665	0.0181571
673.744	0.0183342
673.822	0.0183851
673.900	0.0182363
673.978	0.0184072
674.056	0.0183246
674.134	0.0183770
674.212	0.0184089
674.290	0.0184103
674.369	0.0184840
674.447	0.0185606
674.525	0.0183322
674.603	0.0183429
674.681	0.0183584
674.759	0.0184251
674.837	0.0183369
674.915	0.0184441
674.994	0.0183461
675.072	0.0182417
675.150	0.0182746
675.228	0.0181644
675.306	0.0181192
675.384	0.0181807
675.462	0.0180748
675.540	0.0180166
675.619	0.0179706
675.697	0.0179450
675.775	0.0178414
675.853	0.0178696
675.931	0.0177365
676.009	0.0178694
676.087	0.0177292
676.165	0.0177946
676.244	0.0177631
676.322	0.0178580
676.400	0.0178953
676.478	0.0177441
676.556	0.0177762
676.634	0.0177335
676.712	0.0176764
676.790	0.0178587
676.869	0.0178686
676.947	0.0178216
677.025	0.0177608
677.103	0.0177053
677.181	0.0179026
677.259	0.0178914
677.337	0.0180246
677.415	0.0179012
677.494	0.0179801
677.572	0.0178741
677.650	0.0179650
677.728	0.0179178
677.806	0.0179332
677.884	0.0180665
677.962	0.0181042
678.040	0.0180335
678.119	0.0181382
678.197	0.0183211
678.275	0.0183275
678.353	0.0184559
678.431	0.0186015
678.509	0.0185085
678.587	0.0185863
678.665	0.0186890
678.744	0.0186729
678.822	0.0186265
678.900	0.0186287
678.978	0.0185897
679.056	0.0185341
679.134	0.0184724
679.212	0.0183212
679.290	0.0184068
679.369	0.0185147
679.447	0.0183833
679.525	0.0183277
679.603	0.0184207
679.681	0.0183151
679.759	0.0183501
679.837	0.0184732
679.915	0.0184444
679.994	0.0185043
680.072	0.0184344
680.150	0.0183354
680.228	0.0184763
680.306	0.0183544
680.384	0.0181313
680.462	0.0183982
680.540	0.0182651
680.619	0.0183222
680.697	0.0181053
680.775	0.0182260
680.853	0.0182353
680.931	0.0182442
681.009	0.0181647
681.087	0.0181371
681.165	0.0179568
681.244	0.0180232
681.322	0.0181418
681.400	0.0180343
681.478	0.0179814
681.556	0.0180241
681.634	0.0179550
681.712	0.0179916
681.790	0.0178405
681.869	0.0180014
681.947	0.0178827
682.025	0.0179000
682.103	0.0179299
682.181	0.0179143
682.259	0.0179513
682.337	0.0179665
682.415	0.0179250
682.494	0.0178831
682.572	0.0179510
682.650	0.0178577
682.728	0.0180741
682.806	0.0180625
682.884	0.0179931
682.962	0.0178770
683.040	0.0180254
683.119	0.0178107
683.197	0.0179711
683.275	0.0180161
683.353	0.0180937
683.431	0.0180983
683.509	0.0179860
683.587	0.0180772
683.665	0.0180776
683.744	0.0182957
683.822	0.0181447
683.900	0.0181498
683.978	0.0180780
684.056	0.0180204
684.134	0.0180323
684.212	0.0181844
684.290	0.0181665
684.369	0.0181548
684.447	0.0182360
684.525	0.0183237
684.603	0.0182333
684.681	0.0182272
684.759	0.0181631
684.837	0.0181616
684.915	0.0182932
684.994	0.0181112
685.072	0.0181628
685.150	0.0181217
685.228	0.0183158
685.306	0.0182288
685.384	0.0181427
685.462	0.0182256
685.540	0.0181491
685.619	0.0181209
685.697	0.0181216
685.775	0.0179955
685.853	0.0180721
685.931	0.0180234
686.009	0.0181236
686.087	0.0180048
686.165	0.0178808
686.244	0.0179526
686.322	0.0180025
686.400	0.0178860
686.478	0.0178518
686.556	0.0179648
686.634	0.0177097
686.712	0.0177242
686.790	0.0178454
686.869	0.0178772
686.947	0.0178466
687.025	0.0178530
687.103	0.0177773
687.181	0.0178651
687.259	0.0178199
687.337	0.0178540
687.415	0.0177669
687.494	0.0178876
687.572	0.0178433
687.650	0.0179025
687.728	0.0180214
687.806	0.0179543
687.884	0.0180083
687.962	0.0182291
688.040	0.0181935
688.119	0.0181275
688.197	0.0181894
688.275	0.0182625
688.353	0.0184022
688.431	0.0184707
688.509	0.0184675
688.587	0.0184577
688.665	0.0184681
688.744	0.0185545
688.822	0.0186181
688.900	0.0184338
688.978	0.0185158
689.056	0.0187231
689.134	0.0185831
689.212	0.0185976
689.290	0.0186024
689.369	0.0183881
689.447	0.0185119
689.525	0.0184166
689.603	0.0183819
689.681	0.0183593
689.759	0.0183925
689.837	0.0184008
689.915	0.0184200
689.994	0.0181694
690.072	0.0181754
690.150	0.0181172
690.228	0.0181873
690.306	0.0181774
690.384	0.0181932
690.462	0.0180623
690.540	0.0180605
690.619	0.0180194
690.697	0.0180744
690.775	0.0179911
690.853	0.0181424
690.931	0.0178963
691.009	0.0179333
691.087	0.0180943
691.165	0.0181072
691.244	0.0179628
691.322	0.0178252
691.400	0.0180676
691.478	0.0181894
691.556	0.0180453
691.634	0.0179990
691.712	0.0181608
691.790	0.0181651
691.869	0.0180342
691.947	0.0180900
692.025	0.0181654
692.103	0.0179893
692.181	0.0180646
692.259	0.0178822
692.337	0.0180014
692.415	0.0180062
692.494	0.0179670
692.572	0.0181075
692.650	0.0182033
692.728	0.0180856
692.806	0.0180031
692.884	0.0180486
692.962	0.0180181
693.040	0.0180467
693.119	0.0180398
693.197	0.0180606
693.275	0.0178619
693.353	0.0179753
693.431	0.0181892
693.509	0.0181022
693.587	0.0181448
693.665	0.0181454
693.744	0.0181431
693.822	0.0179721
693.900	0.0180840
693.978	0.0181276
694.056	0.0181356
694.134	0.0180281
694.212	0.0180357
694.290	0.0181198
694.369	0.0181627
694.447	0.0179896
694.525	0.0180342
694.603	0.0181366
694.681	0.0179822
694.759	0.0179102
694.837	0.0180010
694.915	0.0179190
694.994	0.0181189
695.072	0.0180308
695.150	0.0181613
695.228	0.0180653
695.306	0.0180956
695.384	0.0179887
695.462	0.0180636
695.540	0.0181556
695.619	0.0180162
695.697	0.0181236
695.775	0.0181205
695.853	0.0181077
695.931	0.0182054
696.009	0.0181655
696.087	0.0181158
696.165	0.0183867
696.244	0.0180853
696.322	0.0181860
696.400	0.0183678
696.478	0.0182073
696.556	0.0182130
696.634	0.0181851
696.712	0.0182507
696.790	0.0181935
696.869	0.0181517
696.947	0.0182059
697.025	0.0183722
697.103	0.0182847
697.181	0.0181464
697.259	0.0183290
697.337	0.0181582
697.415	0.0181091
697.494	0.0181949
697.572	0.0181880
697.650	0.0181357
697.728	0.0181754
697.806	0.0181960
697.884	0.0180777
697.962	0.0180769
698.040	0.0181426
698.119	0.0182341
698.197	0.0181006
698.275	0.0181509
698.353	0.0181158
698.431	0.0181200
698.509	0.0181997
698.587	0.0180679
698.665	0.0181778
698.744	0.0181667
698.822	0.0182650
698.900	0.0182542
698.978	0.0181556
699.056	0.0181877
699.134	0.0180460
699.212	0.0182165
699.290	0.0181282
699.369	0.0181366
699.447	0.0181156
699.525	0.0181878
699.603	0.0182618
699.681	0.0182427
699.759	0.0181053
699.837	0.0182263
699.915	0.0182730
699.994	0.0182815
700.072	0.0183176
700.150	0.0182410
700.228	0.0183000
700.306	0.0181683
700.384	0.0181351
700.462	0.0181683
700.540	0.0183434
700.619	0.0182731
700.697	0.0181623
700.775	0.0183416
700.853	0.0181335
700.931	0.0181868
701.009	0.0181850
701.087	0.0181509
701.165	0.0181332
701.244	0.0181463
701.322	0.0181866
701.400	0.0181017
701.478	0.0180900
701.556	0.0180439
701.634	0.0180930
701.712	0.0181738
701.790	0.0181022
701.869	0.0181609
701.947	0.0181062
702.025	0.0179884
702.103	0.0180350
702.181	0.0180255
702.259	0.0180878
702.337	0.0180910
702.415	0.0180922
702.494	0.0179749
702.572	0.0181281
702.650	0.0179023
702.728	0.0178891
702.806	0.0180320
702.884	0.0179422
702.962	0.0178860
703.040	0.0179007
703.119	0.0179090
703.197	0.0178647
703.275	0.0180252
703.353	0.0180502
703.431	0.0179229
703.509	0.0179456
703.587	0.0179965
703.665	0.0181111
703.744	0.0180861
703.822	0.0179447
703.900	0.0180174
703.978	0.0181123
704.056	0.0181069
704.134	0.0181638
704.212	0.0181574
704.290	0.0180883
704.369	0.0179933
704.447	0.0180563
704.525	0.0181991
704.603	0.0180212
704.681	0.0181568
704.759	0.0182285
704.837	0.0181403
704.915	0.0181895
704.994	0.0180663
705.072	0.0181410
705.150	0.0181364
705.228	0.0180408
705.306	0.0181197
705.384	0.0180958
705.462	0.0181116
705.540	0.0180696
705.619	0.0180635
705.697	0.0180116
705.775	0.0179716
705.853	0.0179435
705.931	0.0181873
706.009	0.0181780
706.087	0.0180933
706.165	0.0181125
706.244	0.0179930
706.322	0.0179984
706.400	0.0181419
706.478	0.0180373
706.556	0.0179699
706.634	0.0181954
706.712	0.0180688
706.790	0.0181713
706.869	0.0180778
706.947	0.0180373
707.025	0.0180836
707.103	0.0181643
707.181	0.0181657
707.259	0.0182461
707.337	0.0182006
707.415	0.0182247
707.494	0.0181700
707.572	0.0182291
707.650	0.0181871
707.728	0.0183038
707.806	0.0185061
707.884	0.0184238
707.962	0.0183334
708.040	0.0182191
708.119	0.0183761
708.197	0.0184383
708.275	0.0183984
708.353	0.0183601
708.431	0.0184100
708.509	0.0184950
708.587	0.0183731
708.665	0.0183514
708.744	0.0184419
708.822	0.0183520
708.900	0.0183637
708.978	0.0182840
709.056	0.0182737
709.134	0.0185140
709.212	0.0183424
709.290	0.0182966
709.369	0.0182915
709.447	0.0182908
709.525	0.0181915
709.603	0.0183206
709.681	0.0182843
709.759	0.0181846
709.837	0.0181354
709.915	0.0180764
709.994	0.0181940
710.072	0.0181289
710.150	0.0178950
710.228	0.0181372
710.306	0.0181239
710.384	0.0180199
710.462	0.0181425
710.540	0.0180965
710.619	0.0181047
710.697	0.0179922
710.775	0.0182016
710.853	0.0181443
710.931	0.0181374
711.009	0.0180042
711.087	0.0181043
711.165	0.0182089
711.244	0.0181946
711.322	0.0181295
711.400	0.0181138
711.478	0.0180043
711.556	0.0180106
711.634	0.0181856
711.712	0.0180847
711.790	0.0180362
711.869	0.0181178
711.947	0.0182053
712.025	0.0179941
712.103	0.0181182
712.181	0.0181413
712.259	0.0181122
712.337	0.0181216
712.415	0.0182547
712.494	0.0181442
712.572	0.0181333
712.650	0.0180037
712.728	0.0182135
712.806	0.0181606
712.884	0.0180839
712.962	0.0179265
713.040	0.0180943
713.119	0.0181053
713.197	0.0179687
713.275	0.0179528
713.353	0.0181368
713.431	0.0179786
713.509	0.0179823
713.587	0.0181027
713.665	0.0180525
713.744	0.0180523
713.822	0.0178838
713.900	0.0179860
713.978	0.0179310
714.056	0.0179772
714.134	0.0180632
714.212	0.0180246
714.290	0.0179819
714.369	0.0179938
714.447	0.0180582
714.525	0.0181054
714.603	0.0181418
714.681	0.0181722
714.759	0.0181902
714.837	0.0181997
714.915	0.0181551
714.994	0.0182127
715.072	0.0183907
715.150	0.0182369
715.228	0.0182917
715.306	0.0183910
715.384	0.0182616
715.462	0.0183562
715.540	0.0183997
715.619	0.0183582
715.697	0.0182232
715.775	0.0181148
715.853	0.0182892
715.931	0.0183228
716.009	0.0181524
716.087	0.0182041
716.165	0.0182927
716.244	0.0182359
716.322	0.0181649
716.400	0.0181441
716.478	0.0181419
716.556	0.0180985
716.634	0.0180919
716.712	0.0181542
716.790	0.0182388
716.869	0.0181390
716.947	0.0180662
717.025	0.0180910
717.103	0.0180340
717.181	0.0180128
717.259	0.0181200
717.337	0.0180135
717.415	0.0180962
717.494	0.0179838
717.572	0.0179623
717.650	0.0178712
717.728	0.0179536
717.806	0.0178881
717.884	0.0179292
717.962	0.0179182
718.040	0.0178838
718.119	0.0178923
718.197	0.0178531
718.275	0.0179509
718.353	0.0179454
718.431	0.0177499
718.509	0.0179494
718.587	0.0178309
718.665	0.0178339
718.744	0.0180566
718.822	0.0179797
718.900	0.0180441
718.978	0.0179994
719.056	0.0180483
719.134	0.0181842
719.212	0.0179910
719.290	0.0179315
719.369	0.0179934
719.447	0.0179332
719.525	0.0180817
719.603	0.0181668
719.681	0.0180833
719.759	0.0180184
719.837	0.0180949
719.915	0.0181799
719.994	0.0180206
720.072	0.0180764
720.150	0.0180616
720.228	0.0181405
720.306	0.0181116
720.384	0.0181391
720.462	0.0180869
720.540	0.0180921
720.619	0.0182539
720.697	0.0181432
720.775	0.0182159
720.853	0.0182287
720.931	0.0182561
721.009	0.0182279
721.087	0.0182373
721.165	0.0181350
721.244	0.0181472
721.322	0.0181672
721.400	0.0182914
721.478	0.0182283
721.556	0.0182423
721.634	0.0182859
721.712	0.0181178
721.790	0.0181468
721.869	0.0182045
721.947	0.0181377
722.025	0.0182348
722.103	0.0182050
722.181	0.0181217
722.259	0.0182521
722.337	0.0182817
722.415	0.0181308
722.494	0.0181260
722.572	0.0182169
722.650	0.0182713
722.728	0.0182068
722.806	0.0181001
722.884	0.0182883
722.962	0.0182426
723.040	0.0182215
723.119	0.0183292
723.197	0.0181244
723.275	0.0180824
723.353	0.0180573
723.431	0.0179700
723.509	0.0180486
723.587	0.0180632
723.665	0.0179708
723.744	0.0179486
723.822	0.0179422
723.900	0.0180907
723.978	0.0181017
724.056	0.0179424
724.134	0.0180104
724.212	0.0179749
724.290	0.0180297
724.369	0.0179935
724.447	0.0180025
724.525	0.0180141
724.603	0.0180599
724.681	0.0180243
724.759	0.0180457
724.837	0.0181116
724.915	0.0181847
724.994	0.0180513
725.072	0.0181174
725.150	0.0180820
725.228	0.0179630
725.306	0.0180718
725.384	0.0179874
725.462	0.0181731
725.540	0.0179829
725.619	0.0179684
725.697	0.0179494
725.775	0.0180447
725.853	0.0179707
725.931	0.0179168
726.009	0.0179977
726.087	0.0178528
726.165	0.0177878
726.244	0.0179450
726.322	0.0178606
726.400	0.0177649
726.478	0.0180151
726.556	0.0179047
726.634	0.0179333
726.712	0.0179154
726.790	0.0179381
726.869	0.0177637
726.947	0.0179449
727.025	0.0179411
727.103	0.0181728
727.181	0.0179052
727.259	0.0179514
727.337	0.0180280
727.415	0.0179441
727.494	0.0179010
727.572	0.0179614
727.650	0.0179919
727.728	0.0179416
727.806	0.0179802
727.884	0.0180545
727.962	0.0178292
728.040	0.0180862
728.119	0.0179766
728.197	0.0179708
728.275	0.0179656
728.353	0.0179041
728.431	0.0179992
728.509	0.0180062
728.587	0.0180083
728.665	0.0180907
728.744	0.0182237
728.822	0.0181665
728.900	0.0180014
728.978	0.0180451
729.056	0.0180334
729.134	0.0180049
729.212	0.0181062
729.290	0.0180650
729.369	0.0180559
729.447	0.0180621
729.525	0.0180930
729.603	0.0180108
729.681	0.0181107
729.759	0.0180530
729.837	0.0181048
729.915	0.0181255
729.994	0.0180912
730.072	0.0182032
730.150	0.0182204
730.228	0.0181375
730.306	0.0181445
730.384	0.0181560
730.462	0.0182494
730.540	0.0183636
730.619	0.0182246
730.697	0.0182846
730.775	0.0183507
730.853	0.0183683
730.931	0.0184747
731.009	0.0183018
731.087	0.0182526
731.165	0.0182771
731.244	0.0181873
731.322	0.0183950
731.400	0.0183781
731.478	0.0184079
731.556	0.0182539
731.634	0.0182536
731.712	0.0183401
731.790	0.0184803
731.869	0.0183643
731.947	0.0182576
732.025	0.0182499
732.103	0.0182015
732.181	0.0181689
732.259	0.0181834
732.337	0.0180315
732.415	0.0181046
732.494	0.0180840
732.572	0.0180359
732.650	0.0180682
732.728	0.0181597
732.806	0.0180807
732.884	0.0179561
732.962	0.0180945
733.040	0.0181361
733.119	0.0180153
733.197	0.0180578
733.275	0.0180459
733.353	0.0180209
733.431	0.0181233
733.509	0.0180638
733.587	0.0179145
733.665	0.0179824
733.744	0.0179635
733.822	0.0179819
733.900	0.0179739
733.978	0.0180925
734.056	0.0179652
734.134	0.0180094
734.212	0.0179868
734.290	0.0179739
734.369	0.0179682
734.447	0.0179665
734.525	0.0181004
734.603	0.0179945
734.681	0.0179510
734.759	0.0180407
734.837	0.0181319
734.915	0.0179422
734.994	0.0178173
735.072	0.0179237
735.150	0.0180443
735.228	0.0180344
735.306	0.0180048
735.384	0.0180934
735.462	0.0178913
735.540	0.0180781
735.619	0.0179880
735.697	0.0180595
735.775	0.0179995
735.853	0.0179353
735.931	0.0180779
736.009	0.0180767
736.087	0.0180984
736.165	0.0179697
736.244	0.0181707
736.322	0.0181013
736.400	0.0180101
736.478	0.0181417
736.556	0.0179877
736.634	0.0181168
736.712	0.0180287
736.790	0.0180553
736.869	0.0181813
736.947	0.0182805
737.025	0.0180843
737.103	0.0180155
737.181	0.0181908
737.259	0.0180924
737.337	0.0180192
737.415	0.0181889
737.494	0.0181415
737.572	0.0180904
737.650	0.0180556
737.728	0.0180435
737.806	0.0181397
737.884	0.0180563
737.962	0.0181550
738.040	0.0181094
738.119	0.0180428
738.197	0.0180846
738.275	0.0180653
738.353	0.0179906
738.431	0.0180516
738.509	0.0181049
738.587	0.0181107
738.665	0.0180782
738.744	0.0179701
738.822	0.0180950
738.900	0.0181402
738.978	0.0181860
739.056	0.0181892
739.134	0.0181425
739.212	0.0179626
739.290	0.0179931
739.369	0.0180078
739.447	0.0180182
739.525	0.0180651
739.603	0.0181052
739.681	0.0181927
739.759	0.0179386
739.837	0.0179465
739.915	0.0180725
739.994	0.0181154
740.072	0.0180737
740.150	0.0181196
740.228	0.0182424
740.306	0.0181582
740.384	0.0180176
740.462	0.0181660
740.540	0.0181701
740.619	0.0181741
740.697	0.0180339
740.775	0.0181882
740.853	0.0183295
740.931	0.0181245
741.009	0.0181667
741.087	0.0182198
741.165	0.0181575
741.244	0.0181976
741.322	0.0182855
741.400	0.0182969
741.478	0.0182298
741.556	0.0182825
741.634	0.0181962
741.712	0.0182861
741.790	0.0183179
741.869	0.0182964
741.947	0.0181663
742.025	0.0180296
742.103	0.0181746
742.181	0.0181850
742.259	0.0180979
742.337	0.0182554
742.415	0.0181468
742.494	0.0180953
742.572	0.0180084
742.650	0.0180900
742.728	0.0180885
742.806	0.0179492
742.884	0.0181215
742.962	0.0179694
743.040	0.0181198
743.119	0.0180872
743.197	0.0178479
743.275	0.0179487
743.353	0.0180091
743.431	0.0178671
743.509	0.0179761
743.587	0.0179681
743.665	0.0179349
743.744	0.0179676
743.822	0.0179594
743.900	0.0179457
743.978	0.0179637
744.056	0.0179422
744.134	0.0181763
744.212	0.0181599
744.290	0.0180029
744.369	0.0179707
744.447	0.0180555
744.525	0.0180750
744.603	0.0180648
744.681	0.0180577
744.759	0.0181336
744.837	0.0180580
744.915	0.0180267
744.994	0.0181816
745.072	0.0180935
745.150	0.0179160
745.228	0.0181886
745.306	0.0180172
745.384	0.0181133
745.462	0.0179654
745.540	0.0181161
745.619	0.0179884
745.697	0.0177399
745.775	0.0179980
745.853	0.0180296
745.931	0.0181001
746.009	0.0179534
746.087	0.0179157
746.165	0.0180103
746.244	0.0178533
746.322	0.0179179
746.400	0.0180698
746.478	0.0180785
746.556	0.0180730
746.634	0.0179690
746.712	0.0178735
746.790	0.0180930
746.869	0.0182779
746.947	0.0180782
747.025	0.0181644
747.103	0.0181127
747.181	0.0179581
747.259	0.0180709
747.337	0.0181281
747.415	0.0181149
747.494	0.0181192
747.572	0.0180223
747.650	0.0181063
747.728	0.0180852
747.806	0.0181573
747.884	0.0181894
747.962	0.0181471
748.040	0.0181309
748.119	0.0181313
748.197	0.0181155
748.275	0.0182084
748.353	0.0180714
748.431	0.0180058
748.509	0.0181068
748.587	0.0180799
748.665	0.0180859
748.744	0.0180550
748.822	0.0180063
748.900	0.0179502
748.978	0.0181245
749.056	0.0178835
749.134	0.0178807
749.212	0.0179584
749.290	0.0179247
749.369	0.0177808
749.447	0.0179656
749.525	0.0179430
749.603	0.0180219
749.681	0.0179798
749.759	0.0179147
749.837	0.0179423
749.915	0.0179109
749.994	0.0179392
750.072	0.0179008
750.150	0.0179868
750.228	0.0179684
750.306	0.0180610
750.384	0.0180077
750.462	0.0180202
750.540	0.0180962
750.619	0.0180894
750.697	0.0180632
750.775	0.0179903
750.853	0.0181393
750.931	0.0180105
751.009	0.0180061
751.087	0.0180576
751.165	0.0181982
751.244	0.0180400
751.322	0.0179627
751.400	0.0181123
751.478	0.0180097
751.556	0.0181700
751.634	0.0181063
751.712	0.0181092
751.790	0.0181740
751.869	0.0181339
751.947	0.0180929
752.025	0.0181699
752.103	0.0180002
752.181	0.0180898
752.259	0.0180508
752.337	0.0180302
752.415	0.0180405
752.494	0.0180502
752.572	0.0179172
752.650	0.0179721
752.728	0.0180296
752.806	0.0180457
752.884	0.0180412
752.962	0.0179634
753.040	0.0179369
753.119	0.0179992
753.197	0.0181113
753.275	0.0180968
753.353	0.0179578
753.431	0.0179996
753.509	0.0179962
753.587	0.0180031
753.665	0.0180294
753.744	0.0179712
753.822	0.0181146
753.900	0.0180689
753.978	0.0180196
754.056	0.0180479
754.134	0.0181853
754.212	0.0181337
754.290	0.0180879
754.369	0.0181808
754.447	0.0182038
754.525	0.0182514
754.603	0.0183186
754.681	0.0180868
754.759	0.0181181
754.837	0.0181801
754.915	0.0181853
754.994	0.0181625
755.072	0.0181826
755.150	0.0183043
755.228	0.0182919
755.306	0.0182643
755.384	0.0181818
755.462	0.0182400
755.540	0.0182912
755.619	0.0182819
755.697	0.0183054
755.775	0.0182329
755.853	0.0182654
755.931	0.0181894
756.009	0.0182037
756.087	0.0182335
756.165	0.0181833
756.244	0.0180681
756.322	0.0182693
756.400	0.0181595
756.478	0.0180169
756.556	0.0180527
756.634	0.0180286
756.712	0.0181009
756.790	0.0180882
756.869	0.0179401
756.947	0.0179911
757.025	0.0180560
757.103	0.0181437
757.181	0.0180887
757.259	0.0178960
757.337	0.0180861
757.415	0.0179518
757.494	0.0179724
757.572	0.0180177
757.650	0.0179389
757.728	0.0178209
757.806	0.0180846
757.884	0.0180319
757.962	0.0180897
758.040	0.0180007
758.119	0.0179855
758.197	0.0179700
758.275	0.0179305
758.353	0.0180064
758.431	0.0180550
758.509	0.0181500
758.587	0.0180959
758.665	0.0181056
758.744	0.0181418
758.822	0.0181113
758.900	0.0180924
758.978	0.0181814
759.056	0.0183546
759.134	0.0181366
759.212	0.0183179
759.290	0.0182676
759.369	0.0183202
759.447	0.0182605
759.525	0.0182471
759.603	0.0182655
759.681	0.0182527
759.759	0.0182462
759.837	0.0182058
759.915	0.0183284
759.994	0.0182968
760.072	0.0182185
760.150	0.0183346
760.228	0.0183652
760.306	0.0181792
760.384	0.0182071
760.462	0.0182310
760.540	0.0184206
760.619	0.0183860
760.697	0.0182441
760.775	0.0181953
760.853	0.0182548
760.931	0.0182259
761.009	0.0181561
761.087	0.0182995
761.165	0.0183768
761.244	0.0182488
761.322	0.0182424
761.400	0.0182498
761.478	0.0182393
761.556	0.0183386
761.634	0.0182082
761.712	0.0182079
761.790	0.0182052
761.869	0.0182299
761.947	0.0183980
762.025	0.0181859
762.103	0.0183836
762.181	0.0182587
762.259	0.0181799
762.337	0.0182471
762.415	0.0182217
762.494	0.0182231
762.572	0.0183113
762.650	0.0183317
762.728	0.0181380
762.806	0.0180965
762.884	0.0181776
762.962	0.0182646
763.040	0.0180224
763.119	0.0179810
763.197	0.0180363
763.275	0.0181492
763.353	0.0180584
763.431	0.0181252
763.509	0.0182986
763.587	0.0180424
763.665	0.0179883
763.744	0.0181120
763.822	0.0179590
763.900	0.0180595
763.978	0.0181396
764.056	0.0182505
764.134	0.0181488
764.212	0.0180796
764.290	0.0182043
764.369	0.0180769
764.447	0.0181063
764.525	0.0180624
764.603	0.0182292
764.681	0.0182211
764.759	0.0183474
764.837	0.0182529
764.915	0.0181802
764.994	0.0181664
765.072	0.0181181
765.150	0.0183050
765.228	0.0182233
765.306	0.0183649
765.384	0.0182323
765.462	0.0182330
765.540	0.0184468
765.619	0.0181805
765.697	0.0181051
765.775	0.0181124
765.853	0.0181478
765.931	0.0182030
766.009	0.0181874
766.087	0.0180014
766.165	0.0180771
766.244	0.0180314
766.322	0.0181140
766.400	0.0180202
766.478	0.0180560
766.556	0.0180498
766.634	0.0180336
766.712	0.0179013
766.790	0.0180753
766.869	0.0180519
766.947	0.0179955
767.025	0.0181023
767.103	0.0180161
767.181	0.0180363
767.259	0.0180663
767.337	0.0180523
767.415	0.0180148
767.494	0.0180157
767.572	0.0180093
767.650	0.0179219
767.728	0.0180766
767.806	0.0179217
767.884	0.0180421
767.962	0.0179498
768.040	0.0180107
768.119	0.0179163
768.197	0.0180960
768.275	0.0181349
768.353	0.0180042
768.431	0.0178996
768.509	0.0178860
768.587	0.0180761
768.665	0.0179053
768.744	0.0179786
768.822	0.0180877
768.900	0.0180689
768.978	0.0180403
769.056	0.0181184
769.134	0.0180378
769.212	0.0180632
769.290	0.0181007
769.369	0.0181905
769.447	0.0181774
769.525	0.0180257
769.603	0.0181226
769.681	0.0181095
769.759	0.0180341
769.837	0.0181876
769.915	0.0181642
769.994	0.0180106
770.072	0.0180375
770.150	0.0179409
770.228	0.0179559
770.306	0.0181480
770.384	0.0179041
770.462	0.0179264
770.540	0.0179060
770.619	0.0180185
770.697	0.0180392
770.775	0.0179763
770.853	0.0180168
770.931	0.0178329
771.009	0.0180287
771.087	0.0179347
771.165	0.0180123
771.244	0.0179776
771.322	0.0179327
771.400	0.0180156
771.478	0.0178748
771.556	0.0178934
771.634	0.0179681
771.712	0.0179488
771.790	0.0179030
771.869	0.0179018
771.947	0.0178838
772.025	0.0179467
772.103	0.0178427
772.181	0.0179796
772.259	0.0179163
772.337	0.0179881
772.415	0.0178754
772.494	0.0179109
772.572	0.0179510
772.650	0.0180380
772.728	0.0179540
772.806	0.0179057
772.884	0.0179777
772.962	0.0180881
773.040	0.0179275
773.119	0.0179382
773.197	0.0179875
773.275	0.0180135
773.353	0.0180195
773.431	0.0178970
773.509	0.0180128
773.587	0.0181131
773.665	0.0181693
773.744	0.0181657
773.822	0.0181661
773.900	0.0182242
773.978	0.0181169
774.056	0.0181308
774.134	0.0181196
774.212	0.0181553
774.290	0.0183179
774.369	0.0181334
774.447	0.0181222
774.525	0.0182486
774.603	0.0182098
774.681	0.0180252
774.759	0.0181308
774.837	0.0180876
774.915	0.0181001
774.994	0.0181334
775.072	0.0181274
775.150	0.0180627
775.228	0.0179408
775.306	0.0180785
775.384	0.0181444
775.462	0.0180355
775.540	0.0180109
775.619	0.0181017
775.697	0.0180827
775.775	0.0180979
775.853	0.0180007
775.931	0.0180086
776.009	0.0179065
776.087	0.0180229
776.165	0.0180659
776.244	0.0178511
776.322	0.0180238
776.400	0.0180592
776.478	0.0180641
776.556	0.0178982
776.634	0.0181213
776.712	0.0180379
776.790	0.0180116
776.869	0.0181213
776.947	0.0181815
777.025	0.0181168
777.103	0.0181912
777.181	0.0182465
777.259	0.0181783
777.337	0.0182371
777.415	0.0182845
777.494	0.0183887
777.572	0.0181633
777.650	0.0181522
777.728	0.0182387
777.806	0.0182767
777.884	0.0184029
777.962	0.0182339
778.040	0.0181880
778.119	0.0182848
778.197	0.0183331
778.275	0.0183278
778.353	0.0183291
778.431	0.0181351
778.509	0.0182954
778.587	0.0183794
778.665	0.0182437
778.744	0.0183369
778.822	0.0183724
778.900	0.0182324
778.978	0.0183171
779.056	0.0182709
779.134	0.0183191
779.212	0.0182961
779.290	0.0182475
779.369	0.0182280
779.447	0.0182598
779.525	0.0184105
779.603	0.0181693
779.681	0.0182117
779.759	0.0182143
779.837	0.0182482
779.915	0.0181149
779.994	0.0181268
780.072	0.0182604
780.150	0.0182542
780.228	0.0182919
780.306	0.0181817
780.384	0.0182545
780.462	0.0182159
780.540	0.0181947
780.619	0.0181285
780.697	0.0180669
780.775	0.0180322
780.853	0.0181785
780.931	0.0181421
781.009	0.0182144
781.087	0.0180878
781.165	0.0180089
781.244	0.0180727
781.322	0.0180357
781.400	0.0180935
781.478	0.0179658
781.556	0.0180140
781.634	0.0180148
781.712	0.0181078
781.790	0.0181361
781.869	0.0182018
781.947	0.0180526
782.025	0.0181318
782.103	0.0180157
782.181	0.0182018
782.259	0.0182371
782.337	0.0181477
782.415	0.0181174
782.494	0.0182577
782.572	0.0180699
782.650	0.0182430
782.728	0.0182305
782.806	0.0181808
782.884	0.0182509
782.962	0.0182729
783.040	0.0182198
783.119	0.0182117
783.197	0.0182734
783.275	0.0183266
783.353	0.0181986
783.431	0.0183621
783.509	0.0182829
783.587	0.0183739
783.665	0.0183266
783.744	0.0182085
783.822	0.0180482
783.900	0.0181174
783.978	0.0181359
784.056	0.0182363
784.134	0.0181516
784.212	0.0181284
784.290	0.0181788
784.369	0.0180294
784.447	0.0180395
784.525	0.0182011
784.603	0.0180971
784.681	0.0180830
784.759	0.0181360
784.837	0.0180308
784.915	0.0181012
784.994	0.0180658
785.072	0.0180098
785.150	0.0180676
785.228	0.0180948
785.306	0.0180068
785.384	0.0180697
785.462	0.0180693
785.540	0.0179950
785.619	0.0181741
785.697	0.0183475
785.775	0.0180551
785.853	0.0180182
785.931	0.0181245
786.009	0.0181548
786.087	0.0181557
786.165	0.0181631
786.244	0.0181087
786.322	0.0181052
786.400	0.0180791
786.478	0.0180014
786.556	0.0179853
786.634	0.0180109
786.712	0.0179601
786.790	0.0178957
786.869	0.0179854
786.947	0.0180718
787.025	0.0181456
787.103	0.0180212
787.181	0.0180652
787.259	0.0179956
787.337	0.0179712
787.415	0.0180812
787.494	0.0180544
787.572	0.0180899
787.650	0.0179957
787.728	0.0180058
787.806	0.0180854
787.884	0.0178448
787.962	0.0180466
788.040	0.0180362
788.119	0.0180898
788.197	0.0180290
788.275	0.0180628
788.353	0.0181059
788.431	0.0181012
788.509	0.0181055
788.587	0.0180354
788.665	0.0181915
788.744	0.0181422
788.822	0.0181735
788.900	0.0181197
788.978	0.0181348
789.056	0.0181268
789.134	0.0180121
789.212	0.0181911
789.290	0.0181833
789.369	0.0180854
789.447	0.0181282
789.525	0.0181894
789.603	0.0179536
789.681	0.0181881
789.759	0.0180976
789.837	0.0179836
789.915	0.0179530
789.994	0.0179665
790.072	0.0180314
790.150	0.0179048
790.228	0.0179755
790.306	0.0179360
790.384	0.0179630
790.462	0.0179758
790.540	0.0179789
790.619	0.0178879
790.697	0.0178059
790.775	0.0177670
790.853	0.0179105
790.931	0.0179768
791.009	0.0179196
791.087	0.0179595
791.165	0.0178892
791.244	0.0179611
791.322	0.0179337
791.400	0.0180238
791.478	0.0179433
791.556	0.0180451
791.634	0.0182077
791.712	0.0180495
791.790	0.0179697
791.869	0.0181837
791.947	0.0180007
792.025	0.0181016
792.103	0.0181426
792.181	0.0181081
792.259	0.0181264
792.337	0.0180889
792.415	0.0181451
792.494	0.0181229
792.572	0.0180317
792.650	0.0181252
792.728	0.0179851
792.806	0.0182154
792.884	0.0181790
792.962	0.0182121
793.040	0.0181340
793.119	0.0180854
793.197	0.0178881
793.275	0.0180760
793.353	0.0180173
793.431	0.0179824
793.509	0.0180215
793.587	0.0181136
793.665	0.0180843
793.744	0.0181248
793.822	0.0180585
793.900	0.0181480
793.978	0.0179745
794.056	0.0181714
794.134	0.0180517
794.212	0.0180536
794.290	0.0180991
794.369	0.0181339
794.447	0.0181375
794.525	0.0180007
794.603	0.0179019
794.681	0.0179914
794.759	0.0181023
794.837	0.0181092
794.915	0.0180051
794.994	0.0179920
795.072	0.0179702
795.150	0.0180772
795.228	0.0180575
795.306	0.0180711
795.384	0.0180394
795.462	0.0182623
795.540	0.0182336
795.619	0.0180242
795.697	0.0181025
795.775	0.0179824
795.853	0.0181047
795.931	0.0180492
796.009	0.0181085
796.087	0.0180967
796.165	0.0181597
796.244	0.0181246
796.322	0.0180703
796.400	0.0181657
796.478	0.0180604
796.556	0.0181482
796.634	0.0181671
796.712	0.0181081
796.790	0.0181544
796.869	0.0180496
796.947	0.0181413
797.025	0.0180443
797.103	0.0180289
797.181	0.0180034
797.259	0.0178218
797.337	0.0178464
797.415	0.0179420
797.494	0.0179234
797.572	0.0178495
797.650	0.0179232
797.728	0.0178759
797.806	0.0179697
797.884	0.0179286
797.962	0.0178654
798.040	0.0178807
798.119	0.0179551
798.197	0.0179895
798.275	0.0180394
798.353	0.0179864
798.431	0.0179581
798.509	0.0181431
798.587	0.0180760
798.665	0.0181129
798.744	0.0181156
798.822	0.0180012
798.900	0.0180946
798.978	0.0180562
799.056	0.0180331
799.134	0.0182107
799.212	0.0180601
799.290	0.0180360
799.369	0.0180389
799.447	0.0180360
799.525	0.0181757
799.603	0.0181486
799.681	0.0182278
799.759	0.0182993
799.837	0.0181438
799.915	0.0181843
799.994	0.0180901
800.072	0.0181687
800.150	0.0183331
800.228	0.0181544
800.306	0.0181934
800.384	0.0181307
800.462	0.0181107
800.540	0.0180991
800.619	0.0179980
800.697	0.0179080
800.775	0.0180741
800.853	0.0180521
800.931	0.0180962
801.009	0.0181639
801.087	0.0180063
801.165	0.0180898
801.244	0.0181191
801.322	0.0179975
801.400	0.0180323
801.478	0.0180524
801.556	0.0180677
801.634	0.0180817
801.712	0.0179494
801.790	0.0179727
801.869	0.0181755
801.947	0.0180391
802.025	0.0180272
802.103	0.0181181
802.181	0.0182496
802.259	0.0180869
802.337	0.0181493
802.415	0.0181544
802.494	0.0180611
802.572	0.0181482
802.650	0.0180408
802.728	0.0181861
802.806	0.0180776
802.884	0.0180858
802.962	0.0181393
803.040	0.0180856
803.119	0.0180676
803.197	0.0180749
803.275	0.0180749
803.353	0.0179854
803.431	0.0180318
803.509	0.0180283
803.587	0.0180978
803.665	0.0180184
803.744	0.0181483
803.822	0.0181387
803.900	0.0181873
803.978	0.0180123
804.056	0.0180338
804.134	0.0180273
804.212	0.0179508
804.290	0.0181876
804.369	0.0180690
804.447	0.0180448
804.525	0.0182095
804.603	0.0180286
804.681	0.0178540
804.759	0.0181571
804.837	0.0180884
804.915	0.0180456
804.994	0.0180659
805.072	0.0181300
805.150	0.0180125
805.228	0.0179559
805.306	0.0180814
805.384	0.0180453
805.462	0.0181269
805.540	0.0179539
805.619	0.0181210
805.697	0.0181273
805.775	0.0181351
805.853	0.0180251
805.931	0.0181065
806.009	0.0182384
806.087	0.0181775
806.165	0.0183300
806.244	0.0183059
806.322	0.0182363
806.400	0.0182676
806.478	0.0181621
806.556	0.0180626
806.634	0.0183420
806.712	0.0181628
806.790	0.0182416
806.869	0.0181948
806.947	0.0182281
807.025	0.0181157
807.103	0.0181461
807.181	0.0181667
807.259	0.0182590
807.337	0.0183297
807.415	0.0182304
807.494	0.0182758
807.572	0.0182454
807.650	0.0182442
807.728	0.0180783
807.806	0.0182110
807.884	0.0181101
807.962	0.0181323
808.040	0.0181831
808.119	0.0181114
808.197	0.0181378
808.275	0.0181409
808.353	0.0179564
808.431	0.0181043
808.509	0.0181634
808.587	0.0180011
808.665	0.0180701
808.744	0.0180498
808.822	0.0179561
808.900	0.0181400
808.978	0.0180345
809.056	0.0180727
809.134	0.0181646
809.212	0.0181075
809.290	0.0181536
809.369	0.0181814
809.447	0.0181173
809.525	0.0180284
809.603	0.0181260
809.681	0.0180467
809.759	0.0180154
809.837	0.0179696
809.915	0.0179475
809.994	0.0179324
810.072	0.0179645
810.150	0.0178619
810.228	0.0178311
810.306	0.0176866
810.384	0.0177734
810.462	0.0179388
810.540	0.0178777
810.619	0.0177644
810.697	0.0178910
810.775	0.0179408
810.853	0.0178010
810.931	0.0178606
811.009	0.0177808
811.087	0.0178992
811.165	0.0180458
811.244	0.0179115
811.322	0.0179864
811.400	0.0179218
811.478	0.0181242
811.556	0.0179201
811.634	0.0178814
811.712	0.0180434
811.790	0.0182185
811.869	0.0181264
811.947	0.0181508
812.025	0.0181981
812.103	0.0181937
812.181	0.0181544
812.259	0.0181313
812.337	0.0181700
812.415	0.0182155
812.494	0.0182576
812.572	0.0182322
812.650	0.0182913
812.728	0.0182429
812.806	0.0180367
812.884	0.0181506
812.962	0.0182663
813.040	0.0182899
813.119	0.0181227
813.197	0.0179864
813.275	0.0180862
813.353	0.0181277
813.431	0.0180846
813.509	0.0180247
813.587	0.0180598
813.665	0.0180445
813.744	0.0182640
813.822	0.0181119
813.900	0.0180512
813.978	0.0180505
814.056	0.0181515
814.134	0.0180702
814.212	0.0180364
814.290	0.0181489
814.369	0.0179830
814.447	0.0179975
814.525	0.0179635
814.603	0.0179922
814.681	0.0181136
814.759	0.0180289
814.837	0.0179673
814.915	0.0180347
814.994	0.0179842
815.072	0.0179253
815.150	0.0178793
815.228	0.0180029
815.306	0.0180090
815.384	0.0180392
815.462	0.0179015
815.540	0.0179137
815.619	0.0178805
815.697	0.0179409
815.775	0.0180379
815.853	0.0179032
815.931	0.0178957
816.009	0.0180270
816.087	0.0179560
816.165	0.0180210
816.244	0.0180525
816.322	0.0181503
816.400	0.0180569
816.478	0.0180548
816.556	0.0180750
816.634	0.0180506
816.712	0.0180488
816.790	0.0179734
816.869	0.0181277
816.947	0.0180238
817.025	0.0180517
817.103	0.0180879
817.181	0.0181016
817.259	0.0180808
817.337	0.0181184
817.415	0.0180554
817.494	0.0178482
817.572	0.0179993
817.650	0.0179623
817.728	0.0180510
817.806	0.0180050
817.884	0.0179355
817.962	0.0179900
818.040	0.0178434
818.119	0.0178833
818.197	0.0178121
818.275	0.0179124
818.353	0.0178688
818.431	0.0178454
818.509	0.0178399
818.587	0.0178787
818.665	0.0179295
818.744	0.0178915
818.822	0.0178507
818.900	0.0179258
818.978	0.0179897
819.056	0.0180170
819.134	0.0180370
819.212	0.0179816
819.290	0.0180454
819.369	0.0181010
819.447	0.0178674
819.525	0.0178352
819.603	0.0180650
819.681	0.0181084
819.759	0.0181257
819.837	0.0179925
819.915	0.0180488
819.994	0.0180277
820.072	0.0180022
820.150	0.0180445
820.228	0.0182054
820.306	0.0182271
820.384	0.0181958
820.462	0.0180601
820.540	0.0179270
820.619	0.0181700
820.697	0.0180853
820.775	0.0180650
820.853	0.0179795
820.931	0.0179412
821.009	0.0179481
821.087	0.0179443
821.165	0.0180085
821.244	0.0178379
821.322	0.0178063
821.400	0.0178934
821.478	0.0179725
821.556	0.0179283
821.634	0.0178451
821.712	0.0178680
821.790	0.0179383
821.869	0.0179130
821.947	0.0180047
822.025	0.0178612
822.103	0.0179052
822.181	0.0180477
822.259	0.0179228
822.337	0.0180727
822.415	0.0180765
822.494	0.0181571
822.572	0.0182170
822.650	0.0182968
822.728	0.0181476
822.806	0.0181686
822.884	0.0182233
822.962	0.0180933
823.040	0.0184199
823.119	0.0184060
823.197	0.0183543
823.275	0.0182642
823.353	0.0181738
823.431	0.0182087
823.509	0.0182552
823.587	0.0183610
823.665	0.0183076
823.744	0.0182113
823.822	0.0182956
823.900	0.0182217
823.978	0.0183115
824.056	0.0183619
824.134	0.0182523
824.212	0.0182318
824.290	0.0181898
824.369	0.0182233
824.447	0.0182710
824.525	0.0181831
824.603	0.0182588
824.681	0.0181378
824.759	0.0179323
824.837	0.0181348
824.915	0.0180657
824.994	0.0181109
825.072	0.0180542
825.150	0.0180405
825.228	0.0180616
825.306	0.0181454
825.384	0.0181665
825.462	0.0180193
825.540	0.0178943
825.619	0.0180486
825.697	0.0181104
825.775	0.0179519
825.853	0.0180892
825.931	0.0181103
826.009	0.0181296
826.087	0.0180915
826.165	0.0179523
826.244	0.0180813
826.322	0.0180974
826.400	0.0181701
826.478	0.0181874
826.556	0.0181706
826.634	0.0181870
826.712	0.0180930
826.790	0.0180951
826.869	0.0180690
826.947	0.0181675
827.025	0.0181470
827.103	0.0181470
827.181	0.0182188
827.259	0.0181306
827.337	0.0181583
827.415	0.0181049
827.494	0.0181895
827.572	0.0181033
827.650	0.0180129
827.728	0.0183455
827.806	0.0182199
827.884	0.0182136
827.962	0.0182203
828.040	0.0182197
828.119	0.0182379
828.197	0.0181851
828.275	0.0181780
828.353	0.0183628
828.431	0.0182945
828.509	0.0183077
828.587	0.0181602
828.665	0.0181366
828.744	0.0182167
828.822	0.0182858
828.900	0.0183145
828.978	0.0182441
829.056	0.0182751
829.134	0.0182748
829.212	0.0182895
829.290	0.0182288
829.369	0.0181737
829.447	0.0182510
829.525	0.0183002
829.603	0.0182407
829.681	0.0180260
829.759	0.0180610
829.837	0.0181067
829.915	0.0181438
829.994	0.0179973
830.072	0.0181334
830.150	0.0180534
830.228	0.0180453
830.306	0.0181041
830.384	0.0181069
830.462	0.0178887
830.540	0.0179990
830.619	0.0180108
830.697	0.0178671
830.775	0.0179865
830.853	0.0178736
830.931	0.0178510
831.009	0.0178991
831.087	0.0178111
831.165	0.0180182
831.244	0.0181063
831.322	0.0178685
831.400	0.0178554
831.478	0.0180199
831.556	0.0179281
831.634	0.0179284
831.712	0.0180171
831.790	0.0181466
831.869	0.0180947
831.947	0.0179939
832.025	0.0179379
832.103	0.0180768
832.181	0.0180235
832.259	0.0180026
832.337	0.0181531
832.415	0.0181209
832.494	0.0180665
832.572	0.0181235
832.650	0.0179936
832.728	0.0180644
832.806	0.0180574
832.884	0.0181306
832.962	0.0180562
833.040	0.0181104
833.119	0.0180300
833.197	0.0180692
833.275	0.0180968
833.353	0.0180405
833.431	0.0181499
833.509	0.0181808
833.587	0.0181149
833.665	0.0182139
833.744	0.0181226
833.822	0.0179913
833.900	0.0182464
833.978	0.0181960
834.056	0.0181656
834.134	0.0180996
834.212	0.0181940
834.290	0.0182072
834.369	0.0181994
834.447	0.0181298
834.525	0.0182498
834.603	0.0182043
834.681	0.0180728
834.759	0.0182442
834.837	0.0182760
834.915	0.0182154
834.994	0.0181257
835.072	0.0181187
835.150	0.0181976
835.228	0.0182529
835.306	0.0182770
835.384	0.0182625
835.462	0.0183723
835.540	0.0183469
835.619	0.0181737
835.697	0.0181664
835.775	0.0183189
835.853	0.0182137
835.931	0.0182595
836.009	0.0181096
836.087	0.0183240
836.165	0.0183434
836.244	0.0182430
836.322	0.0181960
836.400	0.0182268
836.478	0.0182166
836.556	0.0181917
836.634	0.0182076
836.712	0.0182690
836.790	0.0182386
836.869	0.0181946
836.947	0.0181953
837.025	0.0181203
837.103	0.0180528
837.181	0.0180426
837.259	0.0179861
837.337	0.0180944
837.415	0.0179767
837.494	0.0180608
837.572	0.0180477
837.650	0.0178823
837.728	0.0179529
837.806	0.0180018
837.884	0.0180614
837.962	0.0180769
838.040	0.0179884
838.119	0.0179419
838.197	0.0179594
838.275	0.0178974
838.353	0.0180103
838.431	0.0180669
838.509	0.0179363
838.587	0.0180573
838.665	0.0180348
838.744	0.0179311
838.822	0.0179401
838.900	0.0179984
838.978	0.0181630
839.056	0.0180418
839.134	0.0181010
839.212	0.0181010
839.290	0.0181177
839.369	0.0180968
839.447	0.0181648
839.525	0.0181803
839.603	0.0182592
839.681	0.0181760
839.759	0.0181583
839.837	0.0182145
839.915	0.0182410
839.994	0.0182309
840.072	0.0182372
840.150	0.0181872
840.228	0.0182323
840.306	0.0182004
840.384	0.0182171
840.462	0.0182036
840.540	0.0182595
840.619	0.0182095
840.697	0.0181070
840.775	0.0182134
840.853	0.0182146
840.931	0.0180945
841.009	0.0180640
841.087	0.0181071
841.165	0.0180354
841.244	0.0178687
841.322	0.0179610
841.400	0.0179900
841.478	0.0180052
841.556	0.0181187
841.634	0.0179939
841.712	0.0180033
841.790	0.0180078
841.869	0.0179521
841.947	0.0178936
842.025	0.0180337
842.103	0.0180146
842.181	0.0179713
842.259	0.0179685
842.337	0.0179874
842.415	0.0179449
842.494	0.0178793
842.572	0.0179442
842.650	0.0180622
842.728	0.0179170
842.806	0.0179710
842.884	0.0179023
842.962	0.0179597
843.040	0.0180729
843.119	0.0179992
843.197	0.0179662
843.275	0.0180191
843.353	0.0179455
843.431	0.0180836
843.509	0.0180552
843.587	0.0180273
843.665	0.0180766
843.744	0.0180486
843.822	0.0180250
843.900	0.0180461
843.978	0.0180981
844.056	0.0179341
844.134	0.0179972
844.212	0.0182204
844.290	0.0181702
844.369	0.0179935
844.447	0.0180107
844.525	0.0181291
844.603	0.0180722
844.681	0.0180731
844.759	0.0181239
844.837	0.0180802
844.915	0.0180207
844.994	0.0180957
845.072	0.0182804
845.150	0.0180374
845.228	0.0180782
845.306	0.0181538
845.384	0.0181167
845.462	0.0181837
845.540	0.0181128
845.619	0.0180309
845.697	0.0180755
845.775	0.0180042
845.853	0.0181035
845.931	0.0181152
846.009	0.0181475
846.087	0.0180688
846.165	0.0180846
846.244	0.0181206
846.322	0.0181065
846.400	0.0182936
846.478	0.0182899
846.556	0.0180989
846.634	0.0182568
846.712	0.0181226
846.790	0.0183756
846.869	0.0182484
846.947	0.0182304
847.025	0.0182854
847.103	0.0182815
847.181	0.0182639
847.259	0.0182353
847.337	0.0181834
847.415	0.0182063
847.494	0.0182422
847.572	0.0181959
847.650	0.0182125
847.728	0.0183445
847.806	0.0182713
847.884	0.0182542
847.962	0.0182490
848.040	0.0182605
848.119	0.0182041
848.197	0.0182563
848.275	0.0183740
848.353	0.0181979
848.431	0.0182244
848.509	0.0182816
848.587	0.0183210
848.665	0.0182281
848.744	0.0181413
848.822	0.0182481
848.900	0.0182542
848.978	0.0181882
849.056	0.0180074
849.134	0.0182480
849.212	0.0182304
849.290	0.0181214
849.369	0.0181750
849.447	0.0182191
849.525	0.0180869
849.603	0.0183743
849.681	0.0182336
849.759	0.0182581
849.837	0.0181997
849.915	0.0181784
849.994	0.0182641
850.072	0.0182144
850.150	0.0181979
850.228	0.0182355
850.306	0.0180943
850.384	0.0181417
850.462	0.0183043
850.540	0.0181104
850.619	0.0181900
850.697	0.0180791
850.775	0.0181268
850.853	0.0180196
850.931	0.0180243
851.009	0.0180410
851.087	0.0182466
851.165	0.0182059
851.244	0.0181183
851.322	0.0179603
851.400	0.0180044
851.478	0.0182953
851.556	0.0181273
851.634	0.0179861
851.712	0.0181662
851.790	0.0181766
851.869	0.0180819
851.947	0.0181842
852.025	0.0181991
852.103	0.0182858
852.181	0.0181106
852.259	0.0181715
852.337	0.0182051
852.415	0.0182925
852.494	0.0182427
852.572	0.0181316
852.650	0.0181792
852.728	0.0180877
852.806	0.0180854
852.884	0.0181205
852.962	0.0180228
853.040	0.0181928
853.119	0.0182190
853.197	0.0180366
853.275	0.0181353
853.353	0.0182105
853.431	0.0180466
853.509	0.0180304
853.587	0.0180939
853.665	0.0181108
853.744	0.0180900
853.822	0.0180671
853.900	0.0180169
853.978	0.0180096
854.056	0.0182803
854.134	0.0181493
854.212	0.0180891
854.290	0.0180785
854.369	0.0181406
854.447	0.0181283
854.525	0.0181436
854.603	0.0181529
854.681	0.0181419
854.759	0.0182822
854.837	0.0182458
854.915	0.0181285
854.994	0.0181882
855.072	0.0181250
855.150	0.0181535
855.228	0.0181046
855.306	0.0180500
855.384	0.0181547
855.462	0.0182722
855.540	0.0180078
855.619	0.0180589
855.697	0.0181134
855.775	0.0180553
855.853	0.0180747
855.931	0.0179320
856.009	0.0181259
856.087	0.0181172
856.165	0.0179276
856.244	0.0179626
856.322	0.0179626
856.400	0.0180292
856.478	0.0180327
856.556	0.0180367
856.634	0.0179307
856.712	0.0180092
856.790	0.0178881
856.869	0.0180741
856.947	0.0180411
857.025	0.0179810
857.103	0.0180554
857.181	0.0180502
857.259	0.0179152
857.337	0.0181115
857.415	0.0180908
857.494	0.0180757
857.572	0.0180173
857.650	0.0180295
857.728	0.0182333
857.806	0.0182615
857.884	0.0182582
857.962	0.0181297
858.040	0.0181459
858.119	0.0181476
858.197	0.0182031
858.275	0.0182231
858.353	0.0181264
858.431	0.0182246
858.509	0.0182576
858.587	0.0181881
858.665	0.0181746
858.744	0.0182996
858.822	0.0181757
858.900	0.0181361
858.978	0.0180892
859.056	0.0180390
859.134	0.0180996
859.212	0.0181528
859.290	0.0181083
859.369	0.0181242
859.447	0.0182501
859.525	0.0181664
859.603	0.0181744
859.681	0.0180703
859.759	0.0181913
859.837	0.0181440
859.915	0.0180598
