06/01/2022	18:01:34	Ver.	4.1	UNKNOWN
Optical Delay	539.993571	Delta X		0.078125	Sweeps	1	Scan Rate	0/0
Coordinates	Axis 1	NaN	Axis 2	NaN	Axis 3	NaN	Axis 4	NaN	Axis 5	NaN	Axis 6	0.000000
TX Power	0.000000	RX Power	0.000000

539.994	0.0169041
540.072	0.0172114
540.150	0.0173429
540.228	0.0171780
540.306	0.0171591
540.384	0.0172744
540.462	0.0172462
540.540	0.0172822
540.619	0.0172630
540.697	0.0172982
540.775	0.0171004
540.853	0.0171918
540.931	0.0173020
541.009	0.0171892
541.087	0.0172624
541.165	0.0169944
541.244	0.0170045
541.322	0.0168530
541.400	0.0166719
541.478	0.0168900
541.556	0.0168309
541.634	0.0165501
541.712	0.0165005
541.790	0.0164922
541.869	0.0165797
541.947	0.0165892
542.025	0.0165990
542.103	0.0165959
542.181	0.0166139
542.259	0.0166981
542.337	0.0167809
542.415	0.0168071
542.494	0.0168325
542.572	0.0168157
542.650	0.0169286
542.728	0.0168130
542.806	0.0168201
542.884	0.0168819
542.962	0.0167533
543.040	0.0169048
543.119	0.0169086
543.197	0.0167799
543.275	0.0168243
543.353	0.0169777
543.431	0.0168787
543.509	0.0168990
543.587	0.0170766
543.665	0.0170442
543.744	0.0169965
543.822	0.0170998
543.900	0.0171164
543.978	0.0171313
544.056	0.0170530
544.134	0.0170066
544.212	0.0169996
544.290	0.0170134
544.369	0.0170279
544.447	0.0170996
544.525	0.0170462
544.603	0.0170236
544.681	0.0169802
544.759	0.0170081
544.837	0.0171201
544.915	0.0169505
544.994	0.0169176
545.072	0.0170686
545.150	0.0169450
545.228	0.0170020
545.306	0.0170768
545.384	0.0170467
545.462	0.0168987
545.540	0.0170549
545.619	0.0171310
545.697	0.0170960
545.775	0.0170657
545.853	0.0169801
545.931	0.0170615
546.009	0.0171128
546.087	0.0170370
546.165	0.0170537
546.244	0.0168705
546.322	0.0168204
546.400	0.0169359
546.478	0.0168423
546.556	0.0167874
546.634	0.0168247
546.712	0.0168314
546.790	0.0167837
546.869	0.0167448
546.947	0.0166647
547.025	0.0166995
547.103	0.0168175
547.181	0.0168233
547.259	0.0166515
547.337	0.0167158
547.415	0.0166615
547.494	0.0166068
547.572	0.0167066
547.650	0.0167184
547.728	0.0168349
547.806	0.0170033
547.884	0.0167287
547.962	0.0167237
548.040	0.0168595
548.119	0.0167881
548.197	0.0169024
548.275	0.0169660
548.353	0.0170547
548.431	0.0170008
548.509	0.0169778
548.587	0.0170087
548.665	0.0170401
548.744	0.0170175
548.822	0.0170322
548.900	0.0170546
548.978	0.0171948
549.056	0.0172108
549.134	0.0172848
549.212	0.0172102
549.290	0.0170160
549.369	0.0171069
549.447	0.0170400
549.525	0.0169960
549.603	0.0170432
549.681	0.0170557
549.759	0.0171113
549.837	0.0168457
549.915	0.0168887
549.994	0.0168733
550.072	0.0169922
550.150	0.0168668
550.228	0.0168650
550.306	0.0169489
550.384	0.0169682
550.462	0.0170432
550.540	0.0170383
550.619	0.0169592
550.697	0.0169760
550.775	0.0170612
550.853	0.0170500
550.931	0.0169478
551.009	0.0171476
551.087	0.0171014
551.165	0.0170148
551.244	0.0171919
551.322	0.0171716
551.400	0.0170967
551.478	0.0172037
551.556	0.0171227
551.634	0.0170604
551.712	0.0171728
551.790	0.0171678
551.869	0.0173139
551.947	0.0172409
552.025	0.0172328
552.103	0.0173895
552.181	0.0172714
552.259	0.0173134
552.337	0.0173107
552.415	0.0174135
552.494	0.0173719
552.572	0.0173070
552.650	0.0173743
552.728	0.0173215
552.806	0.0174942
552.884	0.0173260
552.962	0.0173815
553.040	0.0173641
553.119	0.0172321
553.197	0.0172454
553.275	0.0173716
553.353	0.0172271
553.431	0.0172012
553.509	0.0171039
553.587	0.0172131
553.665	0.0172444
553.744	0.0171677
553.822	0.0171238
553.900	0.0168955
553.978	0.0170865
554.056	0.0169299
554.134	0.0168803
554.212	0.0169499
554.290	0.0169978
554.369	0.0168528
554.447	0.0168127
554.525	0.0167358
554.603	0.0165967
554.681	0.0165731
554.759	0.0165892
554.837	0.0166605
554.915	0.0166559
554.994	0.0165342
555.072	0.0165838
555.150	0.0164615
555.228	0.0165921
555.306	0.0166547
555.384	0.0166860
555.462	0.0166676
555.540	0.0166122
555.619	0.0166190
555.697	0.0166567
555.775	0.0166798
555.853	0.0166476
555.931	0.0166884
556.009	0.0166883
556.087	0.0167781
556.165	0.0166954
556.244	0.0168582
556.322	0.0169775
556.400	0.0168845
556.478	0.0169382
556.556	0.0171345
556.634	0.0170486
556.712	0.0170152
556.790	0.0171845
556.869	0.0171705
556.947	0.0172535
557.025	0.0173489
557.103	0.0172620
557.181	0.0173363
557.259	0.0173481
557.337	0.0173581
557.415	0.0171097
557.494	0.0172810
557.572	0.0171590
557.650	0.0170779
557.728	0.0172110
557.806	0.0170980
557.884	0.0168751
557.962	0.0169170
558.040	0.0168985
558.119	0.0168684
558.197	0.0168925
558.275	0.0167694
558.353	0.0165170
558.431	0.0166146
558.509	0.0166528
558.587	0.0166326
558.665	0.0165604
558.744	0.0167142
558.822	0.0165932
558.900	0.0167273
558.978	0.0168108
559.056	0.0167776
559.134	0.0168897
559.212	0.0169513
559.290	0.0168165
559.369	0.0170718
559.447	0.0170095
559.525	0.0170215
559.603	0.0170660
559.681	0.0170345
559.759	0.0168803
559.837	0.0168573
559.915	0.0169099
559.994	0.0167915
560.072	0.0166522
560.150	0.0166363
560.228	0.0166122
560.306	0.0165357
560.384	0.0163823
560.462	0.0164787
560.540	0.0163047
560.619	0.0162359
560.697	0.0163580
560.775	0.0163475
560.853	0.0163853
560.931	0.0164641
561.009	0.0164690
561.087	0.0165281
561.165	0.0165794
561.244	0.0166895
561.322	0.0169132
561.400	0.0169749
561.478	0.0170878
561.556	0.0169867
561.634	0.0171175
561.712	0.0172275
561.790	0.0172663
561.869	0.0171059
561.947	0.0172393
562.025	0.0170828
562.103	0.0170706
562.181	0.0168535
562.259	0.0169326
562.337	0.0167274
562.415	0.0167587
562.494	0.0166446
562.572	0.0166594
562.650	0.0163775
562.728	0.0164841
562.806	0.0163525
562.884	0.0163020
562.962	0.0161075
563.040	0.0162498
563.119	0.0161150
563.197	0.0160877
563.275	0.0160114
563.353	0.0161156
563.431	0.0160927
563.509	0.0160437
563.587	0.0160265
563.665	0.0160993
563.744	0.0163411
563.822	0.0162349
563.900	0.0160914
563.978	0.0163741
564.056	0.0163874
564.134	0.0163605
564.212	0.0165752
564.290	0.0164550
564.369	0.0167158
564.447	0.0167463
564.525	0.0166856
564.603	0.0167410
564.681	0.0168705
564.759	0.0169560
564.837	0.0171759
564.915	0.0172063
564.994	0.0171082
565.072	0.0173837
565.150	0.0173540
565.228	0.0173228
565.306	0.0175770
565.384	0.0174895
565.462	0.0173412
565.540	0.0174246
565.619	0.0173837
565.697	0.0174295
565.775	0.0172256
565.853	0.0172519
565.931	0.0171388
566.009	0.0171023
566.087	0.0169062
566.165	0.0167501
566.244	0.0167859
566.322	0.0166421
566.400	0.0165066
566.478	0.0165277
566.556	0.0165951
566.634	0.0165508
566.712	0.0165108
566.790	0.0165218
566.869	0.0162627
566.947	0.0164583
567.025	0.0163474
567.103	0.0163719
567.181	0.0165649
567.259	0.0165620
567.337	0.0165095
567.415	0.0166241
567.494	0.0163651
567.572	0.0165076
567.650	0.0165462
567.728	0.0165858
567.806	0.0166292
567.884	0.0165532
567.962	0.0166817
568.040	0.0166721
568.119	0.0166390
568.197	0.0165519
568.275	0.0165156
568.353	0.0166301
568.431	0.0166840
568.509	0.0165315
568.587	0.0165608
568.665	0.0165347
568.744	0.0165267
568.822	0.0166713
568.900	0.0166613
568.978	0.0167780
569.056	0.0167624
569.134	0.0168054
569.212	0.0169408
569.290	0.0170755
569.369	0.0170642
569.447	0.0171552
569.525	0.0172188
569.603	0.0172581
569.681	0.0171378
569.759	0.0172433
569.837	0.0172987
569.915	0.0173026
569.994	0.0172202
570.072	0.0171793
570.150	0.0171194
570.228	0.0171099
570.306	0.0169141
570.384	0.0169543
570.462	0.0169056
570.540	0.0167866
570.619	0.0168217
570.697	0.0166239
570.775	0.0166189
570.853	0.0164693
570.931	0.0165317
571.009	0.0164062
571.087	0.0163363
571.165	0.0162192
571.244	0.0161890
571.322	0.0161389
571.400	0.0160782
571.478	0.0160664
571.556	0.0160098
571.634	0.0160076
571.712	0.0160384
571.790	0.0159117
571.869	0.0158801
571.947	0.0158112
572.025	0.0158488
572.103	0.0159975
572.181	0.0161506
572.259	0.0160903
572.337	0.0161508
572.415	0.0162442
572.494	0.0161501
572.572	0.0162364
572.650	0.0164926
572.728	0.0163271
572.806	0.0164801
572.884	0.0165882
572.962	0.0166470
573.040	0.0165601
573.119	0.0165855
573.197	0.0166268
573.275	0.0164804
573.353	0.0165007
573.431	0.0166364
573.509	0.0165993
573.587	0.0166993
573.665	0.0166518
573.744	0.0165366
573.822	0.0165999
573.900	0.0165149
573.978	0.0167130
574.056	0.0167807
574.134	0.0167806
574.212	0.0167272
574.290	0.0170927
574.369	0.0170263
574.447	0.0170992
574.525	0.0172103
574.603	0.0173524
574.681	0.0174036
574.759	0.0174829
574.837	0.0176752
574.915	0.0175932
574.994	0.0175619
575.072	0.0174469
575.150	0.0176614
575.228	0.0175142
575.306	0.0175742
575.384	0.0175282
575.462	0.0172897
575.540	0.0173109
575.619	0.0173026
575.697	0.0172915
575.775	0.0170760
575.853	0.0171004
575.931	0.0170837
576.009	0.0169853
576.087	0.0168739
576.165	0.0169209
576.244	0.0169004
576.322	0.0169748
576.400	0.0168070
576.478	0.0168967
576.556	0.0168346
576.634	0.0168581
576.712	0.0170521
576.790	0.0170180
576.869	0.0170876
576.947	0.0169800
577.025	0.0169668
577.103	0.0169760
577.181	0.0170053
577.259	0.0171282
577.337	0.0171841
577.415	0.0171640
577.494	0.0172306
577.572	0.0172149
577.650	0.0171355
577.728	0.0171941
577.806	0.0172765
577.884	0.0172755
577.962	0.0171481
578.040	0.0173285
578.119	0.0173405
578.197	0.0174599
578.275	0.0174693
578.353	0.0173898
578.431	0.0173395
578.509	0.0173834
578.587	0.0174238
578.665	0.0172903
578.744	0.0174595
578.822	0.0173369
578.900	0.0172559
578.978	0.0171864
579.056	0.0173361
579.134	0.0172356
579.212	0.0169968
579.290	0.0170460
579.369	0.0170827
579.447	0.0170139
579.525	0.0169334
579.603	0.0168141
579.681	0.0169115
579.759	0.0169013
579.837	0.0167513
579.915	0.0168951
579.994	0.0166978
580.072	0.0167684
580.150	0.0169815
580.228	0.0168464
580.306	0.0169344
580.384	0.0169290
580.462	0.0168375
580.540	0.0168143
580.619	0.0167696
580.697	0.0167549
580.775	0.0168008
580.853	0.0167435
580.931	0.0166442
581.009	0.0165858
581.087	0.0167564
581.165	0.0168474
581.244	0.0166634
581.322	0.0166042
581.400	0.0163912
581.478	0.0165861
581.556	0.0163848
581.634	0.0164369
581.712	0.0165852
581.790	0.0163952
581.869	0.0164467
581.947	0.0164299
582.025	0.0165517
582.103	0.0165536
582.181	0.0164023
582.259	0.0166064
582.337	0.0166477
582.415	0.0166542
582.494	0.0166126
582.572	0.0167126
582.650	0.0167821
582.728	0.0166758
582.806	0.0165819
582.884	0.0166004
582.962	0.0166285
583.040	0.0165892
583.119	0.0166724
583.197	0.0166203
583.275	0.0165108
583.353	0.0164310
583.431	0.0164960
583.509	0.0163952
583.587	0.0163339
583.665	0.0161454
583.744	0.0161932
583.822	0.0159848
583.900	0.0157955
583.978	0.0157407
584.056	0.0156451
584.134	0.0155490
584.212	0.0155130
584.290	0.0155216
584.369	0.0154423
584.447	0.0154670
584.525	0.0153986
584.603	0.0154936
584.681	0.0154959
584.759	0.0156161
584.837	0.0157672
584.915	0.0158112
584.994	0.0159639
585.072	0.0160273
585.150	0.0163038
585.228	0.0162774
585.306	0.0166261
585.384	0.0166357
585.462	0.0167092
585.540	0.0167126
585.619	0.0168521
585.697	0.0168908
585.775	0.0170570
585.853	0.0169693
585.931	0.0170956
586.009	0.0171127
586.087	0.0172797
586.165	0.0172531
586.244	0.0171998
586.322	0.0171531
586.400	0.0170678
586.478	0.0168996
586.556	0.0170825
586.634	0.0170644
586.712	0.0168533
586.790	0.0167606
586.869	0.0167715
586.947	0.0166390
587.025	0.0165547
587.103	0.0165556
587.181	0.0162985
587.259	0.0163275
587.337	0.0162236
587.415	0.0161237
587.494	0.0159141
587.572	0.0160079
587.650	0.0160854
587.728	0.0160182
587.806	0.0159409
587.884	0.0160012
587.962	0.0158973
588.040	0.0159524
588.119	0.0160496
588.197	0.0160283
588.275	0.0162804
588.353	0.0161717
588.431	0.0164592
588.509	0.0165630
588.587	0.0164831
588.665	0.0164935
588.744	0.0167231
588.822	0.0166859
588.900	0.0166669
588.978	0.0167155
589.056	0.0166591
589.134	0.0167330
589.212	0.0169765
589.290	0.0169590
589.369	0.0167868
589.447	0.0169041
589.525	0.0169557
589.603	0.0170213
589.681	0.0170663
589.759	0.0172283
589.837	0.0172504
589.915	0.0171653
589.994	0.0171337
590.072	0.0172518
590.150	0.0171887
590.228	0.0172020
590.306	0.0170440
590.384	0.0170489
590.462	0.0170739
590.540	0.0169260
590.619	0.0170853
590.697	0.0168897
590.775	0.0168665
590.853	0.0169498
590.931	0.0167030
591.009	0.0167548
591.087	0.0167001
591.165	0.0165586
591.244	0.0165015
591.322	0.0163633
591.400	0.0163763
591.478	0.0163564
591.556	0.0164358
591.634	0.0163270
591.712	0.0162858
591.790	0.0163844
591.869	0.0163686
591.947	0.0165121
592.025	0.0163474
592.103	0.0163351
592.181	0.0163709
592.259	0.0166111
592.337	0.0164581
592.415	0.0163641
592.494	0.0165042
592.572	0.0165099
592.650	0.0165719
592.728	0.0166892
592.806	0.0167184
592.884	0.0166658
592.962	0.0165469
593.040	0.0165990
593.119	0.0167807
593.197	0.0166985
593.275	0.0166582
593.353	0.0166099
593.431	0.0166460
593.509	0.0165952
593.587	0.0167381
593.665	0.0168018
593.744	0.0167824
593.822	0.0168191
593.900	0.0169683
593.978	0.0169666
594.056	0.0170804
594.134	0.0171309
594.212	0.0171976
594.290	0.0173429
594.369	0.0172890
594.447	0.0173895
594.525	0.0174174
594.603	0.0176972
594.681	0.0177137
594.759	0.0176300
594.837	0.0174971
594.915	0.0176883
594.994	0.0174837
595.072	0.0173175
595.150	0.0171907
595.228	0.0173096
595.306	0.0171584
595.384	0.0170800
595.462	0.0168875
595.540	0.0166853
595.619	0.0166958
595.697	0.0167026
595.775	0.0165207
595.853	0.0166952
595.931	0.0167812
596.009	0.0166827
596.087	0.0164313
596.165	0.0164748
596.244	0.0166122
596.322	0.0164261
596.400	0.0163467
596.478	0.0164258
596.556	0.0163841
596.634	0.0163374
596.712	0.0163799
596.790	0.0163022
596.869	0.0162627
596.947	0.0161781
597.025	0.0162101
597.103	0.0162020
597.181	0.0160760
597.259	0.0160095
597.337	0.0160509
597.415	0.0161864
597.494	0.0159982
597.572	0.0160072
597.650	0.0159887
597.728	0.0162825
597.806	0.0162821
597.884	0.0164119
597.962	0.0165807
598.040	0.0165074
598.119	0.0165623
598.197	0.0167246
598.275	0.0168620
598.353	0.0169240
598.431	0.0170331
598.509	0.0170199
598.587	0.0170169
598.665	0.0170475
598.744	0.0171371
598.822	0.0172100
598.900	0.0171603
598.978	0.0169896
599.056	0.0172531
599.134	0.0170354
599.212	0.0170296
599.290	0.0170177
599.369	0.0169271
599.447	0.0168699
599.525	0.0169208
599.603	0.0167860
599.681	0.0168891
599.759	0.0168353
599.837	0.0167861
599.915	0.0168266
599.994	0.0168162
600.072	0.0168889
600.150	0.0168208
600.228	0.0168179
600.306	0.0170004
600.384	0.0169465
600.462	0.0170746
600.540	0.0168518
600.619	0.0170625
600.697	0.0171671
600.775	0.0172200
600.853	0.0172182
600.931	0.0171093
601.009	0.0171854
601.087	0.0172688
601.165	0.0171583
601.244	0.0172304
601.322	0.0171043
601.400	0.0172243
601.478	0.0170187
601.556	0.0171614
601.634	0.0171956
601.712	0.0172478
601.790	0.0171449
601.869	0.0171375
601.947	0.0172619
602.025	0.0170840
602.103	0.0171851
602.181	0.0171342
602.259	0.0170856
602.337	0.0172080
602.415	0.0171503
602.494	0.0172314
602.572	0.0171252
602.650	0.0172701
602.728	0.0172611
602.806	0.0172562
602.884	0.0174289
602.962	0.0172746
603.040	0.0173538
603.119	0.0172464
603.197	0.0171976
603.275	0.0172999
603.353	0.0172852
603.431	0.0171925
603.509	0.0172626
603.587	0.0171953
603.665	0.0171809
603.744	0.0171347
603.822	0.0169252
603.900	0.0167654
603.978	0.0169145
604.056	0.0168364
604.134	0.0168662
604.212	0.0168247
604.290	0.0169012
604.369	0.0168546
604.447	0.0167573
604.525	0.0169790
604.603	0.0169683
604.681	0.0169990
604.759	0.0169836
604.837	0.0170058
604.915	0.0171289
604.994	0.0171675
605.072	0.0172023
605.150	0.0171717
605.228	0.0171355
605.306	0.0171584
605.384	0.0171761
605.462	0.0172447
605.540	0.0171857
605.619	0.0172080
605.697	0.0171842
605.775	0.0171363
605.853	0.0171667
605.931	0.0171142
606.009	0.0170448
606.087	0.0170414
606.165	0.0170054
606.244	0.0170474
606.322	0.0169554
606.400	0.0169492
606.478	0.0168579
606.556	0.0168391
606.634	0.0167587
606.712	0.0166891
606.790	0.0168534
606.869	0.0166975
606.947	0.0165848
607.025	0.0165691
607.103	0.0165105
607.181	0.0165089
607.259	0.0163661
607.337	0.0163612
607.415	0.0163933
607.494	0.0163646
607.572	0.0163505
607.650	0.0162400
607.728	0.0162473
607.806	0.0162888
607.884	0.0163095
607.962	0.0164180
608.040	0.0164561
608.119	0.0163914
608.197	0.0165407
608.275	0.0164814
608.353	0.0164937
608.431	0.0164895
608.509	0.0165021
608.587	0.0166698
608.665	0.0165263
608.744	0.0166769
608.822	0.0167083
608.900	0.0166050
608.978	0.0167166
609.056	0.0167719
609.134	0.0167692
609.212	0.0168459
609.290	0.0169416
609.369	0.0169417
609.447	0.0169817
609.525	0.0169599
609.603	0.0170374
609.681	0.0170168
609.759	0.0170029
609.837	0.0169437
609.915	0.0169313
609.994	0.0171515
610.072	0.0170729
610.150	0.0170496
610.228	0.0169909
610.306	0.0169293
610.384	0.0169298
610.462	0.0167726
610.540	0.0169169
610.619	0.0170019
610.697	0.0169970
610.775	0.0170985
610.853	0.0170301
610.931	0.0170949
611.009	0.0170209
611.087	0.0170819
611.165	0.0170104
611.244	0.0170616
611.322	0.0170003
611.400	0.0170306
611.478	0.0169052
611.556	0.0169124
611.634	0.0168799
611.712	0.0169105
611.790	0.0168848
611.869	0.0167181
611.947	0.0166550
612.025	0.0167043
612.103	0.0164351
612.181	0.0165759
612.259	0.0165518
612.337	0.0165562
612.415	0.0165113
612.494	0.0165656
612.572	0.0165296
612.650	0.0164050
612.728	0.0165716
612.806	0.0166045
612.884	0.0166006
612.962	0.0165466
613.040	0.0165213
613.119	0.0165218
613.197	0.0166158
613.275	0.0166051
613.353	0.0164415
613.431	0.0165871
613.509	0.0165929
613.587	0.0166103
613.665	0.0165675
613.744	0.0166100
613.822	0.0165075
613.900	0.0164799
613.978	0.0165067
614.056	0.0164687
614.134	0.0163782
614.212	0.0163823
614.290	0.0164671
614.369	0.0164041
614.447	0.0163972
614.525	0.0163499
614.603	0.0163872
614.681	0.0162926
614.759	0.0164390
614.837	0.0165074
614.915	0.0164504
614.994	0.0165292
615.072	0.0165856
615.150	0.0166171
615.228	0.0168746
615.306	0.0167756
615.384	0.0168253
615.462	0.0170354
615.540	0.0170187
615.619	0.0170537
615.697	0.0170904
615.775	0.0172652
615.853	0.0173905
615.931	0.0172763
616.009	0.0174337
616.087	0.0175655
616.165	0.0174615
616.244	0.0173791
616.322	0.0176517
616.400	0.0176327
616.478	0.0176443
616.556	0.0175980
616.634	0.0175761
616.712	0.0175745
616.790	0.0176871
616.869	0.0176614
616.947	0.0175626
617.025	0.0174020
617.103	0.0174008
617.181	0.0173023
617.259	0.0173402
617.337	0.0172893
617.415	0.0170628
617.494	0.0170853
617.572	0.0170978
617.650	0.0169183
617.728	0.0167646
617.806	0.0167870
617.884	0.0168275
617.962	0.0166080
618.040	0.0165902
618.119	0.0166470
618.197	0.0165064
618.275	0.0166561
618.353	0.0166678
618.431	0.0167325
618.509	0.0167047
618.587	0.0167744
618.665	0.0168695
618.744	0.0168011
618.822	0.0167648
618.900	0.0168822
618.978	0.0169402
619.056	0.0171120
619.134	0.0170381
619.212	0.0171745
619.290	0.0171267
619.369	0.0172034
619.447	0.0172393
619.525	0.0172520
619.603	0.0172905
619.681	0.0172303
619.759	0.0171854
619.837	0.0172915
619.915	0.0172257
619.994	0.0172366
620.072	0.0171657
620.150	0.0170039
620.228	0.0171190
620.306	0.0170579
620.384	0.0169371
620.462	0.0168380
620.540	0.0168239
620.619	0.0167880
620.697	0.0168259
620.775	0.0166872
620.853	0.0166932
620.931	0.0167837
621.009	0.0165271
621.087	0.0169865
621.165	0.0169067
621.244	0.0169106
621.322	0.0170573
621.400	0.0172445
621.478	0.0172363
621.556	0.0175294
621.634	0.0175936
621.712	0.0177586
621.790	0.0179939
621.869	0.0179414
621.947	0.0180500
622.025	0.0181128
622.103	0.0180990
622.181	0.0180593
622.259	0.0182508
622.337	0.0183364
622.415	0.0182815
622.494	0.0182088
622.572	0.0180692
622.650	0.0179801
622.728	0.0181296
622.806	0.0178938
622.884	0.0177674
622.962	0.0178048
623.040	0.0176827
623.119	0.0175861
623.197	0.0173302
623.275	0.0172818
623.353	0.0171488
623.431	0.0171655
623.509	0.0167941
623.587	0.0167389
623.665	0.0166364
623.744	0.0163924
623.822	0.0163249
623.900	0.0162764
623.978	0.0163007
624.056	0.0162256
624.134	0.0162668
624.212	0.0163947
624.290	0.0163296
624.369	0.0164597
624.447	0.0163392
624.525	0.0164175
624.603	0.0164179
624.681	0.0164284
624.759	0.0163522
624.837	0.0163256
624.915	0.0163315
624.994	0.0163551
625.072	0.0162492
625.150	0.0163037
625.228	0.0163454
625.306	0.0163816
625.384	0.0162904
625.462	0.0163937
625.540	0.0164160
625.619	0.0164224
625.697	0.0162871
625.775	0.0164798
625.853	0.0164584
625.931	0.0164780
626.009	0.0163152
626.087	0.0165536
626.165	0.0166058
626.244	0.0165604
626.322	0.0166889
626.400	0.0168195
626.478	0.0166973
626.556	0.0168723
626.634	0.0168349
626.712	0.0168445
626.790	0.0169115
626.869	0.0168884
626.947	0.0169096
627.025	0.0168498
627.103	0.0170132
627.181	0.0170412
627.259	0.0170009
627.337	0.0170375
627.415	0.0171661
627.494	0.0170246
627.572	0.0171281
627.650	0.0171519
627.728	0.0169338
627.806	0.0171648
627.884	0.0170869
627.962	0.0170408
628.040	0.0171061
628.119	0.0171185
628.197	0.0170193
628.275	0.0171675
628.353	0.0170648
628.431	0.0171129
628.509	0.0171026
628.587	0.0170589
628.665	0.0170033
628.744	0.0168539
628.822	0.0169904
628.900	0.0170467
628.978	0.0168361
629.056	0.0168832
629.134	0.0166931
629.212	0.0167660
629.290	0.0166664
629.369	0.0167470
629.447	0.0167446
629.525	0.0167775
629.603	0.0169107
629.681	0.0168813
629.759	0.0169877
629.837	0.0169456
629.915	0.0171695
629.994	0.0171482
630.072	0.0171313
630.150	0.0172919
630.228	0.0173521
630.306	0.0172764
630.384	0.0173696
630.462	0.0174618
630.540	0.0173983
630.619	0.0173717
630.697	0.0173068
630.775	0.0171909
630.853	0.0172799
630.931	0.0172314
631.009	0.0173343
631.087	0.0171300
631.165	0.0170819
631.244	0.0170914
631.322	0.0171413
631.400	0.0170770
631.478	0.0170357
631.556	0.0169821
631.634	0.0170827
631.712	0.0170311
631.790	0.0168253
631.869	0.0168305
631.947	0.0168538
632.025	0.0169774
632.103	0.0168262
632.181	0.0168349
632.259	0.0167892
632.337	0.0168259
632.415	0.0167637
632.494	0.0168007
632.572	0.0168279
632.650	0.0168733
632.728	0.0167316
632.806	0.0167139
632.884	0.0169221
632.962	0.0167907
633.040	0.0168198
633.119	0.0167538
633.197	0.0168008
633.275	0.0167702
633.353	0.0167351
633.431	0.0167290
633.509	0.0168058
633.587	0.0167907
633.665	0.0167834
633.744	0.0166179
633.822	0.0166955
633.900	0.0167796
633.978	0.0169363
634.056	0.0167963
634.134	0.0168977
634.212	0.0168006
634.290	0.0168124
634.369	0.0168148
634.447	0.0168273
634.525	0.0167233
634.603	0.0167595
634.681	0.0168665
634.759	0.0167647
634.837	0.0168265
634.915	0.0167949
634.994	0.0168996
635.072	0.0166615
635.150	0.0166284
635.228	0.0168699
635.306	0.0169389
635.384	0.0167052
635.462	0.0167775
635.540	0.0168170
635.619	0.0168544
635.697	0.0168964
635.775	0.0167799
635.853	0.0168449
635.931	0.0167851
636.009	0.0167879
636.087	0.0167798
636.165	0.0167508
636.244	0.0168185
636.322	0.0167091
636.400	0.0167260
636.478	0.0166672
636.556	0.0166315
636.634	0.0166984
636.712	0.0168031
636.790	0.0167308
636.869	0.0166619
636.947	0.0167298
637.025	0.0166514
637.103	0.0166925
637.181	0.0166588
637.259	0.0167468
637.337	0.0167492
637.415	0.0167692
637.494	0.0169057
637.572	0.0169615
637.650	0.0169788
637.728	0.0170767
637.806	0.0169807
637.884	0.0169735
637.962	0.0172746
638.040	0.0172573
638.119	0.0172816
638.197	0.0173540
638.275	0.0173867
638.353	0.0173300
638.431	0.0172427
638.509	0.0173148
638.587	0.0173128
638.665	0.0171665
638.744	0.0171434
638.822	0.0171416
638.900	0.0171531
638.978	0.0170378
639.056	0.0170908
639.134	0.0170905
639.212	0.0169947
639.290	0.0170837
639.369	0.0169028
639.447	0.0169479
639.525	0.0170930
639.603	0.0170570
639.681	0.0170915
639.759	0.0169986
639.837	0.0170000
639.915	0.0169886
639.994	0.0167754
640.072	0.0167522
640.150	0.0166525
640.228	0.0168771
640.306	0.0168496
640.384	0.0167638
640.462	0.0166466
640.540	0.0166987
640.619	0.0165900
640.697	0.0164780
640.775	0.0163828
640.853	0.0164588
640.931	0.0164739
641.009	0.0163451
641.087	0.0164072
641.165	0.0163789
641.244	0.0165043
641.322	0.0164600
641.400	0.0164426
641.478	0.0164798
641.556	0.0164991
641.634	0.0164296
641.712	0.0164811
641.790	0.0163843
641.869	0.0165807
641.947	0.0165771
642.025	0.0165314
642.103	0.0165841
642.181	0.0165939
642.259	0.0167400
642.337	0.0167673
642.415	0.0167233
642.494	0.0166759
642.572	0.0168568
642.650	0.0167804
642.728	0.0168287
642.806	0.0170580
642.884	0.0169634
642.962	0.0170935
643.040	0.0171563
643.119	0.0171823
643.197	0.0172197
643.275	0.0173603
643.353	0.0173304
643.431	0.0174644
643.509	0.0172465
643.587	0.0174860
643.665	0.0174351
643.744	0.0174648
643.822	0.0175966
643.900	0.0174603
643.978	0.0174197
644.056	0.0174962
644.134	0.0173780
644.212	0.0173492
644.290	0.0173596
644.369	0.0173548
644.447	0.0173157
644.525	0.0172778
644.603	0.0173460
644.681	0.0173977
644.759	0.0172441
644.837	0.0172701
644.915	0.0173558
644.994	0.0173182
645.072	0.0173663
645.150	0.0174136
645.228	0.0175320
645.306	0.0175111
645.384	0.0175320
645.462	0.0174273
645.540	0.0173441
645.619	0.0175639
645.697	0.0174876
645.775	0.0173111
645.853	0.0174670
645.931	0.0174232
646.009	0.0174383
646.087	0.0173941
646.165	0.0173255
646.244	0.0173092
646.322	0.0174332
646.400	0.0172333
646.478	0.0172543
646.556	0.0172643
646.634	0.0170641
646.712	0.0171770
646.790	0.0171338
646.869	0.0170097
646.947	0.0168906
647.025	0.0168343
647.103	0.0167790
647.181	0.0167281
647.259	0.0166427
647.337	0.0165185
647.415	0.0164938
647.494	0.0165571
647.572	0.0163609
647.650	0.0161287
647.728	0.0161737
647.806	0.0161600
647.884	0.0160334
647.962	0.0160045
648.040	0.0161733
648.119	0.0159919
648.197	0.0159116
648.275	0.0159646
648.353	0.0160591
648.431	0.0159334
648.509	0.0160670
648.587	0.0161576
648.665	0.0161655
648.744	0.0160328
648.822	0.0161053
648.900	0.0162675
648.978	0.0160738
649.056	0.0160722
649.134	0.0162032
649.212	0.0161817
649.290	0.0163045
649.369	0.0162905
649.447	0.0162210
649.525	0.0163209
649.603	0.0163763
649.681	0.0164795
649.759	0.0166017
649.837	0.0164671
649.915	0.0166209
649.994	0.0165293
650.072	0.0165091
650.150	0.0166100
650.228	0.0165411
650.306	0.0167011
650.384	0.0165765
650.462	0.0165609
650.540	0.0166869
650.619	0.0166873
650.697	0.0166682
650.775	0.0166817
650.853	0.0165081
650.931	0.0166442
651.009	0.0168275
651.087	0.0167813
651.165	0.0168392
651.244	0.0167412
651.322	0.0167166
651.400	0.0167798
651.478	0.0166331
651.556	0.0166448
651.634	0.0167875
651.712	0.0167406
651.790	0.0168191
651.869	0.0167975
651.947	0.0167503
652.025	0.0166798
652.103	0.0166636
652.181	0.0166096
652.259	0.0165382
652.337	0.0163781
652.415	0.0162434
652.494	0.0163486
652.572	0.0161737
652.650	0.0161977
652.728	0.0161750
652.806	0.0160455
652.884	0.0159895
652.962	0.0159943
653.040	0.0159398
653.119	0.0160564
653.197	0.0161173
653.275	0.0161333
653.353	0.0161504
653.431	0.0163195
653.509	0.0163426
653.587	0.0163298
653.665	0.0165303
653.744	0.0165863
653.822	0.0164808
653.900	0.0166798
653.978	0.0166848
654.056	0.0167811
654.134	0.0167462
654.212	0.0166913
654.290	0.0169890
654.369	0.0168671
654.447	0.0168787
654.525	0.0169884
654.603	0.0168610
654.681	0.0170140
654.759	0.0169306
654.837	0.0168600
654.915	0.0168554
654.994	0.0169219
655.072	0.0169971
655.150	0.0169159
655.228	0.0168282
655.306	0.0169295
655.384	0.0168702
655.462	0.0169260
655.540	0.0169006
655.619	0.0169823
655.697	0.0170436
655.775	0.0170449
655.853	0.0170313
655.931	0.0170430
656.009	0.0171114
656.087	0.0170807
656.165	0.0172977
656.244	0.0173796
656.322	0.0171985
656.400	0.0174500
656.478	0.0173260
656.556	0.0173450
656.634	0.0174654
656.712	0.0174608
656.790	0.0175361
656.869	0.0177343
656.947	0.0175782
657.025	0.0175095
657.103	0.0175381
657.181	0.0176623
657.259	0.0175632
657.337	0.0174942
657.415	0.0175260
657.494	0.0175075
657.572	0.0176343
657.650	0.0176395
657.728	0.0174249
657.806	0.0174422
657.884	0.0174667
657.962	0.0173774
658.040	0.0175513
658.119	0.0174565
658.197	0.0174826
658.275	0.0173901
658.353	0.0173840
658.431	0.0172980
658.509	0.0171025
658.587	0.0172459
658.665	0.0171282
658.744	0.0170892
658.822	0.0170393
658.900	0.0170263
658.978	0.0169879
659.056	0.0168826
659.134	0.0166994
659.212	0.0168111
659.290	0.0167038
659.369	0.0167447
659.447	0.0165897
659.525	0.0165613
659.603	0.0164857
659.681	0.0164344
659.759	0.0164354
659.837	0.0164535
659.915	0.0165453
659.994	0.0164299
660.072	0.0163339
660.150	0.0163172
660.228	0.0163569
660.306	0.0163052
660.384	0.0162207
660.462	0.0161620
660.540	0.0162332
660.619	0.0161453
660.697	0.0160285
660.775	0.0161875
660.853	0.0161033
660.931	0.0162397
661.009	0.0162375
661.087	0.0164764
661.165	0.0163952
661.244	0.0163873
661.322	0.0163822
661.400	0.0165024
661.478	0.0164677
661.556	0.0164678
661.634	0.0164900
661.712	0.0165241
661.790	0.0165579
661.869	0.0167612
661.947	0.0167411
662.025	0.0167828
662.103	0.0167854
662.181	0.0168276
662.259	0.0168902
662.337	0.0168520
662.415	0.0169251
662.494	0.0169581
662.572	0.0169440
662.650	0.0168955
662.728	0.0168376
662.806	0.0167307
662.884	0.0166467
662.962	0.0166438
663.040	0.0167093
663.119	0.0166248
663.197	0.0165986
663.275	0.0165277
663.353	0.0164687
663.431	0.0165044
663.509	0.0165791
663.587	0.0164887
663.665	0.0164748
663.744	0.0166827
663.822	0.0165131
663.900	0.0164548
663.978	0.0165662
664.056	0.0165955
664.134	0.0166923
664.212	0.0168603
664.290	0.0168175
664.369	0.0168530
664.447	0.0168063
664.525	0.0166328
664.603	0.0167135
664.681	0.0167586
664.759	0.0168594
664.837	0.0167674
664.915	0.0169019
664.994	0.0168179
665.072	0.0168153
665.150	0.0169041
665.228	0.0167358
665.306	0.0168334
665.384	0.0169317
665.462	0.0169045
665.540	0.0169500
665.619	0.0169473
665.697	0.0167670
665.775	0.0168064
665.853	0.0168063
665.931	0.0167823
666.009	0.0167565
666.087	0.0167821
666.165	0.0167206
666.244	0.0167461
666.322	0.0167816
666.400	0.0166351
666.478	0.0166942
666.556	0.0165491
666.634	0.0165583
666.712	0.0164339
666.790	0.0166245
666.869	0.0166079
666.947	0.0166771
667.025	0.0167062
667.103	0.0166293
667.181	0.0167604
667.259	0.0168178
667.337	0.0168883
667.415	0.0167950
667.494	0.0170594
667.572	0.0168314
667.650	0.0169247
667.728	0.0171135
667.806	0.0171067
667.884	0.0170855
667.962	0.0170238
668.040	0.0169684
668.119	0.0170089
668.197	0.0169631
668.275	0.0167890
668.353	0.0168150
668.431	0.0168552
668.509	0.0167634
668.587	0.0165770
668.665	0.0165249
668.744	0.0165028
668.822	0.0164923
668.900	0.0164671
668.978	0.0164955
669.056	0.0166259
669.134	0.0167921
669.212	0.0166444
669.290	0.0167388
669.369	0.0166701
669.447	0.0166412
669.525	0.0167460
669.603	0.0168443
669.681	0.0167897
669.759	0.0167471
669.837	0.0166382
669.915	0.0166151
669.994	0.0165869
670.072	0.0166250
670.150	0.0164989
670.228	0.0166248
670.306	0.0165493
670.384	0.0165131
670.462	0.0163807
670.540	0.0165283
670.619	0.0163374
670.697	0.0163107
670.775	0.0164262
670.853	0.0162843
670.931	0.0162874
671.009	0.0165559
671.087	0.0165163
671.165	0.0165034
671.244	0.0164501
671.322	0.0166557
671.400	0.0164545
671.478	0.0164686
671.556	0.0166535
671.634	0.0166343
671.712	0.0166295
671.790	0.0167016
671.869	0.0166846
671.947	0.0167036
672.025	0.0167963
672.103	0.0167593
672.181	0.0169395
672.259	0.0167319
672.337	0.0168941
672.415	0.0168511
672.494	0.0169216
672.572	0.0169337
672.650	0.0170020
672.728	0.0170352
672.806	0.0169205
672.884	0.0171168
672.962	0.0169880
673.040	0.0171517
673.119	0.0171371
673.197	0.0169942
673.275	0.0170189
673.353	0.0173116
673.431	0.0172386
673.509	0.0170977
673.587	0.0172197
673.665	0.0170750
673.744	0.0171150
673.822	0.0170954
673.900	0.0170930
673.978	0.0170309
674.056	0.0170763
674.134	0.0170927
674.212	0.0171247
674.290	0.0169729
674.369	0.0168906
674.447	0.0168684
674.525	0.0168930
674.603	0.0168608
674.681	0.0168897
674.759	0.0170330
674.837	0.0169287
674.915	0.0169051
674.994	0.0169476
675.072	0.0169211
675.150	0.0169106
675.228	0.0168948
675.306	0.0169640
675.384	0.0168374
675.462	0.0169337
675.540	0.0169291
675.619	0.0169983
675.697	0.0169958
675.775	0.0168840
675.853	0.0169707
675.931	0.0171311
676.009	0.0169223
676.087	0.0169261
676.165	0.0169435
676.244	0.0169886
676.322	0.0169380
676.400	0.0170190
676.478	0.0168114
676.556	0.0168491
676.634	0.0169126
676.712	0.0167970
676.790	0.0168395
676.869	0.0168802
676.947	0.0169619
677.025	0.0167947
677.103	0.0169805
677.181	0.0168958
677.259	0.0166611
677.337	0.0167737
677.415	0.0167677
677.494	0.0168921
677.572	0.0168157
677.650	0.0167038
677.728	0.0168609
677.806	0.0169519
677.884	0.0169286
677.962	0.0169792
678.040	0.0168903
678.119	0.0168974
678.197	0.0169758
678.275	0.0168026
678.353	0.0167937
678.431	0.0167904
678.509	0.0166154
678.587	0.0168213
678.665	0.0166972
678.744	0.0167373
678.822	0.0166948
678.900	0.0166621
678.978	0.0166067
679.056	0.0167695
679.134	0.0167324
679.212	0.0168050
679.290	0.0167394
679.369	0.0166556
679.447	0.0167247
679.525	0.0167579
679.603	0.0168311
679.681	0.0168317
679.759	0.0168181
679.837	0.0168899
679.915	0.0167477
679.994	0.0167652
680.072	0.0167879
680.150	0.0169654
680.228	0.0169746
680.306	0.0169624
680.384	0.0169400
680.462	0.0170404
680.540	0.0170235
680.619	0.0169424
680.697	0.0171313
680.775	0.0169778
680.853	0.0171426
680.931	0.0171529
681.009	0.0171316
681.087	0.0172046
681.165	0.0170842
681.244	0.0170822
681.322	0.0171765
681.400	0.0171718
681.478	0.0171159
681.556	0.0172281
681.634	0.0171457
681.712	0.0171806
681.790	0.0170156
681.869	0.0170383
681.947	0.0171852
682.025	0.0171037
682.103	0.0169750
682.181	0.0170034
682.259	0.0170488
682.337	0.0169313
682.415	0.0168443
682.494	0.0168820
682.572	0.0168952
682.650	0.0168434
682.728	0.0167746
682.806	0.0167043
682.884	0.0165597
682.962	0.0167456
683.040	0.0167342
683.119	0.0166297
683.197	0.0166863
683.275	0.0165900
683.353	0.0164132
683.431	0.0163153
683.509	0.0163911
683.587	0.0163193
683.665	0.0163218
683.744	0.0161572
683.822	0.0162341
683.900	0.0162237
683.978	0.0159404
684.056	0.0160663
684.134	0.0160622
684.212	0.0158658
684.290	0.0158405
684.369	0.0158681
684.447	0.0158454
684.525	0.0159608
684.603	0.0161436
684.681	0.0161025
684.759	0.0160416
684.837	0.0162285
684.915	0.0163002
684.994	0.0162408
685.072	0.0162157
685.150	0.0163681
685.228	0.0162547
685.306	0.0164187
685.384	0.0163609
685.462	0.0163828
685.540	0.0163641
685.619	0.0166518
685.697	0.0164475
685.775	0.0166615
685.853	0.0164908
685.931	0.0165466
686.009	0.0165266
686.087	0.0166657
686.165	0.0166617
686.244	0.0166528
686.322	0.0166695
686.400	0.0166642
686.478	0.0166805
686.556	0.0166434
686.634	0.0168387
686.712	0.0168656
686.790	0.0168659
686.869	0.0168032
686.947	0.0170656
687.025	0.0169480
687.103	0.0168709
687.181	0.0169768
687.259	0.0170586
687.337	0.0168910
687.415	0.0169313
687.494	0.0170162
687.572	0.0167628
687.650	0.0170080
687.728	0.0169514
687.806	0.0169743
687.884	0.0170189
687.962	0.0170460
688.040	0.0171865
688.119	0.0172203
688.197	0.0171333
688.275	0.0172979
688.353	0.0173205
688.431	0.0171123
688.509	0.0171845
688.587	0.0173409
688.665	0.0171217
688.744	0.0172891
688.822	0.0171614
688.900	0.0171040
688.978	0.0172342
689.056	0.0171616
689.134	0.0170426
689.212	0.0170538
689.290	0.0170865
689.369	0.0171526
689.447	0.0169004
689.525	0.0167780
689.603	0.0167560
689.681	0.0167989
689.759	0.0167467
689.837	0.0166766
689.915	0.0167458
689.994	0.0167233
690.072	0.0165329
690.150	0.0166111
690.228	0.0166329
690.306	0.0166868
690.384	0.0165895
690.462	0.0165572
690.540	0.0165247
690.619	0.0165065
690.697	0.0165170
690.775	0.0166438
690.853	0.0164930
690.931	0.0165303
691.009	0.0165852
691.087	0.0165636
691.165	0.0163660
691.244	0.0163676
691.322	0.0164258
691.400	0.0164942
691.478	0.0163766
691.556	0.0162300
691.634	0.0162637
691.712	0.0162534
691.790	0.0164307
691.869	0.0163454
691.947	0.0162405
692.025	0.0162914
692.103	0.0163792
692.181	0.0163887
692.259	0.0165228
692.337	0.0165649
692.415	0.0165968
692.494	0.0166159
692.572	0.0166529
692.650	0.0165942
692.728	0.0166820
692.806	0.0168623
692.884	0.0169400
692.962	0.0169064
693.040	0.0168819
693.119	0.0170750
693.197	0.0169862
693.275	0.0171036
693.353	0.0173006
693.431	0.0172041
693.509	0.0171759
693.587	0.0172990
693.665	0.0173646
693.744	0.0172482
693.822	0.0173286
693.900	0.0174155
693.978	0.0173468
694.056	0.0175034
694.134	0.0174973
694.212	0.0175456
694.290	0.0175607
694.369	0.0175657
694.447	0.0176191
694.525	0.0175931
694.603	0.0175253
694.681	0.0177458
694.759	0.0175845
694.837	0.0175820
694.915	0.0174917
694.994	0.0175326
695.072	0.0174284
695.150	0.0172987
695.228	0.0173804
695.306	0.0173969
695.384	0.0174662
695.462	0.0173958
695.540	0.0174565
695.619	0.0172584
695.697	0.0172836
695.775	0.0172089
695.853	0.0171027
695.931	0.0171831
696.009	0.0169952
696.087	0.0169676
696.165	0.0169012
696.244	0.0169834
696.322	0.0167321
696.400	0.0168738
696.478	0.0168258
696.556	0.0167199
696.634	0.0163882
696.712	0.0164353
696.790	0.0163863
696.869	0.0163325
696.947	0.0162430
697.025	0.0161270
697.103	0.0161932
697.181	0.0160803
697.259	0.0161919
697.337	0.0160271
697.415	0.0160256
697.494	0.0161592
697.572	0.0161687
697.650	0.0161867
697.728	0.0163741
697.806	0.0162099
697.884	0.0160715
697.962	0.0162968
698.040	0.0162569
698.119	0.0162691
698.197	0.0163256
698.275	0.0163181
698.353	0.0162505
698.431	0.0163678
698.509	0.0162875
698.587	0.0163467
698.665	0.0163998
698.744	0.0164274
698.822	0.0163726
698.900	0.0164822
698.978	0.0165251
699.056	0.0165337
699.134	0.0167068
699.212	0.0168192
699.290	0.0167522
699.369	0.0169140
699.447	0.0168940
699.525	0.0169389
699.603	0.0170834
699.681	0.0170081
699.759	0.0171824
699.837	0.0171294
699.915	0.0171590
699.994	0.0172054
700.072	0.0170118
700.150	0.0171996
700.228	0.0172736
700.306	0.0171287
700.384	0.0172433
700.462	0.0170824
700.540	0.0170626
700.619	0.0172598
700.697	0.0171311
700.775	0.0171899
700.853	0.0173376
700.931	0.0171324
701.009	0.0171473
701.087	0.0171870
701.165	0.0172513
701.244	0.0173491
701.322	0.0172567
701.400	0.0172523
701.478	0.0172617
701.556	0.0174553
701.634	0.0173586
701.712	0.0173202
701.790	0.0175607
701.869	0.0174821
701.947	0.0173833
702.025	0.0174705
702.103	0.0174583
702.181	0.0175882
702.259	0.0176511
702.337	0.0173729
702.415	0.0175147
702.494	0.0175705
702.572	0.0175321
702.650	0.0174630
702.728	0.0175404
702.806	0.0175569
702.884	0.0173948
702.962	0.0176851
703.040	0.0176917
703.119	0.0173779
703.197	0.0176193
703.275	0.0174543
703.353	0.0174671
703.431	0.0174953
703.509	0.0176250
703.587	0.0173828
703.665	0.0173472
703.744	0.0172548
703.822	0.0173344
703.900	0.0173815
703.978	0.0172950
704.056	0.0171825
704.134	0.0171076
704.212	0.0171992
704.290	0.0170709
704.369	0.0170168
704.447	0.0169209
704.525	0.0167413
704.603	0.0167386
704.681	0.0168498
704.759	0.0165705
704.837	0.0165674
704.915	0.0166998
704.994	0.0163915
705.072	0.0164541
705.150	0.0163873
705.228	0.0164185
705.306	0.0164146
705.384	0.0163808
705.462	0.0162815
705.540	0.0162836
705.619	0.0162688
705.697	0.0162951
705.775	0.0162595
705.853	0.0162357
705.931	0.0164615
706.009	0.0164339
706.087	0.0163496
706.165	0.0163495
706.244	0.0164423
706.322	0.0165469
706.400	0.0165783
706.478	0.0167410
706.556	0.0166319
706.634	0.0165036
706.712	0.0167784
706.790	0.0167210
706.869	0.0164881
706.947	0.0167535
707.025	0.0166991
707.103	0.0169430
707.181	0.0169478
707.259	0.0167950
707.337	0.0167532
707.415	0.0168645
707.494	0.0168288
707.572	0.0169494
707.650	0.0170119
707.728	0.0169701
707.806	0.0170308
707.884	0.0170164
707.962	0.0170296
708.040	0.0169779
708.119	0.0169410
708.197	0.0168884
708.275	0.0169980
708.353	0.0168525
708.431	0.0168374
708.509	0.0168046
708.587	0.0167935
708.665	0.0167124
708.744	0.0167245
708.822	0.0166755
708.900	0.0165824
708.978	0.0164444
709.056	0.0166169
709.134	0.0167435
709.212	0.0165913
709.290	0.0167282
709.369	0.0166145
709.447	0.0165961
709.525	0.0166926
709.603	0.0167541
709.681	0.0167870
709.759	0.0167906
709.837	0.0168349
709.915	0.0168414
709.994	0.0167056
710.072	0.0167764
710.150	0.0166623
710.228	0.0166680
710.306	0.0165558
710.384	0.0166656
710.462	0.0165303
710.540	0.0164989
710.619	0.0165071
710.697	0.0164565
710.775	0.0163597
710.853	0.0163298
710.931	0.0165475
711.009	0.0164396
711.087	0.0165545
711.165	0.0163936
711.244	0.0164350
711.322	0.0164075
711.400	0.0162820
711.478	0.0164541
711.556	0.0164857
711.634	0.0166937
711.712	0.0165677
711.790	0.0164835
711.869	0.0165783
711.947	0.0168279
712.025	0.0166616
712.103	0.0167445
712.181	0.0167326
712.259	0.0168496
712.337	0.0168947
712.415	0.0170412
712.494	0.0169709
712.572	0.0167461
712.650	0.0169386
712.728	0.0168886
712.806	0.0168730
712.884	0.0166425
712.962	0.0166800
713.040	0.0166652
713.119	0.0166219
713.197	0.0167858
713.275	0.0165478
713.353	0.0164032
713.431	0.0164108
713.509	0.0165604
713.587	0.0164063
713.665	0.0163686
713.744	0.0164335
713.822	0.0165002
713.900	0.0163263
713.978	0.0164501
714.056	0.0164596
714.134	0.0165048
714.212	0.0166972
714.290	0.0167513
714.369	0.0168018
714.447	0.0169420
714.525	0.0169904
714.603	0.0170661
714.681	0.0172244
714.759	0.0174376
714.837	0.0174306
714.915	0.0174917
714.994	0.0173923
715.072	0.0173458
715.150	0.0171708
715.228	0.0169852
715.306	0.0170123
715.384	0.0169037
715.462	0.0165885
715.540	0.0165118
715.619	0.0165382
715.697	0.0165113
715.775	0.0163535
715.853	0.0163473
715.931	0.0163794
716.009	0.0163594
716.087	0.0165848
716.165	0.0164359
716.244	0.0164888
716.322	0.0165248
716.400	0.0167697
716.478	0.0170425
716.556	0.0168957
716.634	0.0171526
716.712	0.0171555
716.790	0.0173020
716.869	0.0173221
716.947	0.0172836
717.025	0.0173278
717.103	0.0173878
717.181	0.0171008
717.259	0.0172366
717.337	0.0170866
717.415	0.0170431
717.494	0.0170509
717.572	0.0171077
717.650	0.0169698
717.728	0.0169638
717.806	0.0169617
717.884	0.0169691
717.962	0.0169373
718.040	0.0169279
718.119	0.0170804
718.197	0.0169950
718.275	0.0171071
718.353	0.0170351
718.431	0.0171195
718.509	0.0171232
718.587	0.0172541
718.665	0.0171646
718.744	0.0173100
718.822	0.0174645
718.900	0.0172864
718.978	0.0173093
719.056	0.0172731
719.134	0.0172715
719.212	0.0174645
719.290	0.0175457
719.369	0.0173412
719.447	0.0174631
719.525	0.0173609
719.603	0.0173347
719.681	0.0173738
719.759	0.0173502
719.837	0.0173497
719.915	0.0172825
719.994	0.0173799
720.072	0.0174725
720.150	0.0172904
720.228	0.0173369
720.306	0.0174245
720.384	0.0174591
720.462	0.0175285
720.540	0.0174680
720.619	0.0174052
720.697	0.0173164
720.775	0.0174104
720.853	0.0174541
720.931	0.0172775
721.009	0.0173346
721.087	0.0172847
721.165	0.0172876
721.244	0.0172613
721.322	0.0171532
721.400	0.0170280
721.478	0.0170861
721.556	0.0170598
721.634	0.0170434
721.712	0.0170096
721.790	0.0170040
721.869	0.0169209
721.947	0.0169642
722.025	0.0168502
722.103	0.0168667
722.181	0.0169184
722.259	0.0170528
722.337	0.0169447
722.415	0.0168715
722.494	0.0169149
722.572	0.0168949
722.650	0.0167609
722.728	0.0169283
722.806	0.0167290
722.884	0.0166882
722.962	0.0168400
723.040	0.0168066
723.119	0.0167782
723.197	0.0166381
723.275	0.0167889
723.353	0.0166760
723.431	0.0165925
723.509	0.0165710
723.587	0.0165684
723.665	0.0165614
723.744	0.0165041
723.822	0.0165297
723.900	0.0164373
723.978	0.0164940
724.056	0.0165701
724.134	0.0165603
724.212	0.0164041
724.290	0.0164479
724.369	0.0164609
724.447	0.0163988
724.525	0.0162900
724.603	0.0164569
724.681	0.0164072
724.759	0.0163305
724.837	0.0163525
724.915	0.0162473
724.994	0.0161774
725.072	0.0163095
725.150	0.0164924
725.228	0.0163245
725.306	0.0163163
725.384	0.0163746
725.462	0.0164127
725.540	0.0164734
725.619	0.0165102
725.697	0.0165508
725.775	0.0165780
725.853	0.0165315
725.931	0.0165057
726.009	0.0165923
726.087	0.0166869
726.165	0.0166388
726.244	0.0166196
726.322	0.0167377
726.400	0.0167373
726.478	0.0168320
726.556	0.0167381
726.634	0.0167288
726.712	0.0169080
726.790	0.0168890
726.869	0.0167702
726.947	0.0169469
727.025	0.0169691
727.103	0.0170170
727.181	0.0170758
727.259	0.0170406
727.337	0.0170358
727.415	0.0169873
727.494	0.0171229
727.572	0.0170096
727.650	0.0169975
727.728	0.0169678
727.806	0.0169569
727.884	0.0169969
727.962	0.0171078
728.040	0.0169629
728.119	0.0169656
728.197	0.0169576
728.275	0.0169818
728.353	0.0169218
728.431	0.0169592
728.509	0.0170237
728.587	0.0168390
728.665	0.0169145
728.744	0.0170657
728.822	0.0167800
728.900	0.0168350
728.978	0.0166180
729.056	0.0167570
729.134	0.0167342
729.212	0.0167960
729.290	0.0167449
729.369	0.0166580
729.447	0.0166617
729.525	0.0168323
729.603	0.0167097
729.681	0.0167851
729.759	0.0168682
729.837	0.0167680
729.915	0.0168522
729.994	0.0168445
730.072	0.0168278
730.150	0.0168381
730.228	0.0168463
730.306	0.0168707
730.384	0.0168741
730.462	0.0168509
730.540	0.0168007
730.619	0.0168291
730.697	0.0168291
730.775	0.0167159
730.853	0.0166203
730.931	0.0166643
731.009	0.0166891
731.087	0.0165701
731.165	0.0166232
731.244	0.0165642
731.322	0.0165866
731.400	0.0166431
731.478	0.0166199
731.556	0.0166793
731.634	0.0165765
731.712	0.0165574
731.790	0.0164661
731.869	0.0165240
731.947	0.0165642
732.025	0.0166508
732.103	0.0164970
732.181	0.0165372
732.259	0.0164458
732.337	0.0165682
732.415	0.0164970
732.494	0.0165529
732.572	0.0166404
732.650	0.0165955
732.728	0.0166865
732.806	0.0165437
732.884	0.0164995
732.962	0.0166601
733.040	0.0166586
733.119	0.0167043
733.197	0.0165122
733.275	0.0164978
733.353	0.0167262
733.431	0.0167244
733.509	0.0167334
733.587	0.0166333
733.665	0.0167565
733.744	0.0167270
733.822	0.0166763
733.900	0.0166802
733.978	0.0167541
734.056	0.0168362
734.134	0.0167850
734.212	0.0167640
734.290	0.0169312
734.369	0.0169812
734.447	0.0168639
734.525	0.0169595
734.603	0.0171510
734.681	0.0170145
734.759	0.0171281
734.837	0.0171213
734.915	0.0172118
734.994	0.0172017
735.072	0.0171517
735.150	0.0174265
735.228	0.0174004
735.306	0.0174037
735.384	0.0173260
735.462	0.0173529
735.540	0.0171935
735.619	0.0172356
735.697	0.0173605
735.775	0.0173400
735.853	0.0174556
735.931	0.0172990
736.009	0.0172871
736.087	0.0173372
736.165	0.0172792
736.244	0.0173037
736.322	0.0174210
736.400	0.0173186
736.478	0.0172675
736.556	0.0172694
736.634	0.0172739
736.712	0.0174016
736.790	0.0173255
736.869	0.0173448
736.947	0.0173367
737.025	0.0172479
737.103	0.0172883
737.181	0.0173147
737.259	0.0173209
737.337	0.0172906
737.415	0.0170963
737.494	0.0171551
737.572	0.0171991
737.650	0.0173041
737.728	0.0171359
737.806	0.0169936
737.884	0.0169961
737.962	0.0170364
738.040	0.0168408
738.119	0.0168566
738.197	0.0168006
738.275	0.0168952
738.353	0.0169150
738.431	0.0169427
738.509	0.0167935
738.587	0.0169774
738.665	0.0169283
738.744	0.0168509
738.822	0.0169881
738.900	0.0168866
738.978	0.0167912
739.056	0.0167546
739.134	0.0168011
739.212	0.0168950
739.290	0.0167213
739.369	0.0167168
739.447	0.0165481
739.525	0.0165744
739.603	0.0166109
739.681	0.0164874
739.759	0.0164758
739.837	0.0164537
739.915	0.0163941
739.994	0.0164425
740.072	0.0163200
740.150	0.0163940
740.228	0.0164390
740.306	0.0163988
740.384	0.0164808
740.462	0.0164152
740.540	0.0164392
740.619	0.0163481
740.697	0.0164209
740.775	0.0165990
740.853	0.0164686
740.931	0.0165843
741.009	0.0166082
741.087	0.0165263
741.165	0.0165215
741.244	0.0166805
741.322	0.0165727
741.400	0.0165549
741.478	0.0165418
741.556	0.0165244
741.634	0.0165300
741.712	0.0165716
741.790	0.0166243
741.869	0.0165070
741.947	0.0165234
742.025	0.0166348
742.103	0.0166933
742.181	0.0167426
742.259	0.0168854
742.337	0.0167006
742.415	0.0166242
742.494	0.0169693
742.572	0.0167902
742.650	0.0168153
742.728	0.0170275
742.806	0.0168425
742.884	0.0168698
742.962	0.0168955
743.040	0.0169843
743.119	0.0169190
743.197	0.0170670
743.275	0.0170407
743.353	0.0170078
743.431	0.0170330
743.509	0.0170441
743.587	0.0171049
743.665	0.0170005
743.744	0.0169533
743.822	0.0170337
743.900	0.0171156
743.978	0.0170972
744.056	0.0169151
744.134	0.0170920
744.212	0.0170331
744.290	0.0170549
744.369	0.0168992
744.447	0.0170628
744.525	0.0170344
744.603	0.0169033
744.681	0.0169470
744.759	0.0169651
744.837	0.0169318
744.915	0.0168388
744.994	0.0168792
745.072	0.0167365
745.150	0.0168068
745.228	0.0168471
745.306	0.0168222
745.384	0.0168013
745.462	0.0166640
745.540	0.0167274
745.619	0.0168413
745.697	0.0166576
745.775	0.0168092
745.853	0.0167667
745.931	0.0166507
746.009	0.0166202
746.087	0.0167943
746.165	0.0167002
746.244	0.0166070
746.322	0.0166817
746.400	0.0165831
746.478	0.0166502
746.556	0.0166177
746.634	0.0166763
746.712	0.0165870
746.790	0.0165830
746.869	0.0165310
746.947	0.0164997
747.025	0.0165072
747.103	0.0164135
747.181	0.0164629
747.259	0.0165150
747.337	0.0165606
747.415	0.0165969
747.494	0.0166480
747.572	0.0166760
747.650	0.0166169
747.728	0.0167857
747.806	0.0167019
747.884	0.0167227
747.962	0.0168600
748.040	0.0168057
748.119	0.0167020
748.197	0.0168493
748.275	0.0167668
748.353	0.0168537
748.431	0.0167894
748.509	0.0168667
748.587	0.0168652
748.665	0.0168328
748.744	0.0167310
748.822	0.0167400
748.900	0.0166766
748.978	0.0165765
749.056	0.0167264
749.134	0.0166415
749.212	0.0165961
749.290	0.0166812
749.369	0.0166380
749.447	0.0166747
749.525	0.0166579
749.603	0.0165156
749.681	0.0164875
749.759	0.0166541
749.837	0.0164252
749.915	0.0164352
749.994	0.0165054
750.072	0.0165334
750.150	0.0164693
750.228	0.0165128
750.306	0.0165746
750.384	0.0166106
750.462	0.0162910
750.540	0.0164750
750.619	0.0164832
750.697	0.0163960
750.775	0.0163902
750.853	0.0164262
750.931	0.0164937
751.009	0.0164402
751.087	0.0163517
751.165	0.0164584
751.244	0.0164071
751.322	0.0163222
751.400	0.0165268
751.478	0.0163331
751.556	0.0167236
751.634	0.0166053
751.712	0.0165462
751.790	0.0166178
751.869	0.0166777
751.947	0.0164753
752.025	0.0166133
752.103	0.0167172
752.181	0.0167023
752.259	0.0167046
752.337	0.0166460
752.415	0.0167147
752.494	0.0168182
752.572	0.0168039
752.650	0.0167860
752.728	0.0168858
752.806	0.0168935
752.884	0.0168979
752.962	0.0168602
753.040	0.0168837
753.119	0.0169006
753.197	0.0168196
753.275	0.0168098
753.353	0.0170572
753.431	0.0169360
753.509	0.0167426
753.587	0.0167383
753.665	0.0167566
753.744	0.0167831
753.822	0.0166722
753.900	0.0168280
753.978	0.0168770
754.056	0.0168266
754.134	0.0167837
754.212	0.0169008
754.290	0.0167747
754.369	0.0167786
754.447	0.0166968
754.525	0.0167954
754.603	0.0168877
754.681	0.0167902
754.759	0.0168731
754.837	0.0170641
754.915	0.0168786
754.994	0.0169895
755.072	0.0170815
755.150	0.0170712
755.228	0.0170019
755.306	0.0172027
755.384	0.0170995
755.462	0.0171386
755.540	0.0170869
755.619	0.0170677
755.697	0.0172166
755.775	0.0171683
755.853	0.0171882
755.931	0.0173244
756.009	0.0173269
756.087	0.0173693
756.165	0.0171954
756.244	0.0172620
756.322	0.0172346
756.400	0.0171812
756.478	0.0171393
756.556	0.0171774
756.634	0.0169130
756.712	0.0169150
756.790	0.0169056
756.869	0.0167983
756.947	0.0168016
757.025	0.0167260
757.103	0.0167052
757.181	0.0165937
757.259	0.0167341
757.337	0.0168256
757.415	0.0167512
757.494	0.0167517
757.572	0.0169267
757.650	0.0169137
757.728	0.0169077
757.806	0.0172152
757.884	0.0172118
757.962	0.0170300
758.040	0.0170477
758.119	0.0171731
758.197	0.0171380
758.275	0.0172133
758.353	0.0172516
758.431	0.0172881
758.509	0.0171394
758.587	0.0170908
758.665	0.0170499
758.744	0.0171427
758.822	0.0170528
758.900	0.0170707
758.978	0.0169612
759.056	0.0170106
759.134	0.0170150
759.212	0.0169417
759.290	0.0169239
759.369	0.0170083
759.447	0.0168998
759.525	0.0169234
759.603	0.0169334
759.681	0.0168694
759.759	0.0168488
759.837	0.0168878
759.915	0.0170214
759.994	0.0169417
760.072	0.0169693
760.150	0.0170014
760.228	0.0168887
760.306	0.0169760
760.384	0.0170277
760.462	0.0168011
760.540	0.0168847
760.619	0.0168967
760.697	0.0169276
760.775	0.0167783
760.853	0.0168015
760.931	0.0168997
761.009	0.0168897
761.087	0.0170099
761.165	0.0168983
761.244	0.0169172
761.322	0.0167877
761.400	0.0167551
761.478	0.0167501
761.556	0.0169075
761.634	0.0167641
761.712	0.0167543
761.790	0.0167429
761.869	0.0168443
761.947	0.0167841
762.025	0.0167241
762.103	0.0167940
762.181	0.0168781
762.259	0.0167821
762.337	0.0167218
762.415	0.0167896
762.494	0.0168676
762.572	0.0168938
762.650	0.0168147
762.728	0.0168224
762.806	0.0168586
762.884	0.0168456
762.962	0.0167664
763.040	0.0168015
763.119	0.0169086
763.197	0.0167679
763.275	0.0167707
763.353	0.0167230
763.431	0.0167300
763.509	0.0166515
763.587	0.0167063
763.665	0.0166131
763.744	0.0166521
763.822	0.0166961
763.900	0.0166312
763.978	0.0166415
764.056	0.0165633
764.134	0.0167231
764.212	0.0167436
764.290	0.0167120
764.369	0.0168034
764.447	0.0166943
764.525	0.0168604
764.603	0.0167267
764.681	0.0169376
764.759	0.0168016
764.837	0.0167458
764.915	0.0169131
764.994	0.0169028
765.072	0.0168586
765.150	0.0169949
765.228	0.0167552
765.306	0.0168732
765.384	0.0169273
765.462	0.0169057
765.540	0.0168718
765.619	0.0170602
765.697	0.0167620
765.775	0.0168217
765.853	0.0168941
765.931	0.0169060
766.009	0.0168697
766.087	0.0169964
766.165	0.0169474
766.244	0.0169763
766.322	0.0167876
766.400	0.0169042
766.478	0.0169589
766.556	0.0168655
766.634	0.0166824
766.712	0.0166944
766.790	0.0168141
766.869	0.0167258
766.947	0.0166651
767.025	0.0166196
767.103	0.0165621
767.181	0.0166190
767.259	0.0166157
767.337	0.0166156
767.415	0.0166486
767.494	0.0166646
767.572	0.0164315
767.650	0.0164379
767.728	0.0165177
767.806	0.0165031
767.884	0.0164214
767.962	0.0164279
768.040	0.0164878
768.119	0.0165694
768.197	0.0163377
768.275	0.0166167
768.353	0.0166262
768.431	0.0166118
768.509	0.0165017
768.587	0.0165944
768.665	0.0165212
768.744	0.0164773
768.822	0.0164784
768.900	0.0166592
768.978	0.0164970
769.056	0.0165321
769.134	0.0164851
769.212	0.0166063
769.290	0.0166055
769.369	0.0165816
769.447	0.0166224
769.525	0.0166427
769.603	0.0166340
769.681	0.0166217
769.759	0.0167514
769.837	0.0168363
769.915	0.0167284
769.994	0.0167046
770.072	0.0167091
770.150	0.0168734
770.228	0.0168398
770.306	0.0166373
770.384	0.0166351
770.462	0.0167317
770.540	0.0168113
770.619	0.0168224
770.697	0.0166708
770.775	0.0168792
770.853	0.0168238
770.931	0.0167963
771.009	0.0167852
771.087	0.0167993
771.165	0.0168116
771.244	0.0169473
771.322	0.0170351
771.400	0.0168334
771.478	0.0169599
771.556	0.0170316
771.634	0.0171767
771.712	0.0169816
771.790	0.0171451
771.869	0.0172525
771.947	0.0171121
772.025	0.0170045
772.103	0.0170664
772.181	0.0172297
772.259	0.0171158
772.337	0.0169974
772.415	0.0168987
772.494	0.0169674
772.572	0.0169322
772.650	0.0168699
772.728	0.0167952
772.806	0.0168075
772.884	0.0168675
772.962	0.0166238
773.040	0.0166394
773.119	0.0167835
773.197	0.0167976
773.275	0.0168132
773.353	0.0166981
773.431	0.0168957
773.509	0.0167230
773.587	0.0167616
773.665	0.0168273
773.744	0.0167912
773.822	0.0167447
773.900	0.0168523
773.978	0.0167768
774.056	0.0168820
774.134	0.0169801
774.212	0.0170171
774.290	0.0169038
774.369	0.0169353
774.447	0.0168742
774.525	0.0168478
774.603	0.0169112
774.681	0.0169878
774.759	0.0168661
774.837	0.0168450
774.915	0.0168905
774.994	0.0170358
775.072	0.0169547
775.150	0.0169385
775.228	0.0168513
775.306	0.0170946
775.384	0.0169408
775.462	0.0170007
775.540	0.0171632
775.619	0.0170076
775.697	0.0168958
775.775	0.0169344
775.853	0.0170351
775.931	0.0169343
776.009	0.0169592
776.087	0.0168865
776.165	0.0167420
776.244	0.0168479
776.322	0.0167843
776.400	0.0168747
776.478	0.0169166
776.556	0.0169208
776.634	0.0168295
776.712	0.0169694
776.790	0.0170190
776.869	0.0169550
776.947	0.0169511
777.025	0.0170517
777.103	0.0170257
777.181	0.0170633
777.259	0.0170870
777.337	0.0170542
777.415	0.0171812
777.494	0.0172435
777.572	0.0170793
777.650	0.0172124
777.728	0.0171904
777.806	0.0171619
777.884	0.0172095
777.962	0.0172279
778.040	0.0171635
778.119	0.0171329
778.197	0.0170624
778.275	0.0170985
778.353	0.0170899
778.431	0.0171841
778.509	0.0170505
778.587	0.0170155
778.665	0.0169584
778.744	0.0168957
778.822	0.0168789
778.900	0.0169913
778.978	0.0168361
779.056	0.0169978
779.134	0.0168802
779.212	0.0169109
779.290	0.0168798
779.369	0.0168900
779.447	0.0168005
779.525	0.0166893
779.603	0.0166106
779.681	0.0169083
779.759	0.0167607
779.837	0.0167220
779.915	0.0165995
779.994	0.0167103
780.072	0.0166100
780.150	0.0166776
780.228	0.0166600
780.306	0.0166952
780.384	0.0167202
780.462	0.0167451
780.540	0.0166682
780.619	0.0167181
780.697	0.0167552
780.775	0.0169034
780.853	0.0168473
780.931	0.0167641
781.009	0.0168266
781.087	0.0167728
781.165	0.0169113
781.244	0.0168637
781.322	0.0169684
781.400	0.0170235
781.478	0.0168268
781.556	0.0171113
781.634	0.0170773
781.712	0.0170722
781.790	0.0170937
781.869	0.0170869
781.947	0.0168936
782.025	0.0169946
782.103	0.0168797
782.181	0.0169825
782.259	0.0169189
782.337	0.0170306
782.415	0.0169827
782.494	0.0169292
782.572	0.0168468
782.650	0.0166174
782.728	0.0167329
782.806	0.0167702
782.884	0.0167509
782.962	0.0167808
783.040	0.0167704
783.119	0.0166111
783.197	0.0166560
783.275	0.0166026
783.353	0.0165922
783.431	0.0165913
783.509	0.0165677
783.587	0.0166410
783.665	0.0168663
783.744	0.0165498
783.822	0.0166359
783.900	0.0164427
783.978	0.0165697
784.056	0.0166560
784.134	0.0165543
784.212	0.0165024
784.290	0.0165059
784.369	0.0166364
784.447	0.0165266
784.525	0.0164692
784.603	0.0163456
784.681	0.0164050
784.759	0.0163928
784.837	0.0164582
784.915	0.0163980
784.994	0.0163448
785.072	0.0165626
785.150	0.0163944
785.228	0.0163794
785.306	0.0164210
785.384	0.0165556
785.462	0.0164585
785.540	0.0165258
785.619	0.0164981
785.697	0.0166320
785.775	0.0166239
785.853	0.0166784
785.931	0.0165901
786.009	0.0167621
786.087	0.0167034
786.165	0.0168980
786.244	0.0168399
786.322	0.0169554
786.400	0.0170362
786.478	0.0171286
786.556	0.0170580
786.634	0.0172382
786.712	0.0172753
786.790	0.0174300
786.869	0.0174702
786.947	0.0175024
787.025	0.0174582
787.103	0.0175237
787.181	0.0175011
787.259	0.0174901
787.337	0.0174174
787.415	0.0176151
787.494	0.0174902
787.572	0.0174355
787.650	0.0173654
787.728	0.0174008
787.806	0.0173198
787.884	0.0174762
787.962	0.0172712
788.040	0.0172840
788.119	0.0173603
788.197	0.0173926
788.275	0.0173777
788.353	0.0173264
788.431	0.0173159
788.509	0.0173222
788.587	0.0173671
788.665	0.0174278
788.744	0.0172079
788.822	0.0172190
788.900	0.0172171
788.978	0.0174139
789.056	0.0171845
789.134	0.0172451
789.212	0.0173067
789.290	0.0170367
789.369	0.0172125
789.447	0.0171712
789.525	0.0172391
789.603	0.0172933
789.681	0.0171867
789.759	0.0172008
789.837	0.0171240
789.915	0.0171239
789.994	0.0171266
790.072	0.0171071
790.150	0.0171039
790.228	0.0172761
790.306	0.0171444
790.384	0.0171066
790.462	0.0172106
790.540	0.0172561
790.619	0.0172285
790.697	0.0172959
790.775	0.0172733
790.853	0.0171729
790.931	0.0173297
791.009	0.0171426
791.087	0.0172406
791.165	0.0173326
791.244	0.0172752
791.322	0.0170840
791.400	0.0169564
791.478	0.0172362
791.556	0.0171114
791.634	0.0170434
791.712	0.0169930
791.790	0.0170308
791.869	0.0170149
791.947	0.0169852
792.025	0.0169136
792.103	0.0167330
792.181	0.0169104
792.259	0.0167923
792.337	0.0167146
792.415	0.0167027
792.494	0.0167860
792.572	0.0166628
792.650	0.0166337
792.728	0.0166739
792.806	0.0164642
792.884	0.0162504
792.962	0.0164580
793.040	0.0163758
793.119	0.0164915
793.197	0.0163500
793.275	0.0163605
793.353	0.0163868
793.431	0.0162488
793.509	0.0162990
793.587	0.0161967
793.665	0.0162454
793.744	0.0162271
793.822	0.0161307
793.900	0.0162531
793.978	0.0162558
794.056	0.0162117
794.134	0.0161968
794.212	0.0161791
794.290	0.0161500
794.369	0.0160176
794.447	0.0162917
794.525	0.0163875
794.603	0.0161907
794.681	0.0162875
794.759	0.0162160
794.837	0.0163271
794.915	0.0163824
794.994	0.0164724
795.072	0.0164943
795.150	0.0163715
795.228	0.0165393
795.306	0.0165214
795.384	0.0166651
795.462	0.0166149
795.540	0.0166535
795.619	0.0166451
795.697	0.0167049
795.775	0.0167139
795.853	0.0167262
795.931	0.0167318
796.009	0.0168868
796.087	0.0167720
796.165	0.0168899
796.244	0.0169672
796.322	0.0169377
796.400	0.0170306
796.478	0.0169983
796.556	0.0170587
796.634	0.0170206
796.712	0.0170396
796.790	0.0170119
796.869	0.0171489
796.947	0.0171120
797.025	0.0170747
797.103	0.0172576
797.181	0.0171861
797.259	0.0171142
797.337	0.0170556
797.415	0.0173754
797.494	0.0173041
797.572	0.0173132
797.650	0.0172578
797.728	0.0173267
797.806	0.0173702
797.884	0.0173077
797.962	0.0172406
798.040	0.0171963
798.119	0.0172319
798.197	0.0171531
798.275	0.0171567
798.353	0.0172121
798.431	0.0170925
798.509	0.0170816
798.587	0.0170034
798.665	0.0170012
798.744	0.0170339
798.822	0.0169376
798.900	0.0170285
798.978	0.0169764
799.056	0.0169267
799.134	0.0170841
799.212	0.0168804
799.290	0.0168574
799.369	0.0168502
799.447	0.0169125
799.525	0.0168334
799.603	0.0168111
799.681	0.0168354
799.759	0.0168254
799.837	0.0168871
799.915	0.0167913
799.994	0.0168639
800.072	0.0168994
800.150	0.0169395
800.228	0.0168519
800.306	0.0168537
800.384	0.0169974
800.462	0.0167471
800.540	0.0169299
800.619	0.0170613
800.697	0.0168646
800.775	0.0169562
800.853	0.0170345
800.931	0.0169387
801.009	0.0169803
801.087	0.0169547
801.165	0.0170203
801.244	0.0169810
801.322	0.0169910
801.400	0.0171712
801.478	0.0170685
801.556	0.0171232
801.634	0.0171176
801.712	0.0171880
801.790	0.0172581
801.869	0.0172085
801.947	0.0171272
802.025	0.0171459
802.103	0.0171145
802.181	0.0172942
802.259	0.0171340
802.337	0.0171088
802.415	0.0172514
802.494	0.0172570
802.572	0.0171885
802.650	0.0170015
802.728	0.0170781
802.806	0.0169238
802.884	0.0169960
802.962	0.0170254
803.040	0.0168596
803.119	0.0170631
803.197	0.0170075
803.275	0.0169815
803.353	0.0169997
803.431	0.0168839
803.509	0.0170012
803.587	0.0170417
803.665	0.0168845
803.744	0.0169128
803.822	0.0167972
803.900	0.0169104
803.978	0.0169061
804.056	0.0168098
804.134	0.0168243
804.212	0.0168911
804.290	0.0168365
804.369	0.0171014
804.447	0.0170127
804.525	0.0169424
804.603	0.0170128
804.681	0.0168612
804.759	0.0168227
804.837	0.0170650
804.915	0.0169326
804.994	0.0168789
805.072	0.0169952
805.150	0.0169446
805.228	0.0169044
805.306	0.0169806
805.384	0.0169062
805.462	0.0168726
805.540	0.0170808
805.619	0.0171839
805.697	0.0171768
805.775	0.0170211
805.853	0.0170565
805.931	0.0172430
806.009	0.0172179
806.087	0.0172513
806.165	0.0172868
806.244	0.0172646
806.322	0.0173784
806.400	0.0173192
806.478	0.0173865
806.556	0.0174436
806.634	0.0173548
806.712	0.0173833
806.790	0.0173536
806.869	0.0173772
806.947	0.0173067
807.025	0.0173467
807.103	0.0172566
807.181	0.0172969
807.259	0.0171839
807.337	0.0172809
807.415	0.0171524
807.494	0.0168821
807.572	0.0169892
807.650	0.0171810
807.728	0.0169431
807.806	0.0170068
807.884	0.0170167
807.962	0.0168544
808.040	0.0167195
808.119	0.0168931
808.197	0.0168945
808.275	0.0168481
808.353	0.0168043
808.431	0.0167774
808.509	0.0167651
808.587	0.0167963
808.665	0.0167133
808.744	0.0166148
808.822	0.0167368
808.900	0.0167320
808.978	0.0166084
809.056	0.0166199
809.134	0.0166426
809.212	0.0166325
809.290	0.0166534
809.369	0.0167831
809.447	0.0167766
809.525	0.0167769
809.603	0.0167728
809.681	0.0170114
809.759	0.0170621
809.837	0.0169980
809.915	0.0171889
809.994	0.0171996
810.072	0.0171323
810.150	0.0171163
810.228	0.0171399
810.306	0.0171307
810.384	0.0171256
810.462	0.0171500
810.540	0.0171908
810.619	0.0171341
810.697	0.0171442
810.775	0.0172243
810.853	0.0171793
810.931	0.0171802
811.009	0.0170934
811.087	0.0170873
811.165	0.0169999
811.244	0.0170024
811.322	0.0170488
811.400	0.0170280
811.478	0.0169110
811.556	0.0169152
811.634	0.0169389
811.712	0.0169587
811.790	0.0168335
811.869	0.0168636
811.947	0.0168767
812.025	0.0167146
812.103	0.0164562
812.181	0.0165816
812.259	0.0166099
812.337	0.0164837
812.415	0.0163004
812.494	0.0164625
812.572	0.0163814
812.650	0.0163148
812.728	0.0162505
812.806	0.0163436
812.884	0.0161642
812.962	0.0163359
813.040	0.0162605
813.119	0.0161482
813.197	0.0163580
813.275	0.0162642
813.353	0.0161776
813.431	0.0160902
813.509	0.0159847
813.587	0.0160652
813.665	0.0161017
813.744	0.0161002
813.822	0.0161239
813.900	0.0161706
813.978	0.0161279
814.056	0.0161694
814.134	0.0162621
814.212	0.0163389
814.290	0.0161137
814.369	0.0161764
814.447	0.0163467
814.525	0.0163706
814.603	0.0161652
814.681	0.0162383
814.759	0.0162683
814.837	0.0163615
814.915	0.0164497
814.994	0.0164330
815.072	0.0164086
815.150	0.0163463
815.228	0.0165364
815.306	0.0165664
815.384	0.0165639
815.462	0.0165405
815.540	0.0165747
815.619	0.0166144
815.697	0.0167714
815.775	0.0166398
815.853	0.0168920
815.931	0.0169186
816.009	0.0168738
816.087	0.0168596
816.165	0.0170008
816.244	0.0168677
816.322	0.0169252
816.400	0.0170598
816.478	0.0169430
816.556	0.0170316
816.634	0.0169212
816.712	0.0170033
816.790	0.0170950
816.869	0.0170451
816.947	0.0170720
817.025	0.0171693
817.103	0.0170888
817.181	0.0171620
817.259	0.0171865
817.337	0.0170171
817.415	0.0170766
817.494	0.0172018
817.572	0.0170953
817.650	0.0170937
817.728	0.0171878
817.806	0.0171537
817.884	0.0172742
817.962	0.0172478
818.040	0.0173084
818.119	0.0172011
818.197	0.0173930
818.275	0.0172146
818.353	0.0171929
818.431	0.0172060
818.509	0.0171986
818.587	0.0172800
818.665	0.0171197
818.744	0.0171759
818.822	0.0171478
818.900	0.0171125
818.978	0.0171888
819.056	0.0171395
819.134	0.0171461
819.212	0.0171417
819.290	0.0169239
819.369	0.0169359
819.447	0.0167765
819.525	0.0168970
819.603	0.0168195
819.681	0.0169892
819.759	0.0167957
819.837	0.0167995
819.915	0.0168204
819.994	0.0170897
820.072	0.0168004
820.150	0.0169056
820.228	0.0168904
820.306	0.0170170
820.384	0.0168948
820.462	0.0168633
820.540	0.0168449
820.619	0.0169336
820.697	0.0170613
820.775	0.0169966
820.853	0.0169304
820.931	0.0170755
821.009	0.0168535
821.087	0.0168359
821.165	0.0168999
821.244	0.0170627
821.322	0.0169202
821.400	0.0170138
821.478	0.0167471
821.556	0.0166341
821.634	0.0167612
821.712	0.0169025
821.790	0.0168265
821.869	0.0167219
821.947	0.0168455
822.025	0.0164990
822.103	0.0164858
822.181	0.0166057
822.259	0.0164649
822.337	0.0165912
822.415	0.0163706
822.494	0.0163651
822.572	0.0164803
822.650	0.0163912
822.728	0.0164871
822.806	0.0163373
822.884	0.0164191
822.962	0.0163299
823.040	0.0164265
823.119	0.0163969
823.197	0.0163180
823.275	0.0164630
823.353	0.0163753
823.431	0.0164795
823.509	0.0163640
823.587	0.0163454
823.665	0.0162457
823.744	0.0163354
823.822	0.0162176
823.900	0.0162080
823.978	0.0164018
824.056	0.0164356
824.134	0.0162589
824.212	0.0162971
824.290	0.0163145
824.369	0.0162640
824.447	0.0162051
824.525	0.0162310
824.603	0.0164125
824.681	0.0164646
824.759	0.0163636
824.837	0.0163615
824.915	0.0165165
824.994	0.0164600
825.072	0.0165959
825.150	0.0165276
825.228	0.0165707
825.306	0.0165755
825.384	0.0166762
825.462	0.0167593
825.540	0.0166428
825.619	0.0165883
825.697	0.0166370
825.775	0.0166438
825.853	0.0167208
825.931	0.0167148
826.009	0.0167519
826.087	0.0165312
826.165	0.0166177
826.244	0.0166290
826.322	0.0166095
826.400	0.0167204
826.478	0.0166746
826.556	0.0165887
826.634	0.0165799
826.712	0.0164783
826.790	0.0164707
826.869	0.0165236
826.947	0.0164729
827.025	0.0164739
827.103	0.0166210
827.181	0.0165923
827.259	0.0165432
827.337	0.0166432
827.415	0.0167650
827.494	0.0166835
827.572	0.0167207
827.650	0.0166664
827.728	0.0167570
827.806	0.0168564
827.884	0.0165558
827.962	0.0167563
828.040	0.0168198
828.119	0.0166620
828.197	0.0168327
828.275	0.0168092
828.353	0.0167651
828.431	0.0169197
828.509	0.0168199
828.587	0.0167936
828.665	0.0168922
828.744	0.0169396
828.822	0.0168537
828.900	0.0168122
828.978	0.0168539
829.056	0.0167928
829.134	0.0167451
829.212	0.0169830
829.290	0.0167056
829.369	0.0167104
829.447	0.0168845
829.525	0.0168484
829.603	0.0167952
829.681	0.0168710
829.759	0.0169807
829.837	0.0169140
829.915	0.0169650
829.994	0.0169707
830.072	0.0169558
830.150	0.0170122
830.228	0.0170683
830.306	0.0170569
830.384	0.0170789
830.462	0.0170486
830.540	0.0170714
830.619	0.0170889
830.697	0.0170473
830.775	0.0168542
830.853	0.0169389
830.931	0.0167818
831.009	0.0167668
831.087	0.0167019
831.165	0.0167864
831.244	0.0167531
831.322	0.0167279
831.400	0.0168007
831.478	0.0166273
831.556	0.0166696
831.634	0.0166730
831.712	0.0166296
831.790	0.0165200
831.869	0.0166290
831.947	0.0165723
832.025	0.0166593
832.103	0.0166429
832.181	0.0165392
832.259	0.0166564
832.337	0.0165948
832.415	0.0166093
832.494	0.0164129
832.572	0.0165214
832.650	0.0166475
832.728	0.0166389
832.806	0.0166749
832.884	0.0165862
832.962	0.0166207
833.040	0.0166660
833.119	0.0167260
833.197	0.0167124
833.275	0.0168261
833.353	0.0169982
833.431	0.0168806
833.509	0.0169125
833.587	0.0169918
833.665	0.0169847
833.744	0.0168862
833.822	0.0169508
833.900	0.0169116
833.978	0.0167773
834.056	0.0167309
834.134	0.0168617
834.212	0.0168723
834.290	0.0165760
834.369	0.0166573
834.447	0.0164636
834.525	0.0166160
834.603	0.0166167
834.681	0.0165005
834.759	0.0164458
834.837	0.0165392
834.915	0.0165585
834.994	0.0164265
835.072	0.0164478
835.150	0.0164164
835.228	0.0165330
835.306	0.0165710
835.384	0.0165821
835.462	0.0165587
835.540	0.0165061
835.619	0.0164598
835.697	0.0165430
835.775	0.0165404
835.853	0.0164774
835.931	0.0164437
836.009	0.0163680
836.087	0.0163700
836.165	0.0164445
836.244	0.0165414
836.322	0.0165649
836.400	0.0166174
836.478	0.0165636
836.556	0.0166625
836.634	0.0165512
836.712	0.0167365
836.790	0.0166714
836.869	0.0165720
836.947	0.0166028
837.025	0.0166142
837.103	0.0164221
837.181	0.0164343
837.259	0.0165556
837.337	0.0163606
837.415	0.0162130
837.494	0.0163603
837.572	0.0163043
837.650	0.0162607
837.728	0.0162122
837.806	0.0162489
837.884	0.0162640
837.962	0.0163242
838.040	0.0163570
838.119	0.0161599
838.197	0.0163378
838.275	0.0163881
838.353	0.0164149
838.431	0.0163525
838.509	0.0163929
838.587	0.0165102
838.665	0.0165014
838.744	0.0165573
838.822	0.0167514
838.900	0.0166051
838.978	0.0167458
839.056	0.0167134
839.134	0.0168573
839.212	0.0167635
839.290	0.0168959
839.369	0.0169344
839.447	0.0169933
839.525	0.0168802
839.603	0.0168918
839.681	0.0169489
839.759	0.0170101
839.837	0.0168913
839.915	0.0169106
839.994	0.0169685
840.072	0.0170322
840.150	0.0170877
840.228	0.0170632
840.306	0.0170779
840.384	0.0169879
840.462	0.0168761
840.540	0.0169034
840.619	0.0168245
840.697	0.0168174
840.775	0.0168166
840.853	0.0167167
840.931	0.0166919
841.009	0.0167975
841.087	0.0167675
841.165	0.0167684
841.244	0.0166954
841.322	0.0165604
841.400	0.0165809
841.478	0.0165588
841.556	0.0164720
841.634	0.0165759
841.712	0.0165816
841.790	0.0164480
841.869	0.0164880
841.947	0.0166065
842.025	0.0165028
842.103	0.0166565
842.181	0.0165166
842.259	0.0165906
842.337	0.0165572
842.415	0.0166679
842.494	0.0166133
842.572	0.0166166
842.650	0.0166534
842.728	0.0165762
842.806	0.0164838
842.884	0.0163878
842.962	0.0163984
843.040	0.0163669
843.119	0.0165192
843.197	0.0163881
843.275	0.0164414
843.353	0.0163111
843.431	0.0162969
843.509	0.0163840
843.587	0.0163656
843.665	0.0164798
843.744	0.0164232
843.822	0.0164131
843.900	0.0164585
843.978	0.0165313
844.056	0.0163226
844.134	0.0165829
844.212	0.0164319
844.290	0.0165247
844.369	0.0165556
844.447	0.0166315
844.525	0.0166483
844.603	0.0166879
844.681	0.0168672
844.759	0.0167793
844.837	0.0167996
844.915	0.0168376
844.994	0.0168864
845.072	0.0167542
845.150	0.0168451
845.228	0.0167192
845.306	0.0167117
845.384	0.0170007
845.462	0.0168350
845.540	0.0168365
845.619	0.0167472
845.697	0.0168087
845.775	0.0165353
845.853	0.0164689
845.931	0.0166003
846.009	0.0165525
846.087	0.0165079
846.165	0.0165173
846.244	0.0164935
846.322	0.0166747
846.400	0.0166161
846.478	0.0166387
846.556	0.0165316
846.634	0.0166849
846.712	0.0165447
846.790	0.0165701
846.869	0.0165601
846.947	0.0165967
847.025	0.0166924
847.103	0.0166895
847.181	0.0166248
847.259	0.0165439
847.337	0.0165691
847.415	0.0164793
847.494	0.0166214
847.572	0.0166186
847.650	0.0166576
847.728	0.0165219
847.806	0.0165121
847.884	0.0165215
847.962	0.0165377
848.040	0.0165659
848.119	0.0167123
848.197	0.0167033
848.275	0.0166842
848.353	0.0167690
848.431	0.0166698
848.509	0.0167525
848.587	0.0168475
848.665	0.0167979
848.744	0.0167798
848.822	0.0167986
848.900	0.0167433
848.978	0.0169095
849.056	0.0168210
849.134	0.0168297
849.212	0.0168430
849.290	0.0168452
849.369	0.0168923
849.447	0.0169109
849.525	0.0168183
849.603	0.0169053
849.681	0.0167644
849.759	0.0168704
849.837	0.0169637
849.915	0.0169482
849.994	0.0167931
850.072	0.0168425
850.150	0.0166711
850.228	0.0168692
850.306	0.0167670
850.384	0.0166943
850.462	0.0166049
850.540	0.0167426
850.619	0.0167912
850.697	0.0167725
850.775	0.0166006
850.853	0.0167416
850.931	0.0167576
851.009	0.0166261
851.087	0.0167611
851.165	0.0167461
851.244	0.0169083
851.322	0.0168110
851.400	0.0168422
851.478	0.0170090
851.556	0.0169538
851.634	0.0169391
851.712	0.0170596
851.790	0.0169746
851.869	0.0169743
851.947	0.0170577
852.025	0.0169844
852.103	0.0169678
852.181	0.0169928
852.259	0.0171630
852.337	0.0170911
852.415	0.0169842
852.494	0.0170078
852.572	0.0169003
852.650	0.0170718
852.728	0.0168626
852.806	0.0169920
852.884	0.0170510
852.962	0.0168076
853.040	0.0168403
853.119	0.0169386
853.197	0.0168701
853.275	0.0167638
853.353	0.0167439
853.431	0.0167388
853.509	0.0166273
853.587	0.0165797
853.665	0.0163588
853.744	0.0163989
853.822	0.0163782
853.900	0.0165704
853.978	0.0164452
854.056	0.0163917
854.134	0.0165594
854.212	0.0165558
854.290	0.0163612
854.369	0.0165839
854.447	0.0167291
854.525	0.0166009
854.603	0.0167487
854.681	0.0166859
854.759	0.0167655
854.837	0.0168178
854.915	0.0167892
854.994	0.0168188
855.072	0.0168127
855.150	0.0169730
855.228	0.0167208
855.306	0.0169269
855.384	0.0169967
855.462	0.0169189
855.540	0.0169313
855.619	0.0169355
855.697	0.0167981
855.775	0.0170322
855.853	0.0169530
855.931	0.0169468
856.009	0.0169382
856.087	0.0168848
856.165	0.0169181
856.244	0.0169999
856.322	0.0169166
856.400	0.0167936
856.478	0.0168330
856.556	0.0168456
856.634	0.0167516
856.712	0.0169487
856.790	0.0170297
856.869	0.0167834
856.947	0.0167879
857.025	0.0167356
857.103	0.0168372
857.181	0.0168131
857.259	0.0169701
857.337	0.0169328
857.415	0.0169379
857.494	0.0167914
857.572	0.0169124
857.650	0.0170045
857.728	0.0169603
857.806	0.0170537
857.884	0.0169437
857.962	0.0170451
858.040	0.0170004
858.119	0.0170256
858.197	0.0171116
858.275	0.0169695
858.353	0.0169511
858.431	0.0170552
858.509	0.0168530
858.587	0.0169203
858.665	0.0170312
858.744	0.0170454
858.822	0.0169289
858.900	0.0169183
858.978	0.0170244
859.056	0.0168826
859.134	0.0168221
859.212	0.0169000
859.290	0.0168899
859.369	0.0169110
859.447	0.0168241
859.525	0.0167815
859.603	0.0168398
859.681	0.0168100
859.759	0.0168467
859.837	0.0166635
859.915	0.0165689
