06/01/2022	17:15:58	Ver.	4.1	UNKNOWN
Optical Delay	599.975067	Delta X		0.078125	Sweeps	1	Scan Rate	0/0
Coordinates	Axis 1	NaN	Axis 2	NaN	Axis 3	NaN	Axis 4	NaN	Axis 5	NaN	Axis 6	0.000000
TX Power	0.000000	RX Power	0.000000

599.975	0.0162428
600.053	0.0163081
600.131	0.0162323
600.209	0.0162775
600.288	0.0162415
600.366	0.0162489
600.444	0.0163125
600.522	0.0162157
600.600	0.0161902
600.678	0.0162733
600.756	0.0163033
600.834	0.0162773
600.913	0.0163037
600.991	0.0162299
601.069	0.0162231
601.147	0.0162444
601.225	0.0162409
601.303	0.0163091
601.381	0.0162773
601.459	0.0161405
601.538	0.0163435
601.616	0.0161494
601.694	0.0161642
601.772	0.0162878
601.850	0.0161272
601.928	0.0161962
602.006	0.0162914
602.084	0.0161692
602.163	0.0160455
602.241	0.0161959
602.319	0.0161996
602.397	0.0162773
602.475	0.0163201
602.553	0.0162438
602.631	0.0163181
602.709	0.0164378
602.788	0.0162212
602.866	0.0162516
602.944	0.0162837
603.022	0.0162507
603.100	0.0162453
603.178	0.0161690
603.256	0.0161593
603.334	0.0163641
603.413	0.0162053
603.491	0.0163414
603.569	0.0162823
603.647	0.0163139
603.725	0.0162862
603.803	0.0162029
603.881	0.0162138
603.959	0.0161532
604.038	0.0162547
604.116	0.0162960
604.194	0.0161989
604.272	0.0163203
604.350	0.0163418
604.428	0.0161757
604.506	0.0162279
604.584	0.0162054
604.663	0.0163122
604.741	0.0163132
604.819	0.0163523
604.897	0.0162559
604.975	0.0161833
605.053	0.0161876
605.131	0.0161366
605.209	0.0163067
605.288	0.0163126
605.366	0.0163112
605.444	0.0161347
605.522	0.0161397
605.600	0.0162499
605.678	0.0162032
605.756	0.0162674
605.834	0.0163303
605.913	0.0161760
605.991	0.0161398
606.069	0.0162469
606.147	0.0161274
606.225	0.0162494
606.303	0.0162569
606.381	0.0161143
606.459	0.0163707
606.538	0.0162141
606.616	0.0161908
606.694	0.0162011
606.772	0.0161942
606.850	0.0160894
606.928	0.0162547
607.006	0.0161249
607.084	0.0164090
607.163	0.0163094
607.241	0.0163346
607.319	0.0162457
607.397	0.0162128
607.475	0.0161131
607.553	0.0162949
607.631	0.0162263
607.709	0.0162768
607.788	0.0162883
607.866	0.0161811
607.944	0.0162660
608.022	0.0162010
608.100	0.0161476
608.178	0.0162247
608.256	0.0162762
608.334	0.0163094
608.413	0.0161093
608.491	0.0161861
608.569	0.0160965
608.647	0.0163070
608.725	0.0162336
608.803	0.0161840
608.881	0.0163297
608.959	0.0161482
609.038	0.0161662
609.116	0.0162691
609.194	0.0162562
609.272	0.0162953
609.350	0.0160581
609.428	0.0160587
609.506	0.0163172
609.584	0.0163170
609.663	0.0163058
609.741	0.0161641
609.819	0.0162117
609.897	0.0162656
609.975	0.0161012
610.053	0.0162025
610.131	0.0162145
610.209	0.0162637
610.288	0.0162304
610.366	0.0162698
610.444	0.0161802
610.522	0.0162215
610.600	0.0162360
610.678	0.0163099
610.756	0.0162437
610.834	0.0162707
610.913	0.0162365
610.991	0.0161855
611.069	0.0162790
611.147	0.0161597
611.225	0.0162868
611.303	0.0162421
611.381	0.0162906
611.459	0.0162408
611.538	0.0162563
611.616	0.0162904
611.694	0.0162617
611.772	0.0162721
611.850	0.0162244
611.928	0.0161636
612.006	0.0162040
612.084	0.0163120
612.163	0.0163395
612.241	0.0161936
612.319	0.0161976
612.397	0.0163972
612.475	0.0162471
612.553	0.0162826
612.631	0.0163042
612.709	0.0161478
612.788	0.0162105
612.866	0.0163439
612.944	0.0163441
613.022	0.0161948
613.100	0.0162663
613.178	0.0162979
613.256	0.0162679
613.334	0.0161762
613.413	0.0161801
613.491	0.0163584
613.569	0.0162450
613.647	0.0162618
613.725	0.0163570
613.803	0.0162610
613.881	0.0162769
613.959	0.0162645
614.038	0.0163122
614.116	0.0162191
614.194	0.0163355
614.272	0.0162881
614.350	0.0163370
614.428	0.0164158
614.506	0.0161889
614.584	0.0162541
614.663	0.0162855
614.741	0.0162182
614.819	0.0162327
614.897	0.0162791
614.975	0.0163096
615.053	0.0161162
615.131	0.0161646
615.209	0.0161888
615.288	0.0163493
615.366	0.0163065
615.444	0.0162285
615.522	0.0162457
615.600	0.0163766
615.678	0.0162010
615.756	0.0161549
615.834	0.0162037
615.913	0.0162318
615.991	0.0162835
616.069	0.0161552
616.147	0.0162894
616.225	0.0164420
616.303	0.0162267
616.381	0.0163530
616.459	0.0162480
616.538	0.0164915
616.616	0.0163120
616.694	0.0162312
616.772	0.0163117
616.850	0.0162872
616.928	0.0162467
617.006	0.0161918
617.084	0.0162746
617.163	0.0162398
617.241	0.0163387
617.319	0.0163338
617.397	0.0162685
617.475	0.0163333
617.553	0.0162309
617.631	0.0162316
617.709	0.0161976
617.788	0.0162708
617.866	0.0162644
617.944	0.0162070
618.022	0.0160979
618.100	0.0161553
618.178	0.0161920
618.256	0.0161545
618.334	0.0162728
618.413	0.0162234
618.491	0.0161831
618.569	0.0161908
618.647	0.0163078
618.725	0.0163426
618.803	0.0162692
618.881	0.0161865
618.959	0.0162763
619.038	0.0160775
619.116	0.0162634
619.194	0.0162560
619.272	0.0161716
619.350	0.0162991
619.428	0.0162745
619.506	0.0161543
619.584	0.0162486
619.663	0.0162084
619.741	0.0162678
619.819	0.0162614
619.897	0.0161848
619.975	0.0163109
620.053	0.0163014
620.131	0.0162704
620.209	0.0162200
620.288	0.0161718
620.366	0.0161478
620.444	0.0161042
620.522	0.0162740
620.600	0.0162487
620.678	0.0162914
620.756	0.0162701
620.834	0.0162949
620.913	0.0162952
620.991	0.0162177
621.069	0.0163000
621.147	0.0161414
621.225	0.0162254
621.303	0.0160703
621.381	0.0161609
621.459	0.0163062
621.538	0.0161794
621.616	0.0161662
621.694	0.0161948
621.772	0.0163157
621.850	0.0162679
621.928	0.0162785
622.006	0.0162841
622.084	0.0161695
622.163	0.0162349
622.241	0.0162183
622.319	0.0162182
622.397	0.0161043
622.475	0.0162933
622.553	0.0163623
622.631	0.0163822
622.709	0.0162805
622.788	0.0162164
622.866	0.0161996
622.944	0.0162362
623.022	0.0162148
623.100	0.0162724
623.178	0.0161992
623.256	0.0162789
623.334	0.0161476
623.413	0.0162010
623.491	0.0162881
623.569	0.0162597
623.647	0.0161090
623.725	0.0162004
623.803	0.0162556
623.881	0.0162839
623.959	0.0162594
624.038	0.0163251
624.116	0.0162448
624.194	0.0162469
624.272	0.0162491
624.350	0.0162357
624.428	0.0163197
624.506	0.0163042
624.584	0.0163544
624.663	0.0161017
624.741	0.0162889
624.819	0.0162556
624.897	0.0163437
624.975	0.0162650
625.053	0.0161581
625.131	0.0163007
625.209	0.0161986
625.288	0.0163486
625.366	0.0162234
625.444	0.0163753
625.522	0.0162491
625.600	0.0161346
625.678	0.0161175
625.756	0.0163742
625.834	0.0163988
625.913	0.0161905
625.991	0.0163580
626.069	0.0163365
626.147	0.0162317
626.225	0.0162170
626.303	0.0162716
626.381	0.0161778
626.459	0.0162663
626.538	0.0163092
626.616	0.0162125
626.694	0.0160786
626.772	0.0161781
626.850	0.0163696
626.928	0.0161900
627.006	0.0162668
627.084	0.0163077
627.163	0.0162703
627.241	0.0161427
627.319	0.0161987
627.397	0.0162372
627.475	0.0162369
627.553	0.0161694
627.631	0.0161936
627.709	0.0161390
627.788	0.0161736
627.866	0.0163194
627.944	0.0162391
628.022	0.0162268
628.100	0.0162070
628.178	0.0162892
628.256	0.0162805
628.334	0.0161921
628.413	0.0161753
628.491	0.0162473
628.569	0.0162140
628.647	0.0162547
628.725	0.0161893
628.803	0.0162494
628.881	0.0162495
628.959	0.0161672
629.038	0.0163215
629.116	0.0161250
629.194	0.0162116
629.272	0.0161926
629.350	0.0162051
629.428	0.0162202
629.506	0.0163255
629.584	0.0161591
629.663	0.0163116
629.741	0.0161898
629.819	0.0160699
629.897	0.0162293
629.975	0.0162219
630.053	0.0162790
630.131	0.0162605
630.209	0.0162347
630.288	0.0161749
630.366	0.0161393
630.444	0.0162864
630.522	0.0161742
630.600	0.0162804
630.678	0.0163178
630.756	0.0161266
630.834	0.0162934
630.913	0.0161897
630.991	0.0162533
631.069	0.0163227
631.147	0.0162503
631.225	0.0163161
631.303	0.0162255
631.381	0.0163582
631.459	0.0161724
631.538	0.0161498
631.616	0.0163876
631.694	0.0162547
631.772	0.0163401
631.850	0.0161848
631.928	0.0161647
632.006	0.0161292
632.084	0.0164541
632.163	0.0162453
632.241	0.0161574
632.319	0.0162782
632.397	0.0162489
632.475	0.0162021
632.553	0.0162453
632.631	0.0161666
632.709	0.0162683
632.788	0.0161303
632.866	0.0162223
632.944	0.0162571
633.022	0.0162785
633.100	0.0162330
633.178	0.0162756
633.256	0.0163287
633.334	0.0163014
633.413	0.0164169
633.491	0.0161652
633.569	0.0162572
633.647	0.0163310
633.725	0.0163267
633.803	0.0162354
633.881	0.0163669
633.959	0.0163255
634.038	0.0163210
634.116	0.0162074
634.194	0.0163216
634.272	0.0162751
634.350	0.0163539
634.428	0.0163936
634.506	0.0161352
634.584	0.0161976
634.663	0.0163096
634.741	0.0162955
634.819	0.0162537
634.897	0.0163311
634.975	0.0162160
635.053	0.0163580
635.131	0.0163702
635.209	0.0163124
635.288	0.0162837
635.366	0.0163245
635.444	0.0162912
635.522	0.0162707
635.600	0.0163024
635.678	0.0161266
635.756	0.0161901
635.834	0.0162399
635.913	0.0163196
635.991	0.0163676
636.069	0.0163986
636.147	0.0161253
636.225	0.0161633
636.303	0.0162904
636.381	0.0162476
636.459	0.0161155
636.538	0.0162589
636.616	0.0162939
636.694	0.0163195
636.772	0.0161218
636.850	0.0161331
636.928	0.0163555
637.006	0.0162661
637.084	0.0161694
637.163	0.0162131
637.241	0.0163322
637.319	0.0162131
637.397	0.0162050
637.475	0.0162673
637.553	0.0163378
637.631	0.0163357
637.709	0.0161920
637.788	0.0162155
637.866	0.0162146
637.944	0.0160969
638.022	0.0161584
638.100	0.0162515
638.178	0.0163081
638.256	0.0162494
638.334	0.0162122
638.413	0.0164437
638.491	0.0163318
638.569	0.0161641
638.647	0.0161543
638.725	0.0162260
638.803	0.0163888
638.881	0.0162806
638.959	0.0161970
639.038	0.0162476
639.116	0.0162482
639.194	0.0163813
639.272	0.0162463
639.350	0.0163335
639.428	0.0161858
639.506	0.0161915
639.584	0.0162385
639.663	0.0164828
639.741	0.0163847
639.819	0.0162632
639.897	0.0162040
639.975	0.0162861
640.053	0.0162193
640.131	0.0162600
640.209	0.0162142
640.288	0.0163029
640.366	0.0163113
640.444	0.0162748
640.522	0.0161719
640.600	0.0161734
640.678	0.0162267
640.756	0.0162354
640.834	0.0162775
640.913	0.0162038
640.991	0.0162853
641.069	0.0162457
641.147	0.0161988
641.225	0.0162579
641.303	0.0161912
641.381	0.0162188
641.459	0.0163377
641.538	0.0161707
641.616	0.0161475
641.694	0.0162861
641.772	0.0161961
641.850	0.0162797
641.928	0.0163068
642.006	0.0162043
642.084	0.0162452
642.163	0.0161861
642.241	0.0161878
642.319	0.0162065
642.397	0.0162102
642.475	0.0162669
642.553	0.0161479
642.631	0.0162431
642.709	0.0162772
642.788	0.0162527
642.866	0.0162899
642.944	0.0163222
643.022	0.0162737
643.100	0.0162658
643.178	0.0162341
643.256	0.0162756
643.334	0.0163421
643.413	0.0163118
643.491	0.0162550
643.569	0.0163994
643.647	0.0162201
643.725	0.0161296
643.803	0.0162834
643.881	0.0163625
643.959	0.0162544
644.038	0.0162354
644.116	0.0162090
644.194	0.0161774
644.272	0.0161507
644.350	0.0160966
644.428	0.0163089
644.506	0.0161324
644.584	0.0162105
644.663	0.0162820
644.741	0.0162483
644.819	0.0161488
644.897	0.0162954
644.975	0.0163358
645.053	0.0162632
645.131	0.0163679
645.209	0.0161206
645.288	0.0162087
645.366	0.0161945
645.444	0.0162886
645.522	0.0161722
645.600	0.0162276
645.678	0.0163890
645.756	0.0162057
645.834	0.0162538
645.913	0.0162640
645.991	0.0162398
646.069	0.0161501
646.147	0.0163187
646.225	0.0163111
646.303	0.0162019
646.381	0.0161887
646.459	0.0161388
646.538	0.0163047
646.616	0.0163806
646.694	0.0161789
646.772	0.0162517
646.850	0.0162632
646.928	0.0161858
647.006	0.0163170
647.084	0.0162475
647.163	0.0161136
647.241	0.0162301
647.319	0.0163974
647.397	0.0162868
647.475	0.0162567
647.553	0.0161451
647.631	0.0162132
647.709	0.0164207
647.788	0.0163969
647.866	0.0163483
647.944	0.0160809
648.022	0.0162173
648.100	0.0162533
648.178	0.0163802
648.256	0.0162334
648.334	0.0162474
648.413	0.0161848
648.491	0.0163057
648.569	0.0163316
648.647	0.0161852
648.725	0.0163124
648.803	0.0163686
648.881	0.0162057
648.959	0.0163492
649.038	0.0163132
649.116	0.0162627
649.194	0.0161321
649.272	0.0161970
649.350	0.0161756
649.428	0.0161649
649.506	0.0163521
649.584	0.0164362
649.663	0.0163560
649.741	0.0162575
649.819	0.0162862
649.897	0.0162072
649.975	0.0162858
650.053	0.0162372
650.131	0.0162817
650.209	0.0162463
650.288	0.0162547
650.366	0.0163078
650.444	0.0162858
650.522	0.0162667
650.600	0.0161787
650.678	0.0162850
650.756	0.0162962
650.834	0.0162994
650.913	0.0162220
650.991	0.0161153
651.069	0.0161169
651.147	0.0162540
651.225	0.0162148
651.303	0.0162247
651.381	0.0162730
651.459	0.0164713
651.538	0.0163397
651.616	0.0162695
651.694	0.0161699
651.772	0.0163212
651.850	0.0162526
651.928	0.0161653
652.006	0.0163359
652.084	0.0162585
652.163	0.0162508
652.241	0.0163463
652.319	0.0164135
652.397	0.0162083
652.475	0.0161997
652.553	0.0164364
652.631	0.0163322
652.709	0.0162035
652.788	0.0162695
652.866	0.0162386
652.944	0.0162437
653.022	0.0162424
653.100	0.0163236
653.178	0.0164469
653.256	0.0163188
653.334	0.0162035
653.413	0.0161948
653.491	0.0162254
653.569	0.0163177
653.647	0.0162893
653.725	0.0162794
653.803	0.0161602
653.881	0.0163019
653.959	0.0162495
654.038	0.0162518
654.116	0.0163148
654.194	0.0162932
654.272	0.0162452
654.350	0.0162852
654.428	0.0162337
654.506	0.0163109
654.584	0.0162694
654.663	0.0161082
654.741	0.0163063
654.819	0.0162712
654.897	0.0162757
654.975	0.0163596
655.053	0.0162408
655.131	0.0162800
655.209	0.0162740
655.288	0.0162056
655.366	0.0161467
655.444	0.0162363
655.522	0.0163254
655.600	0.0162909
655.678	0.0162215
655.756	0.0161589
655.834	0.0163105
655.913	0.0163325
655.991	0.0163242
656.069	0.0161641
656.147	0.0163042
656.225	0.0162746
656.303	0.0161469
656.381	0.0162218
656.459	0.0161288
656.538	0.0162398
656.616	0.0164236
656.694	0.0163570
656.772	0.0162355
656.850	0.0162305
656.928	0.0163334
657.006	0.0162845
657.084	0.0162554
657.163	0.0164140
657.241	0.0162845
657.319	0.0161473
657.397	0.0162143
657.475	0.0162896
657.553	0.0161797
657.631	0.0161946
657.709	0.0163648
657.788	0.0161051
657.866	0.0162280
657.944	0.0161233
658.022	0.0162154
658.100	0.0162739
658.178	0.0162222
658.256	0.0161542
658.334	0.0162887
658.413	0.0162904
658.491	0.0162683
658.569	0.0162205
658.647	0.0161712
658.725	0.0161231
658.803	0.0162223
658.881	0.0163029
658.959	0.0162237
659.038	0.0162177
659.116	0.0161752
659.194	0.0162141
659.272	0.0163066
659.350	0.0162502
659.428	0.0162780
659.506	0.0162704
659.584	0.0162211
659.663	0.0162720
659.741	0.0162579
659.819	0.0162382
659.897	0.0162829
659.975	0.0163049
660.053	0.0161543
660.131	0.0162820
660.209	0.0162669
660.288	0.0163197
660.366	0.0163408
660.444	0.0163480
660.522	0.0161948
660.600	0.0161702
660.678	0.0162071
660.756	0.0163821
660.834	0.0162115
660.913	0.0161627
660.991	0.0163282
661.069	0.0161225
661.147	0.0163648
661.225	0.0161732
661.303	0.0162487
661.381	0.0163235
661.459	0.0162945
661.538	0.0162099
661.616	0.0162858
661.694	0.0162688
661.772	0.0163009
661.850	0.0162396
661.928	0.0162578
662.006	0.0162624
662.084	0.0163770
662.163	0.0161983
662.241	0.0163435
662.319	0.0161512
662.397	0.0161458
662.475	0.0161837
662.553	0.0162399
662.631	0.0162991
662.709	0.0162663
662.788	0.0162649
662.866	0.0163892
662.944	0.0162540
663.022	0.0162904
663.100	0.0162193
663.178	0.0161523
663.256	0.0161782
663.334	0.0162809
663.413	0.0161398
663.491	0.0163174
663.569	0.0162844
663.647	0.0161749
663.725	0.0162909
663.803	0.0163724
663.881	0.0162990
663.959	0.0163092
664.038	0.0163255
664.116	0.0161400
664.194	0.0163289
664.272	0.0162945
664.350	0.0162505
664.428	0.0163171
664.506	0.0162840
664.584	0.0162746
664.663	0.0162461
664.741	0.0161044
664.819	0.0161931
664.897	0.0163989
664.975	0.0163074
665.053	0.0162042
665.131	0.0163824
665.209	0.0162549
665.288	0.0163007
665.366	0.0163772
665.444	0.0161465
665.522	0.0163676
665.600	0.0163084
665.678	0.0162222
665.756	0.0162939
665.834	0.0162554
665.913	0.0162592
665.991	0.0162498
666.069	0.0161513
666.147	0.0161954
666.225	0.0163321
666.303	0.0163013
666.381	0.0162941
666.459	0.0162050
666.538	0.0161856
666.616	0.0163020
666.694	0.0161335
666.772	0.0161366
666.850	0.0161132
666.928	0.0163006
667.006	0.0162569
667.084	0.0162557
667.163	0.0163148
667.241	0.0162701
667.319	0.0162159
667.397	0.0162279
667.475	0.0161392
667.553	0.0161720
667.631	0.0162206
667.709	0.0163365
667.788	0.0160947
667.866	0.0160567
667.944	0.0161736
668.022	0.0162634
668.100	0.0161501
668.178	0.0162102
668.256	0.0162376
668.334	0.0162901
668.413	0.0162666
668.491	0.0163333
668.569	0.0162976
668.647	0.0162535
668.725	0.0161814
668.803	0.0161853
668.881	0.0162772
668.959	0.0162209
669.038	0.0162211
669.116	0.0162516
669.194	0.0162793
669.272	0.0161710
669.350	0.0162121
669.428	0.0161974
669.506	0.0162126
669.584	0.0161746
669.663	0.0161318
669.741	0.0162227
669.819	0.0162100
669.897	0.0161610
669.975	0.0161482
670.053	0.0162566
670.131	0.0161837
670.209	0.0161859
670.288	0.0160875
670.366	0.0160900
670.444	0.0162173
670.522	0.0159849
670.600	0.0161080
670.678	0.0160186
670.756	0.0162061
670.834	0.0160609
670.913	0.0162243
670.991	0.0161506
671.069	0.0161241
671.147	0.0160881
671.225	0.0160411
671.303	0.0162057
671.381	0.0161970
671.459	0.0163155
671.538	0.0160626
671.616	0.0160600
671.694	0.0159464
671.772	0.0159329
671.850	0.0160562
671.928	0.0162720
672.006	0.0162515
672.084	0.0162334
672.163	0.0161430
672.241	0.0161151
672.319	0.0161779
672.397	0.0161935
672.475	0.0161886
672.553	0.0161823
672.631	0.0161484
672.709	0.0162509
672.788	0.0162578
672.866	0.0161629
672.944	0.0161503
673.022	0.0160798
673.100	0.0161218
673.178	0.0160712
673.256	0.0161745
673.334	0.0160563
673.413	0.0161794
673.491	0.0161278
673.569	0.0162553
673.647	0.0161966
673.725	0.0162034
673.803	0.0163056
673.881	0.0162142
673.959	0.0161449
674.038	0.0161863
674.116	0.0162158
674.194	0.0163728
674.272	0.0162991
674.350	0.0162750
674.428	0.0163274
674.506	0.0163000
674.584	0.0161810
674.663	0.0162195
674.741	0.0161794
674.819	0.0163657
674.897	0.0162604
674.975	0.0161182
675.053	0.0162483
675.131	0.0162878
675.209	0.0163013
675.288	0.0163245
675.366	0.0163309
675.444	0.0162553
675.522	0.0162564
675.600	0.0163194
675.678	0.0163573
675.756	0.0163988
675.834	0.0164169
675.913	0.0162635
675.991	0.0162473
676.069	0.0163470
676.147	0.0164375
676.225	0.0162955
676.303	0.0163188
676.381	0.0163335
676.459	0.0163712
676.538	0.0163183
676.616	0.0164217
676.694	0.0164675
676.772	0.0164330
676.850	0.0163285
676.928	0.0164157
677.006	0.0164017
677.084	0.0164329
677.163	0.0164481
677.241	0.0163987
677.319	0.0163983
677.397	0.0162978
677.475	0.0164372
677.553	0.0164521
677.631	0.0163455
677.709	0.0163791
677.788	0.0162741
677.866	0.0163729
677.944	0.0164274
678.022	0.0163205
678.100	0.0163839
678.178	0.0164215
678.256	0.0162172
678.334	0.0163981
678.413	0.0164305
678.491	0.0163147
678.569	0.0162957
678.647	0.0163026
678.725	0.0162962
678.803	0.0163333
678.881	0.0160893
678.959	0.0162440
679.038	0.0164683
679.116	0.0164691
679.194	0.0163349
679.272	0.0162237
679.350	0.0161701
679.428	0.0163341
679.506	0.0163224
679.584	0.0162416
679.663	0.0162573
679.741	0.0162867
679.819	0.0162321
679.897	0.0161609
679.975	0.0162562
680.053	0.0163139
680.131	0.0163135
680.209	0.0162702
680.288	0.0161714
680.366	0.0162186
680.444	0.0162675
680.522	0.0162731
680.600	0.0162404
680.678	0.0161449
680.756	0.0161191
680.834	0.0162399
680.913	0.0161224
680.991	0.0161909
681.069	0.0161749
681.147	0.0160899
681.225	0.0161137
681.303	0.0160540
681.381	0.0160757
681.459	0.0161639
681.538	0.0160730
681.616	0.0161738
681.694	0.0161640
681.772	0.0160808
681.850	0.0161082
681.928	0.0161781
682.006	0.0161695
682.084	0.0161274
682.163	0.0160475
682.241	0.0161467
682.319	0.0160172
682.397	0.0160696
682.475	0.0161001
682.553	0.0161203
682.631	0.0161638
682.709	0.0160727
682.788	0.0162351
682.866	0.0161519
682.944	0.0161031
683.022	0.0160537
683.100	0.0161724
683.178	0.0160901
683.256	0.0160621
683.334	0.0162124
683.413	0.0162543
683.491	0.0161659
683.569	0.0161859
683.647	0.0161459
683.725	0.0161131
683.803	0.0162419
683.881	0.0160530
683.959	0.0161928
684.038	0.0162024
684.116	0.0162276
684.194	0.0161229
684.272	0.0162549
684.350	0.0162595
684.428	0.0160831
684.506	0.0162169
684.584	0.0162146
684.663	0.0161189
684.741	0.0162502
684.819	0.0161066
684.897	0.0161236
684.975	0.0160541
685.053	0.0163105
685.131	0.0162443
685.209	0.0161323
685.288	0.0162200
685.366	0.0162629
685.444	0.0162580
685.522	0.0161331
685.600	0.0162619
685.678	0.0162188
685.756	0.0161677
685.834	0.0161745
685.913	0.0162539
685.991	0.0163285
686.069	0.0161491
686.147	0.0160892
686.225	0.0161648
686.303	0.0162615
686.381	0.0163820
686.459	0.0163142
686.538	0.0161819
686.616	0.0161178
686.694	0.0163092
686.772	0.0163418
686.850	0.0161398
686.928	0.0163062
687.006	0.0162667
687.084	0.0162906
687.163	0.0162322
687.241	0.0163095
687.319	0.0162868
687.397	0.0160620
687.475	0.0164328
687.553	0.0162129
687.631	0.0161710
687.709	0.0164162
687.788	0.0164302
687.866	0.0164148
687.944	0.0162900
688.022	0.0161605
688.100	0.0160484
688.178	0.0159938
688.256	0.0159839
688.334	0.0159680
688.413	0.0159750
688.491	0.0160430
688.569	0.0161469
688.647	0.0164253
688.725	0.0164790
688.803	0.0167592
688.881	0.0168677
688.959	0.0170503
689.038	0.0171867
689.116	0.0171790
689.194	0.0168257
689.272	0.0165843
689.350	0.0162987
689.428	0.0157879
689.506	0.0155985
689.584	0.0151712
689.663	0.0148988
689.741	0.0147418
689.819	0.0149189
689.897	0.0150069
689.975	0.0154369
690.053	0.0156334
690.131	0.0161730
690.209	0.0167513
690.288	0.0172028
690.366	0.0175869
690.444	0.0179059
690.522	0.0181756
690.600	0.0182303
690.678	0.0180809
690.756	0.0178069
690.834	0.0174605
690.913	0.0170728
690.991	0.0165606
691.069	0.0159988
691.147	0.0155068
691.225	0.0149586
691.303	0.0145834
691.381	0.0142851
691.459	0.0140032
691.538	0.0140009
691.616	0.0141100
691.694	0.0142332
691.772	0.0144883
691.850	0.0149059
691.928	0.0153484
692.006	0.0158569
692.084	0.0161958
692.163	0.0169840
692.241	0.0173280
692.319	0.0175107
692.397	0.0178748
692.475	0.0180101
692.553	0.0182292
692.631	0.0182536
692.709	0.0180835
692.788	0.0178836
692.866	0.0177173
692.944	0.0174265
693.022	0.0170412
693.100	0.0168164
693.178	0.0165547
693.256	0.0162762
693.334	0.0160223
693.413	0.0157925
693.491	0.0155634
693.569	0.0154777
693.647	0.0154395
693.725	0.0153738
693.803	0.0153379
693.881	0.0152205
693.959	0.0151394
694.038	0.0151990
694.116	0.0150626
694.194	0.0151250
694.272	0.0148933
694.350	0.0148868
694.428	0.0149694
694.506	0.0149253
694.584	0.0149127
694.663	0.0150528
694.741	0.0151640
694.819	0.0153806
694.897	0.0155895
694.975	0.0160891
695.053	0.0163757
695.131	0.0166704
695.209	0.0170161
695.288	0.0172263
695.366	0.0176633
695.444	0.0178580
695.522	0.0181071
695.600	0.0183007
695.678	0.0183800
695.756	0.0184260
695.834	0.0183552
695.913	0.0182627
695.991	0.0180820
696.069	0.0179708
696.147	0.0178435
696.225	0.0174908
696.303	0.0171521
696.381	0.0168250
696.459	0.0165347
696.538	0.0161580
696.616	0.0158424
696.694	0.0155618
696.772	0.0150368
696.850	0.0146866
696.928	0.0145465
697.006	0.0143019
697.084	0.0140210
697.163	0.0140174
697.241	0.0140144
697.319	0.0140612
697.397	0.0139916
697.475	0.0140809
697.553	0.0143523
697.631	0.0145399
697.709	0.0149284
697.788	0.0151759
697.866	0.0154537
697.944	0.0156533
698.022	0.0159969
698.100	0.0163947
698.178	0.0164510
698.256	0.0167461
698.334	0.0170198
698.413	0.0169817
698.491	0.0171880
698.569	0.0172867
698.647	0.0173759
698.725	0.0174755
698.803	0.0175323
698.881	0.0175758
698.959	0.0175321
699.038	0.0176575
699.116	0.0176264
699.194	0.0177954
699.272	0.0177066
699.350	0.0176318
699.428	0.0177308
699.506	0.0178463
699.584	0.0176756
699.663	0.0175938
699.741	0.0175014
699.819	0.0174807
699.897	0.0172832
699.975	0.0171270
700.053	0.0169019
700.131	0.0165807
700.209	0.0164426
700.288	0.0160836
700.366	0.0157759
700.444	0.0156538
700.522	0.0153391
700.600	0.0149675
700.678	0.0146867
700.756	0.0144605
700.834	0.0142304
700.913	0.0141685
700.991	0.0140833
701.069	0.0139574
701.147	0.0139780
701.225	0.0140696
701.303	0.0140958
701.381	0.0142006
701.459	0.0145784
701.538	0.0146945
701.616	0.0149117
701.694	0.0153429
701.772	0.0154417
701.850	0.0159198
701.928	0.0163827
702.006	0.0167115
702.084	0.0168359
702.163	0.0170154
702.241	0.0173577
702.319	0.0174683
702.397	0.0175960
702.475	0.0177480
702.553	0.0176556
702.631	0.0176434
702.709	0.0175727
702.788	0.0176259
702.866	0.0174834
702.944	0.0174728
703.022	0.0173349
703.100	0.0172888
703.178	0.0171844
703.256	0.0169721
703.334	0.0169877
703.413	0.0170576
703.491	0.0169053
703.569	0.0168832
703.647	0.0169341
703.725	0.0169005
703.803	0.0168046
703.881	0.0167097
703.959	0.0167265
704.038	0.0166105
704.116	0.0163553
704.194	0.0164639
704.272	0.0163057
704.350	0.0161814
704.428	0.0161097
704.506	0.0160659
704.584	0.0160325
704.663	0.0158633
704.741	0.0159406
704.819	0.0159150
704.897	0.0158974
704.975	0.0158176
705.053	0.0159064
705.131	0.0159301
705.209	0.0158418
705.288	0.0158344
705.366	0.0157954
705.444	0.0156808
705.522	0.0155984
705.600	0.0156872
705.678	0.0156400
705.756	0.0156540
705.834	0.0155264
705.913	0.0154381
705.991	0.0153436
706.069	0.0155582
706.147	0.0155067
706.225	0.0154450
706.303	0.0154078
706.381	0.0155825
706.459	0.0155196
706.538	0.0156361
706.616	0.0157796
706.694	0.0159306
706.772	0.0160365
706.850	0.0162335
706.928	0.0162097
707.006	0.0163893
707.084	0.0164548
707.163	0.0167106
707.241	0.0168381
707.319	0.0170042
707.397	0.0170628
707.475	0.0172358
707.553	0.0173600
707.631	0.0175963
707.709	0.0176200
707.788	0.0176212
707.866	0.0179350
707.944	0.0177961
708.022	0.0177824
708.100	0.0177707
708.178	0.0174435
708.256	0.0171999
708.334	0.0171941
708.413	0.0171079
708.491	0.0168277
708.569	0.0165229
708.647	0.0163940
708.725	0.0162259
708.803	0.0159415
708.881	0.0157605
708.959	0.0157735
709.038	0.0156300
709.116	0.0155798
709.194	0.0157423
709.272	0.0155758
709.350	0.0156209
709.428	0.0156892
709.506	0.0158196
709.584	0.0157723
709.663	0.0158286
709.741	0.0159515
709.819	0.0158038
709.897	0.0157606
709.975	0.0158081
710.053	0.0157250
710.131	0.0155631
710.209	0.0157123
710.288	0.0157311
710.366	0.0154193
710.444	0.0155269
710.522	0.0155418
710.600	0.0155000
710.678	0.0155113
710.756	0.0155500
710.834	0.0154109
710.913	0.0156786
710.991	0.0157704
711.069	0.0157017
711.147	0.0157223
711.225	0.0158415
711.303	0.0157761
711.381	0.0159335
711.459	0.0160501
711.538	0.0160590
711.616	0.0161886
711.694	0.0161296
711.772	0.0161887
711.850	0.0162251
711.928	0.0162735
712.006	0.0163309
712.084	0.0165210
712.163	0.0166513
712.241	0.0166922
712.319	0.0167872
712.397	0.0170044
712.475	0.0170284
712.553	0.0171360
712.631	0.0171692
712.709	0.0172910
712.788	0.0173846
712.866	0.0171278
712.944	0.0173347
713.022	0.0173879
713.100	0.0172415
713.178	0.0171866
713.256	0.0171638
713.334	0.0170773
713.413	0.0169488
713.491	0.0167762
713.569	0.0165936
713.647	0.0167432
713.725	0.0165967
713.803	0.0164274
713.881	0.0163050
713.959	0.0162758
714.038	0.0161628
714.116	0.0159779
714.194	0.0159816
714.272	0.0159592
714.350	0.0159015
714.428	0.0158427
714.506	0.0159270
714.584	0.0157983
714.663	0.0158950
714.741	0.0159179
714.819	0.0158753
714.897	0.0160381
714.975	0.0159942
715.053	0.0159354
715.131	0.0160139
715.209	0.0159188
715.288	0.0158842
715.366	0.0159721
715.444	0.0160089
715.522	0.0156863
715.600	0.0156323
715.678	0.0154496
715.756	0.0155668
715.834	0.0155299
715.913	0.0155524
715.991	0.0154955
716.069	0.0155184
716.147	0.0155927
716.225	0.0156953
716.303	0.0157622
716.381	0.0159167
716.459	0.0158296
716.538	0.0159982
716.616	0.0163038
716.694	0.0164835
716.772	0.0166245
716.850	0.0165150
716.928	0.0164413
717.006	0.0165850
717.084	0.0166075
717.163	0.0165586
717.241	0.0164310
717.319	0.0164899
717.397	0.0164743
717.475	0.0165332
717.553	0.0162560
717.631	0.0163068
717.709	0.0165659
717.788	0.0164017
717.866	0.0163518
717.944	0.0168445
718.022	0.0167147
718.100	0.0168793
718.178	0.0169656
718.256	0.0171464
718.334	0.0172965
718.413	0.0174374
718.491	0.0174617
718.569	0.0174744
718.647	0.0174815
718.725	0.0174034
718.803	0.0172681
718.881	0.0170210
718.959	0.0168634
719.038	0.0167627
719.116	0.0165874
719.194	0.0162975
719.272	0.0162185
719.350	0.0160369
719.428	0.0158885
719.506	0.0157724
719.584	0.0158324
719.663	0.0158031
719.741	0.0156204
719.819	0.0156975
719.897	0.0157267
719.975	0.0156901
720.053	0.0156564
720.131	0.0155353
720.209	0.0156371
720.288	0.0158157
720.366	0.0157117
720.444	0.0155318
720.522	0.0156076
720.600	0.0156702
720.678	0.0157356
720.756	0.0156646
720.834	0.0155806
720.913	0.0155362
720.991	0.0155638
721.069	0.0156521
721.147	0.0158380
721.225	0.0159377
721.303	0.0158877
721.381	0.0160155
721.459	0.0160960
721.538	0.0160948
721.616	0.0164201
721.694	0.0162933
721.772	0.0162923
721.850	0.0164227
721.928	0.0163676
722.006	0.0164545
722.084	0.0164339
722.163	0.0163119
722.241	0.0164555
722.319	0.0164709
722.397	0.0163395
722.475	0.0161878
722.553	0.0163689
722.631	0.0162563
722.709	0.0162847
722.788	0.0163081
722.866	0.0162994
722.944	0.0162685
723.022	0.0163819
723.100	0.0164296
723.178	0.0164841
723.256	0.0164594
723.334	0.0166142
723.413	0.0166871
723.491	0.0166558
723.569	0.0167297
723.647	0.0168206
723.725	0.0167989
723.803	0.0167242
723.881	0.0166578
723.959	0.0167614
724.038	0.0167203
724.116	0.0166082
724.194	0.0164378
724.272	0.0165214
724.350	0.0164420
724.428	0.0162520
724.506	0.0162491
724.584	0.0161024
724.663	0.0160149
724.741	0.0159993
724.819	0.0159127
724.897	0.0159320
724.975	0.0159874
725.053	0.0160239
725.131	0.0160152
725.209	0.0160763
725.288	0.0159950
725.366	0.0161632
725.444	0.0162604
725.522	0.0163110
725.600	0.0161038
725.678	0.0163763
725.756	0.0162954
725.834	0.0163634
725.913	0.0163055
725.991	0.0163457
726.069	0.0163166
726.147	0.0163252
726.225	0.0162866
726.303	0.0160962
726.381	0.0161050
726.459	0.0160024
726.538	0.0160241
726.616	0.0160175
726.694	0.0159990
726.772	0.0158639
726.850	0.0159232
726.928	0.0160088
727.006	0.0158936
727.084	0.0159098
727.163	0.0160139
727.241	0.0159651
727.319	0.0159876
727.397	0.0162243
727.475	0.0161680
727.553	0.0161582
727.631	0.0162404
727.709	0.0163647
727.788	0.0162962
727.866	0.0164935
727.944	0.0165786
728.022	0.0164894
728.100	0.0164799
728.178	0.0165083
728.256	0.0166840
728.334	0.0165262
728.413	0.0163950
728.491	0.0165165
728.569	0.0165215
728.647	0.0163769
728.725	0.0164970
728.803	0.0165238
728.881	0.0164761
728.959	0.0165324
729.038	0.0164989
729.116	0.0165434
729.194	0.0164169
729.272	0.0164342
729.350	0.0164975
729.428	0.0164149
729.506	0.0163638
729.584	0.0164133
729.663	0.0164153
729.741	0.0164176
729.819	0.0165133
729.897	0.0163928
729.975	0.0163667
730.053	0.0164963
730.131	0.0164794
730.209	0.0165398
730.288	0.0166409
730.366	0.0165233
730.444	0.0165897
730.522	0.0167066
730.600	0.0166146
730.678	0.0165147
730.756	0.0166772
730.834	0.0165563
730.913	0.0164722
730.991	0.0163055
731.069	0.0163737
731.147	0.0163652
731.225	0.0162186
731.303	0.0162461
731.381	0.0161637
731.459	0.0161896
731.538	0.0161172
731.616	0.0160105
731.694	0.0160438
731.772	0.0161198
731.850	0.0160693
731.928	0.0160800
732.006	0.0161675
732.084	0.0159915
732.163	0.0158409
732.241	0.0158852
732.319	0.0159156
732.397	0.0158016
732.475	0.0158171
732.553	0.0158999
732.631	0.0156917
732.709	0.0156710
732.788	0.0157913
732.866	0.0157835
732.944	0.0157377
733.022	0.0156926
733.100	0.0158392
733.178	0.0158619
733.256	0.0158267
733.334	0.0159618
733.413	0.0161391
733.491	0.0159468
733.569	0.0161150
733.647	0.0161047
733.725	0.0160882
733.803	0.0162377
733.881	0.0162417
733.959	0.0164141
734.038	0.0163874
734.116	0.0162735
734.194	0.0164136
734.272	0.0163984
734.350	0.0165089
734.428	0.0165414
734.506	0.0164566
734.584	0.0165915
734.663	0.0166025
734.741	0.0165624
734.819	0.0165103
734.897	0.0165402
734.975	0.0167085
735.053	0.0164901
735.131	0.0165486
735.209	0.0164217
735.288	0.0165749
735.366	0.0164919
735.444	0.0164061
735.522	0.0162284
735.600	0.0162556
735.678	0.0162453
735.756	0.0161107
735.834	0.0160445
735.913	0.0161077
735.991	0.0161985
736.069	0.0162434
736.147	0.0161725
736.225	0.0161730
736.303	0.0162608
736.381	0.0161719
736.459	0.0162431
736.538	0.0163126
736.616	0.0164287
736.694	0.0164916
736.772	0.0163902
736.850	0.0163921
736.928	0.0165237
737.006	0.0164703
737.084	0.0163005
737.163	0.0164827
737.241	0.0164075
737.319	0.0162682
737.397	0.0163326
737.475	0.0162923
737.553	0.0162349
737.631	0.0164190
737.709	0.0163694
737.788	0.0163560
737.866	0.0163077
737.944	0.0164546
738.022	0.0165038
738.100	0.0164056
738.178	0.0163905
738.256	0.0163913
738.334	0.0164114
738.413	0.0164271
738.491	0.0162978
738.569	0.0162235
738.647	0.0163325
738.725	0.0161393
738.803	0.0161954
738.881	0.0160505
738.959	0.0161327
739.038	0.0160726
739.116	0.0160148
739.194	0.0160012
739.272	0.0159497
739.350	0.0158268
739.428	0.0158744
739.506	0.0160479
739.584	0.0159879
739.663	0.0158941
739.741	0.0159940
739.819	0.0161253
739.897	0.0161768
739.975	0.0159948
740.053	0.0161068
740.131	0.0161851
740.209	0.0160427
740.288	0.0161472
740.366	0.0162048
740.444	0.0161526
740.522	0.0161277
740.600	0.0161575
740.678	0.0162606
740.756	0.0161124
740.834	0.0162276
740.913	0.0163699
740.991	0.0164256
741.069	0.0161935
741.147	0.0162328
741.225	0.0163980
741.303	0.0164139
741.381	0.0163626
741.459	0.0165076
741.538	0.0164803
741.616	0.0164851
741.694	0.0165666
741.772	0.0165747
741.850	0.0166644
741.928	0.0165932
742.006	0.0163611
742.084	0.0165737
742.163	0.0165439
742.241	0.0164869
742.319	0.0165379
742.397	0.0165237
742.475	0.0164965
742.553	0.0164710
742.631	0.0165781
742.709	0.0164804
742.788	0.0164384
742.866	0.0165109
742.944	0.0164840
743.022	0.0164083
743.100	0.0164671
743.178	0.0163499
743.256	0.0163645
743.334	0.0163865
743.413	0.0162140
743.491	0.0164321
743.569	0.0162848
743.647	0.0162322
743.725	0.0161510
743.803	0.0162685
743.881	0.0163473
743.959	0.0163245
744.038	0.0163520
744.116	0.0163264
744.194	0.0162315
744.272	0.0164439
744.350	0.0163615
744.428	0.0163156
744.506	0.0163626
744.584	0.0162949
744.663	0.0163750
744.741	0.0162936
744.819	0.0162007
744.897	0.0160711
744.975	0.0162167
745.053	0.0161353
745.131	0.0160439
745.209	0.0162275
745.288	0.0159304
745.366	0.0160168
745.444	0.0159967
745.522	0.0159198
745.600	0.0158180
745.678	0.0159888
745.756	0.0156610
745.834	0.0156424
745.913	0.0158197
745.991	0.0157278
746.069	0.0158794
746.147	0.0157967
746.225	0.0157210
746.303	0.0157613
746.381	0.0159670
746.459	0.0159418
746.538	0.0160404
746.616	0.0160788
746.694	0.0160390
746.772	0.0162655
746.850	0.0162363
746.928	0.0163746
747.006	0.0162741
747.084	0.0163672
747.163	0.0162629
747.241	0.0163750
747.319	0.0165004
747.397	0.0163872
747.475	0.0163698
747.553	0.0163947
747.631	0.0163563
747.709	0.0163651
747.788	0.0163538
747.866	0.0165158
747.944	0.0165241
748.022	0.0163358
748.100	0.0163708
748.178	0.0164554
748.256	0.0164856
748.334	0.0164212
748.413	0.0163236
748.491	0.0164130
748.569	0.0165112
748.647	0.0164658
748.725	0.0164528
748.803	0.0165107
748.881	0.0164848
748.959	0.0163708
749.038	0.0163355
749.116	0.0163108
749.194	0.0160738
749.272	0.0161925
749.350	0.0162373
749.428	0.0161716
749.506	0.0160866
749.584	0.0160236
749.663	0.0159578
749.741	0.0160323
749.819	0.0160781
749.897	0.0160551
749.975	0.0160152
750.053	0.0159873
750.131	0.0160622
750.209	0.0160966
750.288	0.0163125
750.366	0.0162783
750.444	0.0163592
750.522	0.0163874
750.600	0.0164614
750.678	0.0163667
750.756	0.0167621
750.834	0.0167197
750.913	0.0164702
750.991	0.0166061
751.069	0.0166285
751.147	0.0166323
751.225	0.0166161
751.303	0.0165250
751.381	0.0164645
751.459	0.0163456
751.538	0.0163890
751.616	0.0162251
751.694	0.0161874
751.772	0.0161085
751.850	0.0161407
751.928	0.0161008
752.006	0.0158498
752.084	0.0160938
752.163	0.0160238
752.241	0.0159618
752.319	0.0160074
752.397	0.0162536
752.475	0.0161711
752.553	0.0160656
752.631	0.0162460
752.709	0.0161974
752.788	0.0162939
752.866	0.0163329
752.944	0.0164703
753.022	0.0163833
753.100	0.0164268
753.178	0.0164722
753.256	0.0164745
753.334	0.0164767
753.413	0.0163722
753.491	0.0164252
753.569	0.0162939
753.647	0.0163466
753.725	0.0162832
753.803	0.0164358
753.881	0.0162761
753.959	0.0161182
754.038	0.0160911
754.116	0.0159696
754.194	0.0160162
754.272	0.0160415
754.350	0.0159318
754.428	0.0159424
754.506	0.0159831
754.584	0.0158886
754.663	0.0159807
754.741	0.0159586
754.819	0.0160661
754.897	0.0160989
754.975	0.0161046
755.053	0.0162212
755.131	0.0163306
755.209	0.0161677
755.288	0.0162061
755.366	0.0163010
755.444	0.0162462
755.522	0.0164594
755.600	0.0163068
755.678	0.0164603
755.756	0.0162215
755.834	0.0163177
755.913	0.0164392
755.991	0.0164060
756.069	0.0163010
756.147	0.0163803
756.225	0.0164055
756.303	0.0163482
756.381	0.0163796
756.459	0.0163233
756.538	0.0162580
756.616	0.0162876
756.694	0.0163470
756.772	0.0163036
756.850	0.0163889
756.928	0.0163195
757.006	0.0163153
757.084	0.0163570
757.163	0.0163015
757.241	0.0162912
757.319	0.0163750
757.397	0.0162373
757.475	0.0161395
757.553	0.0161516
757.631	0.0162444
757.709	0.0163158
757.788	0.0161864
757.866	0.0162547
757.944	0.0162996
758.022	0.0162950
758.100	0.0163159
758.178	0.0161598
758.256	0.0162977
758.334	0.0163261
758.413	0.0164883
758.491	0.0161644
758.569	0.0163969
758.647	0.0162708
758.725	0.0163404
758.803	0.0163626
758.881	0.0163145
758.959	0.0162943
759.038	0.0162124
759.116	0.0161330
759.194	0.0161679
759.272	0.0160540
759.350	0.0161845
759.428	0.0161742
759.506	0.0160154
759.584	0.0159927
759.663	0.0160461
759.741	0.0159701
759.819	0.0159791
759.897	0.0158935
759.975	0.0160328
760.053	0.0159779
760.131	0.0159394
760.209	0.0160658
760.288	0.0160361
760.366	0.0160718
760.444	0.0160860
760.522	0.0161419
760.600	0.0162074
760.678	0.0161761
760.756	0.0162917
760.834	0.0162924
760.913	0.0162890
760.991	0.0163445
761.069	0.0163640
761.147	0.0165267
761.225	0.0165372
761.303	0.0164509
761.381	0.0164867
761.459	0.0165201
761.538	0.0164957
761.616	0.0164289
761.694	0.0166064
761.772	0.0164857
761.850	0.0163900
761.928	0.0165126
762.006	0.0164848
762.084	0.0163490
762.163	0.0163000
762.241	0.0163032
762.319	0.0162371
762.397	0.0162531
762.475	0.0161808
762.553	0.0162676
762.631	0.0163847
762.709	0.0161892
762.788	0.0162855
762.866	0.0162514
762.944	0.0162737
763.022	0.0161963
763.100	0.0162444
763.178	0.0162780
763.256	0.0161661
763.334	0.0161207
763.413	0.0161159
763.491	0.0162220
763.569	0.0161048
763.647	0.0160243
763.725	0.0162825
763.803	0.0162476
763.881	0.0161497
763.959	0.0162424
764.038	0.0163201
764.116	0.0162431
764.194	0.0162666
764.272	0.0163677
764.350	0.0162505
764.428	0.0162710
764.506	0.0162975
764.584	0.0162296
764.663	0.0162051
764.741	0.0161615
764.819	0.0162518
764.897	0.0162600
764.975	0.0162155
765.053	0.0162994
765.131	0.0160762
765.209	0.0163387
765.288	0.0162608
765.366	0.0163499
765.444	0.0163141
765.522	0.0163540
765.600	0.0164399
765.678	0.0165224
765.756	0.0166065
765.834	0.0166045
765.913	0.0165386
765.991	0.0167468
766.069	0.0166615
766.147	0.0165914
766.225	0.0165208
766.303	0.0165843
766.381	0.0165738
766.459	0.0165472
766.538	0.0165395
766.616	0.0165462
766.694	0.0164709
766.772	0.0162495
766.850	0.0163664
766.928	0.0162227
767.006	0.0161409
767.084	0.0162084
767.163	0.0159772
767.241	0.0160910
767.319	0.0158337
767.397	0.0159200
767.475	0.0158775
767.553	0.0158304
767.631	0.0158117
767.709	0.0158078
767.788	0.0156966
767.866	0.0158259
767.944	0.0158008
768.022	0.0157938
768.100	0.0159272
768.178	0.0159039
768.256	0.0159093
768.334	0.0160326
768.413	0.0161427
768.491	0.0160863
768.569	0.0163188
768.647	0.0161925
768.725	0.0162083
768.803	0.0162840
768.881	0.0163219
768.959	0.0164251
769.038	0.0163107
769.116	0.0164182
769.194	0.0163728
769.272	0.0165409
769.350	0.0165061
769.428	0.0162669
769.506	0.0164124
769.584	0.0163982
769.663	0.0163699
769.741	0.0163749
769.819	0.0162461
769.897	0.0163673
769.975	0.0163290
770.053	0.0163303
770.131	0.0161396
770.209	0.0162346
770.288	0.0161147
770.366	0.0161355
770.444	0.0162531
770.522	0.0161810
770.600	0.0161368
770.678	0.0162483
770.756	0.0161604
770.834	0.0163290
770.913	0.0162321
770.991	0.0162541
771.069	0.0163078
771.147	0.0164280
771.225	0.0163234
771.303	0.0163598
771.381	0.0165460
771.459	0.0165666
771.538	0.0165661
771.616	0.0164310
771.694	0.0164999
771.772	0.0166489
771.850	0.0164925
771.928	0.0164877
772.006	0.0165514
772.084	0.0165350
772.163	0.0165700
772.241	0.0163122
772.319	0.0163780
772.397	0.0162386
772.475	0.0162250
772.553	0.0163155
772.631	0.0162023
772.709	0.0162399
772.788	0.0160792
772.866	0.0161140
772.944	0.0160850
773.022	0.0158817
773.100	0.0158854
773.178	0.0159332
773.256	0.0158553
773.334	0.0158993
773.413	0.0157841
773.491	0.0159215
773.569	0.0158481
773.647	0.0160823
773.725	0.0159438
773.803	0.0161426
773.881	0.0160564
773.959	0.0161180
774.038	0.0162584
774.116	0.0162719
774.194	0.0162588
774.272	0.0162946
774.350	0.0166115
774.428	0.0163977
774.506	0.0163763
774.584	0.0166451
774.663	0.0167367
774.741	0.0166563
774.819	0.0166389
774.897	0.0168371
774.975	0.0166554
775.053	0.0166624
775.131	0.0164741
775.209	0.0166319
775.288	0.0165448
775.366	0.0164540
775.444	0.0163858
775.522	0.0161684
775.600	0.0161786
775.678	0.0161881
775.756	0.0161217
775.834	0.0160195
775.913	0.0160548
775.991	0.0160193
776.069	0.0160458
776.147	0.0160664
776.225	0.0159514
776.303	0.0159792
776.381	0.0158744
776.459	0.0160890
776.538	0.0160009
776.616	0.0160992
776.694	0.0159804
776.772	0.0160109
776.850	0.0160999
776.928	0.0160498
777.006	0.0161761
777.084	0.0162769
777.163	0.0163029
777.241	0.0163242
777.319	0.0164633
777.397	0.0163021
777.475	0.0163903
777.553	0.0164828
777.631	0.0165510
777.709	0.0165309
777.788	0.0165393
777.866	0.0165529
777.944	0.0166378
778.022	0.0164871
778.100	0.0166759
778.178	0.0166501
778.256	0.0166280
778.334	0.0165997
778.413	0.0165057
778.491	0.0166254
778.569	0.0165339
778.647	0.0167091
778.725	0.0165032
778.803	0.0165454
778.881	0.0165778
778.959	0.0163316
779.038	0.0162497
779.116	0.0163756
779.194	0.0163213
779.272	0.0162795
779.350	0.0163441
779.428	0.0162707
779.506	0.0162382
779.584	0.0161542
779.663	0.0162299
779.741	0.0162473
779.819	0.0160428
779.897	0.0160838
779.975	0.0161743
780.053	0.0161667
780.131	0.0161249
780.209	0.0160474
780.288	0.0162370
780.366	0.0163238
780.444	0.0162367
780.522	0.0162075
780.600	0.0161389
780.678	0.0161232
780.756	0.0162447
780.834	0.0161672
780.913	0.0162085
780.991	0.0162126
781.069	0.0161190
781.147	0.0159427
781.225	0.0160246
781.303	0.0159964
781.381	0.0162038
781.459	0.0161142
781.538	0.0159459
781.616	0.0161181
781.694	0.0161463
781.772	0.0161012
781.850	0.0160764
781.928	0.0161588
782.006	0.0161832
782.084	0.0163773
782.163	0.0162791
782.241	0.0162623
782.319	0.0164147
782.397	0.0164182
782.475	0.0163496
782.553	0.0162584
782.631	0.0162994
782.709	0.0164294
782.788	0.0163097
782.866	0.0163197
782.944	0.0163118
783.022	0.0163132
783.100	0.0163182
783.178	0.0163275
783.256	0.0161069
783.334	0.0164429
783.413	0.0163576
783.491	0.0163093
783.569	0.0162341
783.647	0.0164361
783.725	0.0164329
783.803	0.0163673
783.881	0.0163720
783.959	0.0164419
784.038	0.0163602
784.116	0.0164355
784.194	0.0164597
784.272	0.0164078
784.350	0.0163918
784.428	0.0163406
784.506	0.0163567
784.584	0.0162537
784.663	0.0161412
784.741	0.0163383
784.819	0.0162659
784.897	0.0162323
784.975	0.0161073
785.053	0.0161686
785.131	0.0161381
785.209	0.0161086
785.288	0.0161474
785.366	0.0162045
785.444	0.0160613
785.522	0.0159699
785.600	0.0161780
785.678	0.0161678
785.756	0.0161604
785.834	0.0161718
785.913	0.0160960
785.991	0.0160194
786.069	0.0162360
786.147	0.0161971
786.225	0.0163708
786.303	0.0163622
786.381	0.0163485
786.459	0.0163078
786.538	0.0163895
786.616	0.0165908
786.694	0.0163053
786.772	0.0163101
786.850	0.0164890
786.928	0.0164817
787.006	0.0165842
787.084	0.0164814
787.163	0.0164397
787.241	0.0162984
787.319	0.0164584
787.397	0.0163267
787.475	0.0164404
787.553	0.0164359
787.631	0.0163514
787.709	0.0162202
787.788	0.0162772
787.866	0.0163008
787.944	0.0164708
788.022	0.0163460
788.100	0.0164905
788.178	0.0163432
788.256	0.0164059
788.334	0.0164155
788.413	0.0164156
788.491	0.0163533
788.569	0.0163728
788.647	0.0163505
788.725	0.0161810
788.803	0.0162296
788.881	0.0162083
788.959	0.0160575
789.038	0.0162058
789.116	0.0160861
789.194	0.0159747
789.272	0.0160835
789.350	0.0160826
789.428	0.0159574
789.506	0.0160397
789.584	0.0160419
789.663	0.0160303
789.741	0.0161772
789.819	0.0161254
789.897	0.0162411
789.975	0.0161765
790.053	0.0161803
790.131	0.0164116
790.209	0.0163053
790.288	0.0162597
790.366	0.0162804
790.444	0.0162344
790.522	0.0162139
790.600	0.0162090
790.678	0.0162317
790.756	0.0161539
790.834	0.0162571
790.913	0.0161969
790.991	0.0161951
791.069	0.0161184
791.147	0.0161797
791.225	0.0161708
791.303	0.0161472
791.381	0.0162314
791.459	0.0161435
791.538	0.0164231
791.616	0.0164146
791.694	0.0162753
791.772	0.0165220
791.850	0.0165424
791.928	0.0164651
792.006	0.0163769
792.084	0.0165706
792.163	0.0165612
792.241	0.0166219
792.319	0.0166289
792.397	0.0165640
792.475	0.0164317
792.553	0.0163416
792.631	0.0164100
792.709	0.0162632
792.788	0.0164323
792.866	0.0163344
792.944	0.0163594
793.022	0.0161720
793.100	0.0162620
793.178	0.0162426
793.256	0.0164149
793.334	0.0162515
793.413	0.0163286
793.491	0.0162801
793.569	0.0162013
793.647	0.0161799
793.725	0.0162648
793.803	0.0162894
793.881	0.0162269
793.959	0.0161472
794.038	0.0160918
794.116	0.0161043
794.194	0.0162323
794.272	0.0161921
794.350	0.0160674
794.428	0.0161510
794.506	0.0160937
794.584	0.0161076
794.663	0.0160128
794.741	0.0160359
794.819	0.0161540
794.897	0.0161388
794.975	0.0161410
795.053	0.0162440
795.131	0.0161837
795.209	0.0162061
795.288	0.0162482
795.366	0.0162415
795.444	0.0163364
795.522	0.0165814
795.600	0.0164225
795.678	0.0164536
795.756	0.0162847
795.834	0.0164635
795.913	0.0165092
795.991	0.0163659
796.069	0.0163158
796.147	0.0163776
796.225	0.0162722
796.303	0.0163383
796.381	0.0162610
796.459	0.0161183
796.538	0.0161816
796.616	0.0160770
796.694	0.0160955
796.772	0.0161086
796.850	0.0160973
796.928	0.0161900
797.006	0.0160107
797.084	0.0161658
797.163	0.0163013
797.241	0.0160639
797.319	0.0161929
797.397	0.0161778
797.475	0.0161999
797.553	0.0161346
797.631	0.0162685
797.709	0.0161807
797.788	0.0161538
797.866	0.0161985
797.944	0.0162974
798.022	0.0163831
798.100	0.0162563
798.178	0.0162835
798.256	0.0162096
798.334	0.0162394
798.413	0.0160497
798.491	0.0160417
798.569	0.0162895
798.647	0.0161575
798.725	0.0161250
798.803	0.0161736
798.881	0.0161524
798.959	0.0163571
799.038	0.0164299
799.116	0.0162229
799.194	0.0164203
799.272	0.0164104
799.350	0.0164973
799.428	0.0165051
799.506	0.0165369
799.584	0.0166184
799.663	0.0165824
799.741	0.0167377
799.819	0.0167732
799.897	0.0166517
799.975	0.0166135
800.053	0.0167240
800.131	0.0166602
800.209	0.0166433
800.288	0.0166316
800.366	0.0165904
800.444	0.0165290
800.522	0.0164915
800.600	0.0165385
800.678	0.0166122
800.756	0.0165077
800.834	0.0165199
800.913	0.0163550
800.991	0.0162106
801.069	0.0161742
801.147	0.0163014
801.225	0.0163191
801.303	0.0162061
801.381	0.0161423
801.459	0.0160587
801.538	0.0159966
801.616	0.0160238
801.694	0.0160729
801.772	0.0159708
801.850	0.0160261
801.928	0.0160831
802.006	0.0160138
802.084	0.0158859
802.163	0.0159293
802.241	0.0160490
802.319	0.0160201
802.397	0.0159080
802.475	0.0159556
802.553	0.0161395
802.631	0.0161149
802.709	0.0159707
802.788	0.0159492
802.866	0.0160807
802.944	0.0159581
803.022	0.0160419
803.100	0.0162581
803.178	0.0161416
803.256	0.0162399
803.334	0.0162366
803.413	0.0162104
803.491	0.0163052
803.569	0.0163276
803.647	0.0164742
803.725	0.0163735
803.803	0.0165039
803.881	0.0164318
803.959	0.0164864
804.038	0.0164827
804.116	0.0165387
804.194	0.0166659
804.272	0.0166943
804.350	0.0164928
804.428	0.0165580
804.506	0.0166683
804.584	0.0165161
804.663	0.0166735
804.741	0.0165137
804.819	0.0165141
804.897	0.0165569
804.975	0.0164571
805.053	0.0164246
805.131	0.0163590
805.209	0.0163597
805.288	0.0164866
805.366	0.0163328
805.444	0.0163974
805.522	0.0161197
805.600	0.0162267
805.678	0.0162841
805.756	0.0162016
805.834	0.0160164
805.913	0.0160436
805.991	0.0161664
806.069	0.0158412
806.147	0.0158730
806.225	0.0159608
806.303	0.0159949
806.381	0.0158846
806.459	0.0158405
806.538	0.0158215
806.616	0.0159818
806.694	0.0158819
806.772	0.0159412
806.850	0.0160610
806.928	0.0160311
807.006	0.0160108
807.084	0.0161114
807.163	0.0161272
807.241	0.0161332
807.319	0.0162130
807.397	0.0161591
807.475	0.0163070
807.553	0.0162914
807.631	0.0162146
807.709	0.0163880
807.788	0.0163703
807.866	0.0164127
807.944	0.0165067
808.022	0.0164470
808.100	0.0165107
808.178	0.0164445
808.256	0.0164411
808.334	0.0163824
808.413	0.0162942
808.491	0.0162579
808.569	0.0162418
808.647	0.0164321
808.725	0.0164373
808.803	0.0164650
808.881	0.0162812
808.959	0.0163247
809.038	0.0162995
809.116	0.0163866
809.194	0.0164730
809.272	0.0164603
809.350	0.0164301
809.428	0.0165446
809.506	0.0164931
809.584	0.0164171
809.663	0.0163124
809.741	0.0162886
809.819	0.0164439
809.897	0.0163909
809.975	0.0162469
810.053	0.0161752
810.131	0.0161469
810.209	0.0162523
810.288	0.0162446
810.366	0.0161134
810.444	0.0163362
810.522	0.0162101
810.600	0.0161049
810.678	0.0163074
810.756	0.0161945
810.834	0.0162604
810.913	0.0161136
810.991	0.0162875
811.069	0.0162790
811.147	0.0162196
811.225	0.0162631
811.303	0.0162001
811.381	0.0162800
811.459	0.0160919
811.538	0.0161431
811.616	0.0161391
811.694	0.0160664
811.772	0.0160338
811.850	0.0161198
811.928	0.0161743
812.006	0.0161209
812.084	0.0159985
812.163	0.0159864
812.241	0.0159184
812.319	0.0159359
812.397	0.0158351
812.475	0.0159585
812.553	0.0159708
812.631	0.0158939
812.709	0.0160745
812.788	0.0161484
812.866	0.0161961
812.944	0.0161109
813.022	0.0162206
813.100	0.0163538
813.178	0.0165574
813.256	0.0165916
813.334	0.0165865
813.413	0.0164850
813.491	0.0166373
813.569	0.0166769
813.647	0.0167754
813.725	0.0166544
813.803	0.0165896
813.881	0.0167521
813.959	0.0167021
814.038	0.0167459
814.116	0.0166569
814.194	0.0164574
814.272	0.0165456
814.350	0.0164456
814.428	0.0164402
814.506	0.0163060
814.584	0.0162330
814.663	0.0161330
814.741	0.0161846
814.819	0.0160759
814.897	0.0159505
814.975	0.0160330
815.053	0.0160400
815.131	0.0159438
815.209	0.0160947
815.288	0.0159980
815.366	0.0159805
815.444	0.0160635
815.522	0.0162520
815.600	0.0162782
815.678	0.0163087
815.756	0.0162930
815.834	0.0162390
815.913	0.0165143
815.991	0.0164597
816.069	0.0166042
816.147	0.0164552
816.225	0.0164709
816.303	0.0167281
816.381	0.0165030
816.459	0.0165196
816.538	0.0166280
816.616	0.0164916
816.694	0.0164483
816.772	0.0164618
816.850	0.0163862
816.928	0.0163201
817.006	0.0162635
817.084	0.0163297
817.163	0.0163327
817.241	0.0161778
817.319	0.0162097
817.397	0.0159946
817.475	0.0161128
817.553	0.0159901
817.631	0.0158983
817.709	0.0157404
817.788	0.0158573
817.866	0.0158418
817.944	0.0158698
818.022	0.0158978
818.100	0.0159041
818.178	0.0159339
818.256	0.0160356
818.334	0.0158797
818.413	0.0158100
818.491	0.0160036
818.569	0.0159837
818.647	0.0158779
818.725	0.0159312
818.803	0.0160548
818.881	0.0161366
818.959	0.0161443
819.038	0.0163338
819.116	0.0163815
819.194	0.0163005
819.272	0.0164848
819.350	0.0164796
819.428	0.0163912
819.506	0.0165267
819.584	0.0165015
819.663	0.0165726
819.741	0.0166228
819.819	0.0165301
819.897	0.0165828
819.975	0.0166979
820.053	0.0164928
820.131	0.0165372
820.209	0.0163717
820.288	0.0163799
820.366	0.0163162
820.444	0.0165028
820.522	0.0165049
820.600	0.0163172
820.678	0.0162281
820.756	0.0163024
820.834	0.0163704
820.913	0.0161762
820.991	0.0161722
821.069	0.0163049
821.147	0.0160817
821.225	0.0161939
821.303	0.0162047
821.381	0.0160971
821.459	0.0163251
821.538	0.0163631
821.616	0.0163880
821.694	0.0162662
821.772	0.0163418
821.850	0.0162528
821.928	0.0162826
822.006	0.0163105
822.084	0.0161434
822.163	0.0161495
822.241	0.0160528
822.319	0.0160827
822.397	0.0160585
822.475	0.0161887
822.553	0.0160330
822.631	0.0160519
822.709	0.0159889
822.788	0.0160732
822.866	0.0160662
822.944	0.0160876
823.022	0.0160216
823.100	0.0160608
823.178	0.0160699
823.256	0.0161482
823.334	0.0161354
823.413	0.0161907
823.491	0.0161998
823.569	0.0163136
823.647	0.0163599
823.725	0.0163481
823.803	0.0164685
823.881	0.0165595
823.959	0.0165891
824.038	0.0166102
824.116	0.0166438
824.194	0.0166573
824.272	0.0166598
824.350	0.0166256
824.428	0.0165793
824.506	0.0164655
824.584	0.0165691
824.663	0.0165140
824.741	0.0166176
824.819	0.0166060
824.897	0.0164734
824.975	0.0162868
825.053	0.0164318
825.131	0.0162203
825.209	0.0162148
825.288	0.0161588
825.366	0.0161166
825.444	0.0161671
825.522	0.0160564
825.600	0.0161119
825.678	0.0161190
825.756	0.0160899
825.834	0.0160050
825.913	0.0160203
825.991	0.0161671
826.069	0.0161471
826.147	0.0160351
826.225	0.0161046
826.303	0.0161759
826.381	0.0160819
826.459	0.0161321
826.538	0.0161251
826.616	0.0162130
826.694	0.0162445
826.772	0.0162297
826.850	0.0161696
826.928	0.0162123
827.006	0.0162045
827.084	0.0161723
827.163	0.0161495
827.241	0.0162842
827.319	0.0161575
827.397	0.0161593
827.475	0.0162006
827.553	0.0161968
827.631	0.0160778
827.709	0.0161172
827.788	0.0161323
827.866	0.0162465
827.944	0.0162551
828.022	0.0160911
828.100	0.0163170
828.178	0.0162624
828.256	0.0163705
828.334	0.0165042
828.413	0.0164160
828.491	0.0164734
828.569	0.0164310
828.647	0.0166940
828.725	0.0166134
828.803	0.0166972
828.881	0.0166969
828.959	0.0166209
829.038	0.0167509
829.116	0.0167058
829.194	0.0166607
829.272	0.0167082
829.350	0.0166650
829.428	0.0165813
829.506	0.0164945
829.584	0.0165726
829.663	0.0165353
829.741	0.0164083
829.819	0.0163762
829.897	0.0163004
829.975	0.0162828
830.053	0.0161953
830.131	0.0162457
830.209	0.0161490
830.288	0.0160812
830.366	0.0159420
830.444	0.0160230
830.522	0.0159413
830.600	0.0159616
830.678	0.0160376
830.756	0.0160084
830.834	0.0160306
830.913	0.0160590
830.991	0.0161691
831.069	0.0160886
831.147	0.0160419
831.225	0.0162442
831.303	0.0162085
831.381	0.0161153
831.459	0.0162949
831.538	0.0162380
831.616	0.0161853
831.694	0.0160918
831.772	0.0162872
831.850	0.0162073
831.928	0.0161684
832.006	0.0162143
832.084	0.0160463
832.163	0.0159431
832.241	0.0160601
832.319	0.0159689
832.397	0.0160198
832.475	0.0161529
832.553	0.0159889
832.631	0.0159426
832.709	0.0160576
832.788	0.0158768
832.866	0.0159341
832.944	0.0160091
833.022	0.0161211
833.100	0.0161547
833.178	0.0162000
833.256	0.0161801
833.334	0.0161867
833.413	0.0162502
833.491	0.0163078
833.569	0.0164866
833.647	0.0165034
833.725	0.0165023
833.803	0.0166005
833.881	0.0165526
833.959	0.0166309
834.038	0.0166908
834.116	0.0166272
834.194	0.0167891
834.272	0.0167007
834.350	0.0166962
834.428	0.0167831
834.506	0.0168246
834.584	0.0169534
834.663	0.0168621
834.741	0.0168631
834.819	0.0169329
834.897	0.0165925
834.975	0.0165614
835.053	0.0166291
835.131	0.0164619
835.209	0.0162390
835.288	0.0162488
835.366	0.0162287
835.444	0.0160840
835.522	0.0157977
835.600	0.0156103
835.678	0.0155799
835.756	0.0156050
835.834	0.0154488
835.913	0.0154043
835.991	0.0153819
836.069	0.0152628
836.147	0.0153613
836.225	0.0152845
836.303	0.0154378
836.381	0.0153879
836.459	0.0154486
836.538	0.0156213
836.616	0.0157635
836.694	0.0158326
836.772	0.0161189
836.850	0.0161811
836.928	0.0161716
837.006	0.0164307
837.084	0.0165711
837.163	0.0167201
837.241	0.0169751
837.319	0.0169859
837.397	0.0170345
837.475	0.0170705
837.553	0.0172763
837.631	0.0173164
837.709	0.0174473
837.788	0.0172803
837.866	0.0172834
837.944	0.0171466
838.022	0.0171288
838.100	0.0171558
838.178	0.0169301
838.256	0.0169075
838.334	0.0167090
838.413	0.0165265
838.491	0.0164600
838.569	0.0163364
838.647	0.0162317
838.725	0.0159726
838.803	0.0158617
838.881	0.0157984
838.959	0.0157163
839.038	0.0156337
839.116	0.0154389
839.194	0.0154402
839.272	0.0152478
839.350	0.0152372
839.428	0.0153988
839.506	0.0154565
839.584	0.0153144
839.663	0.0154129
839.741	0.0153416
839.819	0.0154340
839.897	0.0155945
839.975	0.0155435
840.053	0.0156234
840.131	0.0159404
840.209	0.0160245
840.288	0.0160691
840.366	0.0163653
840.444	0.0163341
840.522	0.0164133
840.600	0.0164961
840.678	0.0166963
840.756	0.0166886
840.834	0.0169177
840.913	0.0168295
840.991	0.0169289
841.069	0.0171342
841.147	0.0170170
841.225	0.0169604
841.303	0.0170116
841.381	0.0169714
841.459	0.0171240
841.538	0.0168207
841.616	0.0169016
841.694	0.0168922
841.772	0.0168171
841.850	0.0166432
841.928	0.0165807
842.006	0.0165764
842.084	0.0164093
842.163	0.0162538
842.241	0.0161776
842.319	0.0162759
842.397	0.0162299
842.475	0.0160910
842.553	0.0160033
842.631	0.0158285
842.709	0.0157436
842.788	0.0158369
842.866	0.0156409
842.944	0.0156729
843.022	0.0156313
843.100	0.0155775
843.178	0.0155478
843.256	0.0154997
843.334	0.0156062
843.413	0.0155832
843.491	0.0155653
843.569	0.0155054
843.647	0.0155743
843.725	0.0153765
843.803	0.0155328
843.881	0.0156632
843.959	0.0157975
844.038	0.0156454
844.116	0.0158760
844.194	0.0160014
844.272	0.0159455
844.350	0.0160823
844.428	0.0163105
844.506	0.0162743
844.584	0.0162270
844.663	0.0164498
844.741	0.0166177
844.819	0.0166611
844.897	0.0167297
844.975	0.0168993
845.053	0.0168127
845.131	0.0170119
845.209	0.0168530
845.288	0.0170164
845.366	0.0170374
845.444	0.0171971
845.522	0.0170808
845.600	0.0171725
845.678	0.0169505
845.756	0.0170055
845.834	0.0170432
845.913	0.0169527
845.991	0.0169759
846.069	0.0169234
846.147	0.0167483
846.225	0.0167509
846.303	0.0167333
846.381	0.0166129
846.459	0.0165147
846.538	0.0165362
846.616	0.0165528
846.694	0.0164987
846.772	0.0161896
846.850	0.0161996
846.928	0.0161772
847.006	0.0162288
847.084	0.0161526
847.163	0.0159765
847.241	0.0160064
847.319	0.0159206
847.397	0.0160571
847.475	0.0158239
847.553	0.0156283
847.631	0.0156813
847.709	0.0156032
847.788	0.0156088
847.866	0.0157027
847.944	0.0155018
848.022	0.0154958
848.100	0.0155020
848.178	0.0154923
848.256	0.0156139
848.334	0.0156681
848.413	0.0155589
848.491	0.0156503
848.569	0.0156960
848.647	0.0157230
848.725	0.0158761
848.803	0.0158928
848.881	0.0159698
848.959	0.0160885
849.038	0.0160661
849.116	0.0161995
849.194	0.0162334
849.272	0.0164517
849.350	0.0164870
849.428	0.0166580
849.506	0.0167209
849.584	0.0167352
849.663	0.0167711
849.741	0.0168582
849.819	0.0169822
849.897	0.0170805
849.975	0.0170986
850.053	0.0170767
850.131	0.0169120
850.209	0.0169151
850.288	0.0171638
850.366	0.0171580
850.444	0.0171881
850.522	0.0171102
850.600	0.0169738
850.678	0.0170171
850.756	0.0169565
850.834	0.0167925
850.913	0.0166225
850.991	0.0167552
851.069	0.0163817
851.147	0.0163617
851.225	0.0164164
851.303	0.0161799
851.381	0.0162294
851.459	0.0159651
851.538	0.0158378
851.616	0.0157998
851.694	0.0158047
851.772	0.0158219
851.850	0.0158739
851.928	0.0156744
852.006	0.0156796
852.084	0.0158522
852.163	0.0157921
852.241	0.0157710
852.319	0.0158499
852.397	0.0157870
852.475	0.0158900
852.553	0.0159314
852.631	0.0159718
852.709	0.0161013
852.788	0.0161557
852.866	0.0161509
852.944	0.0161699
853.022	0.0161716
853.100	0.0162872
853.178	0.0163323
853.256	0.0164317
853.334	0.0162077
853.413	0.0162707
853.491	0.0163913
853.569	0.0162907
853.647	0.0164862
853.725	0.0162955
853.803	0.0162186
853.881	0.0163508
853.959	0.0162677
854.038	0.0163622
854.116	0.0162793
854.194	0.0164182
854.272	0.0162037
854.350	0.0163848
854.428	0.0163544
854.506	0.0163370
854.584	0.0164628
854.663	0.0164501
854.741	0.0162504
854.819	0.0165271
854.897	0.0165665
854.975	0.0164355
855.053	0.0164499
855.131	0.0164747
855.209	0.0166027
855.288	0.0166783
855.366	0.0164885
855.444	0.0164427
855.522	0.0164909
855.600	0.0163689
855.678	0.0165718
855.756	0.0165260
855.834	0.0163486
855.913	0.0162302
855.991	0.0163918
856.069	0.0164439
856.147	0.0162608
856.225	0.0162103
856.303	0.0162669
856.381	0.0162341
856.459	0.0161844
856.538	0.0161703
856.616	0.0161172
856.694	0.0161850
856.772	0.0162528
856.850	0.0161855
856.928	0.0161314
857.006	0.0160699
857.084	0.0162123
857.163	0.0162579
857.241	0.0162556
857.319	0.0162145
857.397	0.0163908
857.475	0.0163213
857.553	0.0164793
857.631	0.0163609
857.709	0.0164989
857.788	0.0165353
857.866	0.0166202
857.944	0.0164577
858.022	0.0166003
858.100	0.0165279
858.178	0.0165045
858.256	0.0164455
858.334	0.0165828
858.413	0.0164931
858.491	0.0164970
858.569	0.0164744
858.647	0.0162994
858.725	0.0163052
858.803	0.0163352
858.881	0.0163126
858.959	0.0160523
859.038	0.0160663
859.116	0.0161123
859.194	0.0159972
859.272	0.0160439
859.350	0.0160527
859.428	0.0160101
859.506	0.0158679
859.584	0.0160139
859.663	0.0160100
859.741	0.0159625
859.819	0.0158700
859.897	0.0160071
859.975	0.0159871
860.053	0.0159315
860.131	0.0159955
860.209	0.0160298
860.288	0.0160293
860.366	0.0162328
860.444	0.0162607
860.522	0.0164114
860.600	0.0162944
860.678	0.0162742
860.756	0.0164462
860.834	0.0163512
860.913	0.0166373
860.991	0.0166857
861.069	0.0165567
861.147	0.0165994
861.225	0.0166301
861.303	0.0166622
861.381	0.0165828
861.459	0.0166569
861.538	0.0165997
861.616	0.0165619
861.694	0.0165092
861.772	0.0165919
861.850	0.0165498
861.928	0.0165976
862.006	0.0164558
862.084	0.0164598
862.163	0.0165333
862.241	0.0165813
862.319	0.0165656
862.397	0.0163738
862.475	0.0165134
862.553	0.0166243
862.631	0.0163925
862.709	0.0163712
862.788	0.0164832
862.866	0.0164602
862.944	0.0164535
863.022	0.0163708
863.100	0.0163570
863.178	0.0163832
863.256	0.0164826
863.334	0.0164118
863.413	0.0164707
863.491	0.0164194
863.569	0.0164211
863.647	0.0164222
863.725	0.0164448
863.803	0.0163038
863.881	0.0162688
863.959	0.0163919
864.038	0.0161808
864.116	0.0161600
864.194	0.0162276
864.272	0.0159941
864.350	0.0160524
864.428	0.0159266
864.506	0.0159235
864.584	0.0159328
864.663	0.0158981
864.741	0.0159930
864.819	0.0159377
864.897	0.0157938
864.975	0.0157259
865.053	0.0158234
865.131	0.0157552
865.209	0.0158454
865.288	0.0157816
865.366	0.0156741
865.444	0.0156554
865.522	0.0157155
865.600	0.0156730
865.678	0.0158712
865.756	0.0158291
865.834	0.0158277
865.913	0.0158373
865.991	0.0158075
866.069	0.0161179
866.147	0.0160656
866.225	0.0163139
866.303	0.0162653
866.381	0.0163639
866.459	0.0165502
866.538	0.0166864
866.616	0.0167133
866.694	0.0168039
866.772	0.0166612
866.850	0.0168761
866.928	0.0169040
867.006	0.0169975
867.084	0.0169038
867.163	0.0169960
867.241	0.0171405
867.319	0.0170158
867.397	0.0170921
867.475	0.0170446
867.553	0.0168532
867.631	0.0169164
867.709	0.0169784
867.788	0.0168078
867.866	0.0166600
867.944	0.0167959
868.022	0.0166602
868.100	0.0165654
868.178	0.0165671
868.256	0.0164846
868.334	0.0165130
868.413	0.0166129
868.491	0.0163150
868.569	0.0161919
868.647	0.0161806
868.725	0.0162614
868.803	0.0161839
868.881	0.0162024
868.959	0.0163517
869.038	0.0162428
869.116	0.0160921
869.194	0.0161969
869.272	0.0162043
869.350	0.0160261
869.428	0.0162489
869.506	0.0161336
869.584	0.0159209
869.663	0.0159832
869.741	0.0159708
869.819	0.0158388
869.897	0.0157619
869.975	0.0158734
870.053	0.0157165
870.131	0.0156470
870.209	0.0158280
870.288	0.0157427
870.366	0.0157561
870.444	0.0156902
870.522	0.0156990
870.600	0.0158011
870.678	0.0157803
870.756	0.0159332
870.834	0.0160575
870.913	0.0161208
870.991	0.0160216
871.069	0.0159644
871.147	0.0159190
871.225	0.0162363
871.303	0.0163046
871.381	0.0163033
871.459	0.0164033
871.538	0.0163835
871.616	0.0165088
871.694	0.0165849
871.772	0.0165884
871.850	0.0165839
871.928	0.0166070
872.006	0.0167043
872.084	0.0167162
872.163	0.0168164
872.241	0.0166736
872.319	0.0168156
872.397	0.0167142
872.475	0.0167343
872.553	0.0167103
872.631	0.0167332
872.709	0.0166736
872.788	0.0166791
872.866	0.0165241
872.944	0.0164658
873.022	0.0165929
873.100	0.0164799
873.178	0.0162331
873.256	0.0163525
873.334	0.0161725
873.413	0.0161069
873.491	0.0161734
873.569	0.0162238
873.647	0.0161280
873.725	0.0163231
873.803	0.0162486
873.881	0.0162148
873.959	0.0161679
874.038	0.0159909
874.116	0.0162715
874.194	0.0164533
874.272	0.0162390
874.350	0.0161335
874.428	0.0162418
874.506	0.0163009
874.584	0.0162708
874.663	0.0162051
874.741	0.0162845
874.819	0.0162530
874.897	0.0161946
874.975	0.0163188
875.053	0.0161962
875.131	0.0162469
875.209	0.0162998
875.288	0.0162449
875.366	0.0161393
875.444	0.0163493
875.522	0.0163414
875.600	0.0161851
875.678	0.0163296
875.756	0.0163982
875.834	0.0164316
875.913	0.0161407
875.991	0.0161904
876.069	0.0163160
876.147	0.0161710
876.225	0.0162122
876.303	0.0160661
876.381	0.0159674
876.459	0.0161202
876.538	0.0161843
876.616	0.0159910
876.694	0.0157621
876.772	0.0158492
876.850	0.0160997
876.928	0.0160123
877.006	0.0158548
877.084	0.0158808
877.163	0.0159464
877.241	0.0160329
877.319	0.0158990
877.397	0.0159739
877.475	0.0160169
877.553	0.0160880
877.631	0.0161460
877.709	0.0160085
877.788	0.0161879
877.866	0.0163207
877.944	0.0162721
878.022	0.0163506
878.100	0.0164114
878.178	0.0164919
878.256	0.0165035
878.334	0.0164881
878.413	0.0164635
878.491	0.0164693
878.569	0.0165296
878.647	0.0166016
878.725	0.0165901
878.803	0.0165520
878.881	0.0165311
878.959	0.0163589
879.038	0.0165553
879.116	0.0165033
879.194	0.0164536
879.272	0.0165127
879.350	0.0164583
879.428	0.0164417
879.506	0.0164529
879.584	0.0164964
879.663	0.0163713
879.741	0.0164084
879.819	0.0165028
879.897	0.0162731
879.975	0.0163457
880.053	0.0163896
880.131	0.0162185
880.209	0.0161047
880.288	0.0161892
880.366	0.0160960
880.444	0.0160918
880.522	0.0160534
880.600	0.0160772
880.678	0.0161885
880.756	0.0161002
880.834	0.0160954
880.913	0.0160352
880.991	0.0160493
881.069	0.0160274
881.147	0.0158543
881.225	0.0158452
881.303	0.0157761
881.381	0.0158666
881.459	0.0158860
881.538	0.0158631
881.616	0.0159624
881.694	0.0160310
881.772	0.0162860
881.850	0.0160996
881.928	0.0163451
882.006	0.0163284
882.084	0.0165141
882.163	0.0164253
882.241	0.0164619
882.319	0.0163419
882.397	0.0164756
882.475	0.0163790
882.553	0.0161918
882.631	0.0162630
882.709	0.0162241
882.788	0.0162121
882.866	0.0159918
882.944	0.0159747
883.022	0.0160446
883.100	0.0160376
883.178	0.0161728
883.256	0.0161752
883.334	0.0162779
883.413	0.0163280
883.491	0.0163583
883.569	0.0163731
883.647	0.0163649
883.725	0.0165395
883.803	0.0165517
883.881	0.0166591
883.959	0.0165534
884.038	0.0166711
884.116	0.0165822
884.194	0.0164963
884.272	0.0165932
884.350	0.0163863
884.428	0.0165395
884.506	0.0165017
884.584	0.0164597
884.663	0.0164499
884.741	0.0164191
884.819	0.0164674
884.897	0.0162962
884.975	0.0161033
885.053	0.0161676
885.131	0.0162305
885.209	0.0161032
885.288	0.0160594
885.366	0.0161885
885.444	0.0161808
885.522	0.0161664
885.600	0.0160771
885.678	0.0161124
885.756	0.0160373
885.834	0.0159901
885.913	0.0160253
885.991	0.0159037
886.069	0.0159019
886.147	0.0159734
886.225	0.0159457
886.303	0.0161005
886.381	0.0160558
886.459	0.0160123
886.538	0.0160505
886.616	0.0161865
886.694	0.0162429
886.772	0.0162572
886.850	0.0162972
886.928	0.0162114
887.006	0.0162758
887.084	0.0165714
887.163	0.0165129
887.241	0.0165105
887.319	0.0164809
887.397	0.0163214
887.475	0.0162872
887.553	0.0163850
887.631	0.0164971
887.709	0.0164144
887.788	0.0164095
887.866	0.0161945
887.944	0.0161851
888.022	0.0162595
888.100	0.0161597
888.178	0.0159163
888.256	0.0160864
888.334	0.0160860
888.413	0.0160902
888.491	0.0160992
888.569	0.0161414
888.647	0.0160783
888.725	0.0160999
888.803	0.0162719
888.881	0.0162000
888.959	0.0163305
889.038	0.0164629
889.116	0.0163802
889.194	0.0163334
889.272	0.0164708
889.350	0.0162883
889.428	0.0162492
889.506	0.0165264
889.584	0.0164887
889.663	0.0163409
889.741	0.0165705
889.819	0.0162846
889.897	0.0163875
889.975	0.0164230
890.053	0.0161892
890.131	0.0162278
890.209	0.0163915
890.288	0.0162280
890.366	0.0163444
890.444	0.0163126
890.522	0.0163161
890.600	0.0163725
890.678	0.0163901
890.756	0.0162653
890.834	0.0164765
890.913	0.0163039
890.991	0.0164017
891.069	0.0163358
891.147	0.0162411
891.225	0.0164114
891.303	0.0161175
891.381	0.0161829
891.459	0.0161175
891.538	0.0162222
891.616	0.0161808
891.694	0.0159585
891.772	0.0159157
891.850	0.0160139
891.928	0.0160243
892.006	0.0159519
892.084	0.0159879
892.163	0.0160970
892.241	0.0159991
892.319	0.0160544
892.397	0.0161398
892.475	0.0160564
892.553	0.0160835
892.631	0.0160769
892.709	0.0161269
892.788	0.0160181
892.866	0.0161374
892.944	0.0161253
893.022	0.0162888
893.100	0.0163966
893.178	0.0163271
893.256	0.0163964
893.334	0.0164611
893.413	0.0163396
893.491	0.0164249
893.569	0.0164163
893.647	0.0164254
893.725	0.0164548
893.803	0.0164520
893.881	0.0163050
893.959	0.0161310
894.038	0.0163649
894.116	0.0161479
894.194	0.0162291
894.272	0.0161665
894.350	0.0161085
894.428	0.0161898
894.506	0.0160944
894.584	0.0160782
894.663	0.0161037
894.741	0.0161223
894.819	0.0162273
894.897	0.0162402
894.975	0.0162009
895.053	0.0162653
895.131	0.0163777
895.209	0.0163622
895.288	0.0164252
895.366	0.0164822
895.444	0.0163246
895.522	0.0164969
895.600	0.0164188
895.678	0.0164249
895.756	0.0163583
895.834	0.0163251
895.913	0.0161319
895.991	0.0163198
896.069	0.0162512
896.147	0.0162577
896.225	0.0161672
896.303	0.0162659
896.381	0.0161890
896.459	0.0161617
896.538	0.0161981
896.616	0.0161137
896.694	0.0162020
896.772	0.0161385
896.850	0.0162237
896.928	0.0161193
897.006	0.0162753
897.084	0.0162221
897.163	0.0162234
897.241	0.0162696
897.319	0.0160635
897.397	0.0161039
897.475	0.0162036
897.553	0.0163003
897.631	0.0162642
897.709	0.0161418
897.788	0.0162400
897.866	0.0161880
897.944	0.0163585
898.022	0.0164858
898.100	0.0162780
898.178	0.0162839
898.256	0.0163146
898.334	0.0163091
898.413	0.0165165
898.491	0.0164210
898.569	0.0164403
898.647	0.0164419
898.725	0.0164324
898.803	0.0163455
898.881	0.0164458
898.959	0.0163425
899.038	0.0162340
899.116	0.0163101
899.194	0.0164387
899.272	0.0161897
899.350	0.0161595
899.428	0.0160486
899.506	0.0160476
899.584	0.0160323
899.663	0.0161133
899.741	0.0160838
899.819	0.0159946
899.897	0.0160786
899.975	0.0161039
900.053	0.0159629
900.131	0.0158745
900.209	0.0160789
900.288	0.0159631
900.366	0.0160284
900.444	0.0160764
900.522	0.0162243
900.600	0.0160360
900.678	0.0162230
900.756	0.0162166
900.834	0.0163855
900.913	0.0162858
900.991	0.0164099
901.069	0.0162585
901.147	0.0164397
901.225	0.0164536
901.303	0.0164555
901.381	0.0163046
901.459	0.0163577
901.538	0.0163396
901.616	0.0164060
901.694	0.0162666
901.772	0.0161803
901.850	0.0162304
901.928	0.0161500
902.006	0.0161365
902.084	0.0160139
902.163	0.0159312
902.241	0.0159750
902.319	0.0160467
902.397	0.0159933
902.475	0.0160692
902.553	0.0160611
902.631	0.0161762
902.709	0.0161002
902.788	0.0161289
902.866	0.0162000
902.944	0.0164700
903.022	0.0165000
903.100	0.0163764
903.178	0.0163699
903.256	0.0165187
903.334	0.0165269
903.413	0.0165932
903.491	0.0163551
903.569	0.0165873
903.647	0.0165115
903.725	0.0165576
903.803	0.0165659
903.881	0.0165164
903.959	0.0164802
904.038	0.0165094
904.116	0.0163293
904.194	0.0164686
904.272	0.0162680
904.350	0.0162946
904.428	0.0160303
904.506	0.0161960
904.584	0.0160644
904.663	0.0160870
904.741	0.0159612
904.819	0.0158748
904.897	0.0159556
904.975	0.0158855
905.053	0.0159784
905.131	0.0158404
905.209	0.0158793
905.288	0.0159489
905.366	0.0158624
905.444	0.0160381
905.522	0.0160661
905.600	0.0161705
905.678	0.0161964
905.756	0.0161364
905.834	0.0162518
905.913	0.0162490
905.991	0.0163929
906.069	0.0163398
906.147	0.0162416
906.225	0.0163046
906.303	0.0164004
906.381	0.0162993
906.459	0.0163521
906.538	0.0164123
906.616	0.0162867
906.694	0.0162804
906.772	0.0161999
906.850	0.0161597
906.928	0.0163171
907.006	0.0161526
907.084	0.0160738
907.163	0.0159785
907.241	0.0159431
907.319	0.0160764
907.397	0.0160636
907.475	0.0158312
907.553	0.0159258
907.631	0.0159903
907.709	0.0158894
907.788	0.0158511
907.866	0.0161090
907.944	0.0159888
908.022	0.0160726
908.100	0.0163013
908.178	0.0162540
908.256	0.0163042
908.334	0.0164505
908.413	0.0166261
908.491	0.0166664
908.569	0.0165945
908.647	0.0167190
908.725	0.0168694
908.803	0.0168534
908.881	0.0167821
908.959	0.0169514
909.038	0.0170724
909.116	0.0168691
909.194	0.0168543
909.272	0.0166946
909.350	0.0166824
909.428	0.0167100
909.506	0.0166048
909.584	0.0165601
909.663	0.0164377
909.741	0.0162403
909.819	0.0163547
909.897	0.0162476
909.975	0.0160133
910.053	0.0161924
910.131	0.0160416
910.209	0.0159853
910.288	0.0159285
910.366	0.0159453
910.444	0.0158801
910.522	0.0157999
910.600	0.0158718
910.678	0.0158245
910.756	0.0157568
910.834	0.0157786
910.913	0.0159796
910.991	0.0159573
911.069	0.0157735
911.147	0.0160899
911.225	0.0160291
911.303	0.0160514
911.381	0.0160614
911.459	0.0163287
911.538	0.0162746
911.616	0.0161542
911.694	0.0164104
911.772	0.0162725
911.850	0.0162980
911.928	0.0162690
912.006	0.0161541
912.084	0.0164385
912.163	0.0163048
912.241	0.0162814
912.319	0.0163783
912.397	0.0164286
912.475	0.0163068
912.553	0.0163107
912.631	0.0164936
912.709	0.0163184
912.788	0.0164352
912.866	0.0163617
912.944	0.0162618
913.022	0.0163682
913.100	0.0164204
913.178	0.0164600
913.256	0.0164371
913.334	0.0166100
913.413	0.0163944
913.491	0.0163308
913.569	0.0163943
913.647	0.0162824
913.725	0.0162998
913.803	0.0161898
913.881	0.0160597
913.959	0.0161370
914.038	0.0160415
914.116	0.0161621
914.194	0.0160662
914.272	0.0161598
914.350	0.0160746
914.428	0.0161240
914.506	0.0160101
914.584	0.0160416
914.663	0.0162009
914.741	0.0160117
914.819	0.0161165
914.897	0.0159944
914.975	0.0159776
915.053	0.0161395
915.131	0.0161526
915.209	0.0160916
915.288	0.0161504
915.366	0.0161270
915.444	0.0161280
915.522	0.0161704
915.600	0.0163462
915.678	0.0162151
915.756	0.0163202
915.834	0.0164902
915.913	0.0164985
915.991	0.0164380
916.069	0.0164792
916.147	0.0165381
916.225	0.0165973
916.303	0.0164902
916.381	0.0166550
916.459	0.0166714
916.538	0.0166833
916.616	0.0165498
916.694	0.0164843
916.772	0.0166209
916.850	0.0165887
916.928	0.0164671
917.006	0.0165282
917.084	0.0164513
917.163	0.0165050
917.241	0.0163219
917.319	0.0163690
917.397	0.0163026
917.475	0.0161331
917.553	0.0160917
917.631	0.0159332
917.709	0.0159526
917.788	0.0159314
917.866	0.0157864
917.944	0.0158824
918.022	0.0159003
918.100	0.0158595
918.178	0.0157607
918.256	0.0157320
918.334	0.0158840
918.413	0.0158556
918.491	0.0158546
918.569	0.0160431
918.647	0.0160541
918.725	0.0160597
918.803	0.0161646
918.881	0.0161463
918.959	0.0163347
919.038	0.0162510
919.116	0.0163267
919.194	0.0164685
919.272	0.0163560
919.350	0.0164470
919.428	0.0165249
919.506	0.0164651
919.584	0.0165148
919.663	0.0165368
919.741	0.0164542
919.819	0.0163451
919.897	0.0163387
