06/01/2022	18:01:49	Ver.	4.1	UNKNOWN
Optical Delay	539.993571	Delta X		0.078125	Sweeps	1	Scan Rate	0/0
Coordinates	Axis 1	NaN	Axis 2	NaN	Axis 3	NaN	Axis 4	NaN	Axis 5	NaN	Axis 6	0.000000
TX Power	0.000000	RX Power	0.000000

539.994	0.0171181
540.072	0.0167213
540.150	0.0167441
540.228	0.0165656
540.306	0.0163496
540.384	0.0164535
540.462	0.0164571
540.540	0.0164874
540.619	0.0163077
540.697	0.0162840
540.775	0.0164571
540.853	0.0164736
540.931	0.0163383
541.009	0.0163182
541.087	0.0164041
541.165	0.0165319
541.244	0.0164266
541.322	0.0162653
541.400	0.0164229
541.478	0.0165780
541.556	0.0162893
541.634	0.0164497
541.712	0.0162936
541.790	0.0165403
541.869	0.0165920
541.947	0.0163878
542.025	0.0164574
542.103	0.0165789
542.181	0.0166096
542.259	0.0165163
542.337	0.0166528
542.415	0.0167012
542.494	0.0168354
542.572	0.0168861
542.650	0.0168450
542.728	0.0170213
542.806	0.0167965
542.884	0.0168530
542.962	0.0169609
543.040	0.0169739
543.119	0.0169196
543.197	0.0169190
543.275	0.0169732
543.353	0.0168948
543.431	0.0169157
543.509	0.0169578
543.587	0.0169225
543.665	0.0170097
543.744	0.0168339
543.822	0.0168417
543.900	0.0168335
543.978	0.0169673
544.056	0.0169265
544.134	0.0168578
544.212	0.0169180
544.290	0.0169967
544.369	0.0169872
544.447	0.0170221
544.525	0.0169553
544.603	0.0169906
544.681	0.0169270
544.759	0.0170713
544.837	0.0169307
544.915	0.0170096
544.994	0.0169183
545.072	0.0168059
545.150	0.0168264
545.228	0.0169223
545.306	0.0168681
545.384	0.0166761
545.462	0.0167103
545.540	0.0167822
545.619	0.0165675
545.697	0.0166500
545.775	0.0166059
545.853	0.0167167
545.931	0.0165495
546.009	0.0165881
546.087	0.0165652
546.165	0.0166340
546.244	0.0165569
546.322	0.0166225
546.400	0.0167254
546.478	0.0166531
546.556	0.0167373
546.634	0.0168996
546.712	0.0168183
546.790	0.0167981
546.869	0.0168597
546.947	0.0168546
547.025	0.0169640
547.103	0.0168918
547.181	0.0168919
547.259	0.0169394
547.337	0.0168504
547.415	0.0170196
547.494	0.0171371
547.572	0.0170731
547.650	0.0170430
547.728	0.0170485
547.806	0.0171122
547.884	0.0170792
547.962	0.0170946
548.040	0.0170475
548.119	0.0171494
548.197	0.0171200
548.275	0.0170818
548.353	0.0170013
548.431	0.0170242
548.509	0.0171445
548.587	0.0170615
548.665	0.0170065
548.744	0.0171061
548.822	0.0171861
548.900	0.0170914
548.978	0.0170284
549.056	0.0172075
549.134	0.0171318
549.212	0.0172520
549.290	0.0171136
549.369	0.0172660
549.447	0.0173233
549.525	0.0172756
549.603	0.0172169
549.681	0.0173161
549.759	0.0172846
549.837	0.0173026
549.915	0.0172748
549.994	0.0171359
550.072	0.0170082
550.150	0.0170708
550.228	0.0169404
550.306	0.0170422
550.384	0.0169945
550.462	0.0169626
550.540	0.0169472
550.619	0.0169476
550.697	0.0168652
550.775	0.0169769
550.853	0.0169788
550.931	0.0171241
551.009	0.0169278
551.087	0.0168347
551.165	0.0170858
551.244	0.0169860
551.322	0.0169765
551.400	0.0169924
551.478	0.0169524
551.556	0.0169489
551.634	0.0169454
551.712	0.0169334
551.790	0.0169159
551.869	0.0169513
551.947	0.0167740
552.025	0.0167773
552.103	0.0168316
552.181	0.0167400
552.259	0.0166646
552.337	0.0166239
552.415	0.0165203
552.494	0.0165937
552.572	0.0166385
552.650	0.0165939
552.728	0.0166602
552.806	0.0166777
552.884	0.0167094
552.962	0.0167780
553.040	0.0168037
553.119	0.0166535
553.197	0.0166811
553.275	0.0166843
553.353	0.0167306
553.431	0.0166643
553.509	0.0168586
553.587	0.0168941
553.665	0.0167633
553.744	0.0167731
553.822	0.0167268
553.900	0.0165991
553.978	0.0166204
554.056	0.0167252
554.134	0.0165858
554.212	0.0163959
554.290	0.0164442
554.369	0.0163335
554.447	0.0162915
554.525	0.0164809
554.603	0.0164223
554.681	0.0164958
554.759	0.0165270
554.837	0.0165511
554.915	0.0166368
554.994	0.0167571
555.072	0.0168993
555.150	0.0167892
555.228	0.0169698
555.306	0.0170723
555.384	0.0172228
555.462	0.0172909
555.540	0.0171630
555.619	0.0170674
555.697	0.0171151
555.775	0.0171793
555.853	0.0170300
555.931	0.0171822
556.009	0.0170640
556.087	0.0170668
556.165	0.0170203
556.244	0.0170492
556.322	0.0170660
556.400	0.0170861
556.478	0.0170658
556.556	0.0169606
556.634	0.0170454
556.712	0.0170287
556.790	0.0169778
556.869	0.0170805
556.947	0.0168941
557.025	0.0168851
557.103	0.0169120
557.181	0.0170194
557.259	0.0169207
557.337	0.0167767
557.415	0.0167960
557.494	0.0167419
557.572	0.0167229
557.650	0.0166743
557.728	0.0166040
557.806	0.0166553
557.884	0.0165843
557.962	0.0166955
558.040	0.0168450
558.119	0.0166223
558.197	0.0166491
558.275	0.0166030
558.353	0.0167918
558.431	0.0167383
558.509	0.0168185
558.587	0.0167328
558.665	0.0167061
558.744	0.0168958
558.822	0.0167595
558.900	0.0168250
558.978	0.0167619
559.056	0.0169173
559.134	0.0168197
559.212	0.0169667
559.290	0.0170036
559.369	0.0169360
559.447	0.0169729
559.525	0.0169428
559.603	0.0167023
559.681	0.0166317
559.759	0.0165382
559.837	0.0164111
559.915	0.0164489
559.994	0.0163358
560.072	0.0162885
560.150	0.0162025
560.228	0.0160732
560.306	0.0158929
560.384	0.0159854
560.462	0.0160359
560.540	0.0159484
560.619	0.0159586
560.697	0.0160804
560.775	0.0160207
560.853	0.0161128
560.931	0.0162039
561.009	0.0163272
561.087	0.0164114
561.165	0.0164024
561.244	0.0165044
561.322	0.0165156
561.400	0.0165163
561.478	0.0167043
561.556	0.0167982
561.634	0.0167167
561.712	0.0165947
561.790	0.0166210
561.869	0.0167036
561.947	0.0167007
562.025	0.0164539
562.103	0.0164046
562.181	0.0163481
562.259	0.0162991
562.337	0.0163204
562.415	0.0160171
562.494	0.0160852
562.572	0.0159668
562.650	0.0159751
562.728	0.0159476
562.806	0.0158535
562.884	0.0157803
562.962	0.0160025
563.040	0.0158136
563.119	0.0157826
563.197	0.0159959
563.275	0.0161182
563.353	0.0161517
563.431	0.0162431
563.509	0.0164265
563.587	0.0163358
563.665	0.0164491
563.744	0.0165292
563.822	0.0165092
563.900	0.0167558
563.978	0.0168900
564.056	0.0168478
564.134	0.0168086
564.212	0.0169882
564.290	0.0169686
564.369	0.0170071
564.447	0.0170055
564.525	0.0170987
564.603	0.0172243
564.681	0.0171693
564.759	0.0171304
564.837	0.0170993
564.915	0.0171054
564.994	0.0172325
565.072	0.0171468
565.150	0.0170250
565.228	0.0169780
565.306	0.0170538
565.384	0.0169595
565.462	0.0169243
565.540	0.0168129
565.619	0.0166404
565.697	0.0166357
565.775	0.0165445
565.853	0.0165095
565.931	0.0164488
566.009	0.0163981
566.087	0.0163944
566.165	0.0164606
566.244	0.0162634
566.322	0.0163857
566.400	0.0164803
566.478	0.0165226
566.556	0.0165790
566.634	0.0164151
566.712	0.0166048
566.790	0.0165499
566.869	0.0165242
566.947	0.0165039
567.025	0.0164477
567.103	0.0165036
567.181	0.0165535
567.259	0.0165359
567.337	0.0165580
567.415	0.0165766
567.494	0.0166118
567.572	0.0164648
567.650	0.0167547
567.728	0.0166683
567.806	0.0166898
567.884	0.0165519
567.962	0.0167536
568.040	0.0167152
568.119	0.0166143
568.197	0.0168526
568.275	0.0168930
568.353	0.0167002
568.431	0.0168282
568.509	0.0169913
568.587	0.0169534
568.665	0.0171632
568.744	0.0171030
568.822	0.0171492
568.900	0.0171320
568.978	0.0173358
569.056	0.0174368
569.134	0.0172993
569.212	0.0172311
569.290	0.0172911
569.369	0.0171371
569.447	0.0170268
569.525	0.0171698
569.603	0.0171215
569.681	0.0169060
569.759	0.0166740
569.837	0.0169276
569.915	0.0167674
569.994	0.0165939
570.072	0.0164973
570.150	0.0163611
570.228	0.0163544
570.306	0.0163821
570.384	0.0161021
570.462	0.0161500
570.540	0.0160835
570.619	0.0161096
570.697	0.0158482
570.775	0.0160281
570.853	0.0161031
570.931	0.0161102
571.009	0.0160239
571.087	0.0160453
571.165	0.0159935
571.244	0.0161082
571.322	0.0160784
571.400	0.0160590
571.478	0.0159781
571.556	0.0160193
571.634	0.0161250
571.712	0.0160097
571.790	0.0160213
571.869	0.0160051
571.947	0.0160017
572.025	0.0160177
572.103	0.0161517
572.181	0.0159685
572.259	0.0159904
572.337	0.0160651
572.415	0.0159723
572.494	0.0158890
572.572	0.0160532
572.650	0.0161404
572.728	0.0159935
572.806	0.0161160
572.884	0.0162611
572.962	0.0162156
573.040	0.0162876
573.119	0.0163718
573.197	0.0165177
573.275	0.0166069
573.353	0.0165270
573.431	0.0167575
573.509	0.0169337
573.587	0.0169218
573.665	0.0167368
573.744	0.0169748
573.822	0.0171110
573.900	0.0171219
573.978	0.0171742
574.056	0.0172074
574.134	0.0172121
574.212	0.0173216
574.290	0.0174520
574.369	0.0174751
574.447	0.0174883
574.525	0.0174652
574.603	0.0174374
574.681	0.0175983
574.759	0.0176064
574.837	0.0175322
574.915	0.0174221
574.994	0.0173657
575.072	0.0171981
575.150	0.0172408
575.228	0.0172274
575.306	0.0171190
575.384	0.0171136
575.462	0.0170766
575.540	0.0169736
575.619	0.0168760
575.697	0.0168688
575.775	0.0165559
575.853	0.0166700
575.931	0.0166483
576.009	0.0166708
576.087	0.0166721
576.165	0.0165189
576.244	0.0166244
576.322	0.0165025
576.400	0.0165173
576.478	0.0167219
576.556	0.0167290
576.634	0.0167342
576.712	0.0166193
576.790	0.0167337
576.869	0.0169894
576.947	0.0168834
577.025	0.0168971
577.103	0.0169533
577.181	0.0168645
577.259	0.0171685
577.337	0.0170551
577.415	0.0171515
577.494	0.0171304
577.572	0.0171275
577.650	0.0171795
577.728	0.0171760
577.806	0.0171309
577.884	0.0171466
577.962	0.0171393
578.040	0.0171336
578.119	0.0171061
578.197	0.0171704
578.275	0.0170728
578.353	0.0171191
578.431	0.0171428
578.509	0.0171452
578.587	0.0173057
578.665	0.0172284
578.744	0.0171222
578.822	0.0172221
578.900	0.0171906
578.978	0.0170355
579.056	0.0171259
579.134	0.0170727
579.212	0.0171388
579.290	0.0171333
579.369	0.0170794
579.447	0.0171170
579.525	0.0170031
579.603	0.0169799
579.681	0.0168630
579.759	0.0168401
579.837	0.0168639
579.915	0.0168707
579.994	0.0166889
580.072	0.0168974
580.150	0.0168039
580.228	0.0165369
580.306	0.0166101
580.384	0.0165186
580.462	0.0166179
580.540	0.0164495
580.619	0.0165076
580.697	0.0165971
580.775	0.0164472
580.853	0.0164531
580.931	0.0164934
581.009	0.0163843
581.087	0.0165032
581.165	0.0165141
581.244	0.0164491
581.322	0.0163371
581.400	0.0162634
581.478	0.0163152
581.556	0.0162451
581.634	0.0162682
581.712	0.0161436
581.790	0.0159943
581.869	0.0159840
581.947	0.0161066
582.025	0.0160326
582.103	0.0159042
582.181	0.0158904
582.259	0.0158937
582.337	0.0158172
582.415	0.0158137
582.494	0.0159795
582.572	0.0157852
582.650	0.0156391
582.728	0.0157747
582.806	0.0158215
582.884	0.0156084
582.962	0.0156978
583.040	0.0156155
583.119	0.0156253
583.197	0.0156998
583.275	0.0156824
583.353	0.0156534
583.431	0.0156882
583.509	0.0158781
583.587	0.0157113
583.665	0.0156808
583.744	0.0158244
583.822	0.0157114
583.900	0.0156670
583.978	0.0156689
584.056	0.0157789
584.134	0.0157608
584.212	0.0158290
584.290	0.0158764
584.369	0.0157394
584.447	0.0159045
584.525	0.0159507
584.603	0.0160375
584.681	0.0162571
584.759	0.0163804
584.837	0.0162978
584.915	0.0164153
584.994	0.0166384
585.072	0.0167355
585.150	0.0167556
585.228	0.0169863
585.306	0.0171058
585.384	0.0171598
585.462	0.0172314
585.540	0.0173596
585.619	0.0173510
585.697	0.0174042
585.775	0.0173535
585.853	0.0172593
585.931	0.0172696
586.009	0.0172608
586.087	0.0172407
586.165	0.0171697
586.244	0.0170822
586.322	0.0171257
586.400	0.0168751
586.478	0.0167385
586.556	0.0166837
586.634	0.0164870
586.712	0.0164825
586.790	0.0165656
586.869	0.0162138
586.947	0.0161720
587.025	0.0160635
587.103	0.0159641
587.181	0.0158161
587.259	0.0158818
587.337	0.0157865
587.415	0.0156336
587.494	0.0155457
587.572	0.0156309
587.650	0.0156889
587.728	0.0154913
587.806	0.0155879
587.884	0.0157365
587.962	0.0158415
588.040	0.0157794
588.119	0.0159071
588.197	0.0158333
588.275	0.0160632
588.353	0.0162661
588.431	0.0162865
588.509	0.0161906
588.587	0.0164230
588.665	0.0164137
588.744	0.0164079
588.822	0.0164926
588.900	0.0165304
588.978	0.0164721
589.056	0.0166014
589.134	0.0166116
589.212	0.0166286
589.290	0.0167309
589.369	0.0166785
589.447	0.0167231
589.525	0.0167669
589.603	0.0168491
589.681	0.0168270
589.759	0.0169120
589.837	0.0170074
589.915	0.0168468
589.994	0.0170198
590.072	0.0171869
590.150	0.0168851
590.228	0.0169789
590.306	0.0169565
590.384	0.0169392
590.462	0.0170794
590.540	0.0170880
590.619	0.0170493
590.697	0.0171049
590.775	0.0170691
590.853	0.0171980
590.931	0.0172144
591.009	0.0171915
591.087	0.0170460
591.165	0.0171082
591.244	0.0171267
591.322	0.0170799
591.400	0.0170040
591.478	0.0169822
591.556	0.0169940
591.634	0.0167797
591.712	0.0167531
591.790	0.0166477
591.869	0.0166005
591.947	0.0165601
592.025	0.0165067
592.103	0.0166265
592.181	0.0164362
592.259	0.0165632
592.337	0.0168086
592.415	0.0167988
592.494	0.0167464
592.572	0.0170105
592.650	0.0170885
592.728	0.0170803
592.806	0.0172090
592.884	0.0173614
592.962	0.0171740
593.040	0.0173129
593.119	0.0172756
593.197	0.0172868
593.275	0.0171004
593.353	0.0173630
593.431	0.0173128
593.509	0.0172067
593.587	0.0171370
593.665	0.0171530
593.744	0.0171495
593.822	0.0173032
593.900	0.0172643
593.978	0.0171283
594.056	0.0170743
594.134	0.0169543
594.212	0.0169124
594.290	0.0169822
594.369	0.0168436
594.447	0.0168956
594.525	0.0168555
594.603	0.0166349
594.681	0.0165791
594.759	0.0166605
594.837	0.0166826
594.915	0.0165399
594.994	0.0165404
595.072	0.0165439
595.150	0.0165359
595.228	0.0164908
595.306	0.0165316
595.384	0.0165163
595.462	0.0162949
595.540	0.0163988
595.619	0.0162877
595.697	0.0162167
595.775	0.0160178
595.853	0.0159505
595.931	0.0159285
596.009	0.0159940
596.087	0.0159009
596.165	0.0159035
596.244	0.0158978
596.322	0.0159293
596.400	0.0160894
596.478	0.0162706
596.556	0.0163792
596.634	0.0164981
596.712	0.0164272
596.790	0.0165634
596.869	0.0165321
596.947	0.0165688
597.025	0.0164259
597.103	0.0164492
597.181	0.0162166
597.259	0.0162196
597.337	0.0163074
597.415	0.0162008
597.494	0.0162167
597.572	0.0162376
597.650	0.0161423
597.728	0.0163161
597.806	0.0164459
597.884	0.0163544
597.962	0.0164147
598.040	0.0165694
598.119	0.0165556
598.197	0.0164896
598.275	0.0167596
598.353	0.0167402
598.431	0.0166786
598.509	0.0167702
598.587	0.0168383
598.665	0.0168745
598.744	0.0169056
598.822	0.0169077
598.900	0.0171138
598.978	0.0170658
599.056	0.0171782
599.134	0.0172092
599.212	0.0172577
599.290	0.0172060
599.369	0.0172206
599.447	0.0173602
599.525	0.0173555
599.603	0.0173385
599.681	0.0173660
599.759	0.0173214
599.837	0.0173309
599.915	0.0173936
599.994	0.0174181
600.072	0.0175101
600.150	0.0174486
600.228	0.0174143
600.306	0.0174619
600.384	0.0174023
600.462	0.0174600
600.540	0.0174380
600.619	0.0173683
600.697	0.0173954
600.775	0.0173605
600.853	0.0173156
600.931	0.0174390
601.009	0.0174258
601.087	0.0172615
601.165	0.0173494
601.244	0.0174686
601.322	0.0175008
601.400	0.0176121
601.478	0.0174954
601.556	0.0176595
601.634	0.0175655
601.712	0.0175970
601.790	0.0176175
601.869	0.0177184
601.947	0.0175294
602.025	0.0173819
602.103	0.0174289
602.181	0.0173548
602.259	0.0171850
602.337	0.0171496
602.415	0.0169778
602.494	0.0169754
602.572	0.0167864
602.650	0.0168435
602.728	0.0166633
602.806	0.0165589
602.884	0.0164650
602.962	0.0166549
603.040	0.0165214
603.119	0.0164793
603.197	0.0164068
603.275	0.0163697
603.353	0.0164393
603.431	0.0164066
603.509	0.0164178
603.587	0.0165054
603.665	0.0165868
603.744	0.0166109
603.822	0.0166119
603.900	0.0165071
603.978	0.0164693
604.056	0.0166146
604.134	0.0164916
604.212	0.0164104
604.290	0.0163664
604.369	0.0164223
604.447	0.0164810
604.525	0.0164433
604.603	0.0163318
604.681	0.0163088
604.759	0.0163947
604.837	0.0164291
604.915	0.0164358
604.994	0.0163880
605.072	0.0165882
605.150	0.0167776
605.228	0.0167196
605.306	0.0167854
605.384	0.0169299
605.462	0.0169097
605.540	0.0169925
605.619	0.0170059
605.697	0.0170044
605.775	0.0170304
605.853	0.0169260
605.931	0.0170404
606.009	0.0170483
606.087	0.0169418
606.165	0.0169691
606.244	0.0169688
606.322	0.0169576
606.400	0.0168497
606.478	0.0169812
606.556	0.0168375
606.634	0.0167822
606.712	0.0167735
606.790	0.0167200
606.869	0.0167905
606.947	0.0167574
607.025	0.0166695
607.103	0.0166060
607.181	0.0163486
607.259	0.0164328
607.337	0.0164417
607.415	0.0164622
607.494	0.0162441
607.572	0.0161341
607.650	0.0161813
607.728	0.0162341
607.806	0.0161660
607.884	0.0162209
607.962	0.0161408
608.040	0.0162383
608.119	0.0164241
608.197	0.0165199
608.275	0.0165231
608.353	0.0164452
608.431	0.0165247
608.509	0.0166549
608.587	0.0165999
608.665	0.0166049
608.744	0.0166842
608.822	0.0167463
608.900	0.0166682
608.978	0.0165783
609.056	0.0166130
609.134	0.0166740
609.212	0.0168317
609.290	0.0167290
609.369	0.0166075
609.447	0.0166938
609.525	0.0167798
609.603	0.0168074
609.681	0.0167303
609.759	0.0168247
609.837	0.0166978
609.915	0.0167054
609.994	0.0168481
610.072	0.0168247
610.150	0.0168626
610.228	0.0168901
610.306	0.0168221
610.384	0.0169497
610.462	0.0169049
610.540	0.0170321
610.619	0.0170713
610.697	0.0170018
610.775	0.0170081
610.853	0.0168756
610.931	0.0170143
611.009	0.0169080
611.087	0.0169888
611.165	0.0169166
611.244	0.0169807
611.322	0.0168590
611.400	0.0166441
611.478	0.0167504
611.556	0.0167536
611.634	0.0166373
611.712	0.0165730
611.790	0.0165314
611.869	0.0165670
611.947	0.0165869
612.025	0.0165554
612.103	0.0165858
612.181	0.0163625
612.259	0.0163028
612.337	0.0164507
612.415	0.0163686
612.494	0.0163248
612.572	0.0161835
612.650	0.0162462
612.728	0.0161581
612.806	0.0161788
612.884	0.0161552
612.962	0.0162783
613.040	0.0163142
613.119	0.0160293
613.197	0.0160992
613.275	0.0161830
613.353	0.0159941
613.431	0.0161005
613.509	0.0160398
613.587	0.0161829
613.665	0.0162079
613.744	0.0162621
613.822	0.0162792
613.900	0.0163229
613.978	0.0163569
614.056	0.0163273
614.134	0.0162701
614.212	0.0164241
614.290	0.0164938
614.369	0.0164056
614.447	0.0164664
614.525	0.0166528
614.603	0.0166163
614.681	0.0167418
614.759	0.0169103
614.837	0.0168667
614.915	0.0170213
614.994	0.0170007
615.072	0.0170968
615.150	0.0171816
615.228	0.0172359
615.306	0.0172012
615.384	0.0173418
615.462	0.0174413
615.540	0.0174173
615.619	0.0174015
615.697	0.0174226
615.775	0.0175764
615.853	0.0174642
615.931	0.0174720
616.009	0.0174673
616.087	0.0174973
616.165	0.0172175
616.244	0.0173178
616.322	0.0174034
616.400	0.0173145
616.478	0.0173779
616.556	0.0173364
616.634	0.0173496
616.712	0.0174559
616.790	0.0175253
616.869	0.0175228
616.947	0.0176897
617.025	0.0176758
617.103	0.0175186
617.181	0.0176955
617.259	0.0177071
617.337	0.0177950
617.415	0.0179040
617.494	0.0178632
617.572	0.0178439
617.650	0.0177279
617.728	0.0176308
617.806	0.0177102
617.884	0.0176056
617.962	0.0175432
618.040	0.0176406
618.119	0.0174417
618.197	0.0174822
618.275	0.0174252
618.353	0.0174368
618.431	0.0173616
618.509	0.0173064
618.587	0.0174933
618.665	0.0173532
618.744	0.0173337
618.822	0.0172010
618.900	0.0171719
618.978	0.0171075
619.056	0.0171181
619.134	0.0171156
619.212	0.0169764
619.290	0.0168833
619.369	0.0168995
619.447	0.0168382
619.525	0.0170524
619.603	0.0168771
619.681	0.0169958
619.759	0.0171127
619.837	0.0171557
619.915	0.0171772
619.994	0.0172754
620.072	0.0174634
620.150	0.0175961
620.228	0.0175516
620.306	0.0176034
620.384	0.0178117
620.462	0.0177949
620.540	0.0178275
620.619	0.0176450
620.697	0.0177119
620.775	0.0175617
620.853	0.0176129
620.931	0.0177194
621.009	0.0176109
621.087	0.0177187
621.165	0.0177309
621.244	0.0178436
621.322	0.0177509
621.400	0.0176675
621.478	0.0175330
621.556	0.0174500
621.634	0.0173650
621.712	0.0170864
621.790	0.0168893
621.869	0.0165864
621.947	0.0164488
622.025	0.0164523
622.103	0.0162823
622.181	0.0161182
622.259	0.0161740
622.337	0.0162742
622.415	0.0162881
622.494	0.0162579
622.572	0.0161213
622.650	0.0163451
622.728	0.0164093
622.806	0.0163030
622.884	0.0163025
622.962	0.0162652
623.040	0.0163789
623.119	0.0163330
623.197	0.0162914
623.275	0.0161931
623.353	0.0162411
623.431	0.0160304
623.509	0.0161479
623.587	0.0162101
623.665	0.0160850
623.744	0.0160727
623.822	0.0161591
623.900	0.0161507
623.978	0.0160250
624.056	0.0161538
624.134	0.0161240
624.212	0.0161626
624.290	0.0159929
624.369	0.0159839
624.447	0.0160967
624.525	0.0160902
624.603	0.0160852
624.681	0.0160379
624.759	0.0161852
624.837	0.0161035
624.915	0.0162531
624.994	0.0162546
625.072	0.0163467
625.150	0.0162208
625.228	0.0162900
625.306	0.0165865
625.384	0.0165689
625.462	0.0166643
625.540	0.0167787
625.619	0.0168376
625.697	0.0168883
625.775	0.0170704
625.853	0.0171622
625.931	0.0170873
626.009	0.0172976
626.087	0.0172811
626.165	0.0174827
626.244	0.0173920
626.322	0.0172495
626.400	0.0174496
626.478	0.0173952
626.556	0.0172127
626.634	0.0172565
626.712	0.0172480
626.790	0.0172381
626.869	0.0171689
626.947	0.0171041
627.025	0.0172242
627.103	0.0172702
627.181	0.0171788
627.259	0.0171289
627.337	0.0172035
627.415	0.0170830
627.494	0.0170259
627.572	0.0170722
627.650	0.0171606
627.728	0.0169469
627.806	0.0168773
627.884	0.0169105
627.962	0.0168929
628.040	0.0169781
628.119	0.0170813
628.197	0.0170122
628.275	0.0170451
628.353	0.0169444
628.431	0.0169381
628.509	0.0170406
628.587	0.0168739
628.665	0.0169823
628.744	0.0170741
628.822	0.0169176
628.900	0.0168321
628.978	0.0170535
629.056	0.0168153
629.134	0.0168634
629.212	0.0168990
629.290	0.0166588
629.369	0.0169077
629.447	0.0167207
629.525	0.0165997
629.603	0.0165958
629.681	0.0165826
629.759	0.0166161
629.837	0.0164370
629.915	0.0165897
629.994	0.0165701
630.072	0.0165779
630.150	0.0166623
630.228	0.0165436
630.306	0.0168151
630.384	0.0166869
630.462	0.0169240
630.540	0.0167977
630.619	0.0168375
630.697	0.0170216
630.775	0.0168291
630.853	0.0170145
630.931	0.0170322
631.009	0.0169647
631.087	0.0170773
631.165	0.0169079
631.244	0.0169525
631.322	0.0169524
631.400	0.0167863
631.478	0.0168837
631.556	0.0167715
631.634	0.0169285
631.712	0.0167831
631.790	0.0166550
631.869	0.0165688
631.947	0.0165054
632.025	0.0167880
632.103	0.0167681
632.181	0.0166193
632.259	0.0166235
632.337	0.0165959
632.415	0.0166748
632.494	0.0167482
632.572	0.0166103
632.650	0.0167133
632.728	0.0168008
632.806	0.0168258
632.884	0.0169225
632.962	0.0169023
633.040	0.0168221
633.119	0.0167487
633.197	0.0168111
633.275	0.0169642
633.353	0.0169342
633.431	0.0168115
633.509	0.0167367
633.587	0.0168874
633.665	0.0168105
633.744	0.0167819
633.822	0.0167727
633.900	0.0167716
633.978	0.0168195
634.056	0.0168510
634.134	0.0168423
634.212	0.0167461
634.290	0.0167364
634.369	0.0167367
634.447	0.0168188
634.525	0.0170107
634.603	0.0168385
634.681	0.0167382
634.759	0.0169095
634.837	0.0167921
634.915	0.0165987
634.994	0.0167244
635.072	0.0166800
635.150	0.0167542
635.228	0.0167758
635.306	0.0165749
635.384	0.0165425
635.462	0.0165724
635.540	0.0166409
635.619	0.0165208
635.697	0.0165077
635.775	0.0165080
635.853	0.0164732
635.931	0.0163748
636.009	0.0165641
636.087	0.0166381
636.165	0.0166261
636.244	0.0167343
636.322	0.0168386
636.400	0.0166973
636.478	0.0167355
636.556	0.0167400
636.634	0.0169023
636.712	0.0168983
636.790	0.0168133
636.869	0.0168009
636.947	0.0168843
637.025	0.0168056
637.103	0.0167565
637.181	0.0168100
637.259	0.0168625
637.337	0.0167303
637.415	0.0167476
637.494	0.0168471
637.572	0.0168520
637.650	0.0167057
637.728	0.0168019
637.806	0.0170658
637.884	0.0169891
637.962	0.0168691
638.040	0.0169278
638.119	0.0171149
638.197	0.0170462
638.275	0.0171103
638.353	0.0171637
638.431	0.0170767
638.509	0.0170911
638.587	0.0168805
638.665	0.0170701
638.744	0.0170425
638.822	0.0170011
638.900	0.0168694
638.978	0.0168644
639.056	0.0168291
639.134	0.0168594
639.212	0.0169131
639.290	0.0168798
639.369	0.0168325
639.447	0.0167808
639.525	0.0168148
639.603	0.0166721
639.681	0.0166900
639.759	0.0166360
639.837	0.0165916
639.915	0.0166277
639.994	0.0167157
640.072	0.0166896
640.150	0.0167929
640.228	0.0167065
640.306	0.0166389
640.384	0.0168600
640.462	0.0166599
640.540	0.0167840
640.619	0.0167783
640.697	0.0167834
640.775	0.0168712
640.853	0.0169035
640.931	0.0169418
641.009	0.0169421
641.087	0.0169696
641.165	0.0170065
641.244	0.0169585
641.322	0.0171642
641.400	0.0172507
641.478	0.0172771
641.556	0.0173402
641.634	0.0171329
641.712	0.0171428
641.790	0.0173023
641.869	0.0172797
641.947	0.0174514
642.025	0.0173687
642.103	0.0171116
642.181	0.0171346
642.259	0.0171006
642.337	0.0170956
642.415	0.0171899
642.494	0.0169859
642.572	0.0171558
642.650	0.0170529
642.728	0.0168648
642.806	0.0170056
642.884	0.0169461
642.962	0.0168732
643.040	0.0168766
643.119	0.0167472
643.197	0.0169685
643.275	0.0168822
643.353	0.0167992
643.431	0.0168819
643.509	0.0169121
643.587	0.0167948
643.665	0.0169351
643.744	0.0169467
643.822	0.0169088
643.900	0.0168874
643.978	0.0169404
644.056	0.0170396
644.134	0.0170402
644.212	0.0169732
644.290	0.0171714
644.369	0.0171400
644.447	0.0170713
644.525	0.0169381
644.603	0.0170582
644.681	0.0171239
644.759	0.0170188
644.837	0.0172234
644.915	0.0171109
644.994	0.0170525
645.072	0.0171002
645.150	0.0172633
645.228	0.0171394
645.306	0.0170430
645.384	0.0171646
645.462	0.0170396
645.540	0.0171443
645.619	0.0169818
645.697	0.0169724
645.775	0.0168573
645.853	0.0166190
645.931	0.0166862
646.009	0.0165459
646.087	0.0165025
646.165	0.0164556
646.244	0.0162834
646.322	0.0162139
646.400	0.0161398
646.478	0.0161452
646.556	0.0161514
646.634	0.0159290
646.712	0.0159537
646.790	0.0159082
646.869	0.0158725
646.947	0.0157101
647.025	0.0157644
647.103	0.0159074
647.181	0.0157906
647.259	0.0156907
647.337	0.0158334
647.415	0.0157697
647.494	0.0158393
647.572	0.0159476
647.650	0.0158633
647.728	0.0158452
647.806	0.0160021
647.884	0.0158379
647.962	0.0160000
648.040	0.0160767
648.119	0.0159510
648.197	0.0161396
648.275	0.0160287
648.353	0.0159519
648.431	0.0160017
648.509	0.0160843
648.587	0.0161044
648.665	0.0160777
648.744	0.0161427
648.822	0.0162247
648.900	0.0161797
648.978	0.0163181
649.056	0.0163142
649.134	0.0160829
649.212	0.0164146
649.290	0.0164758
649.369	0.0164967
649.447	0.0164376
649.525	0.0164211
649.603	0.0164706
649.681	0.0163790
649.759	0.0165390
649.837	0.0164891
649.915	0.0165973
649.994	0.0166167
650.072	0.0166454
650.150	0.0166424
650.228	0.0169151
650.306	0.0168460
650.384	0.0168439
650.462	0.0167659
650.540	0.0165987
650.619	0.0166930
650.697	0.0165583
650.775	0.0166661
650.853	0.0164694
650.931	0.0162853
651.009	0.0164256
651.087	0.0162555
651.165	0.0163132
651.244	0.0162194
651.322	0.0164097
651.400	0.0163221
651.478	0.0162802
651.556	0.0162905
651.634	0.0164230
651.712	0.0164541
651.790	0.0163915
651.869	0.0165002
651.947	0.0165153
652.025	0.0166184
652.103	0.0166580
652.181	0.0165359
652.259	0.0165573
652.337	0.0166707
652.415	0.0166661
652.494	0.0167130
652.572	0.0167919
652.650	0.0166408
652.728	0.0167147
652.806	0.0170059
652.884	0.0169569
652.962	0.0169540
653.040	0.0168457
653.119	0.0169878
653.197	0.0170928
653.275	0.0170667
653.353	0.0171690
653.431	0.0170555
653.509	0.0171349
653.587	0.0172578
653.665	0.0171741
653.744	0.0171980
653.822	0.0171986
653.900	0.0172160
653.978	0.0172934
654.056	0.0173144
654.134	0.0172934
654.212	0.0174821
654.290	0.0172729
654.369	0.0172878
654.447	0.0173960
654.525	0.0172865
654.603	0.0172878
654.681	0.0173160
654.759	0.0174674
654.837	0.0173581
654.915	0.0174905
654.994	0.0173450
655.072	0.0173548
655.150	0.0173649
655.228	0.0172714
655.306	0.0172845
655.384	0.0172319
655.462	0.0173605
655.540	0.0171862
655.619	0.0171779
655.697	0.0171535
655.775	0.0169803
655.853	0.0170961
655.931	0.0169834
656.009	0.0168649
656.087	0.0168438
656.165	0.0168061
656.244	0.0168282
656.322	0.0169096
656.400	0.0167481
656.478	0.0167907
656.556	0.0167876
656.634	0.0167702
656.712	0.0168674
656.790	0.0169572
656.869	0.0168594
656.947	0.0168022
657.025	0.0170107
657.103	0.0168768
657.181	0.0169525
657.259	0.0168533
657.337	0.0166591
657.415	0.0168456
657.494	0.0168027
657.572	0.0168615
657.650	0.0167899
657.728	0.0166978
657.806	0.0167265
657.884	0.0166790
657.962	0.0166530
658.040	0.0165594
658.119	0.0167020
658.197	0.0166428
658.275	0.0167013
658.353	0.0166615
658.431	0.0165614
658.509	0.0164175
658.587	0.0165867
658.665	0.0164367
658.744	0.0163281
658.822	0.0164070
658.900	0.0164255
658.978	0.0163071
659.056	0.0164166
659.134	0.0163815
659.212	0.0162867
659.290	0.0162791
659.369	0.0162920
659.447	0.0164677
659.525	0.0164548
659.603	0.0164060
659.681	0.0164941
659.759	0.0164880
659.837	0.0165377
659.915	0.0165289
659.994	0.0167265
660.072	0.0165956
660.150	0.0166637
660.228	0.0165034
660.306	0.0166667
660.384	0.0166570
660.462	0.0167420
660.540	0.0168493
660.619	0.0167715
660.697	0.0168431
660.775	0.0170899
660.853	0.0169639
660.931	0.0169284
661.009	0.0169173
661.087	0.0170019
661.165	0.0171001
661.244	0.0171620
661.322	0.0171041
661.400	0.0170626
661.478	0.0172153
661.556	0.0170874
661.634	0.0172058
661.712	0.0172411
661.790	0.0169942
661.869	0.0171232
661.947	0.0171088
662.025	0.0169577
662.103	0.0169587
662.181	0.0169044
662.259	0.0169674
662.337	0.0170265
662.415	0.0168433
662.494	0.0168053
662.572	0.0169205
662.650	0.0168781
662.728	0.0167140
662.806	0.0164513
662.884	0.0165688
662.962	0.0167191
663.040	0.0167068
663.119	0.0164895
663.197	0.0165513
663.275	0.0164410
663.353	0.0163181
663.431	0.0164768
663.509	0.0164735
663.587	0.0166280
663.665	0.0164003
663.744	0.0164824
663.822	0.0165787
663.900	0.0166569
663.978	0.0164526
664.056	0.0164503
664.134	0.0165585
664.212	0.0165607
664.290	0.0165897
664.369	0.0165289
664.447	0.0165372
664.525	0.0165242
664.603	0.0165154
664.681	0.0164446
664.759	0.0163837
664.837	0.0164954
664.915	0.0164462
664.994	0.0164983
665.072	0.0163747
665.150	0.0163626
665.228	0.0164480
665.306	0.0164802
665.384	0.0164596
665.462	0.0165231
665.540	0.0164825
665.619	0.0165092
665.697	0.0165333
665.775	0.0167326
665.853	0.0166401
665.931	0.0167852
666.009	0.0167574
666.087	0.0169069
666.165	0.0168484
666.244	0.0168763
666.322	0.0169188
666.400	0.0169196
666.478	0.0171164
666.556	0.0171575
666.634	0.0170415
666.712	0.0169037
666.790	0.0170000
666.869	0.0170658
666.947	0.0169007
667.025	0.0167711
667.103	0.0166970
667.181	0.0166676
667.259	0.0167317
667.337	0.0164832
667.415	0.0163678
667.494	0.0163827
667.572	0.0163921
667.650	0.0164155
667.728	0.0164480
667.806	0.0163350
667.884	0.0164922
667.962	0.0165059
668.040	0.0165619
668.119	0.0164430
668.197	0.0166899
668.275	0.0166751
668.353	0.0166320
668.431	0.0164854
668.509	0.0164568
668.587	0.0165404
668.665	0.0165235
668.744	0.0163210
668.822	0.0162380
668.900	0.0161911
668.978	0.0161725
669.056	0.0159653
669.134	0.0161671
669.212	0.0161253
669.290	0.0160018
669.369	0.0160307
669.447	0.0160863
669.525	0.0160507
669.603	0.0160008
669.681	0.0161710
669.759	0.0162758
669.837	0.0162663
669.915	0.0164455
669.994	0.0162959
670.072	0.0165480
670.150	0.0165387
670.228	0.0164192
670.306	0.0164893
670.384	0.0165360
670.462	0.0165716
670.540	0.0166731
670.619	0.0166285
670.697	0.0165868
670.775	0.0166460
670.853	0.0166976
670.931	0.0166760
671.009	0.0168235
671.087	0.0167009
671.165	0.0166290
671.244	0.0166949
671.322	0.0167874
671.400	0.0167366
671.478	0.0167519
671.556	0.0168555
671.634	0.0167446
671.712	0.0169565
671.790	0.0168082
671.869	0.0167059
671.947	0.0169084
672.025	0.0168089
672.103	0.0170249
672.181	0.0170344
672.259	0.0169325
672.337	0.0168546
672.415	0.0169308
672.494	0.0169788
672.572	0.0169508
672.650	0.0170891
672.728	0.0169511
672.806	0.0169365
672.884	0.0170063
672.962	0.0170847
673.040	0.0168543
673.119	0.0169093
673.197	0.0168833
673.275	0.0167862
673.353	0.0169368
673.431	0.0166497
673.509	0.0167483
673.587	0.0167175
673.665	0.0168169
673.744	0.0166930
673.822	0.0166766
673.900	0.0167358
673.978	0.0166969
674.056	0.0166991
674.134	0.0166945
674.212	0.0167523
674.290	0.0167684
674.369	0.0167044
674.447	0.0168780
674.525	0.0167526
674.603	0.0169812
674.681	0.0169666
674.759	0.0169740
674.837	0.0169695
674.915	0.0170314
674.994	0.0170148
675.072	0.0168746
675.150	0.0170600
675.228	0.0170287
675.306	0.0170617
675.384	0.0170645
675.462	0.0169251
675.540	0.0169503
675.619	0.0171210
675.697	0.0171684
675.775	0.0169603
675.853	0.0169695
675.931	0.0170222
676.009	0.0169715
676.087	0.0169464
676.165	0.0171329
676.244	0.0170752
676.322	0.0169740
676.400	0.0170332
676.478	0.0170139
676.556	0.0170747
676.634	0.0171059
676.712	0.0169544
676.790	0.0168663
676.869	0.0169186
676.947	0.0168615
677.025	0.0170052
677.103	0.0168893
677.181	0.0168157
677.259	0.0167712
677.337	0.0169500
677.415	0.0168462
677.494	0.0167423
677.572	0.0168887
677.650	0.0168266
677.728	0.0167107
677.806	0.0168266
677.884	0.0168789
677.962	0.0168895
678.040	0.0168761
678.119	0.0167250
678.197	0.0168547
678.275	0.0167537
678.353	0.0166757
678.431	0.0166724
678.509	0.0166124
678.587	0.0167657
678.665	0.0166964
678.744	0.0166284
678.822	0.0165468
678.900	0.0165818
678.978	0.0166876
679.056	0.0166465
679.134	0.0167039
679.212	0.0167931
679.290	0.0167767
679.369	0.0167504
679.447	0.0169353
679.525	0.0167937
679.603	0.0166396
679.681	0.0168451
679.759	0.0168476
679.837	0.0169141
679.915	0.0168992
679.994	0.0169041
680.072	0.0169534
680.150	0.0170334
680.228	0.0169608
680.306	0.0171096
680.384	0.0169813
680.462	0.0168699
680.540	0.0169255
680.619	0.0169676
680.697	0.0170186
680.775	0.0169137
680.853	0.0169872
680.931	0.0168507
681.009	0.0168063
681.087	0.0168134
681.165	0.0168258
681.244	0.0166606
681.322	0.0167314
681.400	0.0167009
681.478	0.0166797
681.556	0.0166572
681.634	0.0164961
681.712	0.0166408
681.790	0.0165585
681.869	0.0165104
681.947	0.0165682
682.025	0.0164386
682.103	0.0163893
682.181	0.0166916
682.259	0.0166022
682.337	0.0166373
682.415	0.0164851
682.494	0.0166043
682.572	0.0165493
682.650	0.0165245
682.728	0.0164748
682.806	0.0164717
682.884	0.0165224
682.962	0.0163066
683.040	0.0163520
683.119	0.0163070
683.197	0.0163861
683.275	0.0162376
683.353	0.0162826
683.431	0.0164027
683.509	0.0162460
683.587	0.0161393
683.665	0.0162698
683.744	0.0162815
683.822	0.0162406
683.900	0.0162801
683.978	0.0162016
684.056	0.0162519
684.134	0.0163174
684.212	0.0163007
684.290	0.0163771
684.369	0.0163505
684.447	0.0161925
684.525	0.0162775
684.603	0.0162176
684.681	0.0163585
684.759	0.0165710
684.837	0.0164751
684.915	0.0164676
684.994	0.0166242
685.072	0.0165631
685.150	0.0167425
685.228	0.0166235
685.306	0.0167262
685.384	0.0166800
685.462	0.0167694
685.540	0.0168044
685.619	0.0169955
685.697	0.0166498
685.775	0.0169080
685.853	0.0169094
685.931	0.0169524
686.009	0.0167989
686.087	0.0168923
686.165	0.0168591
686.244	0.0168785
686.322	0.0169322
686.400	0.0168246
686.478	0.0168806
686.556	0.0169865
686.634	0.0170247
686.712	0.0170454
686.790	0.0170142
686.869	0.0168349
686.947	0.0169031
687.025	0.0170072
687.103	0.0170774
687.181	0.0170325
687.259	0.0171402
687.337	0.0169305
687.415	0.0168794
687.494	0.0168644
687.572	0.0168927
687.650	0.0167900
687.728	0.0166571
687.806	0.0166859
687.884	0.0165179
687.962	0.0165227
688.040	0.0165134
688.119	0.0164857
688.197	0.0164740
688.275	0.0164667
688.353	0.0164453
688.431	0.0163306
688.509	0.0162392
688.587	0.0161980
688.665	0.0163072
688.744	0.0163676
688.822	0.0163451
688.900	0.0162611
688.978	0.0164004
689.056	0.0161710
689.134	0.0161839
689.212	0.0163252
689.290	0.0162164
689.369	0.0162449
689.447	0.0162804
689.525	0.0162635
689.603	0.0160819
689.681	0.0160477
689.759	0.0161572
689.837	0.0161858
689.915	0.0162709
689.994	0.0161728
690.072	0.0162615
690.150	0.0162200
690.228	0.0162660
690.306	0.0163506
690.384	0.0162247
690.462	0.0161384
690.540	0.0164587
690.619	0.0163010
690.697	0.0163264
690.775	0.0165157
690.853	0.0164916
690.931	0.0164699
691.009	0.0164314
691.087	0.0166801
691.165	0.0166771
691.244	0.0166222
691.322	0.0166809
691.400	0.0168431
691.478	0.0168161
691.556	0.0168183
691.634	0.0168220
691.712	0.0170036
691.790	0.0169848
691.869	0.0168510
691.947	0.0169646
692.025	0.0169856
692.103	0.0171877
692.181	0.0170127
692.259	0.0171315
692.337	0.0171527
692.415	0.0171449
692.494	0.0173037
692.572	0.0173463
692.650	0.0173729
692.728	0.0175980
692.806	0.0175982
692.884	0.0175864
692.962	0.0176775
693.040	0.0177635
693.119	0.0176331
693.197	0.0176576
693.275	0.0176520
693.353	0.0176982
693.431	0.0178066
693.509	0.0177737
693.587	0.0177943
693.665	0.0176724
693.744	0.0177782
693.822	0.0178045
693.900	0.0175906
693.978	0.0175759
694.056	0.0176253
694.134	0.0176114
694.212	0.0174171
694.290	0.0174215
694.369	0.0174538
694.447	0.0173704
694.525	0.0173907
694.603	0.0172705
694.681	0.0173866
694.759	0.0171311
694.837	0.0170493
694.915	0.0169216
694.994	0.0169003
695.072	0.0167204
695.150	0.0165574
695.228	0.0166815
695.306	0.0165600
695.384	0.0164663
695.462	0.0162926
695.540	0.0162398
695.619	0.0160598
695.697	0.0160645
695.775	0.0160341
695.853	0.0161413
695.931	0.0158877
696.009	0.0159881
696.087	0.0160107
696.165	0.0160028
696.244	0.0158680
696.322	0.0160130
696.400	0.0160126
696.478	0.0160916
696.556	0.0159105
696.634	0.0160458
696.712	0.0161098
696.790	0.0161269
696.869	0.0160690
696.947	0.0161216
697.025	0.0160314
697.103	0.0159842
697.181	0.0159812
697.259	0.0161359
697.337	0.0161848
697.415	0.0160088
697.494	0.0162024
697.572	0.0162888
697.650	0.0163941
697.728	0.0163694
697.806	0.0163303
697.884	0.0164297
697.962	0.0165115
698.040	0.0166986
698.119	0.0167619
698.197	0.0168187
698.275	0.0168492
698.353	0.0169218
698.431	0.0169151
698.509	0.0169247
698.587	0.0169498
698.665	0.0170163
698.744	0.0170365
698.822	0.0170091
698.900	0.0171743
698.978	0.0171320
699.056	0.0171381
699.134	0.0170480
699.212	0.0170604
699.290	0.0171838
699.369	0.0171385
699.447	0.0172854
699.525	0.0171809
699.603	0.0170960
699.681	0.0173005
699.759	0.0171816
699.837	0.0173942
699.915	0.0173245
699.994	0.0173892
700.072	0.0173345
700.150	0.0172818
700.228	0.0174049
700.306	0.0174200
700.384	0.0174031
700.462	0.0174921
700.540	0.0174393
700.619	0.0174169
700.697	0.0175894
700.775	0.0176154
700.853	0.0175829
700.931	0.0175333
701.009	0.0176108
701.087	0.0175874
701.165	0.0176581
701.244	0.0176738
701.322	0.0176131
701.400	0.0176772
701.478	0.0176481
701.556	0.0178128
701.634	0.0178430
701.712	0.0177530
701.790	0.0177786
701.869	0.0176662
701.947	0.0176794
702.025	0.0178067
702.103	0.0177000
702.181	0.0176892
702.259	0.0175701
702.337	0.0176209
702.415	0.0176276
702.494	0.0174920
702.572	0.0174914
702.650	0.0174191
702.728	0.0173541
702.806	0.0173474
702.884	0.0172000
702.962	0.0171151
703.040	0.0171129
703.119	0.0170483
703.197	0.0169306
703.275	0.0169517
703.353	0.0168661
703.431	0.0168436
703.509	0.0167303
703.587	0.0166483
703.665	0.0165691
703.744	0.0164478
703.822	0.0165411
703.900	0.0165001
703.978	0.0163456
704.056	0.0162953
704.134	0.0163548
704.212	0.0163752
704.290	0.0161473
704.369	0.0162532
704.447	0.0162408
704.525	0.0160364
704.603	0.0161335
704.681	0.0162231
704.759	0.0161502
704.837	0.0163092
704.915	0.0162937
704.994	0.0163238
705.072	0.0163865
705.150	0.0163538
705.228	0.0164275
705.306	0.0162861
705.384	0.0164668
705.462	0.0165837
705.540	0.0165428
705.619	0.0164402
705.697	0.0165582
705.775	0.0166370
705.853	0.0165003
705.931	0.0167671
706.009	0.0168206
706.087	0.0167520
706.165	0.0167706
706.244	0.0167043
706.322	0.0167892
706.400	0.0166805
706.478	0.0168501
706.556	0.0169298
706.634	0.0168829
706.712	0.0168660
706.790	0.0168280
706.869	0.0169079
706.947	0.0167955
707.025	0.0166920
707.103	0.0165600
707.181	0.0165805
707.259	0.0164462
707.337	0.0164989
707.415	0.0163805
707.494	0.0161942
707.572	0.0163424
707.650	0.0161697
707.728	0.0162177
707.806	0.0162293
707.884	0.0163020
707.962	0.0163171
708.040	0.0163268
708.119	0.0163527
708.197	0.0166781
708.275	0.0166455
708.353	0.0166779
708.431	0.0166925
708.509	0.0166544
708.587	0.0166918
708.665	0.0167227
708.744	0.0166009
708.822	0.0167068
708.900	0.0164735
708.978	0.0164174
709.056	0.0163548
709.134	0.0162560
709.212	0.0162493
709.290	0.0162679
709.369	0.0162546
709.447	0.0161739
709.525	0.0162813
709.603	0.0163496
709.681	0.0162398
709.759	0.0161958
709.837	0.0163570
709.915	0.0163766
709.994	0.0163781
710.072	0.0163200
710.150	0.0161638
710.228	0.0161728
710.306	0.0163629
710.384	0.0163822
710.462	0.0164209
710.540	0.0164302
710.619	0.0164983
710.697	0.0165888
710.775	0.0167486
710.853	0.0165485
710.931	0.0166391
711.009	0.0168004
711.087	0.0167544
711.165	0.0166622
711.244	0.0166442
711.322	0.0166766
711.400	0.0165788
711.478	0.0165425
711.556	0.0166077
711.634	0.0165092
711.712	0.0166676
711.790	0.0164415
711.869	0.0163113
711.947	0.0163134
712.025	0.0162930
712.103	0.0161256
712.181	0.0161326
712.259	0.0160696
712.337	0.0159638
712.415	0.0159710
712.494	0.0158521
712.572	0.0159564
712.650	0.0160451
712.728	0.0160709
712.806	0.0161423
712.884	0.0162852
712.962	0.0165186
713.040	0.0168089
713.119	0.0168548
713.197	0.0169737
713.275	0.0172128
713.353	0.0173640
713.431	0.0173843
713.509	0.0175503
713.587	0.0175074
713.665	0.0175420
713.744	0.0175214
713.822	0.0173651
713.900	0.0171764
713.978	0.0170867
714.056	0.0168980
714.134	0.0168081
714.212	0.0166264
714.290	0.0164101
714.369	0.0164047
714.447	0.0164603
714.525	0.0163121
714.603	0.0165440
714.681	0.0164088
714.759	0.0165518
714.837	0.0167130
714.915	0.0167671
714.994	0.0169347
715.072	0.0171895
715.150	0.0172348
715.228	0.0174403
715.306	0.0173778
715.384	0.0174905
715.462	0.0174860
715.540	0.0173315
715.619	0.0173979
715.697	0.0175153
715.775	0.0173640
715.853	0.0172902
715.931	0.0171449
716.009	0.0171146
716.087	0.0171100
716.165	0.0170222
716.244	0.0169840
716.322	0.0169208
716.400	0.0171381
716.478	0.0170148
716.556	0.0170489
716.634	0.0170224
716.712	0.0170551
716.790	0.0171087
716.869	0.0171105
716.947	0.0172571
717.025	0.0173386
717.103	0.0172863
717.181	0.0173418
717.259	0.0172487
717.337	0.0173592
717.415	0.0172958
717.494	0.0173258
717.572	0.0172732
717.650	0.0173549
717.728	0.0175240
717.806	0.0174560
717.884	0.0175201
717.962	0.0175690
718.040	0.0175003
718.119	0.0175247
718.197	0.0174664
718.275	0.0175845
718.353	0.0176080
718.431	0.0176307
718.509	0.0175527
718.587	0.0175298
718.665	0.0175673
718.744	0.0176717
718.822	0.0174623
718.900	0.0173277
718.978	0.0174339
719.056	0.0173051
719.134	0.0172445
719.212	0.0173824
719.290	0.0172763
719.369	0.0172134
719.447	0.0170690
719.525	0.0171999
719.603	0.0171980
719.681	0.0171876
719.759	0.0170247
719.837	0.0169665
719.915	0.0168568
719.994	0.0168962
720.072	0.0168699
720.150	0.0168312
720.228	0.0167888
720.306	0.0167751
720.384	0.0165993
720.462	0.0167406
720.540	0.0167129
720.619	0.0165437
720.697	0.0165111
720.775	0.0165657
720.853	0.0165472
720.931	0.0163783
721.009	0.0164990
721.087	0.0164584
721.165	0.0164483
721.244	0.0164181
721.322	0.0165603
721.400	0.0164170
721.478	0.0164761
721.556	0.0163537
721.634	0.0163582
721.712	0.0163115
721.790	0.0162568
721.869	0.0162880
721.947	0.0162837
722.025	0.0161096
722.103	0.0162886
722.181	0.0162881
722.259	0.0162859
722.337	0.0162691
722.415	0.0162193
722.494	0.0161920
722.572	0.0161827
722.650	0.0164079
722.728	0.0163657
722.806	0.0161385
722.884	0.0161868
722.962	0.0163150
723.040	0.0163205
723.119	0.0161762
723.197	0.0162555
723.275	0.0163600
723.353	0.0163474
723.431	0.0162795
723.509	0.0163724
723.587	0.0163711
723.665	0.0164793
723.744	0.0165112
723.822	0.0164999
723.900	0.0165308
723.978	0.0168555
724.056	0.0166170
724.134	0.0165624
724.212	0.0166372
724.290	0.0167710
724.369	0.0167944
724.447	0.0166883
724.525	0.0168079
724.603	0.0169325
724.681	0.0169345
724.759	0.0168131
724.837	0.0168547
724.915	0.0167133
724.994	0.0169318
725.072	0.0169355
725.150	0.0169187
725.228	0.0170143
725.306	0.0170013
725.384	0.0170213
725.462	0.0169643
725.540	0.0170747
725.619	0.0168906
725.697	0.0169999
725.775	0.0169578
725.853	0.0169214
725.931	0.0170625
726.009	0.0169901
726.087	0.0170748
726.165	0.0170689
726.244	0.0170518
726.322	0.0168670
726.400	0.0169628
726.478	0.0169117
726.556	0.0168122
726.634	0.0170049
726.712	0.0169698
726.790	0.0171106
726.869	0.0171440
726.947	0.0171175
727.025	0.0169392
727.103	0.0171626
727.181	0.0172083
727.259	0.0171382
727.337	0.0170502
727.415	0.0170950
727.494	0.0171166
727.572	0.0169752
727.650	0.0169170
727.728	0.0168353
727.806	0.0168726
727.884	0.0167912
727.962	0.0166806
728.040	0.0167200
728.119	0.0167397
728.197	0.0166943
728.275	0.0166494
728.353	0.0166325
728.431	0.0167728
728.509	0.0167052
728.587	0.0166921
728.665	0.0166785
728.744	0.0166344
728.822	0.0166431
728.900	0.0168265
728.978	0.0166199
729.056	0.0166840
729.134	0.0166302
729.212	0.0164776
729.290	0.0164312
729.369	0.0165604
729.447	0.0165899
729.525	0.0165413
729.603	0.0164217
729.681	0.0164910
729.759	0.0164716
729.837	0.0164026
729.915	0.0164614
729.994	0.0165668
730.072	0.0166080
730.150	0.0166252
730.228	0.0164729
730.306	0.0164376
730.384	0.0164700
730.462	0.0166059
730.540	0.0165469
730.619	0.0165252
730.697	0.0166097
730.775	0.0163979
730.853	0.0164482
730.931	0.0164278
731.009	0.0164391
731.087	0.0164548
731.165	0.0165471
731.244	0.0164633
731.322	0.0165629
731.400	0.0162970
731.478	0.0163657
731.556	0.0166202
731.634	0.0164677
731.712	0.0164419
731.790	0.0165397
731.869	0.0165544
731.947	0.0164590
732.025	0.0164987
732.103	0.0164555
732.181	0.0164337
732.259	0.0164888
732.337	0.0164737
732.415	0.0164488
732.494	0.0164150
732.572	0.0163396
732.650	0.0162850
732.728	0.0163705
732.806	0.0162678
732.884	0.0163069
732.962	0.0163000
733.040	0.0162332
733.119	0.0164387
733.197	0.0164029
733.275	0.0164754
733.353	0.0165977
733.431	0.0168888
733.509	0.0168684
733.587	0.0167556
733.665	0.0168528
733.744	0.0169093
733.822	0.0170747
733.900	0.0170686
733.978	0.0170717
734.056	0.0170612
734.134	0.0170499
734.212	0.0171539
734.290	0.0170644
734.369	0.0170516
734.447	0.0170415
734.525	0.0169278
734.603	0.0169885
734.681	0.0168946
734.759	0.0168851
734.837	0.0171577
734.915	0.0169165
734.994	0.0169534
735.072	0.0170229
735.150	0.0170777
735.228	0.0171085
735.306	0.0169563
735.384	0.0170447
735.462	0.0172004
735.540	0.0171534
735.619	0.0172198
735.697	0.0172426
735.775	0.0172291
735.853	0.0171431
735.931	0.0171625
736.009	0.0171149
736.087	0.0171058
736.165	0.0171082
736.244	0.0171039
736.322	0.0170683
736.400	0.0169744
736.478	0.0169730
736.556	0.0169540
736.634	0.0168615
736.712	0.0168993
736.790	0.0169094
736.869	0.0168220
736.947	0.0169915
737.025	0.0167617
737.103	0.0168564
737.181	0.0168610
737.259	0.0168255
737.337	0.0169251
737.415	0.0168626
737.494	0.0169200
737.572	0.0169836
737.650	0.0168973
737.728	0.0168309
737.806	0.0167467
737.884	0.0168149
737.962	0.0168690
738.040	0.0167719
738.119	0.0167760
738.197	0.0167667
738.275	0.0167202
738.353	0.0166007
738.431	0.0165511
738.509	0.0166287
738.587	0.0166826
738.665	0.0165234
738.744	0.0165473
738.822	0.0165942
738.900	0.0166426
738.978	0.0166463
739.056	0.0165378
739.134	0.0167310
739.212	0.0166869
739.290	0.0166129
739.369	0.0167274
739.447	0.0167551
739.525	0.0167001
739.603	0.0168411
739.681	0.0167277
739.759	0.0168214
739.837	0.0168843
739.915	0.0167758
739.994	0.0167562
740.072	0.0166922
740.150	0.0166309
740.228	0.0166916
740.306	0.0167178
740.384	0.0166980
740.462	0.0167004
740.540	0.0166776
740.619	0.0166815
740.697	0.0166780
740.775	0.0167605
740.853	0.0167451
740.931	0.0168120
741.009	0.0168687
741.087	0.0168552
741.165	0.0168589
741.244	0.0168185
741.322	0.0169429
741.400	0.0167275
741.478	0.0168494
741.556	0.0168472
741.634	0.0169021
741.712	0.0167485
741.790	0.0166470
741.869	0.0166590
741.947	0.0165974
742.025	0.0168887
742.103	0.0166975
742.181	0.0167902
742.259	0.0166931
742.337	0.0167518
742.415	0.0166569
742.494	0.0168211
742.572	0.0169053
742.650	0.0168130
742.728	0.0168518
742.806	0.0168602
742.884	0.0168314
742.962	0.0168507
743.040	0.0169224
743.119	0.0168601
743.197	0.0167833
743.275	0.0169424
743.353	0.0168566
743.431	0.0167145
743.509	0.0167991
743.587	0.0167670
743.665	0.0166059
743.744	0.0166684
743.822	0.0166920
743.900	0.0165965
743.978	0.0164133
744.056	0.0164993
744.134	0.0165054
744.212	0.0165007
744.290	0.0165383
744.369	0.0165215
744.447	0.0164394
744.525	0.0164070
744.603	0.0164883
744.681	0.0165787
744.759	0.0165859
744.837	0.0163665
744.915	0.0164890
744.994	0.0163839
745.072	0.0162823
745.150	0.0163146
745.228	0.0164370
745.306	0.0162872
745.384	0.0162164
745.462	0.0161501
745.540	0.0161321
745.619	0.0160902
745.697	0.0163055
745.775	0.0160386
745.853	0.0160772
745.931	0.0161139
746.009	0.0161854
746.087	0.0161926
746.165	0.0162438
746.244	0.0162084
746.322	0.0163396
746.400	0.0163952
746.478	0.0164367
746.556	0.0166095
746.634	0.0166973
746.712	0.0166559
746.790	0.0167523
746.869	0.0168026
746.947	0.0168563
747.025	0.0169750
747.103	0.0168499
747.181	0.0169707
747.259	0.0169044
747.337	0.0168606
747.415	0.0168974
747.494	0.0169258
747.572	0.0168130
747.650	0.0168801
747.728	0.0170171
747.806	0.0168967
747.884	0.0167322
747.962	0.0166233
748.040	0.0167082
748.119	0.0168298
748.197	0.0167197
748.275	0.0164437
748.353	0.0166911
748.431	0.0165704
748.509	0.0164819
748.587	0.0166207
748.665	0.0165073
748.744	0.0163823
748.822	0.0165382
748.900	0.0164931
748.978	0.0163655
749.056	0.0163972
749.134	0.0165605
749.212	0.0164360
749.290	0.0163857
749.369	0.0163299
749.447	0.0165010
749.525	0.0163831
749.603	0.0163476
749.681	0.0164910
749.759	0.0164095
749.837	0.0163292
749.915	0.0163541
749.994	0.0163874
750.072	0.0164017
750.150	0.0164243
750.228	0.0163790
750.306	0.0165376
750.384	0.0164964
750.462	0.0165736
750.540	0.0163189
750.619	0.0163923
750.697	0.0164212
750.775	0.0164381
750.853	0.0163908
750.931	0.0163680
751.009	0.0163899
751.087	0.0164888
751.165	0.0163879
751.244	0.0163857
751.322	0.0165010
751.400	0.0164075
751.478	0.0164282
751.556	0.0164275
751.634	0.0164703
751.712	0.0164906
751.790	0.0166395
751.869	0.0165727
751.947	0.0165097
752.025	0.0165623
752.103	0.0167478
752.181	0.0167318
752.259	0.0167171
752.337	0.0165990
752.415	0.0166901
752.494	0.0166920
752.572	0.0166574
752.650	0.0166087
752.728	0.0167277
752.806	0.0167231
752.884	0.0168774
752.962	0.0167673
753.040	0.0168859
753.119	0.0169240
753.197	0.0168385
753.275	0.0170637
753.353	0.0171061
753.431	0.0170667
753.509	0.0170428
753.587	0.0171291
753.665	0.0170868
753.744	0.0171690
753.822	0.0171058
753.900	0.0172180
753.978	0.0169996
754.056	0.0171544
754.134	0.0171349
754.212	0.0172702
754.290	0.0171817
754.369	0.0171373
754.447	0.0171479
754.525	0.0170543
754.603	0.0171759
754.681	0.0172048
754.759	0.0172211
754.837	0.0171616
754.915	0.0170119
754.994	0.0170736
755.072	0.0170392
755.150	0.0168304
755.228	0.0168906
755.306	0.0168122
755.384	0.0166737
755.462	0.0167368
755.540	0.0166387
755.619	0.0165888
755.697	0.0165656
755.775	0.0165106
755.853	0.0166126
755.931	0.0166096
756.009	0.0166248
756.087	0.0165160
756.165	0.0167019
756.244	0.0167492
756.322	0.0168520
756.400	0.0170084
756.478	0.0170461
756.556	0.0170712
756.634	0.0170911
756.712	0.0172095
756.790	0.0172504
756.869	0.0173510
756.947	0.0171956
757.025	0.0173805
757.103	0.0172564
757.181	0.0172402
757.259	0.0172888
757.337	0.0171091
757.415	0.0171320
757.494	0.0171677
757.572	0.0170338
757.650	0.0170478
757.728	0.0170414
757.806	0.0168710
757.884	0.0170096
757.962	0.0169855
758.040	0.0170097
758.119	0.0171872
758.197	0.0170365
758.275	0.0168872
758.353	0.0170753
758.431	0.0169833
758.509	0.0170034
758.587	0.0170181
758.665	0.0170406
758.744	0.0169955
758.822	0.0169837
758.900	0.0169781
758.978	0.0170011
759.056	0.0170242
759.134	0.0170030
759.212	0.0170222
759.290	0.0170444
759.369	0.0169623
759.447	0.0168948
759.525	0.0168417
759.603	0.0169349
759.681	0.0167960
759.759	0.0169344
759.837	0.0170882
759.915	0.0168605
759.994	0.0167492
760.072	0.0167029
760.150	0.0168085
760.228	0.0168192
760.306	0.0168726
760.384	0.0168979
760.462	0.0169908
760.540	0.0168027
760.619	0.0167934
760.697	0.0168399
760.775	0.0169419
760.853	0.0168162
760.931	0.0168822
761.009	0.0167744
761.087	0.0168737
761.165	0.0168601
761.244	0.0169736
761.322	0.0169256
761.400	0.0168468
761.478	0.0168253
761.556	0.0168269
761.634	0.0168262
761.712	0.0168342
761.790	0.0168986
761.869	0.0166375
761.947	0.0166408
762.025	0.0166325
762.103	0.0164424
762.181	0.0164422
762.259	0.0164776
762.337	0.0162944
762.415	0.0162408
762.494	0.0162261
762.572	0.0162846
762.650	0.0162992
762.728	0.0162032
762.806	0.0161317
762.884	0.0160802
762.962	0.0162306
763.040	0.0162150
763.119	0.0164072
763.197	0.0164323
763.275	0.0164294
763.353	0.0163968
763.431	0.0165151
763.509	0.0164890
763.587	0.0165551
763.665	0.0164365
763.744	0.0166540
763.822	0.0167915
763.900	0.0166743
763.978	0.0167663
764.056	0.0167774
764.134	0.0168217
764.212	0.0168858
764.290	0.0168681
764.369	0.0169971
764.447	0.0170724
764.525	0.0169292
764.603	0.0170000
764.681	0.0169857
764.759	0.0170522
764.837	0.0171156
764.915	0.0171773
764.994	0.0169779
765.072	0.0169109
765.150	0.0170417
765.228	0.0170596
765.306	0.0168610
765.384	0.0168042
765.462	0.0168027
765.540	0.0168211
765.619	0.0166267
765.697	0.0166467
765.775	0.0166822
765.853	0.0163973
765.931	0.0164439
766.009	0.0162805
766.087	0.0162504
766.165	0.0162901
766.244	0.0161342
766.322	0.0163060
766.400	0.0161288
766.478	0.0161068
766.556	0.0161510
766.634	0.0161372
766.712	0.0161591
766.790	0.0160342
766.869	0.0160395
766.947	0.0161593
767.025	0.0161446
767.103	0.0160742
767.181	0.0162796
767.259	0.0162894
767.337	0.0163734
767.415	0.0163564
767.494	0.0165217
767.572	0.0165980
767.650	0.0164246
767.728	0.0165583
767.806	0.0165874
767.884	0.0165522
767.962	0.0166873
768.040	0.0166776
768.119	0.0165825
768.197	0.0166747
768.275	0.0166148
768.353	0.0166324
768.431	0.0167529
768.509	0.0166161
768.587	0.0165388
768.665	0.0168678
768.744	0.0166558
768.822	0.0167522
768.900	0.0167651
768.978	0.0167326
769.056	0.0168671
769.134	0.0167754
769.212	0.0167496
769.290	0.0167184
769.369	0.0167690
769.447	0.0168056
769.525	0.0168854
769.603	0.0169049
769.681	0.0168018
769.759	0.0169152
769.837	0.0170725
769.915	0.0169920
769.994	0.0168231
770.072	0.0169462
770.150	0.0169090
770.228	0.0169144
770.306	0.0169328
770.384	0.0169145
770.462	0.0169669
770.540	0.0168934
770.619	0.0168407
770.697	0.0168830
770.775	0.0170210
770.853	0.0167538
770.931	0.0167194
771.009	0.0168163
771.087	0.0167315
771.165	0.0165647
771.244	0.0167385
771.322	0.0167802
771.400	0.0167424
771.478	0.0168447
771.556	0.0167517
771.634	0.0168098
771.712	0.0167824
771.790	0.0168375
771.869	0.0166628
771.947	0.0167294
772.025	0.0167238
772.103	0.0168851
772.181	0.0168381
772.259	0.0168072
772.337	0.0168114
772.415	0.0167783
772.494	0.0167429
772.572	0.0168047
772.650	0.0167445
772.728	0.0168467
772.806	0.0168106
772.884	0.0167690
772.962	0.0168486
773.040	0.0167507
773.119	0.0167648
773.197	0.0168571
773.275	0.0168119
773.353	0.0170171
773.431	0.0169810
773.509	0.0168056
773.587	0.0168400
773.665	0.0169005
773.744	0.0168940
773.822	0.0170230
773.900	0.0170125
773.978	0.0169308
774.056	0.0170109
774.134	0.0169506
774.212	0.0168839
774.290	0.0168864
774.369	0.0169827
774.447	0.0168285
774.525	0.0167999
774.603	0.0168064
774.681	0.0168143
774.759	0.0166368
774.837	0.0165741
774.915	0.0165481
774.994	0.0165436
775.072	0.0165121
775.150	0.0165201
775.228	0.0165715
775.306	0.0164713
775.384	0.0166527
775.462	0.0166270
775.540	0.0164992
775.619	0.0166161
775.697	0.0165754
775.775	0.0167825
775.853	0.0166775
775.931	0.0166422
776.009	0.0167062
776.087	0.0168545
776.165	0.0166482
776.244	0.0168746
776.322	0.0169151
776.400	0.0169515
776.478	0.0169325
776.556	0.0169352
776.634	0.0170810
776.712	0.0171496
776.790	0.0170652
776.869	0.0172572
776.947	0.0170316
777.025	0.0170137
777.103	0.0172211
777.181	0.0171118
777.259	0.0171729
777.337	0.0170487
777.415	0.0172370
777.494	0.0172813
777.572	0.0171685
777.650	0.0169928
777.728	0.0170210
777.806	0.0169754
777.884	0.0168732
777.962	0.0168399
778.040	0.0168710
778.119	0.0167018
778.197	0.0166271
778.275	0.0166992
778.353	0.0166730
778.431	0.0167229
778.509	0.0167064
778.587	0.0166080
778.665	0.0167113
778.744	0.0167722
778.822	0.0167716
778.900	0.0167707
778.978	0.0167229
779.056	0.0167545
779.134	0.0167308
779.212	0.0168450
779.290	0.0168964
779.369	0.0167694
779.447	0.0168245
779.525	0.0168314
779.603	0.0169128
779.681	0.0170548
779.759	0.0170442
779.837	0.0170158
779.915	0.0170261
779.994	0.0170072
780.072	0.0171927
780.150	0.0170824
780.228	0.0171505
780.306	0.0172040
780.384	0.0171580
780.462	0.0170816
780.540	0.0172783
780.619	0.0172590
780.697	0.0172262
780.775	0.0172621
780.853	0.0172343
780.931	0.0173344
781.009	0.0172888
781.087	0.0172417
781.165	0.0172089
781.244	0.0173434
781.322	0.0173838
781.400	0.0172777
781.478	0.0172649
781.556	0.0172546
781.634	0.0172949
781.712	0.0171501
781.790	0.0171569
781.869	0.0170750
781.947	0.0170190
782.025	0.0170231
782.103	0.0169498
782.181	0.0169454
782.259	0.0167550
782.337	0.0167480
782.415	0.0168077
782.494	0.0166373
782.572	0.0165887
782.650	0.0166781
782.728	0.0165929
782.806	0.0165159
782.884	0.0163652
782.962	0.0164262
783.040	0.0165994
783.119	0.0165331
783.197	0.0164961
783.275	0.0163174
783.353	0.0163668
783.431	0.0162389
783.509	0.0162202
783.587	0.0163464
783.665	0.0163775
783.744	0.0161109
783.822	0.0162352
783.900	0.0164049
783.978	0.0162402
784.056	0.0162852
784.134	0.0161414
784.212	0.0164009
784.290	0.0163847
784.369	0.0162552
784.447	0.0162505
784.525	0.0163167
784.603	0.0164506
784.681	0.0166589
784.759	0.0166019
784.837	0.0165860
784.915	0.0165507
784.994	0.0167108
785.072	0.0168033
785.150	0.0169144
785.228	0.0169773
785.306	0.0170171
785.384	0.0169971
785.462	0.0171741
785.540	0.0170930
785.619	0.0172295
785.697	0.0172897
785.775	0.0172262
785.853	0.0172443
785.931	0.0172805
786.009	0.0172892
786.087	0.0171264
786.165	0.0172051
786.244	0.0172422
786.322	0.0173842
786.400	0.0174303
786.478	0.0173200
786.556	0.0173269
786.634	0.0173546
786.712	0.0172760
786.790	0.0174203
786.869	0.0174109
786.947	0.0174139
787.025	0.0174573
787.103	0.0173900
787.181	0.0172313
787.259	0.0173615
787.337	0.0173183
787.415	0.0173086
787.494	0.0173738
787.572	0.0171512
787.650	0.0171582
787.728	0.0172385
787.806	0.0170968
787.884	0.0170128
787.962	0.0169583
788.040	0.0169876
788.119	0.0168246
788.197	0.0169422
788.275	0.0168731
788.353	0.0169498
788.431	0.0169446
788.509	0.0169981
788.587	0.0169449
788.665	0.0169456
788.744	0.0169271
788.822	0.0169783
788.900	0.0171407
788.978	0.0172387
789.056	0.0171102
789.134	0.0170304
789.212	0.0171136
789.290	0.0171490
789.369	0.0170813
789.447	0.0172086
789.525	0.0172022
789.603	0.0172561
789.681	0.0172958
789.759	0.0172635
789.837	0.0172340
789.915	0.0172025
789.994	0.0171555
790.072	0.0169975
790.150	0.0170940
790.228	0.0168725
790.306	0.0170370
790.384	0.0170812
790.462	0.0168718
790.540	0.0167954
790.619	0.0168536
790.697	0.0167580
790.775	0.0167652
790.853	0.0168146
790.931	0.0168290
791.009	0.0166966
791.087	0.0166562
791.165	0.0165872
791.244	0.0166192
791.322	0.0165378
791.400	0.0164111
791.478	0.0164404
791.556	0.0163848
791.634	0.0162885
791.712	0.0163612
791.790	0.0162288
791.869	0.0160616
791.947	0.0161374
792.025	0.0161168
792.103	0.0160352
792.181	0.0160650
792.259	0.0161806
792.337	0.0162177
792.415	0.0160648
792.494	0.0161473
792.572	0.0160363
792.650	0.0161444
792.728	0.0162109
792.806	0.0161352
792.884	0.0160711
792.962	0.0160630
793.040	0.0161905
793.119	0.0161092
793.197	0.0161874
793.275	0.0161926
793.353	0.0159341
793.431	0.0160443
793.509	0.0161710
793.587	0.0161867
793.665	0.0161125
793.744	0.0161414
793.822	0.0160307
793.900	0.0161285
793.978	0.0162234
794.056	0.0162350
794.134	0.0161739
794.212	0.0162398
794.290	0.0164423
794.369	0.0164702
794.447	0.0165550
794.525	0.0164740
794.603	0.0165849
794.681	0.0166377
794.759	0.0167943
794.837	0.0168021
794.915	0.0167733
794.994	0.0169614
795.072	0.0169389
795.150	0.0169908
795.228	0.0169756
795.306	0.0170376
795.384	0.0171086
795.462	0.0171613
795.540	0.0173555
795.619	0.0173116
795.697	0.0172990
795.775	0.0172372
795.853	0.0173889
795.931	0.0173055
796.009	0.0174793
796.087	0.0175495
796.165	0.0174516
796.244	0.0174287
796.322	0.0174717
796.400	0.0174649
796.478	0.0174416
796.556	0.0175437
796.634	0.0174423
796.712	0.0175214
796.790	0.0173878
796.869	0.0173587
796.947	0.0173556
797.025	0.0174255
797.103	0.0174249
797.181	0.0173547
797.259	0.0172710
797.337	0.0175491
797.415	0.0173785
797.494	0.0173098
797.572	0.0173197
797.650	0.0173192
797.728	0.0173100
797.806	0.0172991
797.884	0.0172254
797.962	0.0172806
798.040	0.0172353
798.119	0.0171392
798.197	0.0170955
798.275	0.0170402
798.353	0.0170326
798.431	0.0172051
798.509	0.0169812
798.587	0.0171062
798.665	0.0168948
798.744	0.0170892
798.822	0.0170155
798.900	0.0170144
798.978	0.0170155
799.056	0.0168572
799.134	0.0168262
799.212	0.0169903
799.290	0.0170632
799.369	0.0169575
799.447	0.0169796
799.525	0.0170029
799.603	0.0171275
799.681	0.0171237
799.759	0.0169272
799.837	0.0168260
799.915	0.0170734
799.994	0.0169953
800.072	0.0170060
800.150	0.0168840
800.228	0.0169184
800.306	0.0169031
800.384	0.0169221
800.462	0.0168692
800.540	0.0167079
800.619	0.0166047
800.697	0.0167448
800.775	0.0168102
800.853	0.0167525
800.931	0.0165644
801.009	0.0165723
801.087	0.0165821
801.165	0.0165883
801.244	0.0163673
801.322	0.0164199
801.400	0.0164745
801.478	0.0163415
801.556	0.0164693
801.634	0.0164535
801.712	0.0164056
801.790	0.0165136
801.869	0.0163927
801.947	0.0165436
802.025	0.0166272
802.103	0.0166038
802.181	0.0166586
802.259	0.0166669
802.337	0.0167584
802.415	0.0167721
802.494	0.0167077
802.572	0.0166996
802.650	0.0167548
802.728	0.0165641
802.806	0.0166449
802.884	0.0168565
802.962	0.0168028
803.040	0.0166375
803.119	0.0166051
803.197	0.0166926
803.275	0.0166371
803.353	0.0166851
803.431	0.0167773
803.509	0.0167210
803.587	0.0166014
803.665	0.0166883
803.744	0.0166607
803.822	0.0167311
803.900	0.0167668
803.978	0.0168095
804.056	0.0168374
804.134	0.0168327
804.212	0.0168474
804.290	0.0168713
804.369	0.0170851
804.447	0.0170715
804.525	0.0170901
804.603	0.0172285
804.681	0.0172565
804.759	0.0174396
804.837	0.0174891
804.915	0.0175096
804.994	0.0175397
805.072	0.0176138
805.150	0.0177204
805.228	0.0177496
805.306	0.0176736
805.384	0.0176882
805.462	0.0176421
805.540	0.0175945
805.619	0.0176328
805.697	0.0175050
805.775	0.0175790
805.853	0.0173380
805.931	0.0174874
806.009	0.0174483
806.087	0.0172794
806.165	0.0171926
806.244	0.0174144
806.322	0.0173172
806.400	0.0173148
806.478	0.0171802
806.556	0.0171507
806.634	0.0171493
806.712	0.0172289
806.790	0.0171327
806.869	0.0170461
806.947	0.0171721
807.025	0.0173346
807.103	0.0172795
807.181	0.0172101
807.259	0.0170941
807.337	0.0172079
807.415	0.0171456
807.494	0.0170034
807.572	0.0168981
807.650	0.0170643
807.728	0.0169756
807.806	0.0169784
807.884	0.0168881
807.962	0.0169786
808.040	0.0170149
808.119	0.0168693
808.197	0.0171154
808.275	0.0170937
808.353	0.0168848
808.431	0.0170359
808.509	0.0171243
808.587	0.0171259
808.665	0.0172155
808.744	0.0170507
808.822	0.0171004
808.900	0.0169959
808.978	0.0170052
809.056	0.0168382
809.134	0.0168612
809.212	0.0169442
809.290	0.0168832
809.369	0.0167693
809.447	0.0167770
809.525	0.0167780
809.603	0.0167811
809.681	0.0166499
809.759	0.0166514
809.837	0.0166125
809.915	0.0167313
809.994	0.0167255
810.072	0.0166297
810.150	0.0165134
810.228	0.0167354
810.306	0.0167841
810.384	0.0167181
810.462	0.0165721
810.540	0.0164713
810.619	0.0166047
810.697	0.0164170
810.775	0.0163228
810.853	0.0162045
810.931	0.0160732
811.009	0.0159817
811.087	0.0159824
811.165	0.0158595
811.244	0.0157998
811.322	0.0156442
811.400	0.0154946
811.478	0.0154616
811.556	0.0155037
811.634	0.0153844
811.712	0.0154362
811.790	0.0153706
811.869	0.0152544
811.947	0.0152668
812.025	0.0153535
812.103	0.0152769
812.181	0.0153510
812.259	0.0154791
812.337	0.0154002
812.415	0.0156005
812.494	0.0157352
812.572	0.0156108
812.650	0.0158663
812.728	0.0158739
812.806	0.0158137
812.884	0.0158810
812.962	0.0160503
813.040	0.0160780
813.119	0.0160284
813.197	0.0159729
813.275	0.0160261
813.353	0.0161709
813.431	0.0161222
813.509	0.0163311
813.587	0.0162666
813.665	0.0163439
813.744	0.0162874
813.822	0.0164786
813.900	0.0165465
813.978	0.0164188
814.056	0.0165278
814.134	0.0165477
814.212	0.0166282
814.290	0.0166619
814.369	0.0167044
814.447	0.0167046
814.525	0.0167797
814.603	0.0166730
814.681	0.0167973
814.759	0.0167391
814.837	0.0169623
814.915	0.0170528
814.994	0.0168130
815.072	0.0168814
815.150	0.0169445
815.228	0.0170026
815.306	0.0170322
815.384	0.0170756
815.462	0.0170378
815.540	0.0170589
815.619	0.0170041
815.697	0.0171774
815.775	0.0169384
815.853	0.0169812
815.931	0.0171616
816.009	0.0170399
816.087	0.0170030
816.165	0.0170880
816.244	0.0170358
816.322	0.0170669
816.400	0.0171413
816.478	0.0170256
816.556	0.0171048
816.634	0.0172572
816.712	0.0171764
816.790	0.0173004
816.869	0.0172279
816.947	0.0171979
817.025	0.0172417
817.103	0.0174120
817.181	0.0173274
817.259	0.0173420
817.337	0.0174511
817.415	0.0171857
817.494	0.0171947
817.572	0.0172403
817.650	0.0171459
817.728	0.0170628
817.806	0.0168868
817.884	0.0170411
817.962	0.0168562
818.040	0.0168223
818.119	0.0169764
818.197	0.0169526
818.275	0.0169450
818.353	0.0168152
818.431	0.0168625
818.509	0.0169858
818.587	0.0169229
818.665	0.0169771
818.744	0.0171172
818.822	0.0170901
818.900	0.0169818
818.978	0.0170110
819.056	0.0169800
819.134	0.0169582
819.212	0.0168468
819.290	0.0169160
819.369	0.0169597
819.447	0.0168288
819.525	0.0168618
819.603	0.0168176
819.681	0.0168030
819.759	0.0167747
819.837	0.0166013
819.915	0.0167318
819.994	0.0168564
820.072	0.0167442
820.150	0.0165584
820.228	0.0166496
820.306	0.0165310
820.384	0.0165948
820.462	0.0165935
820.540	0.0164053
820.619	0.0163820
820.697	0.0164720
820.775	0.0162621
820.853	0.0163042
820.931	0.0162691
821.009	0.0163396
821.087	0.0162675
821.165	0.0163011
821.244	0.0160935
821.322	0.0161080
821.400	0.0162296
821.478	0.0162789
821.556	0.0161366
821.634	0.0163664
821.712	0.0161609
821.790	0.0162067
821.869	0.0162472
821.947	0.0160988
822.025	0.0161620
822.103	0.0161945
822.181	0.0161988
822.259	0.0162002
822.337	0.0162363
822.415	0.0162754
822.494	0.0163079
822.572	0.0161570
822.650	0.0159917
822.728	0.0162765
822.806	0.0163680
822.884	0.0163787
822.962	0.0164012
823.040	0.0164343
823.119	0.0163986
823.197	0.0164046
823.275	0.0165800
823.353	0.0164269
823.431	0.0165422
823.509	0.0164462
823.587	0.0165121
823.665	0.0166089
823.744	0.0167001
823.822	0.0166952
823.900	0.0165929
823.978	0.0167240
824.056	0.0166190
824.134	0.0167528
824.212	0.0167452
824.290	0.0166557
824.369	0.0166673
824.447	0.0165765
824.525	0.0167301
824.603	0.0166111
824.681	0.0165676
824.759	0.0165048
824.837	0.0165189
824.915	0.0165259
824.994	0.0165353
825.072	0.0164145
825.150	0.0164097
825.228	0.0163939
825.306	0.0164690
825.384	0.0164370
825.462	0.0164718
825.540	0.0163376
825.619	0.0163287
825.697	0.0164494
825.775	0.0162353
825.853	0.0161958
825.931	0.0162048
826.009	0.0163428
826.087	0.0162903
826.165	0.0164346
826.244	0.0165546
826.322	0.0164361
826.400	0.0164703
826.478	0.0164967
826.556	0.0166114
826.634	0.0165739
826.712	0.0166660
826.790	0.0167320
826.869	0.0168002
826.947	0.0168177
827.025	0.0168941
827.103	0.0168663
827.181	0.0168990
827.259	0.0168352
827.337	0.0170003
827.415	0.0168295
827.494	0.0168282
827.572	0.0169715
827.650	0.0170303
827.728	0.0169792
827.806	0.0169722
827.884	0.0171320
827.962	0.0169881
828.040	0.0170741
828.119	0.0171518
828.197	0.0170399
828.275	0.0169971
828.353	0.0169964
828.431	0.0172443
828.509	0.0172417
828.587	0.0172367
828.665	0.0172034
828.744	0.0172711
828.822	0.0174352
828.900	0.0173798
828.978	0.0173153
829.056	0.0173624
829.134	0.0173167
829.212	0.0173604
829.290	0.0172450
829.369	0.0172108
829.447	0.0170531
829.525	0.0170325
829.603	0.0170451
829.681	0.0169665
829.759	0.0168533
829.837	0.0168010
829.915	0.0166648
829.994	0.0165997
830.072	0.0166681
830.150	0.0166264
830.228	0.0164466
830.306	0.0165331
830.384	0.0165558
830.462	0.0166298
830.540	0.0164283
830.619	0.0164699
830.697	0.0163305
830.775	0.0164702
830.853	0.0164542
830.931	0.0163490
831.009	0.0164226
831.087	0.0163531
831.165	0.0165759
831.244	0.0165150
831.322	0.0164413
831.400	0.0164766
831.478	0.0164127
831.556	0.0163701
831.634	0.0164626
831.712	0.0163622
831.790	0.0165401
831.869	0.0166098
831.947	0.0164837
832.025	0.0165247
832.103	0.0166481
832.181	0.0165487
832.259	0.0165963
832.337	0.0166020
832.415	0.0165592
832.494	0.0167127
832.572	0.0166992
832.650	0.0165475
832.728	0.0165412
832.806	0.0165630
832.884	0.0164326
832.962	0.0163861
833.040	0.0162534
833.119	0.0162102
833.197	0.0160945
833.275	0.0162228
833.353	0.0161090
833.431	0.0161347
833.509	0.0159987
833.587	0.0159377
833.665	0.0160904
833.744	0.0160632
833.822	0.0160550
833.900	0.0161741
833.978	0.0161856
834.056	0.0161724
834.134	0.0162723
834.212	0.0162035
834.290	0.0161710
834.369	0.0161970
834.447	0.0163018
834.525	0.0162425
834.603	0.0162764
834.681	0.0162197
834.759	0.0163605
834.837	0.0161931
834.915	0.0163374
834.994	0.0162080
835.072	0.0163508
835.150	0.0164008
835.228	0.0164858
835.306	0.0164944
835.384	0.0164795
835.462	0.0164791
835.540	0.0165045
835.619	0.0164336
835.697	0.0165659
835.775	0.0164534
835.853	0.0164806
835.931	0.0165967
836.009	0.0164601
836.087	0.0165405
836.165	0.0164652
836.244	0.0163860
836.322	0.0163260
836.400	0.0161869
836.478	0.0163200
836.556	0.0162733
836.634	0.0162923
836.712	0.0163531
836.790	0.0162288
836.869	0.0162237
836.947	0.0162513
837.025	0.0162579
837.103	0.0162398
837.181	0.0163155
837.259	0.0163130
837.337	0.0164140
837.415	0.0163912
837.494	0.0164642
837.572	0.0165409
837.650	0.0165978
837.728	0.0165010
837.806	0.0165446
837.884	0.0166064
837.962	0.0168013
838.040	0.0167584
838.119	0.0168404
838.197	0.0167288
838.275	0.0166106
838.353	0.0167754
838.431	0.0169592
838.509	0.0169694
838.587	0.0167834
838.665	0.0169122
838.744	0.0166825
838.822	0.0167717
838.900	0.0168009
838.978	0.0167117
839.056	0.0166590
839.134	0.0166104
839.212	0.0167101
839.290	0.0168259
839.369	0.0168229
839.447	0.0166693
839.525	0.0166884
839.603	0.0166875
839.681	0.0167825
839.759	0.0166593
839.837	0.0167411
839.915	0.0166947
839.994	0.0166529
840.072	0.0167511
840.150	0.0165857
840.228	0.0165956
840.306	0.0165527
840.384	0.0165473
840.462	0.0166589
840.540	0.0164052
840.619	0.0166920
840.697	0.0165232
840.775	0.0164817
840.853	0.0163949
840.931	0.0164230
841.009	0.0163399
841.087	0.0164276
841.165	0.0164245
841.244	0.0163422
841.322	0.0162809
841.400	0.0162944
841.478	0.0163698
841.556	0.0162206
841.634	0.0162412
841.712	0.0165049
841.790	0.0163194
841.869	0.0161637
841.947	0.0163789
842.025	0.0165206
842.103	0.0162670
842.181	0.0163579
842.259	0.0164695
842.337	0.0164861
842.415	0.0164989
842.494	0.0165697
842.572	0.0165104
842.650	0.0166234
842.728	0.0165185
842.806	0.0165692
842.884	0.0165762
842.962	0.0163640
843.040	0.0167036
843.119	0.0165958
843.197	0.0166189
843.275	0.0166807
843.353	0.0167323
843.431	0.0167110
843.509	0.0166741
843.587	0.0167381
843.665	0.0168346
843.744	0.0167052
843.822	0.0167222
843.900	0.0167540
843.978	0.0167689
844.056	0.0167038
844.134	0.0167278
844.212	0.0167157
844.290	0.0167228
844.369	0.0167233
844.447	0.0166302
844.525	0.0165337
844.603	0.0165903
844.681	0.0165958
844.759	0.0166125
844.837	0.0166214
844.915	0.0165279
844.994	0.0165276
845.072	0.0166000
845.150	0.0166461
845.228	0.0166894
845.306	0.0167397
845.384	0.0167419
845.462	0.0168360
845.540	0.0169041
845.619	0.0169684
845.697	0.0168683
845.775	0.0168147
845.853	0.0168721
845.931	0.0167745
846.009	0.0168413
846.087	0.0170082
846.165	0.0168829
846.244	0.0168840
846.322	0.0168032
846.400	0.0169003
846.478	0.0167647
846.556	0.0166931
846.634	0.0168001
846.712	0.0166647
846.790	0.0167754
846.869	0.0167615
846.947	0.0168700
847.025	0.0166929
847.103	0.0167204
847.181	0.0167516
847.259	0.0168369
847.337	0.0169744
847.415	0.0169047
847.494	0.0169835
847.572	0.0169012
847.650	0.0169535
847.728	0.0169677
847.806	0.0171217
847.884	0.0169455
847.962	0.0169746
848.040	0.0170743
848.119	0.0170546
848.197	0.0170598
848.275	0.0170348
848.353	0.0171021
848.431	0.0169957
848.509	0.0169521
848.587	0.0170116
848.665	0.0170110
848.744	0.0169347
848.822	0.0168842
848.900	0.0169132
848.978	0.0167936
849.056	0.0167278
849.134	0.0166817
849.212	0.0167314
849.290	0.0166117
849.369	0.0165311
849.447	0.0167169
849.525	0.0167380
849.603	0.0166114
849.681	0.0166644
849.759	0.0168161
849.837	0.0167451
849.915	0.0166325
849.994	0.0168543
850.072	0.0168014
850.150	0.0169318
850.228	0.0168967
850.306	0.0169046
850.384	0.0168108
850.462	0.0169241
850.540	0.0168834
850.619	0.0168579
850.697	0.0168788
850.775	0.0169427
850.853	0.0168911
850.931	0.0169637
851.009	0.0167471
851.087	0.0167609
851.165	0.0166647
851.244	0.0168201
851.322	0.0165597
851.400	0.0166377
851.478	0.0167613
851.556	0.0166011
851.634	0.0163533
851.712	0.0164606
851.790	0.0163864
851.869	0.0164236
851.947	0.0164839
852.025	0.0163509
852.103	0.0164173
852.181	0.0165426
852.259	0.0164887
852.337	0.0163949
852.415	0.0164697
852.494	0.0163541
852.572	0.0164466
852.650	0.0164986
852.728	0.0164839
852.806	0.0164912
852.884	0.0164974
852.962	0.0165681
853.040	0.0164736
853.119	0.0165112
853.197	0.0165141
853.275	0.0165266
853.353	0.0164959
853.431	0.0165858
853.509	0.0166743
853.587	0.0165829
853.665	0.0166060
853.744	0.0167661
853.822	0.0167557
853.900	0.0167062
853.978	0.0167427
854.056	0.0167113
854.134	0.0168085
854.212	0.0170419
854.290	0.0170309
854.369	0.0169569
854.447	0.0169306
854.525	0.0171004
854.603	0.0170840
854.681	0.0170741
854.759	0.0170842
854.837	0.0171303
854.915	0.0171451
854.994	0.0170547
855.072	0.0171030
855.150	0.0171523
855.228	0.0169453
855.306	0.0170631
855.384	0.0168632
855.462	0.0169199
855.540	0.0169558
855.619	0.0170164
855.697	0.0167633
855.775	0.0167761
855.853	0.0167961
855.931	0.0169158
856.009	0.0168220
856.087	0.0168005
856.165	0.0168776
856.244	0.0169566
856.322	0.0169867
856.400	0.0168685
856.478	0.0171099
856.556	0.0169703
856.634	0.0169753
856.712	0.0170586
856.790	0.0169596
856.869	0.0170091
856.947	0.0169212
857.025	0.0168718
857.103	0.0169175
857.181	0.0170653
857.259	0.0169318
857.337	0.0168966
857.415	0.0168129
857.494	0.0167815
857.572	0.0166740
857.650	0.0167696
857.728	0.0168312
857.806	0.0167271
857.884	0.0165308
857.962	0.0166181
858.040	0.0167213
858.119	0.0167097
858.197	0.0163967
858.275	0.0165532
858.353	0.0166766
858.431	0.0165531
858.509	0.0165109
858.587	0.0166745
858.665	0.0167178
858.744	0.0167209
858.822	0.0165650
858.900	0.0167166
858.978	0.0167435
859.056	0.0166689
859.134	0.0167084
859.212	0.0165734
859.290	0.0166323
859.369	0.0165894
859.447	0.0166203
859.525	0.0165847
859.603	0.0167673
859.681	0.0166624
859.759	0.0164452
859.837	0.0165644
859.915	0.0164949
