06/01/2022	17:18:18	Ver.	4.1	UNKNOWN
Optical Delay	599.981738	Delta X		0.078125	Sweeps	1	Scan Rate	0/0
Coordinates	Axis 1	NaN	Axis 2	NaN	Axis 3	NaN	Axis 4	NaN	Axis 5	NaN	Axis 6	0.000000
TX Power	0.000000	RX Power	0.000000

599.982	0.0168026
600.060	0.0167667
600.138	0.0167292
600.216	0.0168696
600.294	0.0166797
600.372	0.0168906
600.450	0.0167052
600.529	0.0167352
600.607	0.0166492
600.685	0.0167699
600.763	0.0168433
600.841	0.0168181
600.919	0.0168283
600.997	0.0168559
601.075	0.0167616
601.154	0.0166669
601.232	0.0167352
601.310	0.0168819
601.388	0.0168221
601.466	0.0167924
601.544	0.0167558
601.622	0.0167373
601.700	0.0167278
601.779	0.0167409
601.857	0.0167733
601.935	0.0168277
602.013	0.0168102
602.091	0.0167343
602.169	0.0168580
602.247	0.0168287
602.325	0.0167313
602.404	0.0167458
602.482	0.0168029
602.560	0.0167619
602.638	0.0167587
602.716	0.0168569
602.794	0.0166473
602.872	0.0167004
602.950	0.0167466
603.029	0.0166797
603.107	0.0168067
603.185	0.0167912
603.263	0.0166553
603.341	0.0167033
603.419	0.0167793
603.497	0.0168286
603.575	0.0168239
603.654	0.0167066
603.732	0.0167158
603.810	0.0166807
603.888	0.0167731
603.966	0.0165908
604.044	0.0167636
604.122	0.0167882
604.200	0.0166962
604.279	0.0167220
604.357	0.0166926
604.435	0.0166799
604.513	0.0167447
604.591	0.0167811
604.669	0.0166704
604.747	0.0167219
604.825	0.0165952
604.904	0.0166972
604.982	0.0168485
605.060	0.0166209
605.138	0.0168729
605.216	0.0168304
605.294	0.0168652
605.372	0.0167263
605.450	0.0167560
605.529	0.0168467
605.607	0.0167252
605.685	0.0167762
605.763	0.0167648
605.841	0.0168270
605.919	0.0167680
605.997	0.0166003
606.075	0.0168141
606.154	0.0168419
606.232	0.0168084
606.310	0.0167064
606.388	0.0167400
606.466	0.0168607
606.544	0.0167154
606.622	0.0168522
606.700	0.0167509
606.779	0.0168102
606.857	0.0166329
606.935	0.0166401
607.013	0.0168591
607.091	0.0168204
607.169	0.0166990
607.247	0.0167748
607.325	0.0168273
607.404	0.0167171
607.482	0.0166656
607.560	0.0168127
607.638	0.0168554
607.716	0.0167177
607.794	0.0168674
607.872	0.0167177
607.950	0.0168935
608.029	0.0167707
608.107	0.0168690
608.185	0.0169291
608.263	0.0168494
608.341	0.0169095
608.419	0.0167582
608.497	0.0167735
608.575	0.0167345
608.654	0.0168299
608.732	0.0168369
608.810	0.0167743
608.888	0.0167979
608.966	0.0167183
609.044	0.0166063
609.122	0.0167059
609.200	0.0167780
609.279	0.0168338
609.357	0.0167068
609.435	0.0168576
609.513	0.0168548
609.591	0.0167471
609.669	0.0169144
609.747	0.0168892
609.825	0.0167841
609.904	0.0168479
609.982	0.0167152
610.060	0.0167937
610.138	0.0168002
610.216	0.0169178
610.294	0.0168423
610.372	0.0168655
610.450	0.0167960
610.529	0.0168610
610.607	0.0167390
610.685	0.0167560
610.763	0.0167801
610.841	0.0167077
610.919	0.0167970
610.997	0.0167279
611.075	0.0167425
611.154	0.0167309
611.232	0.0166982
611.310	0.0167378
611.388	0.0167703
611.466	0.0166823
611.544	0.0167107
611.622	0.0167063
611.700	0.0166624
611.779	0.0166702
611.857	0.0167258
611.935	0.0167779
612.013	0.0169513
612.091	0.0167898
612.169	0.0167049
612.247	0.0168038
612.325	0.0168276
612.404	0.0168966
612.482	0.0167809
612.560	0.0166429
612.638	0.0167697
612.716	0.0168377
612.794	0.0168689
612.872	0.0167054
612.950	0.0168099
613.029	0.0167796
613.107	0.0168759
613.185	0.0169268
613.263	0.0166639
613.341	0.0168572
613.419	0.0167693
613.497	0.0167760
613.575	0.0167381
613.654	0.0167484
613.732	0.0166082
613.810	0.0167191
613.888	0.0167635
613.966	0.0165962
614.044	0.0165369
614.122	0.0166886
614.200	0.0167749
614.279	0.0167445
614.357	0.0166020
614.435	0.0167469
614.513	0.0166610
614.591	0.0167208
614.669	0.0168700
614.747	0.0167683
614.825	0.0167248
614.904	0.0168082
614.982	0.0166139
615.060	0.0166552
615.138	0.0167529
615.216	0.0167487
615.294	0.0167590
615.372	0.0166740
615.450	0.0167109
615.529	0.0169208
615.607	0.0166615
615.685	0.0168946
615.763	0.0166139
615.841	0.0167067
615.919	0.0168825
615.997	0.0168590
616.075	0.0167823
616.154	0.0168434
616.232	0.0166719
616.310	0.0168051
616.388	0.0167442
616.466	0.0167735
616.544	0.0167900
616.622	0.0167687
616.700	0.0168789
616.779	0.0168638
616.857	0.0168462
616.935	0.0167823
617.013	0.0167910
617.091	0.0168509
617.169	0.0167932
617.247	0.0167876
617.325	0.0166640
617.404	0.0168275
617.482	0.0168895
617.560	0.0166906
617.638	0.0166913
617.716	0.0166594
617.794	0.0166743
617.872	0.0166885
617.950	0.0168850
618.029	0.0167391
618.107	0.0168627
618.185	0.0166660
618.263	0.0168401
618.341	0.0166879
618.419	0.0167669
618.497	0.0168663
618.575	0.0167444
618.654	0.0167970
618.732	0.0166523
618.810	0.0167951
618.888	0.0167135
618.966	0.0167694
619.044	0.0166415
619.122	0.0168510
619.200	0.0170021
619.279	0.0168723
619.357	0.0167508
619.435	0.0165901
619.513	0.0167564
619.591	0.0167034
619.669	0.0167993
619.747	0.0167507
619.825	0.0169115
619.904	0.0167976
619.982	0.0168604
620.060	0.0167382
620.138	0.0167734
620.216	0.0168362
620.294	0.0167451
620.372	0.0166599
620.450	0.0167775
620.529	0.0167577
620.607	0.0166852
620.685	0.0167143
620.763	0.0168304
620.841	0.0167745
620.919	0.0167296
620.997	0.0167657
621.075	0.0167155
621.154	0.0166988
621.232	0.0168549
621.310	0.0167891
621.388	0.0167120
621.466	0.0167780
621.544	0.0168211
621.622	0.0168052
621.700	0.0167768
621.779	0.0166663
621.857	0.0166716
621.935	0.0167542
622.013	0.0167690
622.091	0.0166868
622.169	0.0168784
622.247	0.0167373
622.325	0.0166894
622.404	0.0167352
622.482	0.0167078
622.560	0.0166814
622.638	0.0167840
622.716	0.0167348
622.794	0.0167743
622.872	0.0168739
622.950	0.0167198
623.029	0.0167269
623.107	0.0166413
623.185	0.0168272
623.263	0.0167034
623.341	0.0167918
623.419	0.0168088
623.497	0.0167661
623.575	0.0167896
623.654	0.0167338
623.732	0.0168605
623.810	0.0167572
623.888	0.0167590
623.966	0.0167825
624.044	0.0165498
624.122	0.0167426
624.200	0.0166643
624.279	0.0167629
624.357	0.0167990
624.435	0.0167049
624.513	0.0167126
624.591	0.0169998
624.669	0.0168446
624.747	0.0166790
624.825	0.0168084
624.904	0.0168050
624.982	0.0166367
625.060	0.0168560
625.138	0.0167039
625.216	0.0167558
625.294	0.0167955
625.372	0.0167060
625.450	0.0166914
625.529	0.0169029
625.607	0.0167258
625.685	0.0166444
625.763	0.0167937
625.841	0.0168135
625.919	0.0168565
625.997	0.0167146
626.075	0.0166632
626.154	0.0168035
626.232	0.0167826
626.310	0.0167700
626.388	0.0168653
626.466	0.0167122
626.544	0.0166473
626.622	0.0166435
626.700	0.0167095
626.779	0.0167980
626.857	0.0167860
626.935	0.0167342
627.013	0.0167835
627.091	0.0166891
627.169	0.0167105
627.247	0.0167593
627.325	0.0167532
627.404	0.0167644
627.482	0.0167686
627.560	0.0168012
627.638	0.0168209
627.716	0.0166795
627.794	0.0166972
627.872	0.0168015
627.950	0.0167934
628.029	0.0167670
628.107	0.0168958
628.185	0.0167902
628.263	0.0166582
628.341	0.0167249
628.419	0.0167414
628.497	0.0168685
628.575	0.0168551
628.654	0.0166418
628.732	0.0166756
628.810	0.0167324
628.888	0.0168400
628.966	0.0168893
629.044	0.0168170
629.122	0.0168230
629.200	0.0168819
629.279	0.0167789
629.357	0.0168436
629.435	0.0168251
629.513	0.0167993
629.591	0.0169646
629.669	0.0166911
629.747	0.0166886
629.825	0.0167769
629.904	0.0167033
629.982	0.0166768
630.060	0.0168880
630.138	0.0166804
630.216	0.0166798
630.294	0.0167116
630.372	0.0167407
630.450	0.0168880
630.529	0.0167345
630.607	0.0166661
630.685	0.0167809
630.763	0.0167593
630.841	0.0167337
630.919	0.0167252
630.997	0.0166840
631.075	0.0167282
631.154	0.0167163
631.232	0.0167304
631.310	0.0167665
631.388	0.0165568
631.466	0.0167271
631.544	0.0168147
631.622	0.0166908
631.700	0.0166706
631.779	0.0167355
631.857	0.0168161
631.935	0.0166937
632.013	0.0166945
632.091	0.0165977
632.169	0.0168029
632.247	0.0166882
632.325	0.0167048
632.404	0.0167490
632.482	0.0168507
632.560	0.0167477
632.638	0.0167927
632.716	0.0167545
632.794	0.0167267
632.872	0.0167085
632.950	0.0167860
633.029	0.0168690
633.107	0.0169018
633.185	0.0166953
633.263	0.0167686
633.341	0.0167335
633.419	0.0167776
633.497	0.0167467
633.575	0.0167202
633.654	0.0167413
633.732	0.0167479
633.810	0.0167349
633.888	0.0166589
633.966	0.0167233
634.044	0.0167288
634.122	0.0167433
634.200	0.0166864
634.279	0.0168262
634.357	0.0168233
634.435	0.0168235
634.513	0.0167196
634.591	0.0167896
634.669	0.0167370
634.747	0.0168900
634.825	0.0167493
634.904	0.0169077
634.982	0.0168664
635.060	0.0167529
635.138	0.0167760
635.216	0.0168787
635.294	0.0167665
635.372	0.0167612
635.450	0.0167746
635.529	0.0166721
635.607	0.0166914
635.685	0.0167382
635.763	0.0167539
635.841	0.0168679
635.919	0.0166674
635.997	0.0167706
636.075	0.0167963
636.154	0.0167358
636.232	0.0168607
636.310	0.0167654
636.388	0.0166737
636.466	0.0166689
636.544	0.0167462
636.622	0.0165647
636.700	0.0167520
636.779	0.0167658
636.857	0.0167004
636.935	0.0167576
637.013	0.0168057
637.091	0.0168019
637.169	0.0168064
637.247	0.0167393
637.325	0.0167731
637.404	0.0168427
637.482	0.0167776
637.560	0.0167863
637.638	0.0168617
637.716	0.0168533
637.794	0.0167221
637.872	0.0167506
637.950	0.0168244
638.029	0.0167828
638.107	0.0167819
638.185	0.0167999
638.263	0.0169231
638.341	0.0167163
638.419	0.0168317
638.497	0.0168369
638.575	0.0167348
638.654	0.0166796
638.732	0.0167485
638.810	0.0167060
638.888	0.0168841
638.966	0.0168400
639.044	0.0168420
639.122	0.0167924
639.200	0.0167100
639.279	0.0166991
639.357	0.0166760
639.435	0.0167889
639.513	0.0167800
639.591	0.0167425
639.669	0.0166879
639.747	0.0167875
639.825	0.0168157
639.904	0.0168443
639.982	0.0168156
640.060	0.0169095
640.138	0.0166734
640.216	0.0167426
640.294	0.0166338
640.372	0.0167688
640.450	0.0168016
640.529	0.0167268
640.607	0.0167575
640.685	0.0168263
640.763	0.0167687
640.841	0.0167500
640.919	0.0169363
640.997	0.0168394
641.075	0.0167365
641.154	0.0167753
641.232	0.0166131
641.310	0.0166329
641.388	0.0167165
641.466	0.0167642
641.544	0.0167320
641.622	0.0167482
641.700	0.0166591
641.779	0.0167426
641.857	0.0167876
641.935	0.0166270
642.013	0.0167928
642.091	0.0167995
642.169	0.0167969
642.247	0.0167090
642.325	0.0167415
642.404	0.0168651
642.482	0.0168360
642.560	0.0167395
642.638	0.0168452
642.716	0.0167568
642.794	0.0168197
642.872	0.0168180
642.950	0.0167436
643.029	0.0167384
643.107	0.0168362
643.185	0.0168382
643.263	0.0168267
643.341	0.0168446
643.419	0.0167381
643.497	0.0168092
643.575	0.0167449
643.654	0.0168376
643.732	0.0167987
643.810	0.0167085
643.888	0.0166673
643.966	0.0166935
644.044	0.0167410
644.122	0.0166989
644.200	0.0166574
644.279	0.0168533
644.357	0.0168881
644.435	0.0167051
644.513	0.0167545
644.591	0.0168172
644.669	0.0167281
644.747	0.0169453
644.825	0.0167216
644.904	0.0167246
644.982	0.0167784
645.060	0.0167413
645.138	0.0168055
645.216	0.0169420
645.294	0.0168041
645.372	0.0167497
645.450	0.0167525
645.529	0.0167532
645.607	0.0167700
645.685	0.0167271
645.763	0.0168134
645.841	0.0168589
645.919	0.0167526
645.997	0.0168958
646.075	0.0167552
646.154	0.0166975
646.232	0.0167855
646.310	0.0168353
646.388	0.0168296
646.466	0.0167057
646.544	0.0167182
646.622	0.0168042
646.700	0.0170167
646.779	0.0168758
646.857	0.0166959
646.935	0.0167313
647.013	0.0168468
647.091	0.0166834
647.169	0.0168301
647.247	0.0166873
647.325	0.0167276
647.404	0.0166864
647.482	0.0167728
647.560	0.0168348
647.638	0.0167220
647.716	0.0168053
647.794	0.0167516
647.872	0.0167595
647.950	0.0167237
648.029	0.0169037
648.107	0.0167989
648.185	0.0167796
648.263	0.0166666
648.341	0.0167953
648.419	0.0168084
648.497	0.0167081
648.575	0.0167779
648.654	0.0167699
648.732	0.0167903
648.810	0.0168243
648.888	0.0167253
648.966	0.0168433
649.044	0.0167301
649.122	0.0168014
649.200	0.0168769
649.279	0.0168333
649.357	0.0167473
649.435	0.0167679
649.513	0.0168359
649.591	0.0167225
649.669	0.0167429
649.747	0.0167137
649.825	0.0168421
649.904	0.0168923
649.982	0.0167880
650.060	0.0167366
650.138	0.0167788
650.216	0.0167083
650.294	0.0168282
650.372	0.0166494
650.450	0.0166822
650.529	0.0167535
650.607	0.0168300
650.685	0.0168180
650.763	0.0167348
650.841	0.0168502
650.919	0.0167934
650.997	0.0168098
651.075	0.0166264
651.154	0.0167352
651.232	0.0167059
651.310	0.0166573
651.388	0.0167979
651.466	0.0166576
651.544	0.0167410
651.622	0.0167220
651.700	0.0168803
651.779	0.0167553
651.857	0.0167510
651.935	0.0166851
652.013	0.0166933
652.091	0.0167783
652.169	0.0166792
652.247	0.0167512
652.325	0.0166994
652.404	0.0167882
652.482	0.0168427
652.560	0.0166238
652.638	0.0167545
652.716	0.0167097
652.794	0.0169120
652.872	0.0167661
652.950	0.0166842
653.029	0.0169564
653.107	0.0167057
653.185	0.0167469
653.263	0.0166751
653.341	0.0167208
653.419	0.0167621
653.497	0.0168153
653.575	0.0169072
653.654	0.0167352
653.732	0.0166562
653.810	0.0166418
653.888	0.0167316
653.966	0.0168282
654.044	0.0167490
654.122	0.0168399
654.200	0.0169778
654.279	0.0167693
654.357	0.0166881
654.435	0.0167458
654.513	0.0168622
654.591	0.0167467
654.669	0.0166376
654.747	0.0168330
654.825	0.0169190
654.904	0.0167533
654.982	0.0167213
655.060	0.0167536
655.138	0.0167767
655.216	0.0166882
655.294	0.0168280
655.372	0.0167461
655.450	0.0167390
655.529	0.0167645
655.607	0.0167247
655.685	0.0167818
655.763	0.0168410
655.841	0.0167175
655.919	0.0166654
655.997	0.0166621
656.075	0.0168422
656.154	0.0167401
656.232	0.0166849
656.310	0.0167971
656.388	0.0167645
656.466	0.0167821
656.544	0.0167079
656.622	0.0167359
656.700	0.0166834
656.779	0.0167588
656.857	0.0168274
656.935	0.0166950
657.013	0.0166698
657.091	0.0167252
657.169	0.0166378
657.247	0.0167413
657.325	0.0167901
657.404	0.0167601
657.482	0.0167696
657.560	0.0167449
657.638	0.0166738
657.716	0.0168260
657.794	0.0167075
657.872	0.0167812
657.950	0.0168124
658.029	0.0166438
658.107	0.0167398
658.185	0.0166405
658.263	0.0167387
658.341	0.0166948
658.419	0.0167654
658.497	0.0167255
658.575	0.0166943
658.654	0.0168112
658.732	0.0166795
658.810	0.0166748
658.888	0.0166399
658.966	0.0168770
659.044	0.0167670
659.122	0.0167183
659.200	0.0167835
659.279	0.0168433
659.357	0.0167053
659.435	0.0167683
659.513	0.0166805
659.591	0.0167821
659.669	0.0166840
659.747	0.0166949
659.825	0.0167788
659.904	0.0167314
659.982	0.0166624
660.060	0.0166328
660.138	0.0165947
660.216	0.0166989
660.294	0.0167853
660.372	0.0166962
660.450	0.0167265
660.529	0.0167967
660.607	0.0167600
660.685	0.0165276
660.763	0.0167624
660.841	0.0167455
660.919	0.0167908
660.997	0.0167925
661.075	0.0167747
661.154	0.0166677
661.232	0.0168005
661.310	0.0168513
661.388	0.0168456
661.466	0.0166378
661.544	0.0167487
661.622	0.0168568
661.700	0.0166195
661.779	0.0167245
661.857	0.0166940
661.935	0.0166134
662.013	0.0167698
662.091	0.0166917
662.169	0.0167755
662.247	0.0166235
662.325	0.0167000
662.404	0.0166715
662.482	0.0166750
662.560	0.0167959
662.638	0.0168986
662.716	0.0166776
662.794	0.0168094
662.872	0.0165791
662.950	0.0167715
663.029	0.0166749
663.107	0.0168331
663.185	0.0166826
663.263	0.0166815
663.341	0.0166350
663.419	0.0167318
663.497	0.0165646
663.575	0.0166422
663.654	0.0167429
663.732	0.0167863
663.810	0.0166753
663.888	0.0166626
663.966	0.0166982
664.044	0.0167495
664.122	0.0167267
664.200	0.0167527
664.279	0.0167873
664.357	0.0167007
664.435	0.0167757
664.513	0.0166851
664.591	0.0167265
664.669	0.0167330
664.747	0.0168106
664.825	0.0167599
664.904	0.0166588
664.982	0.0168111
665.060	0.0168510
665.138	0.0166493
665.216	0.0166714
665.294	0.0167172
665.372	0.0166753
665.450	0.0168465
665.529	0.0167585
665.607	0.0167940
665.685	0.0168003
665.763	0.0166623
665.841	0.0167015
665.919	0.0166840
665.997	0.0167600
666.075	0.0168732
666.154	0.0168076
666.232	0.0168134
666.310	0.0168069
666.388	0.0168446
666.466	0.0166081
666.544	0.0168038
666.622	0.0168273
666.700	0.0167828
666.779	0.0169082
666.857	0.0168983
666.935	0.0167493
667.013	0.0168049
667.091	0.0168005
667.169	0.0168724
667.247	0.0168263
667.325	0.0168797
667.404	0.0167340
667.482	0.0168078
667.560	0.0168337
667.638	0.0168670
667.716	0.0169454
667.794	0.0168594
667.872	0.0167838
667.950	0.0167714
668.029	0.0168477
668.107	0.0168935
668.185	0.0167576
668.263	0.0168088
668.341	0.0169216
668.419	0.0168843
668.497	0.0168716
668.575	0.0167643
668.654	0.0168204
668.732	0.0167705
668.810	0.0167759
668.888	0.0170128
668.966	0.0168192
669.044	0.0170298
669.122	0.0169556
669.200	0.0168572
669.279	0.0169313
669.357	0.0167815
669.435	0.0168353
669.513	0.0169750
669.591	0.0170236
669.669	0.0168456
669.747	0.0167879
669.825	0.0168715
669.904	0.0167612
669.982	0.0168002
670.060	0.0168948
670.138	0.0169324
670.216	0.0169496
670.294	0.0169814
670.372	0.0169585
670.450	0.0166773
670.529	0.0168846
670.607	0.0168328
670.685	0.0167726
670.763	0.0167982
670.841	0.0169879
670.919	0.0169325
670.997	0.0168774
671.075	0.0169764
671.154	0.0169431
671.232	0.0168836
671.310	0.0169050
671.388	0.0169339
671.466	0.0168796
671.544	0.0168982
671.622	0.0169468
671.700	0.0168010
671.779	0.0168209
671.857	0.0168819
671.935	0.0168616
672.013	0.0168469
672.091	0.0168783
672.169	0.0168110
672.247	0.0167276
672.325	0.0169331
672.404	0.0169087
672.482	0.0168134
672.560	0.0169418
672.638	0.0168547
672.716	0.0168206
672.794	0.0168603
672.872	0.0168810
672.950	0.0168095
673.029	0.0166753
673.107	0.0168075
673.185	0.0167497
673.263	0.0167887
673.341	0.0167698
673.419	0.0167809
673.497	0.0167765
673.575	0.0167656
673.654	0.0168658
673.732	0.0169262
673.810	0.0168000
673.888	0.0168863
673.966	0.0166723
674.044	0.0167340
674.122	0.0168837
674.200	0.0167568
674.279	0.0167485
674.357	0.0167194
674.435	0.0166418
674.513	0.0166566
674.591	0.0169164
674.669	0.0167863
674.747	0.0167551
674.825	0.0167275
674.904	0.0166872
674.982	0.0166768
675.060	0.0166066
675.138	0.0167892
675.216	0.0167451
675.294	0.0167085
675.372	0.0168664
675.450	0.0167827
675.529	0.0167734
675.607	0.0166959
675.685	0.0167788
675.763	0.0166216
675.841	0.0167518
675.919	0.0167757
675.997	0.0168344
676.075	0.0167574
676.154	0.0167260
676.232	0.0166163
676.310	0.0166440
676.388	0.0166811
676.466	0.0165965
676.544	0.0166329
676.622	0.0166528
676.700	0.0166454
676.779	0.0167197
676.857	0.0165799
676.935	0.0166022
677.013	0.0165980
677.091	0.0167002
677.169	0.0167740
677.247	0.0167020
677.325	0.0166699
677.404	0.0167168
677.482	0.0166965
677.560	0.0167680
677.638	0.0166934
677.716	0.0166727
677.794	0.0166962
677.872	0.0166988
677.950	0.0167097
678.029	0.0167073
678.107	0.0166625
678.185	0.0165968
678.263	0.0166819
678.341	0.0167672
678.419	0.0166603
678.497	0.0166466
678.575	0.0166299
678.654	0.0166959
678.732	0.0166156
678.810	0.0166002
678.888	0.0166316
678.966	0.0167056
679.044	0.0167627
679.122	0.0167300
679.200	0.0168137
679.279	0.0166895
679.357	0.0166960
679.435	0.0168696
679.513	0.0167443
679.591	0.0166309
679.669	0.0167407
679.747	0.0166399
679.825	0.0167551
679.904	0.0167297
679.982	0.0165894
680.060	0.0166465
680.138	0.0167360
680.216	0.0167705
680.294	0.0166384
680.372	0.0167622
680.450	0.0168264
680.529	0.0165960
680.607	0.0167525
680.685	0.0168911
680.763	0.0168170
680.841	0.0167389
680.919	0.0166960
680.997	0.0168530
681.075	0.0166405
681.154	0.0167850
681.232	0.0167075
681.310	0.0167303
681.388	0.0167349
681.466	0.0167705
681.544	0.0168601
681.622	0.0167896
681.700	0.0167339
681.779	0.0167212
681.857	0.0168600
681.935	0.0167011
682.013	0.0166897
682.091	0.0168536
682.169	0.0168638
682.247	0.0167652
682.325	0.0166306
682.404	0.0168475
682.482	0.0168272
682.560	0.0167422
682.638	0.0168724
682.716	0.0167733
682.794	0.0167728
682.872	0.0168320
682.950	0.0169249
683.029	0.0167964
683.107	0.0168466
683.185	0.0168688
683.263	0.0168224
683.341	0.0168103
683.419	0.0168394
683.497	0.0169440
683.575	0.0167781
683.654	0.0167185
683.732	0.0167255
683.810	0.0168440
683.888	0.0167584
683.966	0.0166113
684.044	0.0166109
684.122	0.0165826
684.200	0.0165588
684.279	0.0166762
684.357	0.0167435
684.435	0.0164053
684.513	0.0165073
684.591	0.0165070
684.669	0.0164815
684.747	0.0165960
684.825	0.0165240
684.904	0.0167763
684.982	0.0170494
685.060	0.0171803
685.138	0.0173746
685.216	0.0176545
685.294	0.0177149
685.372	0.0177893
685.450	0.0179733
685.529	0.0179787
685.607	0.0176907
685.685	0.0174412
685.763	0.0170247
685.841	0.0164431
685.919	0.0158923
685.997	0.0152534
686.075	0.0145471
686.154	0.0141055
686.232	0.0138338
686.310	0.0137512
686.388	0.0139798
686.466	0.0142912
686.544	0.0151562
686.622	0.0159670
686.700	0.0168314
686.779	0.0180525
686.857	0.0191323
686.935	0.0201445
687.013	0.0211323
687.091	0.0216750
687.169	0.0220842
687.247	0.0224070
687.325	0.0221636
687.404	0.0215427
687.482	0.0209723
687.560	0.0200024
687.638	0.0187433
687.716	0.0170861
687.794	0.0153895
687.872	0.0136760
687.950	0.0119508
688.029	0.0102529
688.107	0.00888191
688.185	0.00787567
688.263	0.00724327
688.341	0.00744301
688.419	0.00799934
688.497	0.00887169
688.575	0.0104110
688.654	0.0124154
688.732	0.0148437
688.810	0.0173539
688.888	0.0200561
688.966	0.0224506
689.044	0.0247720
689.122	0.0266655
689.200	0.0279236
689.279	0.0288562
689.357	0.0291277
689.435	0.0285227
689.513	0.0274023
689.591	0.0260160
689.669	0.0238593
689.747	0.0212952
689.825	0.0188828
689.904	0.0161038
689.982	0.0134238
690.060	0.0108596
690.138	0.00878960
690.216	0.00704636
690.294	0.00586052
690.372	0.00528389
690.450	0.00506233
690.529	0.00522247
690.607	0.00624290
690.685	0.00748024
690.763	0.00896683
690.841	0.0107148
690.919	0.0127631
690.997	0.0144761
691.075	0.0163667
691.154	0.0181893
691.232	0.0198189
691.310	0.0213811
691.388	0.0225556
691.466	0.0235806
691.544	0.0243948
691.622	0.0248029
691.700	0.0251107
691.779	0.0250046
691.857	0.0246146
691.935	0.0241253
692.013	0.0234217
692.091	0.0225202
692.169	0.0213442
692.247	0.0202261
692.325	0.0190536
692.404	0.0177959
692.482	0.0167432
692.560	0.0157409
692.638	0.0148715
692.716	0.0139616
692.794	0.0132890
692.872	0.0128732
692.950	0.0125043
693.029	0.0123987
693.107	0.0123752
693.185	0.0124460
693.263	0.0125188
693.341	0.0129498
693.419	0.0132814
693.497	0.0135641
693.575	0.0137880
693.654	0.0141372
693.732	0.0143652
693.810	0.0145444
693.888	0.0149279
693.966	0.0150315
694.044	0.0151485
694.122	0.0153378
694.200	0.0154795
694.279	0.0157689
694.357	0.0159605
694.435	0.0161958
694.513	0.0165940
694.591	0.0168535
694.669	0.0173791
694.747	0.0179545
694.825	0.0183804
694.904	0.0187405
694.982	0.0194804
695.060	0.0199160
695.138	0.0203381
695.216	0.0208572
695.294	0.0209795
695.372	0.0212138
695.450	0.0212982
695.529	0.0211433
695.607	0.0211048
695.685	0.0207275
695.763	0.0204539
695.841	0.0199543
695.919	0.0194878
695.997	0.0188219
696.075	0.0180318
696.154	0.0174022
696.232	0.0166151
696.310	0.0161584
696.388	0.0156497
696.466	0.0152386
696.544	0.0146433
696.622	0.0143557
696.700	0.0143004
696.779	0.0140912
696.857	0.0140454
696.935	0.0141342
697.013	0.0141799
697.091	0.0142603
697.169	0.0142418
697.247	0.0145036
697.325	0.0146445
697.404	0.0146823
697.482	0.0149022
697.560	0.0147427
697.638	0.0147646
697.716	0.0146565
697.794	0.0147477
697.872	0.0148402
697.950	0.0148742
698.029	0.0149507
698.107	0.0149297
698.185	0.0151730
698.263	0.0154946
698.341	0.0156502
698.419	0.0159124
698.497	0.0161569
698.575	0.0165681
698.654	0.0170123
698.732	0.0174323
698.810	0.0178285
698.888	0.0183167
698.966	0.0187251
699.044	0.0191175
699.122	0.0195249
699.200	0.0198357
699.279	0.0202177
699.357	0.0204409
699.435	0.0206766
699.513	0.0207801
699.591	0.0207259
699.669	0.0207533
699.747	0.0205635
699.825	0.0204066
699.904	0.0201137
699.982	0.0197585
700.060	0.0193317
700.138	0.0189175
700.216	0.0184708
700.294	0.0177607
700.372	0.0171512
700.450	0.0166795
700.529	0.0161629
700.607	0.0155354
700.685	0.0150410
700.763	0.0145917
700.841	0.0143090
700.919	0.0140001
700.997	0.0140947
701.075	0.0140790
701.154	0.0139718
701.232	0.0141596
701.310	0.0143080
701.388	0.0145025
701.466	0.0145908
701.544	0.0148806
701.622	0.0150363
701.700	0.0151403
701.779	0.0152663
701.857	0.0153457
701.935	0.0153553
702.013	0.0154034
702.091	0.0154826
702.169	0.0154077
702.247	0.0153718
702.325	0.0154442
702.404	0.0155486
702.482	0.0154539
702.560	0.0155058
702.638	0.0155461
702.716	0.0156107
702.794	0.0156493
702.872	0.0159123
702.950	0.0161684
703.029	0.0162563
703.107	0.0165930
703.185	0.0167811
703.263	0.0169347
703.341	0.0173098
703.419	0.0174152
703.497	0.0177571
703.575	0.0178330
703.654	0.0181242
703.732	0.0183378
703.810	0.0185122
703.888	0.0187907
703.966	0.0189502
704.044	0.0191481
704.122	0.0194885
704.200	0.0197534
704.279	0.0197549
704.357	0.0197514
704.435	0.0199858
704.513	0.0198961
704.591	0.0196579
704.669	0.0194359
704.747	0.0190154
704.825	0.0186593
704.904	0.0180868
704.982	0.0176738
705.060	0.0170907
705.138	0.0164536
705.216	0.0160858
705.294	0.0156358
705.372	0.0151536
705.450	0.0149133
705.529	0.0147082
705.607	0.0147086
705.685	0.0147566
705.763	0.0148372
705.841	0.0149983
705.919	0.0152443
705.997	0.0154710
706.075	0.0158088
706.154	0.0159935
706.232	0.0160885
706.310	0.0161732
706.388	0.0161768
706.466	0.0162178
706.544	0.0161120
706.622	0.0161585
706.700	0.0159221
706.779	0.0158936
706.857	0.0155107
706.935	0.0152879
707.013	0.0152583
707.091	0.0151138
707.169	0.0150827
707.247	0.0150952
707.325	0.0152657
707.404	0.0153904
707.482	0.0155831
707.560	0.0157231
707.638	0.0159929
707.716	0.0163414
707.794	0.0166644
707.872	0.0168504
707.950	0.0172099
708.029	0.0172809
708.107	0.0175418
708.185	0.0174854
708.263	0.0177008
708.341	0.0179420
708.419	0.0180180
708.497	0.0180980
708.575	0.0180065
708.654	0.0179584
708.732	0.0179540
708.810	0.0180029
708.888	0.0179434
708.966	0.0179992
709.044	0.0181452
709.122	0.0183118
709.200	0.0183987
709.279	0.0183060
709.357	0.0184206
709.435	0.0184511
709.513	0.0185636
709.591	0.0185286
709.669	0.0184821
709.747	0.0182844
709.825	0.0183387
709.904	0.0182204
709.982	0.0178949
710.060	0.0178303
710.138	0.0177471
710.216	0.0173941
710.294	0.0170749
710.372	0.0168459
710.450	0.0166535
710.529	0.0162989
710.607	0.0159852
710.685	0.0159263
710.763	0.0158353
710.841	0.0156019
710.919	0.0153043
710.997	0.0153793
711.075	0.0154726
711.154	0.0152547
711.232	0.0154337
711.310	0.0153568
711.388	0.0152468
711.466	0.0153798
711.544	0.0154282
711.622	0.0154103
711.700	0.0154040
711.779	0.0154830
711.857	0.0155311
711.935	0.0154997
712.013	0.0156266
712.091	0.0156451
712.169	0.0156551
712.247	0.0157092
712.325	0.0156473
712.404	0.0157530
712.482	0.0160427
712.560	0.0159669
712.638	0.0161381
712.716	0.0162724
712.794	0.0163728
712.872	0.0164775
712.950	0.0164806
713.029	0.0165019
713.107	0.0166039
713.185	0.0167156
713.263	0.0166092
713.341	0.0168058
713.419	0.0167283
713.497	0.0166788
713.575	0.0168519
713.654	0.0166839
713.732	0.0168267
713.810	0.0167735
713.888	0.0168690
713.966	0.0171397
714.044	0.0172245
714.122	0.0174622
714.200	0.0174594
714.279	0.0178574
714.357	0.0181651
714.435	0.0182156
714.513	0.0184676
714.591	0.0188512
714.669	0.0191771
714.747	0.0193110
714.825	0.0191876
714.904	0.0192540
714.982	0.0194109
715.060	0.0192876
715.138	0.0191305
715.216	0.0188560
715.294	0.0186282
715.372	0.0184829
715.450	0.0182094
715.529	0.0176889
715.607	0.0172302
715.685	0.0168343
715.763	0.0164296
715.841	0.0160618
715.919	0.0156104
715.997	0.0154884
716.075	0.0151447
716.154	0.0148570
716.232	0.0149173
716.310	0.0146312
716.388	0.0146742
716.466	0.0145661
716.544	0.0146239
716.622	0.0148045
716.700	0.0149674
716.779	0.0149895
716.857	0.0152399
716.935	0.0154177
717.013	0.0154504
717.091	0.0158192
717.169	0.0158731
717.247	0.0159303
717.325	0.0159967
717.404	0.0161597
717.482	0.0159838
717.560	0.0159953
717.638	0.0162683
717.716	0.0162440
717.794	0.0162858
717.872	0.0162803
717.950	0.0161588
718.029	0.0164855
718.107	0.0165475
718.185	0.0165494
718.263	0.0167013
718.341	0.0168085
718.419	0.0169486
718.497	0.0170509
718.575	0.0172737
718.654	0.0172881
718.732	0.0173268
718.810	0.0175304
718.888	0.0177061
718.966	0.0176553
719.044	0.0177087
719.122	0.0177222
719.200	0.0176603
719.279	0.0178089
719.357	0.0177216
719.435	0.0175179
719.513	0.0174878
719.591	0.0174068
719.669	0.0173357
719.747	0.0173540
719.825	0.0172498
719.904	0.0172838
719.982	0.0172520
720.060	0.0173945
720.138	0.0175337
720.216	0.0175307
720.294	0.0177103
720.372	0.0177653
720.450	0.0179931
720.529	0.0178802
720.607	0.0178038
720.685	0.0179960
720.763	0.0178744
720.841	0.0177409
720.919	0.0174723
720.997	0.0172398
721.075	0.0171124
721.154	0.0168394
721.232	0.0165968
721.310	0.0164114
721.388	0.0161035
721.466	0.0159723
721.544	0.0159674
721.622	0.0158541
721.700	0.0157049
721.779	0.0157502
721.857	0.0157727
721.935	0.0160381
722.013	0.0160622
722.091	0.0161861
722.169	0.0162398
722.247	0.0165372
722.325	0.0167416
722.404	0.0165555
722.482	0.0166429
722.560	0.0167699
722.638	0.0167962
722.716	0.0167368
722.794	0.0166347
722.872	0.0163847
722.950	0.0163255
723.029	0.0163084
723.107	0.0160872
723.185	0.0158641
723.263	0.0157207
723.341	0.0156473
723.419	0.0156554
723.497	0.0156467
723.575	0.0158621
723.654	0.0157326
723.732	0.0159992
723.810	0.0159758
723.888	0.0161789
723.966	0.0163718
724.044	0.0164497
724.122	0.0166833
724.200	0.0167412
724.279	0.0170703
724.357	0.0169868
724.435	0.0170675
724.513	0.0171947
724.591	0.0172322
724.669	0.0171823
724.747	0.0173305
724.825	0.0173633
724.904	0.0172588
724.982	0.0171684
725.060	0.0173069
725.138	0.0171793
725.216	0.0172096
725.294	0.0173581
725.372	0.0172253
725.450	0.0171230
725.529	0.0171492
725.607	0.0171156
725.685	0.0170075
725.763	0.0171123
725.841	0.0171902
725.919	0.0170786
725.997	0.0171348
726.075	0.0171302
726.154	0.0171749
726.232	0.0170278
726.310	0.0170511
726.388	0.0172196
726.466	0.0172770
726.544	0.0170863
726.622	0.0171843
726.700	0.0171287
726.779	0.0170811
726.857	0.0171922
726.935	0.0170359
727.013	0.0170816
727.091	0.0170406
727.169	0.0169650
727.247	0.0169670
727.325	0.0169043
727.404	0.0170361
727.482	0.0169619
727.560	0.0167966
727.638	0.0168378
727.716	0.0170321
727.794	0.0169741
727.872	0.0168364
727.950	0.0168201
728.029	0.0169246
728.107	0.0168227
728.185	0.0167495
728.263	0.0166944
728.341	0.0167660
728.419	0.0165023
728.497	0.0164108
728.575	0.0160567
728.654	0.0159837
728.732	0.0158250
728.810	0.0156022
728.888	0.0155924
728.966	0.0154459
729.044	0.0154362
729.122	0.0153242
729.200	0.0152309
729.279	0.0154706
729.357	0.0155787
729.435	0.0156813
729.513	0.0158024
729.591	0.0160786
729.669	0.0162360
729.747	0.0162979
729.825	0.0163723
729.904	0.0168701
729.982	0.0168974
730.060	0.0170111
730.138	0.0170377
730.216	0.0170065
730.294	0.0173749
730.372	0.0173464
730.450	0.0173188
730.529	0.0174554
730.607	0.0174065
730.685	0.0175324
730.763	0.0173258
730.841	0.0173479
730.919	0.0174663
730.997	0.0173230
731.075	0.0174609
731.154	0.0174857
731.232	0.0173623
731.310	0.0174403
731.388	0.0173901
731.466	0.0173179
731.544	0.0173441
731.622	0.0172085
731.700	0.0170195
731.779	0.0169740
731.857	0.0169353
731.935	0.0169249
732.013	0.0167535
732.091	0.0168203
732.169	0.0167178
732.247	0.0165948
732.325	0.0165529
732.404	0.0165211
732.482	0.0165715
732.560	0.0165949
732.638	0.0166322
732.716	0.0167005
732.794	0.0168421
732.872	0.0167449
732.950	0.0169891
733.029	0.0170670
733.107	0.0170224
733.185	0.0170590
733.263	0.0170409
733.341	0.0170501
733.419	0.0170686
733.497	0.0171496
733.575	0.0171017
733.654	0.0170525
733.732	0.0169420
733.810	0.0170232
733.888	0.0169410
733.966	0.0170142
734.044	0.0170161
734.122	0.0170532
734.200	0.0170725
734.279	0.0169944
734.357	0.0168878
734.435	0.0169780
734.513	0.0169002
734.591	0.0168447
734.669	0.0168203
734.747	0.0168958
734.825	0.0168387
734.904	0.0168517
734.982	0.0166640
735.060	0.0166833
735.138	0.0165858
735.216	0.0164460
735.294	0.0163928
735.372	0.0161874
735.450	0.0160103
735.529	0.0160022
735.607	0.0160639
735.685	0.0158791
735.763	0.0159065
735.841	0.0159924
735.919	0.0161597
735.997	0.0160126
736.075	0.0162308
736.154	0.0162562
736.232	0.0163405
736.310	0.0163860
736.388	0.0165211
736.466	0.0165854
736.544	0.0166245
736.622	0.0166807
736.700	0.0167674
736.779	0.0166405
736.857	0.0167655
736.935	0.0168101
737.013	0.0165675
737.091	0.0168478
737.169	0.0168497
737.247	0.0165489
737.325	0.0165919
737.404	0.0166137
737.482	0.0165022
737.560	0.0164420
737.638	0.0166076
737.716	0.0166779
737.794	0.0167141
737.872	0.0167259
737.950	0.0167377
738.029	0.0166830
738.107	0.0168184
738.185	0.0169226
738.263	0.0172295
738.341	0.0171829
738.419	0.0171440
738.497	0.0172746
738.575	0.0173720
738.654	0.0176084
738.732	0.0175813
738.810	0.0176214
738.888	0.0177390
738.966	0.0175030
739.044	0.0174377
739.122	0.0174472
739.200	0.0173248
739.279	0.0173954
739.357	0.0170992
739.435	0.0171536
739.513	0.0168203
739.591	0.0168948
739.669	0.0167782
739.747	0.0167908
739.825	0.0166485
739.904	0.0167770
739.982	0.0167050
740.060	0.0166298
740.138	0.0167454
740.216	0.0166672
740.294	0.0166895
740.372	0.0168890
740.450	0.0168951
740.529	0.0167755
740.607	0.0167663
740.685	0.0168390
740.763	0.0169531
740.841	0.0166708
740.919	0.0165755
740.997	0.0166153
741.075	0.0167245
741.154	0.0165944
741.232	0.0165514
741.310	0.0166082
741.388	0.0165223
741.466	0.0165153
741.544	0.0164826
741.622	0.0164333
741.700	0.0164782
741.779	0.0163196
741.857	0.0163931
741.935	0.0163536
742.013	0.0163276
742.091	0.0163072
742.169	0.0163339
742.247	0.0161040
742.325	0.0159954
742.404	0.0161236
742.482	0.0159846
742.560	0.0159445
742.638	0.0160593
742.716	0.0159374
742.794	0.0159985
742.872	0.0160284
742.950	0.0161146
743.029	0.0161859
743.107	0.0163223
743.185	0.0165322
743.263	0.0164199
743.341	0.0164698
743.419	0.0166755
743.497	0.0167939
743.575	0.0170038
743.654	0.0169054
743.732	0.0171030
743.810	0.0171046
743.888	0.0171979
743.966	0.0171804
744.044	0.0171741
744.122	0.0173409
744.200	0.0174179
744.279	0.0173035
744.357	0.0173695
744.435	0.0173355
744.513	0.0173158
744.591	0.0173428
744.669	0.0172626
744.747	0.0171552
744.825	0.0172923
744.904	0.0171957
744.982	0.0171251
745.060	0.0171114
745.138	0.0170510
745.216	0.0170415
745.294	0.0170784
745.372	0.0169166
745.450	0.0168964
745.529	0.0170176
745.607	0.0168473
745.685	0.0168751
745.763	0.0168935
745.841	0.0167518
745.919	0.0166212
745.997	0.0168021
746.075	0.0165856
746.154	0.0165784
746.232	0.0165507
746.310	0.0163816
746.388	0.0163927
746.466	0.0163292
746.544	0.0162576
746.622	0.0163465
746.700	0.0164146
746.779	0.0162775
746.857	0.0163996
746.935	0.0163092
747.013	0.0163177
747.091	0.0165916
747.169	0.0166471
747.247	0.0164460
747.325	0.0168610
747.404	0.0169958
747.482	0.0169312
747.560	0.0169432
747.638	0.0171362
747.716	0.0171724
747.794	0.0171008
747.872	0.0173026
747.950	0.0173190
748.029	0.0172186
748.107	0.0171639
748.185	0.0171278
748.263	0.0172085
748.341	0.0170957
748.419	0.0169572
748.497	0.0170008
748.575	0.0168719
748.654	0.0166866
748.732	0.0168713
748.810	0.0166698
748.888	0.0165069
748.966	0.0165051
749.044	0.0165789
749.122	0.0165141
749.200	0.0163677
749.279	0.0163561
749.357	0.0162754
749.435	0.0163685
749.513	0.0163171
749.591	0.0163115
749.669	0.0163728
749.747	0.0163570
749.825	0.0163503
749.904	0.0162038
749.982	0.0162865
750.060	0.0162795
750.138	0.0163242
750.216	0.0163970
750.294	0.0164690
750.372	0.0164735
750.450	0.0164993
750.529	0.0165652
750.607	0.0165637
750.685	0.0166408
750.763	0.0166122
750.841	0.0169162
750.919	0.0169060
750.997	0.0168147
751.075	0.0168542
751.154	0.0170235
751.232	0.0169827
751.310	0.0171069
751.388	0.0170135
751.466	0.0168890
751.544	0.0170907
751.622	0.0170686
751.700	0.0169686
751.779	0.0169091
751.857	0.0167789
751.935	0.0168758
752.013	0.0169614
752.091	0.0169118
752.169	0.0168119
752.247	0.0167760
752.325	0.0168833
752.404	0.0168575
752.482	0.0169275
752.560	0.0170605
752.638	0.0170019
752.716	0.0170673
752.794	0.0171647
752.872	0.0169974
752.950	0.0171646
753.029	0.0170055
753.107	0.0171572
753.185	0.0169398
753.263	0.0170264
753.341	0.0168607
753.419	0.0168143
753.497	0.0167821
753.575	0.0169205
753.654	0.0168401
753.732	0.0166685
753.810	0.0166370
753.888	0.0166717
753.966	0.0165886
754.044	0.0165955
754.122	0.0167220
754.200	0.0166048
754.279	0.0167248
754.357	0.0166361
754.435	0.0167436
754.513	0.0166586
754.591	0.0168131
754.669	0.0166152
754.747	0.0167304
754.825	0.0167764
754.904	0.0168149
754.982	0.0168941
755.060	0.0167688
755.138	0.0167715
755.216	0.0168051
755.294	0.0167976
755.372	0.0167243
755.450	0.0166584
755.529	0.0167358
755.607	0.0168279
755.685	0.0166071
755.763	0.0166812
755.841	0.0165423
755.919	0.0165305
755.997	0.0165508
756.075	0.0165504
756.154	0.0166913
756.232	0.0166240
756.310	0.0165442
756.388	0.0165501
756.466	0.0165140
756.544	0.0165030
756.622	0.0166458
756.700	0.0166255
756.779	0.0167426
756.857	0.0166378
756.935	0.0166148
757.013	0.0165608
757.091	0.0165629
757.169	0.0165471
757.247	0.0165131
757.325	0.0165485
757.404	0.0168417
757.482	0.0166944
757.560	0.0166403
757.638	0.0167682
757.716	0.0167236
757.794	0.0168826
757.872	0.0168584
757.950	0.0169302
758.029	0.0169401
758.107	0.0170440
758.185	0.0169810
758.263	0.0170848
758.341	0.0171105
758.419	0.0171483
758.497	0.0171680
758.575	0.0169940
758.654	0.0170087
758.732	0.0170897
758.810	0.0170073
758.888	0.0169760
758.966	0.0170758
759.044	0.0170752
759.122	0.0169345
759.200	0.0169502
759.279	0.0167559
759.357	0.0168743
759.435	0.0168580
759.513	0.0167043
759.591	0.0166896
759.669	0.0166150
759.747	0.0166312
759.825	0.0166398
759.904	0.0166194
759.982	0.0166548
760.060	0.0166923
760.138	0.0166486
760.216	0.0167506
760.294	0.0166950
760.372	0.0169096
760.450	0.0166982
760.529	0.0168240
760.607	0.0169080
760.685	0.0168507
760.763	0.0167615
760.841	0.0169343
760.919	0.0170047
760.997	0.0170399
761.075	0.0171246
761.154	0.0169044
761.232	0.0171921
761.310	0.0171117
761.388	0.0170585
761.466	0.0170409
761.544	0.0169273
761.622	0.0171290
761.700	0.0171629
761.779	0.0169950
761.857	0.0169781
761.935	0.0169523
762.013	0.0170336
762.091	0.0169352
762.169	0.0168745
762.247	0.0168702
762.325	0.0169115
762.404	0.0168176
762.482	0.0168788
762.560	0.0167354
762.638	0.0167355
762.716	0.0167197
762.794	0.0166479
762.872	0.0166767
762.950	0.0166595
763.029	0.0164314
763.107	0.0165633
763.185	0.0165952
763.263	0.0165900
763.341	0.0165260
763.419	0.0164712
763.497	0.0164693
763.575	0.0165003
763.654	0.0164797
763.732	0.0164902
763.810	0.0164353
763.888	0.0165382
763.966	0.0164061
764.044	0.0163371
764.122	0.0164502
764.200	0.0163052
764.279	0.0163239
764.357	0.0161761
764.435	0.0162683
764.513	0.0164764
764.591	0.0164762
764.669	0.0162350
764.747	0.0164187
764.825	0.0165138
764.904	0.0165601
764.982	0.0165546
765.060	0.0166736
765.138	0.0167303
765.216	0.0167191
765.294	0.0168601
765.372	0.0168065
765.450	0.0167495
765.529	0.0168676
765.607	0.0169352
765.685	0.0170705
765.763	0.0170140
765.841	0.0168995
765.919	0.0169788
765.997	0.0170647
766.075	0.0171612
766.154	0.0170639
766.232	0.0171677
766.310	0.0170770
766.388	0.0170840
766.466	0.0171896
766.544	0.0170625
766.622	0.0170220
766.700	0.0170975
766.779	0.0170064
766.857	0.0170724
766.935	0.0169839
767.013	0.0170745
767.091	0.0169566
767.169	0.0170603
767.247	0.0170255
767.325	0.0170245
767.404	0.0169648
767.482	0.0171046
767.560	0.0169432
767.638	0.0168462
767.716	0.0167787
767.794	0.0168665
767.872	0.0168107
767.950	0.0168492
768.029	0.0168924
768.107	0.0168503
768.185	0.0168518
768.263	0.0167808
768.341	0.0166662
768.419	0.0167049
768.497	0.0167175
768.575	0.0167268
768.654	0.0165766
768.732	0.0164295
768.810	0.0164553
768.888	0.0165853
768.966	0.0164538
769.044	0.0165789
769.122	0.0165730
769.200	0.0165276
769.279	0.0164649
769.357	0.0165060
769.435	0.0167512
769.513	0.0167292
769.591	0.0166643
769.669	0.0167994
769.747	0.0169514
769.825	0.0167631
769.904	0.0170157
769.982	0.0169267
770.060	0.0170070
770.138	0.0169939
770.216	0.0170267
770.294	0.0170614
770.372	0.0169646
770.450	0.0169228
770.529	0.0170118
770.607	0.0170647
770.685	0.0167961
770.763	0.0167995
770.841	0.0168439
770.919	0.0167164
770.997	0.0166041
771.075	0.0166103
771.154	0.0166946
771.232	0.0165157
771.310	0.0164819
771.388	0.0164835
771.466	0.0164119
771.544	0.0164259
771.622	0.0163309
771.700	0.0163850
771.779	0.0163889
771.857	0.0164921
771.935	0.0165414
772.013	0.0165282
772.091	0.0166544
772.169	0.0165996
772.247	0.0166760
772.325	0.0168448
772.404	0.0167656
772.482	0.0167047
772.560	0.0169173
772.638	0.0169020
772.716	0.0170609
772.794	0.0168944
772.872	0.0169656
772.950	0.0169810
773.029	0.0171220
773.107	0.0170620
773.185	0.0170857
773.263	0.0171870
773.341	0.0170096
773.419	0.0169521
773.497	0.0170449
773.575	0.0168279
773.654	0.0169151
773.732	0.0169676
773.810	0.0170418
773.888	0.0169583
773.966	0.0167294
774.044	0.0170012
774.122	0.0169420
774.200	0.0170931
774.279	0.0170045
774.357	0.0169829
774.435	0.0168918
774.513	0.0168996
774.591	0.0170366
774.669	0.0168995
774.747	0.0169145
774.825	0.0168185
774.904	0.0167889
774.982	0.0169193
775.060	0.0169161
775.138	0.0167246
775.216	0.0168492
775.294	0.0166602
775.372	0.0166489
775.450	0.0167139
775.529	0.0167629
775.607	0.0166420
775.685	0.0164547
775.763	0.0165456
775.841	0.0165186
775.919	0.0164850
775.997	0.0164954
776.075	0.0164368
776.154	0.0165470
776.232	0.0164143
776.310	0.0164504
776.388	0.0165176
776.466	0.0166223
776.544	0.0165633
776.622	0.0165813
776.700	0.0167155
776.779	0.0166008
776.857	0.0166307
776.935	0.0167699
777.013	0.0168539
777.091	0.0168095
777.169	0.0168716
777.247	0.0168379
777.325	0.0168511
777.404	0.0169144
777.482	0.0168836
777.560	0.0169509
777.638	0.0167957
777.716	0.0168660
777.794	0.0167511
777.872	0.0167542
777.950	0.0168126
778.029	0.0166829
778.107	0.0165981
778.185	0.0166225
778.263	0.0166811
778.341	0.0165548
778.419	0.0167188
778.497	0.0165152
778.575	0.0167548
778.654	0.0165979
778.732	0.0166126
778.810	0.0166664
778.888	0.0166279
778.966	0.0166425
779.044	0.0165810
779.122	0.0166756
779.200	0.0167430
779.279	0.0165569
779.357	0.0165703
779.435	0.0167306
779.513	0.0166322
779.591	0.0165954
779.669	0.0166617
779.747	0.0166169
779.825	0.0166278
779.904	0.0166522
779.982	0.0165522
780.060	0.0166393
780.138	0.0165730
780.216	0.0167091
780.294	0.0166533
780.372	0.0166016
780.450	0.0167326
780.529	0.0166946
780.607	0.0167602
780.685	0.0167422
780.763	0.0168732
780.841	0.0168190
780.919	0.0169289
780.997	0.0169032
781.075	0.0169019
781.154	0.0169669
781.232	0.0169901
781.310	0.0170427
781.388	0.0170628
781.466	0.0171223
781.544	0.0169218
781.622	0.0171513
781.700	0.0170863
781.779	0.0170950
781.857	0.0171358
781.935	0.0169626
782.013	0.0172275
782.091	0.0168303
782.169	0.0169127
782.247	0.0168649
782.325	0.0168714
782.404	0.0167909
782.482	0.0166530
782.560	0.0168000
782.638	0.0167783
782.716	0.0167783
782.794	0.0167805
782.872	0.0168288
782.950	0.0168993
783.029	0.0167719
783.107	0.0170538
783.185	0.0171827
783.263	0.0172234
783.341	0.0171926
783.419	0.0172172
783.497	0.0170786
783.575	0.0171831
783.654	0.0171285
783.732	0.0169447
783.810	0.0170339
783.888	0.0167918
783.966	0.0167367
784.044	0.0164300
784.122	0.0164398
784.200	0.0163775
784.279	0.0163626
784.357	0.0162480
784.435	0.0162645
784.513	0.0160615
784.591	0.0160883
784.669	0.0160508
784.747	0.0162260
784.825	0.0162766
784.904	0.0162677
784.982	0.0165015
785.060	0.0165536
785.138	0.0168380
785.216	0.0168753
785.294	0.0169448
785.372	0.0170122
785.450	0.0172412
785.529	0.0172700
785.607	0.0172922
785.685	0.0172050
785.763	0.0170502
785.841	0.0170980
785.919	0.0169299
785.997	0.0167635
786.075	0.0167543
786.154	0.0165479
786.232	0.0163014
786.310	0.0162556
786.388	0.0161377
786.466	0.0160135
786.544	0.0159774
786.622	0.0158988
786.700	0.0159585
786.779	0.0160479
786.857	0.0162293
786.935	0.0163831
787.013	0.0163595
787.091	0.0163190
787.169	0.0166047
787.247	0.0166718
787.325	0.0166586
787.404	0.0167947
787.482	0.0169775
787.560	0.0170117
787.638	0.0169839
787.716	0.0171586
787.794	0.0170815
787.872	0.0172078
787.950	0.0172459
788.029	0.0170208
788.107	0.0172311
788.185	0.0172032
788.263	0.0172275
788.341	0.0172855
788.419	0.0174172
788.497	0.0172700
788.575	0.0172800
788.654	0.0174042
788.732	0.0172779
788.810	0.0171509
788.888	0.0171242
788.966	0.0173240
789.044	0.0172019
789.122	0.0170943
789.200	0.0172174
789.279	0.0171453
789.357	0.0169141
789.435	0.0170556
789.513	0.0169666
789.591	0.0168431
789.669	0.0167947
789.747	0.0167232
789.825	0.0166119
789.904	0.0165788
789.982	0.0163883
790.060	0.0163168
790.138	0.0162343
790.216	0.0163842
790.294	0.0164241
790.372	0.0162457
790.450	0.0162234
790.529	0.0163659
790.607	0.0163975
790.685	0.0163097
790.763	0.0164266
790.841	0.0166270
790.919	0.0164978
790.997	0.0165101
791.075	0.0166823
791.154	0.0169046
791.232	0.0168741
791.310	0.0168313
791.388	0.0170130
791.466	0.0170077
791.544	0.0170834
791.622	0.0172169
791.700	0.0171191
791.779	0.0172049
791.857	0.0173224
791.935	0.0173219
792.013	0.0172092
792.091	0.0170656
792.169	0.0171569
792.247	0.0170660
792.325	0.0168892
792.404	0.0168993
792.482	0.0167115
792.560	0.0168437
792.638	0.0167097
792.716	0.0166682
792.794	0.0165820
792.872	0.0164605
792.950	0.0165145
793.029	0.0165364
793.107	0.0164652
793.185	0.0164283
793.263	0.0164387
793.341	0.0164177
793.419	0.0163635
793.497	0.0163461
793.575	0.0162373
793.654	0.0163293
793.732	0.0163235
793.810	0.0163189
793.888	0.0164282
793.966	0.0163531
794.044	0.0164175
794.122	0.0164552
794.200	0.0164042
794.279	0.0163663
794.357	0.0163939
794.435	0.0164798
794.513	0.0166067
794.591	0.0167303
794.669	0.0166851
794.747	0.0167055
794.825	0.0167747
794.904	0.0168235
794.982	0.0168689
795.060	0.0169813
795.138	0.0169386
795.216	0.0171715
795.294	0.0171413
795.372	0.0172723
795.450	0.0173049
795.529	0.0172446
795.607	0.0173566
795.685	0.0173946
795.763	0.0173438
795.841	0.0174585
795.919	0.0174925
795.997	0.0173886
796.075	0.0174065
796.154	0.0173197
796.232	0.0173144
796.310	0.0174467
796.388	0.0171968
796.466	0.0171751
796.544	0.0171738
796.622	0.0169969
796.700	0.0170429
796.779	0.0169128
796.857	0.0168045
796.935	0.0166575
797.013	0.0167381
797.091	0.0166356
797.169	0.0165865
797.247	0.0165194
797.325	0.0164657
797.404	0.0163821
797.482	0.0163534
797.560	0.0163382
797.638	0.0162521
797.716	0.0162988
797.794	0.0163689
797.872	0.0163756
797.950	0.0163728
798.029	0.0163381
798.107	0.0163538
798.185	0.0162744
798.263	0.0163408
798.341	0.0162496
798.419	0.0162593
798.497	0.0163865
798.575	0.0164859
798.654	0.0164092
798.732	0.0164921
798.810	0.0164501
798.888	0.0165524
798.966	0.0164574
799.044	0.0166615
799.122	0.0165144
799.200	0.0168370
799.279	0.0168589
799.357	0.0167570
799.435	0.0169400
799.513	0.0169169
799.591	0.0167737
799.669	0.0168436
799.747	0.0170638
799.825	0.0169104
799.904	0.0169857
799.982	0.0170230
800.060	0.0168349
800.138	0.0169491
800.216	0.0168630
800.294	0.0169634
800.372	0.0170406
800.450	0.0169041
800.529	0.0170259
800.607	0.0167956
800.685	0.0167755
800.763	0.0169855
800.841	0.0169514
800.919	0.0167167
800.997	0.0168192
801.075	0.0170112
801.154	0.0169923
801.232	0.0168371
801.310	0.0166933
801.388	0.0169059
801.466	0.0167831
801.544	0.0167784
801.622	0.0166845
801.700	0.0167967
801.779	0.0167896
801.857	0.0166949
801.935	0.0166164
802.013	0.0166696
802.091	0.0166493
802.169	0.0166219
802.247	0.0165339
802.325	0.0166514
802.404	0.0166028
802.482	0.0166513
802.560	0.0165752
802.638	0.0167484
802.716	0.0165675
802.794	0.0165471
802.872	0.0164035
802.950	0.0165710
803.029	0.0165074
803.107	0.0164931
803.185	0.0164969
803.263	0.0165231
803.341	0.0166108
803.419	0.0167700
803.497	0.0166953
803.575	0.0165986
803.654	0.0166623
803.732	0.0166639
803.810	0.0166356
803.888	0.0167873
803.966	0.0168846
804.044	0.0168125
804.122	0.0169360
804.200	0.0168639
804.279	0.0169644
804.357	0.0168864
804.435	0.0168681
804.513	0.0169930
804.591	0.0168343
804.669	0.0169771
804.747	0.0167722
804.825	0.0169753
804.904	0.0170188
804.982	0.0169521
805.060	0.0169827
805.138	0.0167919
805.216	0.0168791
805.294	0.0170741
805.372	0.0170079
805.450	0.0170625
805.529	0.0170080
805.607	0.0170811
805.685	0.0170934
805.763	0.0171989
805.841	0.0171275
805.919	0.0171837
805.997	0.0171104
806.075	0.0169736
806.154	0.0170992
806.232	0.0170155
806.310	0.0170180
806.388	0.0170608
806.466	0.0166882
806.544	0.0166862
806.622	0.0165397
806.700	0.0164619
806.779	0.0163260
806.857	0.0163364
806.935	0.0163514
807.013	0.0161980
807.091	0.0161459
807.169	0.0162249
807.247	0.0161958
807.325	0.0163049
807.404	0.0162856
807.482	0.0164261
807.560	0.0163671
807.638	0.0164525
807.716	0.0164754
807.794	0.0166497
807.872	0.0166035
807.950	0.0166007
808.029	0.0167634
808.107	0.0168899
808.185	0.0167142
808.263	0.0167813
808.341	0.0168059
808.419	0.0167885
808.497	0.0166811
808.575	0.0164350
808.654	0.0166006
808.732	0.0165471
808.810	0.0165118
808.888	0.0164464
808.966	0.0164843
809.044	0.0164359
809.122	0.0166653
809.200	0.0163649
809.279	0.0166092
809.357	0.0166069
809.435	0.0166364
809.513	0.0168204
809.591	0.0168145
809.669	0.0166553
809.747	0.0168230
809.825	0.0167895
809.904	0.0168993
809.982	0.0168194
810.060	0.0170354
810.138	0.0168949
810.216	0.0167325
810.294	0.0167902
810.372	0.0168581
810.450	0.0168697
810.529	0.0167867
810.607	0.0168708
810.685	0.0168011
810.763	0.0168899
810.841	0.0168116
810.919	0.0169877
810.997	0.0170079
811.075	0.0170746
811.154	0.0170712
811.232	0.0171130
811.310	0.0170058
811.388	0.0170132
811.466	0.0170170
811.544	0.0171648
811.622	0.0171269
811.700	0.0170686
811.779	0.0172366
811.857	0.0171391
811.935	0.0170455
812.013	0.0171849
812.091	0.0172153
812.169	0.0169400
812.247	0.0171391
812.325	0.0171117
812.404	0.0169054
812.482	0.0170535
812.560	0.0170139
812.638	0.0169756
812.716	0.0168652
812.794	0.0168018
812.872	0.0169833
812.950	0.0168017
813.029	0.0166305
813.107	0.0167126
813.185	0.0167027
813.263	0.0165379
813.341	0.0164810
813.419	0.0166062
813.497	0.0165259
813.575	0.0165768
813.654	0.0163805
813.732	0.0165318
813.810	0.0163387
813.888	0.0163339
813.966	0.0164050
814.044	0.0163656
814.122	0.0163104
814.200	0.0163014
814.279	0.0162903
814.357	0.0163786
814.435	0.0161884
814.513	0.0161299
814.591	0.0161797
814.669	0.0162228
814.747	0.0162094
814.825	0.0161988
814.904	0.0162006
814.982	0.0163174
815.060	0.0162986
815.138	0.0163708
815.216	0.0164408
815.294	0.0164014
815.372	0.0163992
815.450	0.0165688
815.529	0.0167564
815.607	0.0165667
815.685	0.0168594
815.763	0.0169328
815.841	0.0169749
815.919	0.0170579
815.997	0.0171557
816.075	0.0171835
816.154	0.0171614
816.232	0.0172141
816.310	0.0172695
816.388	0.0173134
816.466	0.0172650
816.544	0.0170976
816.622	0.0171855
816.700	0.0172928
816.779	0.0172427
816.857	0.0172343
816.935	0.0172558
817.013	0.0171591
817.091	0.0171409
817.169	0.0169560
817.247	0.0170875
817.325	0.0170382
817.404	0.0169112
817.482	0.0169624
817.560	0.0169261
817.638	0.0168111
817.716	0.0168376
817.794	0.0166636
817.872	0.0167616
817.950	0.0168711
818.029	0.0168163
818.107	0.0169087
818.185	0.0168628
818.263	0.0166667
818.341	0.0166546
818.419	0.0168970
818.497	0.0167283
818.575	0.0166853
818.654	0.0169173
818.732	0.0167799
818.810	0.0166417
818.888	0.0166488
818.966	0.0167191
819.044	0.0167741
819.122	0.0167016
819.200	0.0164640
819.279	0.0164608
819.357	0.0164947
819.435	0.0164925
819.513	0.0165033
819.591	0.0163103
819.669	0.0161609
819.747	0.0162687
819.825	0.0163193
819.904	0.0163422
819.982	0.0163521
820.060	0.0164450
820.138	0.0162873
820.216	0.0163598
820.294	0.0165489
820.372	0.0166514
820.450	0.0166817
820.529	0.0166080
820.607	0.0168041
820.685	0.0167649
820.763	0.0169766
820.841	0.0168575
820.919	0.0170123
820.997	0.0169753
821.075	0.0170410
821.154	0.0171189
821.232	0.0170744
821.310	0.0172968
821.388	0.0171069
821.466	0.0172067
821.544	0.0171619
821.622	0.0171209
821.700	0.0171596
821.779	0.0172154
821.857	0.0171658
821.935	0.0170816
822.013	0.0170618
822.091	0.0170757
822.169	0.0171986
822.247	0.0170918
822.325	0.0170444
822.404	0.0169523
822.482	0.0169546
822.560	0.0169180
822.638	0.0167873
822.716	0.0168226
822.794	0.0166857
822.872	0.0165392
822.950	0.0165394
823.029	0.0165183
823.107	0.0162921
823.185	0.0164986
823.263	0.0163486
823.341	0.0163934
823.419	0.0163958
823.497	0.0162858
823.575	0.0163661
823.654	0.0163633
823.732	0.0163831
823.810	0.0163775
823.888	0.0164088
823.966	0.0165907
824.044	0.0164999
824.122	0.0163349
824.200	0.0165633
824.279	0.0167023
824.357	0.0165598
824.435	0.0166718
824.513	0.0167649
824.591	0.0166088
824.669	0.0165924
824.747	0.0168124
824.825	0.0168955
824.904	0.0168307
824.982	0.0168205
825.060	0.0169481
825.138	0.0168516
825.216	0.0167674
825.294	0.0168833
825.372	0.0169132
825.450	0.0169487
825.529	0.0167066
825.607	0.0168034
825.685	0.0169504
825.763	0.0168188
825.841	0.0167906
825.919	0.0170647
825.997	0.0169257
826.075	0.0169501
826.154	0.0168789
826.232	0.0170492
826.310	0.0171201
826.388	0.0171127
826.466	0.0170163
826.544	0.0170406
826.622	0.0170045
826.700	0.0170776
826.779	0.0170838
826.857	0.0171473
826.935	0.0171560
827.013	0.0172165
827.091	0.0171870
827.169	0.0171069
827.247	0.0170123
827.325	0.0171486
827.404	0.0170852
827.482	0.0170472
827.560	0.0170321
827.638	0.0169911
827.716	0.0169287
827.794	0.0168598
827.872	0.0166992
827.950	0.0168829
828.029	0.0167216
828.107	0.0165767
828.185	0.0165862
828.263	0.0165621
828.341	0.0164796
828.419	0.0163163
828.497	0.0163514
828.575	0.0163340
828.654	0.0163147
828.732	0.0161848
828.810	0.0162296
828.888	0.0162709
828.966	0.0163311
829.044	0.0163634
829.122	0.0164642
829.200	0.0165434
829.279	0.0166045
829.357	0.0167453
829.435	0.0170277
829.513	0.0168464
829.591	0.0169733
829.669	0.0170414
829.747	0.0173136
829.825	0.0172768
829.904	0.0172705
829.982	0.0172098
830.060	0.0171671
830.138	0.0171922
830.216	0.0172018
830.294	0.0172308
830.372	0.0171358
830.450	0.0169157
830.529	0.0167618
830.607	0.0168847
830.685	0.0168212
830.763	0.0166560
830.841	0.0165463
830.919	0.0164616
830.997	0.0163291
831.075	0.0164011
831.154	0.0163091
831.232	0.0164343
831.310	0.0164579
831.388	0.0164503
831.466	0.0164793
831.544	0.0165075
831.622	0.0165063
831.700	0.0164562
831.779	0.0165990
831.857	0.0165771
831.935	0.0165978
832.013	0.0165868
832.091	0.0168120
832.169	0.0166391
832.247	0.0164814
832.325	0.0166303
832.404	0.0166466
832.482	0.0165352
832.560	0.0167085
832.638	0.0167500
832.716	0.0167416
832.794	0.0167904
832.872	0.0169263
832.950	0.0169201
833.029	0.0170723
833.107	0.0171807
833.185	0.0171272
833.263	0.0172150
833.341	0.0171474
833.419	0.0170592
833.497	0.0171803
833.575	0.0171357
833.654	0.0173817
833.732	0.0172800
833.810	0.0172646
833.888	0.0172226
833.966	0.0172518
834.044	0.0171918
834.122	0.0172287
834.200	0.0171481
834.279	0.0169855
834.357	0.0169869
834.435	0.0171781
834.513	0.0170776
834.591	0.0169745
834.669	0.0169800
834.747	0.0168411
834.825	0.0167962
834.904	0.0167734
834.982	0.0167498
835.060	0.0164584
835.138	0.0164371
835.216	0.0163993
835.294	0.0164049
835.372	0.0163427
835.450	0.0162921
835.529	0.0162893
835.607	0.0162149
835.685	0.0162117
835.763	0.0161991
835.841	0.0161687
835.919	0.0160727
835.997	0.0159969
836.075	0.0160404
836.154	0.0160691
836.232	0.0161027
836.310	0.0162646
836.388	0.0161603
836.466	0.0163245
836.544	0.0164214
836.622	0.0165102
836.700	0.0165540
836.779	0.0166019
836.857	0.0168676
836.935	0.0166991
837.013	0.0168040
837.091	0.0169415
837.169	0.0170608
837.247	0.0169863
837.325	0.0170126
837.404	0.0172038
837.482	0.0172849
837.560	0.0171225
837.638	0.0172763
837.716	0.0172905
837.794	0.0172643
837.872	0.0172237
837.950	0.0172931
838.029	0.0171147
838.107	0.0170793
838.185	0.0173078
838.263	0.0170653
838.341	0.0170126
838.419	0.0169589
838.497	0.0170443
838.575	0.0171758
838.654	0.0170017
838.732	0.0168620
838.810	0.0169347
838.888	0.0166559
838.966	0.0167375
839.044	0.0165929
839.122	0.0165636
839.200	0.0165154
839.279	0.0166072
839.357	0.0164478
839.435	0.0164512
839.513	0.0165047
839.591	0.0164794
839.669	0.0163294
839.747	0.0164149
839.825	0.0164443
839.904	0.0164184
839.982	0.0163866
840.060	0.0163962
840.138	0.0164947
840.216	0.0164026
840.294	0.0164304
840.372	0.0164899
840.450	0.0166046
840.529	0.0166102
840.607	0.0166855
840.685	0.0167316
840.763	0.0166153
840.841	0.0168690
840.919	0.0168369
840.997	0.0167178
841.075	0.0167072
841.154	0.0168011
841.232	0.0167606
841.310	0.0168237
841.388	0.0167951
841.466	0.0168937
841.544	0.0168883
841.622	0.0169481
841.700	0.0169575
841.779	0.0171682
841.857	0.0170747
841.935	0.0172134
842.013	0.0172719
842.091	0.0171933
842.169	0.0173116
842.247	0.0174212
842.325	0.0174145
842.404	0.0173334
842.482	0.0173978
842.560	0.0173869
842.638	0.0173564
842.716	0.0174052
842.794	0.0172721
842.872	0.0172609
842.950	0.0172222
843.029	0.0171053
843.107	0.0169554
843.185	0.0169215
843.263	0.0167757
843.341	0.0167579
843.419	0.0166699
843.497	0.0166049
843.575	0.0166917
843.654	0.0166277
843.732	0.0164035
843.810	0.0163828
843.888	0.0163058
843.966	0.0164719
844.044	0.0164087
844.122	0.0162527
844.200	0.0163405
844.279	0.0163897
844.357	0.0164407
844.435	0.0164194
844.513	0.0164230
844.591	0.0163695
844.669	0.0166632
844.747	0.0166022
844.825	0.0164742
844.904	0.0166302
844.982	0.0165081
845.060	0.0166814
845.138	0.0165240
845.216	0.0164501
845.294	0.0166065
845.372	0.0165915
845.450	0.0165452
845.529	0.0166642
845.607	0.0167500
845.685	0.0167899
845.763	0.0167856
845.841	0.0168233
845.919	0.0169106
845.997	0.0169357
846.075	0.0168746
846.154	0.0169547
846.232	0.0169272
846.310	0.0170470
846.388	0.0171781
846.466	0.0168945
846.544	0.0168931
846.622	0.0169962
846.700	0.0170125
846.779	0.0168483
846.857	0.0170243
846.935	0.0169263
847.013	0.0168999
847.091	0.0168354
847.169	0.0169492
847.247	0.0168526
847.325	0.0169044
847.404	0.0167416
847.482	0.0168549
847.560	0.0167744
847.638	0.0167258
847.716	0.0168136
847.794	0.0167910
847.872	0.0168925
847.950	0.0168680
848.029	0.0168880
848.107	0.0169074
848.185	0.0168068
848.263	0.0168397
848.341	0.0167890
848.419	0.0168953
848.497	0.0169372
848.575	0.0170029
848.654	0.0169934
848.732	0.0169596
848.810	0.0169852
848.888	0.0170052
848.966	0.0169273
849.044	0.0170444
849.122	0.0170271
849.200	0.0170677
849.279	0.0169499
849.357	0.0169277
849.435	0.0168596
849.513	0.0168697
849.591	0.0169279
849.669	0.0167982
849.747	0.0167783
849.825	0.0169152
849.904	0.0167291
849.982	0.0166977
850.060	0.0166820
850.138	0.0168552
850.216	0.0167128
850.294	0.0168230
850.372	0.0167556
850.450	0.0168730
850.529	0.0167297
850.607	0.0168614
850.685	0.0166974
850.763	0.0165014
850.841	0.0165005
850.919	0.0166354
850.997	0.0166646
851.075	0.0165832
851.154	0.0164394
851.232	0.0164496
851.310	0.0163569
851.388	0.0162713
851.466	0.0163706
851.544	0.0164659
851.622	0.0164523
851.700	0.0164809
851.779	0.0163638
851.857	0.0164701
851.935	0.0164811
852.013	0.0165052
852.091	0.0167379
852.169	0.0166853
852.247	0.0168302
852.325	0.0168587
852.404	0.0169845
852.482	0.0168874
852.560	0.0170319
852.638	0.0170634
852.716	0.0172514
852.794	0.0171711
852.872	0.0172250
852.950	0.0172954
853.029	0.0171368
853.107	0.0171017
853.185	0.0171549
853.263	0.0171262
853.341	0.0172129
853.419	0.0171668
853.497	0.0171135
853.575	0.0169777
853.654	0.0171078
853.732	0.0170618
853.810	0.0169846
853.888	0.0170960
853.966	0.0168533
854.044	0.0168092
854.122	0.0168604
854.200	0.0170318
854.279	0.0168198
854.357	0.0167321
854.435	0.0167931
854.513	0.0168830
854.591	0.0168983
854.669	0.0168460
854.747	0.0167826
854.825	0.0168147
854.904	0.0167797
854.982	0.0168851
855.060	0.0167673
855.138	0.0167650
855.216	0.0166701
855.294	0.0166859
855.372	0.0167101
855.450	0.0167924
855.529	0.0167016
855.607	0.0165521
855.685	0.0166268
855.763	0.0164806
855.841	0.0164326
855.919	0.0164276
855.997	0.0165493
856.075	0.0165205
856.154	0.0163113
856.232	0.0164280
856.310	0.0165131
856.388	0.0165694
856.466	0.0164220
856.544	0.0165087
856.622	0.0165313
856.700	0.0165783
856.779	0.0166463
856.857	0.0165181
856.935	0.0165858
857.013	0.0165022
857.091	0.0165381
857.169	0.0166945
857.247	0.0168133
857.325	0.0167885
857.404	0.0165003
857.482	0.0167583
857.560	0.0167825
857.638	0.0168233
857.716	0.0167697
857.794	0.0167874
857.872	0.0167607
857.950	0.0169778
858.029	0.0168920
858.107	0.0167726
858.185	0.0169810
858.263	0.0169372
858.341	0.0169717
858.419	0.0169327
858.497	0.0169551
858.575	0.0170140
858.654	0.0169714
858.732	0.0170876
858.810	0.0170271
858.888	0.0170439
858.966	0.0170299
859.044	0.0171985
859.122	0.0170026
859.200	0.0169801
859.279	0.0171249
859.357	0.0171457
859.435	0.0170110
859.513	0.0170964
859.591	0.0170308
859.669	0.0169792
859.747	0.0169397
859.825	0.0170281
859.904	0.0170645
859.982	0.0168228
860.060	0.0168542
860.138	0.0169337
860.216	0.0167323
860.294	0.0167895
860.372	0.0168454
860.450	0.0167744
860.529	0.0166714
860.607	0.0165618
860.685	0.0166385
860.763	0.0166980
860.841	0.0166802
860.919	0.0165511
860.997	0.0166032
861.075	0.0165773
861.154	0.0164188
861.232	0.0165807
861.310	0.0165271
861.388	0.0165647
861.466	0.0165858
861.544	0.0163543
861.622	0.0162648
861.700	0.0163505
861.779	0.0163775
861.857	0.0164577
861.935	0.0164899
862.013	0.0163684
862.091	0.0164852
862.169	0.0164914
862.247	0.0165000
862.325	0.0164970
862.404	0.0165892
862.482	0.0166214
862.560	0.0165679
862.638	0.0167216
862.716	0.0168568
862.794	0.0168701
862.872	0.0168899
862.950	0.0169656
863.029	0.0168539
863.107	0.0169133
863.185	0.0170596
863.263	0.0169022
863.341	0.0169459
863.419	0.0170367
863.497	0.0170361
863.575	0.0169872
863.654	0.0168607
863.732	0.0169674
863.810	0.0169540
863.888	0.0169068
863.966	0.0169012
864.044	0.0168192
864.122	0.0168603
864.200	0.0168073
864.279	0.0168723
864.357	0.0169045
864.435	0.0168476
864.513	0.0168636
864.591	0.0168685
864.669	0.0168032
864.747	0.0169402
864.825	0.0170210
864.904	0.0169525
864.982	0.0168704
865.060	0.0169051
865.138	0.0169833
865.216	0.0168948
865.294	0.0170964
865.372	0.0169592
865.450	0.0169838
865.529	0.0170031
865.607	0.0169291
865.685	0.0169256
865.763	0.0171522
865.841	0.0169177
865.919	0.0169034
865.997	0.0172505
866.075	0.0170375
866.154	0.0168892
866.232	0.0169781
866.310	0.0170280
866.388	0.0169882
866.466	0.0168891
866.544	0.0168697
866.622	0.0168651
866.700	0.0167943
866.779	0.0167747
866.857	0.0168535
866.935	0.0168221
867.013	0.0166251
867.091	0.0167988
867.169	0.0167626
867.247	0.0166346
867.325	0.0165658
867.404	0.0166142
867.482	0.0165397
867.560	0.0165336
867.638	0.0167966
867.716	0.0165802
867.794	0.0167003
867.872	0.0166707
867.950	0.0166432
868.029	0.0166099
868.107	0.0167030
868.185	0.0168207
868.263	0.0167474
868.341	0.0166354
868.419	0.0167322
868.497	0.0166264
868.575	0.0166203
868.654	0.0165594
868.732	0.0166046
868.810	0.0165481
868.888	0.0166397
868.966	0.0167101
869.044	0.0165384
869.122	0.0166441
869.200	0.0165858
869.279	0.0165087
869.357	0.0164486
869.435	0.0166850
869.513	0.0166485
869.591	0.0165681
869.669	0.0166763
869.747	0.0166625
869.825	0.0166586
869.904	0.0167901
869.982	0.0167426
870.060	0.0167800
870.138	0.0167944
870.216	0.0168848
870.294	0.0170364
870.372	0.0169750
870.450	0.0169144
870.529	0.0169350
870.607	0.0169221
870.685	0.0168983
870.763	0.0170089
870.841	0.0170377
870.919	0.0171206
870.997	0.0169505
871.075	0.0168627
871.154	0.0169081
871.232	0.0169916
871.310	0.0170271
871.388	0.0169713
871.466	0.0168787
871.544	0.0169227
871.622	0.0169405
871.700	0.0168116
871.779	0.0168227
871.857	0.0168262
871.935	0.0169391
872.013	0.0167399
872.091	0.0167931
872.169	0.0168349
872.247	0.0168760
872.325	0.0168507
872.404	0.0165966
872.482	0.0167525
872.560	0.0168037
872.638	0.0166273
872.716	0.0166271
872.794	0.0166358
872.872	0.0165709
872.950	0.0166450
873.029	0.0167419
873.107	0.0165466
873.185	0.0165904
873.263	0.0165762
873.341	0.0166113
873.419	0.0165537
873.497	0.0164564
873.575	0.0166299
873.654	0.0165791
873.732	0.0165370
873.810	0.0165341
873.888	0.0165925
873.966	0.0166367
874.044	0.0167593
874.122	0.0168459
874.200	0.0166917
874.279	0.0166344
874.357	0.0168177
874.435	0.0168739
874.513	0.0167458
874.591	0.0169273
874.669	0.0168695
874.747	0.0170176
874.825	0.0170575
874.904	0.0170363
874.982	0.0169833
875.060	0.0169412
875.138	0.0170350
875.216	0.0169781
875.294	0.0170461
875.372	0.0169586
875.450	0.0169354
875.529	0.0167275
875.607	0.0167701
875.685	0.0167436
875.763	0.0167008
875.841	0.0167350
875.919	0.0167307
875.997	0.0166320
876.075	0.0166869
876.154	0.0166570
876.232	0.0167182
876.310	0.0167169
876.388	0.0165617
876.466	0.0165752
876.544	0.0166299
876.622	0.0165667
876.700	0.0165131
876.779	0.0165607
876.857	0.0164828
876.935	0.0165398
877.013	0.0167202
877.091	0.0165431
877.169	0.0165384
877.247	0.0165357
877.325	0.0166598
877.404	0.0166422
877.482	0.0166074
877.560	0.0164611
877.638	0.0164213
877.716	0.0164355
877.794	0.0165002
877.872	0.0162978
877.950	0.0162969
878.029	0.0162970
878.107	0.0164032
878.185	0.0164868
878.263	0.0165279
878.341	0.0167964
878.419	0.0168074
878.497	0.0171149
878.575	0.0172574
878.654	0.0173599
878.732	0.0174308
878.810	0.0173536
878.888	0.0174551
878.966	0.0173495
879.044	0.0173592
879.122	0.0170927
879.200	0.0170342
879.279	0.0169115
879.357	0.0166882
879.435	0.0166121
879.513	0.0164501
879.591	0.0163004
879.669	0.0162163
879.747	0.0160973
879.825	0.0159798
879.904	0.0160417
879.982	0.0159949
880.060	0.0163501
880.138	0.0163904
880.216	0.0164462
880.294	0.0168618
880.372	0.0172072
880.450	0.0173236
880.529	0.0175954
880.607	0.0179287
880.685	0.0180550
880.763	0.0182170
880.841	0.0182088
880.919	0.0181970
880.997	0.0180452
881.075	0.0180384
881.154	0.0176879
881.232	0.0173936
881.310	0.0171935
881.388	0.0168271
881.466	0.0166261
881.544	0.0162649
881.622	0.0160728
881.700	0.0157960
881.779	0.0158015
881.857	0.0156296
881.935	0.0156298
882.013	0.0157818
882.091	0.0157905
882.169	0.0157144
882.247	0.0161108
882.325	0.0162351
882.404	0.0162753
882.482	0.0164890
882.560	0.0167126
882.638	0.0167184
882.716	0.0168946
882.794	0.0170547
882.872	0.0171067
882.950	0.0171843
883.029	0.0172092
883.107	0.0172248
883.185	0.0173174
883.263	0.0172062
883.341	0.0170946
883.419	0.0172210
883.497	0.0172290
883.575	0.0170955
883.654	0.0170646
883.732	0.0170461
883.810	0.0170251
883.888	0.0168832
883.966	0.0167071
884.044	0.0166142
884.122	0.0164124
884.200	0.0163698
884.279	0.0163215
884.357	0.0163014
884.435	0.0161769
884.513	0.0160582
884.591	0.0159969
884.669	0.0160358
884.747	0.0160892
884.825	0.0160725
884.904	0.0160167
884.982	0.0161752
885.060	0.0161177
885.138	0.0163077
885.216	0.0165360
885.294	0.0163497
885.372	0.0165379
885.450	0.0166519
885.529	0.0167931
885.607	0.0170201
885.685	0.0171014
885.763	0.0172257
885.841	0.0172736
885.919	0.0173863
885.997	0.0174101
886.075	0.0175451
886.154	0.0174393
886.232	0.0175718
886.310	0.0176527
886.388	0.0175001
886.466	0.0174745
886.544	0.0174170
886.622	0.0174747
886.700	0.0174241
886.779	0.0173348
886.857	0.0171848
886.935	0.0168715
887.013	0.0169518
887.091	0.0167645
887.169	0.0168070
887.247	0.0165401
887.325	0.0164422
887.404	0.0164191
887.482	0.0164017
887.560	0.0162889
887.638	0.0162395
887.716	0.0162917
887.794	0.0162251
887.872	0.0162224
887.950	0.0162518
888.029	0.0164056
888.107	0.0164151
888.185	0.0164644
888.263	0.0165159
888.341	0.0164951
888.419	0.0167354
888.497	0.0166601
888.575	0.0168107
888.654	0.0168839
888.732	0.0169100
888.810	0.0168291
888.888	0.0170459
888.966	0.0169781
889.044	0.0169545
889.122	0.0169958
889.200	0.0170008
889.279	0.0168459
889.357	0.0169235
889.435	0.0167990
889.513	0.0167113
889.591	0.0166405
889.669	0.0167039
889.747	0.0167281
889.825	0.0166594
889.904	0.0164785
889.982	0.0165611
890.060	0.0166296
890.138	0.0165538
890.216	0.0165582
890.294	0.0165053
890.372	0.0165089
890.450	0.0165304
890.529	0.0164537
890.607	0.0166759
890.685	0.0166416
890.763	0.0166941
890.841	0.0166540
890.919	0.0166666
890.997	0.0167959
891.075	0.0169254
891.154	0.0168491
891.232	0.0168510
891.310	0.0169501
891.388	0.0169753
891.466	0.0169306
891.544	0.0168211
891.622	0.0170520
891.700	0.0169347
891.779	0.0169038
891.857	0.0168148
891.935	0.0167779
892.013	0.0167807
892.091	0.0167488
892.169	0.0166711
892.247	0.0166942
892.325	0.0164975
892.404	0.0165068
892.482	0.0165044
892.560	0.0163957
892.638	0.0163810
892.716	0.0164174
892.794	0.0165132
892.872	0.0163920
892.950	0.0163640
893.029	0.0164993
893.107	0.0164684
893.185	0.0164569
893.263	0.0165176
893.341	0.0165687
893.419	0.0166087
893.497	0.0166427
893.575	0.0165944
893.654	0.0168370
893.732	0.0167577
893.810	0.0167918
893.888	0.0168000
893.966	0.0168430
894.044	0.0168681
894.122	0.0168925
894.200	0.0170473
894.279	0.0169044
894.357	0.0168967
894.435	0.0169358
894.513	0.0169838
894.591	0.0170069
894.669	0.0169727
894.747	0.0168761
894.825	0.0170119
894.904	0.0169838
894.982	0.0168449
895.060	0.0169003
895.138	0.0168672
895.216	0.0169591
895.294	0.0170234
895.372	0.0169627
895.450	0.0169793
895.529	0.0168671
895.607	0.0169326
895.685	0.0170441
895.763	0.0169968
895.841	0.0169703
895.919	0.0169648
895.997	0.0169289
896.075	0.0169562
896.154	0.0168071
896.232	0.0168137
896.310	0.0167614
896.388	0.0167448
896.466	0.0165606
896.544	0.0165348
896.622	0.0165206
896.700	0.0165633
896.779	0.0163549
896.857	0.0163923
896.935	0.0162336
897.013	0.0161859
897.091	0.0162714
897.169	0.0162681
897.247	0.0163076
897.325	0.0163768
897.404	0.0164380
897.482	0.0165780
897.560	0.0165803
897.638	0.0166634
897.716	0.0165543
897.794	0.0166516
897.872	0.0167850
897.950	0.0166225
898.029	0.0166741
898.107	0.0165169
898.185	0.0166368
898.263	0.0165982
898.341	0.0164986
898.419	0.0165061
898.497	0.0164674
898.575	0.0164291
898.654	0.0163796
898.732	0.0164063
898.810	0.0162721
898.888	0.0162902
898.966	0.0163432
899.044	0.0164036
899.122	0.0163620
899.200	0.0164857
899.279	0.0164162
899.357	0.0166312
899.435	0.0167727
899.513	0.0167523
899.591	0.0168704
899.669	0.0169907
899.747	0.0169334
899.825	0.0170334
899.904	0.0171106
899.982	0.0170732
900.060	0.0170571
900.138	0.0171724
900.216	0.0172063
900.294	0.0172578
900.372	0.0170783
900.450	0.0172120
900.529	0.0171099
900.607	0.0169981
900.685	0.0171728
900.763	0.0170808
900.841	0.0170287
900.919	0.0170243
900.997	0.0169791
901.075	0.0170472
901.154	0.0170715
901.232	0.0170499
901.310	0.0169276
901.388	0.0169363
901.466	0.0169050
901.544	0.0168108
901.622	0.0169077
901.700	0.0169151
901.779	0.0169782
901.857	0.0168826
901.935	0.0166730
902.013	0.0168748
902.091	0.0167308
902.169	0.0167982
902.247	0.0167540
902.325	0.0169350
902.404	0.0167073
902.482	0.0167001
902.560	0.0167801
902.638	0.0166550
902.716	0.0166142
902.794	0.0168055
902.872	0.0168687
902.950	0.0166804
903.029	0.0167542
903.107	0.0166179
903.185	0.0166441
903.263	0.0166375
903.341	0.0165670
903.419	0.0165289
903.497	0.0164497
903.575	0.0164890
903.654	0.0164769
903.732	0.0164085
903.810	0.0165914
903.888	0.0166493
903.966	0.0165795
904.044	0.0166143
904.122	0.0166412
904.200	0.0167524
904.279	0.0167623
904.357	0.0169090
904.435	0.0168146
904.513	0.0168675
904.591	0.0170238
904.669	0.0169110
904.747	0.0169138
904.825	0.0168214
904.904	0.0168409
904.982	0.0168372
905.060	0.0167506
905.138	0.0168216
905.216	0.0168192
905.294	0.0167739
905.372	0.0167276
905.450	0.0165701
905.529	0.0166782
905.607	0.0164909
905.685	0.0164482
905.763	0.0165794
905.841	0.0164926
905.919	0.0165800
905.997	0.0165450
906.075	0.0165043
906.154	0.0165032
906.232	0.0165724
906.310	0.0165842
906.388	0.0167683
906.466	0.0166647
906.544	0.0166574
906.622	0.0167464
906.700	0.0166827
906.779	0.0166379
906.857	0.0168353
906.935	0.0167303
907.013	0.0166721
907.091	0.0166250
907.169	0.0167907
907.247	0.0167772
907.325	0.0167010
907.404	0.0168952
907.482	0.0168557
907.560	0.0168927
907.638	0.0170202
907.716	0.0169656
907.794	0.0169659
907.872	0.0168524
907.950	0.0170915
908.029	0.0170116
908.107	0.0170711
908.185	0.0171881
908.263	0.0171399
908.341	0.0171464
908.419	0.0170422
908.497	0.0169873
908.575	0.0171983
908.654	0.0171493
908.732	0.0169180
908.810	0.0169416
908.888	0.0169820
908.966	0.0168398
909.044	0.0166904
909.122	0.0167682
909.200	0.0167609
909.279	0.0167583
909.357	0.0167213
909.435	0.0165986
909.513	0.0165709
909.591	0.0166921
909.669	0.0166002
909.747	0.0165885
909.825	0.0165914
909.904	0.0166498
909.982	0.0166810
910.060	0.0164921
910.138	0.0165556
910.216	0.0165203
910.294	0.0165620
910.372	0.0166444
910.450	0.0165366
910.529	0.0165656
910.607	0.0166574
910.685	0.0164783
910.763	0.0165273
910.841	0.0165907
910.919	0.0165739
910.997	0.0165048
911.075	0.0165528
911.154	0.0164120
911.232	0.0165765
911.310	0.0165833
911.388	0.0165442
911.466	0.0165182
911.544	0.0167440
911.622	0.0166086
911.700	0.0166755
911.779	0.0167171
911.857	0.0167673
911.935	0.0168569
912.013	0.0167791
912.091	0.0169287
912.169	0.0169159
912.247	0.0169377
912.325	0.0169910
912.404	0.0169170
912.482	0.0167647
912.560	0.0167146
912.638	0.0168190
912.716	0.0167732
912.794	0.0167477
912.872	0.0167464
912.950	0.0166773
913.029	0.0167021
913.107	0.0166077
913.185	0.0166026
913.263	0.0166530
913.341	0.0167579
913.419	0.0167873
913.497	0.0167747
913.575	0.0165923
913.654	0.0168142
913.732	0.0168752
913.810	0.0169055
913.888	0.0167770
913.966	0.0170171
914.044	0.0170683
914.122	0.0167937
914.200	0.0168337
914.279	0.0169236
914.357	0.0167040
914.435	0.0167563
914.513	0.0168369
914.591	0.0166694
914.669	0.0166817
914.747	0.0167838
914.825	0.0167387
914.904	0.0166137
914.982	0.0167416
915.060	0.0167746
915.138	0.0167065
915.216	0.0168413
915.294	0.0167755
915.372	0.0166990
915.450	0.0168671
915.529	0.0168391
915.607	0.0167915
915.685	0.0166965
915.763	0.0168958
915.841	0.0169084
915.919	0.0169441
915.997	0.0169425
916.075	0.0168444
916.154	0.0169709
916.232	0.0167860
916.310	0.0169427
916.388	0.0169232
916.466	0.0169492
916.544	0.0169421
916.622	0.0169411
916.700	0.0169114
916.779	0.0168108
916.857	0.0168384
916.935	0.0167861
917.013	0.0168416
917.091	0.0167441
917.169	0.0167977
917.247	0.0168031
917.325	0.0168505
917.404	0.0167754
917.482	0.0167161
917.560	0.0167725
917.638	0.0167445
917.716	0.0168355
917.794	0.0167802
917.872	0.0168342
917.950	0.0167361
918.029	0.0167370
918.107	0.0167599
918.185	0.0167488
918.263	0.0167654
918.341	0.0166823
918.419	0.0166528
918.497	0.0165515
918.575	0.0165700
918.654	0.0167570
918.732	0.0167429
918.810	0.0167198
918.888	0.0166814
918.966	0.0166428
919.044	0.0167839
919.122	0.0168698
919.200	0.0166068
919.279	0.0167982
919.357	0.0167670
919.435	0.0166833
919.513	0.0167352
919.591	0.0167788
919.669	0.0168076
919.747	0.0167268
919.825	0.0166594
919.904	0.0168832
