06/01/2022	17:23:34	Ver.	4.1	UNKNOWN
Optical Delay	599.981738	Delta X		0.078125	Sweeps	1	Scan Rate	0/0
Coordinates	Axis 1	NaN	Axis 2	NaN	Axis 3	NaN	Axis 4	NaN	Axis 5	NaN	Axis 6	0.000000
TX Power	0.000000	RX Power	0.000000

599.982	0.0161007
600.060	0.0160004
600.138	0.0160310
600.216	0.0161279
600.294	0.0161407
600.372	0.0160298
600.450	0.0158956
600.529	0.0159262
600.607	0.0160378
600.685	0.0161057
600.763	0.0159202
600.841	0.0160343
600.919	0.0160721
600.997	0.0160491
601.075	0.0159829
601.154	0.0161378
601.232	0.0160295
601.310	0.0159547
601.388	0.0160406
601.466	0.0160487
601.544	0.0160249
601.622	0.0161217
601.700	0.0161932
601.779	0.0160879
601.857	0.0159916
601.935	0.0161373
602.013	0.0162517
602.091	0.0160890
602.169	0.0161089
602.247	0.0160469
602.325	0.0162456
602.404	0.0162202
602.482	0.0162457
602.560	0.0160848
602.638	0.0161523
602.716	0.0161138
602.794	0.0160955
602.872	0.0160900
602.950	0.0161126
603.029	0.0162024
603.107	0.0160828
603.185	0.0161107
603.263	0.0160864
603.341	0.0160957
603.419	0.0159219
603.497	0.0160071
603.575	0.0160008
603.654	0.0160852
603.732	0.0160368
603.810	0.0160483
603.888	0.0159724
603.966	0.0160065
604.044	0.0159972
604.122	0.0159772
604.200	0.0160404
604.279	0.0160078
604.357	0.0159995
604.435	0.0159803
604.513	0.0159355
604.591	0.0159369
604.669	0.0159676
604.747	0.0161327
604.825	0.0159359
604.904	0.0159763
604.982	0.0159934
605.060	0.0159340
605.138	0.0160259
605.216	0.0160228
605.294	0.0160013
605.372	0.0160699
605.450	0.0159143
605.529	0.0158989
605.607	0.0161366
605.685	0.0160465
605.763	0.0160147
605.841	0.0159382
605.919	0.0161260
605.997	0.0161979
606.075	0.0161253
606.154	0.0161239
606.232	0.0161057
606.310	0.0160095
606.388	0.0161239
606.466	0.0162248
606.544	0.0162144
606.622	0.0160137
606.700	0.0161111
606.779	0.0160944
606.857	0.0161204
606.935	0.0159967
607.013	0.0161588
607.091	0.0160801
607.169	0.0162192
607.247	0.0160895
607.325	0.0160902
607.404	0.0161141
607.482	0.0161587
607.560	0.0161015
607.638	0.0160329
607.716	0.0161666
607.794	0.0160310
607.872	0.0159930
607.950	0.0160537
608.029	0.0160305
608.107	0.0161110
608.185	0.0160221
608.263	0.0160604
608.341	0.0159816
608.419	0.0159635
608.497	0.0159772
608.575	0.0160479
608.654	0.0160397
608.732	0.0159978
608.810	0.0160017
608.888	0.0160402
608.966	0.0160754
609.044	0.0160222
609.122	0.0160093
609.200	0.0159621
609.279	0.0159823
609.357	0.0161623
609.435	0.0160915
609.513	0.0160267
609.591	0.0160947
609.669	0.0162576
609.747	0.0160472
609.825	0.0160199
609.904	0.0159928
609.982	0.0160882
610.060	0.0161569
610.138	0.0160859
610.216	0.0159686
610.294	0.0161120
610.372	0.0162120
610.450	0.0161660
610.529	0.0160497
610.607	0.0161066
610.685	0.0161759
610.763	0.0159818
610.841	0.0161445
610.919	0.0159835
610.997	0.0160970
611.075	0.0161718
611.154	0.0161695
611.232	0.0159583
611.310	0.0160082
611.388	0.0160610
611.466	0.0161429
611.544	0.0160518
611.622	0.0159663
611.700	0.0159811
611.779	0.0161937
611.857	0.0160278
611.935	0.0159834
612.013	0.0161338
612.091	0.0160502
612.169	0.0161017
612.247	0.0160837
612.325	0.0159403
612.404	0.0160967
612.482	0.0159135
612.560	0.0160146
612.638	0.0160656
612.716	0.0159983
612.794	0.0159768
612.872	0.0160487
612.950	0.0161555
613.029	0.0160495
613.107	0.0160763
613.185	0.0160479
613.263	0.0160077
613.341	0.0160309
613.419	0.0160255
613.497	0.0160710
613.575	0.0158910
613.654	0.0159265
613.732	0.0160506
613.810	0.0161684
613.888	0.0161284
613.966	0.0161242
614.044	0.0160307
614.122	0.0161350
614.200	0.0159938
614.279	0.0160439
614.357	0.0160638
614.435	0.0159448
614.513	0.0161980
614.591	0.0160260
614.669	0.0160470
614.747	0.0160183
614.825	0.0161439
614.904	0.0160440
614.982	0.0160669
615.060	0.0162080
615.138	0.0161749
615.216	0.0161677
615.294	0.0161237
615.372	0.0160925
615.450	0.0162374
615.529	0.0159772
615.607	0.0162115
615.685	0.0162063
615.763	0.0160929
615.841	0.0160715
615.919	0.0161372
615.997	0.0161923
616.075	0.0160545
616.154	0.0159782
616.232	0.0160554
616.310	0.0161269
616.388	0.0160065
616.466	0.0160824
616.544	0.0160960
616.622	0.0161722
616.700	0.0160164
616.779	0.0160532
616.857	0.0161385
616.935	0.0160675
617.013	0.0160440
617.091	0.0161072
617.169	0.0160152
617.247	0.0159694
617.325	0.0160337
617.404	0.0161121
617.482	0.0158749
617.560	0.0159540
617.638	0.0160886
617.716	0.0162006
617.794	0.0160002
617.872	0.0161404
617.950	0.0161075
618.029	0.0160452
618.107	0.0160513
618.185	0.0160341
618.263	0.0160554
618.341	0.0159965
618.419	0.0160564
618.497	0.0161142
618.575	0.0161012
618.654	0.0161258
618.732	0.0160809
618.810	0.0161340
618.888	0.0161626
618.966	0.0162073
619.044	0.0161665
619.122	0.0160387
619.200	0.0161335
619.279	0.0160988
619.357	0.0161850
619.435	0.0161082
619.513	0.0160307
619.591	0.0161772
619.669	0.0160567
619.747	0.0160499
619.825	0.0160626
619.904	0.0160592
619.982	0.0161808
620.060	0.0158996
620.138	0.0160960
620.216	0.0161578
620.294	0.0161237
620.372	0.0159914
620.450	0.0160007
620.529	0.0161448
620.607	0.0160886
620.685	0.0160806
620.763	0.0161039
620.841	0.0159965
620.919	0.0160186
620.997	0.0161058
621.075	0.0160046
621.154	0.0162279
621.232	0.0161722
621.310	0.0161069
621.388	0.0160644
621.466	0.0160847
621.544	0.0160783
621.622	0.0161012
621.700	0.0160579
621.779	0.0160155
621.857	0.0161301
621.935	0.0162157
622.013	0.0162565
622.091	0.0161536
622.169	0.0160501
622.247	0.0160308
622.325	0.0161254
622.404	0.0160716
622.482	0.0160722
622.560	0.0161417
622.638	0.0160873
622.716	0.0160355
622.794	0.0161605
622.872	0.0160954
622.950	0.0160513
623.029	0.0160611
623.107	0.0161916
623.185	0.0162000
623.263	0.0160763
623.341	0.0159005
623.419	0.0158511
623.497	0.0160992
623.575	0.0160387
623.654	0.0160652
623.732	0.0161243
623.810	0.0160315
623.888	0.0161143
623.966	0.0162169
624.044	0.0160995
624.122	0.0161100
624.200	0.0160384
624.279	0.0160838
624.357	0.0161333
624.435	0.0161337
624.513	0.0160434
624.591	0.0160898
624.669	0.0160730
624.747	0.0160151
624.825	0.0160966
624.904	0.0161768
624.982	0.0161669
625.060	0.0159817
625.138	0.0161346
625.216	0.0161444
625.294	0.0160146
625.372	0.0161343
625.450	0.0161140
625.529	0.0160442
625.607	0.0161370
625.685	0.0160453
625.763	0.0161317
625.841	0.0161272
625.919	0.0160390
625.997	0.0161366
626.075	0.0161138
626.154	0.0160674
626.232	0.0159805
626.310	0.0162892
626.388	0.0160383
626.466	0.0160773
626.544	0.0160718
626.622	0.0160643
626.700	0.0161636
626.779	0.0161333
626.857	0.0160977
626.935	0.0160249
627.013	0.0160714
627.091	0.0159927
627.169	0.0159377
627.247	0.0160379
627.325	0.0159609
627.404	0.0161206
627.482	0.0160363
627.560	0.0159978
627.638	0.0160218
627.716	0.0159686
627.794	0.0159731
627.872	0.0160383
627.950	0.0160947
628.029	0.0159969
628.107	0.0161018
628.185	0.0160498
628.263	0.0159978
628.341	0.0159978
628.419	0.0160726
628.497	0.0160585
628.575	0.0160960
628.654	0.0159738
628.732	0.0161279
628.810	0.0160512
628.888	0.0159710
628.966	0.0161198
629.044	0.0160772
629.122	0.0161994
629.200	0.0161301
629.279	0.0159328
629.357	0.0159223
629.435	0.0161057
629.513	0.0160021
629.591	0.0160026
629.669	0.0161070
629.747	0.0160876
629.825	0.0160217
629.904	0.0159609
629.982	0.0159396
630.060	0.0160389
630.138	0.0160632
630.216	0.0159242
630.294	0.0159853
630.372	0.0160612
630.450	0.0161456
630.529	0.0159570
630.607	0.0160722
630.685	0.0161106
630.763	0.0159083
630.841	0.0160506
630.919	0.0160564
630.997	0.0160858
631.075	0.0161510
631.154	0.0159929
631.232	0.0160580
631.310	0.0160480
631.388	0.0161111
631.466	0.0162440
631.544	0.0161010
631.622	0.0159203
631.700	0.0159734
631.779	0.0160657
631.857	0.0160392
631.935	0.0161051
632.013	0.0161498
632.091	0.0159099
632.169	0.0160009
632.247	0.0159972
632.325	0.0159859
632.404	0.0160900
632.482	0.0160658
632.560	0.0159782
632.638	0.0160217
632.716	0.0159677
632.794	0.0160150
632.872	0.0160186
632.950	0.0160789
633.029	0.0160950
633.107	0.0160426
633.185	0.0161121
633.263	0.0160998
633.341	0.0161042
633.419	0.0160159
633.497	0.0160411
633.575	0.0161311
633.654	0.0160496
633.732	0.0160712
633.810	0.0161066
633.888	0.0160465
633.966	0.0161084
634.044	0.0161640
634.122	0.0161774
634.200	0.0159940
634.279	0.0159779
634.357	0.0160555
634.435	0.0159970
634.513	0.0159136
634.591	0.0158916
634.669	0.0159985
634.747	0.0160501
634.825	0.0160207
634.904	0.0161694
634.982	0.0160398
635.060	0.0160667
635.138	0.0159957
635.216	0.0160004
635.294	0.0161275
635.372	0.0159884
635.450	0.0160938
635.529	0.0159287
635.607	0.0159808
635.685	0.0159821
635.763	0.0161362
635.841	0.0160442
635.919	0.0159838
635.997	0.0159155
636.075	0.0159658
636.154	0.0159125
636.232	0.0160850
636.310	0.0160712
636.388	0.0160383
636.466	0.0159991
636.544	0.0159210
636.622	0.0160648
636.700	0.0159206
636.779	0.0160123
636.857	0.0160676
636.935	0.0160142
637.013	0.0159771
637.091	0.0158594
637.169	0.0159667
637.247	0.0162537
637.325	0.0160471
637.404	0.0161545
637.482	0.0160686
637.560	0.0160048
637.638	0.0161226
637.716	0.0159483
637.794	0.0160981
637.872	0.0160145
637.950	0.0160228
638.029	0.0160520
638.107	0.0159460
638.185	0.0160354
638.263	0.0160624
638.341	0.0161587
638.419	0.0161082
638.497	0.0159286
638.575	0.0160888
638.654	0.0160700
638.732	0.0159686
638.810	0.0161280
638.888	0.0160585
638.966	0.0160305
639.044	0.0160233
639.122	0.0158485
639.200	0.0161047
639.279	0.0160743
639.357	0.0160081
639.435	0.0161040
639.513	0.0160734
639.591	0.0160134
639.669	0.0159619
639.747	0.0160511
639.825	0.0160962
639.904	0.0160371
639.982	0.0161895
640.060	0.0161689
640.138	0.0160077
640.216	0.0160110
640.294	0.0160625
640.372	0.0161001
640.450	0.0160608
640.529	0.0161630
640.607	0.0160929
640.685	0.0161111
640.763	0.0162611
640.841	0.0159675
640.919	0.0160799
640.997	0.0162509
641.075	0.0160772
641.154	0.0161111
641.232	0.0161102
641.310	0.0160312
641.388	0.0160355
641.466	0.0160638
641.544	0.0161364
641.622	0.0161240
641.700	0.0161818
641.779	0.0160431
641.857	0.0160238
641.935	0.0160803
642.013	0.0161867
642.091	0.0159966
642.169	0.0161225
642.247	0.0160252
642.325	0.0160548
642.404	0.0160953
642.482	0.0160964
642.560	0.0159724
642.638	0.0161719
642.716	0.0161301
642.794	0.0160431
642.872	0.0160239
642.950	0.0161413
643.029	0.0160641
643.107	0.0160641
643.185	0.0161342
643.263	0.0160370
643.341	0.0160331
643.419	0.0160106
643.497	0.0161517
643.575	0.0160394
643.654	0.0160289
643.732	0.0162055
643.810	0.0160596
643.888	0.0160580
643.966	0.0161185
644.044	0.0159535
644.122	0.0160677
644.200	0.0162567
644.279	0.0161028
644.357	0.0161487
644.435	0.0159970
644.513	0.0161131
644.591	0.0160493
644.669	0.0161107
644.747	0.0161276
644.825	0.0161430
644.904	0.0160052
644.982	0.0161086
645.060	0.0159592
645.138	0.0160277
645.216	0.0161454
645.294	0.0161384
645.372	0.0159959
645.450	0.0162359
645.529	0.0160415
645.607	0.0161085
645.685	0.0161596
645.763	0.0161904
645.841	0.0159898
645.919	0.0161443
645.997	0.0161221
646.075	0.0162179
646.154	0.0159418
646.232	0.0160198
646.310	0.0160233
646.388	0.0161010
646.466	0.0159857
646.544	0.0160794
646.622	0.0160605
646.700	0.0160267
646.779	0.0160564
646.857	0.0159991
646.935	0.0160105
647.013	0.0161619
647.091	0.0161589
647.169	0.0161453
647.247	0.0160839
647.325	0.0160804
647.404	0.0159706
647.482	0.0161037
647.560	0.0159658
647.638	0.0160297
647.716	0.0162207
647.794	0.0160722
647.872	0.0160326
647.950	0.0160586
648.029	0.0160500
648.107	0.0160493
648.185	0.0161755
648.263	0.0160429
648.341	0.0160704
648.419	0.0160798
648.497	0.0161095
648.575	0.0159573
648.654	0.0160742
648.732	0.0159101
648.810	0.0160352
648.888	0.0161854
648.966	0.0160892
649.044	0.0159338
649.122	0.0160925
649.200	0.0159956
649.279	0.0161752
649.357	0.0161408
649.435	0.0160485
649.513	0.0161069
649.591	0.0160223
649.669	0.0161329
649.747	0.0162106
649.825	0.0161290
649.904	0.0161533
649.982	0.0159611
650.060	0.0159516
650.138	0.0161205
650.216	0.0160103
650.294	0.0161195
650.372	0.0161649
650.450	0.0159888
650.529	0.0159912
650.607	0.0160384
650.685	0.0161201
650.763	0.0162162
650.841	0.0161378
650.919	0.0160147
650.997	0.0161742
651.075	0.0160178
651.154	0.0162280
651.232	0.0162872
651.310	0.0161752
651.388	0.0160327
651.466	0.0162321
651.544	0.0161049
651.622	0.0160229
651.700	0.0161813
651.779	0.0159833
651.857	0.0160826
651.935	0.0160989
652.013	0.0160617
652.091	0.0160077
652.169	0.0159602
652.247	0.0161008
652.325	0.0160873
652.404	0.0159595
652.482	0.0161503
652.560	0.0159777
652.638	0.0160379
652.716	0.0160052
652.794	0.0162364
652.872	0.0161903
652.950	0.0160489
653.029	0.0159962
653.107	0.0161123
653.185	0.0160432
653.263	0.0160930
653.341	0.0160501
653.419	0.0159793
653.497	0.0160365
653.575	0.0161373
653.654	0.0159251
653.732	0.0160690
653.810	0.0161335
653.888	0.0160764
653.966	0.0160265
654.044	0.0159688
654.122	0.0157764
654.200	0.0160322
654.279	0.0160166
654.357	0.0160445
654.435	0.0160353
654.513	0.0159315
654.591	0.0160984
654.669	0.0160464
654.747	0.0160212
654.825	0.0159495
654.904	0.0159334
654.982	0.0160648
655.060	0.0160190
655.138	0.0160724
655.216	0.0160019
655.294	0.0159195
655.372	0.0159090
655.450	0.0160864
655.529	0.0159254
655.607	0.0162308
655.685	0.0160220
655.763	0.0159544
655.841	0.0160136
655.919	0.0161378
655.997	0.0161547
656.075	0.0158798
656.154	0.0159647
656.232	0.0159682
656.310	0.0161209
656.388	0.0161060
656.466	0.0160354
656.544	0.0159875
656.622	0.0161040
656.700	0.0161319
656.779	0.0160815
656.857	0.0160133
656.935	0.0161275
657.013	0.0160722
657.091	0.0159322
657.169	0.0161271
657.247	0.0160835
657.325	0.0161232
657.404	0.0160951
657.482	0.0160474
657.560	0.0160956
657.638	0.0159249
657.716	0.0159429
657.794	0.0159862
657.872	0.0160460
657.950	0.0160750
658.029	0.0162589
658.107	0.0159002
658.185	0.0159953
658.263	0.0160584
658.341	0.0160732
658.419	0.0160390
658.497	0.0160236
658.575	0.0159533
658.654	0.0160204
658.732	0.0161685
658.810	0.0159624
658.888	0.0159753
658.966	0.0162153
659.044	0.0161343
659.122	0.0161432
659.200	0.0162453
659.279	0.0160747
659.357	0.0160014
659.435	0.0160400
659.513	0.0160942
659.591	0.0161037
659.669	0.0160622
659.747	0.0160031
659.825	0.0160321
659.904	0.0160668
659.982	0.0159500
660.060	0.0160069
660.138	0.0159353
660.216	0.0159933
660.294	0.0161001
660.372	0.0159326
660.450	0.0158781
660.529	0.0160912
660.607	0.0160396
660.685	0.0160460
660.763	0.0159859
660.841	0.0161343
660.919	0.0161351
660.997	0.0160268
661.075	0.0158972
661.154	0.0160980
661.232	0.0160869
661.310	0.0160743
661.388	0.0160544
661.466	0.0159579
661.544	0.0161510
661.622	0.0161465
661.700	0.0161165
661.779	0.0161011
661.857	0.0159883
661.935	0.0160635
662.013	0.0160505
662.091	0.0160131
662.169	0.0160447
662.247	0.0160442
662.325	0.0160001
662.404	0.0159418
662.482	0.0159168
662.560	0.0161887
662.638	0.0160209
662.716	0.0160369
662.794	0.0160310
662.872	0.0160131
662.950	0.0159044
663.029	0.0161808
663.107	0.0159772
663.185	0.0160645
663.263	0.0159660
663.341	0.0159892
663.419	0.0159992
663.497	0.0159609
663.575	0.0160477
663.654	0.0161430
663.732	0.0161145
663.810	0.0161099
663.888	0.0161535
663.966	0.0160017
664.044	0.0159820
664.122	0.0160385
664.200	0.0160559
664.279	0.0159599
664.357	0.0160190
664.435	0.0159738
664.513	0.0160484
664.591	0.0162574
664.669	0.0161367
664.747	0.0160371
664.825	0.0160577
664.904	0.0160834
664.982	0.0160571
665.060	0.0160709
665.138	0.0160197
665.216	0.0160053
665.294	0.0160300
665.372	0.0160566
665.450	0.0162495
665.529	0.0160340
665.607	0.0162251
665.685	0.0161499
665.763	0.0160065
665.841	0.0161224
665.919	0.0159629
665.997	0.0158913
666.075	0.0159556
666.154	0.0160172
666.232	0.0161387
666.310	0.0159167
666.388	0.0160590
666.466	0.0160388
666.544	0.0161977
666.622	0.0160298
666.700	0.0158744
666.779	0.0161533
666.857	0.0160599
666.935	0.0160157
667.013	0.0159907
667.091	0.0160454
667.169	0.0161210
667.247	0.0161979
667.325	0.0160970
667.404	0.0161687
667.482	0.0161044
667.560	0.0161109
667.638	0.0161655
667.716	0.0161825
667.794	0.0161304
667.872	0.0162245
667.950	0.0161008
668.029	0.0161510
668.107	0.0161687
668.185	0.0162672
668.263	0.0160568
668.341	0.0160939
668.419	0.0160471
668.497	0.0159824
668.575	0.0161105
668.654	0.0159967
668.732	0.0158372
668.810	0.0158083
668.888	0.0158811
668.966	0.0158343
669.044	0.0156602
669.122	0.0157351
669.200	0.0156511
669.279	0.0157277
669.357	0.0157586
669.435	0.0157722
669.513	0.0157376
669.591	0.0158583
669.669	0.0158391
669.747	0.0158934
669.825	0.0161184
669.904	0.0161867
669.982	0.0161771
670.060	0.0163858
670.138	0.0166458
670.216	0.0166682
670.294	0.0166747
670.372	0.0168284
670.450	0.0168521
670.529	0.0168081
670.607	0.0168958
670.685	0.0168073
670.763	0.0167371
670.841	0.0164466
670.919	0.0164638
670.997	0.0163273
671.075	0.0162618
671.154	0.0160710
671.232	0.0159636
671.310	0.0158826
671.388	0.0157565
671.466	0.0154886
671.544	0.0152856
671.622	0.0151239
671.700	0.0149287
671.779	0.0147498
671.857	0.0146826
671.935	0.0145525
672.013	0.0144353
672.091	0.0145180
672.169	0.0146591
672.247	0.0148332
672.325	0.0153976
672.404	0.0158963
672.482	0.0163788
672.560	0.0169186
672.638	0.0173446
672.716	0.0177083
672.794	0.0179959
672.872	0.0183334
672.950	0.0183418
673.029	0.0181052
673.107	0.0179478
673.185	0.0176069
673.263	0.0173310
673.341	0.0168307
673.419	0.0163847
673.497	0.0162540
673.575	0.0159460
673.654	0.0156310
673.732	0.0155672
673.810	0.0155474
673.888	0.0153227
673.966	0.0154595
674.044	0.0152629
674.122	0.0152723
674.200	0.0149647
674.279	0.0149429
674.357	0.0147050
674.435	0.0146638
674.513	0.0145315
674.591	0.0145552
674.669	0.0148171
674.747	0.0148325
674.825	0.0152515
674.904	0.0157597
674.982	0.0164664
675.060	0.0169260
675.138	0.0173093
675.216	0.0180347
675.294	0.0184338
675.372	0.0185764
675.450	0.0187062
675.529	0.0186340
675.607	0.0184319
675.685	0.0183574
675.763	0.0180023
675.841	0.0176945
675.919	0.0171905
675.997	0.0166766
676.075	0.0163937
676.154	0.0158853
676.232	0.0154041
676.310	0.0150304
676.388	0.0146023
676.466	0.0140507
676.544	0.0136308
676.622	0.0132615
676.700	0.0129255
676.779	0.0126049
676.857	0.0122644
676.935	0.0119459
677.013	0.0119729
677.091	0.0118647
677.169	0.0119700
677.247	0.0120470
677.325	0.0122678
677.404	0.0128398
677.482	0.0133907
677.560	0.0138943
677.638	0.0146605
677.716	0.0157035
677.794	0.0166728
677.872	0.0177008
677.950	0.0187825
678.029	0.0199385
678.107	0.0209120
678.185	0.0220876
678.263	0.0234019
678.341	0.0243094
678.419	0.0249492
678.497	0.0255999
678.575	0.0258975
678.654	0.0259254
678.732	0.0256033
678.810	0.0248725
678.888	0.0237871
678.966	0.0226124
679.044	0.0208841
679.122	0.0190037
679.200	0.0169255
679.279	0.0148353
679.357	0.0127012
679.435	0.0105475
679.513	0.00863358
679.591	0.00698166
679.669	0.00545807
679.747	0.00441376
679.825	0.00392876
679.904	0.00353813
679.982	0.00343063
680.060	0.00383766
680.138	0.00412628
680.216	0.00512390
680.294	0.00605667
680.372	0.00718285
680.450	0.00828850
680.529	0.00972557
680.607	0.0111893
680.685	0.0128033
680.763	0.0141161
680.841	0.0156973
680.919	0.0170699
680.997	0.0184966
681.075	0.0200401
681.154	0.0213559
681.232	0.0225744
681.310	0.0237753
681.388	0.0249686
681.466	0.0260854
681.544	0.0267438
681.622	0.0274187
681.700	0.0278259
681.779	0.0279646
681.857	0.0277587
681.935	0.0275061
682.013	0.0270529
682.091	0.0263033
682.169	0.0254824
682.247	0.0243823
682.325	0.0233852
682.404	0.0222956
682.482	0.0210649
682.560	0.0198835
682.638	0.0186072
682.716	0.0171848
682.794	0.0157561
682.872	0.0146091
682.950	0.0130128
683.029	0.0116348
683.107	0.0103229
683.185	0.00906639
683.263	0.00774521
683.341	0.00664429
683.419	0.00539474
683.497	0.00439247
683.575	0.00354294
683.654	0.00292450
683.732	0.00232933
683.810	0.00231262
683.888	0.00231537
683.966	0.00274544
684.044	0.00337471
684.122	0.00417938
684.200	0.00538544
684.279	0.00670410
684.357	0.00835953
684.435	0.0100851
684.513	0.0121916
684.591	0.0143014
684.669	0.0163889
684.747	0.0183306
684.825	0.0203145
684.904	0.0221128
684.982	0.0235050
685.060	0.0249869
685.138	0.0261259
685.216	0.0267280
685.294	0.0275067
685.372	0.0278460
685.450	0.0281715
685.529	0.0283127
685.607	0.0284634
685.685	0.0284673
685.763	0.0282282
685.841	0.0280924
685.919	0.0276634
685.997	0.0271872
686.075	0.0265228
686.154	0.0257815
686.232	0.0246465
686.310	0.0234037
686.388	0.0219536
686.466	0.0203233
686.544	0.0186855
686.622	0.0170325
686.700	0.0151814
686.779	0.0135531
686.857	0.0121115
686.935	0.0106350
687.013	0.00947479
687.091	0.00835678
687.169	0.00735672
687.247	0.00655411
687.325	0.00595314
687.404	0.00522217
687.482	0.00485260
687.560	0.00448021
687.638	0.00414558
687.716	0.00397079
687.794	0.00400887
687.872	0.00421471
687.950	0.00461441
688.029	0.00505577
688.107	0.00594139
688.185	0.00658325
688.263	0.00766876
688.341	0.00887985
688.419	0.0101830
688.497	0.0116713
688.575	0.0132009
688.654	0.0148657
688.732	0.0164838
688.810	0.0180989
688.888	0.0193721
688.966	0.0206290
689.044	0.0218230
689.122	0.0229324
689.200	0.0237115
689.279	0.0244114
689.357	0.0251801
689.435	0.0256933
689.513	0.0258716
689.591	0.0260757
689.669	0.0263625
689.747	0.0263549
689.825	0.0261573
689.904	0.0259465
689.982	0.0257685
690.060	0.0253081
690.138	0.0251222
690.216	0.0242405
690.294	0.0236093
690.372	0.0225740
690.450	0.0216756
690.529	0.0207092
690.607	0.0195629
690.685	0.0181641
690.763	0.0169806
690.841	0.0158660
690.919	0.0146166
690.997	0.0135674
691.075	0.0125179
691.154	0.0116699
691.232	0.0108213
691.310	0.0101488
691.388	0.00950539
691.466	0.00932243
691.544	0.00893829
691.622	0.00891396
691.700	0.00884705
691.779	0.00896774
691.857	0.00880112
691.935	0.00897491
692.013	0.00917015
692.091	0.00939217
692.169	0.00956581
692.247	0.00992874
692.325	0.0102210
692.404	0.0106711
692.482	0.0112074
692.560	0.0117654
692.638	0.0122713
692.716	0.0130676
692.794	0.0137084
692.872	0.0143667
692.950	0.0149059
693.029	0.0153239
693.107	0.0159953
693.185	0.0163860
693.263	0.0168784
693.341	0.0173485
693.419	0.0176767
693.497	0.0181122
693.575	0.0184483
693.654	0.0187236
693.732	0.0189436
693.810	0.0194203
693.888	0.0197138
693.966	0.0198325
694.044	0.0199329
694.122	0.0200619
694.200	0.0200600
694.279	0.0201232
694.357	0.0200543
694.435	0.0198292
694.513	0.0196770
694.591	0.0194362
694.669	0.0191773
694.747	0.0188308
694.825	0.0186894
694.904	0.0184594
694.982	0.0183861
695.060	0.0181199
695.138	0.0182692
695.216	0.0182206
695.294	0.0179910
695.372	0.0181996
695.450	0.0181267
695.529	0.0181644
695.607	0.0181057
695.685	0.0181747
695.763	0.0178545
695.841	0.0177299
695.919	0.0173609
695.997	0.0169198
696.075	0.0167216
696.154	0.0161862
696.232	0.0155735
696.310	0.0151382
696.388	0.0147346
696.466	0.0141817
696.544	0.0136301
696.622	0.0132415
696.700	0.0128590
696.779	0.0122463
696.857	0.0121123
696.935	0.0118299
697.013	0.0115398
697.091	0.0115083
697.169	0.0115359
697.247	0.0115293
697.325	0.0115614
697.404	0.0118780
697.482	0.0119862
697.560	0.0123014
697.638	0.0127468
697.716	0.0131310
697.794	0.0134879
697.872	0.0139450
697.950	0.0143866
698.029	0.0150080
698.107	0.0155058
698.185	0.0158526
698.263	0.0163282
698.341	0.0169250
698.419	0.0173824
698.497	0.0176084
698.575	0.0178887
698.654	0.0180635
698.732	0.0181739
698.810	0.0179832
698.888	0.0178878
698.966	0.0176459
699.044	0.0175331
699.122	0.0172198
699.200	0.0169115
699.279	0.0166151
699.357	0.0162479
699.435	0.0161951
699.513	0.0160323
699.591	0.0158585
699.669	0.0157615
699.747	0.0159218
699.825	0.0159244
699.904	0.0159740
699.982	0.0164409
700.060	0.0166565
700.138	0.0168446
700.216	0.0172054
700.294	0.0174730
700.372	0.0177878
700.450	0.0181915
700.529	0.0185321
700.607	0.0189467
700.685	0.0190105
700.763	0.0192500
700.841	0.0195000
700.919	0.0196335
700.997	0.0197417
701.075	0.0196339
701.154	0.0194513
701.232	0.0193456
701.310	0.0190228
701.388	0.0186449
701.466	0.0181983
701.544	0.0175938
701.622	0.0169592
701.700	0.0164727
701.779	0.0158572
701.857	0.0153685
701.935	0.0147233
702.013	0.0143343
702.091	0.0140344
702.169	0.0136595
702.247	0.0135758
702.325	0.0134856
702.404	0.0134352
702.482	0.0133755
702.560	0.0135902
702.638	0.0135657
702.716	0.0138067
702.794	0.0138732
702.872	0.0138660
702.950	0.0140993
703.029	0.0142200
703.107	0.0143796
703.185	0.0144543
703.263	0.0145968
703.341	0.0145757
703.419	0.0144800
703.497	0.0144221
703.575	0.0145652
703.654	0.0145686
703.732	0.0144347
703.810	0.0146617
703.888	0.0145126
703.966	0.0143960
704.044	0.0145774
704.122	0.0145444
704.200	0.0146413
704.279	0.0146568
704.357	0.0147759
704.435	0.0148122
704.513	0.0150363
704.591	0.0150371
704.669	0.0152103
704.747	0.0154132
704.825	0.0154594
704.904	0.0157056
704.982	0.0160047
705.060	0.0161377
705.138	0.0166828
705.216	0.0169530
705.294	0.0172076
705.372	0.0176888
705.450	0.0178941
705.529	0.0183398
705.607	0.0185870
705.685	0.0187636
705.763	0.0190077
705.841	0.0191512
705.919	0.0191648
705.997	0.0191331
706.075	0.0190981
706.154	0.0190662
706.232	0.0189413
706.310	0.0187994
706.388	0.0185293
706.466	0.0184760
706.544	0.0183722
706.622	0.0181713
706.700	0.0180235
706.779	0.0179378
706.857	0.0178658
706.935	0.0176450
707.013	0.0175059
707.091	0.0171242
707.169	0.0169504
707.247	0.0167184
707.325	0.0164940
707.404	0.0161587
707.482	0.0161724
707.560	0.0160925
707.638	0.0159360
707.716	0.0158045
707.794	0.0156824
707.872	0.0155454
707.950	0.0154752
708.029	0.0152378
708.107	0.0150758
708.185	0.0149496
708.263	0.0147565
708.341	0.0145411
708.419	0.0143037
708.497	0.0143484
708.575	0.0139650
708.654	0.0137652
708.732	0.0135105
708.810	0.0134588
708.888	0.0134158
708.966	0.0132070
709.044	0.0131253
709.122	0.0130434
709.200	0.0130342
709.279	0.0131437
709.357	0.0130270
709.435	0.0130911
709.513	0.0132836
709.591	0.0133971
709.669	0.0136102
709.747	0.0137566
709.825	0.0141690
709.904	0.0145771
709.982	0.0149985
710.060	0.0153513
710.138	0.0157038
710.216	0.0159647
710.294	0.0165334
710.372	0.0170101
710.450	0.0170035
710.529	0.0173634
710.607	0.0176507
710.685	0.0178032
710.763	0.0178419
710.841	0.0180215
710.919	0.0180708
710.997	0.0180968
711.075	0.0180396
711.154	0.0179227
711.232	0.0178819
711.310	0.0180330
711.388	0.0179637
711.466	0.0178845
711.544	0.0179289
711.622	0.0178667
711.700	0.0178705
711.779	0.0180580
711.857	0.0179347
711.935	0.0178872
712.013	0.0178638
712.091	0.0178125
712.169	0.0176913
712.247	0.0176556
712.325	0.0173921
712.404	0.0173737
712.482	0.0171162
712.560	0.0169221
712.638	0.0168181
712.716	0.0167381
712.794	0.0165657
712.872	0.0164234
712.950	0.0162295
713.029	0.0162589
713.107	0.0161075
713.185	0.0161111
713.263	0.0159519
713.341	0.0159953
713.419	0.0159013
713.497	0.0158568
713.575	0.0158678
713.654	0.0159451
713.732	0.0159108
713.810	0.0158187
713.888	0.0158553
713.966	0.0157092
714.044	0.0156711
714.122	0.0154010
714.200	0.0154937
714.279	0.0152994
714.357	0.0150190
714.435	0.0148069
714.513	0.0146728
714.591	0.0145079
714.669	0.0143722
714.747	0.0140501
714.825	0.0139349
714.904	0.0138208
714.982	0.0139806
715.060	0.0139228
715.138	0.0137807
715.216	0.0139325
715.294	0.0138368
715.372	0.0139343
715.450	0.0139215
715.529	0.0140274
715.607	0.0143230
715.685	0.0143214
715.763	0.0145895
715.841	0.0149403
715.919	0.0151393
715.997	0.0154712
716.075	0.0158091
716.154	0.0160781
716.232	0.0164001
716.310	0.0168424
716.388	0.0172820
716.466	0.0176239
716.544	0.0180408
716.622	0.0181560
716.700	0.0182446
716.779	0.0182800
716.857	0.0184440
716.935	0.0182394
717.013	0.0181923
717.091	0.0180968
717.169	0.0178490
717.247	0.0176713
717.325	0.0173927
717.404	0.0170712
717.482	0.0168121
717.560	0.0163691
717.638	0.0162643
717.716	0.0161506
717.794	0.0160315
717.872	0.0157362
717.950	0.0160778
718.029	0.0158901
718.107	0.0159582
718.185	0.0161400
718.263	0.0161684
718.341	0.0162607
718.419	0.0161498
718.497	0.0162260
718.575	0.0163190
718.654	0.0162597
718.732	0.0161999
718.810	0.0162630
718.888	0.0161410
718.966	0.0159908
719.044	0.0159830
719.122	0.0158578
719.200	0.0157875
719.279	0.0158609
719.357	0.0157742
719.435	0.0158328
719.513	0.0160081
719.591	0.0159534
719.669	0.0161642
719.747	0.0162125
719.825	0.0162639
719.904	0.0162894
719.982	0.0163892
720.060	0.0165395
720.138	0.0167255
720.216	0.0166653
720.294	0.0165279
720.372	0.0165829
720.450	0.0165243
720.529	0.0164198
720.607	0.0162958
720.685	0.0160419
720.763	0.0159879
720.841	0.0157894
720.919	0.0157982
720.997	0.0156617
721.075	0.0154689
721.154	0.0153249
721.232	0.0152387
721.310	0.0151704
721.388	0.0149246
721.466	0.0150154
721.544	0.0149413
721.622	0.0149158
721.700	0.0149361
721.779	0.0148961
721.857	0.0149215
721.935	0.0150217
722.013	0.0151631
722.091	0.0151689
722.169	0.0152230
722.247	0.0154377
722.325	0.0154169
722.404	0.0154726
722.482	0.0155444
722.560	0.0155853
722.638	0.0154739
722.716	0.0155065
722.794	0.0155492
722.872	0.0155131
722.950	0.0154090
723.029	0.0154878
723.107	0.0155740
723.185	0.0155394
723.263	0.0155049
723.341	0.0156159
723.419	0.0155549
723.497	0.0157971
723.575	0.0158810
723.654	0.0159076
723.732	0.0159956
723.810	0.0163148
723.888	0.0164692
723.966	0.0165488
724.044	0.0168261
724.122	0.0170680
724.200	0.0171638
724.279	0.0173318
724.357	0.0172683
724.435	0.0174667
724.513	0.0175020
724.591	0.0174689
724.669	0.0175232
724.747	0.0175246
724.825	0.0176466
724.904	0.0174100
724.982	0.0174559
725.060	0.0173754
725.138	0.0172172
725.216	0.0171244
725.294	0.0170880
725.372	0.0169849
725.450	0.0168757
725.529	0.0166097
725.607	0.0165680
725.685	0.0163079
725.763	0.0163855
725.841	0.0161665
725.919	0.0160811
725.997	0.0159917
726.075	0.0160579
726.154	0.0159772
726.232	0.0159782
726.310	0.0158948
726.388	0.0158664
726.466	0.0159945
726.544	0.0159519
726.622	0.0159816
726.700	0.0158878
726.779	0.0159386
726.857	0.0156699
726.935	0.0156081
727.013	0.0155821
727.091	0.0156950
727.169	0.0153800
727.247	0.0152880
727.325	0.0150925
727.404	0.0149963
727.482	0.0149502
727.560	0.0149215
727.638	0.0146577
727.716	0.0146973
727.794	0.0147857
727.872	0.0147115
727.950	0.0148470
728.029	0.0147197
728.107	0.0148244
728.185	0.0148545
728.263	0.0151254
728.341	0.0151298
728.419	0.0153214
728.497	0.0154631
728.575	0.0155331
728.654	0.0156274
728.732	0.0157333
728.810	0.0160238
728.888	0.0160524
728.966	0.0160994
729.044	0.0161575
729.122	0.0163276
729.200	0.0163296
729.279	0.0164286
729.357	0.0165680
729.435	0.0165219
729.513	0.0164952
729.591	0.0164362
729.669	0.0164668
729.747	0.0163736
729.825	0.0165140
729.904	0.0165002
729.982	0.0164222
730.060	0.0165765
730.138	0.0165746
730.216	0.0167818
730.294	0.0168613
730.372	0.0168822
730.450	0.0171523
730.529	0.0170700
730.607	0.0173341
730.685	0.0172467
730.763	0.0171367
730.841	0.0172214
730.919	0.0170939
730.997	0.0170718
731.075	0.0167947
731.154	0.0166388
731.232	0.0165501
731.310	0.0164008
731.388	0.0161822
731.466	0.0160459
731.544	0.0158980
731.622	0.0159119
731.700	0.0155589
731.779	0.0156441
731.857	0.0155653
731.935	0.0156231
732.013	0.0155844
732.091	0.0157168
732.169	0.0155872
732.247	0.0156117
732.325	0.0157303
732.404	0.0159147
732.482	0.0158360
732.560	0.0161607
732.638	0.0160781
732.716	0.0162193
732.794	0.0162723
732.872	0.0162057
732.950	0.0163269
733.029	0.0164114
733.107	0.0165646
733.185	0.0164123
733.263	0.0164190
733.341	0.0163524
733.419	0.0164963
733.497	0.0165522
733.575	0.0165157
733.654	0.0164351
733.732	0.0163570
733.810	0.0162659
733.888	0.0161253
733.966	0.0160976
734.044	0.0160756
734.122	0.0159573
734.200	0.0159509
734.279	0.0159311
734.357	0.0159964
734.435	0.0159048
734.513	0.0159666
734.591	0.0158276
734.669	0.0159228
734.747	0.0158139
734.825	0.0158001
734.904	0.0159850
734.982	0.0158440
735.060	0.0157563
735.138	0.0158464
735.216	0.0158220
735.294	0.0157835
735.372	0.0158038
735.450	0.0156767
735.529	0.0155726
735.607	0.0156107
735.685	0.0155511
735.763	0.0155794
735.841	0.0155053
735.919	0.0154449
735.997	0.0153777
736.075	0.0153389
736.154	0.0151898
736.232	0.0152486
736.310	0.0153107
736.388	0.0152653
736.466	0.0153630
736.544	0.0155730
736.622	0.0155307
736.700	0.0155956
736.779	0.0156774
736.857	0.0157629
736.935	0.0160377
737.013	0.0160259
737.091	0.0162333
737.169	0.0162032
737.247	0.0162825
737.325	0.0165712
737.404	0.0166471
737.482	0.0167471
737.560	0.0167970
737.638	0.0168580
737.716	0.0170518
737.794	0.0168050
737.872	0.0169217
737.950	0.0168198
738.029	0.0166583
738.107	0.0166047
738.185	0.0166585
738.263	0.0165699
738.341	0.0164162
738.419	0.0163602
738.497	0.0165363
738.575	0.0163055
738.654	0.0163020
738.732	0.0163982
738.810	0.0164029
738.888	0.0164859
738.966	0.0163424
739.044	0.0163084
739.122	0.0163718
739.200	0.0164309
739.279	0.0162969
739.357	0.0164259
739.435	0.0164538
739.513	0.0164516
739.591	0.0163311
739.669	0.0163792
739.747	0.0163322
739.825	0.0163653
739.904	0.0162112
739.982	0.0162302
740.060	0.0161758
740.138	0.0160988
740.216	0.0160815
740.294	0.0160600
740.372	0.0158311
740.450	0.0157720
740.529	0.0157262
740.607	0.0155896
740.685	0.0154654
740.763	0.0154626
740.841	0.0155240
740.919	0.0153549
740.997	0.0154385
741.075	0.0154716
741.154	0.0155782
741.232	0.0154861
741.310	0.0155690
741.388	0.0155527
741.466	0.0154939
741.544	0.0156884
741.622	0.0158025
741.700	0.0158237
741.779	0.0157494
741.857	0.0158192
741.935	0.0156798
742.013	0.0155369
742.091	0.0155542
742.169	0.0155423
742.247	0.0156947
742.325	0.0154652
742.404	0.0154134
742.482	0.0154583
742.560	0.0154495
742.638	0.0154449
742.716	0.0156154
742.794	0.0156996
742.872	0.0156178
742.950	0.0158829
743.029	0.0160361
743.107	0.0160081
743.185	0.0160462
743.263	0.0162612
743.341	0.0161331
743.419	0.0162938
743.497	0.0164309
743.575	0.0166293
743.654	0.0166811
743.732	0.0166132
743.810	0.0166626
743.888	0.0166869
743.966	0.0166943
744.044	0.0165600
744.122	0.0166338
744.200	0.0165150
744.279	0.0163211
744.357	0.0162653
744.435	0.0163012
744.513	0.0163176
744.591	0.0162089
744.669	0.0161738
744.747	0.0161076
744.825	0.0160326
744.904	0.0159725
744.982	0.0160303
745.060	0.0159629
745.138	0.0159986
745.216	0.0158898
745.294	0.0158813
745.372	0.0160075
745.450	0.0160400
745.529	0.0161900
745.607	0.0161425
745.685	0.0162212
745.763	0.0162485
745.841	0.0161790
745.919	0.0163523
745.997	0.0163427
746.075	0.0164658
746.154	0.0162859
746.232	0.0162527
746.310	0.0163335
746.388	0.0161627
746.466	0.0162173
746.544	0.0160768
746.622	0.0161162
746.700	0.0160419
746.779	0.0159329
746.857	0.0159983
746.935	0.0160172
747.013	0.0158976
747.091	0.0158709
747.169	0.0160331
747.247	0.0158132
747.325	0.0157983
747.404	0.0158711
747.482	0.0158556
747.560	0.0159343
747.638	0.0158141
747.716	0.0159496
747.794	0.0159342
747.872	0.0158070
747.950	0.0161404
748.029	0.0160196
748.107	0.0160048
748.185	0.0161603
748.263	0.0160347
748.341	0.0162775
748.419	0.0161487
748.497	0.0162552
748.575	0.0163110
748.654	0.0163333
748.732	0.0160220
748.810	0.0160984
748.888	0.0161346
748.966	0.0161405
749.044	0.0160252
749.122	0.0158879
749.200	0.0158395
749.279	0.0157284
749.357	0.0157064
749.435	0.0155710
749.513	0.0155987
749.591	0.0155699
749.669	0.0154206
749.747	0.0155210
749.825	0.0154738
749.904	0.0155196
749.982	0.0154264
750.060	0.0154660
750.138	0.0154951
750.216	0.0155482
750.294	0.0157259
750.372	0.0156338
750.450	0.0156689
750.529	0.0157303
750.607	0.0157582
750.685	0.0159973
750.763	0.0159023
750.841	0.0158788
750.919	0.0160079
750.997	0.0161333
751.075	0.0161918
751.154	0.0159077
751.232	0.0160066
751.310	0.0161785
751.388	0.0159812
751.466	0.0161280
751.544	0.0159067
751.622	0.0161139
751.700	0.0161262
751.779	0.0161784
751.857	0.0161380
751.935	0.0161588
752.013	0.0162280
752.091	0.0161905
752.169	0.0162556
752.247	0.0164092
752.325	0.0163510
752.404	0.0164059
752.482	0.0163907
752.560	0.0164922
752.638	0.0165691
752.716	0.0165142
752.794	0.0164251
752.872	0.0166510
752.950	0.0166084
753.029	0.0166497
753.107	0.0166348
753.185	0.0165379
753.263	0.0165759
753.341	0.0165336
753.419	0.0167312
753.497	0.0165779
753.575	0.0163949
753.654	0.0164388
753.732	0.0163741
753.810	0.0162891
753.888	0.0165153
753.966	0.0162941
754.044	0.0162180
754.122	0.0161967
754.200	0.0162193
754.279	0.0160655
754.357	0.0162279
754.435	0.0161755
754.513	0.0161239
754.591	0.0162041
754.669	0.0160619
754.747	0.0159557
754.825	0.0162852
754.904	0.0161077
754.982	0.0161580
755.060	0.0160838
755.138	0.0160703
755.216	0.0160614
755.294	0.0159445
755.372	0.0158799
755.450	0.0157610
755.529	0.0156541
755.607	0.0156341
755.685	0.0155193
755.763	0.0154475
755.841	0.0156038
755.919	0.0154653
755.997	0.0155066
756.075	0.0152683
756.154	0.0152145
756.232	0.0152491
756.310	0.0154846
756.388	0.0154784
756.466	0.0154353
756.544	0.0154439
756.622	0.0154993
756.700	0.0156001
756.779	0.0155502
756.857	0.0158614
756.935	0.0158450
757.013	0.0158880
757.091	0.0161158
757.169	0.0160493
757.247	0.0160723
757.325	0.0164120
757.404	0.0162843
757.482	0.0163284
757.560	0.0163638
757.638	0.0165886
757.716	0.0165015
757.794	0.0165800
757.872	0.0166180
757.950	0.0166617
758.029	0.0167240
758.107	0.0165176
758.185	0.0165957
758.263	0.0166730
758.341	0.0165839
758.419	0.0164138
758.497	0.0163504
758.575	0.0163373
758.654	0.0162242
758.732	0.0161323
758.810	0.0160454
758.888	0.0159379
758.966	0.0158085
759.044	0.0158029
759.122	0.0157030
759.200	0.0156044
759.279	0.0156107
759.357	0.0155680
759.435	0.0157038
759.513	0.0156833
759.591	0.0156278
759.669	0.0156322
759.747	0.0157479
759.825	0.0159526
759.904	0.0158908
759.982	0.0159344
760.060	0.0158599
760.138	0.0160010
760.216	0.0161690
760.294	0.0162606
760.372	0.0161457
760.450	0.0163185
760.529	0.0164379
760.607	0.0164474
760.685	0.0165077
760.763	0.0165488
760.841	0.0164310
760.919	0.0163546
760.997	0.0164622
761.075	0.0164819
761.154	0.0164075
761.232	0.0163125
761.310	0.0163229
761.388	0.0163971
761.466	0.0163810
761.544	0.0164594
761.622	0.0164926
761.700	0.0163748
761.779	0.0165302
761.857	0.0164993
761.935	0.0165260
762.013	0.0166830
762.091	0.0165359
762.169	0.0165102
762.247	0.0166679
762.325	0.0164857
762.404	0.0164265
762.482	0.0164286
762.560	0.0163396
762.638	0.0161040
762.716	0.0160813
762.794	0.0159951
762.872	0.0157229
762.950	0.0158149
763.029	0.0157001
763.107	0.0155083
763.185	0.0154658
763.263	0.0153176
763.341	0.0154301
763.419	0.0153199
763.497	0.0152328
763.575	0.0152225
763.654	0.0152607
763.732	0.0152683
763.810	0.0152099
763.888	0.0152094
763.966	0.0151831
764.044	0.0152496
764.122	0.0152583
764.200	0.0154285
764.279	0.0153129
764.357	0.0152929
764.435	0.0152293
764.513	0.0153269
764.591	0.0155510
764.669	0.0155738
764.747	0.0156189
764.825	0.0155309
764.904	0.0157088
764.982	0.0158336
765.060	0.0158521
765.138	0.0160663
765.216	0.0160178
765.294	0.0161984
765.372	0.0161401
765.450	0.0161687
765.529	0.0164543
765.607	0.0163576
765.685	0.0164744
765.763	0.0164396
765.841	0.0164701
765.919	0.0164937
765.997	0.0165261
766.075	0.0166144
766.154	0.0164962
766.232	0.0165776
766.310	0.0165736
766.388	0.0164905
766.466	0.0164440
766.544	0.0165739
766.622	0.0165606
766.700	0.0166143
766.779	0.0166569
766.857	0.0165666
766.935	0.0166169
767.013	0.0165403
767.091	0.0165176
767.169	0.0165079
767.247	0.0164262
767.325	0.0163914
767.404	0.0164733
767.482	0.0162559
767.560	0.0160625
767.638	0.0161016
767.716	0.0160205
767.794	0.0162138
767.872	0.0159008
767.950	0.0159046
768.029	0.0158110
768.107	0.0157784
768.185	0.0158543
768.263	0.0156396
768.341	0.0155692
768.419	0.0157722
768.497	0.0156203
768.575	0.0157455
768.654	0.0157604
768.732	0.0158622
768.810	0.0158495
768.888	0.0160759
768.966	0.0159332
769.044	0.0160901
769.122	0.0161125
769.200	0.0162294
769.279	0.0161993
769.357	0.0162606
769.435	0.0163811
769.513	0.0163828
769.591	0.0162811
769.669	0.0162771
769.747	0.0163087
769.825	0.0164040
769.904	0.0163049
769.982	0.0162569
770.060	0.0162381
770.138	0.0161150
770.216	0.0160674
770.294	0.0161734
770.372	0.0160020
770.450	0.0159023
770.529	0.0157965
770.607	0.0158717
770.685	0.0156959
770.763	0.0157401
770.841	0.0156514
770.919	0.0155294
770.997	0.0155117
771.075	0.0156502
771.154	0.0157506
771.232	0.0156313
771.310	0.0158569
771.388	0.0158717
771.466	0.0158427
771.544	0.0160442
771.622	0.0160265
771.700	0.0159782
771.779	0.0159922
771.857	0.0161614
771.935	0.0160056
772.013	0.0160928
772.091	0.0159147
772.169	0.0158150
772.247	0.0158013
772.325	0.0155772
772.404	0.0156647
772.482	0.0156998
772.560	0.0155783
772.638	0.0155782
772.716	0.0155474
772.794	0.0154736
772.872	0.0154614
772.950	0.0155318
773.029	0.0154605
773.107	0.0155267
773.185	0.0154595
773.263	0.0154758
773.341	0.0154520
773.419	0.0153216
773.497	0.0154205
773.575	0.0155714
773.654	0.0156226
773.732	0.0157898
773.810	0.0156932
773.888	0.0158836
773.966	0.0160767
774.044	0.0161919
774.122	0.0163337
774.200	0.0165771
774.279	0.0165985
774.357	0.0168029
774.435	0.0169315
774.513	0.0170345
774.591	0.0172633
774.669	0.0173961
774.747	0.0174748
774.825	0.0175853
774.904	0.0176199
774.982	0.0177422
775.060	0.0178391
775.138	0.0176772
775.216	0.0175829
775.294	0.0174367
775.372	0.0171455
775.450	0.0171501
775.529	0.0169922
775.607	0.0167822
775.685	0.0166300
775.763	0.0162358
775.841	0.0159795
775.919	0.0157786
775.997	0.0153637
776.075	0.0151376
776.154	0.0150415
776.232	0.0148386
776.310	0.0145959
776.388	0.0145660
776.466	0.0144977
776.544	0.0144753
776.622	0.0144413
776.700	0.0144277
776.779	0.0145491
776.857	0.0146113
776.935	0.0146845
777.013	0.0149429
777.091	0.0149941
777.169	0.0151302
777.247	0.0152180
777.325	0.0154388
777.404	0.0154940
777.482	0.0157549
777.560	0.0158757
777.638	0.0161932
777.716	0.0162905
777.794	0.0163995
777.872	0.0166169
777.950	0.0167861
778.029	0.0168892
778.107	0.0169768
778.185	0.0169078
778.263	0.0171141
778.341	0.0171793
778.419	0.0170598
778.497	0.0172337
778.575	0.0171307
778.654	0.0170698
778.732	0.0171117
778.810	0.0171545
778.888	0.0168819
778.966	0.0167741
779.044	0.0167348
779.122	0.0165630
779.200	0.0163963
779.279	0.0161278
779.357	0.0160502
779.435	0.0158241
779.513	0.0155535
779.591	0.0153707
779.669	0.0152288
779.747	0.0150276
779.825	0.0148579
779.904	0.0146683
779.982	0.0144884
780.060	0.0144733
780.138	0.0144174
780.216	0.0143099
780.294	0.0144382
780.372	0.0143845
780.450	0.0144793
780.529	0.0147594
780.607	0.0149130
780.685	0.0149221
780.763	0.0150653
780.841	0.0152500
780.919	0.0155007
780.997	0.0156245
781.075	0.0159042
781.154	0.0161925
781.232	0.0165132
781.310	0.0165194
781.388	0.0168625
781.466	0.0170308
781.544	0.0170717
781.622	0.0172821
781.700	0.0176350
781.779	0.0174552
781.857	0.0176592
781.935	0.0177415
782.013	0.0178176
782.091	0.0177805
782.169	0.0176200
782.247	0.0177721
782.325	0.0176393
782.404	0.0175834
782.482	0.0174323
782.560	0.0173727
782.638	0.0170412
782.716	0.0170110
782.794	0.0168330
782.872	0.0167783
782.950	0.0166579
783.029	0.0163621
783.107	0.0162790
783.185	0.0160953
783.263	0.0160122
783.341	0.0158660
783.419	0.0157819
783.497	0.0156459
783.575	0.0155003
783.654	0.0154713
783.732	0.0153442
783.810	0.0152405
783.888	0.0150811
783.966	0.0151256
784.044	0.0149850
784.122	0.0149164
784.200	0.0149802
784.279	0.0148518
784.357	0.0147911
784.435	0.0148667
784.513	0.0150209
784.591	0.0151204
784.669	0.0151656
784.747	0.0152493
784.825	0.0153597
784.904	0.0153376
784.982	0.0154324
785.060	0.0154894
785.138	0.0156140
785.216	0.0156505
785.294	0.0157332
785.372	0.0156750
785.450	0.0157624
785.529	0.0159972
785.607	0.0160225
785.685	0.0159673
785.763	0.0161011
785.841	0.0161570
785.919	0.0162298
785.997	0.0164544
786.075	0.0165632
786.154	0.0165176
786.232	0.0166344
786.310	0.0167677
786.388	0.0167951
786.466	0.0167522
786.544	0.0167254
786.622	0.0169369
786.700	0.0168382
786.779	0.0168006
786.857	0.0166644
786.935	0.0167347
787.013	0.0165313
787.091	0.0164406
787.169	0.0164705
787.247	0.0164584
787.325	0.0162645
787.404	0.0162978
787.482	0.0161903
787.560	0.0162039
787.638	0.0160265
787.716	0.0161455
787.794	0.0159069
787.872	0.0158427
787.950	0.0159638
788.029	0.0157896
788.107	0.0156991
788.185	0.0156879
788.263	0.0156844
788.341	0.0156558
788.419	0.0155637
788.497	0.0156070
788.575	0.0156134
788.654	0.0155117
788.732	0.0155347
788.810	0.0155261
788.888	0.0154430
788.966	0.0153543
789.044	0.0156036
789.122	0.0154602
789.200	0.0155556
789.279	0.0155541
789.357	0.0155883
789.435	0.0155733
789.513	0.0156293
789.591	0.0155005
789.669	0.0156396
789.747	0.0156705
789.825	0.0158183
789.904	0.0160039
789.982	0.0159387
790.060	0.0160381
790.138	0.0161123
790.216	0.0162282
790.294	0.0164655
790.372	0.0164917
790.450	0.0165253
790.529	0.0166637
790.607	0.0165793
790.685	0.0167238
790.763	0.0167278
790.841	0.0168627
790.919	0.0167383
790.997	0.0166589
791.075	0.0168089
791.154	0.0167820
791.232	0.0168826
791.310	0.0167278
791.388	0.0167828
791.466	0.0167975
791.544	0.0167030
791.622	0.0166857
791.700	0.0166360
791.779	0.0164850
791.857	0.0164499
791.935	0.0165179
792.013	0.0164768
792.091	0.0163788
792.169	0.0164036
792.247	0.0163966
792.325	0.0162435
792.404	0.0161716
792.482	0.0161770
792.560	0.0160206
792.638	0.0160848
792.716	0.0159780
792.794	0.0158035
792.872	0.0157198
792.950	0.0156744
793.029	0.0156356
793.107	0.0155632
793.185	0.0156242
793.263	0.0154585
793.341	0.0152862
793.419	0.0152338
793.497	0.0151917
793.575	0.0150816
793.654	0.0150591
793.732	0.0150223
793.810	0.0151435
793.888	0.0151083
793.966	0.0150975
794.044	0.0151072
794.122	0.0152101
794.200	0.0153143
794.279	0.0153871
794.357	0.0154454
794.435	0.0154553
794.513	0.0155930
794.591	0.0158168
794.669	0.0157259
794.747	0.0158252
794.825	0.0157929
794.904	0.0159713
794.982	0.0160011
795.060	0.0160312
795.138	0.0160277
795.216	0.0160357
795.294	0.0161317
795.372	0.0162128
795.450	0.0161887
795.529	0.0161124
795.607	0.0162900
795.685	0.0162790
795.763	0.0161373
795.841	0.0161995
795.919	0.0163642
795.997	0.0164326
796.075	0.0163274
796.154	0.0163627
796.232	0.0163946
796.310	0.0164211
796.388	0.0165301
796.466	0.0165727
796.544	0.0166093
796.622	0.0166290
796.700	0.0167197
796.779	0.0166557
796.857	0.0166305
796.935	0.0167620
797.013	0.0167657
797.091	0.0169485
797.169	0.0167416
797.247	0.0168525
797.325	0.0167966
797.404	0.0167712
797.482	0.0168622
797.560	0.0166020
797.638	0.0166766
797.716	0.0166201
797.794	0.0165861
797.872	0.0164205
797.950	0.0164545
798.029	0.0163551
798.107	0.0162872
798.185	0.0161521
798.263	0.0160574
798.341	0.0161016
798.419	0.0160628
798.497	0.0160605
798.575	0.0159006
798.654	0.0160793
798.732	0.0158639
798.810	0.0157972
798.888	0.0158349
798.966	0.0159191
799.044	0.0157030
799.122	0.0157796
799.200	0.0156263
799.279	0.0156287
799.357	0.0157504
799.435	0.0155114
799.513	0.0156195
799.591	0.0156670
799.669	0.0154886
799.747	0.0155322
799.825	0.0155523
799.904	0.0154794
799.982	0.0155053
800.060	0.0153960
800.138	0.0155428
800.216	0.0153429
800.294	0.0153812
800.372	0.0153712
800.450	0.0153125
800.529	0.0153510
800.607	0.0152804
800.685	0.0152319
800.763	0.0153266
800.841	0.0153468
800.919	0.0153718
800.997	0.0154495
801.075	0.0155669
801.154	0.0155553
801.232	0.0154862
801.310	0.0156533
801.388	0.0158038
801.466	0.0158158
801.544	0.0157955
801.622	0.0159502
801.700	0.0159853
801.779	0.0161540
801.857	0.0163151
801.935	0.0163391
802.013	0.0163413
802.091	0.0165114
802.169	0.0165134
802.247	0.0165755
802.325	0.0168198
802.404	0.0166686
802.482	0.0168418
802.560	0.0168786
802.638	0.0167361
802.716	0.0169256
802.794	0.0167431
802.872	0.0169453
802.950	0.0168042
803.029	0.0167987
803.107	0.0168385
803.185	0.0167028
803.263	0.0165607
803.341	0.0166018
803.419	0.0165696
803.497	0.0166663
803.575	0.0163908
803.654	0.0162639
803.732	0.0164805
803.810	0.0163069
803.888	0.0161557
803.966	0.0162280
804.044	0.0163691
804.122	0.0163393
804.200	0.0160995
804.279	0.0161418
804.357	0.0159748
804.435	0.0157916
804.513	0.0160361
804.591	0.0159270
804.669	0.0158421
804.747	0.0157723
804.825	0.0157449
804.904	0.0158726
804.982	0.0156832
805.060	0.0156429
805.138	0.0156455
805.216	0.0155426
805.294	0.0156321
805.372	0.0156062
805.450	0.0155910
805.529	0.0155581
805.607	0.0154996
805.685	0.0156307
805.763	0.0156520
805.841	0.0156900
805.919	0.0157772
805.997	0.0158122
806.075	0.0157213
806.154	0.0157461
806.232	0.0159223
806.310	0.0160438
806.388	0.0158928
806.466	0.0160793
806.544	0.0161515
806.622	0.0160947
806.700	0.0162074
806.779	0.0161153
806.857	0.0161757
806.935	0.0161781
807.013	0.0163633
807.091	0.0163053
807.169	0.0163445
807.247	0.0164000
807.325	0.0164587
807.404	0.0165015
807.482	0.0165559
807.560	0.0165340
807.638	0.0164885
807.716	0.0164500
807.794	0.0165461
807.872	0.0165776
807.950	0.0165377
808.029	0.0164917
808.107	0.0165693
808.185	0.0167145
808.263	0.0165678
808.341	0.0164644
808.419	0.0164768
808.497	0.0163956
808.575	0.0163634
808.654	0.0163003
808.732	0.0162702
808.810	0.0160870
808.888	0.0161763
808.966	0.0161144
809.044	0.0160026
809.122	0.0159924
809.200	0.0158335
809.279	0.0156596
809.357	0.0158639
809.435	0.0157459
809.513	0.0154902
809.591	0.0155671
809.669	0.0153429
809.747	0.0155527
809.825	0.0154453
809.904	0.0154602
809.982	0.0153004
810.060	0.0154102
810.138	0.0154776
810.216	0.0154053
810.294	0.0155896
810.372	0.0155052
810.450	0.0155704
810.529	0.0156914
810.607	0.0158011
810.685	0.0156921
810.763	0.0158230
810.841	0.0159811
810.919	0.0158952
810.997	0.0159257
811.075	0.0160027
811.154	0.0161244
811.232	0.0161073
811.310	0.0160168
811.388	0.0159765
811.466	0.0160252
811.544	0.0160673
811.622	0.0161726
811.700	0.0162019
811.779	0.0161850
811.857	0.0160806
811.935	0.0160999
812.013	0.0162175
812.091	0.0162437
812.169	0.0162399
812.247	0.0161284
812.325	0.0163123
812.404	0.0163435
812.482	0.0163602
812.560	0.0164544
812.638	0.0161634
812.716	0.0162701
812.794	0.0163876
812.872	0.0163427
812.950	0.0163317
813.029	0.0163441
813.107	0.0163002
813.185	0.0161931
813.263	0.0162097
813.341	0.0161867
813.419	0.0163257
813.497	0.0162119
813.575	0.0162135
813.654	0.0161627
813.732	0.0162152
813.810	0.0162065
813.888	0.0162600
813.966	0.0161476
814.044	0.0161391
814.122	0.0162543
814.200	0.0161582
814.279	0.0162375
814.357	0.0161736
814.435	0.0161692
814.513	0.0162194
814.591	0.0161555
814.669	0.0161617
814.747	0.0163098
814.825	0.0163158
814.904	0.0163023
814.982	0.0162344
815.060	0.0162507
815.138	0.0161819
815.216	0.0160747
815.294	0.0159688
815.372	0.0160408
815.450	0.0158782
815.529	0.0159776
815.607	0.0158494
815.685	0.0158508
815.763	0.0158774
815.841	0.0157441
815.919	0.0158517
815.997	0.0157922
816.075	0.0157188
816.154	0.0156641
816.232	0.0157795
816.310	0.0156518
816.388	0.0156999
816.466	0.0158050
816.544	0.0155582
816.622	0.0155840
816.700	0.0157761
816.779	0.0158327
816.857	0.0158575
816.935	0.0157199
817.013	0.0157600
817.091	0.0158508
817.169	0.0157603
817.247	0.0157085
817.325	0.0158376
817.404	0.0158644
817.482	0.0158530
817.560	0.0158206
817.638	0.0159212
817.716	0.0158257
817.794	0.0158598
817.872	0.0158268
817.950	0.0158080
818.029	0.0157567
818.107	0.0158012
818.185	0.0158669
818.263	0.0158622
818.341	0.0159518
818.419	0.0157944
818.497	0.0157909
818.575	0.0157060
818.654	0.0159061
818.732	0.0160844
818.810	0.0160542
818.888	0.0160220
818.966	0.0161285
819.044	0.0160038
819.122	0.0162081
819.200	0.0163268
819.279	0.0163632
819.357	0.0165327
819.435	0.0164856
819.513	0.0165456
819.591	0.0165575
819.669	0.0167174
819.747	0.0166399
819.825	0.0166109
819.904	0.0166454
819.982	0.0167281
820.060	0.0166541
820.138	0.0165225
820.216	0.0165806
820.294	0.0165742
820.372	0.0165603
820.450	0.0165324
820.529	0.0165738
820.607	0.0165282
820.685	0.0163892
820.763	0.0165185
820.841	0.0164396
820.919	0.0164715
820.997	0.0164130
821.075	0.0161900
821.154	0.0162666
821.232	0.0162494
821.310	0.0160196
821.388	0.0159359
821.466	0.0159139
821.544	0.0159429
821.622	0.0158610
821.700	0.0157495
821.779	0.0156225
821.857	0.0155970
821.935	0.0156821
822.013	0.0154812
822.091	0.0156019
822.169	0.0155131
822.247	0.0155756
822.325	0.0155337
822.404	0.0155868
822.482	0.0155695
822.560	0.0156230
822.638	0.0157063
822.716	0.0157135
822.794	0.0157333
822.872	0.0158904
822.950	0.0159484
823.029	0.0158981
823.107	0.0161690
823.185	0.0161555
823.263	0.0161152
823.341	0.0162337
823.419	0.0163602
823.497	0.0162949
823.575	0.0161557
823.654	0.0162441
823.732	0.0163289
823.810	0.0162668
823.888	0.0163665
823.966	0.0162038
824.044	0.0161555
824.122	0.0162403
824.200	0.0162854
824.279	0.0161948
824.357	0.0161902
824.435	0.0160917
824.513	0.0161009
824.591	0.0160944
824.669	0.0160368
824.747	0.0160950
824.825	0.0160474
824.904	0.0159741
824.982	0.0159245
825.060	0.0161259
825.138	0.0158248
825.216	0.0158313
825.294	0.0158685
825.372	0.0158503
825.450	0.0157361
825.529	0.0157922
825.607	0.0156612
825.685	0.0156401
825.763	0.0155669
825.841	0.0155735
825.919	0.0155141
825.997	0.0153873
826.075	0.0153943
826.154	0.0155222
826.232	0.0154277
826.310	0.0154894
826.388	0.0155431
826.466	0.0158540
826.544	0.0158080
826.622	0.0158206
826.700	0.0158927
826.779	0.0160472
826.857	0.0162375
826.935	0.0162042
827.013	0.0162130
827.091	0.0163789
827.169	0.0165456
827.247	0.0167233
827.325	0.0168849
827.404	0.0165056
827.482	0.0166708
827.560	0.0166842
827.638	0.0168269
827.716	0.0167915
827.794	0.0167947
827.872	0.0167462
827.950	0.0166683
828.029	0.0167776
828.107	0.0167522
828.185	0.0165953
828.263	0.0167107
828.341	0.0167445
828.419	0.0165819
828.497	0.0166092
828.575	0.0167412
828.654	0.0163692
828.732	0.0163403
828.810	0.0163960
828.888	0.0162705
828.966	0.0162151
829.044	0.0162000
829.122	0.0162379
829.200	0.0160495
829.279	0.0159956
829.357	0.0159465
829.435	0.0159218
829.513	0.0158230
829.591	0.0157932
829.669	0.0157757
829.747	0.0158068
829.825	0.0156909
829.904	0.0157323
829.982	0.0157368
830.060	0.0158784
830.138	0.0156451
830.216	0.0155071
830.294	0.0156449
830.372	0.0156319
830.450	0.0156942
830.529	0.0155845
830.607	0.0156562
830.685	0.0157387
830.763	0.0156960
830.841	0.0157612
830.919	0.0159227
830.997	0.0158280
831.075	0.0157401
831.154	0.0158258
831.232	0.0159566
831.310	0.0160049
831.388	0.0160437
831.466	0.0159151
831.544	0.0160445
831.622	0.0159792
831.700	0.0160252
831.779	0.0159621
831.857	0.0159688
831.935	0.0160492
832.013	0.0160406
832.091	0.0157762
832.169	0.0160715
832.247	0.0160838
832.325	0.0160828
832.404	0.0160684
832.482	0.0160015
832.560	0.0161039
832.638	0.0160957
832.716	0.0160789
832.794	0.0160091
832.872	0.0160782
832.950	0.0161227
833.029	0.0161275
833.107	0.0161285
833.185	0.0160108
833.263	0.0162038
833.341	0.0161369
833.419	0.0162414
833.497	0.0160865
833.575	0.0162041
833.654	0.0162691
833.732	0.0161515
833.810	0.0162737
833.888	0.0162863
833.966	0.0162900
834.044	0.0163750
834.122	0.0163491
834.200	0.0163568
834.279	0.0163280
834.357	0.0164064
834.435	0.0163216
834.513	0.0163382
834.591	0.0164063
834.669	0.0162600
834.747	0.0161838
834.825	0.0162564
834.904	0.0161813
834.982	0.0161896
835.060	0.0161581
835.138	0.0161076
835.216	0.0159227
835.294	0.0161845
835.372	0.0160582
835.450	0.0159911
835.529	0.0159819
835.607	0.0159438
835.685	0.0159655
835.763	0.0158980
835.841	0.0159042
835.919	0.0159270
835.997	0.0159541
836.075	0.0158685
836.154	0.0159820
836.232	0.0159478
836.310	0.0159398
836.388	0.0159343
836.466	0.0159585
836.544	0.0158666
836.622	0.0160658
836.700	0.0160406
836.779	0.0160023
836.857	0.0159460
836.935	0.0158612
837.013	0.0159515
837.091	0.0159137
837.169	0.0159204
837.247	0.0160291
837.325	0.0160564
837.404	0.0159746
837.482	0.0160085
837.560	0.0159843
837.638	0.0159766
837.716	0.0160191
837.794	0.0160320
837.872	0.0161563
837.950	0.0160779
838.029	0.0160544
838.107	0.0159245
838.185	0.0159473
838.263	0.0160400
838.341	0.0160812
838.419	0.0160220
838.497	0.0158306
838.575	0.0160451
838.654	0.0161147
838.732	0.0160319
838.810	0.0160374
838.888	0.0160793
838.966	0.0159662
839.044	0.0159330
839.122	0.0159927
839.200	0.0159296
839.279	0.0159872
839.357	0.0161811
839.435	0.0161674
839.513	0.0159195
839.591	0.0159757
839.669	0.0161147
839.747	0.0159465
839.825	0.0160789
839.904	0.0160297
839.982	0.0160325
840.060	0.0160350
840.138	0.0160594
840.216	0.0160870
840.294	0.0160892
840.372	0.0159875
840.450	0.0161176
840.529	0.0161090
840.607	0.0159479
840.685	0.0159525
840.763	0.0160381
840.841	0.0160066
840.919	0.0158616
840.997	0.0159612
841.075	0.0159038
841.154	0.0158877
841.232	0.0158739
841.310	0.0159010
841.388	0.0159930
841.466	0.0158510
841.544	0.0160565
841.622	0.0160487
841.700	0.0159620
841.779	0.0160368
841.857	0.0160687
841.935	0.0159647
842.013	0.0159604
842.091	0.0159470
842.169	0.0159443
842.247	0.0160665
842.325	0.0159086
842.404	0.0158565
842.482	0.0160164
842.560	0.0160464
842.638	0.0159898
842.716	0.0160880
842.794	0.0161185
842.872	0.0160986
842.950	0.0159989
843.029	0.0161171
843.107	0.0161741
843.185	0.0160820
843.263	0.0162537
843.341	0.0162553
843.419	0.0162840
843.497	0.0161884
843.575	0.0161575
843.654	0.0162717
843.732	0.0163226
843.810	0.0161691
843.888	0.0161500
843.966	0.0161803
844.044	0.0162769
844.122	0.0163028
844.200	0.0162903
844.279	0.0164761
844.357	0.0163857
844.435	0.0164563
844.513	0.0164229
844.591	0.0164513
844.669	0.0163280
844.747	0.0163009
844.825	0.0163682
844.904	0.0163472
844.982	0.0162695
845.060	0.0162765
845.138	0.0163235
845.216	0.0162156
845.294	0.0162629
845.372	0.0160859
845.450	0.0160689
845.529	0.0160426
845.607	0.0161671
845.685	0.0159464
845.763	0.0161880
845.841	0.0159364
845.919	0.0159130
845.997	0.0159222
846.075	0.0159677
846.154	0.0158538
846.232	0.0158449
846.310	0.0157499
846.388	0.0157322
846.466	0.0156297
846.544	0.0157014
846.622	0.0156760
846.700	0.0155794
846.779	0.0155637
846.857	0.0155163
846.935	0.0154263
847.013	0.0153829
847.091	0.0155102
847.169	0.0154668
847.247	0.0154733
847.325	0.0155255
847.404	0.0156615
847.482	0.0155691
847.560	0.0155395
847.638	0.0156162
847.716	0.0157190
847.794	0.0156891
847.872	0.0157365
847.950	0.0157428
848.029	0.0159142
848.107	0.0158189
848.185	0.0159990
848.263	0.0160294
848.341	0.0160059
848.419	0.0160698
848.497	0.0162260
848.575	0.0163572
848.654	0.0162980
848.732	0.0164413
848.810	0.0165034
848.888	0.0165596
848.966	0.0166624
849.044	0.0166618
849.122	0.0167586
849.200	0.0165970
849.279	0.0167442
849.357	0.0167432
849.435	0.0166816
849.513	0.0165233
849.591	0.0166389
849.669	0.0166273
849.747	0.0164310
849.825	0.0164642
849.904	0.0163728
849.982	0.0162732
850.060	0.0162335
850.138	0.0162067
850.216	0.0161145
850.294	0.0162017
850.372	0.0160526
850.450	0.0160618
850.529	0.0159341
850.607	0.0159992
850.685	0.0158987
850.763	0.0158937
850.841	0.0158832
850.919	0.0158327
850.997	0.0158967
851.075	0.0157665
851.154	0.0157483
851.232	0.0157147
851.310	0.0157986
851.388	0.0157875
851.466	0.0157772
851.544	0.0156693
851.622	0.0156606
851.700	0.0158571
851.779	0.0158398
851.857	0.0156775
851.935	0.0157066
852.013	0.0157425
852.091	0.0158352
852.169	0.0157269
852.247	0.0158194
852.325	0.0158005
852.404	0.0158607
852.482	0.0158569
852.560	0.0159328
852.638	0.0159595
852.716	0.0160030
852.794	0.0159122
852.872	0.0160262
852.950	0.0160502
853.029	0.0159631
853.107	0.0161217
853.185	0.0160876
853.263	0.0160263
853.341	0.0160045
853.419	0.0161301
853.497	0.0161636
853.575	0.0162107
853.654	0.0161786
853.732	0.0160423
853.810	0.0161037
853.888	0.0161864
853.966	0.0161063
854.044	0.0159283
854.122	0.0159806
854.200	0.0161779
854.279	0.0162000
854.357	0.0160797
854.435	0.0161095
854.513	0.0159465
854.591	0.0159254
854.669	0.0160631
854.747	0.0160393
854.825	0.0159236
854.904	0.0161454
854.982	0.0159111
855.060	0.0160006
855.138	0.0160943
855.216	0.0161302
855.294	0.0160269
855.372	0.0160654
855.450	0.0159124
855.529	0.0159324
855.607	0.0159213
855.685	0.0159975
855.763	0.0158698
855.841	0.0158778
855.919	0.0158996
855.997	0.0158758
856.075	0.0158023
856.154	0.0160070
856.232	0.0159118
856.310	0.0157841
856.388	0.0158477
856.466	0.0158176
856.544	0.0159392
856.622	0.0160310
856.700	0.0159964
856.779	0.0159508
856.857	0.0160738
856.935	0.0161669
857.013	0.0162118
857.091	0.0160754
857.169	0.0161495
857.247	0.0161143
857.325	0.0162329
857.404	0.0162543
857.482	0.0162106
857.560	0.0161829
857.638	0.0162762
857.716	0.0162034
857.794	0.0161550
857.872	0.0162150
857.950	0.0160822
858.029	0.0161342
858.107	0.0160423
858.185	0.0161143
858.263	0.0160112
858.341	0.0161459
858.419	0.0161736
858.497	0.0158999
858.575	0.0158933
858.654	0.0159619
858.732	0.0160622
858.810	0.0158871
858.888	0.0159304
858.966	0.0158855
859.044	0.0158199
859.122	0.0159451
859.200	0.0158128
859.279	0.0159747
859.357	0.0159579
859.435	0.0158018
859.513	0.0159552
859.591	0.0159214
859.669	0.0158409
859.747	0.0159826
859.825	0.0157542
859.904	0.0159022
859.982	0.0157950
860.060	0.0159702
860.138	0.0158937
860.216	0.0159758
860.294	0.0161096
860.372	0.0158824
860.450	0.0160318
860.529	0.0162039
860.607	0.0161859
860.685	0.0162958
860.763	0.0163641
860.841	0.0163164
860.919	0.0163548
860.997	0.0162531
861.075	0.0164466
861.154	0.0163238
861.232	0.0164330
861.310	0.0165093
861.388	0.0165231
861.466	0.0165236
861.544	0.0163682
861.622	0.0164275
861.700	0.0162713
861.779	0.0163967
861.857	0.0161596
861.935	0.0163280
862.013	0.0161305
862.091	0.0160631
862.169	0.0160305
862.247	0.0159232
862.325	0.0159176
862.404	0.0158089
862.482	0.0156667
862.560	0.0156926
862.638	0.0155592
862.716	0.0155251
862.794	0.0157008
862.872	0.0156506
862.950	0.0155548
863.029	0.0156051
863.107	0.0156506
863.185	0.0155445
863.263	0.0156458
863.341	0.0155386
863.419	0.0155842
863.497	0.0156391
863.575	0.0156001
863.654	0.0156812
863.732	0.0156325
863.810	0.0157063
863.888	0.0156581
863.966	0.0158454
864.044	0.0159746
864.122	0.0160349
864.200	0.0161047
864.279	0.0160528
864.357	0.0161471
864.435	0.0163866
864.513	0.0163625
864.591	0.0164250
864.669	0.0163657
864.747	0.0163438
864.825	0.0164127
864.904	0.0163756
864.982	0.0162457
865.060	0.0163143
865.138	0.0162094
865.216	0.0162348
865.294	0.0161340
865.372	0.0162482
865.450	0.0161302
865.529	0.0161892
865.607	0.0162453
865.685	0.0161617
865.763	0.0161929
865.841	0.0162799
865.919	0.0160955
865.997	0.0162959
866.075	0.0162794
866.154	0.0160493
866.232	0.0161237
866.310	0.0161997
866.388	0.0161121
866.466	0.0160993
866.544	0.0161114
866.622	0.0161346
866.700	0.0161832
866.779	0.0162372
866.857	0.0163822
866.935	0.0163721
867.013	0.0163563
867.091	0.0163218
867.169	0.0162749
867.247	0.0162840
867.325	0.0162834
867.404	0.0162218
867.482	0.0160242
867.560	0.0160191
867.638	0.0159914
867.716	0.0159628
867.794	0.0158926
867.872	0.0158256
867.950	0.0159834
868.029	0.0158596
868.107	0.0157326
868.185	0.0157510
868.263	0.0158260
868.341	0.0156045
868.419	0.0155828
868.497	0.0157241
868.575	0.0155808
868.654	0.0155469
868.732	0.0156622
868.810	0.0155724
868.888	0.0156164
868.966	0.0157392
869.044	0.0158089
869.122	0.0159460
869.200	0.0159677
869.279	0.0158432
869.357	0.0160285
869.435	0.0160349
869.513	0.0163527
869.591	0.0162321
869.669	0.0163261
869.747	0.0164267
869.825	0.0164783
869.904	0.0164488
869.982	0.0165480
870.060	0.0164729
870.138	0.0163984
870.216	0.0167040
870.294	0.0165267
870.372	0.0164799
870.450	0.0162638
870.529	0.0162124
870.607	0.0161703
870.685	0.0158533
870.763	0.0157928
870.841	0.0156209
870.919	0.0155249
870.997	0.0153524
871.075	0.0152757
871.154	0.0152028
871.232	0.0150506
871.310	0.0150188
871.388	0.0151766
871.466	0.0150985
871.544	0.0152522
871.622	0.0153304
871.700	0.0154952
871.779	0.0157743
871.857	0.0158405
871.935	0.0159908
872.013	0.0162348
872.091	0.0163419
872.169	0.0164065
872.247	0.0165867
872.325	0.0166004
872.404	0.0167796
872.482	0.0170905
872.560	0.0170782
872.638	0.0168893
872.716	0.0170175
872.794	0.0170289
872.872	0.0171210
872.950	0.0170088
873.029	0.0169534
873.107	0.0170458
873.185	0.0169534
873.263	0.0168707
873.341	0.0168625
873.419	0.0166957
873.497	0.0165842
873.575	0.0165129
873.654	0.0163477
873.732	0.0161901
873.810	0.0160943
873.888	0.0158786
873.966	0.0158956
874.044	0.0156888
874.122	0.0156058
874.200	0.0155168
874.279	0.0154189
874.357	0.0152522
874.435	0.0151488
874.513	0.0150678
874.591	0.0150295
874.669	0.0149403
874.747	0.0149915
874.825	0.0148207
874.904	0.0147571
874.982	0.0148711
875.060	0.0148489
875.138	0.0149494
875.216	0.0150026
875.294	0.0151039
875.372	0.0151591
875.450	0.0154382
875.529	0.0155293
875.607	0.0156329
875.685	0.0159190
875.763	0.0160239
875.841	0.0162241
875.919	0.0163577
875.997	0.0164629
876.075	0.0168483
876.154	0.0167889
876.232	0.0170238
876.310	0.0171334
876.388	0.0171120
876.466	0.0173310
876.544	0.0172942
876.622	0.0174123
876.700	0.0172741
876.779	0.0171767
876.857	0.0171427
876.935	0.0170007
877.013	0.0169290
877.091	0.0166829
877.169	0.0165489
877.247	0.0163852
877.325	0.0163213
877.404	0.0161837
877.482	0.0160352
877.560	0.0159298
877.638	0.0158611
877.716	0.0159225
877.794	0.0159001
877.872	0.0157312
877.950	0.0157770
878.029	0.0156969
878.107	0.0154980
878.185	0.0154693
878.263	0.0155076
878.341	0.0153518
878.419	0.0151533
878.497	0.0152425
878.575	0.0151460
878.654	0.0150970
878.732	0.0150919
878.810	0.0151328
878.888	0.0152071
878.966	0.0152477
879.044	0.0150937
879.122	0.0152259
879.200	0.0154794
879.279	0.0155032
879.357	0.0156881
879.435	0.0158038
879.513	0.0156237
879.591	0.0158617
879.669	0.0161448
879.747	0.0161552
879.825	0.0160297
879.904	0.0160705
879.982	0.0162486
880.060	0.0164269
880.138	0.0163322
880.216	0.0163144
880.294	0.0163409
880.372	0.0164948
880.450	0.0164603
880.529	0.0165231
880.607	0.0164719
880.685	0.0167047
880.763	0.0165959
880.841	0.0167107
880.919	0.0167500
880.997	0.0168648
881.075	0.0167511
881.154	0.0167088
881.232	0.0167478
881.310	0.0167905
881.388	0.0168423
881.466	0.0168578
881.544	0.0166533
881.622	0.0165708
881.700	0.0165857
881.779	0.0164016
881.857	0.0163571
881.935	0.0161754
882.013	0.0162371
882.091	0.0160034
882.169	0.0159286
882.247	0.0157502
882.325	0.0158257
882.404	0.0157047
882.482	0.0156725
882.560	0.0155215
882.638	0.0156059
882.716	0.0155263
882.794	0.0154916
882.872	0.0154765
882.950	0.0154671
883.029	0.0155493
883.107	0.0154086
883.185	0.0156007
883.263	0.0155494
883.341	0.0155459
883.419	0.0156732
883.497	0.0156857
883.575	0.0157657
883.654	0.0155104
883.732	0.0156096
883.810	0.0157579
883.888	0.0156461
883.966	0.0157200
884.044	0.0158659
884.122	0.0156621
884.200	0.0156916
884.279	0.0156358
884.357	0.0158421
884.435	0.0157950
884.513	0.0158253
884.591	0.0159138
884.669	0.0159873
884.747	0.0159666
884.825	0.0161256
884.904	0.0163367
884.982	0.0163010
885.060	0.0163982
885.138	0.0164843
885.216	0.0167121
885.294	0.0166164
885.372	0.0166730
885.450	0.0167501
885.529	0.0166417
885.607	0.0166290
885.685	0.0166561
885.763	0.0166944
885.841	0.0165589
885.919	0.0165005
885.997	0.0164868
886.075	0.0165195
886.154	0.0163078
886.232	0.0162736
886.310	0.0162268
886.388	0.0161991
886.466	0.0160291
886.544	0.0161638
886.622	0.0161337
886.700	0.0159521
886.779	0.0161516
886.857	0.0159307
886.935	0.0159798
887.013	0.0160390
887.091	0.0159650
887.169	0.0160989
887.247	0.0160796
887.325	0.0161774
887.404	0.0161497
887.482	0.0160212
887.560	0.0160394
887.638	0.0160751
887.716	0.0159219
887.794	0.0159653
887.872	0.0160668
887.950	0.0158195
888.029	0.0158822
888.107	0.0158531
888.185	0.0157790
888.263	0.0156364
888.341	0.0156644
888.419	0.0156613
888.497	0.0156410
888.575	0.0156719
888.654	0.0157053
888.732	0.0158530
888.810	0.0156921
888.888	0.0158818
888.966	0.0158914
889.044	0.0158041
889.122	0.0158781
889.200	0.0160192
889.279	0.0161018
889.357	0.0162573
889.435	0.0160694
889.513	0.0163324
889.591	0.0163395
889.669	0.0164594
889.747	0.0165887
889.825	0.0165096
889.904	0.0163960
889.982	0.0165800
890.060	0.0164008
890.138	0.0164829
890.216	0.0166087
890.294	0.0164825
890.372	0.0165041
890.450	0.0165165
890.529	0.0163511
890.607	0.0161967
890.685	0.0161860
890.763	0.0161374
890.841	0.0159840
890.919	0.0159852
890.997	0.0159030
891.075	0.0158233
891.154	0.0158436
891.232	0.0157948
891.310	0.0155114
891.388	0.0156976
891.466	0.0156711
891.544	0.0159087
891.622	0.0157769
891.700	0.0157040
891.779	0.0158241
891.857	0.0159785
891.935	0.0158861
892.013	0.0159853
892.091	0.0158891
892.169	0.0158244
892.247	0.0158050
892.325	0.0159817
892.404	0.0158398
892.482	0.0159869
892.560	0.0160067
892.638	0.0160252
892.716	0.0160168
892.794	0.0160619
892.872	0.0160945
892.950	0.0163165
893.029	0.0161308
893.107	0.0161765
893.185	0.0162144
893.263	0.0162894
893.341	0.0162094
893.419	0.0165260
893.497	0.0163000
893.575	0.0162935
893.654	0.0162788
893.732	0.0162382
893.810	0.0162962
893.888	0.0164156
893.966	0.0163363
894.044	0.0164689
894.122	0.0163419
894.200	0.0165099
894.279	0.0164376
894.357	0.0164333
894.435	0.0164559
894.513	0.0163535
894.591	0.0162687
894.669	0.0162898
894.747	0.0161583
894.825	0.0161881
894.904	0.0161702
894.982	0.0160300
895.060	0.0160861
895.138	0.0157982
895.216	0.0157658
895.294	0.0158633
895.372	0.0157720
895.450	0.0155074
895.529	0.0155686
895.607	0.0155404
895.685	0.0156301
895.763	0.0154184
895.841	0.0155262
895.919	0.0155082
895.997	0.0155630
896.075	0.0156561
896.154	0.0157179
896.232	0.0155541
896.310	0.0158321
896.388	0.0158761
896.466	0.0157619
896.544	0.0158061
896.622	0.0159254
896.700	0.0159129
896.779	0.0160881
896.857	0.0159686
896.935	0.0160789
897.013	0.0161997
897.091	0.0162896
897.169	0.0162297
897.247	0.0162747
897.325	0.0163142
897.404	0.0163100
897.482	0.0163309
897.560	0.0163000
897.638	0.0163972
897.716	0.0163144
897.794	0.0163319
897.872	0.0161839
897.950	0.0163525
898.029	0.0163747
898.107	0.0161647
898.185	0.0162231
898.263	0.0162448
898.341	0.0162001
898.419	0.0162596
898.497	0.0162237
898.575	0.0162501
898.654	0.0162025
898.732	0.0161948
898.810	0.0162051
898.888	0.0163045
898.966	0.0162571
899.044	0.0162099
899.122	0.0163083
899.200	0.0162372
899.279	0.0163060
899.357	0.0162528
899.435	0.0162589
899.513	0.0162535
899.591	0.0163322
899.669	0.0162100
899.747	0.0162012
899.825	0.0161512
899.904	0.0160603
899.982	0.0161095
900.060	0.0160561
900.138	0.0159255
900.216	0.0159280
900.294	0.0158345
900.372	0.0159728
900.450	0.0158344
900.529	0.0156767
900.607	0.0156615
900.685	0.0157035
900.763	0.0157897
900.841	0.0158143
900.919	0.0157666
900.997	0.0157874
901.075	0.0157974
901.154	0.0157104
901.232	0.0159094
901.310	0.0158880
901.388	0.0159144
901.466	0.0159834
901.544	0.0160873
901.622	0.0161139
901.700	0.0160431
901.779	0.0160188
901.857	0.0161511
901.935	0.0161849
902.013	0.0162254
902.091	0.0163649
902.169	0.0162820
902.247	0.0163136
902.325	0.0163397
902.404	0.0162354
902.482	0.0163651
902.560	0.0162852
902.638	0.0164236
902.716	0.0162955
902.794	0.0161862
902.872	0.0161823
902.950	0.0162253
903.029	0.0162469
903.107	0.0160578
903.185	0.0160551
903.263	0.0160196
903.341	0.0160049
903.419	0.0159676
903.497	0.0158950
903.575	0.0161405
903.654	0.0160445
903.732	0.0160410
903.810	0.0159679
903.888	0.0159118
903.966	0.0159862
904.044	0.0160323
904.122	0.0161468
904.200	0.0159679
904.279	0.0159557
904.357	0.0161343
904.435	0.0160545
904.513	0.0160525
904.591	0.0160210
904.669	0.0159988
904.747	0.0161048
904.825	0.0160075
904.904	0.0161449
904.982	0.0161221
905.060	0.0160796
905.138	0.0161001
905.216	0.0159953
905.294	0.0162017
905.372	0.0162257
905.450	0.0163529
905.529	0.0161954
905.607	0.0162457
905.685	0.0162196
905.763	0.0162226
905.841	0.0162743
905.919	0.0160886
905.997	0.0161296
906.075	0.0160256
906.154	0.0161096
906.232	0.0160938
906.310	0.0159755
906.388	0.0159684
906.466	0.0159853
906.544	0.0158707
906.622	0.0159834
906.700	0.0158891
906.779	0.0160110
906.857	0.0160044
906.935	0.0159350
907.013	0.0159238
907.091	0.0160078
907.169	0.0158824
907.247	0.0160670
907.325	0.0161099
907.404	0.0162739
907.482	0.0161671
907.560	0.0161756
907.638	0.0162753
907.716	0.0163087
907.794	0.0162471
907.872	0.0162643
907.950	0.0163101
908.029	0.0164581
908.107	0.0163700
908.185	0.0162283
908.263	0.0162869
908.341	0.0164369
908.419	0.0162988
908.497	0.0162128
908.575	0.0162125
908.654	0.0161535
908.732	0.0160451
908.810	0.0159856
908.888	0.0159462
908.966	0.0160010
909.044	0.0158746
909.122	0.0158780
909.200	0.0155843
909.279	0.0157671
909.357	0.0157855
909.435	0.0156742
909.513	0.0157021
909.591	0.0158277
909.669	0.0158899
909.747	0.0158828
909.825	0.0158508
909.904	0.0159784
909.982	0.0157582
910.060	0.0158890
910.138	0.0159499
910.216	0.0160091
910.294	0.0159743
910.372	0.0160464
910.450	0.0161327
910.529	0.0162723
910.607	0.0160702
910.685	0.0161535
910.763	0.0162096
910.841	0.0163419
910.919	0.0162141
910.997	0.0163596
911.075	0.0162945
911.154	0.0161761
911.232	0.0164183
911.310	0.0164597
911.388	0.0163337
911.466	0.0164552
911.544	0.0166042
911.622	0.0163828
911.700	0.0165006
911.779	0.0164824
911.857	0.0165388
911.935	0.0165894
912.013	0.0165019
912.091	0.0164692
912.169	0.0162987
912.247	0.0162423
912.325	0.0161411
912.404	0.0160913
912.482	0.0161893
912.560	0.0160439
912.638	0.0160180
912.716	0.0158981
912.794	0.0158679
912.872	0.0158002
912.950	0.0157985
913.029	0.0157725
913.107	0.0158316
913.185	0.0157271
913.263	0.0157974
913.341	0.0156351
913.419	0.0157288
913.497	0.0156834
913.575	0.0158356
913.654	0.0156605
913.732	0.0158134
913.810	0.0158907
913.888	0.0158887
913.966	0.0158118
914.044	0.0159786
914.122	0.0159922
914.200	0.0160463
914.279	0.0161366
914.357	0.0161026
914.435	0.0161376
914.513	0.0161137
914.591	0.0162531
914.669	0.0162948
914.747	0.0162349
914.825	0.0161562
914.904	0.0162193
914.982	0.0162080
915.060	0.0162097
915.138	0.0161169
915.216	0.0161726
915.294	0.0161604
915.372	0.0162465
915.450	0.0161533
915.529	0.0161937
915.607	0.0162662
915.685	0.0161499
915.763	0.0162358
915.841	0.0160712
915.919	0.0160540
915.997	0.0161635
916.075	0.0159630
916.154	0.0160804
916.232	0.0161597
916.310	0.0160316
916.388	0.0160605
916.466	0.0160936
916.544	0.0159895
916.622	0.0160235
916.700	0.0159850
916.779	0.0158891
916.857	0.0160184
916.935	0.0160247
917.013	0.0159339
917.091	0.0159116
917.169	0.0160419
917.247	0.0160057
917.325	0.0158852
917.404	0.0159336
917.482	0.0159046
917.560	0.0159697
917.638	0.0159305
917.716	0.0159274
917.794	0.0159672
917.872	0.0159441
917.950	0.0159652
918.029	0.0158950
918.107	0.0161534
918.185	0.0161578
918.263	0.0160114
918.341	0.0161252
918.419	0.0160460
918.497	0.0160201
918.575	0.0161437
918.654	0.0160765
918.732	0.0158924
918.810	0.0160303
918.888	0.0160594
918.966	0.0158405
919.044	0.0159539
919.122	0.0160657
919.200	0.0159362
919.279	0.0158980
919.357	0.0159230
919.435	0.0159532
919.513	0.0159180
919.591	0.0160282
919.669	0.0160382
919.747	0.0160596
919.825	0.0160884
919.904	0.0162090
