06/01/2022	17:12:18	Ver.	4.1	UNKNOWN
Optical Delay	599.981738	Delta X		0.078125	Sweeps	1	Scan Rate	0/0
Coordinates	Axis 1	NaN	Axis 2	NaN	Axis 3	NaN	Axis 4	NaN	Axis 5	NaN	Axis 6	0.000000
TX Power	0.000000	RX Power	0.000000

599.982	0.0179165
600.060	0.0180462
600.138	0.0179415
600.216	0.0180326
600.294	0.0179717
600.372	0.0180370
600.450	0.0179478
600.529	0.0180299
600.607	0.0179502
600.685	0.0180409
600.763	0.0179211
600.841	0.0179819
600.919	0.0177716
600.997	0.0178127
601.075	0.0180060
601.154	0.0181058
601.232	0.0179211
601.310	0.0178242
601.388	0.0178013
601.466	0.0178882
601.544	0.0179942
601.622	0.0179431
601.700	0.0178329
601.779	0.0179336
601.857	0.0179192
601.935	0.0178994
602.013	0.0178557
602.091	0.0178072
602.169	0.0178347
602.247	0.0180605
602.325	0.0180489
602.404	0.0178972
602.482	0.0178680
602.560	0.0179507
602.638	0.0179073
602.716	0.0179388
602.794	0.0179727
602.872	0.0180096
602.950	0.0178255
603.029	0.0179388
603.107	0.0178828
603.185	0.0178986
603.263	0.0178471
603.341	0.0179436
603.419	0.0178922
603.497	0.0179434
603.575	0.0179649
603.654	0.0178880
603.732	0.0178635
603.810	0.0177184
603.888	0.0178726
603.966	0.0179478
604.044	0.0180227
604.122	0.0178262
604.200	0.0178091
604.279	0.0179352
604.357	0.0180096
604.435	0.0179647
604.513	0.0178288
604.591	0.0179060
604.669	0.0179258
604.747	0.0179668
604.825	0.0179441
604.904	0.0179896
604.982	0.0178378
605.060	0.0179584
605.138	0.0178342
605.216	0.0179496
605.294	0.0179117
605.372	0.0179697
605.450	0.0179528
605.529	0.0179366
605.607	0.0177672
605.685	0.0178162
605.763	0.0179550
605.841	0.0179660
605.919	0.0178946
605.997	0.0178773
606.075	0.0179411
606.154	0.0180157
606.232	0.0179220
606.310	0.0177993
606.388	0.0179234
606.466	0.0179402
606.544	0.0178856
606.622	0.0178256
606.700	0.0177263
606.779	0.0178210
606.857	0.0179701
606.935	0.0178266
607.013	0.0178983
607.091	0.0178140
607.169	0.0179958
607.247	0.0178516
607.325	0.0178517
607.404	0.0178841
607.482	0.0178242
607.560	0.0178673
607.638	0.0179150
607.716	0.0178873
607.794	0.0179506
607.872	0.0179824
607.950	0.0178815
608.029	0.0178355
608.107	0.0178253
608.185	0.0178821
608.263	0.0179799
608.341	0.0179050
608.419	0.0178977
608.497	0.0179871
608.575	0.0179630
608.654	0.0179973
608.732	0.0179743
608.810	0.0179099
608.888	0.0179861
608.966	0.0180242
609.044	0.0179758
609.122	0.0179176
609.200	0.0179518
609.279	0.0178236
609.357	0.0178272
609.435	0.0179613
609.513	0.0179026
609.591	0.0179872
609.669	0.0179460
609.747	0.0178402
609.825	0.0178775
609.904	0.0178581
609.982	0.0178393
610.060	0.0177914
610.138	0.0178857
610.216	0.0178716
610.294	0.0176619
610.372	0.0178823
610.450	0.0180605
610.529	0.0178948
610.607	0.0177228
610.685	0.0179852
610.763	0.0178079
610.841	0.0178110
610.919	0.0179119
610.997	0.0178541
611.075	0.0177839
611.154	0.0178509
611.232	0.0178645
611.310	0.0178775
611.388	0.0179161
611.466	0.0178885
611.544	0.0177942
611.622	0.0178580
611.700	0.0177589
611.779	0.0178854
611.857	0.0179249
611.935	0.0179094
612.013	0.0179390
612.091	0.0177991
612.169	0.0179344
612.247	0.0178700
612.325	0.0180000
612.404	0.0178992
612.482	0.0178889
612.560	0.0178078
612.638	0.0177982
612.716	0.0177873
612.794	0.0178699
612.872	0.0179301
612.950	0.0179523
613.029	0.0177668
613.107	0.0177438
613.185	0.0177650
613.263	0.0177392
613.341	0.0177843
613.419	0.0178979
613.497	0.0178358
613.575	0.0178848
613.654	0.0178175
613.732	0.0177899
613.810	0.0179095
613.888	0.0179630
613.966	0.0178893
614.044	0.0179999
614.122	0.0177945
614.200	0.0179513
614.279	0.0179932
614.357	0.0178097
614.435	0.0177768
614.513	0.0177921
614.591	0.0179305
614.669	0.0178973
614.747	0.0179312
614.825	0.0179391
614.904	0.0178163
614.982	0.0178333
615.060	0.0178780
615.138	0.0180788
615.216	0.0179282
615.294	0.0178154
615.372	0.0179708
615.450	0.0179598
615.529	0.0178569
615.607	0.0177941
615.685	0.0178636
615.763	0.0178576
615.841	0.0178362
615.919	0.0179111
615.997	0.0179563
616.075	0.0178617
616.154	0.0178890
616.232	0.0179093
616.310	0.0178848
616.388	0.0179974
616.466	0.0178461
616.544	0.0178761
616.622	0.0178429
616.700	0.0178007
616.779	0.0177552
616.857	0.0177888
616.935	0.0177933
617.013	0.0178709
617.091	0.0178683
617.169	0.0177357
617.247	0.0179408
617.325	0.0180717
617.404	0.0178310
617.482	0.0177911
617.560	0.0178293
617.638	0.0178904
617.716	0.0178906
617.794	0.0179381
617.872	0.0178464
617.950	0.0179054
618.029	0.0178551
618.107	0.0177118
618.185	0.0179001
618.263	0.0178833
618.341	0.0179594
618.419	0.0179115
618.497	0.0177456
618.575	0.0177274
618.654	0.0178885
618.732	0.0179343
618.810	0.0179482
618.888	0.0178983
618.966	0.0177627
619.044	0.0177935
619.122	0.0177682
619.200	0.0177161
619.279	0.0180811
619.357	0.0180282
619.435	0.0178082
619.513	0.0179317
619.591	0.0178708
619.669	0.0178444
619.747	0.0177244
619.825	0.0178220
619.904	0.0178797
619.982	0.0179124
620.060	0.0180003
620.138	0.0178901
620.216	0.0178648
620.294	0.0178681
620.372	0.0178542
620.450	0.0178353
620.529	0.0178750
620.607	0.0178680
620.685	0.0177779
620.763	0.0178248
620.841	0.0178575
620.919	0.0178191
620.997	0.0178677
621.075	0.0177960
621.154	0.0178683
621.232	0.0178668
621.310	0.0178542
621.388	0.0177934
621.466	0.0179017
621.544	0.0179434
621.622	0.0179394
621.700	0.0179158
621.779	0.0177686
621.857	0.0178304
621.935	0.0179121
622.013	0.0178127
622.091	0.0178106
622.169	0.0179796
622.247	0.0179292
622.325	0.0177943
622.404	0.0178606
622.482	0.0178551
622.560	0.0179111
622.638	0.0180092
622.716	0.0178933
622.794	0.0178880
622.872	0.0177581
622.950	0.0179269
623.029	0.0179008
623.107	0.0179623
623.185	0.0179826
623.263	0.0178743
623.341	0.0179914
623.419	0.0177928
623.497	0.0178994
623.575	0.0178158
623.654	0.0178214
623.732	0.0179580
623.810	0.0178848
623.888	0.0179413
623.966	0.0179858
624.044	0.0178908
624.122	0.0178259
624.200	0.0179395
624.279	0.0179134
624.357	0.0177838
624.435	0.0179765
624.513	0.0179020
624.591	0.0179231
624.669	0.0179221
624.747	0.0179716
624.825	0.0179916
624.904	0.0179279
624.982	0.0178100
625.060	0.0178185
625.138	0.0178667
625.216	0.0177877
625.294	0.0178931
625.372	0.0178359
625.450	0.0180481
625.529	0.0179439
625.607	0.0179479
625.685	0.0178695
625.763	0.0177993
625.841	0.0178577
625.919	0.0178072
625.997	0.0179179
626.075	0.0179349
626.154	0.0178437
626.232	0.0179308
626.310	0.0178773
626.388	0.0179875
626.466	0.0178056
626.544	0.0179453
626.622	0.0178715
626.700	0.0179124
626.779	0.0178770
626.857	0.0178272
626.935	0.0179697
627.013	0.0179450
627.091	0.0179173
627.169	0.0179068
627.247	0.0177798
627.325	0.0178735
627.404	0.0178455
627.482	0.0178609
627.560	0.0177385
627.638	0.0178645
627.716	0.0178535
627.794	0.0179041
627.872	0.0178268
627.950	0.0178483
628.029	0.0180025
628.107	0.0178839
628.185	0.0177775
628.263	0.0180170
628.341	0.0180080
628.419	0.0179082
628.497	0.0179571
628.575	0.0178254
628.654	0.0178219
628.732	0.0178999
628.810	0.0179190
628.888	0.0178976
628.966	0.0178556
629.044	0.0177777
629.122	0.0178857
629.200	0.0179190
629.279	0.0178696
629.357	0.0179721
629.435	0.0180320
629.513	0.0179183
629.591	0.0178563
629.669	0.0179128
629.747	0.0179324
629.825	0.0178985
629.904	0.0179585
629.982	0.0180248
630.060	0.0180007
630.138	0.0178728
630.216	0.0178430
630.294	0.0179292
630.372	0.0179588
630.450	0.0178368
630.529	0.0179459
630.607	0.0179034
630.685	0.0178200
630.763	0.0179127
630.841	0.0179340
630.919	0.0178512
630.997	0.0178786
631.075	0.0179060
631.154	0.0179369
631.232	0.0178684
631.310	0.0178078
631.388	0.0179138
631.466	0.0178177
631.544	0.0178599
631.622	0.0177979
631.700	0.0179691
631.779	0.0178923
631.857	0.0178095
631.935	0.0178851
632.013	0.0178985
632.091	0.0179133
632.169	0.0179768
632.247	0.0178564
632.325	0.0179391
632.404	0.0179523
632.482	0.0178110
632.560	0.0179730
632.638	0.0179409
632.716	0.0179157
632.794	0.0178749
632.872	0.0179146
632.950	0.0178656
633.029	0.0178239
633.107	0.0179388
633.185	0.0179803
633.263	0.0180243
633.341	0.0177203
633.419	0.0178445
633.497	0.0178574
633.575	0.0178123
633.654	0.0179465
633.732	0.0178899
633.810	0.0176920
633.888	0.0177686
633.966	0.0179136
634.044	0.0178825
634.122	0.0178719
634.200	0.0178785
634.279	0.0179069
634.357	0.0179282
634.435	0.0178401
634.513	0.0178504
634.591	0.0178476
634.669	0.0177695
634.747	0.0179711
634.825	0.0179085
634.904	0.0179057
634.982	0.0179639
635.060	0.0178911
635.138	0.0178357
635.216	0.0179880
635.294	0.0179814
635.372	0.0179130
635.450	0.0179221
635.529	0.0179219
635.607	0.0180175
635.685	0.0178922
635.763	0.0178143
635.841	0.0178776
635.919	0.0180007
635.997	0.0179950
636.075	0.0179289
636.154	0.0179008
636.232	0.0178139
636.310	0.0180152
636.388	0.0179794
636.466	0.0177953
636.544	0.0178146
636.622	0.0178619
636.700	0.0179166
636.779	0.0178667
636.857	0.0179826
636.935	0.0179659
637.013	0.0178987
637.091	0.0179052
637.169	0.0178257
637.247	0.0178772
637.325	0.0178698
637.404	0.0179456
637.482	0.0180813
637.560	0.0178497
637.638	0.0180618
637.716	0.0179337
637.794	0.0179477
637.872	0.0178809
637.950	0.0181451
638.029	0.0178630
638.107	0.0178123
638.185	0.0179350
638.263	0.0178040
638.341	0.0178506
638.419	0.0179425
638.497	0.0179274
638.575	0.0179266
638.654	0.0178931
638.732	0.0179395
638.810	0.0179625
638.888	0.0179444
638.966	0.0178474
639.044	0.0178647
639.122	0.0179531
639.200	0.0177144
639.279	0.0179130
639.357	0.0179057
639.435	0.0179907
639.513	0.0179788
639.591	0.0177384
639.669	0.0178342
639.747	0.0179227
639.825	0.0180511
639.904	0.0178741
639.982	0.0178241
640.060	0.0179476
640.138	0.0180195
640.216	0.0179782
640.294	0.0178126
640.372	0.0178236
640.450	0.0179353
640.529	0.0178712
640.607	0.0178750
640.685	0.0178764
640.763	0.0180031
640.841	0.0179238
640.919	0.0178894
640.997	0.0179066
641.075	0.0177724
641.154	0.0178251
641.232	0.0179346
641.310	0.0179346
641.388	0.0178981
641.466	0.0178232
641.544	0.0179654
641.622	0.0179351
641.700	0.0179171
641.779	0.0179423
641.857	0.0178374
641.935	0.0178201
642.013	0.0178604
642.091	0.0179487
642.169	0.0179833
642.247	0.0178868
642.325	0.0178624
642.404	0.0178407
642.482	0.0179117
642.560	0.0179453
642.638	0.0179684
642.716	0.0178857
642.794	0.0178459
642.872	0.0178683
642.950	0.0178436
643.029	0.0178661
643.107	0.0178504
643.185	0.0177896
643.263	0.0180992
643.341	0.0178040
643.419	0.0178674
643.497	0.0178693
643.575	0.0178591
643.654	0.0178930
643.732	0.0179392
643.810	0.0179679
643.888	0.0180244
643.966	0.0178739
644.044	0.0178999
644.122	0.0179178
644.200	0.0179352
644.279	0.0180257
644.357	0.0178208
644.435	0.0178512
644.513	0.0180039
644.591	0.0179345
644.669	0.0179323
644.747	0.0179195
644.825	0.0178583
644.904	0.0178995
644.982	0.0179087
645.060	0.0178130
645.138	0.0178327
645.216	0.0178550
645.294	0.0178992
645.372	0.0179420
645.450	0.0180612
645.529	0.0179870
645.607	0.0179276
645.685	0.0178841
645.763	0.0178307
645.841	0.0178657
645.919	0.0178481
645.997	0.0177413
646.075	0.0179396
646.154	0.0179229
646.232	0.0179808
646.310	0.0178846
646.388	0.0179133
646.466	0.0178889
646.544	0.0179012
646.622	0.0178058
646.700	0.0178808
646.779	0.0178813
646.857	0.0178462
646.935	0.0179211
647.013	0.0178716
647.091	0.0178120
647.169	0.0179420
647.247	0.0179012
647.325	0.0178224
647.404	0.0178329
647.482	0.0178625
647.560	0.0179928
647.638	0.0179691
647.716	0.0179306
647.794	0.0179159
647.872	0.0179536
647.950	0.0179089
648.029	0.0177473
648.107	0.0179037
648.185	0.0179214
648.263	0.0179913
648.341	0.0179829
648.419	0.0178239
648.497	0.0179597
648.575	0.0178038
648.654	0.0180475
648.732	0.0178326
648.810	0.0179169
648.888	0.0180614
648.966	0.0178956
649.044	0.0178613
649.122	0.0179871
649.200	0.0177778
649.279	0.0178474
649.357	0.0178313
649.435	0.0178929
649.513	0.0179084
649.591	0.0178499
649.669	0.0179379
649.747	0.0179139
649.825	0.0178572
649.904	0.0178582
649.982	0.0178941
650.060	0.0179325
650.138	0.0179219
650.216	0.0179424
650.294	0.0179681
650.372	0.0177533
650.450	0.0177992
650.529	0.0178357
650.607	0.0178772
650.685	0.0179443
650.763	0.0179137
650.841	0.0179278
650.919	0.0179681
650.997	0.0178661
651.075	0.0178676
651.154	0.0178368
651.232	0.0179583
651.310	0.0179805
651.388	0.0179129
651.466	0.0179375
651.544	0.0179910
651.622	0.0177441
651.700	0.0179610
651.779	0.0178671
651.857	0.0178188
651.935	0.0177440
652.013	0.0179946
652.091	0.0180203
652.169	0.0179581
652.247	0.0179240
652.325	0.0178661
652.404	0.0178823
652.482	0.0179752
652.560	0.0178888
652.638	0.0178848
652.716	0.0177758
652.794	0.0178726
652.872	0.0179726
652.950	0.0180439
653.029	0.0179443
653.107	0.0178897
653.185	0.0179014
653.263	0.0178642
653.341	0.0178517
653.419	0.0179396
653.497	0.0179804
653.575	0.0179133
653.654	0.0179378
653.732	0.0178716
653.810	0.0178539
653.888	0.0177986
653.966	0.0180313
654.044	0.0179604
654.122	0.0180507
654.200	0.0179496
654.279	0.0179723
654.357	0.0178043
654.435	0.0178400
654.513	0.0179019
654.591	0.0179996
654.669	0.0179462
654.747	0.0177677
654.825	0.0179143
654.904	0.0180026
654.982	0.0178447
655.060	0.0178561
655.138	0.0179916
655.216	0.0179835
655.294	0.0177928
655.372	0.0178745
655.450	0.0178304
655.529	0.0179329
655.607	0.0180127
655.685	0.0178848
655.763	0.0178440
655.841	0.0178896
655.919	0.0177573
655.997	0.0179131
656.075	0.0178606
656.154	0.0179298
656.232	0.0179850
656.310	0.0177908
656.388	0.0178019
656.466	0.0178281
656.544	0.0177880
656.622	0.0178141
656.700	0.0178662
656.779	0.0179534
656.857	0.0178076
656.935	0.0178463
657.013	0.0179055
657.091	0.0178891
657.169	0.0178702
657.247	0.0179501
657.325	0.0177940
657.404	0.0178389
657.482	0.0179456
657.560	0.0178504
657.638	0.0178389
657.716	0.0177821
657.794	0.0179201
657.872	0.0179300
657.950	0.0179154
658.029	0.0178368
658.107	0.0179101
658.185	0.0178749
658.263	0.0178723
658.341	0.0177675
658.419	0.0178593
658.497	0.0179112
658.575	0.0180851
658.654	0.0178978
658.732	0.0178404
658.810	0.0178394
658.888	0.0178962
658.966	0.0178067
659.044	0.0178800
659.122	0.0178519
659.200	0.0178107
659.279	0.0179976
659.357	0.0179213
659.435	0.0178066
659.513	0.0177335
659.591	0.0180486
659.669	0.0178474
659.747	0.0178703
659.825	0.0180054
659.904	0.0180227
659.982	0.0178694
660.060	0.0179322
660.138	0.0180666
660.216	0.0179322
660.294	0.0179329
660.372	0.0179575
660.450	0.0178973
660.529	0.0178851
660.607	0.0177690
660.685	0.0178167
660.763	0.0177605
660.841	0.0179427
660.919	0.0178929
660.997	0.0179359
661.075	0.0179922
661.154	0.0180420
661.232	0.0177834
661.310	0.0178429
661.388	0.0178020
661.466	0.0178838
661.544	0.0180179
661.622	0.0179773
661.700	0.0180290
661.779	0.0178194
661.857	0.0178506
661.935	0.0179470
662.013	0.0179530
662.091	0.0178382
662.169	0.0178960
662.247	0.0178778
662.325	0.0178944
662.404	0.0179781
662.482	0.0178619
662.560	0.0178296
662.638	0.0177993
662.716	0.0178893
662.794	0.0179838
662.872	0.0178389
662.950	0.0179091
663.029	0.0178694
663.107	0.0179736
663.185	0.0179468
663.263	0.0178175
663.341	0.0178303
663.419	0.0177949
663.497	0.0179369
663.575	0.0178742
663.654	0.0179362
663.732	0.0179836
663.810	0.0179183
663.888	0.0179192
663.966	0.0177662
664.044	0.0178488
664.122	0.0178924
664.200	0.0179063
664.279	0.0178825
664.357	0.0178392
664.435	0.0178642
664.513	0.0178715
664.591	0.0179366
664.669	0.0179201
664.747	0.0179147
664.825	0.0179011
664.904	0.0178226
664.982	0.0178947
665.060	0.0179193
665.138	0.0180207
665.216	0.0178207
665.294	0.0178530
665.372	0.0179657
665.450	0.0178852
665.529	0.0179321
665.607	0.0179984
665.685	0.0178825
665.763	0.0179850
665.841	0.0178783
665.919	0.0178457
665.997	0.0179674
666.075	0.0179178
666.154	0.0177442
666.232	0.0179725
666.310	0.0179970
666.388	0.0178078
666.466	0.0178775
666.544	0.0178957
666.622	0.0180287
666.700	0.0179591
666.779	0.0179996
666.857	0.0179813
666.935	0.0178684
667.013	0.0179767
667.091	0.0180271
667.169	0.0180045
667.247	0.0178494
667.325	0.0177939
667.404	0.0177793
667.482	0.0178807
667.560	0.0178599
667.638	0.0179945
667.716	0.0179739
667.794	0.0178242
667.872	0.0178288
667.950	0.0180055
668.029	0.0179507
668.107	0.0178819
668.185	0.0179574
668.263	0.0179446
668.341	0.0179543
668.419	0.0178254
668.497	0.0177257
668.575	0.0177773
668.654	0.0179376
668.732	0.0178899
668.810	0.0178130
668.888	0.0179514
668.966	0.0179710
669.044	0.0178478
669.122	0.0179194
669.200	0.0176789
669.279	0.0179351
669.357	0.0179384
669.435	0.0179258
669.513	0.0178871
669.591	0.0179289
669.669	0.0178263
669.747	0.0177930
669.825	0.0180450
669.904	0.0179748
669.982	0.0178877
670.060	0.0178699
670.138	0.0178404
670.216	0.0178648
670.294	0.0178432
670.372	0.0178130
670.450	0.0179281
670.529	0.0178645
670.607	0.0180196
670.685	0.0178761
670.763	0.0178242
670.841	0.0178927
670.919	0.0179344
670.997	0.0179712
671.075	0.0179273
671.154	0.0178694
671.232	0.0178439
671.310	0.0178896
671.388	0.0178686
671.466	0.0178136
671.544	0.0177996
671.622	0.0179110
671.700	0.0178135
671.779	0.0177349
671.857	0.0180081
671.935	0.0178413
672.013	0.0178510
672.091	0.0179652
672.169	0.0179690
672.247	0.0179778
672.325	0.0179671
672.404	0.0177385
672.482	0.0178388
672.560	0.0179372
672.638	0.0180173
672.716	0.0178892
672.794	0.0178173
672.872	0.0178159
672.950	0.0178756
673.029	0.0179679
673.107	0.0179268
673.185	0.0178057
673.263	0.0178396
673.341	0.0178272
673.419	0.0179155
673.497	0.0179588
673.575	0.0178574
673.654	0.0179066
673.732	0.0178786
673.810	0.0179331
673.888	0.0178699
673.966	0.0180888
674.044	0.0179016
674.122	0.0179543
674.200	0.0178762
674.279	0.0177383
674.357	0.0179420
674.435	0.0179367
674.513	0.0178608
674.591	0.0179908
674.669	0.0179398
674.747	0.0178222
674.825	0.0178833
674.904	0.0180316
674.982	0.0179243
675.060	0.0179420
675.138	0.0178440
675.216	0.0178698
675.294	0.0180064
675.372	0.0180560
675.450	0.0178682
675.529	0.0177814
675.607	0.0178407
675.685	0.0179607
675.763	0.0179440
675.841	0.0178551
675.919	0.0180315
675.997	0.0181154
676.075	0.0178850
676.154	0.0178422
676.232	0.0178111
676.310	0.0180198
676.388	0.0179265
676.466	0.0179481
676.544	0.0178045
676.622	0.0178382
676.700	0.0179217
676.779	0.0178686
676.857	0.0178708
676.935	0.0179862
677.013	0.0179446
677.091	0.0178568
677.169	0.0177398
677.247	0.0179126
677.325	0.0179703
677.404	0.0177088
677.482	0.0179065
677.560	0.0179117
677.638	0.0178948
677.716	0.0178117
677.794	0.0177975
677.872	0.0179790
677.950	0.0178996
678.029	0.0177940
678.107	0.0179427
678.185	0.0178302
678.263	0.0179894
678.341	0.0177718
678.419	0.0177853
678.497	0.0178400
678.575	0.0178368
678.654	0.0178704
678.732	0.0178725
678.810	0.0178753
678.888	0.0178574
678.966	0.0179118
679.044	0.0179152
679.122	0.0178201
679.200	0.0178326
679.279	0.0178391
679.357	0.0178681
679.435	0.0178233
679.513	0.0178831
679.591	0.0178093
679.669	0.0178751
679.747	0.0178727
679.825	0.0179066
679.904	0.0179356
679.982	0.0179504
680.060	0.0178638
680.138	0.0178772
680.216	0.0178090
680.294	0.0179315
680.372	0.0178752
680.450	0.0179126
680.529	0.0178144
680.607	0.0177709
680.685	0.0179390
680.763	0.0179497
680.841	0.0179905
680.919	0.0178394
680.997	0.0178657
681.075	0.0178798
681.154	0.0178908
681.232	0.0178574
681.310	0.0178530
681.388	0.0178426
681.466	0.0179317
681.544	0.0178530
681.622	0.0178823
681.700	0.0177776
681.779	0.0178105
681.857	0.0178935
681.935	0.0178731
682.013	0.0178081
682.091	0.0177367
682.169	0.0178137
682.247	0.0178745
682.325	0.0177406
682.404	0.0177200
682.482	0.0179662
682.560	0.0179670
682.638	0.0179319
682.716	0.0178811
682.794	0.0179035
682.872	0.0177377
682.950	0.0178411
683.029	0.0178828
683.107	0.0178175
683.185	0.0178619
683.263	0.0177899
683.341	0.0178416
683.419	0.0178912
683.497	0.0178505
683.575	0.0178864
683.654	0.0178979
683.732	0.0178528
683.810	0.0179276
683.888	0.0178302
683.966	0.0178374
684.044	0.0178444
684.122	0.0179214
684.200	0.0179747
684.279	0.0178660
684.357	0.0179366
684.435	0.0178622
684.513	0.0178647
684.591	0.0179218
684.669	0.0179589
684.747	0.0178575
684.825	0.0179740
684.904	0.0179188
684.982	0.0178666
685.060	0.0180180
685.138	0.0180103
685.216	0.0178193
685.294	0.0179052
685.372	0.0178953
685.450	0.0180647
685.529	0.0180765
685.607	0.0178307
685.685	0.0177888
685.763	0.0178618
685.841	0.0179349
685.919	0.0178840
685.997	0.0178353
686.075	0.0179496
686.154	0.0180315
686.232	0.0178139
686.310	0.0179616
686.388	0.0179887
686.466	0.0180695
686.544	0.0179594
686.622	0.0179113
686.700	0.0178876
686.779	0.0179662
686.857	0.0178762
686.935	0.0178572
687.013	0.0177891
687.091	0.0179692
687.169	0.0179592
687.247	0.0177424
687.325	0.0178794
687.404	0.0179688
687.482	0.0179597
687.560	0.0179237
687.638	0.0179752
687.716	0.0179267
687.794	0.0179661
687.872	0.0178817
687.950	0.0178935
688.029	0.0178616
688.107	0.0177354
688.185	0.0178840
688.263	0.0179826
688.341	0.0179549
688.419	0.0178828
688.497	0.0179539
688.575	0.0179507
688.654	0.0179768
688.732	0.0178833
688.810	0.0177654
688.888	0.0177594
688.966	0.0177962
689.044	0.0179827
689.122	0.0179810
689.200	0.0177576
689.279	0.0177505
689.357	0.0178896
689.435	0.0179693
689.513	0.0179649
689.591	0.0178550
689.669	0.0177969
689.747	0.0178799
689.825	0.0178819
689.904	0.0177483
689.982	0.0178759
690.060	0.0179060
690.138	0.0178712
690.216	0.0177888
690.294	0.0179317
690.372	0.0178172
690.450	0.0178224
690.529	0.0177703
690.607	0.0177194
690.685	0.0178957
690.763	0.0178893
690.841	0.0178064
690.919	0.0177958
690.997	0.0178262
691.075	0.0179104
691.154	0.0177999
691.232	0.0178510
691.310	0.0177292
691.388	0.0176890
691.466	0.0177471
691.544	0.0178401
691.622	0.0177849
691.700	0.0177985
691.779	0.0178490
691.857	0.0178356
691.935	0.0178940
692.013	0.0178251
692.091	0.0177307
692.169	0.0178384
692.247	0.0178189
692.325	0.0179098
692.404	0.0177845
692.482	0.0178588
692.560	0.0179277
692.638	0.0178642
692.716	0.0178773
692.794	0.0178320
692.872	0.0177316
692.950	0.0178895
693.029	0.0178472
693.107	0.0178259
693.185	0.0179537
693.263	0.0179433
693.341	0.0180528
693.419	0.0178082
693.497	0.0178079
693.575	0.0179405
693.654	0.0179068
693.732	0.0179723
693.810	0.0178437
693.888	0.0179346
693.966	0.0178120
694.044	0.0179282
694.122	0.0178725
694.200	0.0179769
694.279	0.0177341
694.357	0.0179868
694.435	0.0179151
694.513	0.0179610
694.591	0.0179186
694.669	0.0179720
694.747	0.0177686
694.825	0.0178327
694.904	0.0178409
694.982	0.0179745
695.060	0.0179733
695.138	0.0179336
695.216	0.0178316
695.294	0.0179830
695.372	0.0178428
695.450	0.0179769
695.529	0.0180072
695.607	0.0178873
695.685	0.0179050
695.763	0.0178982
695.841	0.0177668
695.919	0.0178020
695.997	0.0177224
696.075	0.0177826
696.154	0.0177024
696.232	0.0178607
696.310	0.0179023
696.388	0.0176852
696.466	0.0178344
696.544	0.0179591
696.622	0.0180257
696.700	0.0178481
696.779	0.0180798
696.857	0.0180988
696.935	0.0181857
697.013	0.0180894
697.091	0.0180824
697.169	0.0180555
697.247	0.0179516
697.325	0.0179945
697.404	0.0179885
697.482	0.0178562
697.560	0.0177697
697.638	0.0177374
697.716	0.0177370
697.794	0.0177930
697.872	0.0177321
697.950	0.0177198
698.029	0.0176830
698.107	0.0178115
698.185	0.0177338
698.263	0.0177663
698.341	0.0177349
698.419	0.0178131
698.497	0.0178548
698.575	0.0179528
698.654	0.0179256
698.732	0.0178848
698.810	0.0178712
698.888	0.0181513
698.966	0.0180807
699.044	0.0180293
699.122	0.0179971
699.200	0.0178724
699.279	0.0180260
699.357	0.0180675
699.435	0.0178688
699.513	0.0179842
699.591	0.0180266
699.669	0.0179693
699.747	0.0180042
699.825	0.0179552
699.904	0.0180656
699.982	0.0180231
700.060	0.0179483
700.138	0.0179449
700.216	0.0178577
700.294	0.0177923
700.372	0.0179202
700.450	0.0178146
700.529	0.0177174
700.607	0.0178487
700.685	0.0177682
700.763	0.0175848
700.841	0.0175388
700.919	0.0174895
700.997	0.0175829
701.075	0.0176487
701.154	0.0176961
701.232	0.0174797
701.310	0.0176483
701.388	0.0175695
701.466	0.0176478
701.544	0.0178403
701.622	0.0178223
701.700	0.0178791
701.779	0.0178400
701.857	0.0180154
701.935	0.0179102
702.013	0.0179736
702.091	0.0180784
702.169	0.0181281
702.247	0.0181499
702.325	0.0181361
702.404	0.0181107
702.482	0.0181425
702.560	0.0182034
702.638	0.0181842
702.716	0.0181189
702.794	0.0182370
702.872	0.0181341
702.950	0.0180938
703.029	0.0180908
703.107	0.0180453
703.185	0.0179635
703.263	0.0180053
703.341	0.0176913
703.419	0.0176566
703.497	0.0177310
703.575	0.0174992
703.654	0.0174036
703.732	0.0175021
703.810	0.0174028
703.888	0.0173238
703.966	0.0172373
704.044	0.0174972
704.122	0.0175928
704.200	0.0175522
704.279	0.0175671
704.357	0.0176459
704.435	0.0175050
704.513	0.0178301
704.591	0.0178136
704.669	0.0179362
704.747	0.0178189
704.825	0.0179887
704.904	0.0180699
704.982	0.0177981
705.060	0.0180708
705.138	0.0181245
705.216	0.0181214
705.294	0.0181285
705.372	0.0180679
705.450	0.0179381
705.529	0.0179048
705.607	0.0180090
705.685	0.0180983
705.763	0.0179043
705.841	0.0180464
705.919	0.0181089
705.997	0.0180920
706.075	0.0181010
706.154	0.0180414
706.232	0.0181382
706.310	0.0181100
706.388	0.0181606
706.466	0.0182845
706.544	0.0180446
706.622	0.0179333
706.700	0.0180205
706.779	0.0180182
706.857	0.0178753
706.935	0.0179362
707.013	0.0178020
707.091	0.0178339
707.169	0.0176923
707.247	0.0178654
707.325	0.0179308
707.404	0.0177402
707.482	0.0175507
707.560	0.0176184
707.638	0.0176559
707.716	0.0176334
707.794	0.0177093
707.872	0.0177165
707.950	0.0175617
708.029	0.0174646
708.107	0.0176657
708.185	0.0177255
708.263	0.0177555
708.341	0.0177470
708.419	0.0179345
708.497	0.0178453
708.575	0.0178245
708.654	0.0178364
708.732	0.0178541
708.810	0.0179224
708.888	0.0178381
708.966	0.0178228
709.044	0.0178223
709.122	0.0179507
709.200	0.0178770
709.279	0.0179517
709.357	0.0178542
709.435	0.0180264
709.513	0.0180036
709.591	0.0178920
709.669	0.0179144
709.747	0.0180154
709.825	0.0178599
709.904	0.0179602
709.982	0.0181066
710.060	0.0179454
710.138	0.0180627
710.216	0.0180455
710.294	0.0180472
710.372	0.0180402
710.450	0.0181084
710.529	0.0182389
710.607	0.0181658
710.685	0.0180684
710.763	0.0179417
710.841	0.0178556
710.919	0.0179224
710.997	0.0180988
711.075	0.0180249
711.154	0.0178821
711.232	0.0180236
711.310	0.0179318
711.388	0.0178689
711.466	0.0178910
711.544	0.0179154
711.622	0.0176398
711.700	0.0177071
711.779	0.0176611
711.857	0.0178354
711.935	0.0176443
712.013	0.0176815
712.091	0.0178067
712.169	0.0176889
712.247	0.0178569
712.325	0.0178193
712.404	0.0177289
712.482	0.0176720
712.560	0.0176908
712.638	0.0177215
712.716	0.0177516
712.794	0.0178370
712.872	0.0177899
712.950	0.0176211
713.029	0.0179111
713.107	0.0177821
713.185	0.0176897
713.263	0.0177393
713.341	0.0178033
713.419	0.0178298
713.497	0.0178316
713.575	0.0177725
713.654	0.0178072
713.732	0.0178445
713.810	0.0178703
713.888	0.0178933
713.966	0.0179089
714.044	0.0179851
714.122	0.0180442
714.200	0.0180464
714.279	0.0180938
714.357	0.0182233
714.435	0.0181973
714.513	0.0182334
714.591	0.0180032
714.669	0.0180882
714.747	0.0182240
714.825	0.0182116
714.904	0.0182041
714.982	0.0180412
715.060	0.0179451
715.138	0.0179682
715.216	0.0180207
715.294	0.0180074
715.372	0.0180827
715.450	0.0181469
715.529	0.0179559
715.607	0.0179040
715.685	0.0178776
715.763	0.0178667
715.841	0.0178754
715.919	0.0178383
715.997	0.0179683
716.075	0.0179288
716.154	0.0176221
716.232	0.0178005
716.310	0.0178046
716.388	0.0176991
716.466	0.0177209
716.544	0.0177398
716.622	0.0177672
716.700	0.0177931
716.779	0.0176903
716.857	0.0178001
716.935	0.0176785
717.013	0.0177800
717.091	0.0176882
717.169	0.0174651
717.247	0.0177454
717.325	0.0177747
717.404	0.0177353
717.482	0.0176500
717.560	0.0178255
717.638	0.0178381
717.716	0.0176253
717.794	0.0177427
717.872	0.0176872
717.950	0.0177940
718.029	0.0177124
718.107	0.0178889
718.185	0.0178333
718.263	0.0177471
718.341	0.0176649
718.419	0.0177764
718.497	0.0177953
718.575	0.0177217
718.654	0.0177575
718.732	0.0178683
718.810	0.0178315
718.888	0.0177824
718.966	0.0179940
719.044	0.0177949
719.122	0.0180005
719.200	0.0180096
719.279	0.0179165
719.357	0.0181893
719.435	0.0180833
719.513	0.0181454
719.591	0.0179401
719.669	0.0179988
719.747	0.0180836
719.825	0.0181808
719.904	0.0182020
719.982	0.0183199
720.060	0.0178596
720.138	0.0179881
720.216	0.0180806
720.294	0.0180860
720.372	0.0180419
720.450	0.0178972
720.529	0.0179616
720.607	0.0181137
720.685	0.0179765
720.763	0.0178395
720.841	0.0178777
720.919	0.0179191
720.997	0.0179374
721.075	0.0178883
721.154	0.0179053
721.232	0.0178353
721.310	0.0178146
721.388	0.0180068
721.466	0.0178628
721.544	0.0177976
721.622	0.0178651
721.700	0.0177995
721.779	0.0178886
721.857	0.0178435
721.935	0.0178226
722.013	0.0176445
722.091	0.0178857
722.169	0.0176221
722.247	0.0177573
722.325	0.0177544
722.404	0.0175928
722.482	0.0176296
722.560	0.0177709
722.638	0.0176894
722.716	0.0177392
722.794	0.0178349
722.872	0.0177370
722.950	0.0177935
723.029	0.0178323
723.107	0.0177171
723.185	0.0178249
723.263	0.0178599
723.341	0.0179236
723.419	0.0178181
723.497	0.0179043
723.575	0.0179309
723.654	0.0180885
723.732	0.0177892
723.810	0.0178925
723.888	0.0179910
723.966	0.0179166
724.044	0.0178357
724.122	0.0179066
724.200	0.0180463
724.279	0.0179411
724.357	0.0179102
724.435	0.0179105
724.513	0.0179842
724.591	0.0179485
724.669	0.0180249
724.747	0.0180045
724.825	0.0181667
724.904	0.0181551
724.982	0.0180768
725.060	0.0181083
725.138	0.0180483
725.216	0.0180489
725.294	0.0180624
725.372	0.0181017
725.450	0.0180033
725.529	0.0180167
725.607	0.0179942
725.685	0.0178493
725.763	0.0179481
725.841	0.0180443
725.919	0.0178497
725.997	0.0177922
726.075	0.0178485
726.154	0.0178176
726.232	0.0177410
726.310	0.0178883
726.388	0.0178276
726.466	0.0178304
726.544	0.0179337
726.622	0.0177254
726.700	0.0176456
726.779	0.0178490
726.857	0.0177139
726.935	0.0178496
727.013	0.0176642
727.091	0.0177828
727.169	0.0177362
727.247	0.0177235
727.325	0.0177478
727.404	0.0176917
727.482	0.0177067
727.560	0.0176785
727.638	0.0177318
727.716	0.0178532
727.794	0.0178517
727.872	0.0178554
727.950	0.0178929
728.029	0.0179491
728.107	0.0177448
728.185	0.0177746
728.263	0.0178590
728.341	0.0178826
728.419	0.0178917
728.497	0.0179746
728.575	0.0178803
728.654	0.0179714
728.732	0.0178532
728.810	0.0178741
728.888	0.0178898
728.966	0.0179576
729.044	0.0180357
729.122	0.0179137
729.200	0.0178764
729.279	0.0178393
729.357	0.0178346
729.435	0.0179357
729.513	0.0178673
729.591	0.0177940
729.669	0.0178830
729.747	0.0176858
729.825	0.0179072
729.904	0.0178686
729.982	0.0178714
730.060	0.0180942
730.138	0.0178603
730.216	0.0180365
730.294	0.0180816
730.372	0.0179922
730.450	0.0180081
730.529	0.0179730
730.607	0.0179417
730.685	0.0178669
730.763	0.0181251
730.841	0.0178797
730.919	0.0179109
730.997	0.0178629
731.075	0.0179346
731.154	0.0178775
731.232	0.0178424
731.310	0.0178882
731.388	0.0178274
731.466	0.0177364
731.544	0.0179081
731.622	0.0177068
731.700	0.0177464
731.779	0.0178799
731.857	0.0178083
731.935	0.0178031
732.013	0.0178606
732.091	0.0176831
732.169	0.0178139
732.247	0.0178523
732.325	0.0179147
732.404	0.0178940
732.482	0.0179712
732.560	0.0177703
732.638	0.0178792
732.716	0.0178834
732.794	0.0180132
732.872	0.0179713
732.950	0.0177515
733.029	0.0180165
733.107	0.0179673
733.185	0.0178688
733.263	0.0177580
733.341	0.0178171
733.419	0.0178809
733.497	0.0178510
733.575	0.0177718
733.654	0.0178553
733.732	0.0176997
733.810	0.0178188
733.888	0.0179069
733.966	0.0178749
734.044	0.0178465
734.122	0.0178803
734.200	0.0180416
734.279	0.0179095
734.357	0.0177221
734.435	0.0178719
734.513	0.0178895
734.591	0.0179306
734.669	0.0178676
734.747	0.0178929
734.825	0.0178996
734.904	0.0178929
734.982	0.0179747
735.060	0.0179475
735.138	0.0179660
735.216	0.0179458
735.294	0.0178658
735.372	0.0179066
735.450	0.0179406
735.529	0.0179690
735.607	0.0179738
735.685	0.0177437
735.763	0.0179110
735.841	0.0180206
735.919	0.0178907
735.997	0.0179359
736.075	0.0178954
736.154	0.0178731
736.232	0.0178892
736.310	0.0178867
736.388	0.0178123
736.466	0.0180138
736.544	0.0178458
736.622	0.0179095
736.700	0.0178686
736.779	0.0179130
736.857	0.0178770
736.935	0.0178745
737.013	0.0179757
737.091	0.0179955
737.169	0.0178524
737.247	0.0180442
737.325	0.0178767
737.404	0.0179292
737.482	0.0179335
737.560	0.0179853
737.638	0.0179305
737.716	0.0179270
737.794	0.0179453
737.872	0.0180326
737.950	0.0179548
738.029	0.0178986
738.107	0.0179015
738.185	0.0179157
738.263	0.0179845
738.341	0.0179217
738.419	0.0179587
738.497	0.0178922
738.575	0.0179607
738.654	0.0179670
738.732	0.0177962
738.810	0.0179037
738.888	0.0177967
738.966	0.0179031
739.044	0.0177664
739.122	0.0175533
739.200	0.0177802
739.279	0.0177530
739.357	0.0176057
739.435	0.0177232
739.513	0.0177437
739.591	0.0177504
739.669	0.0176610
739.747	0.0177193
739.825	0.0177089
739.904	0.0177100
739.982	0.0178466
740.060	0.0180136
740.138	0.0178410
740.216	0.0178668
740.294	0.0177379
740.372	0.0177644
740.450	0.0179417
740.529	0.0179169
740.607	0.0177959
740.685	0.0179372
740.763	0.0178379
740.841	0.0179199
740.919	0.0177869
740.997	0.0178998
741.075	0.0178485
741.154	0.0177939
741.232	0.0179974
741.310	0.0178970
741.388	0.0179201
741.466	0.0179651
741.544	0.0178965
741.622	0.0180061
741.700	0.0178928
741.779	0.0178220
741.857	0.0179538
741.935	0.0179161
742.013	0.0179280
742.091	0.0179713
742.169	0.0178072
742.247	0.0179973
742.325	0.0178043
742.404	0.0180073
742.482	0.0179908
742.560	0.0177189
742.638	0.0178316
742.716	0.0179689
742.794	0.0178398
742.872	0.0178355
742.950	0.0178460
743.029	0.0178099
743.107	0.0178625
743.185	0.0180198
743.263	0.0179452
743.341	0.0179627
743.419	0.0179990
743.497	0.0178214
743.575	0.0179287
743.654	0.0178806
743.732	0.0178970
743.810	0.0179266
743.888	0.0179961
743.966	0.0180099
744.044	0.0181117
744.122	0.0178925
744.200	0.0178784
744.279	0.0178473
744.357	0.0179464
744.435	0.0180862
744.513	0.0179852
744.591	0.0179285
744.669	0.0179041
744.747	0.0177392
744.825	0.0179111
744.904	0.0179223
744.982	0.0179691
745.060	0.0177624
745.138	0.0178873
745.216	0.0178625
745.294	0.0179220
745.372	0.0179514
745.450	0.0177536
745.529	0.0177391
745.607	0.0177572
745.685	0.0177741
745.763	0.0178662
745.841	0.0178838
745.919	0.0178471
745.997	0.0180177
746.075	0.0178413
746.154	0.0178016
746.232	0.0177403
746.310	0.0177046
746.388	0.0177636
746.466	0.0179949
746.544	0.0178304
746.622	0.0178234
746.700	0.0178030
746.779	0.0177676
746.857	0.0178542
746.935	0.0177483
747.013	0.0178265
747.091	0.0177620
747.169	0.0178555
747.247	0.0179395
747.325	0.0178648
747.404	0.0177901
747.482	0.0178128
747.560	0.0178521
747.638	0.0178939
747.716	0.0179176
747.794	0.0179199
747.872	0.0178944
747.950	0.0179583
748.029	0.0179384
748.107	0.0177554
748.185	0.0180685
748.263	0.0178466
748.341	0.0178096
748.419	0.0178101
748.497	0.0177499
748.575	0.0178173
748.654	0.0179140
748.732	0.0178606
748.810	0.0178442
748.888	0.0179757
748.966	0.0179546
749.044	0.0178128
749.122	0.0178388
749.200	0.0177550
749.279	0.0179903
749.357	0.0179314
749.435	0.0179483
749.513	0.0179234
749.591	0.0179324
749.669	0.0177515
749.747	0.0178490
749.825	0.0179117
749.904	0.0179852
749.982	0.0178062
750.060	0.0179711
750.138	0.0179204
750.216	0.0178011
750.294	0.0179050
750.372	0.0179693
750.450	0.0178426
750.529	0.0179724
750.607	0.0178066
750.685	0.0178861
750.763	0.0179776
750.841	0.0178555
750.919	0.0179482
750.997	0.0180016
751.075	0.0179620
751.154	0.0178480
751.232	0.0178922
751.310	0.0180174
751.388	0.0178715
751.466	0.0177278
751.544	0.0178227
751.622	0.0177669
751.700	0.0179062
751.779	0.0179548
751.857	0.0177792
751.935	0.0177677
752.013	0.0177880
752.091	0.0178674
752.169	0.0178328
752.247	0.0178539
752.325	0.0177446
752.404	0.0178001
752.482	0.0178292
752.560	0.0178613
752.638	0.0177014
752.716	0.0176652
752.794	0.0176939
752.872	0.0176761
752.950	0.0177319
753.029	0.0178477
753.107	0.0177673
753.185	0.0177413
753.263	0.0178211
753.341	0.0177884
753.419	0.0178436
753.497	0.0177262
753.575	0.0179183
753.654	0.0179324
753.732	0.0177345
753.810	0.0178055
753.888	0.0178562
753.966	0.0178856
754.044	0.0177448
754.122	0.0179268
754.200	0.0178817
754.279	0.0178825
754.357	0.0177557
754.435	0.0177924
754.513	0.0177164
754.591	0.0179548
754.669	0.0179112
754.747	0.0176717
754.825	0.0179358
754.904	0.0178566
754.982	0.0178092
755.060	0.0177907
755.138	0.0179256
755.216	0.0179498
755.294	0.0178788
755.372	0.0179518
755.450	0.0178246
755.529	0.0178419
755.607	0.0179412
755.685	0.0178980
755.763	0.0178845
755.841	0.0178624
755.919	0.0178695
755.997	0.0178125
756.075	0.0177629
756.154	0.0178244
756.232	0.0179317
756.310	0.0179092
756.388	0.0179499
756.466	0.0179041
756.544	0.0178309
756.622	0.0179407
756.700	0.0178890
756.779	0.0177888
756.857	0.0179134
756.935	0.0179189
757.013	0.0178266
757.091	0.0178174
757.169	0.0178313
757.247	0.0179086
757.325	0.0178876
757.404	0.0179428
757.482	0.0178133
757.560	0.0178268
757.638	0.0178861
757.716	0.0179288
757.794	0.0179571
757.872	0.0179743
757.950	0.0177924
758.029	0.0178633
758.107	0.0180463
758.185	0.0179083
758.263	0.0179856
758.341	0.0179625
758.419	0.0180021
758.497	0.0178496
758.575	0.0178418
758.654	0.0179282
758.732	0.0179402
758.810	0.0180331
758.888	0.0179379
758.966	0.0179169
759.044	0.0178995
759.122	0.0178898
759.200	0.0179655
759.279	0.0179202
759.357	0.0178078
759.435	0.0178034
759.513	0.0177728
759.591	0.0179249
759.669	0.0177889
759.747	0.0178705
759.825	0.0178548
759.904	0.0178899
759.982	0.0179185
760.060	0.0178208
760.138	0.0179205
760.216	0.0179184
760.294	0.0179732
760.372	0.0179373
760.450	0.0178480
760.529	0.0177990
760.607	0.0179299
760.685	0.0179298
760.763	0.0178678
760.841	0.0179591
760.919	0.0180091
760.997	0.0178841
761.075	0.0179156
761.154	0.0179309
761.232	0.0180099
761.310	0.0179401
761.388	0.0179655
761.466	0.0178988
761.544	0.0179288
761.622	0.0177628
761.700	0.0179114
761.779	0.0178858
761.857	0.0179477
761.935	0.0178441
762.013	0.0179249
762.091	0.0179430
762.169	0.0178444
762.247	0.0178140
762.325	0.0178307
762.404	0.0179083
762.482	0.0177782
762.560	0.0179713
762.638	0.0179731
762.716	0.0178080
762.794	0.0177858
762.872	0.0180279
762.950	0.0179311
763.029	0.0180020
763.107	0.0180006
763.185	0.0178658
763.263	0.0178858
763.341	0.0177662
763.419	0.0178739
763.497	0.0178553
763.575	0.0179217
763.654	0.0180070
763.732	0.0179015
763.810	0.0177046
763.888	0.0180086
763.966	0.0178802
764.044	0.0178355
764.122	0.0178401
764.200	0.0178918
764.279	0.0178902
764.357	0.0179208
764.435	0.0179144
764.513	0.0179610
764.591	0.0178884
764.669	0.0179965
764.747	0.0180344
764.825	0.0179615
764.904	0.0178162
764.982	0.0179469
765.060	0.0179810
765.138	0.0178777
765.216	0.0178961
765.294	0.0178339
765.372	0.0177851
765.450	0.0178416
765.529	0.0178861
765.607	0.0177041
765.685	0.0179514
765.763	0.0179591
765.841	0.0177893
765.919	0.0178091
765.997	0.0179684
766.075	0.0178126
766.154	0.0177369
766.232	0.0178780
766.310	0.0178619
766.388	0.0178684
766.466	0.0178355
766.544	0.0177918
766.622	0.0176958
766.700	0.0178059
766.779	0.0178883
766.857	0.0177042
766.935	0.0178037
767.013	0.0178949
767.091	0.0178201
767.169	0.0178071
767.247	0.0178561
767.325	0.0178000
767.404	0.0177622
767.482	0.0178117
767.560	0.0178310
767.638	0.0178905
767.716	0.0179710
767.794	0.0177834
767.872	0.0177825
767.950	0.0178727
768.029	0.0179376
768.107	0.0177623
768.185	0.0178127
768.263	0.0178725
768.341	0.0178882
768.419	0.0177805
768.497	0.0179047
768.575	0.0178160
768.654	0.0178929
768.732	0.0177478
768.810	0.0178520
768.888	0.0177541
768.966	0.0178639
769.044	0.0178771
769.122	0.0178226
769.200	0.0177180
769.279	0.0178641
769.357	0.0178685
769.435	0.0178767
769.513	0.0179169
769.591	0.0178399
769.669	0.0178020
769.747	0.0177412
769.825	0.0177559
769.904	0.0177194
769.982	0.0178902
770.060	0.0179050
770.138	0.0179498
770.216	0.0177335
770.294	0.0179254
770.372	0.0177354
770.450	0.0178992
770.529	0.0178281
770.607	0.0178744
770.685	0.0179619
770.763	0.0180083
770.841	0.0177723
770.919	0.0178156
770.997	0.0176856
771.075	0.0178042
771.154	0.0178038
771.232	0.0177968
771.310	0.0179133
771.388	0.0177506
771.466	0.0178489
771.544	0.0178214
771.622	0.0177892
771.700	0.0178025
771.779	0.0177651
771.857	0.0178067
771.935	0.0178156
772.013	0.0178136
772.091	0.0178916
772.169	0.0179120
772.247	0.0178169
772.325	0.0179530
772.404	0.0178033
772.482	0.0178754
772.560	0.0179310
772.638	0.0178992
772.716	0.0179343
772.794	0.0178613
772.872	0.0177906
772.950	0.0178799
773.029	0.0181068
773.107	0.0179293
773.185	0.0179473
773.263	0.0179827
773.341	0.0177660
773.419	0.0178789
773.497	0.0178400
773.575	0.0178498
773.654	0.0180247
773.732	0.0179817
773.810	0.0178928
773.888	0.0178165
773.966	0.0179206
774.044	0.0177110
774.122	0.0178308
774.200	0.0177240
774.279	0.0177955
774.357	0.0178320
774.435	0.0177859
774.513	0.0177554
774.591	0.0178413
774.669	0.0177129
774.747	0.0177883
774.825	0.0178548
774.904	0.0177899
774.982	0.0176281
775.060	0.0179267
775.138	0.0176280
775.216	0.0177821
775.294	0.0177626
775.372	0.0178374
775.450	0.0177297
775.529	0.0179333
775.607	0.0178944
775.685	0.0177481
775.763	0.0178568
775.841	0.0179274
775.919	0.0179877
775.997	0.0177882
776.075	0.0178611
776.154	0.0178911
776.232	0.0178121
776.310	0.0177593
776.388	0.0177673
776.466	0.0178458
776.544	0.0178197
776.622	0.0178196
776.700	0.0179095
776.779	0.0178253
776.857	0.0178148
776.935	0.0179304
777.013	0.0178423
777.091	0.0178946
777.169	0.0178692
777.247	0.0179457
777.325	0.0179324
777.404	0.0178125
777.482	0.0177996
777.560	0.0180029
777.638	0.0178656
777.716	0.0179337
777.794	0.0179244
777.872	0.0178870
777.950	0.0178567
778.029	0.0179305
778.107	0.0178412
778.185	0.0179491
778.263	0.0179778
778.341	0.0178397
778.419	0.0178625
778.497	0.0179974
778.575	0.0179203
778.654	0.0178374
778.732	0.0178434
778.810	0.0178551
778.888	0.0177462
778.966	0.0178365
779.044	0.0178246
779.122	0.0177835
779.200	0.0179272
779.279	0.0177952
779.357	0.0177284
779.435	0.0177936
779.513	0.0178498
779.591	0.0178995
779.669	0.0178590
779.747	0.0175934
779.825	0.0178445
779.904	0.0177941
779.982	0.0176644
780.060	0.0177387
780.138	0.0177925
780.216	0.0178123
780.294	0.0178489
780.372	0.0178367
780.450	0.0176801
780.529	0.0177133
780.607	0.0176828
780.685	0.0178934
780.763	0.0177206
780.841	0.0179005
780.919	0.0177306
780.997	0.0178615
781.075	0.0179800
781.154	0.0178642
781.232	0.0176521
781.310	0.0179919
781.388	0.0180228
781.466	0.0177948
781.544	0.0179305
781.622	0.0179636
781.700	0.0179283
781.779	0.0179266
781.857	0.0180048
781.935	0.0179066
782.013	0.0178112
782.091	0.0179077
782.169	0.0179785
782.247	0.0178767
782.325	0.0179006
782.404	0.0180431
782.482	0.0179626
782.560	0.0178072
782.638	0.0178575
782.716	0.0178996
782.794	0.0179354
782.872	0.0178046
782.950	0.0178959
783.029	0.0179033
783.107	0.0179082
783.185	0.0178282
783.263	0.0179200
783.341	0.0179218
783.419	0.0179252
783.497	0.0177262
783.575	0.0178392
783.654	0.0180054
783.732	0.0179042
783.810	0.0178818
783.888	0.0178118
783.966	0.0177640
784.044	0.0179153
784.122	0.0179465
784.200	0.0179771
784.279	0.0178795
784.357	0.0178165
784.435	0.0178609
784.513	0.0178706
784.591	0.0177133
784.669	0.0179131
784.747	0.0179616
784.825	0.0180097
784.904	0.0178331
784.982	0.0178376
785.060	0.0179696
785.138	0.0179075
785.216	0.0179855
785.294	0.0179680
785.372	0.0178125
785.450	0.0179700
785.529	0.0180199
785.607	0.0179812
785.685	0.0178585
785.763	0.0179325
785.841	0.0181242
785.919	0.0179565
785.997	0.0179416
786.075	0.0177921
786.154	0.0179267
786.232	0.0179382
786.310	0.0178364
786.388	0.0178294
786.466	0.0179621
786.544	0.0179551
786.622	0.0179351
786.700	0.0179186
786.779	0.0179741
786.857	0.0179049
786.935	0.0179610
787.013	0.0179313
787.091	0.0178561
787.169	0.0178796
787.247	0.0178107
787.325	0.0177399
787.404	0.0178992
787.482	0.0177855
787.560	0.0178878
787.638	0.0178329
787.716	0.0177647
787.794	0.0178189
787.872	0.0177993
787.950	0.0177354
788.029	0.0179210
788.107	0.0178259
788.185	0.0177864
788.263	0.0177721
788.341	0.0178161
788.419	0.0178503
788.497	0.0177803
788.575	0.0178336
788.654	0.0176890
788.732	0.0177789
788.810	0.0178107
788.888	0.0179572
788.966	0.0177984
789.044	0.0177873
789.122	0.0178551
789.200	0.0179369
789.279	0.0178607
789.357	0.0179222
789.435	0.0178609
789.513	0.0178500
789.591	0.0179346
789.669	0.0178877
789.747	0.0177995
789.825	0.0178979
789.904	0.0180190
789.982	0.0180808
790.060	0.0179735
790.138	0.0178776
790.216	0.0177293
790.294	0.0179397
790.372	0.0178265
790.450	0.0177148
790.529	0.0178645
790.607	0.0179195
790.685	0.0178389
790.763	0.0178397
790.841	0.0179845
790.919	0.0179581
790.997	0.0179296
791.075	0.0179038
791.154	0.0179584
791.232	0.0178957
791.310	0.0180332
791.388	0.0179335
791.466	0.0178443
791.544	0.0178146
791.622	0.0178997
791.700	0.0179088
791.779	0.0178222
791.857	0.0178727
791.935	0.0178650
792.013	0.0179177
792.091	0.0179020
792.169	0.0177911
792.247	0.0177257
792.325	0.0178996
792.404	0.0179260
792.482	0.0179696
792.560	0.0177715
792.638	0.0179877
792.716	0.0179617
792.794	0.0179166
792.872	0.0178632
792.950	0.0179333
793.029	0.0178876
793.107	0.0178871
793.185	0.0179254
793.263	0.0179849
793.341	0.0178493
793.419	0.0178584
793.497	0.0178901
793.575	0.0179199
793.654	0.0178477
793.732	0.0178519
793.810	0.0179280
793.888	0.0178314
793.966	0.0179060
794.044	0.0180115
794.122	0.0179243
794.200	0.0178505
794.279	0.0178970
794.357	0.0179258
794.435	0.0178603
794.513	0.0179175
794.591	0.0179308
794.669	0.0178323
794.747	0.0178749
794.825	0.0178362
794.904	0.0178801
794.982	0.0178407
795.060	0.0178971
795.138	0.0179152
795.216	0.0179889
795.294	0.0178479
795.372	0.0179827
795.450	0.0178955
795.529	0.0177757
795.607	0.0179507
795.685	0.0178294
795.763	0.0179781
795.841	0.0179230
795.919	0.0179288
795.997	0.0179333
796.075	0.0179569
796.154	0.0178688
796.232	0.0178469
796.310	0.0178588
796.388	0.0179914
796.466	0.0180040
796.544	0.0178412
796.622	0.0176465
796.700	0.0179031
796.779	0.0177872
796.857	0.0178278
796.935	0.0178233
797.013	0.0179556
797.091	0.0177858
797.169	0.0179085
797.247	0.0178490
797.325	0.0178553
797.404	0.0178028
797.482	0.0178795
797.560	0.0177007
797.638	0.0178014
797.716	0.0178426
797.794	0.0177045
797.872	0.0177528
797.950	0.0178981
798.029	0.0179456
798.107	0.0179241
798.185	0.0179449
798.263	0.0178770
798.341	0.0178321
798.419	0.0178539
798.497	0.0178113
798.575	0.0178964
798.654	0.0178751
798.732	0.0178311
798.810	0.0179365
798.888	0.0179131
798.966	0.0178349
799.044	0.0179415
799.122	0.0180607
799.200	0.0178050
799.279	0.0179025
799.357	0.0178767
799.435	0.0179684
799.513	0.0180254
799.591	0.0179172
799.669	0.0178609
799.747	0.0179520
799.825	0.0179311
799.904	0.0179604
799.982	0.0178623
800.060	0.0180042
800.138	0.0180401
800.216	0.0179726
800.294	0.0178107
800.372	0.0178844
800.450	0.0177699
800.529	0.0179182
800.607	0.0180505
800.685	0.0179768
800.763	0.0178088
800.841	0.0178560
800.919	0.0178712
800.997	0.0177891
801.075	0.0178376
801.154	0.0178754
801.232	0.0179195
801.310	0.0178805
801.388	0.0178445
801.466	0.0178642
801.544	0.0178928
801.622	0.0178271
801.700	0.0177743
801.779	0.0178086
801.857	0.0178735
801.935	0.0179054
802.013	0.0178164
802.091	0.0180281
802.169	0.0179128
802.247	0.0177623
802.325	0.0177532
802.404	0.0177834
802.482	0.0180074
802.560	0.0179820
802.638	0.0178847
802.716	0.0178094
802.794	0.0179085
802.872	0.0178239
802.950	0.0178770
803.029	0.0179587
803.107	0.0178941
803.185	0.0178580
803.263	0.0177371
803.341	0.0178058
803.419	0.0179240
803.497	0.0178291
803.575	0.0178690
803.654	0.0178455
803.732	0.0177506
803.810	0.0178463
803.888	0.0178474
803.966	0.0178053
804.044	0.0180676
804.122	0.0177811
804.200	0.0177909
804.279	0.0179317
804.357	0.0177013
804.435	0.0177769
804.513	0.0178209
804.591	0.0177778
804.669	0.0178139
804.747	0.0178571
804.825	0.0180296
804.904	0.0178384
804.982	0.0178315
805.060	0.0179741
805.138	0.0177187
805.216	0.0179688
805.294	0.0178700
805.372	0.0178757
805.450	0.0179321
805.529	0.0177981
805.607	0.0179330
805.685	0.0178904
805.763	0.0178442
805.841	0.0177818
805.919	0.0179214
805.997	0.0179539
806.075	0.0179444
806.154	0.0177884
806.232	0.0180289
806.310	0.0179356
806.388	0.0179620
806.466	0.0181311
806.544	0.0181321
806.622	0.0178075
806.700	0.0178677
806.779	0.0179715
806.857	0.0178846
806.935	0.0179311
807.013	0.0179119
807.091	0.0178880
807.169	0.0178659
807.247	0.0178909
807.325	0.0180261
807.404	0.0180132
807.482	0.0178802
807.560	0.0179661
807.638	0.0180179
807.716	0.0179745
807.794	0.0178822
807.872	0.0180527
807.950	0.0180955
808.029	0.0180208
808.107	0.0179699
808.185	0.0179671
808.263	0.0180470
808.341	0.0179870
808.419	0.0178825
808.497	0.0178165
808.575	0.0179653
808.654	0.0179483
808.732	0.0180040
808.810	0.0179325
808.888	0.0178471
808.966	0.0179101
809.044	0.0178262
809.122	0.0178507
809.200	0.0179610
809.279	0.0177747
809.357	0.0178144
809.435	0.0179499
809.513	0.0179442
809.591	0.0178331
809.669	0.0179948
809.747	0.0180086
809.825	0.0178531
809.904	0.0178416
809.982	0.0178053
810.060	0.0178852
810.138	0.0177763
810.216	0.0178815
810.294	0.0179401
810.372	0.0179582
810.450	0.0179406
810.529	0.0178560
810.607	0.0178690
810.685	0.0178500
810.763	0.0179308
810.841	0.0178945
810.919	0.0179279
810.997	0.0179266
811.075	0.0179945
811.154	0.0180266
811.232	0.0179330
811.310	0.0177708
811.388	0.0180538
811.466	0.0180319
811.544	0.0179408
811.622	0.0179226
811.700	0.0179595
811.779	0.0179298
811.857	0.0180804
811.935	0.0181181
812.013	0.0179661
812.091	0.0179743
812.169	0.0180441
812.247	0.0180361
812.325	0.0179826
812.404	0.0178228
812.482	0.0179121
812.560	0.0179716
812.638	0.0178874
812.716	0.0179208
812.794	0.0179657
812.872	0.0178258
812.950	0.0178509
813.029	0.0178798
813.107	0.0177541
813.185	0.0179297
813.263	0.0177388
813.341	0.0178306
813.419	0.0176936
813.497	0.0177432
813.575	0.0179348
813.654	0.0177465
813.732	0.0177505
813.810	0.0177402
813.888	0.0177543
813.966	0.0177196
814.044	0.0177476
814.122	0.0177489
814.200	0.0177509
814.279	0.0177254
814.357	0.0176591
814.435	0.0177567
814.513	0.0177993
814.591	0.0178832
814.669	0.0178072
814.747	0.0178274
814.825	0.0177964
814.904	0.0179620
814.982	0.0178961
815.060	0.0180610
815.138	0.0180748
815.216	0.0181242
815.294	0.0179070
815.372	0.0180618
815.450	0.0181635
815.529	0.0179903
815.607	0.0179394
815.685	0.0180883
815.763	0.0181409
815.841	0.0180724
815.919	0.0179224
815.997	0.0180138
816.075	0.0179992
816.154	0.0180402
816.232	0.0179707
816.310	0.0179987
816.388	0.0179475
816.466	0.0178735
816.544	0.0179488
816.622	0.0179054
816.700	0.0179959
816.779	0.0178971
816.857	0.0178396
816.935	0.0179121
817.013	0.0178059
817.091	0.0177175
817.169	0.0178167
817.247	0.0178661
817.325	0.0178092
817.404	0.0177562
817.482	0.0177435
817.560	0.0178255
817.638	0.0177869
817.716	0.0177522
817.794	0.0176523
817.872	0.0178175
817.950	0.0178426
818.029	0.0178168
818.107	0.0177639
818.185	0.0177912
818.263	0.0177522
818.341	0.0178082
818.419	0.0178368
818.497	0.0178540
818.575	0.0177864
818.654	0.0178766
818.732	0.0179594
818.810	0.0178886
818.888	0.0179237
818.966	0.0177866
819.044	0.0178700
819.122	0.0178628
819.200	0.0181080
819.279	0.0178850
819.357	0.0179932
819.435	0.0179624
819.513	0.0179651
819.591	0.0179613
819.669	0.0180155
819.747	0.0180366
819.825	0.0178929
819.904	0.0180002
819.982	0.0179781
820.060	0.0179410
820.138	0.0179176
820.216	0.0180576
820.294	0.0178174
820.372	0.0180453
820.450	0.0180029
820.529	0.0179413
820.607	0.0179293
820.685	0.0179923
820.763	0.0178987
820.841	0.0179834
820.919	0.0177892
820.997	0.0178912
821.075	0.0178760
821.154	0.0178035
821.232	0.0179391
821.310	0.0179501
821.388	0.0178214
821.466	0.0178056
821.544	0.0179348
821.622	0.0178690
821.700	0.0178522
821.779	0.0178797
821.857	0.0177260
821.935	0.0178503
822.013	0.0178650
822.091	0.0178547
822.169	0.0177444
822.247	0.0178512
822.325	0.0178232
822.404	0.0177086
822.482	0.0179025
822.560	0.0178551
822.638	0.0178703
822.716	0.0177737
822.794	0.0176888
822.872	0.0178071
822.950	0.0179237
823.029	0.0178638
823.107	0.0179820
823.185	0.0179070
823.263	0.0177539
823.341	0.0179159
823.419	0.0179118
823.497	0.0178962
823.575	0.0179446
823.654	0.0180912
823.732	0.0180091
823.810	0.0179380
823.888	0.0181438
823.966	0.0180901
824.044	0.0180846
824.122	0.0180202
824.200	0.0179055
824.279	0.0179525
824.357	0.0180180
824.435	0.0180336
824.513	0.0180966
824.591	0.0179350
824.669	0.0179865
824.747	0.0179475
824.825	0.0180159
824.904	0.0180352
824.982	0.0180396
825.060	0.0178938
825.138	0.0178957
825.216	0.0180015
825.294	0.0179443
825.372	0.0180148
825.450	0.0178770
825.529	0.0178522
825.607	0.0180206
825.685	0.0181032
825.763	0.0177804
825.841	0.0177596
825.919	0.0179336
825.997	0.0179105
826.075	0.0176634
826.154	0.0176518
826.232	0.0176761
826.310	0.0176467
826.388	0.0175963
826.466	0.0176481
826.544	0.0176752
826.622	0.0175178
826.700	0.0174749
826.779	0.0174957
826.857	0.0175453
826.935	0.0175732
827.013	0.0178064
827.091	0.0178253
827.169	0.0177576
827.247	0.0177836
827.325	0.0179187
827.404	0.0178463
827.482	0.0180232
827.560	0.0180061
827.638	0.0182219
827.716	0.0180515
827.794	0.0182090
827.872	0.0184208
827.950	0.0183187
828.029	0.0183018
828.107	0.0183546
828.185	0.0184379
828.263	0.0183325
828.341	0.0182691
828.419	0.0181769
828.497	0.0180846
828.575	0.0181519
828.654	0.0179704
828.732	0.0179765
828.810	0.0179690
828.888	0.0179877
828.966	0.0178036
829.044	0.0176980
829.122	0.0176924
829.200	0.0179002
829.279	0.0176868
829.357	0.0176448
829.435	0.0176770
829.513	0.0176716
829.591	0.0176957
829.669	0.0177893
829.747	0.0178782
829.825	0.0179386
829.904	0.0176412
829.982	0.0178264
830.060	0.0179485
830.138	0.0180053
830.216	0.0179830
830.294	0.0178930
830.372	0.0178543
830.450	0.0178719
830.529	0.0178743
830.607	0.0179846
830.685	0.0180508
830.763	0.0180205
830.841	0.0179396
830.919	0.0178734
830.997	0.0179032
831.075	0.0179282
831.154	0.0179704
831.232	0.0176625
831.310	0.0178352
831.388	0.0178686
831.466	0.0177862
831.544	0.0177683
831.622	0.0176962
831.700	0.0176794
831.779	0.0176205
831.857	0.0178409
831.935	0.0177515
832.013	0.0177312
832.091	0.0177073
832.169	0.0177610
832.247	0.0177590
832.325	0.0176898
832.404	0.0178613
832.482	0.0177065
832.560	0.0177653
832.638	0.0178992
832.716	0.0177942
832.794	0.0178730
832.872	0.0180145
832.950	0.0179181
833.029	0.0179356
833.107	0.0182073
833.185	0.0180415
833.263	0.0182118
833.341	0.0181921
833.419	0.0183228
833.497	0.0184010
833.575	0.0181828
833.654	0.0182716
833.732	0.0183958
833.810	0.0184389
833.888	0.0182186
833.966	0.0182193
834.044	0.0183321
834.122	0.0181667
834.200	0.0180424
834.279	0.0181790
834.357	0.0179113
834.435	0.0179935
834.513	0.0179056
834.591	0.0178802
834.669	0.0178343
834.747	0.0178409
834.825	0.0177202
834.904	0.0176620
834.982	0.0177962
835.060	0.0176608
835.138	0.0175491
835.216	0.0177528
835.294	0.0176553
835.372	0.0176950
835.450	0.0177200
835.529	0.0175801
835.607	0.0177611
835.685	0.0175720
835.763	0.0176847
835.841	0.0176620
835.919	0.0176077
835.997	0.0174475
836.075	0.0176549
836.154	0.0176501
836.232	0.0176265
836.310	0.0175861
836.388	0.0177122
836.466	0.0175383
836.544	0.0175955
836.622	0.0176663
836.700	0.0175212
836.779	0.0176048
836.857	0.0176612
836.935	0.0177345
837.013	0.0177657
837.091	0.0176732
837.169	0.0177406
837.247	0.0178310
837.325	0.0179359
837.404	0.0178599
837.482	0.0179654
837.560	0.0180022
837.638	0.0178818
837.716	0.0181070
837.794	0.0180161
837.872	0.0181784
837.950	0.0181689
838.029	0.0181312
838.107	0.0181391
838.185	0.0182207
838.263	0.0182260
838.341	0.0182373
838.419	0.0182890
838.497	0.0182250
838.575	0.0182018
838.654	0.0180507
838.732	0.0183070
838.810	0.0181315
838.888	0.0181239
838.966	0.0181371
839.044	0.0182456
839.122	0.0181671
839.200	0.0181465
839.279	0.0181256
839.357	0.0180432
839.435	0.0180269
839.513	0.0179298
839.591	0.0178434
839.669	0.0179579
839.747	0.0179430
839.825	0.0177882
839.904	0.0177441
839.982	0.0177944
840.060	0.0177384
840.138	0.0177991
840.216	0.0176536
840.294	0.0176810
840.372	0.0176558
840.450	0.0176154
840.529	0.0175868
840.607	0.0176862
840.685	0.0174695
840.763	0.0174841
840.841	0.0175968
840.919	0.0175527
840.997	0.0174995
841.075	0.0175743
841.154	0.0176453
841.232	0.0174683
841.310	0.0174838
841.388	0.0176636
841.466	0.0175347
841.544	0.0175752
841.622	0.0174643
841.700	0.0175143
841.779	0.0175668
841.857	0.0176653
841.935	0.0176699
842.013	0.0176671
842.091	0.0178107
842.169	0.0178682
842.247	0.0178713
842.325	0.0179604
842.404	0.0179515
842.482	0.0180636
842.560	0.0180383
842.638	0.0179893
842.716	0.0183220
842.794	0.0180600
842.872	0.0182187
842.950	0.0181800
843.029	0.0182829
843.107	0.0182969
843.185	0.0183864
843.263	0.0182449
843.341	0.0183053
843.419	0.0181881
843.497	0.0182713
843.575	0.0182456
843.654	0.0181942
843.732	0.0182228
843.810	0.0181827
843.888	0.0181264
843.966	0.0181890
844.044	0.0181175
844.122	0.0180242
844.200	0.0180785
844.279	0.0180574
844.357	0.0178246
844.435	0.0179046
844.513	0.0176557
844.591	0.0178736
844.669	0.0176559
844.747	0.0176830
844.825	0.0177807
844.904	0.0176907
844.982	0.0177094
845.060	0.0176368
845.138	0.0176391
845.216	0.0176863
845.294	0.0176979
845.372	0.0176463
845.450	0.0176360
845.529	0.0177456
845.607	0.0176920
845.685	0.0176031
845.763	0.0176646
845.841	0.0176996
845.919	0.0176007
845.997	0.0176858
846.075	0.0177075
846.154	0.0177869
846.232	0.0177155
846.310	0.0176396
846.388	0.0177208
846.466	0.0177292
846.544	0.0177565
846.622	0.0177388
846.700	0.0176266
846.779	0.0177720
846.857	0.0177560
846.935	0.0179089
847.013	0.0178235
847.091	0.0178100
847.169	0.0178556
847.247	0.0177555
847.325	0.0177875
847.404	0.0178216
847.482	0.0178735
847.560	0.0178726
847.638	0.0178061
847.716	0.0178732
847.794	0.0178737
847.872	0.0179981
847.950	0.0180688
848.029	0.0182951
848.107	0.0182060
848.185	0.0182546
848.263	0.0180814
848.341	0.0182935
848.419	0.0183628
848.497	0.0183121
848.575	0.0182720
848.654	0.0182666
848.732	0.0184021
848.810	0.0182587
848.888	0.0182943
848.966	0.0180827
849.044	0.0181441
849.122	0.0181736
849.200	0.0182079
849.279	0.0180714
849.357	0.0179135
849.435	0.0180814
849.513	0.0179407
849.591	0.0179835
849.669	0.0178352
849.747	0.0178712
849.825	0.0177643
849.904	0.0177612
849.982	0.0176587
850.060	0.0176252
850.138	0.0175610
850.216	0.0175536
850.294	0.0175860
850.372	0.0175813
850.450	0.0174113
850.529	0.0173794
850.607	0.0172311
850.685	0.0173029
850.763	0.0173972
850.841	0.0173486
850.919	0.0175002
850.997	0.0174877
851.075	0.0175269
851.154	0.0176077
851.232	0.0176517
851.310	0.0176793
851.388	0.0176771
851.466	0.0177335
851.544	0.0178848
851.622	0.0179201
851.700	0.0179024
851.779	0.0179539
851.857	0.0179933
851.935	0.0179474
852.013	0.0179276
852.091	0.0180721
852.169	0.0180604
852.247	0.0180120
852.325	0.0178815
852.404	0.0179804
852.482	0.0180983
852.560	0.0180060
852.638	0.0179899
852.716	0.0180042
852.794	0.0178768
852.872	0.0178706
852.950	0.0180234
853.029	0.0177806
853.107	0.0180012
853.185	0.0179606
853.263	0.0178326
853.341	0.0179572
853.419	0.0179638
853.497	0.0179478
853.575	0.0178925
853.654	0.0179414
853.732	0.0179665
853.810	0.0179839
853.888	0.0180592
853.966	0.0178935
854.044	0.0178261
854.122	0.0178654
854.200	0.0180448
854.279	0.0180309
854.357	0.0178792
854.435	0.0180878
854.513	0.0180000
854.591	0.0179654
854.669	0.0180764
854.747	0.0180882
854.825	0.0180872
854.904	0.0180264
854.982	0.0181272
855.060	0.0180563
855.138	0.0180343
855.216	0.0179740
855.294	0.0177772
855.372	0.0178900
855.450	0.0179021
855.529	0.0178518
855.607	0.0179650
855.685	0.0178516
855.763	0.0178000
855.841	0.0177824
855.919	0.0178201
855.997	0.0177507
856.075	0.0177090
856.154	0.0177474
856.232	0.0177903
856.310	0.0176784
856.388	0.0175823
856.466	0.0176392
856.544	0.0177355
856.622	0.0177488
856.700	0.0177824
856.779	0.0177831
856.857	0.0177928
856.935	0.0177947
857.013	0.0176803
857.091	0.0177844
857.169	0.0178149
857.247	0.0177677
857.325	0.0176675
857.404	0.0177135
857.482	0.0177800
857.560	0.0176732
857.638	0.0176940
857.716	0.0176282
857.794	0.0177881
857.872	0.0176534
857.950	0.0178400
858.029	0.0178841
858.107	0.0178055
858.185	0.0179001
858.263	0.0180370
858.341	0.0180293
858.419	0.0180322
858.497	0.0180170
858.575	0.0180148
858.654	0.0180098
858.732	0.0180383
858.810	0.0180364
858.888	0.0181213
858.966	0.0181807
859.044	0.0181028
859.122	0.0181754
859.200	0.0180791
859.279	0.0179832
859.357	0.0179148
859.435	0.0178313
859.513	0.0179776
859.591	0.0180080
859.669	0.0179725
859.747	0.0179017
859.825	0.0178542
859.904	0.0178350
859.982	0.0178442
860.060	0.0179052
860.138	0.0179004
860.216	0.0179224
860.294	0.0178928
860.372	0.0179936
860.450	0.0179021
860.529	0.0180178
860.607	0.0180010
860.685	0.0179078
860.763	0.0181081
860.841	0.0180167
860.919	0.0180730
860.997	0.0181285
861.075	0.0179787
861.154	0.0180260
861.232	0.0180163
861.310	0.0180570
861.388	0.0179801
861.466	0.0178423
861.544	0.0179877
861.622	0.0179084
861.700	0.0178331
861.779	0.0179755
861.857	0.0178783
861.935	0.0177398
862.013	0.0176741
862.091	0.0177630
862.169	0.0176281
862.247	0.0175673
862.325	0.0177496
862.404	0.0178132
862.482	0.0176516
862.560	0.0176396
862.638	0.0177191
862.716	0.0176325
862.794	0.0177401
862.872	0.0175261
862.950	0.0176992
863.029	0.0176820
863.107	0.0176344
863.185	0.0176147
863.263	0.0176461
863.341	0.0176577
863.419	0.0177264
863.497	0.0177900
863.575	0.0177699
863.654	0.0178335
863.732	0.0176321
863.810	0.0176756
863.888	0.0177520
863.966	0.0178875
864.044	0.0178854
864.122	0.0178098
864.200	0.0177222
864.279	0.0177977
864.357	0.0178271
864.435	0.0179878
864.513	0.0180911
864.591	0.0180380
864.669	0.0179773
864.747	0.0180679
864.825	0.0181551
864.904	0.0181162
864.982	0.0180689
865.060	0.0181441
865.138	0.0179543
865.216	0.0180431
865.294	0.0181308
865.372	0.0180318
865.450	0.0180058
865.529	0.0180463
865.607	0.0181161
865.685	0.0180390
865.763	0.0180410
865.841	0.0179481
865.919	0.0180742
865.997	0.0179834
866.075	0.0179999
866.154	0.0179682
866.232	0.0179787
866.310	0.0179603
866.388	0.0179596
866.466	0.0180467
866.544	0.0180363
866.622	0.0180317
866.700	0.0178106
866.779	0.0179054
866.857	0.0179792
866.935	0.0178854
867.013	0.0180870
867.091	0.0179642
867.169	0.0177963
867.247	0.0177637
867.325	0.0177496
867.404	0.0179028
867.482	0.0177759
867.560	0.0178499
867.638	0.0178262
867.716	0.0178485
867.794	0.0177382
867.872	0.0178969
867.950	0.0178110
868.029	0.0178841
868.107	0.0177574
868.185	0.0178349
868.263	0.0177653
868.341	0.0178821
868.419	0.0176958
868.497	0.0176727
868.575	0.0177427
868.654	0.0179216
868.732	0.0178565
868.810	0.0178640
868.888	0.0177792
868.966	0.0177879
869.044	0.0178304
869.122	0.0178451
869.200	0.0177796
869.279	0.0178017
869.357	0.0178713
869.435	0.0179282
869.513	0.0178851
869.591	0.0178848
869.669	0.0177774
869.747	0.0177399
869.825	0.0179304
869.904	0.0177835
869.982	0.0177616
870.060	0.0179100
870.138	0.0178419
870.216	0.0178838
870.294	0.0179568
870.372	0.0178728
870.450	0.0179177
870.529	0.0179055
870.607	0.0178843
870.685	0.0179485
870.763	0.0178513
870.841	0.0178717
870.919	0.0179296
870.997	0.0179182
871.075	0.0180002
871.154	0.0179832
871.232	0.0178291
871.310	0.0180453
871.388	0.0178883
871.466	0.0180389
871.544	0.0179935
871.622	0.0179173
871.700	0.0179330
871.779	0.0179826
871.857	0.0180161
871.935	0.0180260
872.013	0.0180100
872.091	0.0180074
872.169	0.0178674
872.247	0.0180104
872.325	0.0180700
872.404	0.0179627
872.482	0.0179527
872.560	0.0179660
872.638	0.0179810
872.716	0.0180140
872.794	0.0179661
872.872	0.0179882
872.950	0.0178934
873.029	0.0178384
873.107	0.0177324
873.185	0.0177893
873.263	0.0177858
873.341	0.0179098
873.419	0.0178764
873.497	0.0179449
873.575	0.0177788
873.654	0.0178888
873.732	0.0179114
873.810	0.0179639
873.888	0.0179322
873.966	0.0177293
874.044	0.0177924
874.122	0.0179550
874.200	0.0179861
874.279	0.0179794
874.357	0.0178175
874.435	0.0179401
874.513	0.0178790
874.591	0.0178005
874.669	0.0178382
874.747	0.0177167
874.825	0.0178084
874.904	0.0178850
874.982	0.0178602
875.060	0.0179501
875.138	0.0179671
875.216	0.0179259
875.294	0.0178621
875.372	0.0179924
875.450	0.0178965
875.529	0.0179140
875.607	0.0179768
875.685	0.0177581
875.763	0.0177670
875.841	0.0178447
875.919	0.0178824
875.997	0.0176836
876.075	0.0178510
876.154	0.0177208
876.232	0.0178435
876.310	0.0178831
876.388	0.0178806
876.466	0.0178220
876.544	0.0176978
876.622	0.0177592
876.700	0.0178180
876.779	0.0178020
876.857	0.0178034
876.935	0.0178024
877.013	0.0178373
877.091	0.0176784
877.169	0.0178593
877.247	0.0178439
877.325	0.0178419
877.404	0.0179483
877.482	0.0179015
877.560	0.0178117
877.638	0.0179609
877.716	0.0180827
877.794	0.0179773
877.872	0.0180318
877.950	0.0179708
878.029	0.0180218
878.107	0.0181864
878.185	0.0181860
878.263	0.0181502
878.341	0.0180506
878.419	0.0179459
878.497	0.0180574
878.575	0.0179065
878.654	0.0180085
878.732	0.0179995
878.810	0.0180247
878.888	0.0180139
878.966	0.0179471
879.044	0.0180643
879.122	0.0179086
879.200	0.0178664
879.279	0.0178389
879.357	0.0177903
879.435	0.0178790
879.513	0.0178705
879.591	0.0177135
879.669	0.0177896
879.747	0.0178625
879.825	0.0179578
879.904	0.0178062
879.982	0.0177097
880.060	0.0178001
880.138	0.0177656
880.216	0.0178765
880.294	0.0178917
880.372	0.0178101
880.450	0.0178683
880.529	0.0179182
880.607	0.0179102
880.685	0.0177962
880.763	0.0179507
880.841	0.0178931
880.919	0.0177696
880.997	0.0178543
881.075	0.0178813
881.154	0.0179832
881.232	0.0179893
881.310	0.0178746
881.388	0.0179656
881.466	0.0178996
881.544	0.0179609
881.622	0.0179216
881.700	0.0178590
881.779	0.0178166
881.857	0.0177090
881.935	0.0179755
882.013	0.0179144
882.091	0.0179395
882.169	0.0178635
882.247	0.0177816
882.325	0.0178665
882.404	0.0179304
882.482	0.0178230
882.560	0.0176726
882.638	0.0177954
882.716	0.0178590
882.794	0.0179185
882.872	0.0178922
882.950	0.0178606
883.029	0.0179018
883.107	0.0180186
883.185	0.0179191
883.263	0.0178702
883.341	0.0179513
883.419	0.0178792
883.497	0.0178736
883.575	0.0179562
883.654	0.0180591
883.732	0.0179692
883.810	0.0178818
883.888	0.0179631
883.966	0.0180682
884.044	0.0180386
884.122	0.0179166
884.200	0.0179034
884.279	0.0178902
884.357	0.0179354
884.435	0.0179877
884.513	0.0179385
884.591	0.0179807
884.669	0.0179512
884.747	0.0178603
884.825	0.0179387
884.904	0.0179743
884.982	0.0178649
885.060	0.0180396
885.138	0.0180463
885.216	0.0178249
885.294	0.0179757
885.372	0.0180092
885.450	0.0178693
885.529	0.0180693
885.607	0.0179789
885.685	0.0178634
885.763	0.0178463
885.841	0.0178570
885.919	0.0178577
885.997	0.0178519
886.075	0.0180634
886.154	0.0180077
886.232	0.0177859
886.310	0.0178069
886.388	0.0177295
886.466	0.0178434
886.544	0.0179190
886.622	0.0179059
886.700	0.0176419
886.779	0.0176217
886.857	0.0176710
886.935	0.0177669
887.013	0.0178134
887.091	0.0178989
887.169	0.0178578
887.247	0.0176766
887.325	0.0178027
887.404	0.0178799
887.482	0.0178809
887.560	0.0178322
887.638	0.0177850
887.716	0.0177700
887.794	0.0179201
887.872	0.0179145
887.950	0.0179134
888.029	0.0179636
888.107	0.0178983
888.185	0.0179741
888.263	0.0179495
888.341	0.0180000
888.419	0.0179813
888.497	0.0179628
888.575	0.0179146
888.654	0.0178489
888.732	0.0179225
888.810	0.0180319
888.888	0.0178444
888.966	0.0180090
889.044	0.0178944
889.122	0.0178691
889.200	0.0179024
889.279	0.0178242
889.357	0.0179076
889.435	0.0178384
889.513	0.0178086
889.591	0.0179453
889.669	0.0178889
889.747	0.0178502
889.825	0.0178986
889.904	0.0180161
889.982	0.0178507
890.060	0.0178959
890.138	0.0180171
890.216	0.0178729
890.294	0.0178948
890.372	0.0179289
890.450	0.0178351
890.529	0.0178931
890.607	0.0177804
890.685	0.0178876
890.763	0.0178607
890.841	0.0177390
890.919	0.0177120
890.997	0.0178284
891.075	0.0177636
891.154	0.0175974
891.232	0.0179062
891.310	0.0178238
891.388	0.0178035
891.466	0.0178091
891.544	0.0179168
891.622	0.0178810
891.700	0.0178239
891.779	0.0177944
891.857	0.0177435
891.935	0.0178836
892.013	0.0178761
892.091	0.0178427
892.169	0.0179697
892.247	0.0180032
892.325	0.0178719
892.404	0.0178793
892.482	0.0179885
892.560	0.0178854
892.638	0.0179320
892.716	0.0179252
892.794	0.0179612
892.872	0.0179485
892.950	0.0180524
893.029	0.0180169
893.107	0.0178273
893.185	0.0178313
893.263	0.0178894
893.341	0.0179892
893.419	0.0179273
893.497	0.0179324
893.575	0.0179796
893.654	0.0179250
893.732	0.0178898
893.810	0.0177962
893.888	0.0180834
893.966	0.0179362
894.044	0.0178902
894.122	0.0179980
894.200	0.0178763
894.279	0.0179642
894.357	0.0179446
894.435	0.0178948
894.513	0.0178751
894.591	0.0178308
894.669	0.0178245
894.747	0.0177827
894.825	0.0178313
894.904	0.0177129
894.982	0.0179516
895.060	0.0179633
895.138	0.0177847
895.216	0.0178253
895.294	0.0179007
895.372	0.0177666
895.450	0.0178117
895.529	0.0178866
895.607	0.0178484
895.685	0.0177848
895.763	0.0178113
895.841	0.0178835
895.919	0.0179019
895.997	0.0177581
896.075	0.0177103
896.154	0.0178606
896.232	0.0178067
896.310	0.0178326
896.388	0.0177944
896.466	0.0178909
896.544	0.0177943
896.622	0.0177934
896.700	0.0177512
896.779	0.0178293
896.857	0.0178211
896.935	0.0177290
897.013	0.0178146
897.091	0.0178281
897.169	0.0178428
897.247	0.0179985
897.325	0.0179470
897.404	0.0178223
897.482	0.0179272
897.560	0.0178518
897.638	0.0178336
897.716	0.0178934
897.794	0.0178600
897.872	0.0178642
897.950	0.0177903
898.029	0.0178471
898.107	0.0179172
898.185	0.0177557
898.263	0.0176634
898.341	0.0178070
898.419	0.0177417
898.497	0.0178194
898.575	0.0177127
898.654	0.0177199
898.732	0.0176957
898.810	0.0177979
898.888	0.0178501
898.966	0.0178675
899.044	0.0179623
899.122	0.0178348
899.200	0.0180182
899.279	0.0178641
899.357	0.0178915
899.435	0.0180857
899.513	0.0179592
899.591	0.0179774
899.669	0.0180289
899.747	0.0181067
899.825	0.0180241
899.904	0.0179723
899.982	0.0180891
900.060	0.0180820
900.138	0.0180123
900.216	0.0179722
900.294	0.0179743
900.372	0.0180218
900.450	0.0180514
900.529	0.0179528
900.607	0.0180212
900.685	0.0179540
900.763	0.0179997
900.841	0.0179528
900.919	0.0179122
900.997	0.0177963
901.075	0.0178483
901.154	0.0179459
901.232	0.0178693
901.310	0.0176306
901.388	0.0179205
901.466	0.0178435
901.544	0.0177557
901.622	0.0178778
901.700	0.0177259
901.779	0.0176704
901.857	0.0177889
901.935	0.0177608
902.013	0.0177392
902.091	0.0177901
902.169	0.0178172
902.247	0.0178175
902.325	0.0178059
902.404	0.0178156
902.482	0.0178230
902.560	0.0178225
902.638	0.0178326
902.716	0.0177103
902.794	0.0179366
902.872	0.0176830
902.950	0.0178910
903.029	0.0178590
903.107	0.0177554
903.185	0.0178303
903.263	0.0177441
903.341	0.0179479
903.419	0.0179664
903.497	0.0178800
903.575	0.0180363
903.654	0.0177814
903.732	0.0177765
903.810	0.0180894
903.888	0.0180843
903.966	0.0179311
904.044	0.0178875
904.122	0.0178339
904.200	0.0178738
904.279	0.0178862
904.357	0.0179599
904.435	0.0179218
904.513	0.0177122
904.591	0.0179057
904.669	0.0177760
904.747	0.0178928
904.825	0.0177758
904.904	0.0178140
904.982	0.0176669
905.060	0.0178171
905.138	0.0178883
905.216	0.0178063
905.294	0.0177705
905.372	0.0178370
905.450	0.0178310
905.529	0.0178607
905.607	0.0179935
905.685	0.0179529
905.763	0.0180469
905.841	0.0178107
905.919	0.0179628
905.997	0.0178970
906.075	0.0179109
906.154	0.0178937
906.232	0.0179775
906.310	0.0179812
906.388	0.0179770
906.466	0.0179153
906.544	0.0178963
906.622	0.0179122
906.700	0.0180109
906.779	0.0180138
906.857	0.0180032
906.935	0.0179227
907.013	0.0179415
907.091	0.0180161
907.169	0.0178629
907.247	0.0178542
907.325	0.0178876
907.404	0.0179410
907.482	0.0179913
907.560	0.0179067
907.638	0.0179160
907.716	0.0177904
907.794	0.0179141
907.872	0.0178255
907.950	0.0179205
908.029	0.0177347
908.107	0.0178255
908.185	0.0179493
908.263	0.0179446
908.341	0.0179417
908.419	0.0178298
908.497	0.0178852
908.575	0.0177319
908.654	0.0178418
908.732	0.0179346
908.810	0.0178020
908.888	0.0177628
908.966	0.0177689
909.044	0.0179236
909.122	0.0178124
909.200	0.0178177
909.279	0.0178845
909.357	0.0178927
909.435	0.0177869
909.513	0.0178760
909.591	0.0179893
909.669	0.0179887
909.747	0.0179654
909.825	0.0178645
909.904	0.0180099
909.982	0.0179071
910.060	0.0178510
910.138	0.0179472
910.216	0.0178448
910.294	0.0180320
910.372	0.0179096
910.450	0.0178368
910.529	0.0178378
910.607	0.0176780
910.685	0.0177847
910.763	0.0178545
910.841	0.0177602
910.919	0.0179185
910.997	0.0178803
911.075	0.0178258
911.154	0.0178501
911.232	0.0177626
911.310	0.0178304
911.388	0.0177695
911.466	0.0178535
911.544	0.0178754
911.622	0.0178646
911.700	0.0179166
911.779	0.0178048
911.857	0.0177763
911.935	0.0178822
912.013	0.0177966
912.091	0.0177751
912.169	0.0178804
912.247	0.0178038
912.325	0.0179007
912.404	0.0178136
912.482	0.0177467
912.560	0.0179008
912.638	0.0179455
912.716	0.0178797
912.794	0.0178380
912.872	0.0179372
912.950	0.0178104
913.029	0.0178046
913.107	0.0179391
913.185	0.0178688
913.263	0.0177035
913.341	0.0178086
913.419	0.0178281
913.497	0.0178750
913.575	0.0178108
913.654	0.0178740
913.732	0.0178102
913.810	0.0177757
913.888	0.0177592
913.966	0.0178150
914.044	0.0178297
914.122	0.0178617
914.200	0.0178898
914.279	0.0179110
914.357	0.0179974
914.435	0.0178436
914.513	0.0179536
914.591	0.0179739
914.669	0.0181532
914.747	0.0180631
914.825	0.0179037
914.904	0.0181108
914.982	0.0181074
915.060	0.0180760
915.138	0.0181863
915.216	0.0179542
915.294	0.0179225
915.372	0.0180063
915.450	0.0178877
915.529	0.0179249
915.607	0.0179388
915.685	0.0178951
915.763	0.0178034
915.841	0.0179024
915.919	0.0178325
915.997	0.0178005
916.075	0.0179279
916.154	0.0178064
916.232	0.0176695
916.310	0.0179539
916.388	0.0178251
916.466	0.0177163
916.544	0.0178382
916.622	0.0178471
916.700	0.0176703
916.779	0.0179202
916.857	0.0178976
916.935	0.0178631
917.013	0.0177733
917.091	0.0177812
917.169	0.0176955
917.247	0.0176785
917.325	0.0176481
917.404	0.0178761
917.482	0.0177985
917.560	0.0177622
917.638	0.0178110
917.716	0.0177477
917.794	0.0177168
917.872	0.0175686
917.950	0.0176742
918.029	0.0178295
918.107	0.0176743
918.185	0.0176608
918.263	0.0178248
918.341	0.0177768
918.419	0.0177682
918.497	0.0177596
918.575	0.0177039
918.654	0.0177876
918.732	0.0178645
918.810	0.0178864
918.888	0.0178268
918.966	0.0178516
919.044	0.0178764
919.122	0.0178746
919.200	0.0180314
919.279	0.0179308
919.357	0.0179731
919.435	0.0179537
919.513	0.0179680
919.591	0.0179343
919.669	0.0180757
919.747	0.0181001
919.825	0.0179873
919.904	0.0179755
