06/01/2022	17:24:29	Ver.	4.1	UNKNOWN
Optical Delay	599.975067	Delta X		0.078125	Sweeps	1	Scan Rate	0/0
Coordinates	Axis 1	NaN	Axis 2	NaN	Axis 3	NaN	Axis 4	NaN	Axis 5	NaN	Axis 6	0.000000
TX Power	0.000000	RX Power	0.000000

599.975	0.0161738
600.053	0.0161331
600.131	0.0162303
600.209	0.0161739
600.288	0.0163801
600.366	0.0163091
600.444	0.0161268
600.522	0.0161860
600.600	0.0161513
600.678	0.0162322
600.756	0.0161149
600.834	0.0161801
600.913	0.0161327
600.991	0.0161091
601.069	0.0162619
601.147	0.0161362
601.225	0.0162442
601.303	0.0161411
601.381	0.0161212
601.459	0.0161148
601.538	0.0161179
601.616	0.0161115
601.694	0.0160950
601.772	0.0161801
601.850	0.0159920
601.928	0.0159620
602.006	0.0160219
602.084	0.0160113
602.163	0.0159743
602.241	0.0161148
602.319	0.0160099
602.397	0.0160761
602.475	0.0163192
602.553	0.0161948
602.631	0.0161043
602.709	0.0160821
602.788	0.0161356
602.866	0.0162081
602.944	0.0162141
603.022	0.0162212
603.100	0.0161917
603.178	0.0162238
603.256	0.0161376
603.334	0.0161967
603.413	0.0162218
603.491	0.0162672
603.569	0.0161457
603.647	0.0161802
603.725	0.0163044
603.803	0.0160773
603.881	0.0162346
603.959	0.0163253
604.038	0.0162234
604.116	0.0162912
604.194	0.0162605
604.272	0.0161690
604.350	0.0162675
604.428	0.0161313
604.506	0.0161490
604.584	0.0161398
604.663	0.0161277
604.741	0.0161729
604.819	0.0160963
604.897	0.0162702
604.975	0.0162184
605.053	0.0160612
605.131	0.0161786
605.209	0.0161753
605.288	0.0162309
605.366	0.0162646
605.444	0.0162237
605.522	0.0164135
605.600	0.0161494
605.678	0.0160455
605.756	0.0162404
605.834	0.0161731
605.913	0.0162333
605.991	0.0161105
606.069	0.0161536
606.147	0.0161987
606.225	0.0161430
606.303	0.0160487
606.381	0.0161485
606.459	0.0159882
606.538	0.0162190
606.616	0.0162741
606.694	0.0160934
606.772	0.0161330
606.850	0.0160526
606.928	0.0161199
607.006	0.0160527
607.084	0.0161327
607.163	0.0162421
607.241	0.0161677
607.319	0.0161337
607.397	0.0160497
607.475	0.0163050
607.553	0.0161697
607.631	0.0162367
607.709	0.0162257
607.788	0.0162582
607.866	0.0162836
607.944	0.0161607
608.022	0.0161749
608.100	0.0161225
608.178	0.0163029
608.256	0.0162581
608.334	0.0161626
608.413	0.0160996
608.491	0.0162578
608.569	0.0162846
608.647	0.0161713
608.725	0.0161365
608.803	0.0162154
608.881	0.0162182
608.959	0.0162328
609.038	0.0162457
609.116	0.0160709
609.194	0.0162432
609.272	0.0161268
609.350	0.0162351
609.428	0.0163264
609.506	0.0161514
609.584	0.0162022
609.663	0.0162297
609.741	0.0161382
609.819	0.0161828
609.897	0.0161401
609.975	0.0162095
610.053	0.0162287
610.131	0.0162816
610.209	0.0162482
610.288	0.0161222
610.366	0.0161023
610.444	0.0161414
610.522	0.0161437
610.600	0.0161582
610.678	0.0161356
610.756	0.0162075
610.834	0.0162161
610.913	0.0162246
610.991	0.0161940
611.069	0.0162585
611.147	0.0162441
611.225	0.0161995
611.303	0.0160814
611.381	0.0161698
611.459	0.0162082
611.538	0.0162049
611.616	0.0161284
611.694	0.0162376
611.772	0.0162792
611.850	0.0162425
611.928	0.0161253
612.006	0.0161872
612.084	0.0163132
612.163	0.0162495
612.241	0.0163138
612.319	0.0162702
612.397	0.0162378
612.475	0.0161886
612.553	0.0161980
612.631	0.0162149
612.709	0.0162163
612.788	0.0162523
612.866	0.0163148
612.944	0.0162399
613.022	0.0161298
613.100	0.0163784
613.178	0.0161978
613.256	0.0160691
613.334	0.0163195
613.413	0.0161775
613.491	0.0161888
613.569	0.0162544
613.647	0.0161864
613.725	0.0161784
613.803	0.0160909
613.881	0.0162223
613.959	0.0162724
614.038	0.0161903
614.116	0.0161088
614.194	0.0161331
614.272	0.0161719
614.350	0.0162135
614.428	0.0162576
614.506	0.0162051
614.584	0.0160787
614.663	0.0160831
614.741	0.0161544
614.819	0.0161819
614.897	0.0161288
614.975	0.0162144
615.053	0.0161006
615.131	0.0160886
615.209	0.0160619
615.288	0.0160938
615.366	0.0161887
615.444	0.0161967
615.522	0.0162777
615.600	0.0161963
615.678	0.0161680
615.756	0.0160761
615.834	0.0161550
615.913	0.0162234
615.991	0.0161885
616.069	0.0162443
616.147	0.0162299
616.225	0.0162341
616.303	0.0162228
616.381	0.0161501
616.459	0.0162445
616.538	0.0161137
616.616	0.0162064
616.694	0.0160726
616.772	0.0160979
616.850	0.0160697
616.928	0.0162172
617.006	0.0162157
617.084	0.0161617
617.163	0.0162657
617.241	0.0162288
617.319	0.0161124
617.397	0.0162478
617.475	0.0161441
617.553	0.0160894
617.631	0.0161308
617.709	0.0162214
617.788	0.0162285
617.866	0.0162881
617.944	0.0161803
618.022	0.0161865
618.100	0.0162060
618.178	0.0162877
618.256	0.0162051
618.334	0.0163710
618.413	0.0162418
618.491	0.0160237
618.569	0.0160829
618.647	0.0161675
618.725	0.0161294
618.803	0.0161196
618.881	0.0161693
618.959	0.0162746
619.038	0.0162309
619.116	0.0162418
619.194	0.0161466
619.272	0.0162178
619.350	0.0161912
619.428	0.0161311
619.506	0.0161989
619.584	0.0161760
619.663	0.0161871
619.741	0.0161670
619.819	0.0162788
619.897	0.0162554
619.975	0.0160929
620.053	0.0162254
620.131	0.0162082
620.209	0.0161433
620.288	0.0161559
620.366	0.0161377
620.444	0.0161464
620.522	0.0161335
620.600	0.0161226
620.678	0.0161555
620.756	0.0161893
620.834	0.0162605
620.913	0.0161826
620.991	0.0161877
621.069	0.0161727
621.147	0.0162981
621.225	0.0162132
621.303	0.0162031
621.381	0.0162189
621.459	0.0162185
621.538	0.0161328
621.616	0.0161911
621.694	0.0161012
621.772	0.0161124
621.850	0.0160870
621.928	0.0161137
622.006	0.0161588
622.084	0.0162245
622.163	0.0161787
622.241	0.0161929
622.319	0.0161882
622.397	0.0162971
622.475	0.0161798
622.553	0.0161766
622.631	0.0162009
622.709	0.0160778
622.788	0.0161217
622.866	0.0161092
622.944	0.0161855
623.022	0.0161222
623.100	0.0161175
623.178	0.0161791
623.256	0.0161636
623.334	0.0161527
623.413	0.0163255
623.491	0.0161936
623.569	0.0161755
623.647	0.0161304
623.725	0.0162260
623.803	0.0161948
623.881	0.0163037
623.959	0.0162085
624.038	0.0161808
624.116	0.0162399
624.194	0.0162541
624.272	0.0162016
624.350	0.0161234
624.428	0.0160945
624.506	0.0162720
624.584	0.0160677
624.663	0.0161646
624.741	0.0161658
624.819	0.0161392
624.897	0.0161604
624.975	0.0161967
625.053	0.0162766
625.131	0.0162865
625.209	0.0160933
625.288	0.0160639
625.366	0.0161597
625.444	0.0162014
625.522	0.0162835
625.600	0.0162074
625.678	0.0161701
625.756	0.0161956
625.834	0.0161703
625.913	0.0160796
625.991	0.0160884
626.069	0.0161880
626.147	0.0161494
626.225	0.0162137
626.303	0.0162181
626.381	0.0163234
626.459	0.0161219
626.538	0.0161032
626.616	0.0162279
626.694	0.0160752
626.772	0.0162090
626.850	0.0162120
626.928	0.0160490
627.006	0.0161171
627.084	0.0160930
627.163	0.0162009
627.241	0.0162483
627.319	0.0160490
627.397	0.0161456
627.475	0.0161697
627.553	0.0161679
627.631	0.0162156
627.709	0.0162402
627.788	0.0162367
627.866	0.0160616
627.944	0.0161263
628.022	0.0162767
628.100	0.0160255
628.178	0.0161998
628.256	0.0162941
628.334	0.0161509
628.413	0.0161120
628.491	0.0161649
628.569	0.0162008
628.647	0.0162157
628.725	0.0161401
628.803	0.0161107
628.881	0.0161284
628.959	0.0161169
629.038	0.0161755
629.116	0.0162250
629.194	0.0162759
629.272	0.0161337
629.350	0.0161546
629.428	0.0161483
629.506	0.0161000
629.584	0.0161665
629.663	0.0161420
629.741	0.0161349
629.819	0.0161017
629.897	0.0161903
629.975	0.0161089
630.053	0.0161015
630.131	0.0162673
630.209	0.0161292
630.288	0.0161116
630.366	0.0162631
630.444	0.0161812
630.522	0.0161373
630.600	0.0162030
630.678	0.0161802
630.756	0.0162135
630.834	0.0160759
630.913	0.0162312
630.991	0.0163406
631.069	0.0161841
631.147	0.0161174
631.225	0.0160001
631.303	0.0161337
631.381	0.0161526
631.459	0.0162493
631.538	0.0161290
631.616	0.0160503
631.694	0.0161323
631.772	0.0162862
631.850	0.0161787
631.928	0.0160907
632.006	0.0161742
632.084	0.0162553
632.163	0.0161617
632.241	0.0162167
632.319	0.0162575
632.397	0.0161163
632.475	0.0161402
632.553	0.0161897
632.631	0.0161382
632.709	0.0161739
632.788	0.0162827
632.866	0.0161971
632.944	0.0159563
633.022	0.0161742
633.100	0.0162605
633.178	0.0161205
633.256	0.0160564
633.334	0.0160463
633.413	0.0161485
633.491	0.0162072
633.569	0.0161153
633.647	0.0162064
633.725	0.0161393
633.803	0.0161203
633.881	0.0162081
633.959	0.0161363
634.038	0.0161707
634.116	0.0161343
634.194	0.0160371
634.272	0.0161547
634.350	0.0162499
634.428	0.0162277
634.506	0.0161436
634.584	0.0161716
634.663	0.0162196
634.741	0.0162820
634.819	0.0160659
634.897	0.0162298
634.975	0.0161782
635.053	0.0163445
635.131	0.0162265
635.209	0.0160783
635.288	0.0160615
635.366	0.0161080
635.444	0.0160857
635.522	0.0161063
635.600	0.0161828
635.678	0.0160973
635.756	0.0161584
635.834	0.0161095
635.913	0.0162267
635.991	0.0161197
636.069	0.0162871
636.147	0.0161917
636.225	0.0160966
636.303	0.0160704
636.381	0.0161723
636.459	0.0162072
636.538	0.0162154
636.616	0.0161786
636.694	0.0161582
636.772	0.0162215
636.850	0.0162341
636.928	0.0161382
637.006	0.0161864
637.084	0.0162360
637.163	0.0162640
637.241	0.0161565
637.319	0.0161054
637.397	0.0162021
637.475	0.0160551
637.553	0.0161457
637.631	0.0161675
637.709	0.0160598
637.788	0.0161313
637.866	0.0161897
637.944	0.0161774
638.022	0.0161463
638.100	0.0161319
638.178	0.0160905
638.256	0.0160986
638.334	0.0161886
638.413	0.0162900
638.491	0.0162431
638.569	0.0161007
638.647	0.0160850
638.725	0.0161478
638.803	0.0162543
638.881	0.0163035
638.959	0.0160661
639.038	0.0161763
639.116	0.0162300
639.194	0.0162899
639.272	0.0162236
639.350	0.0161482
639.428	0.0162376
639.506	0.0161419
639.584	0.0161526
639.663	0.0160707
639.741	0.0163346
639.819	0.0161414
639.897	0.0161708
639.975	0.0161541
640.053	0.0160523
640.131	0.0162332
640.209	0.0162299
640.288	0.0162000
640.366	0.0162370
640.444	0.0161543
640.522	0.0162422
640.600	0.0162446
640.678	0.0162514
640.756	0.0162644
640.834	0.0160545
640.913	0.0162830
640.991	0.0161845
641.069	0.0161118
641.147	0.0161946
641.225	0.0162672
641.303	0.0162373
641.381	0.0162463
641.459	0.0161619
641.538	0.0160995
641.616	0.0162553
641.694	0.0161005
641.772	0.0161005
641.850	0.0161194
641.928	0.0161718
642.006	0.0161800
642.084	0.0161678
642.163	0.0161271
642.241	0.0161987
642.319	0.0160724
642.397	0.0162627
642.475	0.0161558
642.553	0.0161650
642.631	0.0160944
642.709	0.0161683
642.788	0.0160897
642.866	0.0161121
642.944	0.0163448
643.022	0.0161402
643.100	0.0160862
643.178	0.0161330
643.256	0.0162641
643.334	0.0162182
643.413	0.0161063
643.491	0.0161888
643.569	0.0161369
643.647	0.0162289
643.725	0.0163003
643.803	0.0160374
643.881	0.0162325
643.959	0.0161332
644.038	0.0162583
644.116	0.0162705
644.194	0.0161189
644.272	0.0161503
644.350	0.0162268
644.428	0.0161919
644.506	0.0162237
644.584	0.0161998
644.663	0.0161838
644.741	0.0162643
644.819	0.0161068
644.897	0.0162812
644.975	0.0162439
645.053	0.0162169
645.131	0.0161911
645.209	0.0162478
645.288	0.0161898
645.366	0.0163526
645.444	0.0161327
645.522	0.0161894
645.600	0.0160763
645.678	0.0162975
645.756	0.0163802
645.834	0.0161443
645.913	0.0162325
645.991	0.0161929
646.069	0.0162172
646.147	0.0161871
646.225	0.0162165
646.303	0.0161123
646.381	0.0160893
646.459	0.0161918
646.538	0.0162973
646.616	0.0162077
646.694	0.0160967
646.772	0.0162372
646.850	0.0161609
646.928	0.0162099
647.006	0.0162027
647.084	0.0163350
647.163	0.0161830
647.241	0.0161947
647.319	0.0160933
647.397	0.0162073
647.475	0.0163139
647.553	0.0163247
647.631	0.0160218
647.709	0.0162572
647.788	0.0162543
647.866	0.0163525
647.944	0.0162936
648.022	0.0161150
648.100	0.0161071
648.178	0.0160485
648.256	0.0160656
648.334	0.0161867
648.413	0.0162843
648.491	0.0161808
648.569	0.0160764
648.647	0.0162584
648.725	0.0162173
648.803	0.0161701
648.881	0.0161860
648.959	0.0161924
649.038	0.0160358
649.116	0.0162272
649.194	0.0161398
649.272	0.0161628
649.350	0.0161749
649.428	0.0162095
649.506	0.0162594
649.584	0.0161065
649.663	0.0161640
649.741	0.0161263
649.819	0.0162174
649.897	0.0161589
649.975	0.0162151
650.053	0.0160870
650.131	0.0160304
650.209	0.0160568
650.288	0.0161848
650.366	0.0161662
650.444	0.0162498
650.522	0.0162213
650.600	0.0161655
650.678	0.0161084
650.756	0.0160703
650.834	0.0162552
650.913	0.0161589
650.991	0.0161972
651.069	0.0161311
651.147	0.0160506
651.225	0.0161699
651.303	0.0162109
651.381	0.0161740
651.459	0.0161426
651.538	0.0162124
651.616	0.0161396
651.694	0.0160316
651.772	0.0162168
651.850	0.0160632
651.928	0.0162390
652.006	0.0161521
652.084	0.0160851
652.163	0.0160611
652.241	0.0162566
652.319	0.0161234
652.397	0.0161481
652.475	0.0161929
652.553	0.0161555
652.631	0.0161061
652.709	0.0161552
652.788	0.0162673
652.866	0.0162024
652.944	0.0161098
653.022	0.0162027
653.100	0.0160569
653.178	0.0161176
653.256	0.0161333
653.334	0.0160421
653.413	0.0162143
653.491	0.0162540
653.569	0.0161856
653.647	0.0161005
653.725	0.0160998
653.803	0.0161791
653.881	0.0161954
653.959	0.0162192
654.038	0.0160751
654.116	0.0160816
654.194	0.0160593
654.272	0.0162392
654.350	0.0161141
654.428	0.0161696
654.506	0.0161517
654.584	0.0160362
654.663	0.0161406
654.741	0.0162981
654.819	0.0161707
654.897	0.0162368
654.975	0.0160595
655.053	0.0161078
655.131	0.0160668
655.209	0.0161185
655.288	0.0161901
655.366	0.0160017
655.444	0.0161478
655.522	0.0162279
655.600	0.0161533
655.678	0.0162361
655.756	0.0162299
655.834	0.0161016
655.913	0.0161407
655.991	0.0160442
656.069	0.0161723
656.147	0.0161634
656.225	0.0162687
656.303	0.0162309
656.381	0.0159763
656.459	0.0161704
656.538	0.0162890
656.616	0.0161578
656.694	0.0163265
656.772	0.0161501
656.850	0.0161991
656.928	0.0161656
657.006	0.0160669
657.084	0.0162022
657.163	0.0161716
657.241	0.0161843
657.319	0.0161897
657.397	0.0160316
657.475	0.0161994
657.553	0.0162278
657.631	0.0161966
657.709	0.0160395
657.788	0.0161905
657.866	0.0161788
657.944	0.0162122
658.022	0.0162086
658.100	0.0162507
658.178	0.0163277
658.256	0.0162243
658.334	0.0161832
658.413	0.0161725
658.491	0.0161798
658.569	0.0160968
658.647	0.0161560
658.725	0.0161082
658.803	0.0162261
658.881	0.0161748
658.959	0.0160889
659.038	0.0162228
659.116	0.0162579
659.194	0.0162330
659.272	0.0161571
659.350	0.0161301
659.428	0.0161479
659.506	0.0162487
659.584	0.0161861
659.663	0.0161541
659.741	0.0161643
659.819	0.0162393
659.897	0.0163218
659.975	0.0162535
660.053	0.0162096
660.131	0.0161523
660.209	0.0160697
660.288	0.0161098
660.366	0.0161239
660.444	0.0163319
660.522	0.0162237
660.600	0.0160469
660.678	0.0161245
660.756	0.0162197
660.834	0.0161742
660.913	0.0161458
660.991	0.0162543
661.069	0.0160988
661.147	0.0162145
661.225	0.0161024
661.303	0.0161795
661.381	0.0162282
661.459	0.0162660
661.538	0.0162716
661.616	0.0161494
661.694	0.0161286
661.772	0.0161921
661.850	0.0162160
661.928	0.0162529
662.006	0.0163042
662.084	0.0161797
662.163	0.0161989
662.241	0.0161911
662.319	0.0162182
662.397	0.0161921
662.475	0.0161618
662.553	0.0162086
662.631	0.0161813
662.709	0.0161649
662.788	0.0161348
662.866	0.0161906
662.944	0.0160857
663.022	0.0160833
663.100	0.0160227
663.178	0.0160375
663.256	0.0162015
663.334	0.0162347
663.413	0.0161426
663.491	0.0162685
663.569	0.0160363
663.647	0.0162321
663.725	0.0161117
663.803	0.0163081
663.881	0.0163360
663.959	0.0162000
664.038	0.0162519
664.116	0.0160587
664.194	0.0162015
664.272	0.0162210
664.350	0.0163667
664.428	0.0163046
664.506	0.0161754
664.584	0.0162808
664.663	0.0162276
664.741	0.0162284
664.819	0.0162363
664.897	0.0163608
664.975	0.0161437
665.053	0.0161501
665.131	0.0162141
665.209	0.0161312
665.288	0.0160553
665.366	0.0161344
665.444	0.0159840
665.522	0.0159953
665.600	0.0159957
665.678	0.0160435
665.756	0.0160999
665.834	0.0159254
665.913	0.0158690
665.991	0.0161194
666.069	0.0159742
666.147	0.0160825
666.225	0.0160600
666.303	0.0161053
666.381	0.0162558
666.459	0.0162411
666.538	0.0162640
666.616	0.0164366
666.694	0.0164313
666.772	0.0164667
666.850	0.0163998
666.928	0.0165340
667.006	0.0166245
667.084	0.0166074
667.163	0.0165585
667.241	0.0168166
667.319	0.0167098
667.397	0.0166787
667.475	0.0166125
667.553	0.0164772
667.631	0.0164960
667.709	0.0164078
667.788	0.0160769
667.866	0.0160487
667.944	0.0158465
668.022	0.0156432
668.100	0.0156010
668.178	0.0155340
668.256	0.0153825
668.334	0.0153982
668.413	0.0153687
668.491	0.0153548
668.569	0.0154864
668.647	0.0155900
668.725	0.0157613
668.803	0.0157605
668.881	0.0160004
668.959	0.0160656
669.038	0.0159560
669.116	0.0158980
669.194	0.0159639
669.272	0.0158943
669.350	0.0159995
669.428	0.0158907
669.506	0.0158540
669.584	0.0159743
669.663	0.0163399
669.741	0.0164924
669.819	0.0167763
669.897	0.0170664
669.975	0.0174862
670.053	0.0177071
670.131	0.0178755
670.209	0.0180608
670.288	0.0182069
670.366	0.0179918
670.444	0.0177798
670.522	0.0174841
670.600	0.0172813
670.678	0.0166381
670.756	0.0161913
670.834	0.0157920
670.913	0.0153748
670.991	0.0150719
671.069	0.0147153
671.147	0.0144897
671.225	0.0144505
671.303	0.0145789
671.381	0.0145885
671.459	0.0146453
671.538	0.0147893
671.616	0.0150371
671.694	0.0151877
671.772	0.0153951
671.850	0.0156514
671.928	0.0156698
672.006	0.0157001
672.084	0.0155930
672.163	0.0159101
672.241	0.0159700
672.319	0.0161001
672.397	0.0163467
672.475	0.0166484
672.553	0.0167798
672.631	0.0169846
672.709	0.0173802
672.788	0.0174327
672.866	0.0176631
672.944	0.0177258
673.022	0.0177778
673.100	0.0179184
673.178	0.0179192
673.256	0.0178714
673.334	0.0175684
673.413	0.0173943
673.491	0.0172920
673.569	0.0171001
673.647	0.0166406
673.725	0.0162360
673.803	0.0159382
673.881	0.0153664
673.959	0.0149879
674.038	0.0145571
674.116	0.0140955
674.194	0.0136108
674.272	0.0132716
674.350	0.0130139
674.428	0.0126812
674.506	0.0125916
674.584	0.0126466
674.663	0.0127824
674.741	0.0130709
674.819	0.0135684
674.897	0.0142556
674.975	0.0150747
675.053	0.0157559
675.131	0.0164804
675.209	0.0173865
675.288	0.0181177
675.366	0.0189297
675.444	0.0196229
675.522	0.0202682
675.600	0.0211012
675.678	0.0214909
675.756	0.0219603
675.834	0.0221411
675.913	0.0222158
675.991	0.0222256
676.069	0.0222318
676.147	0.0219357
676.225	0.0213013
676.303	0.0206780
676.381	0.0198712
676.459	0.0186164
676.538	0.0175952
676.616	0.0162610
676.694	0.0150511
676.772	0.0135687
676.850	0.0120595
676.928	0.0108542
677.006	0.00958694
677.084	0.00849670
677.163	0.00769096
677.241	0.00701111
677.319	0.00679787
677.397	0.00672333
677.475	0.00689880
677.553	0.00730659
677.631	0.00804764
677.709	0.00872231
677.788	0.00962326
677.866	0.0105197
677.944	0.0116698
678.022	0.0129089
678.100	0.0140556
678.178	0.0149744
678.256	0.0161293
678.334	0.0171214
678.413	0.0181911
678.491	0.0192914
678.569	0.0203173
678.647	0.0214433
678.725	0.0225928
678.803	0.0234735
678.881	0.0243045
678.959	0.0250000
679.038	0.0257019
679.116	0.0262434
679.194	0.0265636
679.272	0.0267671
679.350	0.0265231
679.428	0.0263192
679.506	0.0256822
679.584	0.0250037
679.663	0.0240793
679.741	0.0231124
679.819	0.0219293
679.897	0.0208361
679.975	0.0196089
680.053	0.0183934
680.131	0.0170911
680.209	0.0158259
680.288	0.0143665
680.366	0.0129015
680.444	0.0115954
680.522	0.0102016
680.600	0.00881996
680.678	0.00745621
680.756	0.00624794
680.834	0.00515892
680.913	0.00411797
680.991	0.00321030
681.069	0.00284126
681.147	0.00257286
681.225	0.00250809
681.303	0.00299667
681.381	0.00364456
681.459	0.00463196
681.538	0.00608551
681.616	0.00759521
681.694	0.00957245
681.772	0.0113083
681.850	0.0131890
681.928	0.0152438
682.006	0.0168373
682.084	0.0188719
682.163	0.0203978
682.241	0.0217867
682.319	0.0228455
682.397	0.0237402
682.475	0.0242467
682.553	0.0245750
682.631	0.0247426
682.709	0.0248383
682.788	0.0247493
682.866	0.0247968
682.944	0.0249190
683.022	0.0249357
683.100	0.0250420
683.178	0.0250469
683.256	0.0250071
683.334	0.0247883
683.413	0.0244010
683.491	0.0240395
683.569	0.0234630
683.647	0.0228780
683.725	0.0218861
683.803	0.0207719
683.881	0.0198435
683.959	0.0190710
684.038	0.0179295
684.116	0.0171459
684.194	0.0164491
684.272	0.0159548
684.350	0.0154243
684.428	0.0151086
684.506	0.0147977
684.584	0.0143456
684.663	0.0138952
684.741	0.0133721
684.819	0.0126361
684.897	0.0117722
684.975	0.0108759
685.053	0.00969795
685.131	0.00843971
685.209	0.00682388
685.288	0.00559448
685.366	0.00440498
685.444	0.00337860
685.522	0.00226219
685.600	0.00163803
685.678	0.00156517
685.756	0.00155952
685.834	0.00199944
685.913	0.00299324
685.991	0.00428764
686.069	0.00581276
686.147	0.00787086
686.225	0.0101389
686.303	0.0126241
686.381	0.0150612
686.459	0.0174760
686.538	0.0199065
686.616	0.0219798
686.694	0.0238650
686.772	0.0254786
686.850	0.0268256
686.928	0.0278743
687.006	0.0285554
687.084	0.0289769
687.163	0.0294008
687.241	0.0294473
687.319	0.0293382
687.397	0.0292805
687.475	0.0289054
687.553	0.0285161
687.631	0.0279781
687.709	0.0274458
687.788	0.0267628
687.866	0.0259331
687.944	0.0249023
688.022	0.0237347
688.100	0.0225774
688.178	0.0211241
688.256	0.0196613
688.334	0.0183652
688.413	0.0169815
688.491	0.0157675
688.569	0.0143537
688.647	0.0131618
688.725	0.0121706
688.803	0.0113807
688.881	0.0106901
688.959	0.00989311
689.038	0.00929924
689.116	0.00876244
689.194	0.00843628
689.272	0.00786613
689.350	0.00749046
689.428	0.00725945
689.506	0.00693565
689.584	0.00651619
689.663	0.00626045
689.741	0.00598846
689.819	0.00597824
689.897	0.00595070
689.975	0.00620369
690.053	0.00651581
690.131	0.00714485
690.209	0.00771629
690.288	0.00855598
690.366	0.00944641
690.444	0.0104291
690.522	0.0116666
690.600	0.0130331
690.678	0.0142197
690.756	0.0155108
690.834	0.0168310
690.913	0.0180640
690.991	0.0191736
691.069	0.0203853
691.147	0.0211958
691.225	0.0221224
691.303	0.0226518
691.381	0.0232342
691.459	0.0235734
691.538	0.0238311
691.616	0.0239376
691.694	0.0239668
691.772	0.0238733
691.850	0.0237533
691.928	0.0237238
692.006	0.0234236
692.084	0.0229584
692.163	0.0228944
692.241	0.0227059
692.319	0.0223502
692.397	0.0219631
692.475	0.0216967
692.553	0.0213722
692.631	0.0210594
692.709	0.0206936
692.788	0.0203477
692.866	0.0198808
692.944	0.0194847
693.022	0.0191061
693.100	0.0184428
693.178	0.0178257
693.256	0.0173100
693.334	0.0166580
693.413	0.0159464
693.491	0.0151975
693.569	0.0142090
693.647	0.0133125
693.725	0.0125674
693.803	0.0118234
693.881	0.0108385
693.959	0.0100783
694.038	0.00932610
694.116	0.00860916
694.194	0.00805031
694.272	0.00771416
694.350	0.00748154
694.428	0.00727165
694.506	0.00742027
694.584	0.00780144
694.663	0.00832283
694.741	0.00880981
694.819	0.00957047
694.897	0.0103451
694.975	0.0111852
695.053	0.0124022
695.131	0.0133051
695.209	0.0141920
695.288	0.0150295
695.366	0.0162038
695.444	0.0170676
695.522	0.0176262
695.600	0.0181929
695.678	0.0189806
695.756	0.0194848
695.834	0.0198759
695.913	0.0203137
695.991	0.0203216
696.069	0.0205169
696.147	0.0204517
696.225	0.0203230
696.303	0.0200135
696.381	0.0196251
696.459	0.0190999
696.538	0.0186848
696.616	0.0181709
696.694	0.0177941
696.772	0.0174307
696.850	0.0172896
696.928	0.0169804
697.006	0.0169481
697.084	0.0168716
697.163	0.0170280
697.241	0.0172597
697.319	0.0174162
697.397	0.0176811
697.475	0.0180054
697.553	0.0181746
697.631	0.0184411
697.709	0.0187309
697.788	0.0190994
697.866	0.0190362
697.944	0.0191106
698.022	0.0191241
698.100	0.0190698
698.178	0.0188284
698.256	0.0186974
698.334	0.0183134
698.413	0.0179868
698.491	0.0176692
698.569	0.0171041
698.647	0.0165853
698.725	0.0159649
698.803	0.0154495
698.881	0.0150075
698.959	0.0143635
699.038	0.0138853
699.116	0.0134167
699.194	0.0131866
699.272	0.0129502
699.350	0.0127705
699.428	0.0126735
699.506	0.0126497
699.584	0.0128476
699.663	0.0132130
699.741	0.0135259
699.819	0.0139187
699.897	0.0142244
699.975	0.0145309
700.053	0.0149496
700.131	0.0153828
700.209	0.0155997
700.288	0.0158784
700.366	0.0160197
700.444	0.0161070
700.522	0.0162378
700.600	0.0162836
700.678	0.0160377
700.756	0.0160131
700.834	0.0158872
700.913	0.0157324
700.991	0.0155304
701.069	0.0152042
701.147	0.0149908
701.225	0.0149888
701.303	0.0145987
701.381	0.0146543
701.459	0.0145136
701.538	0.0144526
701.616	0.0145478
701.694	0.0145581
701.772	0.0148779
701.850	0.0150034
701.928	0.0151022
702.006	0.0154057
702.084	0.0157633
702.163	0.0160698
702.241	0.0165524
702.319	0.0167021
702.397	0.0170837
702.475	0.0173707
702.553	0.0175856
702.631	0.0179403
702.709	0.0181569
702.788	0.0182380
702.866	0.0183681
702.944	0.0185040
703.022	0.0182647
703.100	0.0181752
703.178	0.0182835
703.256	0.0180046
703.334	0.0177979
703.413	0.0176053
703.491	0.0174627
703.569	0.0172278
703.647	0.0171305
703.725	0.0168789
703.803	0.0170751
703.881	0.0172866
703.959	0.0172159
704.038	0.0172432
704.116	0.0175463
704.194	0.0176070
704.272	0.0175739
704.350	0.0177032
704.428	0.0179727
704.506	0.0180726
704.584	0.0182508
704.663	0.0181998
704.741	0.0180869
704.819	0.0181549
704.897	0.0180859
704.975	0.0179507
705.053	0.0177779
705.131	0.0176170
705.209	0.0175111
705.288	0.0170658
705.366	0.0166483
705.444	0.0161607
705.522	0.0157407
705.600	0.0153413
705.678	0.0147830
705.756	0.0142476
705.834	0.0139114
705.913	0.0134203
705.991	0.0131542
706.069	0.0128835
706.147	0.0126833
706.225	0.0123811
706.303	0.0124055
706.381	0.0123876
706.459	0.0124255
706.538	0.0124818
706.616	0.0125854
706.694	0.0127031
706.772	0.0129897
706.850	0.0132053
706.928	0.0133733
707.006	0.0136869
707.084	0.0138389
707.163	0.0140488
707.241	0.0142925
707.319	0.0147395
707.397	0.0149295
707.475	0.0153981
707.553	0.0157394
707.631	0.0159324
707.709	0.0162194
707.788	0.0165531
707.866	0.0167505
707.944	0.0170183
708.022	0.0171760
708.100	0.0172636
708.178	0.0173678
708.256	0.0175297
708.334	0.0177531
708.413	0.0178897
708.491	0.0179346
708.569	0.0181019
708.647	0.0181657
708.725	0.0182889
708.803	0.0184975
708.881	0.0186496
708.959	0.0187584
709.038	0.0188402
709.116	0.0188943
709.194	0.0188086
709.272	0.0189536
709.350	0.0187882
709.428	0.0186507
709.506	0.0185377
709.584	0.0183960
709.663	0.0180244
709.741	0.0177041
709.819	0.0175297
709.897	0.0173679
709.975	0.0173313
710.053	0.0170950
710.131	0.0167999
710.209	0.0165821
710.288	0.0165916
710.366	0.0164537
710.444	0.0161757
710.522	0.0162014
710.600	0.0160266
710.678	0.0161229
710.756	0.0160326
710.834	0.0160506
710.913	0.0161473
710.991	0.0161121
711.069	0.0161154
711.147	0.0160087
711.225	0.0161195
711.303	0.0158773
711.381	0.0156853
711.459	0.0156422
711.538	0.0152685
711.616	0.0151643
711.694	0.0148320
711.772	0.0144821
711.850	0.0143378
711.928	0.0140156
712.006	0.0140089
712.084	0.0137193
712.163	0.0135270
712.241	0.0132793
712.319	0.0133877
712.397	0.0134988
712.475	0.0133768
712.553	0.0135035
712.631	0.0137073
712.709	0.0138371
712.788	0.0138663
712.866	0.0139884
712.944	0.0144003
713.022	0.0146078
713.100	0.0148438
713.178	0.0150800
713.256	0.0155340
713.334	0.0159097
713.413	0.0161135
713.491	0.0164693
713.569	0.0168054
713.647	0.0170983
713.725	0.0174277
713.803	0.0175581
713.881	0.0177732
713.959	0.0178501
714.038	0.0180154
714.116	0.0180199
714.194	0.0179992
714.272	0.0177422
714.350	0.0177033
714.428	0.0176497
714.506	0.0173298
714.584	0.0170270
714.663	0.0169989
714.741	0.0167126
714.819	0.0164907
714.897	0.0165967
714.975	0.0166109
715.053	0.0165450
715.131	0.0165376
715.209	0.0167162
715.288	0.0168662
715.366	0.0170798
715.444	0.0170872
715.522	0.0171970
715.600	0.0173802
715.678	0.0175816
715.756	0.0175977
715.834	0.0175367
715.913	0.0174804
715.991	0.0174201
716.069	0.0172083
716.147	0.0169268
716.225	0.0166620
716.303	0.0164964
716.381	0.0162819
716.459	0.0159657
716.538	0.0158425
716.616	0.0156782
716.694	0.0156033
716.772	0.0153816
716.850	0.0152580
716.928	0.0154655
717.006	0.0154317
717.084	0.0153655
717.163	0.0154375
717.241	0.0155340
717.319	0.0158752
717.397	0.0159624
717.475	0.0159444
717.553	0.0161092
717.631	0.0161707
717.709	0.0163325
717.788	0.0163728
717.866	0.0163972
717.944	0.0163070
718.022	0.0164777
718.100	0.0165874
718.178	0.0164851
718.256	0.0165529
718.334	0.0163016
718.413	0.0162381
718.491	0.0161046
718.569	0.0162437
718.647	0.0158939
718.725	0.0156888
718.803	0.0155714
718.881	0.0151788
718.959	0.0150469
719.038	0.0148288
719.116	0.0146980
719.194	0.0145172
719.272	0.0143374
719.350	0.0144659
719.428	0.0144037
719.506	0.0143887
719.584	0.0145051
719.663	0.0147285
719.741	0.0147960
719.819	0.0149555
719.897	0.0152091
719.975	0.0153045
720.053	0.0154195
720.131	0.0155724
720.209	0.0157650
720.288	0.0158151
720.366	0.0160047
720.444	0.0160320
720.522	0.0160378
720.600	0.0161040
720.678	0.0162814
720.756	0.0162411
720.834	0.0162903
720.913	0.0163184
720.991	0.0164244
721.069	0.0163752
721.147	0.0166026
721.225	0.0167032
721.303	0.0168031
721.381	0.0169167
721.459	0.0171043
721.538	0.0172492
721.616	0.0174623
721.694	0.0174624
721.772	0.0176758
721.850	0.0177211
721.928	0.0178490
722.006	0.0179493
722.084	0.0180664
722.163	0.0181268
722.241	0.0180331
722.319	0.0180945
722.397	0.0178397
722.475	0.0177279
722.553	0.0177479
722.631	0.0175757
722.709	0.0172287
722.788	0.0170547
722.866	0.0168256
722.944	0.0167854
723.022	0.0164999
723.100	0.0163082
723.178	0.0161375
723.256	0.0161651
723.334	0.0159422
723.413	0.0158838
723.491	0.0158352
723.569	0.0158035
723.647	0.0158873
723.725	0.0157730
723.803	0.0158228
723.881	0.0157565
723.959	0.0157150
724.038	0.0157669
724.116	0.0158419
724.194	0.0158417
724.272	0.0156714
724.350	0.0155830
724.428	0.0156789
724.506	0.0155219
724.584	0.0152728
724.663	0.0152892
724.741	0.0152604
724.819	0.0150722
724.897	0.0149127
724.975	0.0148045
725.053	0.0147778
725.131	0.0146893
725.209	0.0145113
725.288	0.0145087
725.366	0.0145122
725.444	0.0144037
725.522	0.0144298
725.600	0.0143859
725.678	0.0145596
725.756	0.0145997
725.834	0.0147520
725.913	0.0149229
725.991	0.0151828
726.069	0.0154107
726.147	0.0156242
726.225	0.0159492
726.303	0.0162577
726.381	0.0165613
726.459	0.0167075
726.538	0.0170838
726.616	0.0172296
726.694	0.0173820
726.772	0.0175012
726.850	0.0174327
726.928	0.0175041
727.006	0.0176003
727.084	0.0174650
727.163	0.0173011
727.241	0.0174789
727.319	0.0172849
727.397	0.0172963
727.475	0.0172382
727.553	0.0171043
727.631	0.0171893
727.709	0.0172579
727.788	0.0170667
727.866	0.0170765
727.944	0.0170484
728.022	0.0171101
728.100	0.0169453
728.178	0.0169281
728.256	0.0169463
728.334	0.0166976
728.413	0.0168662
728.491	0.0165998
728.569	0.0164645
728.647	0.0165792
728.725	0.0163789
728.803	0.0161494
728.881	0.0160738
728.959	0.0159904
729.038	0.0159447
729.116	0.0157433
729.194	0.0157853
729.272	0.0158965
729.350	0.0157008
729.428	0.0156661
729.506	0.0156759
729.584	0.0156403
729.663	0.0155112
729.741	0.0155661
729.819	0.0155465
729.897	0.0156358
729.975	0.0156514
730.053	0.0156817
730.131	0.0158466
730.209	0.0158733
730.288	0.0160639
730.366	0.0162293
730.444	0.0163297
730.522	0.0165665
730.600	0.0166143
730.678	0.0166006
730.756	0.0167374
730.834	0.0168121
730.913	0.0166106
730.991	0.0167802
731.069	0.0167760
731.147	0.0165869
731.225	0.0163749
731.303	0.0164067
731.381	0.0164564
731.459	0.0162202
731.538	0.0162920
731.616	0.0161848
731.694	0.0160775
731.772	0.0160841
731.850	0.0161761
731.928	0.0159420
732.006	0.0160318
732.084	0.0161346
732.163	0.0160027
732.241	0.0160739
732.319	0.0159006
732.397	0.0161214
732.475	0.0161777
732.553	0.0161313
732.631	0.0161651
732.709	0.0161886
732.788	0.0161110
732.866	0.0161664
732.944	0.0159399
733.022	0.0159933
733.100	0.0159260
733.178	0.0158305
733.256	0.0155853
733.334	0.0154456
733.413	0.0154011
733.491	0.0155033
733.569	0.0152363
733.647	0.0151839
733.725	0.0151800
733.803	0.0150125
733.881	0.0151389
733.959	0.0152810
734.038	0.0152312
734.116	0.0152367
734.194	0.0154460
734.272	0.0154736
734.350	0.0158998
734.428	0.0158884
734.506	0.0158642
734.584	0.0161647
734.663	0.0164545
734.741	0.0165359
734.819	0.0168513
734.897	0.0168995
734.975	0.0169521
735.053	0.0172067
735.131	0.0172706
735.209	0.0172626
735.288	0.0172514
735.366	0.0171227
735.444	0.0173277
735.522	0.0172634
735.600	0.0170895
735.678	0.0170258
735.756	0.0169588
735.834	0.0168057
735.913	0.0168192
735.991	0.0165708
736.069	0.0167353
736.147	0.0166258
736.225	0.0165271
736.303	0.0164365
736.381	0.0164098
736.459	0.0164217
736.538	0.0164021
736.616	0.0163577
736.694	0.0164120
736.772	0.0166056
736.850	0.0164816
736.928	0.0163646
737.006	0.0164803
737.084	0.0165438
737.163	0.0165371
737.241	0.0165773
737.319	0.0164332
737.397	0.0165295
737.475	0.0164896
737.553	0.0162727
737.631	0.0161787
737.709	0.0159605
737.788	0.0159393
737.866	0.0158015
737.944	0.0157539
738.022	0.0156491
738.100	0.0155846
738.178	0.0154472
738.256	0.0152893
738.334	0.0154021
738.413	0.0153850
738.491	0.0153591
738.569	0.0153876
738.647	0.0153135
738.725	0.0153337
738.803	0.0155183
738.881	0.0154246
738.959	0.0155675
739.038	0.0155742
739.116	0.0154490
739.194	0.0154546
739.272	0.0155017
739.350	0.0155618
739.428	0.0154274
739.506	0.0156352
739.584	0.0156845
739.663	0.0155749
739.741	0.0157432
739.819	0.0156784
739.897	0.0158031
739.975	0.0157480
740.053	0.0158163
740.131	0.0157265
740.209	0.0158209
740.288	0.0158414
740.366	0.0160005
740.444	0.0161936
740.522	0.0162624
740.600	0.0161420
740.678	0.0164501
740.756	0.0163896
740.834	0.0165836
740.913	0.0166857
740.991	0.0168415
741.069	0.0169695
741.147	0.0169176
741.225	0.0168628
741.303	0.0168637
741.381	0.0168490
741.459	0.0170445
741.538	0.0168976
741.616	0.0168334
741.694	0.0167755
741.772	0.0165018
741.850	0.0163834
741.928	0.0164278
742.006	0.0163615
742.084	0.0162397
742.163	0.0161298
742.241	0.0161033
742.319	0.0159139
742.397	0.0161547
742.475	0.0159969
742.553	0.0159189
742.631	0.0159970
742.709	0.0160117
742.788	0.0160630
742.866	0.0159480
742.944	0.0159000
743.022	0.0162920
743.100	0.0164571
743.178	0.0163509
743.256	0.0162675
743.334	0.0165256
743.413	0.0163507
743.491	0.0164885
743.569	0.0164161
743.647	0.0165490
743.725	0.0166025
743.803	0.0164523
743.881	0.0165139
743.959	0.0164583
744.038	0.0162126
744.116	0.0162357
744.194	0.0162843
744.272	0.0161817
744.350	0.0160659
744.428	0.0160784
744.506	0.0160167
744.584	0.0160243
744.663	0.0159113
744.741	0.0159158
744.819	0.0160383
744.897	0.0159402
744.975	0.0159513
745.053	0.0159508
745.131	0.0161088
745.209	0.0161517
745.288	0.0161090
745.366	0.0161884
745.444	0.0162317
745.522	0.0163564
745.600	0.0163905
745.678	0.0163680
745.756	0.0165319
745.834	0.0165024
745.913	0.0164090
745.991	0.0165014
746.069	0.0165020
746.147	0.0162580
746.225	0.0161400
746.303	0.0162623
746.381	0.0160744
746.459	0.0159274
746.538	0.0159190
746.616	0.0158964
746.694	0.0158632
746.772	0.0157071
746.850	0.0155629
746.928	0.0156539
747.006	0.0156684
747.084	0.0155688
747.163	0.0156599
747.241	0.0154761
747.319	0.0156319
747.397	0.0156785
747.475	0.0155872
747.553	0.0158175
747.631	0.0157199
747.709	0.0158932
747.788	0.0157639
747.866	0.0159373
747.944	0.0161401
748.022	0.0161124
748.100	0.0160281
748.178	0.0159937
748.256	0.0159073
748.334	0.0160945
748.413	0.0160811
748.491	0.0160606
748.569	0.0161110
748.647	0.0161160
748.725	0.0159592
748.803	0.0159120
748.881	0.0160306
748.959	0.0160220
749.038	0.0160072
749.116	0.0161432
749.194	0.0162013
749.272	0.0160695
749.350	0.0162891
749.428	0.0162717
749.506	0.0164486
749.584	0.0165097
749.663	0.0165724
749.741	0.0166874
749.819	0.0166936
749.897	0.0168411
749.975	0.0168803
750.053	0.0167889
750.131	0.0168493
750.209	0.0171601
750.288	0.0171844
750.366	0.0169695
750.444	0.0170727
750.522	0.0171542
750.600	0.0170206
750.678	0.0169070
750.756	0.0168278
750.834	0.0168275
750.913	0.0166863
750.991	0.0166496
751.069	0.0166742
751.147	0.0164372
751.225	0.0164413
751.303	0.0163129
751.381	0.0162520
751.459	0.0161385
751.538	0.0160244
751.616	0.0161761
751.694	0.0160943
751.772	0.0160802
751.850	0.0160358
751.928	0.0160011
752.006	0.0160974
752.084	0.0160978
752.163	0.0160009
752.241	0.0160059
752.319	0.0158495
752.397	0.0159418
752.475	0.0158212
752.553	0.0157336
752.631	0.0158044
752.709	0.0155833
752.788	0.0154768
752.866	0.0153047
752.944	0.0153487
753.022	0.0153116
753.100	0.0151882
753.178	0.0151870
753.256	0.0151941
753.334	0.0150574
753.413	0.0152773
753.491	0.0152702
753.569	0.0152293
753.647	0.0152950
753.725	0.0154311
753.803	0.0154564
753.881	0.0155654
753.959	0.0157357
754.038	0.0156955
754.116	0.0159979
754.194	0.0160412
754.272	0.0161738
754.350	0.0161816
754.428	0.0164003
754.506	0.0164557
754.584	0.0166267
754.663	0.0165208
754.741	0.0167695
754.819	0.0169485
754.897	0.0168709
754.975	0.0168090
755.053	0.0168988
755.131	0.0170036
755.209	0.0168913
755.288	0.0169731
755.366	0.0169063
755.444	0.0168084
755.522	0.0168211
755.600	0.0169182
755.678	0.0168571
755.756	0.0166825
755.834	0.0164629
755.913	0.0164337
755.991	0.0164251
756.069	0.0163475
756.147	0.0161403
756.225	0.0160844
756.303	0.0159889
756.381	0.0159329
756.459	0.0158038
756.538	0.0158261
756.616	0.0158001
756.694	0.0155849
756.772	0.0156451
756.850	0.0155896
756.928	0.0155412
757.006	0.0155811
757.084	0.0155042
757.163	0.0154868
757.241	0.0156579
757.319	0.0156354
757.397	0.0158228
757.475	0.0157794
757.553	0.0158900
757.631	0.0158883
757.709	0.0159245
757.788	0.0161607
757.866	0.0160983
757.944	0.0162354
758.022	0.0163715
758.100	0.0164059
758.178	0.0163840
758.256	0.0164252
758.334	0.0164326
758.413	0.0164671
758.491	0.0165997
758.569	0.0166521
758.647	0.0165319
758.725	0.0164832
758.803	0.0166153
758.881	0.0167699
758.959	0.0165882
759.038	0.0167434
759.116	0.0168284
759.194	0.0167273
759.272	0.0167778
759.350	0.0169134
759.428	0.0168883
759.506	0.0168974
759.584	0.0167016
759.663	0.0166516
759.741	0.0166971
759.819	0.0166383
759.897	0.0165249
759.975	0.0164833
760.053	0.0164869
760.131	0.0162901
760.209	0.0163068
760.288	0.0161147
760.366	0.0160658
760.444	0.0160611
760.522	0.0159359
760.600	0.0159764
760.678	0.0156555
760.756	0.0155342
760.834	0.0154461
760.913	0.0155241
760.991	0.0153828
761.069	0.0152677
761.147	0.0153341
761.225	0.0152282
761.303	0.0152461
761.381	0.0152035
761.459	0.0151866
761.538	0.0152227
761.616	0.0152097
761.694	0.0151878
761.772	0.0151989
761.850	0.0151211
761.928	0.0154019
762.006	0.0154128
762.084	0.0154623
762.163	0.0154783
762.241	0.0155418
762.319	0.0156749
762.397	0.0158492
762.475	0.0160093
762.553	0.0160354
762.631	0.0160281
762.709	0.0162685
762.788	0.0164245
762.866	0.0165668
762.944	0.0165559
763.022	0.0167356
763.100	0.0166396
763.178	0.0167258
763.256	0.0168246
763.334	0.0169369
763.413	0.0168387
763.491	0.0168407
763.569	0.0168346
763.647	0.0168984
763.725	0.0168871
763.803	0.0167236
763.881	0.0167939
763.959	0.0167381
764.038	0.0168805
764.116	0.0168946
764.194	0.0168482
764.272	0.0168497
764.350	0.0167417
764.428	0.0167401
764.506	0.0164597
764.584	0.0164648
764.663	0.0164783
764.741	0.0165324
764.819	0.0161893
764.897	0.0161598
764.975	0.0160979
765.053	0.0161092
765.131	0.0159816
765.209	0.0158136
765.288	0.0159301
765.366	0.0157642
765.444	0.0158242
765.522	0.0158438
765.600	0.0157652
765.678	0.0156599
765.756	0.0158274
765.834	0.0157101
765.913	0.0157463
765.991	0.0158047
766.069	0.0159178
766.147	0.0159464
766.225	0.0160136
766.303	0.0161227
766.381	0.0162943
766.459	0.0163039
766.538	0.0164013
766.616	0.0163287
766.694	0.0164832
766.772	0.0165620
766.850	0.0166009
766.928	0.0164516
767.006	0.0164046
767.084	0.0164494
767.163	0.0163991
767.241	0.0164332
767.319	0.0162621
767.397	0.0161462
767.475	0.0162191
767.553	0.0160484
767.631	0.0160181
767.709	0.0159300
767.788	0.0158374
767.866	0.0158984
767.944	0.0158989
768.022	0.0158469
768.100	0.0157807
768.178	0.0157777
768.256	0.0158208
768.334	0.0158920
768.413	0.0159035
768.491	0.0158723
768.569	0.0159805
768.647	0.0161028
768.725	0.0160319
768.803	0.0160796
768.881	0.0161437
768.959	0.0160973
769.038	0.0159726
769.116	0.0160757
769.194	0.0162143
769.272	0.0161319
769.350	0.0160139
769.428	0.0160689
769.506	0.0159066
769.584	0.0159459
769.663	0.0158218
769.741	0.0158878
769.819	0.0158165
769.897	0.0156798
769.975	0.0156478
770.053	0.0156469
770.131	0.0156266
770.209	0.0157030
770.288	0.0156356
770.366	0.0156273
770.444	0.0157425
770.522	0.0156440
770.600	0.0156543
770.678	0.0155883
770.756	0.0158305
770.834	0.0158009
770.913	0.0156909
770.991	0.0158491
771.069	0.0159949
771.147	0.0160531
771.225	0.0162410
771.303	0.0163680
771.381	0.0164445
771.459	0.0164950
771.538	0.0166703
771.616	0.0166790
771.694	0.0168698
771.772	0.0169409
771.850	0.0169046
771.928	0.0170992
772.006	0.0171664
772.084	0.0172291
772.163	0.0171577
772.241	0.0172867
772.319	0.0173270
772.397	0.0173705
772.475	0.0173772
772.553	0.0172634
772.631	0.0172913
772.709	0.0173804
772.788	0.0171356
772.866	0.0169455
772.944	0.0169628
773.022	0.0167355
773.100	0.0165462
773.178	0.0163190
773.256	0.0161338
773.334	0.0160515
773.413	0.0159361
773.491	0.0158064
773.569	0.0155783
773.647	0.0153002
773.725	0.0152872
773.803	0.0151175
773.881	0.0151096
773.959	0.0150639
774.038	0.0150289
774.116	0.0148608
774.194	0.0148213
774.272	0.0148881
774.350	0.0149520
774.428	0.0149500
774.506	0.0150751
774.584	0.0152221
774.663	0.0153604
774.741	0.0154018
774.819	0.0156284
774.897	0.0157470
774.975	0.0159292
775.053	0.0160295
775.131	0.0161195
775.209	0.0163696
775.288	0.0167766
775.366	0.0166788
775.444	0.0166072
775.522	0.0167912
775.600	0.0169582
775.678	0.0169209
775.756	0.0171861
775.834	0.0169633
775.913	0.0170095
775.991	0.0170854
776.069	0.0168806
776.147	0.0168698
776.225	0.0168061
776.303	0.0166546
776.381	0.0167641
776.459	0.0168238
776.538	0.0164809
776.616	0.0164264
776.694	0.0163198
776.772	0.0160775
776.850	0.0160836
776.928	0.0158828
777.006	0.0158273
777.084	0.0156899
777.163	0.0153631
777.241	0.0153316
777.319	0.0152191
777.397	0.0150143
777.475	0.0150146
777.553	0.0149837
777.631	0.0150175
777.709	0.0149089
777.788	0.0149841
777.866	0.0150953
777.944	0.0150739
778.022	0.0151636
778.100	0.0152980
778.178	0.0153065
778.256	0.0155095
778.334	0.0156120
778.413	0.0158008
778.491	0.0160348
778.569	0.0160534
778.647	0.0161974
778.725	0.0163452
778.803	0.0166969
778.881	0.0167722
778.959	0.0168248
779.038	0.0171536
779.116	0.0171114
779.194	0.0171858
779.272	0.0173761
779.350	0.0173705
779.428	0.0175473
779.506	0.0176273
779.584	0.0176355
779.663	0.0175708
779.741	0.0176408
779.819	0.0174175
779.897	0.0177274
779.975	0.0175000
780.053	0.0173593
780.131	0.0171888
780.209	0.0170780
780.288	0.0170661
780.366	0.0166670
780.444	0.0165874
780.522	0.0166443
780.600	0.0165331
780.678	0.0163361
780.756	0.0163232
780.834	0.0162653
780.913	0.0162886
780.991	0.0160096
781.069	0.0159733
781.147	0.0158688
781.225	0.0157496
781.303	0.0156618
781.381	0.0156351
781.459	0.0153113
781.538	0.0152278
781.616	0.0150371
781.694	0.0149402
781.772	0.0149048
781.850	0.0149692
781.928	0.0148416
782.006	0.0147491
782.084	0.0147275
782.163	0.0148843
782.241	0.0148093
782.319	0.0149570
782.397	0.0148788
782.475	0.0150214
782.553	0.0152792
782.631	0.0153690
782.709	0.0154075
782.788	0.0156354
782.866	0.0157287
782.944	0.0159422
783.022	0.0161716
783.100	0.0161688
783.178	0.0163560
783.256	0.0165611
783.334	0.0165419
783.413	0.0166160
783.491	0.0168442
783.569	0.0168203
783.647	0.0169160
783.725	0.0170340
783.803	0.0171073
783.881	0.0170609
783.959	0.0171153
784.038	0.0170506
784.116	0.0169028
784.194	0.0169769
784.272	0.0169767
784.350	0.0169507
784.428	0.0168452
784.506	0.0167240
784.584	0.0166399
784.663	0.0165755
784.741	0.0166261
784.819	0.0164711
784.897	0.0166303
784.975	0.0164056
785.053	0.0164890
785.131	0.0163304
785.209	0.0162684
785.288	0.0162148
785.366	0.0162978
785.444	0.0160798
785.522	0.0160378
785.600	0.0160614
785.678	0.0159627
785.756	0.0157311
785.834	0.0156743
785.913	0.0155768
785.991	0.0155740
786.069	0.0155267
786.147	0.0153950
786.225	0.0153355
786.303	0.0153024
786.381	0.0152422
786.459	0.0152882
786.538	0.0152849
786.616	0.0152383
786.694	0.0152493
786.772	0.0152386
786.850	0.0152001
786.928	0.0153818
787.006	0.0154790
787.084	0.0155389
787.163	0.0155878
787.241	0.0155910
787.319	0.0157626
787.397	0.0159324
787.475	0.0161309
787.553	0.0162516
787.631	0.0163482
787.709	0.0165100
787.788	0.0166311
787.866	0.0168016
787.944	0.0167977
788.022	0.0169331
788.100	0.0170796
788.178	0.0170301
788.256	0.0171030
788.334	0.0172061
788.413	0.0171588
788.491	0.0172200
788.569	0.0172123
788.647	0.0172033
788.725	0.0171591
788.803	0.0171622
788.881	0.0171992
788.959	0.0171125
789.038	0.0171947
789.116	0.0169391
789.194	0.0168449
789.272	0.0169982
789.350	0.0169470
789.428	0.0168371
789.506	0.0169267
789.584	0.0167459
789.663	0.0166707
789.741	0.0165367
789.819	0.0165040
789.897	0.0163879
789.975	0.0162964
790.053	0.0163712
790.131	0.0162473
790.209	0.0159806
790.288	0.0158495
790.366	0.0158751
790.444	0.0156008
790.522	0.0154990
790.600	0.0155260
790.678	0.0152717
790.756	0.0151441
790.834	0.0149780
790.913	0.0150829
790.991	0.0148337
791.069	0.0149367
791.147	0.0149828
791.225	0.0146968
791.303	0.0148880
791.381	0.0150344
791.459	0.0150320
791.538	0.0149978
791.616	0.0150179
791.694	0.0151411
791.772	0.0152763
791.850	0.0152003
791.928	0.0156121
792.006	0.0155103
792.084	0.0158635
792.163	0.0157744
792.241	0.0158430
792.319	0.0161263
792.397	0.0162067
792.475	0.0162330
792.553	0.0162962
792.631	0.0163103
792.709	0.0164625
792.788	0.0165131
792.866	0.0164892
792.944	0.0165252
793.022	0.0166489
793.100	0.0165714
793.178	0.0165634
793.256	0.0167253
793.334	0.0167684
793.413	0.0166120
793.491	0.0166888
793.569	0.0167990
793.647	0.0168227
793.725	0.0167702
793.803	0.0168365
793.881	0.0168378
793.959	0.0168589
794.038	0.0169684
794.116	0.0170100
794.194	0.0170238
794.272	0.0171365
794.350	0.0170770
794.428	0.0171080
794.506	0.0170442
794.584	0.0170772
794.663	0.0171836
794.741	0.0171563
794.819	0.0169737
794.897	0.0168144
794.975	0.0169855
795.053	0.0169186
795.131	0.0167369
795.209	0.0167953
795.288	0.0164516
795.366	0.0164273
795.444	0.0164748
795.522	0.0164103
795.600	0.0160970
795.678	0.0160814
795.756	0.0160649
795.834	0.0159666
795.913	0.0157475
795.991	0.0159222
796.069	0.0158376
796.147	0.0156786
796.225	0.0156862
796.303	0.0156849
796.381	0.0157481
796.459	0.0155851
796.538	0.0155069
796.616	0.0156564
796.694	0.0155803
796.772	0.0157055
796.850	0.0155390
796.928	0.0156694
797.006	0.0156197
797.084	0.0155357
797.163	0.0156584
797.241	0.0156433
797.319	0.0155663
797.397	0.0153885
797.475	0.0154439
797.553	0.0154369
797.631	0.0154542
797.709	0.0154952
797.788	0.0154016
797.866	0.0154221
797.944	0.0154703
798.022	0.0153768
798.100	0.0154474
798.178	0.0155135
798.256	0.0154814
798.334	0.0155018
798.413	0.0157381
798.491	0.0158563
798.569	0.0158936
798.647	0.0158716
798.725	0.0160693
798.803	0.0160889
798.881	0.0162841
798.959	0.0162554
799.038	0.0164700
799.116	0.0164528
799.194	0.0165762
799.272	0.0166724
799.350	0.0166126
799.428	0.0167659
799.506	0.0166429
799.584	0.0167393
799.663	0.0168449
799.741	0.0167466
799.819	0.0168835
799.897	0.0167660
799.975	0.0169131
800.053	0.0169641
800.131	0.0168262
800.209	0.0168906
800.288	0.0169670
800.366	0.0168501
800.444	0.0169275
800.522	0.0167961
800.600	0.0168094
800.678	0.0167770
800.756	0.0165608
800.834	0.0165786
800.913	0.0166790
800.991	0.0166219
801.069	0.0165658
801.147	0.0164056
801.225	0.0164069
801.303	0.0163177
801.381	0.0162622
801.459	0.0161377
801.538	0.0162134
801.616	0.0162336
801.694	0.0161186
801.772	0.0161549
801.850	0.0160895
801.928	0.0158212
802.006	0.0157898
802.084	0.0159281
802.163	0.0158970
802.241	0.0158746
802.319	0.0157059
802.397	0.0155683
802.475	0.0157535
802.553	0.0157417
802.631	0.0157458
802.709	0.0156834
802.788	0.0157664
802.866	0.0157274
802.944	0.0157097
803.022	0.0157323
803.100	0.0158985
803.178	0.0157996
803.256	0.0159279
803.334	0.0159019
803.413	0.0159250
803.491	0.0160459
803.569	0.0160569
803.647	0.0160986
803.725	0.0161392
803.803	0.0161273
803.881	0.0162245
803.959	0.0163231
804.038	0.0162347
804.116	0.0164572
804.194	0.0163837
804.272	0.0164205
804.350	0.0164186
804.428	0.0164445
804.506	0.0163767
804.584	0.0165433
804.663	0.0166276
804.741	0.0165053
804.819	0.0165149
804.897	0.0166644
804.975	0.0167157
805.053	0.0166856
805.131	0.0166054
805.209	0.0167536
805.288	0.0166804
805.366	0.0167007
805.444	0.0167287
805.522	0.0166405
805.600	0.0167013
805.678	0.0166361
805.756	0.0165801
805.834	0.0166277
805.913	0.0165923
805.991	0.0163950
806.069	0.0163349
806.147	0.0162440
806.225	0.0161619
806.303	0.0162646
806.381	0.0161623
806.459	0.0160701
806.538	0.0160470
806.616	0.0160361
806.694	0.0159431
806.772	0.0159023
806.850	0.0160213
806.928	0.0158632
807.006	0.0156191
807.084	0.0157845
807.163	0.0157851
807.241	0.0155780
807.319	0.0156850
807.397	0.0157550
807.475	0.0156044
807.553	0.0155801
807.631	0.0156302
807.709	0.0157285
807.788	0.0158793
807.866	0.0157597
807.944	0.0157812
808.022	0.0158015
808.100	0.0159047
808.178	0.0159468
808.256	0.0158881
808.334	0.0160901
808.413	0.0161700
808.491	0.0161427
808.569	0.0162145
808.647	0.0162634
808.725	0.0163429
808.803	0.0162256
808.881	0.0161726
808.959	0.0164514
809.038	0.0164059
809.116	0.0164331
809.194	0.0163665
809.272	0.0163999
809.350	0.0163944
809.428	0.0164356
809.506	0.0164230
809.584	0.0164131
809.663	0.0164785
809.741	0.0165878
809.819	0.0164019
809.897	0.0164702
809.975	0.0164173
810.053	0.0164371
810.131	0.0163417
810.209	0.0162764
810.288	0.0161748
810.366	0.0162456
810.444	0.0163206
810.522	0.0162491
810.600	0.0162787
810.678	0.0162804
810.756	0.0162109
810.834	0.0162762
810.913	0.0162907
810.991	0.0161203
811.069	0.0163838
811.147	0.0164340
811.225	0.0163696
811.303	0.0162735
811.381	0.0164598
811.459	0.0164231
811.538	0.0163364
811.616	0.0164213
811.694	0.0163549
811.772	0.0164220
811.850	0.0163615
811.928	0.0164416
812.006	0.0164024
812.084	0.0163379
812.163	0.0165404
812.241	0.0164329
812.319	0.0163487
812.397	0.0163458
812.475	0.0163189
812.553	0.0164109
812.631	0.0163401
812.709	0.0162919
812.788	0.0162616
812.866	0.0160898
812.944	0.0161227
813.022	0.0160136
813.100	0.0159258
813.178	0.0160462
813.256	0.0160190
813.334	0.0159871
813.413	0.0159942
813.491	0.0159909
813.569	0.0159022
813.647	0.0158268
813.725	0.0159055
813.803	0.0159571
813.881	0.0160140
813.959	0.0158911
814.038	0.0159224
814.116	0.0159177
814.194	0.0159925
814.272	0.0160127
814.350	0.0158514
814.428	0.0159322
814.506	0.0159317
814.584	0.0158902
814.663	0.0159611
814.741	0.0158162
814.819	0.0158508
814.897	0.0158035
814.975	0.0157357
815.053	0.0158842
815.131	0.0158027
815.209	0.0157503
815.288	0.0157522
815.366	0.0158270
815.444	0.0157883
815.522	0.0157304
815.600	0.0158069
815.678	0.0159424
815.756	0.0159560
815.834	0.0160461
815.913	0.0160840
815.991	0.0161375
816.069	0.0161830
816.147	0.0162547
816.225	0.0162153
816.303	0.0163937
816.381	0.0164565
816.459	0.0164922
816.538	0.0165512
816.616	0.0165818
816.694	0.0164308
816.772	0.0167062
816.850	0.0168265
816.928	0.0167407
817.006	0.0166441
817.084	0.0168444
817.163	0.0168760
817.241	0.0167933
817.319	0.0168917
817.397	0.0167769
817.475	0.0168366
817.553	0.0167921
817.631	0.0168779
817.709	0.0168255
817.788	0.0167661
817.866	0.0167215
817.944	0.0167023
818.022	0.0167371
818.100	0.0167799
818.178	0.0166776
818.256	0.0164845
818.334	0.0165931
818.413	0.0163703
818.491	0.0164998
818.569	0.0164088
818.647	0.0162309
818.725	0.0161108
818.803	0.0160526
818.881	0.0160046
818.959	0.0159811
819.038	0.0158006
819.116	0.0156911
819.194	0.0157155
819.272	0.0158102
819.350	0.0156112
819.428	0.0155328
819.506	0.0156791
819.584	0.0156724
819.663	0.0155465
819.741	0.0157510
819.819	0.0157803
819.897	0.0157422
819.975	0.0158054
820.053	0.0159319
820.131	0.0158546
820.209	0.0159890
820.288	0.0160183
820.366	0.0159545
820.444	0.0161217
820.522	0.0160706
820.600	0.0160914
820.678	0.0162289
820.756	0.0161398
820.834	0.0162384
820.913	0.0162729
820.991	0.0161320
821.069	0.0161100
821.147	0.0162933
821.225	0.0162100
821.303	0.0162518
821.381	0.0163013
821.459	0.0162621
821.538	0.0161347
821.616	0.0161043
821.694	0.0160442
821.772	0.0160204
821.850	0.0160416
821.928	0.0159887
822.006	0.0159845
822.084	0.0160326
822.163	0.0158938
822.241	0.0159555
822.319	0.0160570
822.397	0.0160391
822.475	0.0158669
822.553	0.0159684
822.631	0.0157904
822.709	0.0160329
822.788	0.0160387
822.866	0.0158436
822.944	0.0159859
823.022	0.0159247
823.100	0.0159061
823.178	0.0158239
823.256	0.0158780
823.334	0.0159461
823.413	0.0160588
823.491	0.0159780
823.569	0.0159546
823.647	0.0159615
823.725	0.0161179
823.803	0.0159029
823.881	0.0161632
823.959	0.0161412
824.038	0.0160947
824.116	0.0162290
824.194	0.0163585
824.272	0.0164495
824.350	0.0164993
824.428	0.0165720
824.506	0.0165139
824.584	0.0165586
824.663	0.0166582
824.741	0.0166769
824.819	0.0167120
824.897	0.0167549
824.975	0.0166348
825.053	0.0166689
825.131	0.0167069
825.209	0.0166108
825.288	0.0166458
825.366	0.0166028
825.444	0.0166681
825.522	0.0166962
825.600	0.0168145
825.678	0.0165503
825.756	0.0165296
825.834	0.0164915
825.913	0.0164432
825.991	0.0164426
826.069	0.0165329
826.147	0.0163111
826.225	0.0162867
826.303	0.0163656
826.381	0.0163091
826.459	0.0162837
826.538	0.0162252
826.616	0.0162273
826.694	0.0161708
826.772	0.0161390
826.850	0.0161882
826.928	0.0161410
827.006	0.0161139
827.084	0.0162505
827.163	0.0159777
827.241	0.0160429
827.319	0.0159144
827.397	0.0159259
827.475	0.0158437
827.553	0.0157854
827.631	0.0156680
827.709	0.0157072
827.788	0.0155233
827.866	0.0155757
827.944	0.0155758
828.022	0.0155873
828.100	0.0156627
828.178	0.0156774
828.256	0.0156102
828.334	0.0157162
828.413	0.0157024
828.491	0.0158379
828.569	0.0158674
828.647	0.0161368
828.725	0.0159396
828.803	0.0161182
828.881	0.0162365
828.959	0.0160254
829.038	0.0161597
829.116	0.0161479
829.194	0.0161376
829.272	0.0161109
829.350	0.0161073
829.428	0.0160876
829.506	0.0161017
829.584	0.0159655
829.663	0.0160039
829.741	0.0161668
829.819	0.0160995
829.897	0.0161375
829.975	0.0160495
830.053	0.0161486
830.131	0.0162663
830.209	0.0162073
830.288	0.0161543
830.366	0.0161832
830.444	0.0162749
830.522	0.0162657
830.600	0.0163371
830.678	0.0163937
830.756	0.0163776
830.834	0.0164126
830.913	0.0165094
830.991	0.0163499
831.069	0.0164793
831.147	0.0164179
831.225	0.0164867
831.303	0.0165710
831.381	0.0165142
831.459	0.0165342
831.538	0.0164255
831.616	0.0164418
831.694	0.0164649
831.772	0.0162263
831.850	0.0163898
831.928	0.0161729
832.006	0.0162278
832.084	0.0161389
832.163	0.0160743
832.241	0.0161131
832.319	0.0160480
832.397	0.0160273
832.475	0.0160081
832.553	0.0159892
832.631	0.0159475
832.709	0.0159494
832.788	0.0160896
832.866	0.0160137
832.944	0.0159872
833.022	0.0161820
833.100	0.0161272
833.178	0.0161011
833.256	0.0161682
833.334	0.0161275
833.413	0.0161814
833.491	0.0161607
833.569	0.0160168
833.647	0.0161838
833.725	0.0161474
833.803	0.0161405
833.881	0.0161656
833.959	0.0160741
834.038	0.0159734
834.116	0.0161482
834.194	0.0162956
834.272	0.0162365
834.350	0.0160866
834.428	0.0162634
834.506	0.0163516
834.584	0.0161128
834.663	0.0162741
834.741	0.0160905
834.819	0.0160921
834.897	0.0161196
834.975	0.0161366
835.053	0.0161346
835.131	0.0162408
835.209	0.0161244
835.288	0.0160388
835.366	0.0161654
835.444	0.0159579
835.522	0.0161747
835.600	0.0161766
835.678	0.0161297
835.756	0.0160479
835.834	0.0160986
835.913	0.0160923
835.991	0.0160400
836.069	0.0159783
836.147	0.0160426
836.225	0.0160461
836.303	0.0159888
836.381	0.0161118
836.459	0.0161358
836.538	0.0161322
836.616	0.0161465
836.694	0.0159632
836.772	0.0160718
836.850	0.0160344
836.928	0.0160745
837.006	0.0161288
837.084	0.0160902
837.163	0.0160249
837.241	0.0160805
837.319	0.0160970
837.397	0.0161306
837.475	0.0160247
837.553	0.0161624
837.631	0.0161851
837.709	0.0161078
837.788	0.0160898
837.866	0.0160521
837.944	0.0158924
838.022	0.0159679
838.100	0.0160017
838.178	0.0159721
838.256	0.0160917
838.334	0.0158536
838.413	0.0159840
838.491	0.0161055
838.569	0.0160406
838.647	0.0159887
838.725	0.0160309
838.803	0.0159624
838.881	0.0160493
838.959	0.0160220
839.038	0.0159908
839.116	0.0161398
839.194	0.0161732
839.272	0.0162806
839.350	0.0162369
839.428	0.0162170
839.506	0.0163273
839.584	0.0162540
839.663	0.0163642
839.741	0.0163081
839.819	0.0163603
839.897	0.0163253
839.975	0.0163858
840.053	0.0165408
840.131	0.0163970
840.209	0.0164268
840.288	0.0164157
840.366	0.0164291
840.444	0.0165128
840.522	0.0164699
840.600	0.0164566
840.678	0.0162994
840.756	0.0161574
840.834	0.0162414
840.913	0.0164153
840.991	0.0164502
841.069	0.0161677
841.147	0.0163303
841.225	0.0163076
841.303	0.0161244
841.381	0.0161709
841.459	0.0163206
841.538	0.0162993
841.616	0.0161385
841.694	0.0163063
841.772	0.0163132
841.850	0.0161851
841.928	0.0163873
842.006	0.0162775
842.084	0.0161925
842.163	0.0161182
842.241	0.0163240
842.319	0.0163613
842.397	0.0162408
842.475	0.0162956
842.553	0.0161751
842.631	0.0161941
842.709	0.0161816
842.788	0.0162666
842.866	0.0162282
842.944	0.0161967
843.022	0.0161313
843.100	0.0163111
843.178	0.0160772
843.256	0.0160448
843.334	0.0161948
843.413	0.0160359
843.491	0.0160594
843.569	0.0159679
843.647	0.0159255
843.725	0.0158508
843.803	0.0158429
843.881	0.0159018
843.959	0.0156564
844.038	0.0157633
844.116	0.0157585
844.194	0.0157835
844.272	0.0157465
844.350	0.0156561
844.428	0.0156596
844.506	0.0156431
844.584	0.0155933
844.663	0.0156049
844.741	0.0156912
844.819	0.0156360
844.897	0.0155663
844.975	0.0156983
845.053	0.0156662
845.131	0.0156683
845.209	0.0154858
845.288	0.0157146
845.366	0.0157072
845.444	0.0157500
845.522	0.0159865
845.600	0.0160019
845.678	0.0159679
845.756	0.0160995
845.834	0.0161084
845.913	0.0163382
845.991	0.0164882
846.069	0.0164604
846.147	0.0164070
846.225	0.0165948
846.303	0.0166434
846.381	0.0166542
846.459	0.0167479
846.538	0.0167343
846.616	0.0167681
846.694	0.0166919
846.772	0.0166926
846.850	0.0167670
846.928	0.0167710
847.006	0.0166006
847.084	0.0166682
847.163	0.0167092
847.241	0.0166858
847.319	0.0166385
847.397	0.0165274
847.475	0.0165324
847.553	0.0164884
847.631	0.0165962
847.709	0.0164228
847.788	0.0164099
847.866	0.0163000
847.944	0.0164098
848.022	0.0162910
848.100	0.0161781
848.178	0.0161002
848.256	0.0159817
848.334	0.0159611
848.413	0.0160635
848.491	0.0158952
848.569	0.0157725
848.647	0.0155630
848.725	0.0158002
848.803	0.0157561
848.881	0.0155931
848.959	0.0156091
849.038	0.0157020
849.116	0.0157342
849.194	0.0156957
849.272	0.0158195
849.350	0.0158244
849.428	0.0157287
849.506	0.0157710
849.584	0.0159001
849.663	0.0157803
849.741	0.0159801
849.819	0.0160389
849.897	0.0160041
849.975	0.0160159
850.053	0.0160061
850.131	0.0161192
850.209	0.0160461
850.288	0.0160960
850.366	0.0161221
850.444	0.0161634
850.522	0.0160839
850.600	0.0162123
850.678	0.0161742
850.756	0.0161773
850.834	0.0162619
850.913	0.0163506
850.991	0.0161459
851.069	0.0163343
851.147	0.0163382
851.225	0.0162553
851.303	0.0163746
851.381	0.0163099
851.459	0.0163055
851.538	0.0162578
851.616	0.0162051
851.694	0.0161404
851.772	0.0162872
851.850	0.0161551
851.928	0.0161825
852.006	0.0161528
852.084	0.0161067
852.163	0.0161656
852.241	0.0160223
852.319	0.0159936
852.397	0.0160471
852.475	0.0161009
852.553	0.0161298
852.631	0.0160110
852.709	0.0160327
852.788	0.0159171
852.866	0.0160498
852.944	0.0160067
853.022	0.0160228
853.100	0.0159325
853.178	0.0159418
853.256	0.0160109
853.334	0.0159796
853.413	0.0159454
853.491	0.0160798
853.569	0.0160592
853.647	0.0159581
853.725	0.0159339
853.803	0.0161364
853.881	0.0160542
853.959	0.0161166
854.038	0.0161442
854.116	0.0161484
854.194	0.0161607
854.272	0.0161974
854.350	0.0162211
854.428	0.0163629
854.506	0.0162077
854.584	0.0162876
854.663	0.0163535
854.741	0.0163855
854.819	0.0163111
854.897	0.0162595
854.975	0.0164417
855.053	0.0164314
855.131	0.0165408
855.209	0.0164757
855.288	0.0163183
855.366	0.0163859
855.444	0.0163706
855.522	0.0164083
855.600	0.0164113
855.678	0.0162758
855.756	0.0162336
855.834	0.0161916
855.913	0.0162185
855.991	0.0162000
856.069	0.0163490
856.147	0.0162433
856.225	0.0160963
856.303	0.0160765
856.381	0.0160824
856.459	0.0161166
856.538	0.0160902
856.616	0.0159972
856.694	0.0160685
856.772	0.0160448
856.850	0.0160931
856.928	0.0160174
857.006	0.0160934
857.084	0.0159660
857.163	0.0158833
857.241	0.0158382
857.319	0.0158611
857.397	0.0158997
857.475	0.0158745
857.553	0.0159035
857.631	0.0158239
857.709	0.0159048
857.788	0.0159001
857.866	0.0160128
857.944	0.0160613
858.022	0.0162080
858.100	0.0161433
858.178	0.0161659
858.256	0.0162646
858.334	0.0162726
858.413	0.0163439
858.491	0.0163732
858.569	0.0163850
858.647	0.0165226
858.725	0.0163728
858.803	0.0163521
858.881	0.0164278
858.959	0.0164369
859.038	0.0164658
859.116	0.0163482
859.194	0.0164498
859.272	0.0165127
859.350	0.0165288
859.428	0.0164125
859.506	0.0163860
859.584	0.0162415
859.663	0.0162113
859.741	0.0162093
859.819	0.0161295
859.897	0.0160440
859.975	0.0161757
860.053	0.0159671
860.131	0.0160143
860.209	0.0159378
860.288	0.0158494
860.366	0.0158794
860.444	0.0158436
860.522	0.0158657
860.600	0.0158889
860.678	0.0159649
860.756	0.0157608
860.834	0.0157920
860.913	0.0157960
860.991	0.0157493
861.069	0.0158504
861.147	0.0159069
861.225	0.0157925
861.303	0.0158302
861.381	0.0159594
861.459	0.0159722
861.538	0.0160404
861.616	0.0159476
861.694	0.0160107
861.772	0.0160941
861.850	0.0162009
861.928	0.0161443
862.006	0.0161860
862.084	0.0161818
862.163	0.0161002
862.241	0.0162201
862.319	0.0161765
862.397	0.0160981
862.475	0.0160289
862.553	0.0160651
862.631	0.0159895
862.709	0.0161421
862.788	0.0161266
862.866	0.0160372
862.944	0.0163139
863.022	0.0164673
863.100	0.0163753
863.178	0.0165009
863.256	0.0167084
863.334	0.0166164
863.413	0.0165830
863.491	0.0166905
863.569	0.0168132
863.647	0.0168416
863.725	0.0167201
863.803	0.0166159
863.881	0.0166255
863.959	0.0166435
864.038	0.0165903
864.116	0.0165590
864.194	0.0164885
864.272	0.0164561
864.350	0.0165096
864.428	0.0165677
864.506	0.0165183
864.584	0.0163648
864.663	0.0164120
864.741	0.0164194
864.819	0.0163243
864.897	0.0162806
864.975	0.0160799
865.053	0.0161246
865.131	0.0159932
865.209	0.0159641
865.288	0.0159577
865.366	0.0159476
865.444	0.0158885
865.522	0.0157799
865.600	0.0156569
865.678	0.0156791
865.756	0.0157311
865.834	0.0154984
865.913	0.0155867
865.991	0.0155493
866.069	0.0156892
866.147	0.0155715
866.225	0.0154885
866.303	0.0156245
866.381	0.0156415
866.459	0.0157045
866.538	0.0157026
866.616	0.0158896
866.694	0.0161736
866.772	0.0160855
866.850	0.0162723
866.928	0.0162242
867.006	0.0163054
867.084	0.0163206
867.163	0.0163371
867.241	0.0163626
867.319	0.0163615
867.397	0.0163528
867.475	0.0163931
867.553	0.0161887
867.631	0.0163274
867.709	0.0164368
867.788	0.0162186
867.866	0.0161820
867.944	0.0160053
868.022	0.0161481
868.100	0.0160950
868.178	0.0159366
868.256	0.0159802
868.334	0.0157838
868.413	0.0156915
868.491	0.0156793
868.569	0.0157011
868.647	0.0157116
868.725	0.0157061
868.803	0.0157396
868.881	0.0155561
868.959	0.0155763
869.038	0.0157142
869.116	0.0160045
869.194	0.0160984
869.272	0.0161910
869.350	0.0161906
869.428	0.0163792
869.506	0.0165435
869.584	0.0166946
869.663	0.0168939
869.741	0.0168513
869.819	0.0168438
869.897	0.0169801
869.975	0.0169710
870.053	0.0170627
870.131	0.0170424
870.209	0.0169173
870.288	0.0170429
870.366	0.0169678
870.444	0.0167831
870.522	0.0167008
870.600	0.0167310
870.678	0.0166782
870.756	0.0165277
870.834	0.0165511
870.913	0.0165769
870.991	0.0163743
871.069	0.0163765
871.147	0.0161752
871.225	0.0161246
871.303	0.0160899
871.381	0.0160507
871.459	0.0156845
871.538	0.0155954
871.616	0.0156164
871.694	0.0154191
871.772	0.0154076
871.850	0.0153499
871.928	0.0150938
872.006	0.0149979
872.084	0.0152153
872.163	0.0151929
872.241	0.0149463
872.319	0.0150013
872.397	0.0150492
872.475	0.0150353
872.553	0.0150963
872.631	0.0150745
872.709	0.0153085
872.788	0.0155060
872.866	0.0154502
872.944	0.0157066
873.022	0.0157086
873.100	0.0159313
873.178	0.0161713
873.256	0.0163903
873.334	0.0165183
873.413	0.0167538
873.491	0.0170609
873.569	0.0172034
873.647	0.0173222
873.725	0.0173714
873.803	0.0174004
873.881	0.0175153
873.959	0.0175783
874.038	0.0173927
874.116	0.0174648
874.194	0.0172649
874.272	0.0172474
874.350	0.0169598
874.428	0.0168383
874.506	0.0166690
874.584	0.0166302
874.663	0.0165707
874.741	0.0163532
874.819	0.0162687
874.897	0.0161820
874.975	0.0159969
875.053	0.0159383
875.131	0.0159876
875.209	0.0158468
875.288	0.0158807
875.366	0.0157717
875.444	0.0156908
875.522	0.0156496
875.600	0.0156133
875.678	0.0155359
875.756	0.0155069
875.834	0.0154553
875.913	0.0155289
875.991	0.0154388
876.069	0.0154469
876.147	0.0155743
876.225	0.0156085
876.303	0.0155254
876.381	0.0156620
876.459	0.0155914
876.538	0.0155471
876.616	0.0155453
876.694	0.0155899
876.772	0.0155282
876.850	0.0155506
876.928	0.0155444
877.006	0.0154988
877.084	0.0155618
877.163	0.0155363
877.241	0.0155168
877.319	0.0154738
877.397	0.0156668
877.475	0.0159416
877.553	0.0160342
877.631	0.0160538
877.709	0.0161390
877.788	0.0165075
877.866	0.0166059
877.944	0.0167467
878.022	0.0170280
878.100	0.0172689
878.178	0.0173598
878.256	0.0172883
878.334	0.0175594
878.413	0.0177167
878.491	0.0175245
878.569	0.0175322
878.647	0.0175221
878.725	0.0173928
878.803	0.0172707
878.881	0.0171252
878.959	0.0168872
879.038	0.0167388
879.116	0.0166069
879.194	0.0164333
879.272	0.0164264
879.350	0.0163039
879.428	0.0162336
879.506	0.0162788
879.584	0.0160446
879.663	0.0160062
879.741	0.0160226
879.819	0.0158260
879.897	0.0159483
879.975	0.0159418
880.053	0.0158527
880.131	0.0156731
880.209	0.0155808
880.288	0.0156161
880.366	0.0155602
880.444	0.0154982
880.522	0.0155771
880.600	0.0154143
880.678	0.0153051
880.756	0.0154557
880.834	0.0154024
880.913	0.0153316
880.991	0.0154398
881.069	0.0154121
881.147	0.0153427
881.225	0.0153452
881.303	0.0155010
881.381	0.0154234
881.459	0.0155238
881.538	0.0155109
881.616	0.0155785
881.694	0.0155285
881.772	0.0156409
881.850	0.0156948
881.928	0.0160655
882.006	0.0159511
882.084	0.0161491
882.163	0.0163103
882.241	0.0162100
882.319	0.0163918
882.397	0.0164742
882.475	0.0165854
882.553	0.0167708
882.631	0.0166975
882.709	0.0168960
882.788	0.0168479
882.866	0.0169848
882.944	0.0170893
883.022	0.0170514
883.100	0.0170073
883.178	0.0170690
883.256	0.0170921
883.334	0.0171017
883.413	0.0170039
883.491	0.0168459
883.569	0.0167327
883.647	0.0167186
883.725	0.0166382
883.803	0.0163655
883.881	0.0162489
883.959	0.0162822
884.038	0.0161320
884.116	0.0160404
884.194	0.0161414
884.272	0.0161555
884.350	0.0160598
884.428	0.0159299
884.506	0.0158587
884.584	0.0160629
884.663	0.0161028
884.741	0.0158897
884.819	0.0159335
884.897	0.0160176
884.975	0.0159956
885.053	0.0158910
885.131	0.0157991
885.209	0.0158699
885.288	0.0158619
885.366	0.0159303
885.444	0.0157157
885.522	0.0157487
885.600	0.0155973
885.678	0.0155950
885.756	0.0156496
885.834	0.0156152
885.913	0.0157006
885.991	0.0157055
886.069	0.0155449
886.147	0.0156581
886.225	0.0158428
886.303	0.0158768
886.381	0.0159418
886.459	0.0159675
886.538	0.0160448
886.616	0.0161299
886.694	0.0162316
886.772	0.0163580
886.850	0.0164237
886.928	0.0165685
887.006	0.0165796
887.084	0.0165321
887.163	0.0166898
887.241	0.0167530
887.319	0.0167963
887.397	0.0166918
887.475	0.0167120
887.553	0.0167049
887.631	0.0166192
887.709	0.0166522
887.788	0.0165860
887.866	0.0164526
887.944	0.0164268
888.022	0.0162981
888.100	0.0162627
888.178	0.0160935
888.256	0.0161250
888.334	0.0160138
888.413	0.0160063
888.491	0.0160033
888.569	0.0158633
888.647	0.0158192
888.725	0.0158075
888.803	0.0159029
888.881	0.0159954
888.959	0.0159932
889.038	0.0160535
889.116	0.0160717
889.194	0.0160770
889.272	0.0160678
889.350	0.0161532
889.428	0.0161069
889.506	0.0160888
889.584	0.0161160
889.663	0.0161236
889.741	0.0161340
889.819	0.0161256
889.897	0.0159863
889.975	0.0160947
890.053	0.0159360
890.131	0.0160690
890.209	0.0159177
890.288	0.0159853
890.366	0.0160940
890.444	0.0160621
890.522	0.0160506
890.600	0.0159833
890.678	0.0160176
890.756	0.0160835
890.834	0.0160789
890.913	0.0160941
890.991	0.0161686
891.069	0.0161070
891.147	0.0162039
891.225	0.0163715
891.303	0.0163771
891.381	0.0163994
891.459	0.0166722
891.538	0.0166447
891.616	0.0167277
891.694	0.0168850
891.772	0.0168530
891.850	0.0168600
891.928	0.0168567
892.006	0.0168960
892.084	0.0168924
892.163	0.0168697
892.241	0.0167491
892.319	0.0166544
892.397	0.0163735
892.475	0.0164650
892.553	0.0163244
892.631	0.0163081
892.709	0.0159069
892.788	0.0160150
892.866	0.0159538
892.944	0.0157982
893.022	0.0157964
893.100	0.0157552
893.178	0.0156824
893.256	0.0156516
893.334	0.0157533
893.413	0.0157899
893.491	0.0157722
893.569	0.0158203
893.647	0.0155991
893.725	0.0158179
893.803	0.0158632
893.881	0.0159061
893.959	0.0159504
894.038	0.0160260
894.116	0.0159579
894.194	0.0159311
894.272	0.0161649
894.350	0.0161357
894.428	0.0160429
894.506	0.0161118
894.584	0.0160976
894.663	0.0160905
894.741	0.0160964
894.819	0.0161248
894.897	0.0162196
894.975	0.0160911
895.053	0.0161160
895.131	0.0160690
895.209	0.0160053
895.288	0.0161179
895.366	0.0161663
895.444	0.0161564
895.522	0.0162416
895.600	0.0163039
895.678	0.0161938
895.756	0.0163110
895.834	0.0162766
895.913	0.0163306
895.991	0.0163594
896.069	0.0164438
896.147	0.0165572
896.225	0.0165079
896.303	0.0166257
896.381	0.0166758
896.459	0.0166885
896.538	0.0166543
896.616	0.0167716
896.694	0.0168193
896.772	0.0166940
896.850	0.0168528
896.928	0.0167761
897.006	0.0166605
897.084	0.0165574
897.163	0.0165842
897.241	0.0165673
897.319	0.0164683
897.397	0.0163719
897.475	0.0162092
897.553	0.0161415
897.631	0.0160872
897.709	0.0159834
897.788	0.0158761
897.866	0.0157668
897.944	0.0158970
898.022	0.0158102
898.100	0.0158731
898.178	0.0158295
898.256	0.0158445
898.334	0.0158666
898.413	0.0160205
898.491	0.0159533
898.569	0.0160130
898.647	0.0161693
898.725	0.0161562
898.803	0.0160538
898.881	0.0160231
898.959	0.0162756
899.038	0.0161973
899.116	0.0160461
899.194	0.0160839
899.272	0.0163210
899.350	0.0161097
899.428	0.0162164
899.506	0.0161910
899.584	0.0160394
899.663	0.0162637
899.741	0.0161931
899.819	0.0162808
899.897	0.0162522
899.975	0.0162095
900.053	0.0162243
900.131	0.0162359
900.209	0.0161294
900.288	0.0162761
900.366	0.0161594
900.444	0.0161320
900.522	0.0161000
900.600	0.0161691
900.678	0.0163510
900.756	0.0161480
900.834	0.0161333
900.913	0.0161336
900.991	0.0161729
901.069	0.0162648
901.147	0.0162848
901.225	0.0163132
901.303	0.0163042
901.381	0.0162198
901.459	0.0162516
901.538	0.0163419
901.616	0.0161930
901.694	0.0161469
901.772	0.0161158
901.850	0.0162558
901.928	0.0161758
902.006	0.0163062
902.084	0.0161752
902.163	0.0160234
902.241	0.0160748
902.319	0.0161374
902.397	0.0161915
902.475	0.0162107
902.553	0.0162540
902.631	0.0161562
902.709	0.0162297
902.788	0.0163695
902.866	0.0164836
902.944	0.0163963
903.022	0.0164066
903.100	0.0164635
903.178	0.0163176
903.256	0.0163820
903.334	0.0163321
903.413	0.0163235
903.491	0.0164195
903.569	0.0163055
903.647	0.0161134
903.725	0.0162386
903.803	0.0161173
903.881	0.0160279
903.959	0.0161347
904.038	0.0160778
904.116	0.0159143
904.194	0.0159779
904.272	0.0158923
904.350	0.0160487
904.428	0.0160552
904.506	0.0159496
904.584	0.0158604
904.663	0.0160289
904.741	0.0161284
904.819	0.0161945
904.897	0.0162061
904.975	0.0162424
905.053	0.0161664
905.131	0.0161138
905.209	0.0162261
905.288	0.0162037
905.366	0.0164636
905.444	0.0163335
905.522	0.0164581
905.600	0.0164860
905.678	0.0164951
905.756	0.0165311
905.834	0.0162958
905.913	0.0161530
905.991	0.0162785
906.069	0.0163847
906.147	0.0161346
906.225	0.0162344
906.303	0.0162775
906.381	0.0161460
906.459	0.0160207
906.538	0.0158888
906.616	0.0158405
906.694	0.0158458
906.772	0.0158285
906.850	0.0159177
906.928	0.0159618
907.006	0.0159718
907.084	0.0158233
907.163	0.0159491
907.241	0.0159186
907.319	0.0159657
907.397	0.0159666
907.475	0.0159711
907.553	0.0161489
907.631	0.0160313
907.709	0.0159883
907.788	0.0161624
907.866	0.0163300
907.944	0.0162035
908.022	0.0160574
908.100	0.0161656
908.178	0.0162975
908.256	0.0162901
908.334	0.0161514
908.413	0.0162302
908.491	0.0163834
908.569	0.0163527
908.647	0.0163708
908.725	0.0162672
908.803	0.0162506
908.881	0.0163427
908.959	0.0163516
909.038	0.0165072
909.116	0.0165215
909.194	0.0163483
909.272	0.0164505
909.350	0.0166138
909.428	0.0165166
909.506	0.0164686
909.584	0.0165481
909.663	0.0164189
909.741	0.0162865
909.819	0.0164561
909.897	0.0163171
909.975	0.0162174
910.053	0.0161987
910.131	0.0161095
910.209	0.0161868
910.288	0.0161565
910.366	0.0161567
910.444	0.0161020
910.522	0.0160278
910.600	0.0160190
910.678	0.0160885
910.756	0.0159290
910.834	0.0157928
910.913	0.0158740
910.991	0.0158887
911.069	0.0159532
911.147	0.0159579
911.225	0.0159282
911.303	0.0158923
911.381	0.0159373
911.459	0.0158233
911.538	0.0160742
911.616	0.0159947
911.694	0.0162229
911.772	0.0160725
911.850	0.0162224
911.928	0.0161597
912.006	0.0162150
912.084	0.0163355
912.163	0.0162577
912.241	0.0160875
912.319	0.0162422
912.397	0.0161759
912.475	0.0163498
912.553	0.0163003
912.631	0.0162884
912.709	0.0162775
912.788	0.0162215
912.866	0.0163050
912.944	0.0163046
913.022	0.0162559
913.100	0.0164056
913.178	0.0163983
913.256	0.0162545
913.334	0.0163704
913.413	0.0165060
913.491	0.0164252
913.569	0.0164493
913.647	0.0163985
913.725	0.0164123
913.803	0.0164874
913.881	0.0163700
913.959	0.0163385
914.038	0.0163133
914.116	0.0163377
914.194	0.0162116
914.272	0.0161946
914.350	0.0160200
914.428	0.0160062
914.506	0.0160929
914.584	0.0159332
914.663	0.0158997
914.741	0.0158226
914.819	0.0158411
914.897	0.0159769
914.975	0.0158479
915.053	0.0158668
915.131	0.0158715
915.209	0.0159384
915.288	0.0160395
915.366	0.0160635
915.444	0.0161085
915.522	0.0158701
915.600	0.0160493
915.678	0.0161561
915.756	0.0160930
915.834	0.0162059
915.913	0.0162831
915.991	0.0160443
916.069	0.0161041
916.147	0.0160975
916.225	0.0161167
916.303	0.0162699
916.381	0.0161842
916.459	0.0161407
916.538	0.0162180
916.616	0.0162674
916.694	0.0163144
916.772	0.0162588
916.850	0.0162122
916.928	0.0162560
917.006	0.0163129
917.084	0.0163194
917.163	0.0163013
917.241	0.0161750
917.319	0.0162711
917.397	0.0163448
917.475	0.0163269
917.553	0.0162196
917.631	0.0163842
917.709	0.0164529
917.788	0.0163484
917.866	0.0164442
917.944	0.0163367
918.022	0.0163593
918.100	0.0163240
918.178	0.0163143
918.256	0.0163169
918.334	0.0163245
918.413	0.0164906
918.491	0.0164313
918.569	0.0161758
918.647	0.0163625
918.725	0.0162725
918.803	0.0161517
918.881	0.0162423
918.959	0.0159883
919.038	0.0160886
919.116	0.0160770
919.194	0.0158057
919.272	0.0158279
919.350	0.0158052
919.428	0.0156112
919.506	0.0157894
919.584	0.0156668
919.663	0.0156983
919.741	0.0156031
919.819	0.0156140
919.897	0.0155828
