06/01/2022	17:24:49	Ver.	4.1	UNKNOWN
Optical Delay	599.975067	Delta X		0.078125	Sweeps	1	Scan Rate	0/0
Coordinates	Axis 1	NaN	Axis 2	NaN	Axis 3	NaN	Axis 4	NaN	Axis 5	NaN	Axis 6	0.000000
TX Power	0.000000	RX Power	0.000000

599.975	0.0160133
600.053	0.0160303
600.131	0.0159691
600.209	0.0160085
600.288	0.0159460
600.366	0.0160014
600.444	0.0160167
600.522	0.0159148
600.600	0.0158859
600.678	0.0160426
600.756	0.0161150
600.834	0.0159470
600.913	0.0159940
600.991	0.0160467
601.069	0.0159153
601.147	0.0160441
601.225	0.0158959
601.303	0.0159938
601.381	0.0159741
601.459	0.0160284
601.538	0.0160398
601.616	0.0160008
601.694	0.0159710
601.772	0.0159494
601.850	0.0160374
601.928	0.0160582
602.006	0.0160339
602.084	0.0159843
602.163	0.0159954
602.241	0.0161846
602.319	0.0160975
602.397	0.0161250
602.475	0.0160858
602.553	0.0159509
602.631	0.0161531
602.709	0.0160105
602.788	0.0160084
602.866	0.0162242
602.944	0.0159601
603.022	0.0159742
603.100	0.0160020
603.178	0.0160447
603.256	0.0160696
603.334	0.0160109
603.413	0.0159908
603.491	0.0160795
603.569	0.0160832
603.647	0.0161282
603.725	0.0160115
603.803	0.0159859
603.881	0.0161743
603.959	0.0160757
604.038	0.0160101
604.116	0.0159160
604.194	0.0160889
604.272	0.0159616
604.350	0.0160895
604.428	0.0160873
604.506	0.0159525
604.584	0.0160246
604.663	0.0159495
604.741	0.0160761
604.819	0.0159042
604.897	0.0159385
604.975	0.0159956
605.053	0.0159235
605.131	0.0160583
605.209	0.0159778
605.288	0.0160436
605.366	0.0161421
605.444	0.0160297
605.522	0.0159061
605.600	0.0160909
605.678	0.0160550
605.756	0.0159236
605.834	0.0159457
605.913	0.0161577
605.991	0.0161058
606.069	0.0161633
606.147	0.0160658
606.225	0.0160904
606.303	0.0161152
606.381	0.0161507
606.459	0.0161568
606.538	0.0160983
606.616	0.0160715
606.694	0.0161033
606.772	0.0161601
606.850	0.0160880
606.928	0.0160471
607.006	0.0159816
607.084	0.0161192
607.163	0.0160357
607.241	0.0159669
607.319	0.0159303
607.397	0.0161111
607.475	0.0160818
607.553	0.0158821
607.631	0.0159605
607.709	0.0161230
607.788	0.0159684
607.866	0.0159438
607.944	0.0159666
608.022	0.0159489
608.100	0.0161212
608.178	0.0160456
608.256	0.0159100
608.334	0.0159338
608.413	0.0159698
608.491	0.0160764
608.569	0.0160749
608.647	0.0160445
608.725	0.0160050
608.803	0.0159731
608.881	0.0160236
608.959	0.0158536
609.038	0.0159589
609.116	0.0160265
609.194	0.0161240
609.272	0.0159277
609.350	0.0159321
609.428	0.0159567
609.506	0.0159617
609.584	0.0160400
609.663	0.0159248
609.741	0.0158913
609.819	0.0159042
609.897	0.0161462
609.975	0.0160117
610.053	0.0159908
610.131	0.0159522
610.209	0.0159762
610.288	0.0160607
610.366	0.0161137
610.444	0.0161274
610.522	0.0160880
610.600	0.0161028
610.678	0.0160957
610.756	0.0160542
610.834	0.0160323
610.913	0.0160854
610.991	0.0160779
611.069	0.0160541
611.147	0.0159785
611.225	0.0160835
611.303	0.0161476
611.381	0.0161221
611.459	0.0161448
611.538	0.0160513
611.616	0.0161922
611.694	0.0160379
611.772	0.0159387
611.850	0.0160713
611.928	0.0161706
612.006	0.0159566
612.084	0.0159845
612.163	0.0161104
612.241	0.0160036
612.319	0.0160699
612.397	0.0160067
612.475	0.0160638
612.553	0.0160800
612.631	0.0160612
612.709	0.0160776
612.788	0.0160370
612.866	0.0158794
612.944	0.0161147
613.022	0.0159624
613.100	0.0159679
613.178	0.0160238
613.256	0.0160459
613.334	0.0159912
613.413	0.0159557
613.491	0.0159313
613.569	0.0159456
613.647	0.0160785
613.725	0.0159904
613.803	0.0160337
613.881	0.0159953
613.959	0.0160474
614.038	0.0159248
614.116	0.0159561
614.194	0.0160618
614.272	0.0159818
614.350	0.0160069
614.428	0.0159722
614.506	0.0159784
614.584	0.0159297
614.663	0.0160298
614.741	0.0160765
614.819	0.0159733
614.897	0.0160392
614.975	0.0160479
615.053	0.0161240
615.131	0.0160875
615.209	0.0160634
615.288	0.0161193
615.366	0.0161941
615.444	0.0161075
615.522	0.0161520
615.600	0.0160184
615.678	0.0160565
615.756	0.0162277
615.834	0.0160578
615.913	0.0158946
615.991	0.0160453
616.069	0.0158989
616.147	0.0159638
616.225	0.0161465
616.303	0.0160856
616.381	0.0160464
616.459	0.0160918
616.538	0.0161187
616.616	0.0159506
616.694	0.0159563
616.772	0.0160387
616.850	0.0160047
616.928	0.0161375
617.006	0.0158807
617.084	0.0159623
617.163	0.0160973
617.241	0.0160015
617.319	0.0159996
617.397	0.0160236
617.475	0.0160511
617.553	0.0160654
617.631	0.0161355
617.709	0.0160340
617.788	0.0161275
617.866	0.0159920
617.944	0.0159172
618.022	0.0159946
618.100	0.0160453
618.178	0.0159132
618.256	0.0159447
618.334	0.0158736
618.413	0.0160139
618.491	0.0160966
618.569	0.0160435
618.647	0.0160538
618.725	0.0159595
618.803	0.0160577
618.881	0.0160930
618.959	0.0159825
619.038	0.0159078
619.116	0.0160223
619.194	0.0159216
619.272	0.0159572
619.350	0.0160098
619.428	0.0159863
619.506	0.0160957
619.584	0.0160135
619.663	0.0159206
619.741	0.0160301
619.819	0.0159670
619.897	0.0159621
619.975	0.0162045
620.053	0.0160291
620.131	0.0158999
620.209	0.0159949
620.288	0.0160273
620.366	0.0160518
620.444	0.0161140
620.522	0.0160019
620.600	0.0159316
620.678	0.0160655
620.756	0.0159419
620.834	0.0160102
620.913	0.0160758
620.991	0.0159764
621.069	0.0160182
621.147	0.0161944
621.225	0.0158989
621.303	0.0158207
621.381	0.0159818
621.459	0.0160630
621.538	0.0159057
621.616	0.0160514
621.694	0.0161937
621.772	0.0159510
621.850	0.0160020
621.928	0.0160812
622.006	0.0159267
622.084	0.0159163
622.163	0.0160094
622.241	0.0160587
622.319	0.0161208
622.397	0.0159924
622.475	0.0160581
622.553	0.0159943
622.631	0.0161592
622.709	0.0159168
622.788	0.0158979
622.866	0.0160921
622.944	0.0159917
623.022	0.0159679
623.100	0.0159316
623.178	0.0159139
623.256	0.0160567
623.334	0.0159907
623.413	0.0159243
623.491	0.0160169
623.569	0.0160425
623.647	0.0159814
623.725	0.0160227
623.803	0.0159272
623.881	0.0160766
623.959	0.0159888
624.038	0.0161250
624.116	0.0161316
624.194	0.0160632
624.272	0.0160648
624.350	0.0159953
624.428	0.0160427
624.506	0.0160712
624.584	0.0161142
624.663	0.0161109
624.741	0.0160506
624.819	0.0159354
624.897	0.0160174
624.975	0.0160634
625.053	0.0159268
625.131	0.0160382
625.209	0.0160788
625.288	0.0159222
625.366	0.0159337
625.444	0.0159885
625.522	0.0160935
625.600	0.0160119
625.678	0.0160482
625.756	0.0160596
625.834	0.0160016
625.913	0.0159612
625.991	0.0159813
626.069	0.0161245
626.147	0.0161233
626.225	0.0159295
626.303	0.0159868
626.381	0.0160608
626.459	0.0162184
626.538	0.0159662
626.616	0.0159665
626.694	0.0159159
626.772	0.0159507
626.850	0.0160310
626.928	0.0160480
627.006	0.0158959
627.084	0.0160537
627.163	0.0160020
627.241	0.0159846
627.319	0.0159612
627.397	0.0160149
627.475	0.0161284
627.553	0.0158936
627.631	0.0159569
627.709	0.0161661
627.788	0.0160642
627.866	0.0161313
627.944	0.0160577
628.022	0.0160253
628.100	0.0160335
628.178	0.0159647
628.256	0.0160601
628.334	0.0160720
628.413	0.0159939
628.491	0.0161148
628.569	0.0161756
628.647	0.0160966
628.725	0.0159953
628.803	0.0158923
628.881	0.0160890
628.959	0.0159566
629.038	0.0158515
629.116	0.0160937
629.194	0.0160491
629.272	0.0159765
629.350	0.0160824
629.428	0.0161106
629.506	0.0159682
629.584	0.0160167
629.663	0.0160410
629.741	0.0159990
629.819	0.0160469
629.897	0.0159587
629.975	0.0160444
630.053	0.0160219
630.131	0.0158872
630.209	0.0160851
630.288	0.0158662
630.366	0.0161096
630.444	0.0161417
630.522	0.0159544
630.600	0.0160481
630.678	0.0160782
630.756	0.0160329
630.834	0.0159937
630.913	0.0159192
630.991	0.0160715
631.069	0.0160375
631.147	0.0160184
631.225	0.0160545
631.303	0.0161189
631.381	0.0159010
631.459	0.0159415
631.538	0.0159933
631.616	0.0158974
631.694	0.0160066
631.772	0.0161774
631.850	0.0159526
631.928	0.0159590
632.006	0.0159990
632.084	0.0161116
632.163	0.0159962
632.241	0.0159640
632.319	0.0158907
632.397	0.0158709
632.475	0.0159570
632.553	0.0159996
632.631	0.0160595
632.709	0.0159464
632.788	0.0159422
632.866	0.0159531
632.944	0.0159883
633.022	0.0161229
633.100	0.0160397
633.178	0.0160927
633.256	0.0160976
633.334	0.0160437
633.413	0.0160458
633.491	0.0159837
633.569	0.0159367
633.647	0.0161123
633.725	0.0160138
633.803	0.0160739
633.881	0.0161024
633.959	0.0161743
634.038	0.0162233
634.116	0.0161397
634.194	0.0160051
634.272	0.0160110
634.350	0.0161374
634.428	0.0160411
634.506	0.0160098
634.584	0.0159517
634.663	0.0159821
634.741	0.0160518
634.819	0.0159812
634.897	0.0160688
634.975	0.0161166
635.053	0.0159085
635.131	0.0160015
635.209	0.0161191
635.288	0.0158624
635.366	0.0159752
635.444	0.0160780
635.522	0.0160293
635.600	0.0160329
635.678	0.0159325
635.756	0.0160275
635.834	0.0160831
635.913	0.0160483
635.991	0.0160196
636.069	0.0159663
636.147	0.0160828
636.225	0.0161798
636.303	0.0160403
636.381	0.0160789
636.459	0.0160783
636.538	0.0161143
636.616	0.0160218
636.694	0.0160579
636.772	0.0160789
636.850	0.0159933
636.928	0.0160802
637.006	0.0160622
637.084	0.0159173
637.163	0.0160735
637.241	0.0160478
637.319	0.0162288
637.397	0.0161070
637.475	0.0161229
637.553	0.0160566
637.631	0.0160458
637.709	0.0160141
637.788	0.0159402
637.866	0.0160513
637.944	0.0160720
638.022	0.0160945
638.100	0.0160598
638.178	0.0161099
638.256	0.0161279
638.334	0.0161036
638.413	0.0161123
638.491	0.0159934
638.569	0.0161652
638.647	0.0160866
638.725	0.0159126
638.803	0.0160696
638.881	0.0160265
638.959	0.0160819
639.038	0.0160266
639.116	0.0159739
639.194	0.0160218
639.272	0.0161022
639.350	0.0160817
639.428	0.0160474
639.506	0.0158985
639.584	0.0161427
639.663	0.0160082
639.741	0.0159083
639.819	0.0160059
639.897	0.0159830
639.975	0.0159940
640.053	0.0160085
640.131	0.0159050
640.209	0.0160666
640.288	0.0159686
640.366	0.0159747
640.444	0.0161068
640.522	0.0161307
640.600	0.0160297
640.678	0.0160751
640.756	0.0161652
640.834	0.0159904
640.913	0.0160854
640.991	0.0159978
641.069	0.0159892
641.147	0.0160683
641.225	0.0161587
641.303	0.0160137
641.381	0.0159972
641.459	0.0160493
641.538	0.0160148
641.616	0.0159461
641.694	0.0160550
641.772	0.0161817
641.850	0.0161864
641.928	0.0159890
642.006	0.0159155
642.084	0.0161076
642.163	0.0161121
642.241	0.0159455
642.319	0.0159659
642.397	0.0159216
642.475	0.0160349
642.553	0.0161958
642.631	0.0159256
642.709	0.0160287
642.788	0.0160192
642.866	0.0159776
642.944	0.0159551
643.022	0.0160397
643.100	0.0161429
643.178	0.0160567
643.256	0.0160004
643.334	0.0160074
643.413	0.0159791
643.491	0.0159389
643.569	0.0161269
643.647	0.0160577
643.725	0.0160355
643.803	0.0159663
643.881	0.0159736
643.959	0.0160412
644.038	0.0160307
644.116	0.0159326
644.194	0.0160371
644.272	0.0160111
644.350	0.0160059
644.428	0.0160215
644.506	0.0160905
644.584	0.0160836
644.663	0.0158999
644.741	0.0160617
644.819	0.0161086
644.897	0.0159991
644.975	0.0159269
645.053	0.0159508
645.131	0.0159628
645.209	0.0159534
645.288	0.0160406
645.366	0.0160934
645.444	0.0159917
645.522	0.0160391
645.600	0.0160909
645.678	0.0160072
645.756	0.0160707
645.834	0.0160092
645.913	0.0159601
645.991	0.0160005
646.069	0.0159846
646.147	0.0161558
646.225	0.0161272
646.303	0.0160025
646.381	0.0159081
646.459	0.0160918
646.538	0.0160058
646.616	0.0160412
646.694	0.0161747
646.772	0.0159613
646.850	0.0160720
646.928	0.0159628
647.006	0.0159747
647.084	0.0160239
647.163	0.0161108
647.241	0.0160526
647.319	0.0159475
647.397	0.0159863
647.475	0.0159506
647.553	0.0160425
647.631	0.0160275
647.709	0.0159019
647.788	0.0160634
647.866	0.0161070
647.944	0.0160028
648.022	0.0159788
648.100	0.0160571
648.178	0.0159156
648.256	0.0160859
648.334	0.0160412
648.413	0.0160632
648.491	0.0160960
648.569	0.0159375
648.647	0.0160160
648.725	0.0160929
648.803	0.0159787
648.881	0.0160674
648.959	0.0160882
649.038	0.0160029
649.116	0.0159862
649.194	0.0160210
649.272	0.0159816
649.350	0.0159221
649.428	0.0159722
649.506	0.0160236
649.584	0.0161794
649.663	0.0160879
649.741	0.0160307
649.819	0.0160104
649.897	0.0159579
649.975	0.0160581
650.053	0.0159971
650.131	0.0159247
650.209	0.0160341
650.288	0.0160146
650.366	0.0160279
650.444	0.0159155
650.522	0.0160139
650.600	0.0160004
650.678	0.0160197
650.756	0.0160148
650.834	0.0159779
650.913	0.0159915
650.991	0.0159898
651.069	0.0159824
651.147	0.0159975
651.225	0.0159834
651.303	0.0159949
651.381	0.0160342
651.459	0.0160076
651.538	0.0158931
651.616	0.0159753
651.694	0.0160504
651.772	0.0160955
651.850	0.0160927
651.928	0.0160278
652.006	0.0160487
652.084	0.0159455
652.163	0.0159871
652.241	0.0159422
652.319	0.0160623
652.397	0.0161162
652.475	0.0159137
652.553	0.0159448
652.631	0.0159717
652.709	0.0161031
652.788	0.0160825
652.866	0.0159795
652.944	0.0161295
653.022	0.0159911
653.100	0.0159916
653.178	0.0160713
653.256	0.0160016
653.334	0.0160296
653.413	0.0161645
653.491	0.0160275
653.569	0.0158967
653.647	0.0159623
653.725	0.0161063
653.803	0.0161000
653.881	0.0159943
653.959	0.0158208
654.038	0.0160793
654.116	0.0161081
654.194	0.0159357
654.272	0.0160777
654.350	0.0160265
654.428	0.0159001
654.506	0.0160648
654.584	0.0160160
654.663	0.0159401
654.741	0.0160212
654.819	0.0160323
654.897	0.0160475
654.975	0.0160192
655.053	0.0159717
655.131	0.0160073
655.209	0.0159543
655.288	0.0159798
655.366	0.0161205
655.444	0.0160491
655.522	0.0160007
655.600	0.0160655
655.678	0.0157981
655.756	0.0159296
655.834	0.0160780
655.913	0.0160947
655.991	0.0160479
656.069	0.0160326
656.147	0.0161308
656.225	0.0159864
656.303	0.0160955
656.381	0.0160782
656.459	0.0160024
656.538	0.0159455
656.616	0.0160492
656.694	0.0159949
656.772	0.0160097
656.850	0.0160655
656.928	0.0160576
657.006	0.0160297
657.084	0.0160285
657.163	0.0160753
657.241	0.0160519
657.319	0.0160232
657.397	0.0161333
657.475	0.0159476
657.553	0.0159607
657.631	0.0160217
657.709	0.0160406
657.788	0.0160497
657.866	0.0161387
657.944	0.0159425
658.022	0.0160432
658.100	0.0160815
658.178	0.0159982
658.256	0.0160702
658.334	0.0160011
658.413	0.0160251
658.491	0.0160910
658.569	0.0159886
658.647	0.0160159
658.725	0.0160116
658.803	0.0161736
658.881	0.0160564
658.959	0.0159445
659.038	0.0159818
659.116	0.0160934
659.194	0.0160112
659.272	0.0160490
659.350	0.0161002
659.428	0.0160509
659.506	0.0160643
659.584	0.0159674
659.663	0.0159269
659.741	0.0160053
659.819	0.0161356
659.897	0.0160225
659.975	0.0161665
660.053	0.0162258
660.131	0.0159324
660.209	0.0159952
660.288	0.0160041
660.366	0.0161639
660.444	0.0159669
660.522	0.0159757
660.600	0.0160648
660.678	0.0161365
660.756	0.0159888
660.834	0.0158965
660.913	0.0159770
660.991	0.0160117
661.069	0.0159467
661.147	0.0160278
661.225	0.0160072
661.303	0.0158937
661.381	0.0159965
661.459	0.0159734
661.538	0.0159058
661.616	0.0160703
661.694	0.0159568
661.772	0.0160821
661.850	0.0160791
661.928	0.0159406
662.006	0.0159754
662.084	0.0159281
662.163	0.0160056
662.241	0.0161250
662.319	0.0161056
662.397	0.0161614
662.475	0.0161053
662.553	0.0161043
662.631	0.0159393
662.709	0.0161931
662.788	0.0161792
662.866	0.0160401
662.944	0.0161478
663.022	0.0161887
663.100	0.0161647
663.178	0.0162704
663.256	0.0159394
663.334	0.0161310
663.413	0.0160448
663.491	0.0159574
663.569	0.0158514
663.647	0.0159145
663.725	0.0160037
663.803	0.0159595
663.881	0.0158768
663.959	0.0158772
664.038	0.0158987
664.116	0.0157952
664.194	0.0158738
664.272	0.0158559
664.350	0.0159200
664.428	0.0157847
664.506	0.0159296
664.584	0.0160089
664.663	0.0160649
664.741	0.0159847
664.819	0.0161710
664.897	0.0161187
664.975	0.0160709
665.053	0.0162238
665.131	0.0162852
665.209	0.0163001
665.288	0.0163084
665.366	0.0163826
665.444	0.0163405
665.522	0.0164385
665.600	0.0163446
665.678	0.0164722
665.756	0.0163824
665.834	0.0163522
665.913	0.0164133
665.991	0.0163558
666.069	0.0162582
666.147	0.0163197
666.225	0.0161831
666.303	0.0161287
666.381	0.0158416
666.459	0.0157080
666.538	0.0155385
666.616	0.0156502
666.694	0.0153424
666.772	0.0153397
666.850	0.0152489
666.928	0.0151935
667.006	0.0152673
667.084	0.0153281
667.163	0.0154391
667.241	0.0154287
667.319	0.0156612
667.397	0.0159505
667.475	0.0159866
667.553	0.0161636
667.631	0.0162950
667.709	0.0164406
667.788	0.0164384
667.866	0.0162895
667.944	0.0163183
668.022	0.0161761
668.100	0.0161141
668.178	0.0159282
668.256	0.0160627
668.334	0.0162163
668.413	0.0164380
668.491	0.0164422
668.569	0.0166747
668.647	0.0169940
668.725	0.0172459
668.803	0.0174029
668.881	0.0175346
668.959	0.0176419
669.038	0.0175257
669.116	0.0174650
669.194	0.0173716
669.272	0.0170480
669.350	0.0166895
669.428	0.0160938
669.506	0.0157128
669.584	0.0153001
669.663	0.0149799
669.741	0.0145846
669.819	0.0144051
669.897	0.0142397
669.975	0.0140491
670.053	0.0141917
670.131	0.0141255
670.209	0.0143362
670.288	0.0145352
670.366	0.0146717
670.444	0.0149839
670.522	0.0152168
670.600	0.0154261
670.678	0.0155956
670.756	0.0157759
670.834	0.0160942
670.913	0.0161465
670.991	0.0165536
671.069	0.0166399
671.147	0.0168050
671.225	0.0169578
671.303	0.0171766
671.381	0.0173180
671.459	0.0174051
671.538	0.0175594
671.616	0.0174136
671.694	0.0175618
671.772	0.0175661
671.850	0.0175496
671.928	0.0175004
672.006	0.0173428
672.084	0.0171866
672.163	0.0171159
672.241	0.0170111
672.319	0.0167096
672.397	0.0165784
672.475	0.0161576
672.553	0.0159180
672.631	0.0154781
672.709	0.0150465
672.788	0.0146656
672.866	0.0140601
672.944	0.0136103
673.022	0.0130748
673.100	0.0127249
673.178	0.0125507
673.256	0.0123241
673.334	0.0122932
673.413	0.0126637
673.491	0.0131340
673.569	0.0135482
673.647	0.0141975
673.725	0.0150095
673.803	0.0159947
673.881	0.0168348
673.959	0.0176485
674.038	0.0183677
674.116	0.0192620
674.194	0.0197483
674.272	0.0204552
674.350	0.0208611
674.428	0.0212785
674.506	0.0213291
674.584	0.0214117
674.663	0.0213142
674.741	0.0213748
674.819	0.0211125
674.897	0.0206384
674.975	0.0200559
675.053	0.0195219
675.131	0.0185932
675.209	0.0174238
675.288	0.0165675
675.366	0.0151235
675.444	0.0140153
675.522	0.0128606
675.600	0.0117272
675.678	0.0105032
675.756	0.00982338
675.834	0.00926888
675.913	0.00871704
675.991	0.00821404
676.069	0.00816757
676.147	0.00824905
676.225	0.00862122
676.303	0.00892593
676.381	0.00938019
676.459	0.0100172
676.538	0.0108128
676.616	0.0117658
676.694	0.0125760
676.772	0.0133380
676.850	0.0142874
676.928	0.0151940
677.006	0.0160682
677.084	0.0171217
677.163	0.0180595
677.241	0.0191518
677.319	0.0200868
677.397	0.0210042
677.475	0.0217836
677.553	0.0226924
677.631	0.0234882
677.709	0.0241093
677.788	0.0247784
677.866	0.0252240
677.944	0.0254016
678.022	0.0255323
678.100	0.0255389
678.178	0.0252533
678.256	0.0248009
678.334	0.0241822
678.413	0.0234237
678.491	0.0223753
678.569	0.0212046
678.647	0.0202136
678.725	0.0188775
678.803	0.0175174
678.881	0.0164206
678.959	0.0150308
679.038	0.0138148
679.116	0.0123757
679.194	0.0112738
679.272	0.00977264
679.350	0.00880043
679.428	0.00764015
679.506	0.00646126
679.584	0.00555809
679.663	0.00470810
679.741	0.00411438
679.819	0.00368965
679.897	0.00331902
679.975	0.00332642
680.053	0.00362160
680.131	0.00421310
680.209	0.00502975
680.288	0.00621849
680.366	0.00770401
680.444	0.00936821
680.522	0.0113650
680.600	0.0131919
680.678	0.0152372
680.756	0.0172966
680.834	0.0190083
680.913	0.0207906
680.991	0.0220619
681.069	0.0231609
681.147	0.0239982
681.225	0.0244061
681.303	0.0248649
681.381	0.0248711
681.459	0.0248904
681.538	0.0248254
681.616	0.0247844
681.694	0.0247839
681.772	0.0248817
681.850	0.0247238
681.928	0.0245093
682.006	0.0244778
682.084	0.0241807
682.163	0.0238730
682.241	0.0233014
682.319	0.0226401
682.397	0.0218927
682.475	0.0208949
682.553	0.0198862
682.631	0.0189687
682.709	0.0178441
682.788	0.0170332
682.866	0.0162322
682.944	0.0155947
683.022	0.0151166
683.100	0.0149660
683.178	0.0145570
683.256	0.0145332
683.334	0.0142122
683.413	0.0139167
683.491	0.0135090
683.569	0.0131562
683.647	0.0124700
683.725	0.0114616
683.803	0.0105638
683.881	0.00953896
683.959	0.00808403
684.038	0.00683090
684.116	0.00564453
684.194	0.00449860
684.272	0.00354111
684.350	0.00280319
684.428	0.00233437
684.506	0.00224846
684.584	0.00241829
684.663	0.00308746
684.741	0.00428055
684.819	0.00557571
684.897	0.00739296
684.975	0.00951088
685.053	0.0114716
685.131	0.0136573
685.209	0.0161283
685.288	0.0183320
685.366	0.0204194
685.444	0.0222629
685.522	0.0239944
685.600	0.0252814
685.678	0.0263848
685.756	0.0272038
685.834	0.0275390
685.913	0.0280229
685.991	0.0281730
686.069	0.0281600
686.147	0.0281382
686.225	0.0281731
686.303	0.0279942
686.381	0.0276419
686.459	0.0273883
686.538	0.0267931
686.616	0.0262788
686.694	0.0255299
686.772	0.0244287
686.850	0.0233549
686.928	0.0223452
687.006	0.0208290
687.084	0.0194953
687.163	0.0181686
687.241	0.0167999
687.319	0.0155474
687.397	0.0144431
687.475	0.0135545
687.553	0.0125290
687.631	0.0118143
687.709	0.0111763
687.788	0.0105825
687.866	0.00999107
687.944	0.00956886
688.022	0.00905876
688.100	0.00863518
688.178	0.00802017
688.256	0.00757828
688.334	0.00703667
688.413	0.00646797
688.491	0.00581886
688.569	0.00543327
688.647	0.00504753
688.725	0.00482162
688.803	0.00467934
688.881	0.00468048
688.959	0.00495232
689.038	0.00538231
689.116	0.00612495
689.194	0.00706367
689.272	0.00814667
689.350	0.00960640
689.428	0.0112864
689.506	0.0130167
689.584	0.0146935
689.663	0.0164234
689.741	0.0180420
689.819	0.0198575
689.897	0.0212554
689.975	0.0224686
690.053	0.0235295
690.131	0.0242641
690.209	0.0247739
690.288	0.0251656
690.366	0.0252160
690.444	0.0251638
690.522	0.0252481
690.600	0.0248565
690.678	0.0245812
690.756	0.0242900
690.834	0.0240892
690.913	0.0236782
690.991	0.0234512
691.069	0.0232629
691.147	0.0230506
691.225	0.0228238
691.303	0.0224919
691.381	0.0222350
691.459	0.0217533
691.538	0.0213376
691.616	0.0208717
691.694	0.0204830
691.772	0.0198660
691.850	0.0192284
691.928	0.0184675
692.006	0.0177953
692.084	0.0169645
692.163	0.0162057
692.241	0.0152662
692.319	0.0142718
692.397	0.0132175
692.475	0.0121177
692.553	0.0112681
692.631	0.0103151
692.709	0.00936417
692.788	0.00868774
692.866	0.00787445
692.944	0.00708801
693.022	0.00637543
693.100	0.00607346
693.178	0.00603523
693.256	0.00586327
693.334	0.00607956
693.413	0.00634689
693.491	0.00685249
693.569	0.00757179
693.647	0.00817215
693.725	0.00919846
693.803	0.0103593
693.881	0.0116496
693.959	0.0126882
694.038	0.0141592
694.116	0.0153972
694.194	0.0164084
694.272	0.0174407
694.350	0.0186138
694.428	0.0194603
694.506	0.0201588
694.584	0.0206508
694.663	0.0211090
694.741	0.0211852
694.819	0.0214069
694.897	0.0213722
694.975	0.0210669
695.053	0.0208817
695.131	0.0203695
695.209	0.0199252
695.288	0.0193941
695.366	0.0188982
695.444	0.0184763
695.522	0.0182566
695.600	0.0177839
695.678	0.0174442
695.756	0.0174030
695.834	0.0173365
695.913	0.0175076
695.991	0.0176161
696.069	0.0178183
696.147	0.0181184
696.225	0.0184981
696.303	0.0188616
696.381	0.0191174
696.459	0.0193172
696.538	0.0194939
696.616	0.0197886
696.694	0.0199291
696.772	0.0199804
696.850	0.0197836
696.928	0.0196468
697.006	0.0193237
697.084	0.0187737
697.163	0.0182436
697.241	0.0176443
697.319	0.0169579
697.397	0.0161976
697.475	0.0152104
697.553	0.0143593
697.631	0.0135513
697.709	0.0126521
697.788	0.0119016
697.866	0.0114013
697.944	0.0108838
698.022	0.0105775
698.100	0.0104954
698.178	0.0105326
698.256	0.0106734
698.334	0.0112563
698.413	0.0117439
698.491	0.0122974
698.569	0.0132526
698.647	0.0137376
698.725	0.0143234
698.803	0.0149840
698.881	0.0155829
698.959	0.0158357
699.038	0.0163315
699.116	0.0168473
699.194	0.0168227
699.272	0.0167233
699.350	0.0169510
699.428	0.0167619
699.506	0.0166610
699.584	0.0162567
699.663	0.0160113
699.741	0.0157847
699.819	0.0154452
699.897	0.0152531
699.975	0.0149386
700.053	0.0146600
700.131	0.0146376
700.209	0.0145451
700.288	0.0144852
700.366	0.0145912
700.444	0.0148385
700.522	0.0150830
700.600	0.0151498
700.678	0.0153414
700.756	0.0158201
700.834	0.0159976
700.913	0.0164589
700.991	0.0169289
701.069	0.0171786
701.147	0.0174813
701.225	0.0179938
701.303	0.0184253
701.381	0.0187164
701.459	0.0188039
701.538	0.0189923
701.616	0.0190060
701.694	0.0188737
701.772	0.0186790
701.850	0.0183969
701.928	0.0181637
702.006	0.0177339
702.084	0.0173012
702.163	0.0167992
702.241	0.0163873
702.319	0.0160656
702.397	0.0157504
702.475	0.0156411
702.553	0.0155688
702.631	0.0155683
702.709	0.0155633
702.788	0.0157372
702.866	0.0159930
702.944	0.0162399
703.022	0.0167554
703.100	0.0171055
703.178	0.0173772
703.256	0.0178524
703.334	0.0180382
703.413	0.0185108
703.491	0.0186412
703.569	0.0187589
703.647	0.0186127
703.725	0.0187122
703.803	0.0185685
703.881	0.0182759
703.959	0.0179519
704.038	0.0174288
704.116	0.0170610
704.194	0.0165308
704.272	0.0159278
704.350	0.0152942
704.428	0.0146378
704.506	0.0140298
704.584	0.0134315
704.663	0.0130736
704.741	0.0127050
704.819	0.0121590
704.897	0.0120421
704.975	0.0118211
705.053	0.0118277
705.131	0.0119179
705.209	0.0119053
705.288	0.0120389
705.366	0.0123191
705.444	0.0126203
705.522	0.0128298
705.600	0.0132907
705.678	0.0135750
705.756	0.0139572
705.834	0.0144034
705.913	0.0146552
705.991	0.0150360
706.069	0.0154487
706.147	0.0159372
706.225	0.0162508
706.303	0.0162897
706.381	0.0164311
706.459	0.0167643
706.538	0.0167145
706.616	0.0167148
706.694	0.0169458
706.772	0.0167892
706.850	0.0167828
706.928	0.0167225
707.006	0.0166608
707.084	0.0166570
707.163	0.0168532
707.241	0.0170915
707.319	0.0171688
707.397	0.0173690
707.475	0.0174888
707.553	0.0179465
707.631	0.0181281
707.709	0.0185564
707.788	0.0185584
707.866	0.0186977
707.944	0.0188962
708.022	0.0188680
708.100	0.0189767
708.178	0.0188509
708.256	0.0188266
708.334	0.0184839
708.413	0.0183859
708.491	0.0183705
708.569	0.0180093
708.647	0.0175589
708.725	0.0174300
708.803	0.0172149
708.881	0.0170057
708.959	0.0166272
709.038	0.0164297
709.116	0.0162107
709.194	0.0161176
709.272	0.0158066
709.350	0.0157077
709.428	0.0157420
709.506	0.0156674
709.584	0.0157949
709.663	0.0157076
709.741	0.0158363
709.819	0.0158821
709.897	0.0158359
709.975	0.0157796
710.053	0.0159100
710.131	0.0157544
710.209	0.0155392
710.288	0.0153488
710.366	0.0152042
710.444	0.0150511
710.522	0.0148171
710.600	0.0145158
710.678	0.0142477
710.756	0.0139760
710.834	0.0138539
710.913	0.0136655
710.991	0.0135479
711.069	0.0133597
711.147	0.0133501
711.225	0.0132637
711.303	0.0130887
711.381	0.0131425
711.459	0.0132484
711.538	0.0132916
711.616	0.0135876
711.694	0.0136158
711.772	0.0138314
711.850	0.0142055
711.928	0.0145373
712.006	0.0150372
712.084	0.0152296
712.163	0.0158053
712.241	0.0163839
712.319	0.0167520
712.397	0.0171515
712.475	0.0176099
712.553	0.0177711
712.631	0.0179430
712.709	0.0182669
712.788	0.0182427
712.866	0.0182167
712.944	0.0181618
713.022	0.0180293
713.100	0.0177274
713.178	0.0174561
713.256	0.0173373
713.334	0.0169229
713.413	0.0165788
713.491	0.0162688
713.569	0.0161372
713.647	0.0161854
713.725	0.0159293
713.803	0.0158751
713.881	0.0161097
713.959	0.0161685
714.038	0.0163139
714.116	0.0166760
714.194	0.0169364
714.272	0.0172172
714.350	0.0173727
714.428	0.0174456
714.506	0.0175916
714.584	0.0177617
714.663	0.0179295
714.741	0.0178043
714.819	0.0176677
714.897	0.0175082
714.975	0.0174647
715.053	0.0171014
715.131	0.0167609
715.209	0.0165673
715.288	0.0161805
715.366	0.0159074
715.444	0.0157001
715.522	0.0156466
715.600	0.0152743
715.678	0.0151646
715.756	0.0149743
715.834	0.0151177
715.913	0.0151142
715.991	0.0150620
716.069	0.0151502
716.147	0.0153711
716.225	0.0153389
716.303	0.0153226
716.381	0.0156415
716.459	0.0156546
716.538	0.0157817
716.616	0.0158789
716.694	0.0160976
716.772	0.0161925
716.850	0.0162004
716.928	0.0163597
717.006	0.0163520
717.084	0.0165059
717.163	0.0165462
717.241	0.0164286
717.319	0.0162453
717.397	0.0161369
717.475	0.0159536
717.553	0.0156905
717.631	0.0155350
717.709	0.0152117
717.788	0.0149478
717.866	0.0145181
717.944	0.0143520
718.022	0.0142295
718.100	0.0138914
718.178	0.0138300
718.256	0.0138402
718.334	0.0138573
718.413	0.0139397
718.491	0.0138438
718.569	0.0140411
718.647	0.0141341
718.725	0.0145620
718.803	0.0147713
718.881	0.0149464
718.959	0.0153929
719.038	0.0155067
719.116	0.0158150
719.194	0.0160783
719.272	0.0163230
719.350	0.0163734
719.428	0.0165652
719.506	0.0167966
719.584	0.0167683
719.663	0.0170618
719.741	0.0170029
719.819	0.0171515
719.897	0.0171004
719.975	0.0170924
720.053	0.0172476
720.131	0.0172730
720.209	0.0171196
720.288	0.0172151
720.366	0.0173287
720.444	0.0173859
720.522	0.0175848
720.600	0.0173910
720.678	0.0175488
720.756	0.0177296
720.834	0.0176419
720.913	0.0176508
720.991	0.0177222
721.069	0.0177531
721.147	0.0176761
721.225	0.0177457
721.303	0.0175213
721.381	0.0174077
721.459	0.0173736
721.538	0.0172321
721.616	0.0170442
721.694	0.0168307
721.772	0.0167474
721.850	0.0165421
721.928	0.0163773
722.006	0.0162421
722.084	0.0161649
722.163	0.0159402
722.241	0.0158926
722.319	0.0158141
722.397	0.0155159
722.475	0.0155455
722.553	0.0155441
722.631	0.0154132
722.709	0.0153056
722.788	0.0153797
722.866	0.0153982
722.944	0.0152032
723.022	0.0152062
723.100	0.0149950
723.178	0.0150603
723.256	0.0151064
723.334	0.0149481
723.413	0.0149592
723.491	0.0149537
723.569	0.0147865
723.647	0.0148644
723.725	0.0147884
723.803	0.0148077
723.881	0.0145732
723.959	0.0146112
724.038	0.0146063
724.116	0.0146382
724.194	0.0145401
724.272	0.0143314
724.350	0.0143063
724.428	0.0144360
724.506	0.0145425
724.584	0.0145319
724.663	0.0146941
724.741	0.0149449
724.819	0.0151476
724.897	0.0154670
724.975	0.0157355
725.053	0.0159730
725.131	0.0161547
725.209	0.0164987
725.288	0.0166733
725.366	0.0169235
725.444	0.0172303
725.522	0.0173204
725.600	0.0174248
725.678	0.0173711
725.756	0.0175011
725.834	0.0175548
725.913	0.0175174
725.991	0.0173855
726.069	0.0175835
726.147	0.0173502
726.225	0.0173675
726.303	0.0174596
726.381	0.0174487
726.459	0.0174722
726.538	0.0174699
726.616	0.0173771
726.694	0.0173811
726.772	0.0173100
726.850	0.0171973
726.928	0.0169470
727.006	0.0169434
727.084	0.0166260
727.163	0.0164825
727.241	0.0163620
727.319	0.0161961
727.397	0.0159187
727.475	0.0158927
727.553	0.0159060
727.631	0.0157346
727.709	0.0156134
727.788	0.0155613
727.866	0.0156055
727.944	0.0155651
728.022	0.0154668
728.100	0.0154269
728.178	0.0155076
728.256	0.0155711
728.334	0.0154125
728.413	0.0155028
728.491	0.0153848
728.569	0.0154328
728.647	0.0155729
728.725	0.0155951
728.803	0.0156133
728.881	0.0156116
728.959	0.0156420
729.038	0.0156804
729.116	0.0158508
729.194	0.0159946
729.272	0.0160798
729.350	0.0161120
729.428	0.0160786
729.506	0.0160902
729.584	0.0162092
729.663	0.0162241
729.741	0.0162712
729.819	0.0162435
729.897	0.0163094
729.975	0.0162451
730.053	0.0164471
730.131	0.0162127
730.209	0.0162744
730.288	0.0163467
730.366	0.0164472
730.444	0.0164108
730.522	0.0163561
730.600	0.0163754
730.678	0.0163721
730.756	0.0164502
730.834	0.0162909
730.913	0.0163326
730.991	0.0163150
731.069	0.0161761
731.147	0.0162405
731.225	0.0160281
731.303	0.0160381
731.381	0.0161124
731.459	0.0160804
731.538	0.0159728
731.616	0.0156798
731.694	0.0158847
731.772	0.0157574
731.850	0.0155644
731.928	0.0153448
732.006	0.0153501
732.084	0.0152702
732.163	0.0152029
732.241	0.0152270
732.319	0.0150665
732.397	0.0150713
732.475	0.0153106
732.553	0.0150323
732.631	0.0150141
732.709	0.0149934
732.788	0.0151299
732.866	0.0151390
732.944	0.0152887
733.022	0.0153794
733.100	0.0155563
733.178	0.0158316
733.256	0.0158434
733.334	0.0159164
733.413	0.0162706
733.491	0.0163554
733.569	0.0164117
733.647	0.0166663
733.725	0.0167229
733.803	0.0167953
733.881	0.0169924
733.959	0.0170034
734.038	0.0171542
734.116	0.0170388
734.194	0.0171016
734.272	0.0169793
734.350	0.0171629
734.428	0.0170605
734.506	0.0168971
734.584	0.0168066
734.663	0.0167632
734.741	0.0167040
734.819	0.0166262
734.897	0.0166104
734.975	0.0164535
735.053	0.0162863
735.131	0.0162059
735.209	0.0163149
735.288	0.0161876
735.366	0.0161955
735.444	0.0165432
735.522	0.0164363
735.600	0.0164377
735.678	0.0164272
735.756	0.0163782
735.834	0.0165429
735.913	0.0165804
735.991	0.0165890
736.069	0.0165903
736.147	0.0164870
736.225	0.0162527
736.303	0.0162657
736.381	0.0161974
736.459	0.0160439
736.538	0.0158873
736.616	0.0158089
736.694	0.0156351
736.772	0.0154577
736.850	0.0153618
736.928	0.0152092
737.006	0.0150940
737.084	0.0151144
737.163	0.0151350
737.241	0.0152481
737.319	0.0151084
737.397	0.0150806
737.475	0.0151493
737.553	0.0151335
737.631	0.0152354
737.709	0.0150608
737.788	0.0150809
737.866	0.0152160
737.944	0.0151975
738.022	0.0150326
738.100	0.0150340
738.178	0.0153789
738.256	0.0153069
738.334	0.0152055
738.413	0.0153800
738.491	0.0154234
738.569	0.0156689
738.647	0.0156906
738.725	0.0157381
738.803	0.0157908
738.881	0.0160484
738.959	0.0161816
739.038	0.0160801
739.116	0.0160892
739.194	0.0162998
739.272	0.0162527
739.350	0.0163151
739.428	0.0164565
739.506	0.0165191
739.584	0.0165046
739.663	0.0165784
739.741	0.0166045
739.819	0.0166894
739.897	0.0167674
739.975	0.0168944
740.053	0.0167183
740.131	0.0167802
740.209	0.0166080
740.288	0.0166869
740.366	0.0166850
740.444	0.0166820
740.522	0.0166005
740.600	0.0163382
740.678	0.0162200
740.756	0.0163195
740.834	0.0162108
740.913	0.0160627
740.991	0.0160500
741.069	0.0159765
741.147	0.0160026
741.225	0.0159735
741.303	0.0159006
741.381	0.0158679
741.459	0.0157996
741.538	0.0159621
741.616	0.0160746
741.694	0.0159824
741.772	0.0160316
741.850	0.0160315
741.928	0.0161764
742.006	0.0161536
742.084	0.0162573
742.163	0.0161495
742.241	0.0162891
742.319	0.0163473
742.397	0.0162708
742.475	0.0161715
742.553	0.0161758
742.631	0.0162366
742.709	0.0162600
742.788	0.0161509
742.866	0.0161346
742.944	0.0161154
743.022	0.0160523
743.100	0.0159959
743.178	0.0160018
743.256	0.0158810
743.334	0.0158432
743.413	0.0158663
743.491	0.0158787
743.569	0.0158404
743.647	0.0157663
743.725	0.0159757
743.803	0.0158598
743.881	0.0158401
743.959	0.0157693
744.038	0.0159547
744.116	0.0160339
744.194	0.0161164
744.272	0.0163078
744.350	0.0161282
744.428	0.0162622
744.506	0.0163796
744.584	0.0163354
744.663	0.0163528
744.741	0.0163821
744.819	0.0164089
744.897	0.0163335
744.975	0.0162223
745.053	0.0162151
745.131	0.0160854
745.209	0.0160367
745.288	0.0158353
745.366	0.0157721
745.444	0.0157800
745.522	0.0155984
745.600	0.0156109
745.678	0.0154768
745.756	0.0155276
745.834	0.0154604
745.913	0.0154115
745.991	0.0153761
746.069	0.0153545
746.147	0.0154442
746.225	0.0154060
746.303	0.0153470
746.381	0.0154236
746.459	0.0154224
746.538	0.0155831
746.616	0.0156199
746.694	0.0155908
746.772	0.0157106
746.850	0.0158312
746.928	0.0159794
747.006	0.0158806
747.084	0.0159170
747.163	0.0158627
747.241	0.0159386
747.319	0.0159312
747.397	0.0158564
747.475	0.0159663
747.553	0.0158524
747.631	0.0158996
747.709	0.0159865
747.788	0.0161358
747.866	0.0159650
747.944	0.0158862
748.022	0.0160737
748.100	0.0162502
748.178	0.0162682
748.256	0.0162709
748.334	0.0164762
748.413	0.0166167
748.491	0.0167134
748.569	0.0165302
748.647	0.0168723
748.725	0.0168226
748.803	0.0169147
748.881	0.0169559
748.959	0.0170343
749.038	0.0171095
749.116	0.0170636
749.194	0.0170672
749.272	0.0171303
749.350	0.0168327
749.428	0.0169230
749.506	0.0168947
749.584	0.0168144
749.663	0.0167427
749.741	0.0166329
749.819	0.0165156
749.897	0.0164202
749.975	0.0163586
750.053	0.0161410
750.131	0.0161827
750.209	0.0160484
750.288	0.0158775
750.366	0.0158195
750.444	0.0158365
750.522	0.0157275
750.600	0.0156400
750.678	0.0158028
750.756	0.0156534
750.834	0.0157274
750.913	0.0156270
750.991	0.0155321
751.069	0.0156213
751.147	0.0155161
751.225	0.0154218
751.303	0.0154919
751.381	0.0153867
751.459	0.0153777
751.538	0.0151087
751.616	0.0151660
751.694	0.0152283
751.772	0.0152081
751.850	0.0151099
751.928	0.0151598
752.006	0.0151012
752.084	0.0151633
752.163	0.0151134
752.241	0.0151269
752.319	0.0151105
752.397	0.0152790
752.475	0.0153852
752.553	0.0154171
752.631	0.0156768
752.709	0.0157428
752.788	0.0158089
752.866	0.0158522
752.944	0.0158225
753.022	0.0160889
753.100	0.0162699
753.178	0.0162360
753.256	0.0163584
753.334	0.0164091
753.413	0.0166379
753.491	0.0166273
753.569	0.0166496
753.647	0.0167697
753.725	0.0167599
753.803	0.0167587
753.881	0.0168330
753.959	0.0168028
754.038	0.0168162
754.116	0.0168023
754.194	0.0167710
754.272	0.0167007
754.350	0.0166940
754.428	0.0165234
754.506	0.0165012
754.584	0.0165257
754.663	0.0162691
754.741	0.0162116
754.819	0.0160500
754.897	0.0159506
754.975	0.0159140
755.053	0.0159483
755.131	0.0158951
755.209	0.0156960
755.288	0.0155939
755.366	0.0154939
755.444	0.0155299
755.522	0.0155840
755.600	0.0155684
755.678	0.0156655
755.756	0.0155765
755.834	0.0155905
755.913	0.0156285
755.991	0.0155930
756.069	0.0156414
756.147	0.0155462
756.225	0.0158103
756.303	0.0157744
756.381	0.0156921
756.459	0.0157619
756.538	0.0159461
756.616	0.0159829
756.694	0.0159884
756.772	0.0158167
756.850	0.0159653
756.928	0.0161644
757.006	0.0161382
757.084	0.0161141
757.163	0.0161942
757.241	0.0162607
757.319	0.0162814
757.397	0.0165752
757.475	0.0165044
757.553	0.0164620
757.631	0.0165071
757.709	0.0166445
757.788	0.0167893
757.866	0.0168680
757.944	0.0167359
758.022	0.0167384
758.100	0.0168204
758.178	0.0167097
758.256	0.0167303
758.334	0.0167092
758.413	0.0165366
758.491	0.0164192
758.569	0.0164138
758.647	0.0163951
758.725	0.0164867
758.803	0.0161659
758.881	0.0159442
758.959	0.0160992
759.038	0.0160651
759.116	0.0158600
759.194	0.0158690
759.272	0.0157404
759.350	0.0155787
759.428	0.0156139
759.506	0.0154745
759.584	0.0153897
759.663	0.0153937
759.741	0.0152855
759.819	0.0152481
759.897	0.0152970
759.975	0.0152628
760.053	0.0151084
760.131	0.0150113
760.209	0.0150291
760.288	0.0150396
760.366	0.0149992
760.444	0.0150513
760.522	0.0152038
760.600	0.0152006
760.678	0.0151929
760.756	0.0152106
760.834	0.0152587
760.913	0.0152601
760.991	0.0153313
761.069	0.0155168
761.147	0.0156796
761.225	0.0158404
761.303	0.0158569
761.381	0.0160941
761.459	0.0162244
761.538	0.0163470
761.616	0.0162504
761.694	0.0162954
761.772	0.0166337
761.850	0.0165531
761.928	0.0166074
762.006	0.0166679
762.084	0.0167224
762.163	0.0166897
762.241	0.0166623
762.319	0.0167113
762.397	0.0167410
762.475	0.0166819
762.553	0.0167109
762.631	0.0167062
762.709	0.0166715
762.788	0.0167005
762.866	0.0166402
762.944	0.0167093
763.022	0.0167416
763.100	0.0165471
763.178	0.0165785
763.256	0.0165906
763.334	0.0164629
763.413	0.0163390
763.491	0.0163207
763.569	0.0162856
763.647	0.0160671
763.725	0.0160730
763.803	0.0159875
763.881	0.0159779
763.959	0.0158894
764.038	0.0159032
764.116	0.0158583
764.194	0.0156883
764.272	0.0156166
764.350	0.0157373
764.428	0.0156959
764.506	0.0156227
764.584	0.0156924
764.663	0.0156120
764.741	0.0157176
764.819	0.0157214
764.897	0.0158145
764.975	0.0159935
765.053	0.0159361
765.131	0.0160009
765.209	0.0161623
765.288	0.0160484
765.366	0.0162061
765.444	0.0163889
765.522	0.0163557
765.600	0.0162901
765.678	0.0162722
765.756	0.0163368
765.834	0.0161602
765.913	0.0161680
765.991	0.0161796
766.069	0.0161642
766.147	0.0160882
766.225	0.0159917
766.303	0.0158675
766.381	0.0157906
766.459	0.0157859
766.538	0.0156779
766.616	0.0156940
766.694	0.0155994
766.772	0.0154675
766.850	0.0155760
766.928	0.0157510
767.006	0.0157832
767.084	0.0156602
767.163	0.0156888
767.241	0.0158054
767.319	0.0158901
767.397	0.0159267
767.475	0.0158720
767.553	0.0158556
767.631	0.0160760
767.709	0.0161378
767.788	0.0159846
767.866	0.0160748
767.944	0.0160314
768.022	0.0160628
768.100	0.0158904
768.178	0.0158832
768.256	0.0160460
768.334	0.0157728
768.413	0.0157661
768.491	0.0158193
768.569	0.0157043
768.647	0.0156709
768.725	0.0155866
768.803	0.0155098
768.881	0.0156264
768.959	0.0154675
769.038	0.0154275
769.116	0.0154867
769.194	0.0154395
769.272	0.0155627
769.350	0.0153902
769.428	0.0154485
769.506	0.0155576
769.584	0.0155327
769.663	0.0156957
769.741	0.0157644
769.819	0.0157851
769.897	0.0158607
769.975	0.0159671
770.053	0.0161151
770.131	0.0162113
770.209	0.0163503
770.288	0.0166316
770.366	0.0165744
770.444	0.0165875
770.522	0.0167609
770.600	0.0169495
770.678	0.0170047
770.756	0.0170193
770.834	0.0170134
770.913	0.0171554
770.991	0.0171540
771.069	0.0170300
771.147	0.0172058
771.225	0.0170715
771.303	0.0171828
771.381	0.0169962
771.459	0.0168314
771.538	0.0168070
771.616	0.0167152
771.694	0.0165327
771.772	0.0164396
771.850	0.0162499
771.928	0.0161987
772.006	0.0162414
772.084	0.0158377
772.163	0.0158353
772.241	0.0156836
772.319	0.0155601
772.397	0.0153654
772.475	0.0153323
772.553	0.0152818
772.631	0.0150590
772.709	0.0150191
772.788	0.0150268
772.866	0.0149707
772.944	0.0149051
773.022	0.0149163
773.100	0.0148430
773.178	0.0149285
773.256	0.0150014
773.334	0.0151781
773.413	0.0153087
773.491	0.0152856
773.569	0.0155452
773.647	0.0157302
773.725	0.0157503
773.803	0.0159347
773.881	0.0160046
773.959	0.0163493
774.038	0.0164669
774.116	0.0164635
774.194	0.0166098
774.272	0.0166390
774.350	0.0167760
774.428	0.0167183
774.506	0.0166952
774.584	0.0167661
774.663	0.0169031
774.741	0.0169308
774.819	0.0167460
774.897	0.0166780
774.975	0.0166621
775.053	0.0166357
775.131	0.0165652
775.209	0.0164690
775.288	0.0162423
775.366	0.0162127
775.444	0.0161061
775.522	0.0158600
775.600	0.0158727
775.678	0.0156380
775.756	0.0155811
775.834	0.0155109
775.913	0.0152396
775.991	0.0152213
776.069	0.0150728
776.147	0.0149391
776.225	0.0149366
776.303	0.0149306
776.381	0.0148720
776.459	0.0148796
776.538	0.0149444
776.616	0.0149243
776.694	0.0150513
776.772	0.0152476
776.850	0.0152686
776.928	0.0151942
777.006	0.0155451
777.084	0.0156395
777.163	0.0156613
777.241	0.0158744
777.319	0.0160493
777.397	0.0161056
777.475	0.0163334
777.553	0.0164378
777.631	0.0164658
777.709	0.0168520
777.788	0.0168478
777.866	0.0169580
777.944	0.0170319
778.022	0.0170329
778.100	0.0171199
778.178	0.0172424
778.256	0.0174194
778.334	0.0173552
778.413	0.0173384
778.491	0.0173421
778.569	0.0171988
778.647	0.0173043
778.725	0.0170752
778.803	0.0170523
778.881	0.0168977
778.959	0.0167474
779.038	0.0167522
779.116	0.0166491
779.194	0.0165359
779.272	0.0165882
779.350	0.0165018
779.428	0.0163519
779.506	0.0161140
779.584	0.0161497
779.663	0.0162184
779.741	0.0161262
779.819	0.0159223
779.897	0.0157110
779.975	0.0157547
780.053	0.0155729
780.131	0.0155972
780.209	0.0154693
780.288	0.0152493
780.366	0.0150510
780.444	0.0149596
780.522	0.0147488
780.600	0.0147305
780.678	0.0148278
780.756	0.0147386
780.834	0.0145957
780.913	0.0145708
780.991	0.0148324
781.069	0.0147190
781.147	0.0148540
781.225	0.0150123
781.303	0.0149091
781.381	0.0151979
781.459	0.0153143
781.538	0.0154330
781.616	0.0155161
781.694	0.0157317
781.772	0.0158406
781.850	0.0160690
781.928	0.0161248
782.006	0.0163422
782.084	0.0163118
782.163	0.0164603
782.241	0.0166002
782.319	0.0165948
782.397	0.0167374
782.475	0.0168055
782.553	0.0168777
782.631	0.0169408
782.709	0.0168753
782.788	0.0169474
782.866	0.0168926
782.944	0.0168839
783.022	0.0169044
783.100	0.0169588
783.178	0.0168520
783.256	0.0165826
783.334	0.0167836
783.413	0.0166970
783.491	0.0167361
783.569	0.0164733
783.647	0.0164153
783.725	0.0164888
783.803	0.0163767
783.881	0.0163107
783.959	0.0163223
784.038	0.0162123
784.116	0.0162492
784.194	0.0161983
784.272	0.0160137
784.350	0.0159393
784.428	0.0160090
784.506	0.0157098
784.584	0.0156897
784.663	0.0155717
784.741	0.0154179
784.819	0.0154118
784.897	0.0152868
784.975	0.0150127
785.053	0.0150766
785.131	0.0150520
785.209	0.0151231
785.288	0.0149808
785.366	0.0150263
785.444	0.0148650
785.522	0.0149390
785.600	0.0150027
785.678	0.0150697
785.756	0.0150634
785.834	0.0151768
785.913	0.0152636
785.991	0.0155013
786.069	0.0155999
786.147	0.0157352
786.225	0.0159469
786.303	0.0160143
786.381	0.0162511
786.459	0.0162296
786.538	0.0163528
786.616	0.0167160
786.694	0.0167161
786.772	0.0168183
786.850	0.0169597
786.928	0.0170685
787.006	0.0170477
787.084	0.0171508
787.163	0.0171245
787.241	0.0172427
787.319	0.0171709
787.397	0.0170689
787.475	0.0172836
787.553	0.0172225
787.631	0.0169889
787.709	0.0171018
787.788	0.0169751
787.866	0.0169650
787.944	0.0168272
788.022	0.0168915
788.100	0.0169305
788.178	0.0168073
788.256	0.0166756
788.334	0.0165995
788.413	0.0166143
788.491	0.0166255
788.569	0.0164896
788.647	0.0164477
788.725	0.0163354
788.803	0.0161465
788.881	0.0161378
788.959	0.0160111
789.038	0.0158451
789.116	0.0156604
789.194	0.0155096
789.272	0.0153596
789.350	0.0152223
789.428	0.0150525
789.506	0.0148663
789.584	0.0148059
789.663	0.0146828
789.741	0.0148007
789.819	0.0145979
789.897	0.0144433
789.975	0.0146450
790.053	0.0146284
790.131	0.0146523
790.209	0.0147315
790.288	0.0147982
790.366	0.0147643
790.444	0.0149470
790.522	0.0150145
790.600	0.0151847
790.678	0.0152293
790.756	0.0154502
790.834	0.0155888
790.913	0.0156565
790.991	0.0157389
791.069	0.0160165
791.147	0.0160918
791.225	0.0161514
791.303	0.0160913
791.381	0.0162217
791.459	0.0162768
791.538	0.0164319
791.616	0.0163677
791.694	0.0164869
791.772	0.0164350
791.850	0.0164307
791.928	0.0166008
792.006	0.0166824
792.084	0.0167464
792.163	0.0167649
792.241	0.0165950
792.319	0.0166595
792.397	0.0167751
792.475	0.0166965
792.553	0.0168175
792.631	0.0169003
792.709	0.0167178
792.788	0.0167783
792.866	0.0169199
792.944	0.0171439
793.022	0.0171405
793.100	0.0169699
793.178	0.0171085
793.256	0.0171555
793.334	0.0170386
793.413	0.0171662
793.491	0.0170236
793.569	0.0169598
793.647	0.0168310
793.725	0.0169037
793.803	0.0166351
793.881	0.0167329
793.959	0.0167567
794.038	0.0165135
794.116	0.0164023
794.194	0.0162058
794.272	0.0161803
794.350	0.0159874
794.428	0.0157302
794.506	0.0158379
794.584	0.0157043
794.663	0.0155877
794.741	0.0155618
794.819	0.0155302
794.897	0.0155270
794.975	0.0154663
795.053	0.0153745
795.131	0.0153265
795.209	0.0154527
795.288	0.0154219
795.366	0.0152778
795.444	0.0152985
795.522	0.0153166
795.600	0.0153388
795.678	0.0151699
795.756	0.0153690
795.834	0.0152823
795.913	0.0153551
795.991	0.0154219
796.069	0.0152570
796.147	0.0154410
796.225	0.0152576
796.303	0.0151357
796.381	0.0152366
796.459	0.0153046
796.538	0.0153016
796.616	0.0153951
796.694	0.0154462
796.772	0.0153161
796.850	0.0155449
796.928	0.0156039
797.006	0.0155208
797.084	0.0156614
797.163	0.0157973
797.241	0.0158870
797.319	0.0158237
797.397	0.0161211
797.475	0.0161213
797.553	0.0161618
797.631	0.0164213
797.709	0.0164282
797.788	0.0164093
797.866	0.0166076
797.944	0.0166322
798.022	0.0166158
798.100	0.0166785
798.178	0.0167024
798.256	0.0167944
798.334	0.0167376
798.413	0.0167461
798.491	0.0166668
798.569	0.0166420
798.647	0.0167548
798.725	0.0165793
798.803	0.0166778
798.881	0.0166287
798.959	0.0166653
799.038	0.0165399
799.116	0.0165434
799.194	0.0165785
799.272	0.0164494
799.350	0.0164452
799.428	0.0164156
799.506	0.0165350
799.584	0.0162445
799.663	0.0163647
799.741	0.0162503
799.819	0.0162838
799.897	0.0161671
799.975	0.0161530
800.053	0.0161732
800.131	0.0162745
800.209	0.0161551
800.288	0.0161355
800.366	0.0160438
800.444	0.0160036
800.522	0.0159090
800.600	0.0158783
800.678	0.0158737
800.756	0.0157033
800.834	0.0156908
800.913	0.0156660
800.991	0.0156494
801.069	0.0156198
801.147	0.0156490
801.225	0.0154971
801.303	0.0155110
801.381	0.0156248
801.459	0.0155239
801.538	0.0155432
801.616	0.0155956
801.694	0.0155471
801.772	0.0155750
801.850	0.0155907
801.928	0.0156316
802.006	0.0158495
802.084	0.0157088
802.163	0.0157507
802.241	0.0158738
802.319	0.0159438
802.397	0.0159047
802.475	0.0160792
802.553	0.0162386
802.631	0.0162772
802.709	0.0160424
802.788	0.0162307
802.866	0.0162373
802.944	0.0162051
803.022	0.0163810
803.100	0.0162485
803.178	0.0162498
803.256	0.0162799
803.334	0.0164050
803.413	0.0163535
803.491	0.0164467
803.569	0.0165965
803.647	0.0164535
803.725	0.0164996
803.803	0.0165534
803.881	0.0164516
803.959	0.0166092
804.038	0.0166201
804.116	0.0164678
804.194	0.0165489
804.272	0.0163599
804.350	0.0165146
804.428	0.0165018
804.506	0.0164419
804.584	0.0164863
804.663	0.0164155
804.741	0.0163123
804.819	0.0162872
804.897	0.0163692
804.975	0.0161134
805.053	0.0161438
805.131	0.0160680
805.209	0.0160360
805.288	0.0159098
805.366	0.0158657
805.444	0.0158212
805.522	0.0156932
805.600	0.0157017
805.678	0.0156364
805.756	0.0157200
805.834	0.0157040
805.913	0.0156808
805.991	0.0155146
806.069	0.0154842
806.147	0.0155962
806.225	0.0155869
806.303	0.0155140
806.381	0.0156436
806.459	0.0156493
806.538	0.0156288
806.616	0.0157343
806.694	0.0156325
806.772	0.0157443
806.850	0.0158704
806.928	0.0159457
807.006	0.0157938
807.084	0.0159347
807.163	0.0159358
807.241	0.0159347
807.319	0.0161293
807.397	0.0161489
807.475	0.0161545
807.553	0.0161644
807.631	0.0161247
807.709	0.0160769
807.788	0.0161134
807.866	0.0161649
807.944	0.0162428
808.022	0.0162031
808.100	0.0161856
808.178	0.0162778
808.256	0.0163635
808.334	0.0163516
808.413	0.0162872
808.491	0.0163858
808.569	0.0161893
808.647	0.0165332
808.725	0.0165765
808.803	0.0164684
808.881	0.0163112
808.959	0.0163077
809.038	0.0162923
809.116	0.0163565
809.194	0.0161453
809.272	0.0161355
809.350	0.0162293
809.428	0.0161926
809.506	0.0161176
809.584	0.0160645
809.663	0.0161597
809.741	0.0162738
809.819	0.0160659
809.897	0.0162312
809.975	0.0163258
810.053	0.0162639
810.131	0.0161765
810.209	0.0163129
810.288	0.0164088
810.366	0.0162897
810.444	0.0161980
810.522	0.0163106
810.600	0.0162753
810.678	0.0162874
810.756	0.0162495
810.834	0.0163036
810.913	0.0164332
810.991	0.0162326
811.069	0.0162157
811.147	0.0160762
811.225	0.0162166
811.303	0.0161902
811.381	0.0161423
811.459	0.0158932
811.538	0.0160107
811.616	0.0159780
811.694	0.0159296
811.772	0.0159620
811.850	0.0159488
811.928	0.0157945
812.006	0.0157122
812.084	0.0157837
812.163	0.0158203
812.241	0.0156601
812.319	0.0158626
812.397	0.0157394
812.475	0.0157663
812.553	0.0157067
812.631	0.0157104
812.709	0.0157222
812.788	0.0158038
812.866	0.0158799
812.944	0.0160283
813.022	0.0159998
813.100	0.0158919
813.178	0.0159550
813.256	0.0159018
813.334	0.0159594
813.413	0.0158563
813.491	0.0157996
813.569	0.0158124
813.647	0.0158643
813.725	0.0158196
813.803	0.0157821
813.881	0.0157169
813.959	0.0156361
814.038	0.0156895
814.116	0.0157554
814.194	0.0156588
814.272	0.0158065
814.350	0.0158134
814.428	0.0158035
814.506	0.0157742
814.584	0.0157473
814.663	0.0159003
814.741	0.0159350
814.819	0.0160200
814.897	0.0161356
814.975	0.0160371
815.053	0.0161941
815.131	0.0161842
815.209	0.0163500
815.288	0.0162592
815.366	0.0162598
815.444	0.0164865
815.522	0.0164144
815.600	0.0164470
815.678	0.0164648
815.756	0.0165829
815.834	0.0166850
815.913	0.0165852
815.991	0.0166002
816.069	0.0165938
816.147	0.0166125
816.225	0.0165985
816.303	0.0165272
816.381	0.0164971
816.459	0.0164902
816.538	0.0166309
816.616	0.0165634
816.694	0.0164400
816.772	0.0164558
816.850	0.0163980
816.928	0.0164256
817.006	0.0164919
817.084	0.0164193
817.163	0.0162670
817.241	0.0162378
817.319	0.0162425
817.397	0.0161960
817.475	0.0160982
817.553	0.0160233
817.631	0.0159689
817.709	0.0160403
817.788	0.0157713
817.866	0.0157841
817.944	0.0156860
818.022	0.0156609
818.100	0.0156817
818.178	0.0156111
818.256	0.0155831
818.334	0.0156451
818.413	0.0156113
818.491	0.0156672
818.569	0.0156193
818.647	0.0155895
818.725	0.0156429
818.803	0.0158007
818.881	0.0158029
818.959	0.0157672
819.038	0.0158724
819.116	0.0159200
819.194	0.0158613
819.272	0.0158648
819.350	0.0158694
819.428	0.0159070
819.506	0.0159229
819.584	0.0160396
819.663	0.0160455
819.741	0.0161485
819.819	0.0159189
819.897	0.0160028
819.975	0.0159912
820.053	0.0159573
820.131	0.0158543
820.209	0.0160004
820.288	0.0159102
820.366	0.0160171
820.444	0.0158092
820.522	0.0158743
820.600	0.0157697
820.678	0.0158443
820.756	0.0158305
820.834	0.0159238
820.913	0.0157844
820.991	0.0158018
821.069	0.0158205
821.147	0.0158278
821.225	0.0158511
821.303	0.0158903
821.381	0.0158652
821.459	0.0158389
821.538	0.0158253
821.616	0.0159390
821.694	0.0158735
821.772	0.0159328
821.850	0.0159329
821.928	0.0159171
822.006	0.0159040
822.084	0.0159460
822.163	0.0159758
822.241	0.0158174
822.319	0.0158955
822.397	0.0159060
822.475	0.0160854
822.553	0.0160217
822.631	0.0160611
822.709	0.0159958
822.788	0.0162111
822.866	0.0162372
822.944	0.0162727
823.022	0.0162241
823.100	0.0164026
823.178	0.0164441
823.256	0.0165424
823.334	0.0163842
823.413	0.0166210
823.491	0.0165009
823.569	0.0165039
823.647	0.0165425
823.725	0.0165522
823.803	0.0164734
823.881	0.0164735
823.959	0.0163636
824.038	0.0162657
824.116	0.0163964
824.194	0.0163041
824.272	0.0162566
824.350	0.0165077
824.428	0.0163319
824.506	0.0161724
824.584	0.0162533
824.663	0.0161729
824.741	0.0162385
824.819	0.0162244
824.897	0.0160793
824.975	0.0161520
825.053	0.0160915
825.131	0.0160986
825.209	0.0160974
825.288	0.0160573
825.366	0.0159276
825.444	0.0160951
825.522	0.0162363
825.600	0.0161452
825.678	0.0161436
825.756	0.0160675
825.834	0.0160043
825.913	0.0160493
825.991	0.0158704
826.069	0.0159044
826.147	0.0160413
826.225	0.0157915
826.303	0.0156944
826.381	0.0156649
826.459	0.0157834
826.538	0.0156641
826.616	0.0155399
826.694	0.0155452
826.772	0.0156602
826.850	0.0155943
826.928	0.0155120
827.006	0.0156122
827.084	0.0154720
827.163	0.0154128
827.241	0.0155798
827.319	0.0156302
827.397	0.0157179
827.475	0.0157154
827.553	0.0157622
827.631	0.0157881
827.709	0.0159217
827.788	0.0158495
827.866	0.0158953
827.944	0.0160330
828.022	0.0161038
828.100	0.0158912
828.178	0.0159323
828.256	0.0159176
828.334	0.0159315
828.413	0.0160088
828.491	0.0161143
828.569	0.0161137
828.647	0.0159261
828.725	0.0160683
828.803	0.0161648
828.881	0.0160625
828.959	0.0161003
829.038	0.0161871
829.116	0.0162535
829.194	0.0161850
829.272	0.0161939
829.350	0.0161559
829.428	0.0163666
829.506	0.0163097
829.584	0.0162178
829.663	0.0162138
829.741	0.0162477
829.819	0.0163803
829.897	0.0163142
829.975	0.0163428
830.053	0.0164182
830.131	0.0165482
830.209	0.0164706
830.288	0.0163448
830.366	0.0165119
830.444	0.0162795
830.522	0.0164484
830.600	0.0164312
830.678	0.0162173
830.756	0.0161584
830.834	0.0160566
830.913	0.0160098
830.991	0.0161149
831.069	0.0159457
831.147	0.0158797
831.225	0.0157979
831.303	0.0158194
831.381	0.0157768
831.459	0.0158781
831.538	0.0158690
831.616	0.0158943
831.694	0.0158144
831.772	0.0157829
831.850	0.0160576
831.928	0.0160378
832.006	0.0158899
832.084	0.0159433
832.163	0.0161047
832.241	0.0160143
832.319	0.0160019
832.397	0.0160007
832.475	0.0159531
832.553	0.0159952
832.631	0.0159582
832.709	0.0159582
832.788	0.0160387
832.866	0.0159712
832.944	0.0161288
833.022	0.0159801
833.100	0.0160030
833.178	0.0160457
833.256	0.0160920
833.334	0.0160501
833.413	0.0162167
833.491	0.0162093
833.569	0.0160661
833.647	0.0160152
833.725	0.0161411
833.803	0.0161008
833.881	0.0160269
833.959	0.0161282
834.038	0.0160019
834.116	0.0159962
834.194	0.0159905
834.272	0.0160677
834.350	0.0159136
834.428	0.0158517
834.506	0.0160039
834.584	0.0158654
834.663	0.0157835
834.741	0.0159104
834.819	0.0159461
834.897	0.0158649
834.975	0.0159712
835.053	0.0159681
835.131	0.0158839
835.209	0.0159409
835.288	0.0159892
835.366	0.0160293
835.444	0.0160055
835.522	0.0159015
835.600	0.0159733
835.678	0.0160596
835.756	0.0159397
835.834	0.0159680
835.913	0.0159113
835.991	0.0159370
836.069	0.0159033
836.147	0.0159970
836.225	0.0157324
836.303	0.0160406
836.381	0.0160734
836.459	0.0158913
836.538	0.0160094
836.616	0.0158524
836.694	0.0158911
836.772	0.0159326
836.850	0.0158372
836.928	0.0158538
837.006	0.0158116
837.084	0.0157180
837.163	0.0159203
837.241	0.0156839
837.319	0.0158066
837.397	0.0157568
837.475	0.0159782
837.553	0.0158182
837.631	0.0158528
837.709	0.0161108
837.788	0.0159377
837.866	0.0159358
837.944	0.0160335
838.022	0.0161018
838.100	0.0161294
838.178	0.0160456
838.256	0.0161845
838.334	0.0162642
838.413	0.0163036
838.491	0.0162988
838.569	0.0160988
838.647	0.0162405
838.725	0.0163379
838.803	0.0164040
838.881	0.0162836
838.959	0.0164308
839.038	0.0164632
839.116	0.0163383
839.194	0.0163609
839.272	0.0163013
839.350	0.0162578
839.428	0.0162453
839.506	0.0162695
839.584	0.0162763
839.663	0.0161193
839.741	0.0161623
839.819	0.0161318
839.897	0.0160619
839.975	0.0160371
840.053	0.0159922
840.131	0.0160842
840.209	0.0160039
840.288	0.0160257
840.366	0.0159983
840.444	0.0159059
840.522	0.0159317
840.600	0.0159782
840.678	0.0161254
840.756	0.0160564
840.834	0.0159767
840.913	0.0161252
840.991	0.0162109
841.069	0.0161026
841.147	0.0161970
841.225	0.0161134
841.303	0.0160432
841.381	0.0160828
841.459	0.0160991
841.538	0.0161374
841.616	0.0161619
841.694	0.0160335
841.772	0.0161436
841.850	0.0160252
841.928	0.0157977
842.006	0.0159255
842.084	0.0159185
842.163	0.0160106
842.241	0.0157717
842.319	0.0158141
842.397	0.0158179
842.475	0.0156969
842.553	0.0157583
842.631	0.0156818
842.709	0.0156647
842.788	0.0156136
842.866	0.0156393
842.944	0.0154108
843.022	0.0156232
843.100	0.0155436
843.178	0.0154385
843.256	0.0154895
843.334	0.0154046
843.413	0.0155418
843.491	0.0155691
843.569	0.0154919
843.647	0.0154857
843.725	0.0155173
843.803	0.0156712
843.881	0.0156332
843.959	0.0156718
844.038	0.0156570
844.116	0.0157757
844.194	0.0158137
844.272	0.0157354
844.350	0.0158256
844.428	0.0158163
844.506	0.0160036
844.584	0.0161911
844.663	0.0161934
844.741	0.0160839
844.819	0.0163324
844.897	0.0163946
844.975	0.0163426
845.053	0.0164518
845.131	0.0164967
845.209	0.0165218
845.288	0.0164613
845.366	0.0166908
845.444	0.0166069
845.522	0.0166104
845.600	0.0167186
845.678	0.0165604
845.756	0.0165308
845.834	0.0164648
845.913	0.0165676
845.991	0.0164410
846.069	0.0166031
846.147	0.0166554
846.225	0.0164445
846.303	0.0163602
846.381	0.0162901
846.459	0.0162815
846.538	0.0162962
846.616	0.0161775
846.694	0.0161969
846.772	0.0161203
846.850	0.0161983
846.928	0.0160683
847.006	0.0160921
847.084	0.0158889
847.163	0.0158866
847.241	0.0157729
847.319	0.0157169
847.397	0.0158752
847.475	0.0155976
847.553	0.0155037
847.631	0.0156077
847.709	0.0154375
847.788	0.0155323
847.866	0.0156805
847.944	0.0156201
848.022	0.0154706
848.100	0.0155578
848.178	0.0156676
848.256	0.0156731
848.334	0.0157014
848.413	0.0157707
848.491	0.0156856
848.569	0.0158138
848.647	0.0158664
848.725	0.0157933
848.803	0.0157860
848.881	0.0158250
848.959	0.0159277
849.038	0.0159531
849.116	0.0159282
849.194	0.0160199
849.272	0.0160421
849.350	0.0158482
849.428	0.0158471
849.506	0.0160459
849.584	0.0160473
849.663	0.0162154
849.741	0.0162106
849.819	0.0161577
849.897	0.0161233
849.975	0.0160989
850.053	0.0161923
850.131	0.0161682
850.209	0.0160809
850.288	0.0160670
850.366	0.0160999
850.444	0.0161186
850.522	0.0160326
850.600	0.0161288
850.678	0.0161201
850.756	0.0159605
850.834	0.0160942
850.913	0.0160207
850.991	0.0160719
851.069	0.0159606
851.147	0.0160374
851.225	0.0160544
851.303	0.0159020
851.381	0.0159390
851.459	0.0159200
851.538	0.0159728
851.616	0.0158778
851.694	0.0159139
851.772	0.0159115
851.850	0.0159158
851.928	0.0158086
852.006	0.0158546
852.084	0.0157840
852.163	0.0157572
852.241	0.0159266
852.319	0.0158649
852.397	0.0157896
852.475	0.0158785
852.553	0.0158736
852.631	0.0158789
852.709	0.0159715
852.788	0.0159862
852.866	0.0160156
852.944	0.0159705
853.022	0.0160388
853.100	0.0159903
853.178	0.0160645
853.256	0.0161900
853.334	0.0160396
853.413	0.0162499
853.491	0.0161960
853.569	0.0160579
853.647	0.0162742
853.725	0.0161427
853.803	0.0160859
853.881	0.0161875
853.959	0.0162379
854.038	0.0162821
854.116	0.0161943
854.194	0.0162752
854.272	0.0161214
854.350	0.0162484
854.428	0.0161907
854.506	0.0161548
854.584	0.0160362
854.663	0.0160391
854.741	0.0160252
854.819	0.0161705
854.897	0.0159402
854.975	0.0158251
855.053	0.0158961
855.131	0.0159515
855.209	0.0159417
855.288	0.0157794
855.366	0.0158664
855.444	0.0158129
855.522	0.0159046
855.600	0.0158494
855.678	0.0156752
855.756	0.0158492
855.834	0.0158179
855.913	0.0157523
855.991	0.0157365
856.069	0.0157383
856.147	0.0157172
856.225	0.0158286
856.303	0.0156066
856.381	0.0158173
856.459	0.0158699
856.538	0.0156700
856.616	0.0158968
856.694	0.0159039
856.772	0.0159100
856.850	0.0160657
856.928	0.0160586
857.006	0.0161336
857.084	0.0160889
857.163	0.0160927
857.241	0.0160634
857.319	0.0162482
857.397	0.0162171
857.475	0.0162238
857.553	0.0162617
857.631	0.0162119
857.709	0.0163077
857.788	0.0164046
857.866	0.0162528
857.944	0.0161665
858.022	0.0163791
858.100	0.0163783
858.178	0.0163097
858.256	0.0161771
858.334	0.0161417
858.413	0.0161333
858.491	0.0160598
858.569	0.0160612
858.647	0.0159367
858.725	0.0158853
858.803	0.0161242
858.881	0.0158880
858.959	0.0159002
859.038	0.0158331
859.116	0.0158676
859.194	0.0159118
859.272	0.0156924
859.350	0.0157347
859.428	0.0158105
859.506	0.0157845
859.584	0.0158473
859.663	0.0157298
859.741	0.0157201
859.819	0.0156454
859.897	0.0157884
859.975	0.0157877
860.053	0.0156812
860.131	0.0157233
860.209	0.0157776
860.288	0.0156944
860.366	0.0158700
860.444	0.0158691
860.522	0.0158697
860.600	0.0158009
860.678	0.0159943
860.756	0.0158683
860.834	0.0158012
860.913	0.0159419
860.991	0.0157823
861.069	0.0158316
861.147	0.0157371
861.225	0.0159418
861.303	0.0157835
861.381	0.0157699
861.459	0.0160152
861.538	0.0160420
861.616	0.0160603
861.694	0.0161267
861.772	0.0161604
861.850	0.0163001
861.928	0.0162011
862.006	0.0163792
862.084	0.0164023
862.163	0.0163895
862.241	0.0165628
862.319	0.0164546
862.397	0.0165292
862.475	0.0165046
862.553	0.0165844
862.631	0.0166063
862.709	0.0164945
862.788	0.0165257
862.866	0.0166295
862.944	0.0165408
863.022	0.0164504
863.100	0.0166115
863.178	0.0164993
863.256	0.0164612
863.334	0.0162505
863.413	0.0162455
863.491	0.0162296
863.569	0.0160525
863.647	0.0160238
863.725	0.0157820
863.803	0.0158389
863.881	0.0159280
863.959	0.0158263
864.038	0.0158173
864.116	0.0155987
864.194	0.0156146
864.272	0.0157638
864.350	0.0156491
864.428	0.0155761
864.506	0.0155576
864.584	0.0154761
864.663	0.0153951
864.741	0.0154697
864.819	0.0154220
864.897	0.0154461
864.975	0.0154459
865.053	0.0154003
865.131	0.0155216
865.209	0.0156404
865.288	0.0156081
865.366	0.0157144
865.444	0.0158935
865.522	0.0159095
865.600	0.0160410
865.678	0.0161365
865.756	0.0159933
865.834	0.0160896
865.913	0.0162151
865.991	0.0160548
866.069	0.0161356
866.147	0.0161528
866.225	0.0161881
866.303	0.0161765
866.381	0.0161255
866.459	0.0160340
866.538	0.0160957
866.616	0.0161475
866.694	0.0160301
866.772	0.0159280
866.850	0.0158849
866.928	0.0158733
867.006	0.0158635
867.084	0.0157199
867.163	0.0156268
867.241	0.0155589
867.319	0.0156173
867.397	0.0156621
867.475	0.0155898
867.553	0.0157289
867.631	0.0158340
867.709	0.0158768
867.788	0.0157699
867.866	0.0159343
867.944	0.0162346
868.022	0.0161919
868.100	0.0162940
868.178	0.0164892
868.256	0.0164231
868.334	0.0164252
868.413	0.0166447
868.491	0.0166295
868.569	0.0166952
868.647	0.0167816
868.725	0.0167590
868.803	0.0167542
868.881	0.0168436
868.959	0.0168983
869.038	0.0168780
869.116	0.0168076
869.194	0.0167515
869.272	0.0166403
869.350	0.0166261
869.428	0.0167307
869.506	0.0164596
869.584	0.0163783
869.663	0.0162942
869.741	0.0161237
869.819	0.0160231
869.897	0.0159501
869.975	0.0159306
870.053	0.0157772
870.131	0.0157771
870.209	0.0156721
870.288	0.0155370
870.366	0.0154662
870.444	0.0154278
870.522	0.0153532
870.600	0.0153470
870.678	0.0151259
870.756	0.0149657
870.834	0.0150775
870.913	0.0149544
870.991	0.0150773
871.069	0.0149936
871.147	0.0151424
871.225	0.0149273
871.303	0.0152323
871.381	0.0152092
871.459	0.0152351
871.538	0.0153982
871.616	0.0154770
871.694	0.0156840
871.772	0.0156314
871.850	0.0157097
871.928	0.0160107
872.006	0.0161691
872.084	0.0163766
872.163	0.0165294
872.241	0.0166571
872.319	0.0168943
872.397	0.0171774
872.475	0.0172592
872.553	0.0173598
872.631	0.0173775
872.709	0.0174411
872.788	0.0173053
872.866	0.0172566
872.944	0.0172469
873.022	0.0172691
873.100	0.0168948
873.178	0.0167500
873.256	0.0167423
873.334	0.0166328
873.413	0.0164197
873.491	0.0163723
873.569	0.0160385
873.647	0.0159576
873.725	0.0159531
873.803	0.0159274
873.881	0.0158114
873.959	0.0157803
874.038	0.0156891
874.116	0.0156149
874.194	0.0156656
874.272	0.0155554
874.350	0.0155666
874.428	0.0153185
874.506	0.0153043
874.584	0.0152967
874.663	0.0152932
874.741	0.0153719
874.819	0.0153068
874.897	0.0152674
874.975	0.0153992
875.053	0.0155930
875.131	0.0154169
875.209	0.0154646
875.288	0.0154945
875.366	0.0156748
875.444	0.0155672
875.522	0.0154836
875.600	0.0153857
875.678	0.0154284
875.756	0.0152232
875.834	0.0152831
875.913	0.0153127
875.991	0.0154088
876.069	0.0152901
876.147	0.0154923
876.225	0.0155088
876.303	0.0158212
876.381	0.0158695
876.459	0.0160172
876.538	0.0159469
876.616	0.0163330
876.694	0.0167272
876.772	0.0168246
876.850	0.0169937
876.928	0.0171915
877.006	0.0173410
877.084	0.0175700
877.163	0.0174637
877.241	0.0176002
877.319	0.0176396
877.397	0.0175225
877.475	0.0173787
877.553	0.0172279
877.631	0.0171353
877.709	0.0169231
877.788	0.0167075
877.866	0.0167123
877.944	0.0164270
878.022	0.0162945
878.100	0.0162603
878.178	0.0160742
878.256	0.0161352
878.334	0.0160554
878.413	0.0159296
878.491	0.0159322
878.569	0.0158416
878.647	0.0157806
878.725	0.0157426
878.803	0.0157466
878.881	0.0157321
878.959	0.0155205
879.038	0.0154592
879.116	0.0153196
879.194	0.0153776
879.272	0.0153664
879.350	0.0152098
879.428	0.0151875
879.506	0.0151456
879.584	0.0152205
879.663	0.0151948
879.741	0.0152332
879.819	0.0153673
879.897	0.0151764
879.975	0.0152384
880.053	0.0152180
880.131	0.0153041
880.209	0.0152545
880.288	0.0152774
880.366	0.0152305
880.444	0.0151929
880.522	0.0153551
880.600	0.0156429
880.678	0.0155357
880.756	0.0156348
880.834	0.0159805
880.913	0.0158706
880.991	0.0161181
881.069	0.0161391
881.147	0.0163918
881.225	0.0164608
881.303	0.0166438
881.381	0.0166730
881.459	0.0167221
881.538	0.0169459
881.616	0.0172365
881.694	0.0170512
881.772	0.0169553
881.850	0.0171588
881.928	0.0170642
882.006	0.0169432
882.084	0.0169118
882.163	0.0168005
882.241	0.0167181
882.319	0.0165478
882.397	0.0165030
882.475	0.0164106
882.553	0.0162521
882.631	0.0161259
882.709	0.0160812
882.788	0.0160464
882.866	0.0159898
882.944	0.0157806
883.022	0.0157210
883.100	0.0158865
883.178	0.0159543
883.256	0.0158609
883.334	0.0158832
883.413	0.0158775
883.491	0.0159639
883.569	0.0159094
883.647	0.0158579
883.725	0.0157381
883.803	0.0158066
883.881	0.0158460
883.959	0.0157877
884.038	0.0156879
884.116	0.0155896
884.194	0.0155637
884.272	0.0155460
884.350	0.0155494
884.428	0.0156104
884.506	0.0156290
884.584	0.0156287
884.663	0.0154234
884.741	0.0154949
884.819	0.0155117
884.897	0.0154941
884.975	0.0156296
885.053	0.0156233
885.131	0.0156649
885.209	0.0158531
885.288	0.0160358
885.366	0.0160787
885.444	0.0160764
885.522	0.0161675
885.600	0.0163456
885.678	0.0163159
885.756	0.0163571
885.834	0.0164619
885.913	0.0164798
885.991	0.0165788
886.069	0.0166592
886.147	0.0166122
886.225	0.0164445
886.303	0.0165240
886.381	0.0166457
886.459	0.0164735
886.538	0.0163845
886.616	0.0163482
886.694	0.0163244
886.772	0.0160793
886.850	0.0161759
886.928	0.0160395
887.006	0.0159837
887.084	0.0158236
887.163	0.0158668
887.241	0.0159174
887.319	0.0159296
887.397	0.0158089
887.475	0.0157149
887.553	0.0158608
887.631	0.0159502
887.709	0.0159261
887.788	0.0159898
887.866	0.0160371
887.944	0.0160030
888.022	0.0159933
888.100	0.0160757
888.178	0.0161484
888.256	0.0162991
888.334	0.0161369
888.413	0.0161371
888.491	0.0159603
888.569	0.0159434
888.647	0.0161665
888.725	0.0160949
888.803	0.0159447
888.881	0.0157920
888.959	0.0156815
889.038	0.0157295
889.116	0.0158266
889.194	0.0157793
889.272	0.0157340
889.350	0.0157611
889.428	0.0156940
889.506	0.0156236
889.584	0.0156965
889.663	0.0156648
889.741	0.0159473
889.819	0.0159760
889.897	0.0157845
889.975	0.0159674
890.053	0.0162037
890.131	0.0162780
890.209	0.0163857
890.288	0.0165135
890.366	0.0164285
890.444	0.0167239
890.522	0.0166612
890.600	0.0168871
890.678	0.0168245
890.756	0.0167550
890.834	0.0168220
890.913	0.0167744
890.991	0.0166289
891.069	0.0166222
891.147	0.0164832
891.225	0.0164652
891.303	0.0163267
891.381	0.0161841
891.459	0.0160826
891.538	0.0159867
891.616	0.0159556
891.694	0.0157446
891.772	0.0156816
891.850	0.0156941
891.928	0.0155656
892.006	0.0157936
892.084	0.0156831
892.163	0.0157083
892.241	0.0156525
892.319	0.0157333
892.397	0.0157129
892.475	0.0158271
892.553	0.0157597
892.631	0.0159158
892.709	0.0157993
892.788	0.0157370
892.866	0.0159403
892.944	0.0158752
893.022	0.0157774
893.100	0.0158392
893.178	0.0159280
893.256	0.0158304
893.334	0.0159579
893.413	0.0159429
893.491	0.0159579
893.569	0.0158743
893.647	0.0158523
893.725	0.0158051
893.803	0.0158418
893.881	0.0158119
893.959	0.0159032
894.038	0.0159180
894.116	0.0157733
894.194	0.0159501
894.272	0.0159617
894.350	0.0159882
894.428	0.0160155
894.506	0.0160631
894.584	0.0161792
894.663	0.0162830
894.741	0.0162762
894.819	0.0163741
894.897	0.0164130
894.975	0.0166071
895.053	0.0166756
895.131	0.0166608
895.209	0.0166167
895.288	0.0166345
895.366	0.0167329
895.444	0.0168001
895.522	0.0166181
895.600	0.0167990
895.678	0.0166762
895.756	0.0165691
895.834	0.0166293
895.913	0.0164104
895.991	0.0165001
896.069	0.0162720
896.147	0.0162030
896.225	0.0160392
896.303	0.0159553
896.381	0.0159584
896.459	0.0158687
896.538	0.0157944
896.616	0.0157479
896.694	0.0157220
896.772	0.0156673
896.850	0.0157681
896.928	0.0157607
897.006	0.0157379
897.084	0.0157329
897.163	0.0157278
897.241	0.0157609
897.319	0.0157307
897.397	0.0159870
897.475	0.0159810
897.553	0.0159610
897.631	0.0159673
897.709	0.0158788
897.788	0.0158921
897.866	0.0160905
897.944	0.0160625
898.022	0.0159604
898.100	0.0159499
898.178	0.0159776
898.256	0.0159611
898.334	0.0160379
898.413	0.0160158
898.491	0.0159757
898.569	0.0160400
898.647	0.0159861
898.725	0.0159401
898.803	0.0161179
898.881	0.0160663
898.959	0.0160136
899.038	0.0159366
899.116	0.0159998
899.194	0.0160914
899.272	0.0159014
899.350	0.0160043
899.428	0.0158929
899.506	0.0160738
899.584	0.0160240
899.663	0.0159743
899.741	0.0161253
899.819	0.0160049
899.897	0.0160451
899.975	0.0159979
900.053	0.0160233
900.131	0.0160148
900.209	0.0160513
900.288	0.0160206
900.366	0.0160910
900.444	0.0161819
900.522	0.0162060
900.600	0.0159988
900.678	0.0161202
900.756	0.0161488
900.834	0.0159960
900.913	0.0161051
900.991	0.0160754
901.069	0.0159919
901.147	0.0159716
901.225	0.0159721
901.303	0.0161391
901.381	0.0160378
901.459	0.0161604
901.538	0.0160756
901.616	0.0161433
901.694	0.0161901
901.772	0.0162177
901.850	0.0163720
901.928	0.0163084
902.006	0.0162381
902.084	0.0162088
902.163	0.0163463
902.241	0.0161600
902.319	0.0161196
902.397	0.0161236
902.475	0.0160372
902.553	0.0160194
902.631	0.0159383
902.709	0.0159143
902.788	0.0159736
902.866	0.0157758
902.944	0.0158625
903.022	0.0158051
903.100	0.0158234
903.178	0.0158685
903.256	0.0158244
903.334	0.0157304
903.413	0.0158961
903.491	0.0158057
903.569	0.0158273
903.647	0.0159576
903.725	0.0159608
903.803	0.0159375
903.881	0.0159882
903.959	0.0160698
904.038	0.0161553
904.116	0.0162481
904.194	0.0162685
904.272	0.0162242
904.350	0.0162936
904.428	0.0163164
904.506	0.0161590
904.584	0.0162885
904.663	0.0160687
904.741	0.0162247
904.819	0.0161922
904.897	0.0161069
904.975	0.0160070
905.053	0.0160387
905.131	0.0158287
905.209	0.0159550
905.288	0.0158073
905.366	0.0157791
905.444	0.0159205
905.522	0.0157096
905.600	0.0157073
905.678	0.0158673
905.756	0.0158488
905.834	0.0157703
905.913	0.0157874
905.991	0.0157638
906.069	0.0159827
906.147	0.0159121
906.225	0.0159780
906.303	0.0162185
906.381	0.0160068
906.459	0.0158982
906.538	0.0159830
906.616	0.0161727
906.694	0.0158969
906.772	0.0159359
906.850	0.0160386
906.928	0.0159872
907.006	0.0158310
907.084	0.0159459
907.163	0.0159502
907.241	0.0160649
907.319	0.0160526
907.397	0.0160799
907.475	0.0160316
907.553	0.0161777
907.631	0.0161411
907.709	0.0160923
907.788	0.0162509
907.866	0.0162862
907.944	0.0161887
908.022	0.0163042
908.100	0.0161348
908.178	0.0161764
908.256	0.0162932
908.334	0.0162390
908.413	0.0162711
908.491	0.0162243
908.569	0.0160439
908.647	0.0160646
908.725	0.0163545
908.803	0.0161720
908.881	0.0160690
908.959	0.0158894
909.038	0.0160463
909.116	0.0160630
909.194	0.0159201
909.272	0.0158665
909.350	0.0158172
909.428	0.0159537
909.506	0.0159010
909.584	0.0157565
909.663	0.0158516
909.741	0.0156174
909.819	0.0157686
909.897	0.0157822
909.975	0.0158940
910.053	0.0158249
910.131	0.0158812
910.209	0.0158364
910.288	0.0159509
910.366	0.0159147
910.444	0.0160458
910.522	0.0158488
910.600	0.0159249
910.678	0.0160153
910.756	0.0160222
910.834	0.0162404
910.913	0.0161773
910.991	0.0161393
911.069	0.0160368
911.147	0.0161504
911.225	0.0161145
911.303	0.0162806
911.381	0.0160794
911.459	0.0160788
911.538	0.0161240
911.616	0.0162766
911.694	0.0161670
911.772	0.0161195
911.850	0.0160945
911.928	0.0162296
912.006	0.0161389
912.084	0.0162584
912.163	0.0162716
912.241	0.0160632
912.319	0.0161879
912.397	0.0162808
912.475	0.0162301
912.553	0.0161900
912.631	0.0162201
912.709	0.0162038
912.788	0.0161543
912.866	0.0161792
912.944	0.0160387
913.022	0.0160390
913.100	0.0160378
913.178	0.0159406
913.256	0.0159362
913.334	0.0157372
913.413	0.0158719
913.491	0.0157492
913.569	0.0156573
913.647	0.0155847
913.725	0.0157244
913.803	0.0157769
913.881	0.0156880
913.959	0.0157841
914.038	0.0159409
914.116	0.0157019
914.194	0.0158203
914.272	0.0158704
914.350	0.0158767
914.428	0.0160152
914.506	0.0159225
914.584	0.0159587
914.663	0.0159790
914.741	0.0159566
914.819	0.0159923
914.897	0.0159779
914.975	0.0161136
915.053	0.0160261
915.131	0.0161228
915.209	0.0160506
915.288	0.0161388
915.366	0.0162206
915.444	0.0161985
915.522	0.0160079
915.600	0.0160619
915.678	0.0160732
915.756	0.0162035
915.834	0.0161340
915.913	0.0161868
915.991	0.0163817
916.069	0.0162390
916.147	0.0161701
916.225	0.0162105
916.303	0.0160905
916.381	0.0162369
916.459	0.0161505
916.538	0.0160784
916.616	0.0161871
916.694	0.0162734
916.772	0.0162897
916.850	0.0163670
916.928	0.0162969
917.006	0.0162299
917.084	0.0160587
917.163	0.0162205
917.241	0.0163083
917.319	0.0163032
917.397	0.0161667
917.475	0.0162386
917.553	0.0160771
917.631	0.0159171
917.709	0.0159290
917.788	0.0157657
917.866	0.0157520
917.944	0.0157677
918.022	0.0156288
918.100	0.0156599
918.178	0.0156184
918.256	0.0155807
918.334	0.0155833
918.413	0.0155435
918.491	0.0153340
918.569	0.0155018
918.647	0.0154868
918.725	0.0153976
918.803	0.0154852
918.881	0.0154809
918.959	0.0156528
919.038	0.0156300
919.116	0.0157394
919.194	0.0157006
919.272	0.0157999
919.350	0.0157024
919.428	0.0158721
919.506	0.0157996
919.584	0.0160326
919.663	0.0159778
919.741	0.0161821
919.819	0.0159795
919.897	0.0161871
