06/01/2022	17:25:09	Ver.	4.1	UNKNOWN
Optical Delay	599.981738	Delta X		0.078125	Sweeps	1	Scan Rate	0/0
Coordinates	Axis 1	NaN	Axis 2	NaN	Axis 3	NaN	Axis 4	NaN	Axis 5	NaN	Axis 6	0.000000
TX Power	0.000000	RX Power	0.000000

599.982	0.0163259
600.060	0.0162686
600.138	0.0163039
600.216	0.0162047
600.294	0.0162570
600.372	0.0162680
600.450	0.0163390
600.529	0.0163509
600.607	0.0164841
600.685	0.0163554
600.763	0.0164041
600.841	0.0164331
600.919	0.0162421
600.997	0.0164410
601.075	0.0163756
601.154	0.0163609
601.232	0.0164255
601.310	0.0164456
601.388	0.0165090
601.466	0.0165104
601.544	0.0164460
601.622	0.0163290
601.700	0.0164371
601.779	0.0163988
601.857	0.0162886
601.935	0.0163931
602.013	0.0163538
602.091	0.0163822
602.169	0.0163123
602.247	0.0164178
602.325	0.0164334
602.404	0.0164317
602.482	0.0163012
602.560	0.0162700
602.638	0.0164840
602.716	0.0163707
602.794	0.0163705
602.872	0.0162946
602.950	0.0162092
603.029	0.0164137
603.107	0.0164584
603.185	0.0162131
603.263	0.0162931
603.341	0.0164542
603.419	0.0163710
603.497	0.0162645
603.575	0.0162846
603.654	0.0164507
603.732	0.0163484
603.810	0.0164096
603.888	0.0163097
603.966	0.0161932
604.044	0.0162614
604.122	0.0162128
604.200	0.0162453
604.279	0.0163168
604.357	0.0164695
604.435	0.0163499
604.513	0.0162752
604.591	0.0163458
604.669	0.0164395
604.747	0.0163103
604.825	0.0163686
604.904	0.0164023
604.982	0.0162849
605.060	0.0162934
605.138	0.0163312
605.216	0.0163297
605.294	0.0163762
605.372	0.0163961
605.450	0.0163968
605.529	0.0164373
605.607	0.0164112
605.685	0.0163361
605.763	0.0163945
605.841	0.0165170
605.919	0.0163913
605.997	0.0162228
606.075	0.0164030
606.154	0.0164604
606.232	0.0164272
606.310	0.0163673
606.388	0.0162746
606.466	0.0164783
606.544	0.0163903
606.622	0.0163592
606.700	0.0164536
606.779	0.0163425
606.857	0.0165509
606.935	0.0164421
607.013	0.0162909
607.091	0.0164161
607.169	0.0163368
607.247	0.0164202
607.325	0.0163560
607.404	0.0163272
607.482	0.0162049
607.560	0.0163873
607.638	0.0162474
607.716	0.0163074
607.794	0.0164142
607.872	0.0164312
607.950	0.0163472
608.029	0.0163937
608.107	0.0162998
608.185	0.0161906
608.263	0.0163650
608.341	0.0163421
608.419	0.0163750
608.497	0.0161550
608.575	0.0162047
608.654	0.0163498
608.732	0.0163095
608.810	0.0162363
608.888	0.0160747
608.966	0.0163567
609.044	0.0162785
609.122	0.0162724
609.200	0.0162327
609.279	0.0162563
609.357	0.0163626
609.435	0.0162991
609.513	0.0163316
609.591	0.0164314
609.669	0.0164105
609.747	0.0163691
609.825	0.0163933
609.904	0.0163869
609.982	0.0164626
610.060	0.0164255
610.138	0.0163515
610.216	0.0163893
610.294	0.0164410
610.372	0.0162974
610.450	0.0162229
610.529	0.0163960
610.607	0.0164831
610.685	0.0163241
610.763	0.0163131
610.841	0.0164724
610.919	0.0164824
610.997	0.0162599
611.075	0.0163496
611.154	0.0163590
611.232	0.0163764
611.310	0.0163183
611.388	0.0163622
611.466	0.0165031
611.544	0.0163120
611.622	0.0164389
611.700	0.0163114
611.779	0.0162423
611.857	0.0163313
611.935	0.0163806
612.013	0.0163822
612.091	0.0163309
612.169	0.0163426
612.247	0.0163545
612.325	0.0163469
612.404	0.0164015
612.482	0.0164789
612.560	0.0162901
612.638	0.0163308
612.716	0.0163770
612.794	0.0163535
612.872	0.0162721
612.950	0.0163042
613.029	0.0162302
613.107	0.0162532
613.185	0.0164623
613.263	0.0163093
613.341	0.0162743
613.419	0.0164122
613.497	0.0161880
613.575	0.0162811
613.654	0.0163310
613.732	0.0163739
613.810	0.0162617
613.888	0.0162878
613.966	0.0162754
614.044	0.0163577
614.122	0.0162717
614.200	0.0164304
614.279	0.0163697
614.357	0.0163333
614.435	0.0164449
614.513	0.0163013
614.591	0.0163063
614.669	0.0162614
614.747	0.0164500
614.825	0.0164180
614.904	0.0165717
614.982	0.0163224
615.060	0.0163863
615.138	0.0163639
615.216	0.0163592
615.294	0.0163241
615.372	0.0163284
615.450	0.0162926
615.529	0.0164507
615.607	0.0164765
615.685	0.0163992
615.763	0.0163598
615.841	0.0163476
615.919	0.0163525
615.997	0.0164512
616.075	0.0163433
616.154	0.0163722
616.232	0.0163160
616.310	0.0164323
616.388	0.0164024
616.466	0.0163949
616.544	0.0163474
616.622	0.0164359
616.700	0.0164051
616.779	0.0162708
616.857	0.0162362
616.935	0.0163632
617.013	0.0163843
617.091	0.0163760
617.169	0.0163567
617.247	0.0163757
617.325	0.0163387
617.404	0.0163067
617.482	0.0163587
617.560	0.0163070
617.638	0.0163631
617.716	0.0161743
617.794	0.0162999
617.872	0.0163083
617.950	0.0163105
618.029	0.0162228
618.107	0.0163023
618.185	0.0162938
618.263	0.0163493
618.341	0.0164156
618.419	0.0163680
618.497	0.0163125
618.575	0.0163589
618.654	0.0163063
618.732	0.0164320
618.810	0.0163618
618.888	0.0163988
618.966	0.0162672
619.044	0.0163539
619.122	0.0164207
619.200	0.0165035
619.279	0.0163357
619.357	0.0162179
619.435	0.0163467
619.513	0.0163886
619.591	0.0163838
619.669	0.0163007
619.747	0.0162504
619.825	0.0161804
619.904	0.0163165
619.982	0.0162316
620.060	0.0162234
620.138	0.0163837
620.216	0.0162227
620.294	0.0162651
620.372	0.0162888
620.450	0.0162486
620.529	0.0163351
620.607	0.0163293
620.685	0.0163625
620.763	0.0162959
620.841	0.0162673
620.919	0.0162863
620.997	0.0163733
621.075	0.0164322
621.154	0.0162581
621.232	0.0163278
621.310	0.0163519
621.388	0.0162838
621.466	0.0164568
621.544	0.0164497
621.622	0.0163247
621.700	0.0164615
621.779	0.0164158
621.857	0.0163058
621.935	0.0161607
622.013	0.0162920
622.091	0.0163317
622.169	0.0162115
622.247	0.0164069
622.325	0.0164500
622.404	0.0163129
622.482	0.0162918
622.560	0.0163030
622.638	0.0164382
622.716	0.0162137
622.794	0.0163055
622.872	0.0164157
622.950	0.0163889
623.029	0.0162991
623.107	0.0163588
623.185	0.0163255
623.263	0.0163882
623.341	0.0163748
623.419	0.0165075
623.497	0.0162788
623.575	0.0162801
623.654	0.0163270
623.732	0.0163968
623.810	0.0163516
623.888	0.0164979
623.966	0.0163375
624.044	0.0163118
624.122	0.0162926
624.200	0.0163820
624.279	0.0163081
624.357	0.0163176
624.435	0.0163090
624.513	0.0164053
624.591	0.0162560
624.669	0.0164412
624.747	0.0163728
624.825	0.0162920
624.904	0.0162966
624.982	0.0163202
625.060	0.0163444
625.138	0.0162080
625.216	0.0163026
625.294	0.0163797
625.372	0.0163853
625.450	0.0163859
625.529	0.0163251
625.607	0.0162151
625.685	0.0163066
625.763	0.0163770
625.841	0.0162489
625.919	0.0163918
625.997	0.0163729
626.075	0.0164030
626.154	0.0163736
626.232	0.0162730
626.310	0.0162814
626.388	0.0165040
626.466	0.0163503
626.544	0.0162630
626.622	0.0163078
626.700	0.0163492
626.779	0.0164152
626.857	0.0163274
626.935	0.0163422
627.013	0.0164240
627.091	0.0163487
627.169	0.0164337
627.247	0.0164465
627.325	0.0163081
627.404	0.0162068
627.482	0.0163676
627.560	0.0162532
627.638	0.0163015
627.716	0.0163924
627.794	0.0164848
627.872	0.0163497
627.950	0.0163921
628.029	0.0162836
628.107	0.0164275
628.185	0.0164052
628.263	0.0162801
628.341	0.0164091
628.419	0.0163731
628.497	0.0163532
628.575	0.0164542
628.654	0.0164223
628.732	0.0162340
628.810	0.0161932
628.888	0.0164089
628.966	0.0164532
629.044	0.0163541
629.122	0.0165315
629.200	0.0163438
629.279	0.0164629
629.357	0.0163686
629.435	0.0163252
629.513	0.0163181
629.591	0.0164459
629.669	0.0163894
629.747	0.0162576
629.825	0.0164012
629.904	0.0163806
629.982	0.0164175
630.060	0.0162410
630.138	0.0163142
630.216	0.0162914
630.294	0.0162643
630.372	0.0163492
630.450	0.0164858
630.529	0.0164327
630.607	0.0162975
630.685	0.0164555
630.763	0.0164165
630.841	0.0162548
630.919	0.0162417
630.997	0.0164553
631.075	0.0163466
631.154	0.0162733
631.232	0.0162953
631.310	0.0164042
631.388	0.0163948
631.466	0.0162344
631.544	0.0164732
631.622	0.0163475
631.700	0.0162546
631.779	0.0162554
631.857	0.0163718
631.935	0.0163449
632.013	0.0164818
632.091	0.0164082
632.169	0.0163577
632.247	0.0163763
632.325	0.0162532
632.404	0.0164201
632.482	0.0163415
632.560	0.0164890
632.638	0.0164873
632.716	0.0164246
632.794	0.0162654
632.872	0.0163288
632.950	0.0162286
633.029	0.0163391
633.107	0.0162582
633.185	0.0163814
633.263	0.0163171
633.341	0.0163012
633.419	0.0163758
633.497	0.0162608
633.575	0.0163010
633.654	0.0163383
633.732	0.0164449
633.810	0.0163956
633.888	0.0163654
633.966	0.0162667
634.044	0.0163666
634.122	0.0163090
634.200	0.0162842
634.279	0.0163686
634.357	0.0164912
634.435	0.0163909
634.513	0.0163136
634.591	0.0163515
634.669	0.0163190
634.747	0.0165118
634.825	0.0162852
634.904	0.0164088
634.982	0.0165073
635.060	0.0164279
635.138	0.0162777
635.216	0.0163127
635.294	0.0164455
635.372	0.0162848
635.450	0.0162328
635.529	0.0163533
635.607	0.0163506
635.685	0.0164182
635.763	0.0164648
635.841	0.0162939
635.919	0.0162375
635.997	0.0164190
636.075	0.0163570
636.154	0.0162778
636.232	0.0163812
636.310	0.0163123
636.388	0.0165379
636.466	0.0163682
636.544	0.0163950
636.622	0.0165647
636.700	0.0164587
636.779	0.0164544
636.857	0.0162861
636.935	0.0163629
637.013	0.0164760
637.091	0.0163779
637.169	0.0162505
637.247	0.0163413
637.325	0.0163865
637.404	0.0164095
637.482	0.0163625
637.560	0.0162818
637.638	0.0164102
637.716	0.0164897
637.794	0.0164407
637.872	0.0164256
637.950	0.0162852
638.029	0.0162118
638.107	0.0163044
638.185	0.0164962
638.263	0.0163800
638.341	0.0163950
638.419	0.0164001
638.497	0.0163286
638.575	0.0164304
638.654	0.0163126
638.732	0.0164555
638.810	0.0163886
638.888	0.0163469
638.966	0.0163679
639.044	0.0164439
639.122	0.0162687
639.200	0.0164181
639.279	0.0166366
639.357	0.0165026
639.435	0.0163554
639.513	0.0163817
639.591	0.0164752
639.669	0.0163807
639.747	0.0164342
639.825	0.0162835
639.904	0.0164164
639.982	0.0164843
640.060	0.0164188
640.138	0.0162584
640.216	0.0162202
640.294	0.0165163
640.372	0.0165083
640.450	0.0163965
640.529	0.0163816
640.607	0.0164334
640.685	0.0163993
640.763	0.0163914
640.841	0.0163639
640.919	0.0163675
640.997	0.0163169
641.075	0.0164486
641.154	0.0162905
641.232	0.0163199
641.310	0.0163983
641.388	0.0163326
641.466	0.0163049
641.544	0.0163064
641.622	0.0163833
641.700	0.0163504
641.779	0.0163794
641.857	0.0164443
641.935	0.0163830
642.013	0.0164526
642.091	0.0163872
642.169	0.0163784
642.247	0.0162086
642.325	0.0163639
642.404	0.0163474
642.482	0.0163977
642.560	0.0163816
642.638	0.0163641
642.716	0.0163087
642.794	0.0162833
642.872	0.0163520
642.950	0.0162718
643.029	0.0164537
643.107	0.0163394
643.185	0.0164138
643.263	0.0164650
643.341	0.0162698
643.419	0.0163548
643.497	0.0163879
643.575	0.0164590
643.654	0.0163476
643.732	0.0163540
643.810	0.0163531
643.888	0.0162804
643.966	0.0164568
644.044	0.0163463
644.122	0.0163710
644.200	0.0164655
644.279	0.0162443
644.357	0.0163304
644.435	0.0162759
644.513	0.0162755
644.591	0.0163567
644.669	0.0164075
644.747	0.0163748
644.825	0.0163233
644.904	0.0163421
644.982	0.0162811
645.060	0.0163822
645.138	0.0163442
645.216	0.0163319
645.294	0.0163541
645.372	0.0163232
645.450	0.0162679
645.529	0.0163712
645.607	0.0163578
645.685	0.0163843
645.763	0.0162645
645.841	0.0163584
645.919	0.0164098
645.997	0.0161987
646.075	0.0162655
646.154	0.0163261
646.232	0.0162792
646.310	0.0162189
646.388	0.0162325
646.466	0.0163908
646.544	0.0163459
646.622	0.0164553
646.700	0.0165058
646.779	0.0164420
646.857	0.0163460
646.935	0.0164275
647.013	0.0163878
647.091	0.0163533
647.169	0.0164222
647.247	0.0164138
647.325	0.0164299
647.404	0.0163348
647.482	0.0163555
647.560	0.0163563
647.638	0.0163910
647.716	0.0164682
647.794	0.0164258
647.872	0.0163084
647.950	0.0163743
648.029	0.0163868
648.107	0.0163500
648.185	0.0164482
648.263	0.0162832
648.341	0.0163750
648.419	0.0164039
648.497	0.0163462
648.575	0.0162054
648.654	0.0162363
648.732	0.0163615
648.810	0.0163659
648.888	0.0163598
648.966	0.0162708
649.044	0.0164108
649.122	0.0164052
649.200	0.0162604
649.279	0.0162517
649.357	0.0163552
649.435	0.0162997
649.513	0.0162734
649.591	0.0163555
649.669	0.0163636
649.747	0.0164306
649.825	0.0164176
649.904	0.0164944
649.982	0.0163302
650.060	0.0163422
650.138	0.0163927
650.216	0.0163047
650.294	0.0164912
650.372	0.0163952
650.450	0.0163728
650.529	0.0163741
650.607	0.0163447
650.685	0.0163860
650.763	0.0163107
650.841	0.0163765
650.919	0.0164629
650.997	0.0163373
651.075	0.0162853
651.154	0.0163995
651.232	0.0163674
651.310	0.0163548
651.388	0.0164157
651.466	0.0163711
651.544	0.0162878
651.622	0.0163811
651.700	0.0164035
651.779	0.0163531
651.857	0.0162381
651.935	0.0164127
652.013	0.0163656
652.091	0.0162260
652.169	0.0163262
652.247	0.0163432
652.325	0.0162594
652.404	0.0163951
652.482	0.0164382
652.560	0.0163303
652.638	0.0163844
652.716	0.0163789
652.794	0.0164213
652.872	0.0162971
652.950	0.0162445
653.029	0.0162821
653.107	0.0163004
653.185	0.0162785
653.263	0.0163062
653.341	0.0163984
653.419	0.0163113
653.497	0.0162709
653.575	0.0163650
653.654	0.0164282
653.732	0.0162861
653.810	0.0163082
653.888	0.0163470
653.966	0.0164389
654.044	0.0163681
654.122	0.0163074
654.200	0.0164306
654.279	0.0164824
654.357	0.0164547
654.435	0.0161602
654.513	0.0162933
654.591	0.0164043
654.669	0.0164833
654.747	0.0163230
654.825	0.0163157
654.904	0.0164664
654.982	0.0163894
655.060	0.0162195
655.138	0.0163131
655.216	0.0164035
655.294	0.0162521
655.372	0.0163429
655.450	0.0163730
655.529	0.0164086
655.607	0.0163675
655.685	0.0164748
655.763	0.0164529
655.841	0.0165530
655.919	0.0165532
655.997	0.0163446
656.075	0.0163268
656.154	0.0163266
656.232	0.0164241
656.310	0.0164349
656.388	0.0165621
656.466	0.0164877
656.544	0.0163358
656.622	0.0163805
656.700	0.0162926
656.779	0.0163845
656.857	0.0164198
656.935	0.0165041
657.013	0.0164333
657.091	0.0162995
657.169	0.0164259
657.247	0.0163559
657.325	0.0162153
657.404	0.0163387
657.482	0.0163261
657.560	0.0162090
657.638	0.0161851
657.716	0.0164275
657.794	0.0163361
657.872	0.0163829
657.950	0.0164213
658.029	0.0161903
658.107	0.0162267
658.185	0.0163889
658.263	0.0163454
658.341	0.0164262
658.419	0.0163082
658.497	0.0163685
658.575	0.0163840
658.654	0.0163672
658.732	0.0162942
658.810	0.0164954
658.888	0.0164460
658.966	0.0164051
659.044	0.0165107
659.122	0.0163474
659.200	0.0163710
659.279	0.0163732
659.357	0.0162936
659.435	0.0163258
659.513	0.0163639
659.591	0.0163396
659.669	0.0162861
659.747	0.0164146
659.825	0.0165787
659.904	0.0164162
659.982	0.0163869
660.060	0.0163492
660.138	0.0163885
660.216	0.0163238
660.294	0.0163062
660.372	0.0162581
660.450	0.0163181
660.529	0.0164097
660.607	0.0164039
660.685	0.0162471
660.763	0.0163451
660.841	0.0163206
660.919	0.0163033
660.997	0.0164835
661.075	0.0163544
661.154	0.0163621
661.232	0.0164862
661.310	0.0162728
661.388	0.0164748
661.466	0.0164803
661.544	0.0163870
661.622	0.0164114
661.700	0.0163521
661.779	0.0163306
661.857	0.0164643
661.935	0.0163885
662.013	0.0164063
662.091	0.0163851
662.169	0.0162284
662.247	0.0165066
662.325	0.0164149
662.404	0.0163273
662.482	0.0162518
662.560	0.0163148
662.638	0.0162596
662.716	0.0161404
662.794	0.0162048
662.872	0.0162547
662.950	0.0162557
663.029	0.0163815
663.107	0.0163005
663.185	0.0163799
663.263	0.0163403
663.341	0.0163416
663.419	0.0163069
663.497	0.0163257
663.575	0.0164989
663.654	0.0164601
663.732	0.0164288
663.810	0.0165456
663.888	0.0165111
663.966	0.0165548
664.044	0.0166597
664.122	0.0167850
664.200	0.0165631
664.279	0.0166411
664.357	0.0165900
664.435	0.0166476
664.513	0.0167340
664.591	0.0166035
664.669	0.0163896
664.747	0.0164337
664.825	0.0164803
664.904	0.0165193
664.982	0.0164290
665.060	0.0163898
665.138	0.0164462
665.216	0.0162366
665.294	0.0162340
665.372	0.0160786
665.450	0.0159511
665.529	0.0158315
665.607	0.0159473
665.685	0.0158755
665.763	0.0159042
665.841	0.0156121
665.919	0.0156393
665.997	0.0157178
666.075	0.0156294
666.154	0.0158674
666.232	0.0160367
666.310	0.0161439
666.388	0.0162969
666.466	0.0163979
666.544	0.0167081
666.622	0.0167924
666.700	0.0169780
666.779	0.0168215
666.857	0.0169555
666.935	0.0169550
667.013	0.0168341
667.091	0.0168318
667.169	0.0166766
667.247	0.0165838
667.325	0.0164142
667.404	0.0163413
667.482	0.0166107
667.560	0.0166759
667.638	0.0167012
667.716	0.0169232
667.794	0.0170959
667.872	0.0173206
667.950	0.0175127
668.029	0.0175882
668.107	0.0175484
668.185	0.0175182
668.263	0.0175056
668.341	0.0171970
668.419	0.0169088
668.497	0.0166699
668.575	0.0163834
668.654	0.0160594
668.732	0.0155687
668.810	0.0151490
668.888	0.0148091
668.966	0.0146154
669.044	0.0145911
669.122	0.0146140
669.200	0.0144017
669.279	0.0144115
669.357	0.0145194
669.435	0.0148386
669.513	0.0149540
669.591	0.0152280
669.669	0.0154893
669.747	0.0159628
669.825	0.0161985
669.904	0.0164098
669.982	0.0166248
670.060	0.0171560
670.138	0.0173804
670.216	0.0175742
670.294	0.0177821
670.372	0.0179455
670.450	0.0181844
670.529	0.0180935
670.607	0.0182038
670.685	0.0180306
670.763	0.0179129
670.841	0.0176878
670.919	0.0175762
670.997	0.0173506
671.075	0.0171413
671.154	0.0169046
671.232	0.0169373
671.310	0.0168919
671.388	0.0166228
671.466	0.0166228
671.544	0.0165296
671.622	0.0162804
671.700	0.0160352
671.779	0.0159517
671.857	0.0154833
671.935	0.0151712
672.013	0.0147682
672.091	0.0141811
672.169	0.0137017
672.247	0.0131427
672.325	0.0128732
672.404	0.0125927
672.482	0.0126578
672.560	0.0127016
672.638	0.0132297
672.716	0.0138864
672.794	0.0145621
672.872	0.0152969
672.950	0.0164062
673.029	0.0175145
673.107	0.0185187
673.185	0.0192641
673.263	0.0198969
673.341	0.0207582
673.419	0.0211528
673.497	0.0214058
673.575	0.0215927
673.654	0.0213952
673.732	0.0211858
673.810	0.0208740
673.888	0.0205177
673.966	0.0200932
674.044	0.0196452
674.122	0.0189144
674.200	0.0183360
674.279	0.0175067
674.357	0.0167911
674.435	0.0158024
674.513	0.0148803
674.591	0.0140388
674.669	0.0131362
674.747	0.0120721
674.825	0.0114912
674.904	0.0107575
674.982	0.0100751
675.060	0.00992546
675.138	0.00958458
675.216	0.00956017
675.294	0.00972992
675.372	0.00995125
675.450	0.0103273
675.529	0.0108094
675.607	0.0114861
675.685	0.0123424
675.763	0.0130469
675.841	0.0139945
675.919	0.0146430
675.997	0.0154784
676.075	0.0163363
676.154	0.0170952
676.232	0.0179767
676.310	0.0187561
676.388	0.0194983
676.466	0.0203436
676.544	0.0212749
676.622	0.0219926
676.700	0.0227306
676.779	0.0232192
676.857	0.0238240
676.935	0.0242071
677.013	0.0244422
677.091	0.0248270
677.169	0.0247015
677.247	0.0246155
677.325	0.0243920
677.404	0.0238809
677.482	0.0233187
677.560	0.0224684
677.638	0.0216393
677.716	0.0205405
677.794	0.0195711
677.872	0.0183415
677.950	0.0171712
678.029	0.0160025
678.107	0.0147243
678.185	0.0136274
678.263	0.0124227
678.341	0.0113149
678.419	0.0102608
678.497	0.00918732
678.575	0.00821732
678.654	0.00725433
678.732	0.00633156
678.810	0.00553062
678.888	0.00512718
678.966	0.00497612
679.044	0.00468475
679.122	0.00483154
679.200	0.00514122
679.279	0.00564026
679.357	0.00656036
679.435	0.00770882
679.513	0.00909355
679.591	0.0106201
679.669	0.0124255
679.747	0.0142324
679.825	0.0161631
679.904	0.0178534
679.982	0.0195634
680.060	0.0210675
680.138	0.0222390
680.216	0.0233377
680.294	0.0240646
680.372	0.0244910
680.450	0.0248615
680.529	0.0251133
680.607	0.0250553
680.685	0.0250473
680.763	0.0249649
680.841	0.0250359
680.919	0.0248059
680.997	0.0248497
681.075	0.0247960
681.154	0.0246460
681.232	0.0243996
681.310	0.0238860
681.388	0.0233144
681.466	0.0226039
681.544	0.0218917
681.622	0.0209605
681.700	0.0198731
681.779	0.0188474
681.857	0.0177860
681.935	0.0169505
682.013	0.0159968
682.091	0.0154971
682.169	0.0149796
682.247	0.0145670
682.325	0.0142666
682.404	0.0140559
682.482	0.0137978
682.560	0.0134331
682.638	0.0131017
682.716	0.0125879
682.794	0.0118283
682.872	0.0111131
682.950	0.0101621
683.029	0.00942345
683.107	0.00841698
683.185	0.00731606
683.263	0.00628586
683.341	0.00552948
683.419	0.00492462
683.497	0.00431541
683.575	0.00409912
683.654	0.00409660
683.732	0.00439148
683.810	0.00495308
683.888	0.00609322
683.966	0.00750137
684.044	0.00912445
684.122	0.0107005
684.200	0.0126647
684.279	0.0146387
684.357	0.0168250
684.435	0.0185669
684.513	0.0204407
684.591	0.0221732
684.669	0.0235599
684.747	0.0244895
684.825	0.0255731
684.904	0.0263618
684.982	0.0267940
685.060	0.0269518
685.138	0.0270464
685.216	0.0271643
685.294	0.0271743
685.372	0.0272266
685.450	0.0271967
685.529	0.0268478
685.607	0.0267609
685.685	0.0267025
685.763	0.0262595
685.841	0.0257102
685.919	0.0249011
685.997	0.0238925
686.075	0.0230307
686.154	0.0217841
686.232	0.0205673
686.310	0.0191995
686.388	0.0178867
686.466	0.0165852
686.544	0.0154214
686.622	0.0145767
686.700	0.0136517
686.779	0.0126880
686.857	0.0122041
686.935	0.0117885
687.013	0.0113338
687.091	0.0109782
687.169	0.0104598
687.247	0.00997665
687.325	0.00932434
687.404	0.00885170
687.482	0.00836258
687.560	0.00778046
687.638	0.00706894
687.716	0.00643097
687.794	0.00586472
687.872	0.00530228
687.950	0.00485542
688.029	0.00448418
688.107	0.00438034
688.185	0.00457848
688.263	0.00501183
688.341	0.00564468
688.419	0.00654236
688.497	0.00788200
688.575	0.00938957
688.654	0.0109911
688.732	0.0129784
688.810	0.0150046
688.888	0.0168282
688.966	0.0187546
689.044	0.0206303
689.122	0.0222651
689.200	0.0236826
689.279	0.0246207
689.357	0.0255405
689.435	0.0260121
689.513	0.0262220
689.591	0.0266279
689.669	0.0263021
689.747	0.0260785
689.825	0.0258623
689.904	0.0255376
689.982	0.0252687
690.060	0.0249539
690.138	0.0247956
690.216	0.0246660
690.294	0.0243632
690.372	0.0241393
690.450	0.0239302
690.529	0.0236147
690.607	0.0232915
690.685	0.0226916
690.763	0.0223605
690.841	0.0216165
690.919	0.0209983
690.997	0.0203059
691.075	0.0193508
691.154	0.0185442
691.232	0.0176186
691.310	0.0165059
691.388	0.0154878
691.466	0.0142666
691.544	0.0132919
691.622	0.0122755
691.700	0.0110823
691.779	0.0101671
691.857	0.00939835
691.935	0.00842140
692.013	0.00758522
692.091	0.00679398
692.169	0.00649826
692.247	0.00616661
692.325	0.00587929
692.404	0.00563560
692.482	0.00582161
692.560	0.00597542
692.638	0.00637589
692.716	0.00667274
692.794	0.00746552
692.872	0.00819778
692.950	0.00928764
693.029	0.0101087
693.107	0.0114689
693.185	0.0127773
693.263	0.0140619
693.341	0.0154321
693.419	0.0168430
693.497	0.0181911
693.575	0.0193312
693.654	0.0204736
693.732	0.0212411
693.810	0.0219531
693.888	0.0223161
693.966	0.0225687
694.044	0.0225860
694.122	0.0223720
694.200	0.0219612
694.279	0.0214560
694.357	0.0210477
694.435	0.0205364
694.513	0.0197639
694.591	0.0193890
694.669	0.0189402
694.747	0.0184663
694.825	0.0184338
694.904	0.0181143
694.982	0.0182597
695.060	0.0183593
695.138	0.0186954
695.216	0.0187460
695.294	0.0190443
695.372	0.0194324
695.450	0.0197296
695.529	0.0200141
695.607	0.0205412
695.685	0.0207285
695.763	0.0208080
695.841	0.0208625
695.919	0.0209273
695.997	0.0207318
696.075	0.0205360
696.154	0.0201873
696.232	0.0197573
696.310	0.0191251
696.388	0.0185014
696.466	0.0174848
696.544	0.0164680
696.622	0.0153661
696.700	0.0143188
696.779	0.0131392
696.857	0.0120846
696.935	0.0112564
697.013	0.0104510
697.091	0.00974403
697.169	0.00926521
697.247	0.00903763
697.325	0.00912003
697.404	0.00930786
697.482	0.00972267
697.560	0.0103181
697.638	0.0111669
697.716	0.0120146
697.794	0.0128262
697.872	0.0138338
697.950	0.0148087
698.029	0.0154325
698.107	0.0160458
698.185	0.0166144
698.263	0.0173165
698.341	0.0175613
698.419	0.0175853
698.497	0.0178053
698.575	0.0177161
698.654	0.0175391
698.732	0.0174268
698.810	0.0171265
698.888	0.0168510
698.966	0.0164523
699.044	0.0159938
699.122	0.0158563
699.200	0.0156060
699.279	0.0154886
699.357	0.0152319
699.435	0.0152493
699.513	0.0151402
699.591	0.0153960
699.669	0.0156099
699.747	0.0156958
699.825	0.0159708
699.904	0.0164379
699.982	0.0168732
700.060	0.0172315
700.138	0.0177146
700.216	0.0181432
700.294	0.0184177
700.372	0.0188865
700.450	0.0192979
700.529	0.0196085
700.607	0.0198328
700.685	0.0198826
700.763	0.0198496
700.841	0.0197645
700.919	0.0195852
700.997	0.0191311
701.075	0.0188955
701.154	0.0183765
701.232	0.0177290
701.310	0.0170024
701.388	0.0164640
701.466	0.0159220
701.544	0.0153368
701.622	0.0151152
701.700	0.0148367
701.779	0.0146096
701.857	0.0146675
701.935	0.0148999
702.013	0.0150692
702.091	0.0153266
702.169	0.0157825
702.247	0.0163007
702.325	0.0168322
702.404	0.0175375
702.482	0.0179456
702.560	0.0183546
702.638	0.0188064
702.716	0.0191491
702.794	0.0192300
702.872	0.0193614
702.950	0.0192798
703.029	0.0191032
703.107	0.0186646
703.185	0.0182923
703.263	0.0176929
703.341	0.0171189
703.419	0.0164451
703.497	0.0157906
703.575	0.0149959
703.654	0.0143695
703.732	0.0136391
703.810	0.0129277
703.888	0.0124225
703.966	0.0121957
704.044	0.0118435
704.122	0.0117804
704.200	0.0118468
704.279	0.0118778
704.357	0.0119648
704.435	0.0122942
704.513	0.0126037
704.591	0.0128610
704.669	0.0132285
704.747	0.0136939
704.825	0.0141376
704.904	0.0146386
704.982	0.0150172
705.060	0.0156221
705.138	0.0160941
705.216	0.0164470
705.294	0.0168189
705.372	0.0172007
705.450	0.0173699
705.529	0.0177239
705.607	0.0176781
705.685	0.0177187
705.763	0.0175517
705.841	0.0175348
705.919	0.0174223
705.997	0.0173383
706.075	0.0171135
706.154	0.0169703
706.232	0.0167900
706.310	0.0165401
706.388	0.0166008
706.466	0.0167179
706.544	0.0170509
706.622	0.0170502
706.700	0.0171978
706.779	0.0174839
706.857	0.0177165
706.935	0.0181168
707.013	0.0183369
707.091	0.0185657
707.169	0.0186605
707.247	0.0189117
707.325	0.0189886
707.404	0.0190675
707.482	0.0191022
707.560	0.0189852
707.638	0.0190341
707.716	0.0188477
707.794	0.0185709
707.872	0.0184663
707.950	0.0180869
708.029	0.0177685
708.107	0.0173102
708.185	0.0171060
708.263	0.0166400
708.341	0.0163181
708.419	0.0161298
708.497	0.0157816
708.575	0.0157218
708.654	0.0156834
708.732	0.0155333
708.810	0.0155138
708.888	0.0156283
708.966	0.0155965
709.044	0.0158038
709.122	0.0158712
709.200	0.0159198
709.279	0.0158931
709.357	0.0158369
709.435	0.0158309
709.513	0.0157178
709.591	0.0154906
709.669	0.0154346
709.747	0.0152879
709.825	0.0151155
709.904	0.0147343
709.982	0.0146050
710.060	0.0144433
710.138	0.0142180
710.216	0.0140708
710.294	0.0140121
710.372	0.0137498
710.450	0.0136307
710.529	0.0135629
710.607	0.0135506
710.685	0.0134375
710.763	0.0135342
710.841	0.0136318
710.919	0.0138296
710.997	0.0140075
711.075	0.0143767
711.154	0.0147980
711.232	0.0151736
711.310	0.0157259
711.388	0.0162062
711.466	0.0166670
711.544	0.0171948
711.622	0.0176907
711.700	0.0180103
711.779	0.0182385
711.857	0.0184298
711.935	0.0184687
712.013	0.0186554
712.091	0.0186062
712.169	0.0184372
712.247	0.0182647
712.325	0.0180003
712.404	0.0177973
712.482	0.0174761
712.560	0.0171591
712.638	0.0168016
712.716	0.0165088
712.794	0.0164921
712.872	0.0162459
712.950	0.0163390
713.029	0.0162334
713.107	0.0164267
713.185	0.0163937
713.263	0.0165624
713.341	0.0167941
713.419	0.0170734
713.497	0.0172549
713.575	0.0173613
713.654	0.0175816
713.732	0.0179077
713.810	0.0178597
713.888	0.0178165
713.966	0.0177951
714.044	0.0176971
714.122	0.0178701
714.200	0.0176954
714.279	0.0175564
714.357	0.0171979
714.435	0.0170808
714.513	0.0168660
714.591	0.0167470
714.669	0.0164216
714.747	0.0163071
714.825	0.0160747
714.904	0.0159058
714.982	0.0155923
715.060	0.0155577
715.138	0.0155057
715.216	0.0151818
715.294	0.0150644
715.372	0.0152561
715.450	0.0151530
715.529	0.0153225
715.607	0.0153578
715.685	0.0155898
715.763	0.0157831
715.841	0.0158304
715.919	0.0160902
715.997	0.0163471
716.075	0.0164339
716.154	0.0165989
716.232	0.0168160
716.310	0.0167632
716.388	0.0167491
716.466	0.0167846
716.544	0.0166821
716.622	0.0163712
716.700	0.0163167
716.779	0.0159879
716.857	0.0157305
716.935	0.0154762
717.013	0.0152004
717.091	0.0149457
717.169	0.0147135
717.247	0.0142927
717.325	0.0139338
717.404	0.0138415
717.482	0.0138129
717.560	0.0136950
717.638	0.0136429
717.716	0.0138891
717.794	0.0137708
717.872	0.0140479
717.950	0.0143530
718.029	0.0145448
718.107	0.0148660
718.185	0.0153092
718.263	0.0156981
718.341	0.0161777
718.419	0.0164750
718.497	0.0167950
718.575	0.0172702
718.654	0.0173833
718.732	0.0176286
718.810	0.0180069
718.888	0.0181186
718.966	0.0181734
719.044	0.0182610
719.122	0.0183657
719.200	0.0183289
719.279	0.0180505
719.357	0.0180814
719.435	0.0180098
719.513	0.0178814
719.591	0.0179631
719.669	0.0178542
719.747	0.0178180
719.825	0.0177160
719.904	0.0177312
719.982	0.0177309
720.060	0.0177278
720.138	0.0177560
720.216	0.0176563
720.294	0.0175971
720.372	0.0175719
720.450	0.0177016
720.529	0.0176250
720.607	0.0174773
720.685	0.0174984
720.763	0.0173695
720.841	0.0172609
720.919	0.0171100
720.997	0.0170650
721.075	0.0170328
721.154	0.0168968
721.232	0.0166334
721.310	0.0166772
721.388	0.0164030
721.466	0.0162111
721.544	0.0161377
721.622	0.0158428
721.700	0.0157880
721.779	0.0157334
721.857	0.0155082
721.935	0.0154588
722.013	0.0153733
722.091	0.0151952
722.169	0.0149422
722.247	0.0150357
722.325	0.0148768
722.404	0.0148554
722.482	0.0147588
722.560	0.0148498
722.638	0.0147666
722.716	0.0148357
722.794	0.0148854
722.872	0.0149490
722.950	0.0149873
723.029	0.0148930
723.107	0.0150683
723.185	0.0148981
723.263	0.0148582
723.341	0.0148814
723.419	0.0149400
723.497	0.0148564
723.575	0.0150300
723.654	0.0149132
723.732	0.0150219
723.810	0.0152678
723.888	0.0153248
723.966	0.0154584
724.044	0.0157141
724.122	0.0159267
724.200	0.0163203
724.279	0.0166044
724.357	0.0168277
724.435	0.0170403
724.513	0.0171780
724.591	0.0174246
724.669	0.0175919
724.747	0.0176318
724.825	0.0177624
724.904	0.0176581
724.982	0.0177512
725.060	0.0177785
725.138	0.0178960
725.216	0.0178872
725.294	0.0180678
725.372	0.0178639
725.450	0.0179429
725.529	0.0179366
725.607	0.0180749
725.685	0.0180959
725.763	0.0179419
725.841	0.0178770
725.919	0.0178559
725.997	0.0177435
726.075	0.0174055
726.154	0.0173830
726.232	0.0172491
726.310	0.0170822
726.388	0.0169138
726.466	0.0165958
726.544	0.0164386
726.622	0.0163002
726.700	0.0160927
726.779	0.0159888
726.857	0.0157559
726.935	0.0157838
727.013	0.0157114
727.091	0.0155318
727.169	0.0155884
727.247	0.0154157
727.325	0.0156390
727.404	0.0155819
727.482	0.0155350
727.560	0.0155965
727.638	0.0156142
727.716	0.0156065
727.794	0.0156567
727.872	0.0155977
727.950	0.0158626
728.029	0.0158674
728.107	0.0160133
728.185	0.0159977
728.263	0.0158631
728.341	0.0160033
728.419	0.0160484
728.497	0.0162150
728.575	0.0162131
728.654	0.0161432
728.732	0.0161766
728.810	0.0163176
728.888	0.0161124
728.966	0.0162812
729.044	0.0165829
729.122	0.0164307
729.200	0.0164857
729.279	0.0164729
729.357	0.0168721
729.435	0.0168047
729.513	0.0166785
729.591	0.0168863
729.669	0.0169304
729.747	0.0169885
729.825	0.0169667
729.904	0.0170547
729.982	0.0170366
730.060	0.0168655
730.138	0.0167756
730.216	0.0168307
730.294	0.0166580
730.372	0.0166101
730.450	0.0163995
730.529	0.0163854
730.607	0.0163628
730.685	0.0161809
730.763	0.0160676
730.841	0.0159956
730.919	0.0158100
730.997	0.0156851
731.075	0.0157520
731.154	0.0154906
731.232	0.0154705
731.310	0.0154556
731.388	0.0152939
731.466	0.0153565
731.544	0.0152547
731.622	0.0151545
731.700	0.0153519
731.779	0.0152900
731.857	0.0153957
731.935	0.0153543
732.013	0.0155482
732.091	0.0155824
732.169	0.0157834
732.247	0.0158200
732.325	0.0160169
732.404	0.0161432
732.482	0.0163774
732.560	0.0165759
732.638	0.0166856
732.716	0.0166322
732.794	0.0169461
732.872	0.0169576
732.950	0.0170612
733.029	0.0170829
733.107	0.0170090
733.185	0.0172696
733.263	0.0172914
733.341	0.0173107
733.419	0.0174280
733.497	0.0173412
733.575	0.0172353
733.654	0.0172310
733.732	0.0171375
733.810	0.0171441
733.888	0.0171156
733.966	0.0169691
734.044	0.0168667
734.122	0.0170346
734.200	0.0167680
734.279	0.0167262
734.357	0.0167285
734.435	0.0167435
734.513	0.0167365
734.591	0.0165558
734.669	0.0166483
734.747	0.0167676
734.825	0.0167847
734.904	0.0168398
734.982	0.0168857
735.060	0.0169980
735.138	0.0169349
735.216	0.0168009
735.294	0.0168663
735.372	0.0167086
735.450	0.0166628
735.529	0.0166800
735.607	0.0164236
735.685	0.0161842
735.763	0.0160511
735.841	0.0159768
735.919	0.0157992
735.997	0.0155684
736.075	0.0154086
736.154	0.0154771
736.232	0.0155301
736.310	0.0153473
736.388	0.0152338
736.466	0.0153216
736.544	0.0154369
736.622	0.0153917
736.700	0.0154552
736.779	0.0153986
736.857	0.0153508
736.935	0.0154159
737.013	0.0154330
737.091	0.0153520
737.169	0.0151792
737.247	0.0153983
737.325	0.0155581
737.404	0.0154900
737.482	0.0155389
737.560	0.0156640
737.638	0.0157115
737.716	0.0158929
737.794	0.0157917
737.872	0.0160038
737.950	0.0163327
738.029	0.0163045
738.107	0.0164839
738.185	0.0164837
738.263	0.0165846
738.341	0.0167716
738.419	0.0169586
738.497	0.0168690
738.575	0.0167254
738.654	0.0169424
738.732	0.0171384
738.810	0.0169929
738.888	0.0171558
738.966	0.0170926
739.044	0.0169279
739.122	0.0170995
739.200	0.0170764
739.279	0.0169935
739.357	0.0168399
739.435	0.0169301
739.513	0.0169620
739.591	0.0168313
739.669	0.0167364
739.747	0.0166974
739.825	0.0166924
739.904	0.0166232
739.982	0.0165348
740.060	0.0164720
740.138	0.0164518
740.216	0.0164288
740.294	0.0164177
740.372	0.0163179
740.450	0.0163989
740.529	0.0161778
740.607	0.0163174
740.685	0.0163576
740.763	0.0162765
740.841	0.0162723
740.919	0.0163728
740.997	0.0164249
741.075	0.0163675
741.154	0.0163931
741.232	0.0163909
741.310	0.0163727
741.388	0.0164751
741.466	0.0163676
741.544	0.0163802
741.622	0.0162762
741.700	0.0163038
741.779	0.0162368
741.857	0.0161952
741.935	0.0163525
742.013	0.0163364
742.091	0.0161943
742.169	0.0161926
742.247	0.0161157
742.325	0.0161326
742.404	0.0161205
742.482	0.0160746
742.560	0.0160979
742.638	0.0160412
742.716	0.0161528
742.794	0.0160608
742.872	0.0162651
742.950	0.0163554
743.029	0.0164412
743.107	0.0163721
743.185	0.0164832
743.263	0.0165504
743.341	0.0165246
743.419	0.0165456
743.497	0.0165538
743.575	0.0165723
743.654	0.0165350
743.732	0.0166099
743.810	0.0164995
743.888	0.0166090
743.966	0.0166417
744.044	0.0163957
744.122	0.0163892
744.200	0.0162339
744.279	0.0164745
744.357	0.0162849
744.435	0.0162335
744.513	0.0161439
744.591	0.0162020
744.669	0.0161021
744.747	0.0159521
744.825	0.0159701
744.904	0.0158131
744.982	0.0156806
745.060	0.0157924
745.138	0.0156123
745.216	0.0156109
745.294	0.0155783
745.372	0.0156126
745.450	0.0157064
745.529	0.0156500
745.607	0.0155971
745.685	0.0157667
745.763	0.0158945
745.841	0.0158292
745.919	0.0158501
745.997	0.0160214
746.075	0.0161366
746.154	0.0161254
746.232	0.0161230
746.310	0.0161677
746.388	0.0162779
746.466	0.0160876
746.544	0.0161290
746.622	0.0161436
746.700	0.0163463
746.779	0.0162566
746.857	0.0163177
746.935	0.0163568
747.013	0.0164014
747.091	0.0165133
747.169	0.0165450
747.247	0.0167169
747.325	0.0166974
747.404	0.0168346
747.482	0.0168560
747.560	0.0169749
747.638	0.0168545
747.716	0.0170574
747.794	0.0170689
747.872	0.0171739
747.950	0.0172027
748.029	0.0173205
748.107	0.0173103
748.185	0.0172666
748.263	0.0172174
748.341	0.0172639
748.419	0.0172536
748.497	0.0171891
748.575	0.0173228
748.654	0.0171601
748.732	0.0170698
748.810	0.0171224
748.888	0.0169071
748.966	0.0167783
749.044	0.0167181
749.122	0.0165787
749.200	0.0164616
749.279	0.0164513
749.357	0.0164026
749.435	0.0163850
749.513	0.0161719
749.591	0.0161460
749.669	0.0160706
749.747	0.0162122
749.825	0.0161399
749.904	0.0159226
749.982	0.0159256
750.060	0.0159229
750.138	0.0159150
750.216	0.0157246
750.294	0.0156800
750.372	0.0156026
750.450	0.0157191
750.529	0.0155006
750.607	0.0156493
750.685	0.0155462
750.763	0.0154935
750.841	0.0154510
750.919	0.0155342
750.997	0.0154173
751.075	0.0154829
751.154	0.0155045
751.232	0.0154214
751.310	0.0154288
751.388	0.0156339
751.466	0.0156165
751.544	0.0157343
751.622	0.0158202
751.700	0.0157940
751.779	0.0159023
751.857	0.0160978
751.935	0.0161633
752.013	0.0161824
752.091	0.0163904
752.169	0.0164938
752.247	0.0164199
752.325	0.0166598
752.404	0.0168150
752.482	0.0168850
752.560	0.0169363
752.638	0.0169383
752.716	0.0170922
752.794	0.0169919
752.872	0.0170919
752.950	0.0171601
753.029	0.0172118
753.107	0.0170934
753.185	0.0172164
753.263	0.0171066
753.341	0.0171478
753.419	0.0171445
753.497	0.0170107
753.575	0.0169346
753.654	0.0167150
753.732	0.0167422
753.810	0.0166080
753.888	0.0165331
753.966	0.0163838
754.044	0.0162868
754.122	0.0162414
754.200	0.0161298
754.279	0.0159757
754.357	0.0160262
754.435	0.0161253
754.513	0.0159548
754.591	0.0160177
754.669	0.0159367
754.747	0.0158815
754.825	0.0160622
754.904	0.0160562
754.982	0.0160313
755.060	0.0160528
755.138	0.0161829
755.216	0.0161607
755.294	0.0161234
755.372	0.0160615
755.450	0.0161126
755.529	0.0162551
755.607	0.0161198
755.685	0.0161468
755.763	0.0163086
755.841	0.0162215
755.919	0.0161775
755.997	0.0162413
756.075	0.0162607
756.154	0.0163987
756.232	0.0165350
756.310	0.0164628
756.388	0.0165736
756.466	0.0166876
756.544	0.0167233
756.622	0.0168215
756.700	0.0169543
756.779	0.0169379
756.857	0.0170063
756.935	0.0170567
757.013	0.0170316
757.091	0.0171313
757.169	0.0169484
757.247	0.0169158
757.325	0.0169846
757.404	0.0169001
757.482	0.0169308
757.560	0.0168716
757.638	0.0167622
757.716	0.0167481
757.794	0.0166708
757.872	0.0165437
757.950	0.0164487
758.029	0.0163979
758.107	0.0163143
758.185	0.0163206
758.263	0.0161775
758.341	0.0161752
758.419	0.0160331
758.497	0.0159554
758.575	0.0160004
758.654	0.0157569
758.732	0.0156662
758.810	0.0158153
758.888	0.0157605
758.966	0.0155173
759.044	0.0155324
759.122	0.0155046
759.200	0.0155029
759.279	0.0154802
759.357	0.0154070
759.435	0.0154932
759.513	0.0154466
759.591	0.0155589
759.669	0.0155687
759.747	0.0154758
759.825	0.0157098
759.904	0.0156715
759.982	0.0156765
760.060	0.0156995
760.138	0.0157616
760.216	0.0159748
760.294	0.0162238
760.372	0.0160748
760.450	0.0162028
760.529	0.0162688
760.607	0.0164487
760.685	0.0165935
760.763	0.0164700
760.841	0.0165644
760.919	0.0167515
760.997	0.0168576
761.075	0.0168184
761.154	0.0168519
761.232	0.0167426
761.310	0.0169210
761.388	0.0169431
761.466	0.0167795
761.544	0.0168430
761.622	0.0170950
761.700	0.0169257
761.779	0.0168488
761.857	0.0170010
761.935	0.0170301
762.013	0.0169981
762.091	0.0168508
762.169	0.0169614
762.247	0.0169762
762.325	0.0167580
762.404	0.0166753
762.482	0.0167159
762.560	0.0167477
762.638	0.0166882
762.716	0.0164964
762.794	0.0163872
762.872	0.0163984
762.950	0.0164463
763.029	0.0164086
763.107	0.0163211
763.185	0.0161705
763.263	0.0161763
763.341	0.0162039
763.419	0.0160503
763.497	0.0161279
763.575	0.0160397
763.654	0.0160562
763.732	0.0160075
763.810	0.0159192
763.888	0.0162289
763.966	0.0160558
764.044	0.0161684
764.122	0.0161868
764.200	0.0161362
764.279	0.0163973
764.357	0.0163799
764.435	0.0163628
764.513	0.0164470
764.591	0.0165535
764.669	0.0165163
764.747	0.0164666
764.825	0.0164832
764.904	0.0164617
764.982	0.0164335
765.060	0.0163323
765.138	0.0162702
765.216	0.0162222
765.294	0.0162604
765.372	0.0162898
765.450	0.0160962
765.529	0.0162304
765.607	0.0161539
765.685	0.0160027
765.763	0.0159469
765.841	0.0159596
765.919	0.0159656
765.997	0.0160650
766.075	0.0160922
766.154	0.0160604
766.232	0.0161555
766.310	0.0161216
766.388	0.0161622
766.466	0.0162543
766.544	0.0162356
766.622	0.0162315
766.700	0.0164542
766.779	0.0163902
766.857	0.0163972
766.935	0.0163831
767.013	0.0163850
767.091	0.0164076
767.169	0.0163059
767.247	0.0163579
767.325	0.0161760
767.404	0.0162566
767.482	0.0161042
767.560	0.0161237
767.638	0.0160870
767.716	0.0160158
767.794	0.0158710
767.872	0.0158577
767.950	0.0159987
768.029	0.0159748
768.107	0.0158878
768.185	0.0158413
768.263	0.0158651
768.341	0.0157571
768.419	0.0158895
768.497	0.0158953
768.575	0.0157771
768.654	0.0158513
768.732	0.0157651
768.810	0.0160262
768.888	0.0161665
768.966	0.0161244
769.044	0.0161444
769.122	0.0162798
769.200	0.0165472
769.279	0.0165623
769.357	0.0166475
769.435	0.0169145
769.513	0.0169866
769.591	0.0170699
769.669	0.0170557
769.747	0.0171491
769.825	0.0172393
769.904	0.0173163
769.982	0.0174410
770.060	0.0173153
770.138	0.0173080
770.216	0.0173151
770.294	0.0173159
770.372	0.0172446
770.450	0.0173367
770.529	0.0172314
770.607	0.0170886
770.685	0.0170478
770.763	0.0167838
770.841	0.0167206
770.919	0.0167300
770.997	0.0166247
771.075	0.0164109
771.154	0.0163454
771.232	0.0162258
771.310	0.0161458
771.388	0.0160238
771.466	0.0159253
771.544	0.0158431
771.622	0.0158927
771.700	0.0157896
771.779	0.0156060
771.857	0.0156361
771.935	0.0154543
772.013	0.0155495
772.091	0.0154488
772.169	0.0153764
772.247	0.0154585
772.325	0.0156689
772.404	0.0155900
772.482	0.0155708
772.560	0.0155853
772.638	0.0157902
772.716	0.0158768
772.794	0.0159012
772.872	0.0161594
772.950	0.0162242
773.029	0.0163270
773.107	0.0164528
773.185	0.0164590
773.263	0.0166324
773.341	0.0167224
773.419	0.0168015
773.497	0.0170343
773.575	0.0171364
773.654	0.0169449
773.732	0.0171251
773.810	0.0171603
773.888	0.0169270
773.966	0.0169197
774.044	0.0171323
774.122	0.0168480
774.200	0.0167581
774.279	0.0166794
774.357	0.0166562
774.435	0.0163572
774.513	0.0164233
774.591	0.0164857
774.669	0.0162298
774.747	0.0161221
774.825	0.0159669
774.904	0.0158709
774.982	0.0156797
775.060	0.0155024
775.138	0.0154765
775.216	0.0153599
775.294	0.0151098
775.372	0.0152025
775.450	0.0151554
775.529	0.0152015
775.607	0.0151616
775.685	0.0152486
775.763	0.0154533
775.841	0.0153624
775.919	0.0154387
775.997	0.0156020
776.075	0.0156841
776.154	0.0159795
776.232	0.0160152
776.310	0.0161560
776.388	0.0164106
776.466	0.0164079
776.544	0.0165733
776.622	0.0167571
776.700	0.0168687
776.779	0.0169315
776.857	0.0169325
776.935	0.0172680
777.013	0.0173469
777.091	0.0175041
777.169	0.0175043
777.247	0.0174593
777.325	0.0175282
777.404	0.0176760
777.482	0.0175861
777.560	0.0174578
777.638	0.0176300
777.716	0.0175159
777.794	0.0173387
777.872	0.0173547
777.950	0.0173263
778.029	0.0171754
778.107	0.0171106
778.185	0.0168746
778.263	0.0168840
778.341	0.0167751
778.419	0.0166974
778.497	0.0166336
778.575	0.0166603
778.654	0.0165659
778.732	0.0164758
778.810	0.0163289
778.888	0.0162392
778.966	0.0161842
779.044	0.0162292
779.122	0.0159413
779.200	0.0160323
779.279	0.0156820
779.357	0.0156547
779.435	0.0155490
779.513	0.0153957
779.591	0.0152994
779.669	0.0153339
779.747	0.0151164
779.825	0.0151505
779.904	0.0151248
779.982	0.0150597
780.060	0.0152093
780.138	0.0151481
780.216	0.0152468
780.294	0.0152858
780.372	0.0152425
780.450	0.0153216
780.529	0.0155188
780.607	0.0157726
780.685	0.0158484
780.763	0.0160336
780.841	0.0161621
780.919	0.0162952
780.997	0.0164233
781.075	0.0165688
781.154	0.0167082
781.232	0.0167767
781.310	0.0169437
781.388	0.0169602
781.466	0.0169729
781.544	0.0170792
781.622	0.0172872
781.700	0.0172127
781.779	0.0172817
781.857	0.0173461
781.935	0.0172266
782.013	0.0174031
782.091	0.0173059
782.169	0.0172043
782.247	0.0171896
782.325	0.0170208
782.404	0.0171953
782.482	0.0170584
782.560	0.0170651
782.638	0.0169289
782.716	0.0169261
782.794	0.0167570
782.872	0.0167148
782.950	0.0165381
783.029	0.0166192
783.107	0.0166406
783.185	0.0165144
783.263	0.0165607
783.341	0.0163287
783.419	0.0164391
783.497	0.0162585
783.575	0.0161595
783.654	0.0160333
783.732	0.0158512
783.810	0.0158626
783.888	0.0158932
783.966	0.0156425
784.044	0.0155408
784.122	0.0154372
784.200	0.0153825
784.279	0.0151611
784.357	0.0152883
784.435	0.0152597
784.513	0.0151924
784.591	0.0151630
784.669	0.0150594
784.747	0.0151283
784.825	0.0152975
784.904	0.0153984
784.982	0.0154439
785.060	0.0156067
785.138	0.0156927
785.216	0.0158332
785.294	0.0160710
785.372	0.0161853
785.450	0.0163448
785.529	0.0164793
785.607	0.0166161
785.685	0.0166502
785.763	0.0170580
785.841	0.0171416
785.919	0.0171099
785.997	0.0173422
786.075	0.0173168
786.154	0.0173360
786.232	0.0176080
786.310	0.0175450
786.388	0.0176746
786.466	0.0175550
786.544	0.0173789
786.622	0.0175240
786.700	0.0176006
786.779	0.0176352
786.857	0.0174942
786.935	0.0175792
787.013	0.0175918
787.091	0.0173421
787.169	0.0173212
787.247	0.0174145
787.325	0.0172800
787.404	0.0170615
787.482	0.0171082
787.560	0.0171014
787.638	0.0169459
787.716	0.0167867
787.794	0.0166232
787.872	0.0164508
787.950	0.0164664
788.029	0.0163871
788.107	0.0161021
788.185	0.0160151
788.263	0.0159030
788.341	0.0156731
788.419	0.0156662
788.497	0.0154594
788.575	0.0152435
788.654	0.0150254
788.732	0.0150337
788.810	0.0148650
788.888	0.0147635
788.966	0.0148692
789.044	0.0147135
789.122	0.0146675
789.200	0.0148856
789.279	0.0149153
789.357	0.0149368
789.435	0.0150459
789.513	0.0150660
789.591	0.0150456
789.669	0.0153101
789.747	0.0154941
789.825	0.0154832
789.904	0.0155924
789.982	0.0157595
790.060	0.0159151
790.138	0.0160641
790.216	0.0162015
790.294	0.0163265
790.372	0.0164179
790.450	0.0165374
790.529	0.0164934
790.607	0.0167242
790.685	0.0166558
790.763	0.0167403
790.841	0.0167216
790.919	0.0168195
790.997	0.0169009
791.075	0.0170170
791.154	0.0169959
791.232	0.0169501
791.310	0.0170247
791.388	0.0169523
791.466	0.0170632
791.544	0.0169499
791.622	0.0170718
791.700	0.0171897
791.779	0.0172104
791.857	0.0174116
791.935	0.0171770
792.013	0.0174522
792.091	0.0173457
792.169	0.0173513
792.247	0.0175080
792.325	0.0176460
792.404	0.0175519
792.482	0.0175305
792.560	0.0174729
792.638	0.0173870
792.716	0.0174413
792.794	0.0172462
792.872	0.0172336
792.950	0.0172136
793.029	0.0169616
793.107	0.0168288
793.185	0.0166507
793.263	0.0167052
793.341	0.0164199
793.419	0.0163698
793.497	0.0161825
793.575	0.0161964
793.654	0.0160943
793.732	0.0158920
793.810	0.0157512
793.888	0.0157709
793.966	0.0156281
794.044	0.0154019
794.122	0.0156001
794.200	0.0156173
794.279	0.0154152
794.357	0.0154891
794.435	0.0155030
794.513	0.0154919
794.591	0.0154811
794.669	0.0154933
794.747	0.0154334
794.825	0.0156139
794.904	0.0156086
794.982	0.0156777
795.060	0.0156638
795.138	0.0157154
795.216	0.0156044
795.294	0.0156648
795.372	0.0155555
795.450	0.0154939
795.529	0.0158185
795.607	0.0157240
795.685	0.0156616
795.763	0.0156054
795.841	0.0156794
795.919	0.0158772
795.997	0.0158582
796.075	0.0160480
796.154	0.0159892
796.232	0.0160684
796.310	0.0163591
796.388	0.0163843
796.466	0.0163506
796.544	0.0165067
796.622	0.0165754
796.700	0.0167603
796.779	0.0166336
796.857	0.0168796
796.935	0.0169332
797.013	0.0170994
797.091	0.0170177
797.169	0.0170221
797.247	0.0170378
797.325	0.0169850
797.404	0.0171588
797.482	0.0169965
797.560	0.0170094
797.638	0.0170996
797.716	0.0168860
797.794	0.0169033
797.872	0.0169617
797.950	0.0169543
798.029	0.0168181
798.107	0.0168187
798.185	0.0168024
798.263	0.0167362
798.341	0.0166460
798.419	0.0166996
798.497	0.0167069
798.575	0.0165520
798.654	0.0165643
798.732	0.0164893
798.810	0.0165861
798.888	0.0167640
798.966	0.0167171
799.044	0.0166850
799.122	0.0165366
799.200	0.0164304
799.279	0.0166885
799.357	0.0165146
799.435	0.0163342
799.513	0.0163758
799.591	0.0162926
799.669	0.0162690
799.747	0.0160046
799.825	0.0161292
799.904	0.0158936
799.982	0.0158613
800.060	0.0160083
800.138	0.0158675
800.216	0.0156859
800.294	0.0157263
800.372	0.0156660
800.450	0.0155441
800.529	0.0157696
800.607	0.0156882
800.685	0.0155824
800.763	0.0157534
800.841	0.0158957
800.919	0.0159529
800.997	0.0158205
801.075	0.0158663
801.154	0.0160730
801.232	0.0161874
801.310	0.0161660
801.388	0.0161951
801.466	0.0164248
801.544	0.0163895
801.622	0.0164882
801.700	0.0165501
801.779	0.0165633
801.857	0.0166301
801.935	0.0166537
802.013	0.0165937
802.091	0.0167254
802.169	0.0167873
802.247	0.0168794
802.325	0.0167870
802.404	0.0168009
802.482	0.0167467
802.560	0.0167240
802.638	0.0168864
802.716	0.0168001
802.794	0.0167175
802.872	0.0167690
802.950	0.0168567
803.029	0.0168622
803.107	0.0168884
803.185	0.0168230
803.263	0.0167159
803.341	0.0168820
803.419	0.0167268
803.497	0.0166117
803.575	0.0166842
803.654	0.0167540
803.732	0.0165971
803.810	0.0166807
803.888	0.0167451
803.966	0.0165147
804.044	0.0164998
804.122	0.0164930
804.200	0.0164500
804.279	0.0163044
804.357	0.0162573
804.435	0.0162021
804.513	0.0161183
804.591	0.0161641
804.669	0.0161118
804.747	0.0158839
804.825	0.0159831
804.904	0.0159045
804.982	0.0158813
805.060	0.0158902
805.138	0.0157361
805.216	0.0156824
805.294	0.0156703
805.372	0.0159733
805.450	0.0158452
805.529	0.0157374
805.607	0.0159078
805.685	0.0157930
805.763	0.0160033
805.841	0.0160632
805.919	0.0158851
805.997	0.0160892
806.075	0.0161089
806.154	0.0160644
806.232	0.0161366
806.310	0.0162264
806.388	0.0162047
806.466	0.0163447
806.544	0.0163908
806.622	0.0164342
806.700	0.0164257
806.779	0.0163499
806.857	0.0164162
806.935	0.0163963
807.013	0.0164031
807.091	0.0165634
807.169	0.0165945
807.247	0.0166801
807.325	0.0165031
807.404	0.0165560
807.482	0.0166750
807.560	0.0166763
807.638	0.0167432
807.716	0.0168387
807.794	0.0167232
807.872	0.0166577
807.950	0.0168079
808.029	0.0166917
808.107	0.0167683
808.185	0.0167334
808.263	0.0166929
808.341	0.0166607
808.419	0.0165798
808.497	0.0165809
808.575	0.0165003
808.654	0.0166911
808.732	0.0165945
808.810	0.0164788
808.888	0.0167075
808.966	0.0165736
809.044	0.0164882
809.122	0.0165424
809.200	0.0164682
809.279	0.0164716
809.357	0.0166118
809.435	0.0165380
809.513	0.0164902
809.591	0.0164333
809.669	0.0164671
809.747	0.0163944
809.825	0.0164060
809.904	0.0164983
809.982	0.0164629
810.060	0.0164081
810.138	0.0164478
810.216	0.0164123
810.294	0.0163122
810.372	0.0163483
810.450	0.0163873
810.529	0.0163790
810.607	0.0163184
810.685	0.0164021
810.763	0.0162492
810.841	0.0162147
810.919	0.0161014
810.997	0.0161636
811.075	0.0161658
811.154	0.0162418
811.232	0.0161655
811.310	0.0160151
811.388	0.0160168
811.466	0.0160112
811.544	0.0160216
811.622	0.0159346
811.700	0.0161166
811.779	0.0161838
811.857	0.0161993
811.935	0.0161779
812.013	0.0160545
812.091	0.0161706
812.169	0.0162678
812.247	0.0161701
812.325	0.0161724
812.404	0.0163750
812.482	0.0163369
812.560	0.0163656
812.638	0.0161755
812.716	0.0160770
812.794	0.0162478
812.872	0.0161624
812.950	0.0160974
813.029	0.0161902
813.107	0.0160004
813.185	0.0160728
813.263	0.0159457
813.341	0.0160957
813.419	0.0161092
813.497	0.0159872
813.575	0.0159362
813.654	0.0160635
813.732	0.0161018
813.810	0.0162437
813.888	0.0162261
813.966	0.0163165
814.044	0.0164736
814.122	0.0164535
814.200	0.0164713
814.279	0.0164536
814.357	0.0165070
814.435	0.0163791
814.513	0.0166834
814.591	0.0167851
814.669	0.0165720
814.747	0.0166261
814.825	0.0166344
814.904	0.0166869
814.982	0.0168537
815.060	0.0169205
815.138	0.0169659
815.216	0.0168688
815.294	0.0169161
815.372	0.0168172
815.450	0.0168716
815.529	0.0169401
815.607	0.0168446
815.685	0.0168574
815.763	0.0168475
815.841	0.0168696
815.919	0.0167059
815.997	0.0168739
816.075	0.0167673
816.154	0.0165198
816.232	0.0166656
816.310	0.0166512
816.388	0.0166159
816.466	0.0165763
816.544	0.0165244
816.622	0.0163718
816.700	0.0164791
816.779	0.0164539
816.857	0.0163976
816.935	0.0163608
817.013	0.0164019
817.091	0.0162188
817.169	0.0161735
817.247	0.0160900
817.325	0.0161687
817.404	0.0160522
817.482	0.0159383
817.560	0.0160280
817.638	0.0158894
817.716	0.0159423
817.794	0.0159965
817.872	0.0159653
817.950	0.0159879
818.029	0.0160134
818.107	0.0160857
818.185	0.0160525
818.263	0.0160976
818.341	0.0161773
818.419	0.0161423
818.497	0.0160870
818.575	0.0162421
818.654	0.0161156
818.732	0.0161225
818.810	0.0163248
818.888	0.0162305
818.966	0.0161956
819.044	0.0162749
819.122	0.0162907
819.200	0.0161182
819.279	0.0161758
819.357	0.0164183
819.435	0.0162115
819.513	0.0161488
819.591	0.0162370
819.669	0.0161118
819.747	0.0161641
819.825	0.0161799
819.904	0.0162140
819.982	0.0159959
820.060	0.0162421
820.138	0.0161421
820.216	0.0161025
820.294	0.0161868
820.372	0.0161050
820.450	0.0161712
820.529	0.0160250
820.607	0.0161623
820.685	0.0161596
820.763	0.0162131
820.841	0.0162818
820.919	0.0161447
820.997	0.0162669
821.075	0.0161363
821.154	0.0161720
821.232	0.0161641
821.310	0.0161767
821.388	0.0162646
821.466	0.0162534
821.544	0.0163275
821.622	0.0163413
821.700	0.0163773
821.779	0.0164174
821.857	0.0163786
821.935	0.0165990
822.013	0.0166134
822.091	0.0165611
822.169	0.0166904
822.247	0.0166309
822.325	0.0167764
822.404	0.0168105
822.482	0.0167892
822.560	0.0167801
822.638	0.0168329
822.716	0.0169450
822.794	0.0168893
822.872	0.0168397
822.950	0.0168070
823.029	0.0166904
823.107	0.0167476
823.185	0.0167653
823.263	0.0167096
823.341	0.0167854
823.419	0.0167558
823.497	0.0166235
823.575	0.0164381
823.654	0.0165653
823.732	0.0163718
823.810	0.0165055
823.888	0.0164229
823.966	0.0162973
824.044	0.0163047
824.122	0.0165495
824.200	0.0164004
824.279	0.0163186
824.357	0.0163880
824.435	0.0164669
824.513	0.0163732
824.591	0.0164314
824.669	0.0164033
824.747	0.0163934
824.825	0.0163099
824.904	0.0164735
824.982	0.0164814
825.060	0.0163199
825.138	0.0162693
825.216	0.0161962
825.294	0.0162801
825.372	0.0161529
825.450	0.0160416
825.529	0.0159865
825.607	0.0158589
825.685	0.0160458
825.763	0.0158992
825.841	0.0157232
825.919	0.0156766
825.997	0.0158763
826.075	0.0157380
826.154	0.0159012
826.232	0.0158173
826.310	0.0158230
826.388	0.0158469
826.466	0.0159212
826.544	0.0159490
826.622	0.0159431
826.700	0.0159145
826.779	0.0159831
826.857	0.0160677
826.935	0.0160880
827.013	0.0160425
827.091	0.0161244
827.169	0.0160532
827.247	0.0160614
827.325	0.0161034
827.404	0.0162100
827.482	0.0162527
827.560	0.0162521
827.638	0.0162437
827.716	0.0163396
827.794	0.0163649
827.872	0.0164024
827.950	0.0162960
828.029	0.0165192
828.107	0.0164517
828.185	0.0164162
828.263	0.0165977
828.341	0.0165711
828.419	0.0165832
828.497	0.0166065
828.575	0.0164868
828.654	0.0166240
828.732	0.0165836
828.810	0.0166610
828.888	0.0166144
828.966	0.0166661
829.044	0.0167564
829.122	0.0168016
829.200	0.0165854
829.279	0.0166292
829.357	0.0168146
829.435	0.0166622
829.513	0.0168243
829.591	0.0166862
829.669	0.0168041
829.747	0.0166357
829.825	0.0164780
829.904	0.0165543
829.982	0.0164612
830.060	0.0163556
830.138	0.0163670
830.216	0.0162386
830.294	0.0162204
830.372	0.0161469
830.450	0.0160401
830.529	0.0160131
830.607	0.0160548
830.685	0.0161298
830.763	0.0161106
830.841	0.0160275
830.919	0.0160159
830.997	0.0160838
831.075	0.0161152
831.154	0.0159759
831.232	0.0160387
831.310	0.0163212
831.388	0.0161691
831.466	0.0161214
831.544	0.0161814
831.622	0.0162016
831.700	0.0161463
831.779	0.0161438
831.857	0.0162518
831.935	0.0161601
832.013	0.0162347
832.091	0.0162263
832.169	0.0164622
832.247	0.0163872
832.325	0.0163538
832.404	0.0163911
832.482	0.0162836
832.560	0.0165006
832.638	0.0163486
832.716	0.0165630
832.794	0.0164252
832.872	0.0163482
832.950	0.0163401
833.029	0.0165154
833.107	0.0164540
833.185	0.0163534
833.263	0.0162777
833.341	0.0163555
833.419	0.0162973
833.497	0.0161607
833.575	0.0163046
833.654	0.0162115
833.732	0.0161166
833.810	0.0163760
833.888	0.0163113
833.966	0.0163206
834.044	0.0162489
834.122	0.0162128
834.200	0.0161783
834.279	0.0162856
834.357	0.0162466
834.435	0.0163388
834.513	0.0163066
834.591	0.0162064
834.669	0.0162991
834.747	0.0162440
834.825	0.0162173
834.904	0.0161182
834.982	0.0161687
835.060	0.0162227
835.138	0.0162653
835.216	0.0161573
835.294	0.0162106
835.372	0.0161863
835.450	0.0162501
835.529	0.0162529
835.607	0.0162027
835.685	0.0162835
835.763	0.0162016
835.841	0.0161488
835.919	0.0161842
835.997	0.0161366
836.075	0.0160715
836.154	0.0162043
836.232	0.0161176
836.310	0.0160225
836.388	0.0160512
836.466	0.0161556
836.544	0.0160966
836.622	0.0160041
836.700	0.0160526
836.779	0.0162349
836.857	0.0161375
836.935	0.0162663
837.013	0.0163017
837.091	0.0163824
837.169	0.0163172
837.247	0.0165417
837.325	0.0165206
837.404	0.0164857
837.482	0.0165768
837.560	0.0166486
837.638	0.0166014
837.716	0.0166794
837.794	0.0166270
837.872	0.0166325
837.950	0.0167228
838.029	0.0165961
838.107	0.0167381
838.185	0.0166685
838.263	0.0166158
838.341	0.0166983
838.419	0.0165474
838.497	0.0165980
838.575	0.0165100
838.654	0.0164940
838.732	0.0164791
838.810	0.0165529
838.888	0.0164005
838.966	0.0163374
839.044	0.0163197
839.122	0.0163833
839.200	0.0161994
839.279	0.0162007
839.357	0.0162785
839.435	0.0162575
839.513	0.0163811
839.591	0.0163532
839.669	0.0163209
839.747	0.0163954
839.825	0.0163645
839.904	0.0164866
839.982	0.0163168
840.060	0.0165008
840.138	0.0164815
840.216	0.0164182
840.294	0.0164355
840.372	0.0164993
840.450	0.0165070
840.529	0.0166302
840.607	0.0163991
840.685	0.0164172
840.763	0.0163820
840.841	0.0162802
840.919	0.0162554
840.997	0.0162956
841.075	0.0162740
841.154	0.0162380
841.232	0.0162094
841.310	0.0159998
841.388	0.0161458
841.466	0.0160744
841.544	0.0159598
841.622	0.0161281
841.700	0.0158492
841.779	0.0159684
841.857	0.0159372
841.935	0.0159972
842.013	0.0159926
842.091	0.0159092
842.169	0.0157928
842.247	0.0158548
842.325	0.0159210
842.404	0.0158094
842.482	0.0158022
842.560	0.0158469
842.638	0.0158190
842.716	0.0158592
842.794	0.0158197
842.872	0.0158568
842.950	0.0160129
843.029	0.0158895
843.107	0.0158221
843.185	0.0159544
843.263	0.0161059
843.341	0.0161491
843.419	0.0162566
843.497	0.0162377
843.575	0.0162325
843.654	0.0163229
843.732	0.0163705
843.810	0.0165038
843.888	0.0164552
843.966	0.0164771
844.044	0.0166901
844.122	0.0165774
844.200	0.0167821
844.279	0.0166453
844.357	0.0168199
844.435	0.0169746
844.513	0.0169156
844.591	0.0169717
844.669	0.0168147
844.747	0.0167846
844.825	0.0167675
844.904	0.0166821
844.982	0.0170158
845.060	0.0168906
845.138	0.0166991
845.216	0.0168224
845.294	0.0167911
845.372	0.0167393
845.450	0.0167478
845.529	0.0166930
845.607	0.0166174
845.685	0.0165239
845.763	0.0164530
845.841	0.0165472
845.919	0.0164874
845.997	0.0163508
846.075	0.0163374
846.154	0.0163224
846.232	0.0163655
846.310	0.0163083
846.388	0.0162704
846.466	0.0161512
846.544	0.0161398
846.622	0.0159413
846.700	0.0159357
846.779	0.0160206
846.857	0.0158582
846.935	0.0158293
847.013	0.0158028
847.091	0.0158135
847.169	0.0158865
847.247	0.0158401
847.325	0.0159519
847.404	0.0159125
847.482	0.0159425
847.560	0.0160015
847.638	0.0160097
847.716	0.0160380
847.794	0.0162012
847.872	0.0162180
847.950	0.0161045
848.029	0.0161189
848.107	0.0162483
848.185	0.0162014
848.263	0.0160980
848.341	0.0162721
848.419	0.0163692
848.497	0.0163718
848.575	0.0162533
848.654	0.0163422
848.732	0.0163403
848.810	0.0164050
848.888	0.0163718
848.966	0.0163206
849.044	0.0164439
849.122	0.0163889
849.200	0.0164484
849.279	0.0165182
849.357	0.0164273
849.435	0.0163816
849.513	0.0164710
849.591	0.0165207
849.669	0.0163414
849.747	0.0162305
849.825	0.0162235
849.904	0.0163270
849.982	0.0163639
850.060	0.0161831
850.138	0.0161760
850.216	0.0162996
850.294	0.0161821
850.372	0.0162282
850.450	0.0163118
850.529	0.0163261
850.607	0.0162609
850.685	0.0162574
850.763	0.0162496
850.841	0.0163067
850.919	0.0162749
850.997	0.0161590
851.075	0.0161604
851.154	0.0162025
851.232	0.0162767
851.310	0.0161411
851.388	0.0161702
851.466	0.0160626
851.544	0.0163452
851.622	0.0163014
851.700	0.0162079
851.779	0.0161846
851.857	0.0163859
851.935	0.0162820
852.013	0.0163493
852.091	0.0162695
852.169	0.0164180
852.247	0.0166116
852.325	0.0164198
852.404	0.0164871
852.482	0.0164262
852.560	0.0164764
852.638	0.0165694
852.716	0.0165646
852.794	0.0164228
852.872	0.0165758
852.950	0.0165321
853.029	0.0165928
853.107	0.0165827
853.185	0.0164799
853.263	0.0165015
853.341	0.0165115
853.419	0.0165582
853.497	0.0165569
853.575	0.0165013
853.654	0.0164368
853.732	0.0165870
853.810	0.0164029
853.888	0.0163972
853.966	0.0162744
854.044	0.0162389
854.122	0.0161729
854.200	0.0163361
854.279	0.0162325
854.357	0.0161932
854.435	0.0162182
854.513	0.0162630
854.591	0.0161410
854.669	0.0160524
854.747	0.0161064
854.825	0.0160715
854.904	0.0160242
854.982	0.0160686
855.060	0.0161366
855.138	0.0163029
855.216	0.0161063
855.294	0.0160103
855.372	0.0161074
855.450	0.0162321
855.529	0.0161514
855.607	0.0161401
855.685	0.0160178
855.763	0.0162737
855.841	0.0162119
855.919	0.0163566
855.997	0.0162523
856.075	0.0163221
856.154	0.0163247
856.232	0.0163938
856.310	0.0164795
856.388	0.0163464
856.466	0.0163510
856.544	0.0165533
856.622	0.0164381
856.700	0.0164433
856.779	0.0165773
856.857	0.0165583
856.935	0.0165237
857.013	0.0166787
857.091	0.0165473
857.169	0.0165565
857.247	0.0164418
857.325	0.0165885
857.404	0.0165182
857.482	0.0163709
857.560	0.0164271
857.638	0.0164788
857.716	0.0164268
857.794	0.0164043
857.872	0.0163627
857.950	0.0162965
858.029	0.0162553
858.107	0.0162664
858.185	0.0161930
858.263	0.0162339
858.341	0.0163145
858.419	0.0162061
858.497	0.0161909
858.575	0.0161854
858.654	0.0162092
858.732	0.0160252
858.810	0.0160423
858.888	0.0160642
858.966	0.0160216
859.044	0.0162764
859.122	0.0161121
859.200	0.0160523
859.279	0.0162403
859.357	0.0160297
859.435	0.0160703
859.513	0.0161939
859.591	0.0161805
859.669	0.0160455
859.747	0.0161711
859.825	0.0161842
859.904	0.0161742
859.982	0.0161755
860.060	0.0162290
860.138	0.0160759
860.216	0.0161137
860.294	0.0161438
860.372	0.0162292
860.450	0.0163198
860.529	0.0160299
860.607	0.0162493
860.685	0.0162878
860.763	0.0163506
860.841	0.0163694
860.919	0.0164835
860.997	0.0164071
861.075	0.0166385
861.154	0.0167002
861.232	0.0167131
861.310	0.0168430
861.388	0.0166678
861.466	0.0169884
861.544	0.0170301
861.622	0.0169692
861.700	0.0168383
861.779	0.0169110
861.857	0.0168189
861.935	0.0168879
862.013	0.0170324
862.091	0.0169875
862.169	0.0167953
862.247	0.0169411
862.325	0.0168867
862.404	0.0166356
862.482	0.0166084
862.560	0.0165670
862.638	0.0163939
862.716	0.0163824
862.794	0.0164080
862.872	0.0162653
862.950	0.0161984
863.029	0.0160343
863.107	0.0160728
863.185	0.0161568
863.263	0.0161775
863.341	0.0161190
863.419	0.0162244
863.497	0.0161403
863.575	0.0159538
863.654	0.0161349
863.732	0.0161047
863.810	0.0159838
863.888	0.0159534
863.966	0.0159082
864.044	0.0156694
864.122	0.0158427
864.200	0.0159653
864.279	0.0158951
864.357	0.0158130
864.435	0.0159602
864.513	0.0159949
864.591	0.0161611
864.669	0.0162381
864.747	0.0162119
864.825	0.0163620
864.904	0.0164353
864.982	0.0164771
865.060	0.0165388
865.138	0.0165092
865.216	0.0164540
865.294	0.0164568
865.372	0.0165250
865.450	0.0164450
865.529	0.0163231
865.607	0.0164718
865.685	0.0163680
865.763	0.0163254
865.841	0.0162791
865.919	0.0163549
865.997	0.0163609
866.075	0.0161815
866.154	0.0161514
866.232	0.0161309
866.310	0.0160461
866.388	0.0162502
866.466	0.0161630
866.544	0.0161130
866.622	0.0160707
866.700	0.0162490
866.779	0.0161699
866.857	0.0162844
866.935	0.0162549
867.013	0.0163657
867.091	0.0164208
867.169	0.0164561
867.247	0.0166821
867.325	0.0168441
867.404	0.0167522
867.482	0.0169658
867.560	0.0170506
867.638	0.0169588
867.716	0.0169902
867.794	0.0170264
867.872	0.0170506
867.950	0.0170426
868.029	0.0170875
868.107	0.0169549
868.185	0.0172021
868.263	0.0170025
868.341	0.0170992
868.419	0.0170286
868.497	0.0169112
868.575	0.0168931
868.654	0.0167841
868.732	0.0167773
868.810	0.0166603
868.888	0.0163699
868.966	0.0163445
869.044	0.0161769
869.122	0.0161829
869.200	0.0160732
869.279	0.0159752
869.357	0.0158364
869.435	0.0157926
869.513	0.0157059
869.591	0.0157503
869.669	0.0156664
869.747	0.0156025
869.825	0.0155408
869.904	0.0155064
869.982	0.0153715
870.060	0.0153939
870.138	0.0155590
870.216	0.0153254
870.294	0.0153803
870.372	0.0154997
870.450	0.0156744
870.529	0.0156139
870.607	0.0156449
870.685	0.0158049
870.763	0.0157912
870.841	0.0159148
870.919	0.0162183
870.997	0.0163323
871.075	0.0163055
871.154	0.0165124
871.232	0.0167274
871.310	0.0167957
871.388	0.0171201
871.466	0.0172462
871.544	0.0173995
871.622	0.0174985
871.700	0.0175014
871.779	0.0176211
871.857	0.0175594
871.935	0.0176873
872.013	0.0176108
872.091	0.0174461
872.169	0.0173927
872.247	0.0173425
872.325	0.0172083
872.404	0.0169928
872.482	0.0168173
872.560	0.0168310
872.638	0.0167527
872.716	0.0166299
872.794	0.0164394
872.872	0.0163824
872.950	0.0162997
873.029	0.0162614
873.107	0.0162122
873.185	0.0162335
873.263	0.0160430
873.341	0.0160999
873.419	0.0159099
873.497	0.0158001
873.575	0.0157253
873.654	0.0156270
873.732	0.0156055
873.810	0.0155127
873.888	0.0155650
873.966	0.0156287
874.044	0.0156007
874.122	0.0156937
874.200	0.0157961
874.279	0.0157120
874.357	0.0156390
874.435	0.0158288
874.513	0.0158619
874.591	0.0159583
874.669	0.0156883
874.747	0.0158080
874.825	0.0157880
874.904	0.0157547
874.982	0.0157272
875.060	0.0156840
875.138	0.0157685
875.216	0.0158701
875.294	0.0157921
875.372	0.0158217
875.450	0.0159573
875.529	0.0161150
875.607	0.0162335
875.685	0.0166743
875.763	0.0168077
875.841	0.0168954
875.919	0.0170705
875.997	0.0173372
876.075	0.0175690
876.154	0.0176151
876.232	0.0177605
876.310	0.0178283
876.388	0.0178830
876.466	0.0178631
876.544	0.0176441
876.622	0.0177029
876.700	0.0175404
876.779	0.0174496
876.857	0.0173957
876.935	0.0171290
877.013	0.0169154
877.091	0.0167879
877.169	0.0167079
877.247	0.0166164
877.325	0.0164577
877.404	0.0164676
877.482	0.0163815
877.560	0.0163362
877.638	0.0161349
877.716	0.0163635
877.794	0.0162246
877.872	0.0159677
877.950	0.0158431
878.029	0.0158090
878.107	0.0159610
878.185	0.0157938
878.263	0.0156838
878.341	0.0155458
878.419	0.0155643
878.497	0.0155016
878.575	0.0155567
878.654	0.0155460
878.732	0.0155764
878.810	0.0156130
878.888	0.0155440
878.966	0.0156386
879.044	0.0155315
879.122	0.0157411
879.200	0.0157347
879.279	0.0156436
879.357	0.0157778
879.435	0.0156366
879.513	0.0156477
879.591	0.0156908
879.669	0.0160102
879.747	0.0157833
879.825	0.0157848
879.904	0.0157360
879.982	0.0159721
880.060	0.0161728
880.138	0.0164010
880.216	0.0165964
880.294	0.0166180
880.372	0.0167607
880.450	0.0168674
880.529	0.0171015
880.607	0.0172299
880.685	0.0173549
880.763	0.0174358
880.841	0.0175543
880.919	0.0175928
880.997	0.0176173
881.075	0.0175951
881.154	0.0175558
881.232	0.0173809
881.310	0.0173666
881.388	0.0171725
881.466	0.0169696
881.544	0.0167939
881.622	0.0167089
881.700	0.0165542
881.779	0.0163152
881.857	0.0164159
881.935	0.0164693
882.013	0.0163850
882.091	0.0162440
882.169	0.0161851
882.247	0.0163594
882.325	0.0162773
882.404	0.0160147
882.482	0.0163120
882.560	0.0162680
882.638	0.0161801
882.716	0.0161588
882.794	0.0161693
882.872	0.0162003
882.950	0.0161307
883.029	0.0159634
883.107	0.0160144
883.185	0.0161237
883.263	0.0159034
883.341	0.0158952
883.419	0.0159278
883.497	0.0158812
883.575	0.0157588
883.654	0.0158093
883.732	0.0158109
883.810	0.0158236
883.888	0.0158675
883.966	0.0158698
884.044	0.0158843
884.122	0.0158335
884.200	0.0159715
884.279	0.0160796
884.357	0.0161593
884.435	0.0161684
884.513	0.0162864
884.591	0.0163499
884.669	0.0165093
884.747	0.0165286
884.825	0.0167254
884.904	0.0166480
884.982	0.0167958
885.060	0.0167192
885.138	0.0168510
885.216	0.0169872
885.294	0.0169635
885.372	0.0169212
885.450	0.0169551
885.529	0.0169292
885.607	0.0168865
885.685	0.0168678
885.763	0.0166444
885.841	0.0167536
885.919	0.0164579
885.997	0.0163665
886.075	0.0163554
886.154	0.0162256
886.232	0.0162714
886.310	0.0161570
886.388	0.0160721
886.466	0.0160444
886.544	0.0161148
886.622	0.0160406
886.700	0.0161919
886.779	0.0162406
886.857	0.0163278
886.935	0.0161597
887.013	0.0163647
887.091	0.0164648
887.169	0.0165035
887.247	0.0165331
887.325	0.0165271
887.404	0.0165793
887.482	0.0165422
887.560	0.0166041
887.638	0.0165892
887.716	0.0165784
887.794	0.0164151
887.872	0.0164966
887.950	0.0164004
888.029	0.0162479
888.107	0.0162892
888.185	0.0161731
888.263	0.0161858
888.341	0.0161254
888.419	0.0160342
888.497	0.0159378
888.575	0.0159614
888.654	0.0159453
888.732	0.0158710
888.810	0.0158657
888.888	0.0159290
888.966	0.0160253
889.044	0.0160889
889.122	0.0162033
889.200	0.0162359
889.279	0.0164848
889.357	0.0165733
889.435	0.0165515
889.513	0.0167973
889.591	0.0169268
889.669	0.0169936
889.747	0.0170369
889.825	0.0171644
889.904	0.0170844
889.982	0.0172023
890.060	0.0171470
890.138	0.0169952
890.216	0.0169746
890.294	0.0168922
890.372	0.0165717
890.450	0.0164713
890.529	0.0166010
890.607	0.0164269
890.685	0.0164550
890.763	0.0163377
890.841	0.0163367
890.919	0.0162542
890.997	0.0161257
891.075	0.0160702
891.154	0.0160792
891.232	0.0160517
891.310	0.0159752
891.388	0.0161532
891.466	0.0160305
891.544	0.0161878
891.622	0.0163108
891.700	0.0162427
891.779	0.0162579
891.857	0.0162222
891.935	0.0162428
892.013	0.0162711
892.091	0.0163012
892.169	0.0163043
892.247	0.0162959
892.325	0.0163272
892.404	0.0162050
892.482	0.0162962
892.560	0.0162928
892.638	0.0162814
892.716	0.0161401
892.794	0.0159911
892.872	0.0161122
892.950	0.0159956
893.029	0.0160405
893.107	0.0161152
893.185	0.0161067
893.263	0.0160809
893.341	0.0161231
893.419	0.0162144
893.497	0.0162303
893.575	0.0162640
893.654	0.0162866
893.732	0.0164950
893.810	0.0165739
893.888	0.0165659
893.966	0.0167697
894.044	0.0169175
894.122	0.0169057
894.200	0.0169421
894.279	0.0171121
894.357	0.0171115
894.435	0.0170171
894.513	0.0171095
894.591	0.0171471
894.669	0.0171639
894.747	0.0170760
894.825	0.0170699
894.904	0.0169363
894.982	0.0170240
895.060	0.0169484
895.138	0.0167515
895.216	0.0167743
895.294	0.0166248
895.372	0.0163757
895.450	0.0164041
895.529	0.0162103
895.607	0.0162642
895.685	0.0162055
895.763	0.0161971
895.841	0.0160151
895.919	0.0161423
895.997	0.0161141
896.075	0.0159820
896.154	0.0160322
896.232	0.0160862
896.310	0.0161529
896.388	0.0162312
896.466	0.0163036
896.544	0.0162334
896.622	0.0162671
896.700	0.0163302
896.779	0.0163425
896.857	0.0163554
896.935	0.0164982
897.013	0.0163067
897.091	0.0163570
897.169	0.0162964
897.247	0.0163156
897.325	0.0162679
897.404	0.0163197
897.482	0.0163371
897.560	0.0163503
897.638	0.0162595
897.716	0.0162649
897.794	0.0163577
897.872	0.0163470
897.950	0.0162251
898.029	0.0162213
898.107	0.0162572
898.185	0.0161343
898.263	0.0161095
898.341	0.0163519
898.419	0.0162232
898.497	0.0164197
898.575	0.0162332
898.654	0.0163161
898.732	0.0162697
898.810	0.0163783
898.888	0.0164685
898.966	0.0162601
899.044	0.0164123
899.122	0.0163629
899.200	0.0164582
899.279	0.0166158
899.357	0.0164872
899.435	0.0164416
899.513	0.0164330
899.591	0.0164784
899.669	0.0164266
899.747	0.0162970
899.825	0.0164166
899.904	0.0165717
899.982	0.0164139
900.060	0.0164760
900.138	0.0164368
900.216	0.0164294
900.294	0.0164921
900.372	0.0164862
900.450	0.0164205
900.529	0.0166196
900.607	0.0167271
900.685	0.0165135
900.763	0.0164412
900.841	0.0167130
900.919	0.0166631
900.997	0.0167429
901.075	0.0166789
901.154	0.0166247
901.232	0.0165668
901.310	0.0164158
901.388	0.0165891
901.466	0.0165301
901.544	0.0164233
901.622	0.0164224
901.700	0.0164569
901.779	0.0162740
901.857	0.0161536
901.935	0.0161632
902.013	0.0162932
902.091	0.0161765
902.169	0.0161409
902.247	0.0160769
902.325	0.0160430
902.404	0.0159951
902.482	0.0158788
902.560	0.0161040
902.638	0.0160561
902.716	0.0161890
902.794	0.0161535
902.872	0.0162693
902.950	0.0162153
903.029	0.0162243
903.107	0.0163098
903.185	0.0163858
903.263	0.0163685
903.341	0.0165369
903.419	0.0164656
903.497	0.0165918
903.575	0.0165320
903.654	0.0165419
903.732	0.0165704
903.810	0.0165076
903.888	0.0163432
903.966	0.0163275
904.044	0.0163670
904.122	0.0162730
904.200	0.0163516
904.279	0.0162154
904.357	0.0162656
904.435	0.0160940
904.513	0.0161206
904.591	0.0161689
904.669	0.0162086
904.747	0.0162359
904.825	0.0162569
904.904	0.0160539
904.982	0.0161033
905.060	0.0163186
905.138	0.0161671
905.216	0.0161234
905.294	0.0163215
905.372	0.0163658
905.450	0.0162675
905.529	0.0163562
905.607	0.0164484
905.685	0.0164002
905.763	0.0162231
905.841	0.0162314
905.919	0.0163155
905.997	0.0163945
906.075	0.0163782
906.154	0.0163692
906.232	0.0164230
906.310	0.0163136
906.388	0.0164050
906.466	0.0163718
906.544	0.0163624
906.622	0.0164303
906.700	0.0164109
906.779	0.0164212
906.857	0.0165226
906.935	0.0166041
907.013	0.0163294
907.091	0.0164766
907.169	0.0163707
907.247	0.0165697
907.325	0.0165079
907.404	0.0164575
907.482	0.0165755
907.560	0.0164339
907.638	0.0163877
907.716	0.0164791
907.794	0.0166780
907.872	0.0163743
907.950	0.0163521
908.029	0.0165854
908.107	0.0163591
908.185	0.0163239
908.263	0.0162913
908.341	0.0163288
908.419	0.0162870
908.497	0.0161668
908.575	0.0162652
908.654	0.0162758
908.732	0.0162732
908.810	0.0161919
908.888	0.0162740
908.966	0.0161308
909.044	0.0162004
909.122	0.0161985
909.200	0.0160894
909.279	0.0162514
909.357	0.0163216
909.435	0.0162716
909.513	0.0162573
909.591	0.0163332
909.669	0.0162612
909.747	0.0163730
909.825	0.0164755
909.904	0.0164642
909.982	0.0164230
910.060	0.0164792
910.138	0.0165287
910.216	0.0164357
910.294	0.0164172
910.372	0.0164885
910.450	0.0164635
910.529	0.0163592
910.607	0.0164142
910.685	0.0163554
910.763	0.0165138
910.841	0.0165577
910.919	0.0164864
910.997	0.0165211
911.075	0.0165258
911.154	0.0163663
911.232	0.0164557
911.310	0.0164780
911.388	0.0165110
911.466	0.0166080
911.544	0.0163893
911.622	0.0164079
911.700	0.0165154
911.779	0.0164159
911.857	0.0165125
911.935	0.0164559
912.013	0.0164563
912.091	0.0162998
912.169	0.0163014
912.247	0.0163830
912.325	0.0162701
912.404	0.0163147
912.482	0.0161509
912.560	0.0161417
912.638	0.0161935
912.716	0.0161227
912.794	0.0160903
912.872	0.0160356
912.950	0.0160503
913.029	0.0159710
913.107	0.0161179
913.185	0.0161256
913.263	0.0160551
913.341	0.0162356
913.419	0.0162816
913.497	0.0161107
913.575	0.0161566
913.654	0.0163184
913.732	0.0163617
913.810	0.0163988
913.888	0.0162682
913.966	0.0163641
914.044	0.0164008
914.122	0.0163013
914.200	0.0163548
914.279	0.0164646
914.357	0.0165801
914.435	0.0164825
914.513	0.0164037
914.591	0.0165482
914.669	0.0164529
914.747	0.0163451
914.825	0.0164987
914.904	0.0164999
914.982	0.0164751
915.060	0.0165104
915.138	0.0164371
915.216	0.0165291
915.294	0.0164960
915.372	0.0165180
915.450	0.0165293
915.529	0.0165037
915.607	0.0164556
915.685	0.0165338
915.763	0.0167529
915.841	0.0166600
915.919	0.0164203
915.997	0.0165133
916.075	0.0166241
916.154	0.0166682
916.232	0.0165528
916.310	0.0166173
916.388	0.0166169
916.466	0.0165794
916.544	0.0165199
916.622	0.0163914
916.700	0.0163554
916.779	0.0163835
916.857	0.0162938
916.935	0.0161857
917.013	0.0160381
917.091	0.0160349
917.169	0.0160133
917.247	0.0159290
917.325	0.0157771
917.404	0.0157908
917.482	0.0157814
917.560	0.0157785
917.638	0.0158251
917.716	0.0157786
917.794	0.0158126
917.872	0.0158642
917.950	0.0158753
918.029	0.0158202
918.107	0.0159740
918.185	0.0160239
918.263	0.0159903
918.341	0.0160023
918.419	0.0160816
918.497	0.0161358
918.575	0.0160020
918.654	0.0161864
918.732	0.0162791
918.810	0.0162787
918.888	0.0164232
918.966	0.0163372
919.044	0.0165518
919.122	0.0164958
919.200	0.0165826
919.279	0.0167572
919.357	0.0167514
919.435	0.0167887
919.513	0.0167196
919.591	0.0168562
919.669	0.0170353
919.747	0.0169341
919.825	0.0169300
919.904	0.0168633
