06/01/2022	17:30:00	Ver.	4.1	UNKNOWN
Optical Delay	599.981738	Delta X		0.078125	Sweeps	1	Scan Rate	0/0
Coordinates	Axis 1	NaN	Axis 2	NaN	Axis 3	NaN	Axis 4	NaN	Axis 5	NaN	Axis 6	0.000000
TX Power	0.000000	RX Power	0.000000

599.982	0.0170682
600.060	0.0170212
600.138	0.0170879
600.216	0.0169863
600.294	0.0171763
600.372	0.0171210
600.450	0.0170021
600.529	0.0169495
600.607	0.0169278
600.685	0.0171353
600.763	0.0170529
600.841	0.0168726
600.919	0.0171779
600.997	0.0171502
601.075	0.0169818
601.154	0.0171487
601.232	0.0169691
601.310	0.0169920
601.388	0.0171948
601.466	0.0170785
601.544	0.0170557
601.622	0.0169965
601.700	0.0170752
601.779	0.0170092
601.857	0.0169544
601.935	0.0169756
602.013	0.0171035
602.091	0.0171587
602.169	0.0169728
602.247	0.0169902
602.325	0.0170184
602.404	0.0171800
602.482	0.0172269
602.560	0.0170283
602.638	0.0170626
602.716	0.0168423
602.794	0.0170114
602.872	0.0170964
602.950	0.0171206
603.029	0.0171750
603.107	0.0170310
603.185	0.0169777
603.263	0.0170403
603.341	0.0169720
603.419	0.0169949
603.497	0.0169884
603.575	0.0171688
603.654	0.0170111
603.732	0.0172639
603.810	0.0170744
603.888	0.0171016
603.966	0.0171719
604.044	0.0171175
604.122	0.0170184
604.200	0.0170235
604.279	0.0172260
604.357	0.0171143
604.435	0.0172308
604.513	0.0171677
604.591	0.0171245
604.669	0.0170444
604.747	0.0170869
604.825	0.0170210
604.904	0.0171468
604.982	0.0171603
605.060	0.0170612
605.138	0.0170775
605.216	0.0171930
605.294	0.0171481
605.372	0.0171810
605.450	0.0170191
605.529	0.0171353
605.607	0.0169710
605.685	0.0170912
605.763	0.0170039
605.841	0.0171109
605.919	0.0171204
605.997	0.0170863
606.075	0.0169805
606.154	0.0169719
606.232	0.0170693
606.310	0.0171680
606.388	0.0169049
606.466	0.0170473
606.544	0.0170933
606.622	0.0171755
606.700	0.0171117
606.779	0.0170332
606.857	0.0171174
606.935	0.0170462
607.013	0.0170666
607.091	0.0170614
607.169	0.0169827
607.247	0.0171298
607.325	0.0170515
607.404	0.0170969
607.482	0.0169755
607.560	0.0169816
607.638	0.0170543
607.716	0.0170815
607.794	0.0170825
607.872	0.0171648
607.950	0.0170435
608.029	0.0171917
608.107	0.0170857
608.185	0.0171529
608.263	0.0170753
608.341	0.0170624
608.419	0.0170448
608.497	0.0170212
608.575	0.0171901
608.654	0.0170293
608.732	0.0171473
608.810	0.0170104
608.888	0.0170130
608.966	0.0171233
609.044	0.0171341
609.122	0.0170950
609.200	0.0171330
609.279	0.0171011
609.357	0.0170432
609.435	0.0171040
609.513	0.0170076
609.591	0.0170530
609.669	0.0171351
609.747	0.0171252
609.825	0.0171082
609.904	0.0170668
609.982	0.0169494
610.060	0.0168717
610.138	0.0170275
610.216	0.0170452
610.294	0.0170735
610.372	0.0171301
610.450	0.0171037
610.529	0.0171530
610.607	0.0170526
610.685	0.0172047
610.763	0.0170327
610.841	0.0170366
610.919	0.0172043
610.997	0.0172328
611.075	0.0170491
611.154	0.0170568
611.232	0.0171476
611.310	0.0171902
611.388	0.0170790
611.466	0.0171967
611.544	0.0170241
611.622	0.0170518
611.700	0.0170654
611.779	0.0171954
611.857	0.0169489
611.935	0.0170556
612.013	0.0170506
612.091	0.0170868
612.169	0.0170315
612.247	0.0171033
612.325	0.0170727
612.404	0.0172057
612.482	0.0170286
612.560	0.0170619
612.638	0.0169641
612.716	0.0169824
612.794	0.0170487
612.872	0.0171402
612.950	0.0171287
613.029	0.0170647
613.107	0.0171142
613.185	0.0170708
613.263	0.0171421
613.341	0.0171252
613.419	0.0170487
613.497	0.0169160
613.575	0.0171787
613.654	0.0170859
613.732	0.0169431
613.810	0.0170190
613.888	0.0172155
613.966	0.0170769
614.044	0.0170055
614.122	0.0170855
614.200	0.0170915
614.279	0.0170588
614.357	0.0170930
614.435	0.0170071
614.513	0.0170502
614.591	0.0170390
614.669	0.0170500
614.747	0.0171202
614.825	0.0170663
614.904	0.0170408
614.982	0.0170567
615.060	0.0170418
615.138	0.0170860
615.216	0.0170420
615.294	0.0170344
615.372	0.0169869
615.450	0.0171030
615.529	0.0170970
615.607	0.0170943
615.685	0.0169783
615.763	0.0170689
615.841	0.0170320
615.919	0.0171041
615.997	0.0170783
616.075	0.0170502
616.154	0.0170614
616.232	0.0170927
616.310	0.0169334
616.388	0.0171012
616.466	0.0171416
616.544	0.0170888
616.622	0.0171622
616.700	0.0169659
616.779	0.0170973
616.857	0.0171090
616.935	0.0171040
617.013	0.0170151
617.091	0.0170432
617.169	0.0171319
617.247	0.0170728
617.325	0.0171826
617.404	0.0170789
617.482	0.0170925
617.560	0.0170224
617.638	0.0170310
617.716	0.0169808
617.794	0.0170894
617.872	0.0169939
617.950	0.0170467
618.029	0.0170199
618.107	0.0171418
618.185	0.0170767
618.263	0.0170322
618.341	0.0169881
618.419	0.0171207
618.497	0.0172042
618.575	0.0169786
618.654	0.0170655
618.732	0.0169678
618.810	0.0169193
618.888	0.0171552
618.966	0.0169914
619.044	0.0170080
619.122	0.0170451
619.200	0.0170911
619.279	0.0172213
619.357	0.0170236
619.435	0.0170811
619.513	0.0171333
619.591	0.0170601
619.669	0.0170189
619.747	0.0170985
619.825	0.0171130
619.904	0.0169463
619.982	0.0170879
620.060	0.0170378
620.138	0.0170278
620.216	0.0171010
620.294	0.0169460
620.372	0.0170837
620.450	0.0170266
620.529	0.0171531
620.607	0.0170598
620.685	0.0171224
620.763	0.0170111
620.841	0.0169950
620.919	0.0169886
620.997	0.0170661
621.075	0.0171082
621.154	0.0171265
621.232	0.0171066
621.310	0.0171698
621.388	0.0172333
621.466	0.0170148
621.544	0.0171107
621.622	0.0170491
621.700	0.0170313
621.779	0.0171534
621.857	0.0171059
621.935	0.0171077
622.013	0.0172973
622.091	0.0170895
622.169	0.0170708
622.247	0.0170613
622.325	0.0171358
622.404	0.0170512
622.482	0.0169991
622.560	0.0169787
622.638	0.0170311
622.716	0.0170198
622.794	0.0170364
622.872	0.0171133
622.950	0.0171728
623.029	0.0172016
623.107	0.0171287
623.185	0.0169834
623.263	0.0170163
623.341	0.0171690
623.419	0.0170700
623.497	0.0170383
623.575	0.0170410
623.654	0.0171937
623.732	0.0170612
623.810	0.0170537
623.888	0.0172972
623.966	0.0170599
624.044	0.0170367
624.122	0.0171101
624.200	0.0170869
624.279	0.0170175
624.357	0.0169718
624.435	0.0171053
624.513	0.0171316
624.591	0.0170699
624.669	0.0170854
624.747	0.0170423
624.825	0.0171500
624.904	0.0170487
624.982	0.0170658
625.060	0.0170227
625.138	0.0170390
625.216	0.0170718
625.294	0.0171187
625.372	0.0169604
625.450	0.0170192
625.529	0.0170720
625.607	0.0169461
625.685	0.0169955
625.763	0.0170824
625.841	0.0168737
625.919	0.0169846
625.997	0.0172364
626.075	0.0171405
626.154	0.0170271
626.232	0.0169977
626.310	0.0171716
626.388	0.0171723
626.466	0.0170467
626.544	0.0170205
626.622	0.0170847
626.700	0.0170027
626.779	0.0170165
626.857	0.0171095
626.935	0.0170831
627.013	0.0170602
627.091	0.0170346
627.169	0.0171398
627.247	0.0169561
627.325	0.0171662
627.404	0.0170697
627.482	0.0170467
627.560	0.0170774
627.638	0.0171362
627.716	0.0169959
627.794	0.0171333
627.872	0.0171281
627.950	0.0170071
628.029	0.0169933
628.107	0.0170323
628.185	0.0169479
628.263	0.0170332
628.341	0.0170006
628.419	0.0170985
628.497	0.0170883
628.575	0.0171371
628.654	0.0170453
628.732	0.0170230
628.810	0.0170881
628.888	0.0171839
628.966	0.0171918
629.044	0.0170358
629.122	0.0170319
629.200	0.0170456
629.279	0.0171136
629.357	0.0171027
629.435	0.0170182
629.513	0.0171080
629.591	0.0170666
629.669	0.0171828
629.747	0.0171873
629.825	0.0171618
629.904	0.0171181
629.982	0.0172015
630.060	0.0169799
630.138	0.0171220
630.216	0.0171606
630.294	0.0171334
630.372	0.0169419
630.450	0.0171413
630.529	0.0170340
630.607	0.0170221
630.685	0.0170662
630.763	0.0169724
630.841	0.0169826
630.919	0.0170276
630.997	0.0171927
631.075	0.0170882
631.154	0.0170252
631.232	0.0170221
631.310	0.0171410
631.388	0.0170721
631.466	0.0169787
631.544	0.0170590
631.622	0.0171683
631.700	0.0170200
631.779	0.0170425
631.857	0.0170290
631.935	0.0171446
632.013	0.0170842
632.091	0.0170798
632.169	0.0171079
632.247	0.0170731
632.325	0.0171590
632.404	0.0170720
632.482	0.0169469
632.560	0.0171014
632.638	0.0170744
632.716	0.0171046
632.794	0.0170995
632.872	0.0170776
632.950	0.0171210
633.029	0.0170325
633.107	0.0170548
633.185	0.0170580
633.263	0.0170425
633.341	0.0171181
633.419	0.0171945
633.497	0.0171468
633.575	0.0170099
633.654	0.0170693
633.732	0.0171111
633.810	0.0171111
633.888	0.0169357
633.966	0.0170325
634.044	0.0171210
634.122	0.0170873
634.200	0.0169653
634.279	0.0169865
634.357	0.0170419
634.435	0.0168597
634.513	0.0168843
634.591	0.0171553
634.669	0.0171128
634.747	0.0169691
634.825	0.0171646
634.904	0.0171494
634.982	0.0171329
635.060	0.0171008
635.138	0.0171613
635.216	0.0170995
635.294	0.0171438
635.372	0.0170889
635.450	0.0170355
635.529	0.0171060
635.607	0.0170116
635.685	0.0170036
635.763	0.0172185
635.841	0.0170097
635.919	0.0170316
635.997	0.0171503
636.075	0.0170472
636.154	0.0170771
636.232	0.0170505
636.310	0.0170039
636.388	0.0170606
636.466	0.0170219
636.544	0.0169276
636.622	0.0169833
636.700	0.0170040
636.779	0.0169695
636.857	0.0170686
636.935	0.0171296
637.013	0.0170939
637.091	0.0169830
637.169	0.0170630
637.247	0.0172939
637.325	0.0171797
637.404	0.0170645
637.482	0.0171482
637.560	0.0170394
637.638	0.0171166
637.716	0.0171023
637.794	0.0172301
637.872	0.0171999
637.950	0.0171767
638.029	0.0170594
638.107	0.0171536
638.185	0.0171201
638.263	0.0171001
638.341	0.0171883
638.419	0.0171847
638.497	0.0169755
638.575	0.0170763
638.654	0.0171082
638.732	0.0170947
638.810	0.0170744
638.888	0.0170186
638.966	0.0171400
639.044	0.0171361
639.122	0.0169998
639.200	0.0171385
639.279	0.0170523
639.357	0.0170296
639.435	0.0169687
639.513	0.0170334
639.591	0.0171928
639.669	0.0171615
639.747	0.0171496
639.825	0.0170574
639.904	0.0170322
639.982	0.0170805
640.060	0.0171495
640.138	0.0171721
640.216	0.0171188
640.294	0.0171575
640.372	0.0170760
640.450	0.0170622
640.529	0.0170085
640.607	0.0170405
640.685	0.0170077
640.763	0.0170270
640.841	0.0170315
640.919	0.0169168
640.997	0.0170909
641.075	0.0169942
641.154	0.0169679
641.232	0.0169823
641.310	0.0170330
641.388	0.0170345
641.466	0.0170857
641.544	0.0171925
641.622	0.0170535
641.700	0.0169887
641.779	0.0171622
641.857	0.0170904
641.935	0.0170696
642.013	0.0172555
642.091	0.0172440
642.169	0.0170761
642.247	0.0171871
642.325	0.0173089
642.404	0.0171970
642.482	0.0170018
642.560	0.0171068
642.638	0.0171417
642.716	0.0170957
642.794	0.0170513
642.872	0.0170055
642.950	0.0169730
643.029	0.0169810
643.107	0.0169350
643.185	0.0171265
643.263	0.0171412
643.341	0.0171439
643.419	0.0170817
643.497	0.0170315
643.575	0.0171199
643.654	0.0171056
643.732	0.0170803
643.810	0.0171360
643.888	0.0171095
643.966	0.0171335
644.044	0.0169680
644.122	0.0169885
644.200	0.0170928
644.279	0.0171334
644.357	0.0170356
644.435	0.0169755
644.513	0.0171015
644.591	0.0170824
644.669	0.0168886
644.747	0.0169651
644.825	0.0168752
644.904	0.0169569
644.982	0.0169271
645.060	0.0168909
645.138	0.0167720
645.216	0.0167587
645.294	0.0168149
645.372	0.0168911
645.450	0.0167952
645.529	0.0169253
645.607	0.0170039
645.685	0.0169501
645.763	0.0171249
645.841	0.0170471
645.919	0.0172033
645.997	0.0173641
646.075	0.0172501
646.154	0.0171348
646.232	0.0172955
646.310	0.0169805
646.388	0.0169870
646.466	0.0168311
646.544	0.0167660
646.622	0.0167866
646.700	0.0167984
646.779	0.0165726
646.857	0.0165526
646.935	0.0165109
647.013	0.0167047
647.091	0.0168969
647.169	0.0169643
647.247	0.0169771
647.325	0.0172030
647.404	0.0173313
647.482	0.0176429
647.560	0.0177269
647.638	0.0179328
647.716	0.0178732
647.794	0.0180431
647.872	0.0180563
647.950	0.0178782
648.029	0.0178055
648.107	0.0176241
648.185	0.0175906
648.263	0.0172321
648.341	0.0169155
648.419	0.0167381
648.497	0.0165424
648.575	0.0163730
648.654	0.0163153
648.732	0.0160403
648.810	0.0161400
648.888	0.0161333
648.966	0.0161551
649.044	0.0160546
649.122	0.0164109
649.200	0.0165926
649.279	0.0167792
649.357	0.0169988
649.435	0.0169751
649.513	0.0172995
649.591	0.0175454
649.669	0.0178483
649.747	0.0179273
649.825	0.0180765
649.904	0.0180505
649.982	0.0181982
650.060	0.0181691
650.138	0.0181528
650.216	0.0180617
650.294	0.0181779
650.372	0.0178336
650.450	0.0176012
650.529	0.0175945
650.607	0.0173404
650.685	0.0169294
650.763	0.0167107
650.841	0.0162945
650.919	0.0160057
650.997	0.0157484
651.075	0.0156363
651.154	0.0155911
651.232	0.0153464
651.310	0.0152447
651.388	0.0152415
651.466	0.0152174
651.544	0.0152571
651.622	0.0154654
651.700	0.0156207
651.779	0.0159925
651.857	0.0160960
651.935	0.0166990
652.013	0.0169511
652.091	0.0171230
652.169	0.0177930
652.247	0.0180431
652.325	0.0182590
652.404	0.0187254
652.482	0.0190152
652.560	0.0191819
652.638	0.0192809
652.716	0.0194895
652.794	0.0194492
652.872	0.0196320
652.950	0.0196001
653.029	0.0195621
653.107	0.0192587
653.185	0.0188862
653.263	0.0185072
653.341	0.0181804
653.419	0.0178733
653.497	0.0173243
653.575	0.0167117
653.654	0.0161944
653.732	0.0156445
653.810	0.0152834
653.888	0.0147853
653.966	0.0145185
654.044	0.0143417
654.122	0.0143711
654.200	0.0145130
654.279	0.0145097
654.357	0.0147588
654.435	0.0152096
654.513	0.0153272
654.591	0.0156887
654.669	0.0160100
654.747	0.0164172
654.825	0.0166087
654.904	0.0168633
654.982	0.0170585
655.060	0.0172112
655.138	0.0174606
655.216	0.0173515
655.294	0.0177258
655.372	0.0177322
655.450	0.0177979
655.529	0.0178976
655.607	0.0181898
655.685	0.0183739
655.763	0.0187040
655.841	0.0189557
655.919	0.0189583
655.997	0.0190912
656.075	0.0191183
656.154	0.0192088
656.232	0.0191402
656.310	0.0189667
656.388	0.0187273
656.466	0.0185161
656.544	0.0181590
656.622	0.0177198
656.700	0.0172366
656.779	0.0169343
656.857	0.0165531
656.935	0.0159241
657.013	0.0153723
657.091	0.0151226
657.169	0.0148770
657.247	0.0146210
657.325	0.0141816
657.404	0.0143202
657.482	0.0142854
657.560	0.0142152
657.638	0.0143336
657.716	0.0146890
657.794	0.0148994
657.872	0.0152715
657.950	0.0155737
658.029	0.0160041
658.107	0.0164313
658.185	0.0168740
658.263	0.0171835
658.341	0.0176374
658.419	0.0179248
658.497	0.0182598
658.575	0.0186172
658.654	0.0186765
658.732	0.0190537
658.810	0.0192393
658.888	0.0193515
658.966	0.0194901
659.044	0.0196627
659.122	0.0196710
659.200	0.0197115
659.279	0.0198830
659.357	0.0196935
659.435	0.0197415
659.513	0.0197209
659.591	0.0195848
659.669	0.0194397
659.747	0.0192820
659.825	0.0190712
659.904	0.0186878
659.982	0.0183128
660.060	0.0177462
660.138	0.0171109
660.216	0.0164459
660.294	0.0157439
660.372	0.0151668
660.450	0.0146236
660.529	0.0141608
660.607	0.0138002
660.685	0.0135344
660.763	0.0134383
660.841	0.0133212
660.919	0.0134749
660.997	0.0134754
661.075	0.0137247
661.154	0.0140619
661.232	0.0144303
661.310	0.0147773
661.388	0.0150503
661.466	0.0154685
661.544	0.0158218
661.622	0.0160831
661.700	0.0163203
661.779	0.0166110
661.857	0.0169664
661.935	0.0171794
662.013	0.0174315
662.091	0.0178791
662.169	0.0180046
662.247	0.0182590
662.325	0.0187290
662.404	0.0188712
662.482	0.0189779
662.560	0.0192990
662.638	0.0192889
662.716	0.0193282
662.794	0.0194685
662.872	0.0192747
662.950	0.0192412
663.029	0.0192796
663.107	0.0191084
663.185	0.0191398
663.263	0.0189157
663.341	0.0187704
663.419	0.0186942
663.497	0.0185078
663.575	0.0183082
663.654	0.0182491
663.732	0.0181645
663.810	0.0180479
663.888	0.0177821
663.966	0.0176054
664.044	0.0173354
664.122	0.0172604
664.200	0.0171136
664.279	0.0168299
664.357	0.0166680
664.435	0.0165881
664.513	0.0167799
664.591	0.0165684
664.669	0.0167361
664.747	0.0165840
664.825	0.0164533
664.904	0.0163013
664.982	0.0160342
665.060	0.0158026
665.138	0.0153175
665.216	0.0151225
665.294	0.0147052
665.372	0.0143633
665.450	0.0139339
665.529	0.0136297
665.607	0.0133368
665.685	0.0132557
665.763	0.0132727
665.841	0.0132634
665.919	0.0136591
665.997	0.0140891
666.075	0.0144983
666.154	0.0148077
666.232	0.0156103
666.310	0.0162814
666.388	0.0169035
666.466	0.0176427
666.544	0.0182655
666.622	0.0189748
666.700	0.0195398
666.779	0.0200903
666.857	0.0205894
666.935	0.0209683
667.013	0.0213138
667.091	0.0213768
667.169	0.0215893
667.247	0.0214550
667.325	0.0213361
667.404	0.0210941
667.482	0.0205914
667.560	0.0203273
667.638	0.0200536
667.716	0.0196175
667.794	0.0190825
667.872	0.0186983
667.950	0.0183147
668.029	0.0178626
668.107	0.0175169
668.185	0.0170179
668.263	0.0165057
668.341	0.0161551
668.419	0.0158198
668.497	0.0153992
668.575	0.0150698
668.654	0.0148830
668.732	0.0147697
668.810	0.0145074
668.888	0.0145549
668.966	0.0144803
669.044	0.0146419
669.122	0.0149442
669.200	0.0150347
669.279	0.0152104
669.357	0.0155757
669.435	0.0158595
669.513	0.0161674
669.591	0.0162715
669.669	0.0166116
669.747	0.0166886
669.825	0.0167923
669.904	0.0168823
669.982	0.0167965
670.060	0.0166985
670.138	0.0165504
670.216	0.0163194
670.294	0.0160240
670.372	0.0157259
670.450	0.0153453
670.529	0.0151449
670.607	0.0149240
670.685	0.0145331
670.763	0.0145078
670.841	0.0145051
670.919	0.0145582
670.997	0.0146800
671.075	0.0147962
671.154	0.0151591
671.232	0.0155135
671.310	0.0159129
671.388	0.0164928
671.466	0.0169827
671.544	0.0174957
671.622	0.0180425
671.700	0.0185651
671.779	0.0192021
671.857	0.0195872
671.935	0.0199927
672.013	0.0205447
672.091	0.0210481
672.169	0.0213575
672.247	0.0216788
672.325	0.0219564
672.404	0.0222903
672.482	0.0224366
672.560	0.0223742
672.638	0.0224036
672.716	0.0221481
672.794	0.0218239
672.872	0.0214567
672.950	0.0209122
673.029	0.0204083
673.107	0.0198475
673.185	0.0190493
673.263	0.0182291
673.341	0.0174505
673.419	0.0168607
673.497	0.0161362
673.575	0.0154661
673.654	0.0145831
673.732	0.0140831
673.810	0.0135921
673.888	0.0131747
673.966	0.0126157
674.044	0.0126907
674.122	0.0126937
674.200	0.0126212
674.279	0.0130091
674.357	0.0130927
674.435	0.0133472
674.513	0.0136639
674.591	0.0141153
674.669	0.0141885
674.747	0.0146727
674.825	0.0148543
674.904	0.0152927
674.982	0.0157328
675.060	0.0158772
675.138	0.0161766
675.216	0.0163771
675.294	0.0165550
675.372	0.0167211
675.450	0.0169885
675.529	0.0171537
675.607	0.0172596
675.685	0.0173630
675.763	0.0172544
675.841	0.0171690
675.919	0.0170180
675.997	0.0167677
676.075	0.0165791
676.154	0.0160781
676.232	0.0158828
676.310	0.0155350
676.388	0.0153498
676.466	0.0152983
676.544	0.0152313
676.622	0.0153278
676.700	0.0155950
676.779	0.0156850
676.857	0.0160019
676.935	0.0162530
677.013	0.0164674
677.091	0.0169433
677.169	0.0174342
677.247	0.0178882
677.325	0.0184101
677.404	0.0189142
677.482	0.0195376
677.560	0.0202206
677.638	0.0211211
677.716	0.0215588
677.794	0.0223466
677.872	0.0229545
677.950	0.0233817
678.029	0.0238031
678.107	0.0241042
678.185	0.0241319
678.263	0.0240205
678.341	0.0236830
678.419	0.0232064
678.497	0.0224946
678.575	0.0216838
678.654	0.0205347
678.732	0.0196609
678.810	0.0186285
678.888	0.0174394
678.966	0.0163538
679.044	0.0154594
679.122	0.0146399
679.200	0.0139766
679.279	0.0136732
679.357	0.0131942
679.435	0.0130794
679.513	0.0132266
679.591	0.0132288
679.669	0.0133745
679.747	0.0134363
679.825	0.0139059
679.904	0.0141902
679.982	0.0141048
680.060	0.0141807
680.138	0.0142854
680.216	0.0140827
680.294	0.0137554
680.372	0.0138982
680.450	0.0136121
680.529	0.0134126
680.607	0.0133561
680.685	0.0133736
680.763	0.0134578
680.841	0.0136555
680.919	0.0140777
680.997	0.0143457
681.075	0.0148718
681.154	0.0154182
681.232	0.0159357
681.310	0.0163175
681.388	0.0167483
681.466	0.0171094
681.544	0.0173670
681.622	0.0175036
681.700	0.0175822
681.779	0.0172935
681.857	0.0171944
681.935	0.0169521
682.013	0.0166720
682.091	0.0163068
682.169	0.0161615
682.247	0.0160258
682.325	0.0156283
682.404	0.0157466
682.482	0.0158327
682.560	0.0159193
682.638	0.0162410
682.716	0.0166580
682.794	0.0171398
682.872	0.0176712
682.950	0.0182677
683.029	0.0187637
683.107	0.0193452
683.185	0.0199363
683.263	0.0202193
683.341	0.0207652
683.419	0.0210049
683.497	0.0213289
683.575	0.0217738
683.654	0.0220395
683.732	0.0222681
683.810	0.0226751
683.888	0.0229949
683.966	0.0231398
684.044	0.0234082
684.122	0.0235451
684.200	0.0233391
684.279	0.0231467
684.357	0.0229419
684.435	0.0225044
684.513	0.0218255
684.591	0.0210506
684.669	0.0201787
684.747	0.0192637
684.825	0.0183520
684.904	0.0172587
684.982	0.0162106
685.060	0.0154300
685.138	0.0147404
685.216	0.0138249
685.294	0.0132272
685.372	0.0127482
685.450	0.0119937
685.529	0.0115848
685.607	0.0114773
685.685	0.0112049
685.763	0.0110365
685.841	0.0111205
685.919	0.0111610
685.997	0.0112499
686.075	0.0114490
686.154	0.0114700
686.232	0.0117287
686.310	0.0120136
686.388	0.0123804
686.466	0.0126394
686.544	0.0128728
686.622	0.0132651
686.700	0.0135185
686.779	0.0141045
686.857	0.0145563
686.935	0.0149203
687.013	0.0155731
687.091	0.0162648
687.169	0.0169193
687.247	0.0175918
687.325	0.0180427
687.404	0.0185256
687.482	0.0190965
687.560	0.0192963
687.638	0.0195392
687.716	0.0197102
687.794	0.0198520
687.872	0.0196318
687.950	0.0194211
688.029	0.0190513
688.107	0.0186072
688.185	0.0183163
688.263	0.0177575
688.341	0.0172207
688.419	0.0167918
688.497	0.0164623
688.575	0.0161628
688.654	0.0158282
688.732	0.0156533
688.810	0.0159079
688.888	0.0159347
688.966	0.0162134
689.044	0.0166977
689.122	0.0172582
689.200	0.0180083
689.279	0.0185662
689.357	0.0193536
689.435	0.0200549
689.513	0.0206744
689.591	0.0211630
689.669	0.0215061
689.747	0.0218671
689.825	0.0219998
689.904	0.0221437
689.982	0.0221514
690.060	0.0219743
690.138	0.0218617
690.216	0.0217602
690.294	0.0215924
690.372	0.0211917
690.450	0.0210754
690.529	0.0206396
690.607	0.0202325
690.685	0.0197598
690.763	0.0192949
690.841	0.0188017
690.919	0.0181463
690.997	0.0175578
691.075	0.0170863
691.154	0.0162424
691.232	0.0156242
691.310	0.0150124
691.388	0.0144168
691.466	0.0138620
691.544	0.0134794
691.622	0.0131995
691.700	0.0129081
691.779	0.0126122
691.857	0.0124133
691.935	0.0122930
692.013	0.0122264
692.091	0.0121139
692.169	0.0121336
692.247	0.0122585
692.325	0.0122162
692.404	0.0124303
692.482	0.0124981
692.560	0.0126850
692.638	0.0128545
692.716	0.0129588
692.794	0.0132027
692.872	0.0135393
692.950	0.0138084
693.029	0.0144564
693.107	0.0151223
693.185	0.0157951
693.263	0.0165056
693.341	0.0171933
693.419	0.0179531
693.497	0.0186673
693.575	0.0190528
693.654	0.0193549
693.732	0.0196696
693.810	0.0197829
693.888	0.0196448
693.966	0.0194173
694.044	0.0191452
694.122	0.0188062
694.200	0.0183389
694.279	0.0178209
694.357	0.0174096
694.435	0.0168481
694.513	0.0166354
694.591	0.0161803
694.669	0.0161356
694.747	0.0160220
694.825	0.0159140
694.904	0.0161959
694.982	0.0163910
695.060	0.0166177
695.138	0.0169737
695.216	0.0175658
695.294	0.0179406
695.372	0.0184488
695.450	0.0188553
695.529	0.0193425
695.607	0.0196949
695.685	0.0199390
695.763	0.0201785
695.841	0.0204236
695.919	0.0205066
695.997	0.0204230
696.075	0.0204757
696.154	0.0204155
696.232	0.0203159
696.310	0.0204253
696.388	0.0204100
696.466	0.0202267
696.544	0.0201485
696.622	0.0200900
696.700	0.0198763
696.779	0.0196339
696.857	0.0196059
696.935	0.0193479
697.013	0.0192680
697.091	0.0187095
697.169	0.0181614
697.247	0.0178551
697.325	0.0174800
697.404	0.0170161
697.482	0.0164343
697.560	0.0160844
697.638	0.0159367
697.716	0.0156066
697.794	0.0152595
697.872	0.0149851
697.950	0.0148457
698.029	0.0147371
698.107	0.0146456
698.185	0.0144619
698.263	0.0142289
698.341	0.0141385
698.419	0.0140415
698.497	0.0138260
698.575	0.0137711
698.654	0.0136090
698.732	0.0134773
698.810	0.0132825
698.888	0.0130469
698.966	0.0130959
699.044	0.0130565
699.122	0.0129707
699.200	0.0129682
699.279	0.0132258
699.357	0.0134205
699.435	0.0137675
699.513	0.0142889
699.591	0.0147883
699.669	0.0151690
699.747	0.0155873
699.825	0.0160324
699.904	0.0165025
699.982	0.0168246
700.060	0.0172746
700.138	0.0176126
700.216	0.0176366
700.294	0.0177413
700.372	0.0177514
700.450	0.0177438
700.529	0.0175729
700.607	0.0175838
700.685	0.0175214
700.763	0.0175201
700.841	0.0173610
700.919	0.0175529
700.997	0.0177696
701.075	0.0177132
701.154	0.0179612
701.232	0.0182066
701.310	0.0185558
701.388	0.0188824
701.466	0.0192440
701.544	0.0195887
701.622	0.0198970
701.700	0.0201648
701.779	0.0203182
701.857	0.0203757
701.935	0.0206546
702.013	0.0205572
702.091	0.0205364
702.169	0.0205297
702.247	0.0204346
702.325	0.0201783
702.404	0.0200043
702.482	0.0200223
702.560	0.0197256
702.638	0.0193636
702.716	0.0192370
702.794	0.0192436
702.872	0.0189601
702.950	0.0188692
703.029	0.0186221
703.107	0.0184608
703.185	0.0183170
703.263	0.0180444
703.341	0.0180520
703.419	0.0177818
703.497	0.0176090
703.575	0.0174719
703.654	0.0171822
703.732	0.0171097
703.810	0.0169398
703.888	0.0166159
703.966	0.0163600
704.044	0.0161936
704.122	0.0160172
704.200	0.0158276
704.279	0.0155644
704.357	0.0153069
704.435	0.0151112
704.513	0.0148032
704.591	0.0147630
704.669	0.0144561
704.747	0.0142962
704.825	0.0138688
704.904	0.0138708
704.982	0.0136674
705.060	0.0135080
705.138	0.0132905
705.216	0.0131330
705.294	0.0131878
705.372	0.0132162
705.450	0.0131546
705.529	0.0134740
705.607	0.0137006
705.685	0.0140495
705.763	0.0143642
705.841	0.0145658
705.919	0.0148137
705.997	0.0151024
706.075	0.0154967
706.154	0.0158434
706.232	0.0160281
706.310	0.0163737
706.388	0.0165339
706.466	0.0164977
706.544	0.0168344
706.622	0.0169657
706.700	0.0171590
706.779	0.0171896
706.857	0.0172984
706.935	0.0174673
707.013	0.0177287
707.091	0.0179500
707.169	0.0179581
707.247	0.0181965
707.325	0.0185559
707.404	0.0186493
707.482	0.0188492
707.560	0.0192413
707.638	0.0193735
707.716	0.0196342
707.794	0.0200587
707.872	0.0201810
707.950	0.0204132
708.029	0.0204874
708.107	0.0206470
708.185	0.0207040
708.263	0.0207939
708.341	0.0206549
708.419	0.0208345
708.497	0.0205946
708.575	0.0204482
708.654	0.0199613
708.732	0.0197237
708.810	0.0195872
708.888	0.0190060
708.966	0.0185341
709.044	0.0182676
709.122	0.0178999
709.200	0.0174940
709.279	0.0171697
709.357	0.0167391
709.435	0.0165568
709.513	0.0163039
709.591	0.0161498
709.669	0.0160134
709.747	0.0158457
709.825	0.0158895
709.904	0.0159167
709.982	0.0159503
710.060	0.0159261
710.138	0.0160139
710.216	0.0159840
710.294	0.0161429
710.372	0.0161601
710.450	0.0163737
710.529	0.0162364
710.607	0.0163129
710.685	0.0162975
710.763	0.0162913
710.841	0.0162255
710.919	0.0161351
710.997	0.0159999
711.075	0.0159621
711.154	0.0156635
711.232	0.0155467
711.310	0.0153854
711.388	0.0154076
711.466	0.0153008
711.544	0.0152759
711.622	0.0152506
711.700	0.0151750
711.779	0.0152023
711.857	0.0155406
711.935	0.0157650
712.013	0.0157080
712.091	0.0159805
712.169	0.0160185
712.247	0.0162080
712.325	0.0163151
712.404	0.0166029
712.482	0.0165461
712.560	0.0164010
712.638	0.0163358
712.716	0.0163126
712.794	0.0160187
712.872	0.0159129
712.950	0.0159206
713.029	0.0158855
713.107	0.0158249
713.185	0.0157776
713.263	0.0159306
713.341	0.0160115
713.419	0.0161169
713.497	0.0163207
713.575	0.0167656
713.654	0.0172800
713.732	0.0173344
713.810	0.0177351
713.888	0.0181208
713.966	0.0185988
714.044	0.0189523
714.122	0.0192970
714.200	0.0196283
714.279	0.0196998
714.357	0.0198573
714.435	0.0198269
714.513	0.0200726
714.591	0.0199642
714.669	0.0199044
714.747	0.0198871
714.825	0.0196423
714.904	0.0194233
714.982	0.0193152
715.060	0.0190761
715.138	0.0188328
715.216	0.0186378
715.294	0.0183556
715.372	0.0181081
715.450	0.0177460
715.529	0.0176198
715.607	0.0172974
715.685	0.0170161
715.763	0.0168410
715.841	0.0165540
715.919	0.0164448
715.997	0.0164266
716.075	0.0162177
716.154	0.0161839
716.232	0.0162832
716.310	0.0163011
716.388	0.0164168
716.466	0.0164169
716.544	0.0165691
716.622	0.0165326
716.700	0.0166958
716.779	0.0167188
716.857	0.0168258
716.935	0.0167814
717.013	0.0168170
717.091	0.0167517
717.169	0.0165163
717.247	0.0166526
717.325	0.0163188
717.404	0.0162024
717.482	0.0161766
717.560	0.0160107
717.638	0.0160538
717.716	0.0160442
717.794	0.0162350
717.872	0.0162534
717.950	0.0163789
718.029	0.0162757
718.107	0.0164494
718.185	0.0166486
718.263	0.0168477
718.341	0.0170180
718.419	0.0169900
718.497	0.0168382
718.575	0.0167554
718.654	0.0168815
718.732	0.0169087
718.810	0.0167046
718.888	0.0166517
718.966	0.0166544
719.044	0.0165052
719.122	0.0163633
719.200	0.0163873
719.279	0.0163314
719.357	0.0163922
719.435	0.0163424
719.513	0.0163657
719.591	0.0162798
719.669	0.0165191
719.747	0.0167189
719.825	0.0167300
719.904	0.0168402
719.982	0.0170949
720.060	0.0171853
720.138	0.0171835
720.216	0.0173238
720.294	0.0174187
720.372	0.0173276
720.450	0.0175738
720.529	0.0176098
720.607	0.0175055
720.685	0.0175984
720.763	0.0175993
720.841	0.0177093
720.919	0.0175161
720.997	0.0174122
721.075	0.0175321
721.154	0.0175088
721.232	0.0175697
721.310	0.0175411
721.388	0.0175417
721.466	0.0175748
721.544	0.0176685
721.622	0.0176658
721.700	0.0175972
721.779	0.0175670
721.857	0.0175038
721.935	0.0174880
722.013	0.0174844
722.091	0.0175767
722.169	0.0174522
722.247	0.0173515
722.325	0.0173739
722.404	0.0173876
722.482	0.0173436
722.560	0.0172452
722.638	0.0173997
722.716	0.0174509
722.794	0.0173681
722.872	0.0174548
722.950	0.0175499
723.029	0.0174837
723.107	0.0174524
723.185	0.0174213
723.263	0.0173043
723.341	0.0172240
723.419	0.0172310
723.497	0.0172308
723.575	0.0171220
723.654	0.0168159
723.732	0.0168894
723.810	0.0168558
723.888	0.0166924
723.966	0.0168687
724.044	0.0168178
724.122	0.0167564
724.200	0.0166299
724.279	0.0167819
724.357	0.0168389
724.435	0.0169411
724.513	0.0169156
724.591	0.0168370
724.669	0.0168707
724.747	0.0169804
724.825	0.0169313
724.904	0.0167815
724.982	0.0167896
725.060	0.0167102
725.138	0.0166377
725.216	0.0167188
725.294	0.0166257
725.372	0.0166434
725.450	0.0165688
725.529	0.0167262
725.607	0.0166535
725.685	0.0167132
725.763	0.0168372
725.841	0.0169244
725.919	0.0169373
725.997	0.0171545
726.075	0.0171832
726.154	0.0172673
726.232	0.0173154
726.310	0.0173969
726.388	0.0173214
726.466	0.0173342
726.544	0.0173819
726.622	0.0172888
726.700	0.0171637
726.779	0.0170111
726.857	0.0170544
726.935	0.0168443
727.013	0.0167365
727.091	0.0165931
727.169	0.0164825
727.247	0.0163807
727.325	0.0163696
727.404	0.0164242
727.482	0.0162199
727.560	0.0163319
727.638	0.0163477
727.716	0.0162982
727.794	0.0162393
727.872	0.0162614
727.950	0.0162987
728.029	0.0164365
728.107	0.0165234
728.185	0.0166076
728.263	0.0166769
728.341	0.0168598
728.419	0.0168340
728.497	0.0170602
728.575	0.0169778
728.654	0.0172621
728.732	0.0174735
728.810	0.0175038
728.888	0.0175282
728.966	0.0174908
729.044	0.0175413
729.122	0.0176003
729.200	0.0175114
729.279	0.0175459
729.357	0.0174619
729.435	0.0176620
729.513	0.0175835
729.591	0.0174393
729.669	0.0173714
729.747	0.0173717
729.825	0.0174720
729.904	0.0175038
729.982	0.0175296
730.060	0.0175378
730.138	0.0176658
730.216	0.0175674
730.294	0.0176593
730.372	0.0178333
730.450	0.0177709
730.529	0.0178268
730.607	0.0177407
730.685	0.0177235
730.763	0.0176966
730.841	0.0178273
730.919	0.0175692
730.997	0.0175664
731.075	0.0175571
731.154	0.0173071
731.232	0.0172759
731.310	0.0172469
731.388	0.0172475
731.466	0.0170424
731.544	0.0171476
731.622	0.0170416
731.700	0.0169940
731.779	0.0169344
731.857	0.0169561
731.935	0.0169559
732.013	0.0169398
732.091	0.0168005
732.169	0.0169946
732.247	0.0171453
732.325	0.0171081
732.404	0.0171225
732.482	0.0171950
732.560	0.0171397
732.638	0.0170139
732.716	0.0170290
732.794	0.0170615
732.872	0.0167796
732.950	0.0167352
733.029	0.0168095
733.107	0.0166116
733.185	0.0165809
733.263	0.0165472
733.341	0.0164379
733.419	0.0164470
733.497	0.0161771
733.575	0.0162784
733.654	0.0163397
733.732	0.0163168
733.810	0.0163062
733.888	0.0162750
733.966	0.0161987
734.044	0.0163037
734.122	0.0162511
734.200	0.0161879
734.279	0.0162950
734.357	0.0163449
734.435	0.0165234
734.513	0.0164614
734.591	0.0165327
734.669	0.0164743
734.747	0.0166082
734.825	0.0167603
734.904	0.0167211
734.982	0.0168203
735.060	0.0168649
735.138	0.0167102
735.216	0.0168307
735.294	0.0167222
735.372	0.0168339
735.450	0.0168954
735.529	0.0167458
735.607	0.0167884
735.685	0.0167638
735.763	0.0167960
735.841	0.0168636
735.919	0.0168403
735.997	0.0168678
736.075	0.0171611
736.154	0.0170441
736.232	0.0171907
736.310	0.0171914
736.388	0.0173661
736.466	0.0174125
736.544	0.0175850
736.622	0.0177803
736.700	0.0178110
736.779	0.0177833
736.857	0.0178265
736.935	0.0179443
737.013	0.0179557
737.091	0.0178818
737.169	0.0180438
737.247	0.0180681
737.325	0.0179187
737.404	0.0178294
737.482	0.0179343
737.560	0.0177344
737.638	0.0178287
737.716	0.0178098
737.794	0.0176285
737.872	0.0176134
737.950	0.0175526
738.029	0.0175980
738.107	0.0174806
738.185	0.0175258
738.263	0.0175399
738.341	0.0176532
738.419	0.0175145
738.497	0.0174085
738.575	0.0173730
738.654	0.0174719
738.732	0.0174660
738.810	0.0172519
738.888	0.0173304
738.966	0.0173425
739.044	0.0171012
739.122	0.0170103
739.200	0.0168564
739.279	0.0168616
739.357	0.0168385
739.435	0.0166817
739.513	0.0165937
739.591	0.0165970
739.669	0.0166089
739.747	0.0165615
739.825	0.0166243
739.904	0.0165417
739.982	0.0166031
740.060	0.0166517
740.138	0.0166180
740.216	0.0168077
740.294	0.0166630
740.372	0.0166355
740.450	0.0167742
740.529	0.0165551
740.607	0.0165364
740.685	0.0166418
740.763	0.0165816
740.841	0.0164336
740.919	0.0165454
740.997	0.0164616
741.075	0.0163829
741.154	0.0163655
741.232	0.0164065
741.310	0.0162540
741.388	0.0163751
741.466	0.0162685
741.544	0.0162086
741.622	0.0163634
741.700	0.0162514
741.779	0.0162963
741.857	0.0163262
741.935	0.0162910
742.013	0.0162813
742.091	0.0162147
742.169	0.0162644
742.247	0.0164397
742.325	0.0164676
742.404	0.0166264
742.482	0.0166554
742.560	0.0167239
742.638	0.0168857
742.716	0.0169805
742.794	0.0171275
742.872	0.0171932
742.950	0.0172208
743.029	0.0175566
743.107	0.0175727
743.185	0.0176318
743.263	0.0175819
743.341	0.0176141
743.419	0.0178841
743.497	0.0177171
743.575	0.0177998
743.654	0.0179723
743.732	0.0177859
743.810	0.0177692
743.888	0.0176820
743.966	0.0179710
744.044	0.0178974
744.122	0.0177129
744.200	0.0177982
744.279	0.0178967
744.357	0.0178703
744.435	0.0179623
744.513	0.0178962
744.591	0.0181726
744.669	0.0179538
744.747	0.0180209
744.825	0.0180260
744.904	0.0179019
744.982	0.0178408
745.060	0.0176621
745.138	0.0177112
745.216	0.0177383
745.294	0.0174826
745.372	0.0175914
745.450	0.0174151
745.529	0.0173940
745.607	0.0173359
745.685	0.0172394
745.763	0.0173052
745.841	0.0171661
745.919	0.0171318
745.997	0.0170358
746.075	0.0169395
746.154	0.0170164
746.232	0.0170747
746.310	0.0171434
746.388	0.0169022
746.466	0.0170548
746.544	0.0168052
746.622	0.0168816
746.700	0.0170081
746.779	0.0168557
746.857	0.0168875
746.935	0.0168317
747.013	0.0167587
747.091	0.0168514
747.169	0.0167656
747.247	0.0166772
747.325	0.0167038
747.404	0.0164453
747.482	0.0164632
747.560	0.0164950
747.638	0.0162964
747.716	0.0162753
747.794	0.0161774
747.872	0.0162920
747.950	0.0162009
748.029	0.0160824
748.107	0.0161354
748.185	0.0161661
748.263	0.0161438
748.341	0.0160911
748.419	0.0162090
748.497	0.0163074
748.575	0.0163528
748.654	0.0164000
748.732	0.0164979
748.810	0.0166438
748.888	0.0166998
748.966	0.0167311
749.044	0.0168158
749.122	0.0171132
749.200	0.0169999
749.279	0.0171375
749.357	0.0171250
749.435	0.0170472
749.513	0.0170341
749.591	0.0171178
749.669	0.0170013
749.747	0.0169248
749.825	0.0169260
749.904	0.0168789
749.982	0.0168517
750.060	0.0167254
750.138	0.0167858
750.216	0.0167446
750.294	0.0167377
750.372	0.0167657
750.450	0.0168980
750.529	0.0169743
750.607	0.0169685
750.685	0.0169917
750.763	0.0171958
750.841	0.0172319
750.919	0.0172315
750.997	0.0173820
751.075	0.0173718
751.154	0.0174754
751.232	0.0174960
751.310	0.0175902
751.388	0.0175794
751.466	0.0176740
751.544	0.0177382
751.622	0.0178178
751.700	0.0179466
751.779	0.0178923
751.857	0.0178843
751.935	0.0180650
752.013	0.0179691
752.091	0.0180785
752.169	0.0180737
752.247	0.0181255
752.325	0.0179854
752.404	0.0178984
752.482	0.0180202
752.560	0.0179787
752.638	0.0179611
752.716	0.0178027
752.794	0.0176125
752.872	0.0175473
752.950	0.0174863
753.029	0.0174462
753.107	0.0172887
753.185	0.0172615
753.263	0.0171008
753.341	0.0169820
753.419	0.0169863
753.497	0.0169121
753.575	0.0167001
753.654	0.0167352
753.732	0.0167987
753.810	0.0165438
753.888	0.0165825
753.966	0.0165979
754.044	0.0164588
754.122	0.0166007
754.200	0.0165027
754.279	0.0165282
754.357	0.0161919
754.435	0.0163027
754.513	0.0161709
754.591	0.0162039
754.669	0.0163316
754.747	0.0162402
754.825	0.0163416
754.904	0.0161005
754.982	0.0162642
755.060	0.0162988
755.138	0.0164201
755.216	0.0164503
755.294	0.0165939
755.372	0.0165028
755.450	0.0165337
755.529	0.0166552
755.607	0.0167791
755.685	0.0168146
755.763	0.0169441
755.841	0.0169132
755.919	0.0169579
755.997	0.0170972
756.075	0.0170907
756.154	0.0171289
756.232	0.0171779
756.310	0.0172087
756.388	0.0170479
756.466	0.0170524
756.544	0.0170085
756.622	0.0169254
756.700	0.0168938
756.779	0.0170054
756.857	0.0166559
756.935	0.0166637
757.013	0.0167033
757.091	0.0165502
757.169	0.0165141
757.247	0.0165598
757.325	0.0167175
757.404	0.0166274
757.482	0.0166612
757.560	0.0166708
757.638	0.0168317
757.716	0.0168229
757.794	0.0167397
757.872	0.0168832
757.950	0.0169499
758.029	0.0171706
758.107	0.0171849
758.185	0.0171152
758.263	0.0171796
758.341	0.0171936
758.419	0.0173367
758.497	0.0175048
758.575	0.0175832
758.654	0.0175862
758.732	0.0177873
758.810	0.0178157
758.888	0.0177676
758.966	0.0178381
759.044	0.0178296
759.122	0.0179871
759.200	0.0179205
759.279	0.0178844
759.357	0.0178563
759.435	0.0179082
759.513	0.0179975
759.591	0.0179390
759.669	0.0179164
759.747	0.0178598
759.825	0.0178436
759.904	0.0177106
759.982	0.0177036
760.060	0.0176292
760.138	0.0174402
760.216	0.0173962
760.294	0.0173617
760.372	0.0173017
760.450	0.0173547
760.529	0.0171905
760.607	0.0170647
760.685	0.0170924
760.763	0.0169991
760.841	0.0168967
760.919	0.0168934
760.997	0.0167924
761.075	0.0167914
761.154	0.0167809
761.232	0.0166254
761.310	0.0165701
761.388	0.0165990
761.466	0.0164066
761.544	0.0163312
761.622	0.0164875
761.700	0.0163308
761.779	0.0163468
761.857	0.0163364
761.935	0.0163744
762.013	0.0163718
762.091	0.0162611
762.169	0.0162643
762.247	0.0162081
762.325	0.0162390
762.404	0.0162663
762.482	0.0164989
762.560	0.0163868
762.638	0.0164054
762.716	0.0165608
762.794	0.0168592
762.872	0.0167173
762.950	0.0168408
763.029	0.0169762
763.107	0.0169073
763.185	0.0170307
763.263	0.0171487
763.341	0.0171391
763.419	0.0171196
763.497	0.0171938
763.575	0.0171499
763.654	0.0172460
763.732	0.0171096
763.810	0.0169751
763.888	0.0170194
763.966	0.0170364
764.044	0.0167915
764.122	0.0169953
764.200	0.0169311
764.279	0.0167632
764.357	0.0167745
764.435	0.0169386
764.513	0.0168748
764.591	0.0169154
764.669	0.0168992
764.747	0.0167960
764.825	0.0169118
764.904	0.0169289
764.982	0.0170309
765.060	0.0170546
765.138	0.0170917
765.216	0.0170900
765.294	0.0172589
765.372	0.0172762
765.450	0.0173724
765.529	0.0173447
765.607	0.0174480
765.685	0.0174271
765.763	0.0174704
765.841	0.0174260
765.919	0.0173795
765.997	0.0175262
766.075	0.0173720
766.154	0.0173298
766.232	0.0170775
766.310	0.0172110
766.388	0.0171946
766.466	0.0170926
766.544	0.0168697
766.622	0.0169607
766.700	0.0169448
766.779	0.0167043
766.857	0.0168170
766.935	0.0168098
767.013	0.0167945
767.091	0.0169396
767.169	0.0167884
767.247	0.0169400
767.325	0.0169173
767.404	0.0168274
767.482	0.0170658
767.560	0.0171873
767.638	0.0171912
767.716	0.0172829
767.794	0.0172617
767.872	0.0174011
767.950	0.0173685
768.029	0.0174740
768.107	0.0174898
768.185	0.0176138
768.263	0.0178568
768.341	0.0178268
768.419	0.0175473
768.497	0.0176923
768.575	0.0175576
768.654	0.0175125
768.732	0.0176957
768.810	0.0177065
768.888	0.0175609
768.966	0.0174863
769.044	0.0174423
769.122	0.0174410
769.200	0.0172813
769.279	0.0171075
769.357	0.0171841
769.435	0.0170193
769.513	0.0170248
769.591	0.0170100
769.669	0.0168660
769.747	0.0169117
769.825	0.0167998
769.904	0.0166711
769.982	0.0166533
770.060	0.0165405
770.138	0.0164523
770.216	0.0165840
770.294	0.0164367
770.372	0.0164590
770.450	0.0164436
770.529	0.0162963
770.607	0.0162336
770.685	0.0162437
770.763	0.0162451
770.841	0.0161203
770.919	0.0161115
770.997	0.0161682
771.075	0.0163783
771.154	0.0163267
771.232	0.0163147
771.310	0.0163938
771.388	0.0163622
771.466	0.0164990
771.544	0.0164764
771.622	0.0164874
771.700	0.0165768
771.779	0.0167069
771.857	0.0168044
771.935	0.0169270
772.013	0.0166727
772.091	0.0167725
772.169	0.0169771
772.247	0.0168726
772.325	0.0170043
772.404	0.0170100
772.482	0.0169939
772.560	0.0169789
772.638	0.0170064
772.716	0.0171260
772.794	0.0169142
772.872	0.0170734
772.950	0.0171233
773.029	0.0170628
773.107	0.0171392
773.185	0.0171203
773.263	0.0170715
773.341	0.0171540
773.419	0.0172571
773.497	0.0173656
773.575	0.0174529
773.654	0.0174178
773.732	0.0174754
773.810	0.0178308
773.888	0.0177850
773.966	0.0177549
774.044	0.0177415
774.122	0.0179701
774.200	0.0180002
774.279	0.0180384
774.357	0.0181561
774.435	0.0181385
774.513	0.0182855
774.591	0.0183141
774.669	0.0181714
774.747	0.0182640
774.825	0.0182176
774.904	0.0180441
774.982	0.0179974
775.060	0.0180188
775.138	0.0179702
775.216	0.0177940
775.294	0.0176760
775.372	0.0175464
775.450	0.0174265
775.529	0.0175155
775.607	0.0173318
775.685	0.0171811
775.763	0.0172456
775.841	0.0171262
775.919	0.0170731
775.997	0.0168262
776.075	0.0169994
776.154	0.0168121
776.232	0.0166840
776.310	0.0165153
776.388	0.0164825
776.466	0.0165997
776.544	0.0163496
776.622	0.0163268
776.700	0.0160494
776.779	0.0160983
776.857	0.0161409
776.935	0.0161581
777.013	0.0162265
777.091	0.0159511
777.169	0.0160889
777.247	0.0160842
777.325	0.0160314
777.404	0.0160099
777.482	0.0161233
777.560	0.0161024
777.638	0.0162225
777.716	0.0162778
777.794	0.0163401
777.872	0.0164537
777.950	0.0165134
778.029	0.0164260
778.107	0.0164822
778.185	0.0164842
778.263	0.0165763
778.341	0.0165007
778.419	0.0166194
778.497	0.0166294
778.575	0.0166449
778.654	0.0167439
778.732	0.0167811
778.810	0.0166471
778.888	0.0168273
778.966	0.0169079
779.044	0.0168633
779.122	0.0169905
779.200	0.0170572
779.279	0.0171238
779.357	0.0171658
779.435	0.0171339
779.513	0.0172864
779.591	0.0173325
779.669	0.0174889
779.747	0.0175514
779.825	0.0176295
779.904	0.0176688
779.982	0.0176791
780.060	0.0178053
780.138	0.0178585
780.216	0.0178902
780.294	0.0180624
780.372	0.0180890
780.450	0.0180076
780.529	0.0181172
780.607	0.0181529
780.685	0.0182195
780.763	0.0182745
780.841	0.0182340
780.919	0.0180992
780.997	0.0181779
781.075	0.0180044
781.154	0.0180093
781.232	0.0181027
781.310	0.0177683
781.388	0.0178474
781.466	0.0176978
781.544	0.0174726
781.622	0.0173784
781.700	0.0171347
781.779	0.0170499
781.857	0.0169276
781.935	0.0168902
782.013	0.0167648
782.091	0.0166079
782.169	0.0164458
782.247	0.0164420
782.325	0.0163366
782.404	0.0163847
782.482	0.0162422
782.560	0.0162693
782.638	0.0162533
782.716	0.0162864
782.794	0.0162266
782.872	0.0162772
782.950	0.0162020
783.029	0.0161789
783.107	0.0163974
783.185	0.0163596
783.263	0.0164511
783.341	0.0166601
783.419	0.0166654
783.497	0.0168031
783.575	0.0167925
783.654	0.0170125
783.732	0.0167994
783.810	0.0168250
783.888	0.0171011
783.966	0.0170862
784.044	0.0171278
784.122	0.0171053
784.200	0.0171906
784.279	0.0171977
784.357	0.0171896
784.435	0.0172192
784.513	0.0172812
784.591	0.0172629
784.669	0.0171058
784.747	0.0170484
784.825	0.0169329
784.904	0.0170267
784.982	0.0168777
785.060	0.0169326
785.138	0.0169450
785.216	0.0170484
785.294	0.0171709
785.372	0.0169992
785.450	0.0169907
785.529	0.0169777
785.607	0.0169013
785.685	0.0169901
785.763	0.0170790
785.841	0.0172580
785.919	0.0172654
785.997	0.0173274
786.075	0.0172787
786.154	0.0172913
786.232	0.0174305
786.310	0.0173146
786.388	0.0174895
786.466	0.0173837
786.544	0.0176813
786.622	0.0174169
786.700	0.0175369
786.779	0.0176556
786.857	0.0176127
786.935	0.0176144
787.013	0.0174385
787.091	0.0174152
787.169	0.0175025
787.247	0.0174252
787.325	0.0172366
787.404	0.0172198
787.482	0.0172325
787.560	0.0170978
787.638	0.0170641
787.716	0.0168267
787.794	0.0168388
787.872	0.0167825
787.950	0.0167567
788.029	0.0165980
788.107	0.0166042
788.185	0.0164872
788.263	0.0164366
788.341	0.0163660
788.419	0.0162987
788.497	0.0163948
788.575	0.0164001
788.654	0.0163676
788.732	0.0163936
788.810	0.0164142
788.888	0.0164699
788.966	0.0164761
789.044	0.0165517
789.122	0.0165628
789.200	0.0165976
789.279	0.0165882
789.357	0.0167900
789.435	0.0168090
789.513	0.0168803
789.591	0.0170322
789.669	0.0169915
789.747	0.0172105
789.825	0.0171901
789.904	0.0172364
789.982	0.0175146
790.060	0.0176221
790.138	0.0175515
790.216	0.0175587
790.294	0.0176832
790.372	0.0176486
790.450	0.0176652
790.529	0.0177206
790.607	0.0177515
790.685	0.0176797
790.763	0.0176377
790.841	0.0176404
790.919	0.0174506
790.997	0.0174863
791.075	0.0175950
791.154	0.0174265
791.232	0.0173171
791.310	0.0174188
791.388	0.0172828
791.466	0.0172476
791.544	0.0173199
791.622	0.0172755
791.700	0.0173126
791.779	0.0171684
791.857	0.0173034
791.935	0.0172643
792.013	0.0170143
792.091	0.0171732
792.169	0.0171332
792.247	0.0170072
792.325	0.0169921
792.404	0.0171562
792.482	0.0170853
792.560	0.0170816
792.638	0.0171416
792.716	0.0170775
792.794	0.0171297
792.872	0.0171568
792.950	0.0170669
793.029	0.0171495
793.107	0.0170759
793.185	0.0169766
793.263	0.0170114
793.341	0.0171180
793.419	0.0170148
793.497	0.0169907
793.575	0.0169804
793.654	0.0170087
793.732	0.0168530
793.810	0.0168847
793.888	0.0169064
793.966	0.0167538
794.044	0.0167402
794.122	0.0166662
794.200	0.0167596
794.279	0.0167697
794.357	0.0166101
794.435	0.0166518
794.513	0.0167037
794.591	0.0165243
794.669	0.0165401
794.747	0.0165272
794.825	0.0165151
794.904	0.0164002
794.982	0.0164697
795.060	0.0164259
795.138	0.0164362
795.216	0.0163644
795.294	0.0164507
795.372	0.0167415
795.450	0.0165170
795.529	0.0163864
795.607	0.0165955
795.685	0.0167849
795.763	0.0168292
795.841	0.0168929
795.919	0.0168169
795.997	0.0169246
796.075	0.0167879
796.154	0.0170694
796.232	0.0171195
796.310	0.0173130
796.388	0.0173071
796.466	0.0173998
796.544	0.0173024
796.622	0.0174112
796.700	0.0174422
796.779	0.0174120
796.857	0.0175175
796.935	0.0177182
797.013	0.0176078
797.091	0.0176456
797.169	0.0175777
797.247	0.0174726
797.325	0.0174503
797.404	0.0174586
797.482	0.0176569
797.560	0.0174497
797.638	0.0174176
797.716	0.0174412
797.794	0.0174542
797.872	0.0174471
797.950	0.0174153
798.029	0.0174380
798.107	0.0173795
798.185	0.0176000
798.263	0.0175966
798.341	0.0176504
798.419	0.0177172
798.497	0.0176873
798.575	0.0175881
798.654	0.0175600
798.732	0.0176517
798.810	0.0177131
798.888	0.0176772
798.966	0.0175363
799.044	0.0176827
799.122	0.0175227
799.200	0.0173453
799.279	0.0172485
799.357	0.0172847
799.435	0.0171368
799.513	0.0169717
799.591	0.0169726
799.669	0.0170218
799.747	0.0168903
799.825	0.0168620
799.904	0.0168628
799.982	0.0166850
800.060	0.0168257
800.138	0.0167635
800.216	0.0165857
800.294	0.0166912
800.372	0.0167415
800.450	0.0166664
800.529	0.0166534
800.607	0.0167371
800.685	0.0166022
800.763	0.0166116
800.841	0.0167120
800.919	0.0167265
800.997	0.0166360
801.075	0.0164491
801.154	0.0165251
801.232	0.0165379
801.310	0.0164271
801.388	0.0164515
801.466	0.0164215
801.544	0.0162440
801.622	0.0163963
801.700	0.0162508
801.779	0.0164442
801.857	0.0163875
801.935	0.0164733
802.013	0.0163673
802.091	0.0165239
802.169	0.0164455
802.247	0.0165806
802.325	0.0166923
802.404	0.0164928
802.482	0.0166905
802.560	0.0169388
802.638	0.0168839
802.716	0.0167683
802.794	0.0169751
802.872	0.0171899
802.950	0.0171442
803.029	0.0171414
803.107	0.0171562
803.185	0.0172118
803.263	0.0171401
803.341	0.0172460
803.419	0.0172223
803.497	0.0173253
803.575	0.0173129
803.654	0.0173510
803.732	0.0174104
803.810	0.0174158
803.888	0.0174284
803.966	0.0174571
804.044	0.0174852
804.122	0.0175021
804.200	0.0175533
804.279	0.0176455
804.357	0.0177583
804.435	0.0178961
804.513	0.0178020
804.591	0.0179173
804.669	0.0178686
804.747	0.0179836
804.825	0.0178886
804.904	0.0178816
804.982	0.0179487
805.060	0.0179353
805.138	0.0178275
805.216	0.0179346
805.294	0.0178993
805.372	0.0177272
805.450	0.0176452
805.529	0.0174267
805.607	0.0175911
805.685	0.0175387
805.763	0.0174548
805.841	0.0172061
805.919	0.0171168
805.997	0.0171762
806.075	0.0170842
806.154	0.0170177
806.232	0.0170163
806.310	0.0169061
806.388	0.0168768
806.466	0.0168535
806.544	0.0166614
806.622	0.0168604
806.700	0.0167620
806.779	0.0167819
806.857	0.0167390
806.935	0.0166580
807.013	0.0166890
807.091	0.0167325
807.169	0.0166677
807.247	0.0166126
807.325	0.0166585
807.404	0.0166460
807.482	0.0165599
807.560	0.0164343
807.638	0.0166533
807.716	0.0165459
807.794	0.0164647
807.872	0.0165222
807.950	0.0164856
808.029	0.0163557
808.107	0.0163082
808.185	0.0163432
808.263	0.0163781
808.341	0.0165367
808.419	0.0164162
808.497	0.0164240
808.575	0.0165388
808.654	0.0164802
808.732	0.0165773
808.810	0.0165343
808.888	0.0166277
808.966	0.0166345
809.044	0.0166219
809.122	0.0166360
809.200	0.0167151
809.279	0.0168069
809.357	0.0167677
809.435	0.0168741
809.513	0.0168092
809.591	0.0169615
809.669	0.0169085
809.747	0.0170319
809.825	0.0171780
809.904	0.0171392
809.982	0.0171539
810.060	0.0173815
810.138	0.0173023
810.216	0.0173563
810.294	0.0175225
810.372	0.0174245
810.450	0.0175407
810.529	0.0176363
810.607	0.0176217
810.685	0.0177113
810.763	0.0177676
810.841	0.0178506
810.919	0.0178741
810.997	0.0178835
811.075	0.0177951
811.154	0.0178388
811.232	0.0178098
811.310	0.0177988
811.388	0.0177438
811.466	0.0175340
811.544	0.0177295
811.622	0.0176784
811.700	0.0174297
811.779	0.0174467
811.857	0.0173841
811.935	0.0174149
812.013	0.0170918
812.091	0.0170937
812.169	0.0171333
812.247	0.0170011
812.325	0.0170527
812.404	0.0168687
812.482	0.0168252
812.560	0.0169370
812.638	0.0168850
812.716	0.0167922
812.794	0.0167831
812.872	0.0168945
812.950	0.0166760
813.029	0.0167378
813.107	0.0168665
813.185	0.0168600
813.263	0.0167998
813.341	0.0169376
813.419	0.0168801
813.497	0.0169178
813.575	0.0168756
813.654	0.0169476
813.732	0.0169799
813.810	0.0170143
813.888	0.0170706
813.966	0.0170374
814.044	0.0172080
814.122	0.0170870
814.200	0.0170147
814.279	0.0168506
814.357	0.0169876
814.435	0.0170840
814.513	0.0168987
814.591	0.0170075
814.669	0.0170293
814.747	0.0169466
814.825	0.0169492
814.904	0.0170135
814.982	0.0169009
815.060	0.0169707
815.138	0.0169121
815.216	0.0169708
815.294	0.0169448
815.372	0.0169199
815.450	0.0167698
815.529	0.0168746
815.607	0.0168881
815.685	0.0169368
815.763	0.0168723
815.841	0.0169211
815.919	0.0168285
815.997	0.0168764
816.075	0.0168954
816.154	0.0170689
816.232	0.0169582
816.310	0.0170005
816.388	0.0170813
816.466	0.0170130
816.544	0.0171022
816.622	0.0171142
816.700	0.0171383
816.779	0.0171922
816.857	0.0172306
816.935	0.0172054
817.013	0.0172176
817.091	0.0172702
817.169	0.0172733
817.247	0.0171237
817.325	0.0171232
817.404	0.0171600
817.482	0.0172726
817.560	0.0171037
817.638	0.0171426
817.716	0.0170525
817.794	0.0168918
817.872	0.0168958
817.950	0.0170695
818.029	0.0168945
818.107	0.0169140
818.185	0.0170397
818.263	0.0170036
818.341	0.0169886
818.419	0.0170634
818.497	0.0167958
818.575	0.0167825
818.654	0.0169404
818.732	0.0170149
818.810	0.0169241
818.888	0.0170519
818.966	0.0169450
819.044	0.0169966
819.122	0.0170911
819.200	0.0170636
819.279	0.0170430
819.357	0.0170738
819.435	0.0170533
819.513	0.0171826
819.591	0.0171142
819.669	0.0172484
819.747	0.0172644
819.825	0.0173064
819.904	0.0172595
819.982	0.0172279
820.060	0.0174844
820.138	0.0173255
820.216	0.0173459
820.294	0.0174159
820.372	0.0173749
820.450	0.0173034
820.529	0.0173631
820.607	0.0172649
820.685	0.0174499
820.763	0.0173252
820.841	0.0172217
820.919	0.0172277
820.997	0.0170703
821.075	0.0170885
821.154	0.0172170
821.232	0.0170944
821.310	0.0170148
821.388	0.0170190
821.466	0.0170288
821.544	0.0170688
821.622	0.0169039
821.700	0.0169714
821.779	0.0169171
821.857	0.0170130
821.935	0.0170293
822.013	0.0170103
822.091	0.0170462
822.169	0.0168673
822.247	0.0170447
822.325	0.0169776
822.404	0.0170856
822.482	0.0171460
822.560	0.0170540
822.638	0.0169263
822.716	0.0169780
822.794	0.0170758
822.872	0.0170326
822.950	0.0170416
823.029	0.0169689
823.107	0.0169316
823.185	0.0170736
823.263	0.0169032
823.341	0.0168218
823.419	0.0170544
823.497	0.0169062
823.575	0.0167928
823.654	0.0168072
823.732	0.0168684
823.810	0.0167238
823.888	0.0167478
823.966	0.0169005
824.044	0.0168565
824.122	0.0166479
824.200	0.0166905
824.279	0.0166448
824.357	0.0168331
824.435	0.0167582
824.513	0.0167809
824.591	0.0167999
824.669	0.0166793
824.747	0.0167461
824.825	0.0167361
824.904	0.0167122
824.982	0.0168597
825.060	0.0168391
825.138	0.0167447
825.216	0.0167387
825.294	0.0169480
825.372	0.0167876
825.450	0.0168720
825.529	0.0169039
825.607	0.0169973
825.685	0.0171429
825.763	0.0172552
825.841	0.0172781
825.919	0.0173631
825.997	0.0173677
826.075	0.0173994
826.154	0.0174645
826.232	0.0176137
826.310	0.0175420
826.388	0.0175188
826.466	0.0175323
826.544	0.0175330
826.622	0.0174984
826.700	0.0175207
826.779	0.0175254
826.857	0.0174229
826.935	0.0173799
827.013	0.0173744
827.091	0.0174037
827.169	0.0172725
827.247	0.0171917
827.325	0.0170612
827.404	0.0171742
827.482	0.0172475
827.560	0.0172209
827.638	0.0172188
827.716	0.0171403
827.794	0.0170220
827.872	0.0171286
827.950	0.0171353
828.029	0.0171851
828.107	0.0172075
828.185	0.0172004
828.263	0.0172073
828.341	0.0171614
828.419	0.0172643
828.497	0.0171870
828.575	0.0170995
828.654	0.0172254
828.732	0.0171960
828.810	0.0171242
828.888	0.0171096
828.966	0.0170614
829.044	0.0170663
829.122	0.0171400
829.200	0.0169610
829.279	0.0172043
829.357	0.0170552
829.435	0.0170370
829.513	0.0169070
829.591	0.0169897
829.669	0.0170184
829.747	0.0167587
829.825	0.0168714
829.904	0.0170099
829.982	0.0168310
830.060	0.0168679
830.138	0.0169076
830.216	0.0169044
830.294	0.0168211
830.372	0.0169236
830.450	0.0170052
830.529	0.0169306
830.607	0.0168580
830.685	0.0168770
830.763	0.0168407
830.841	0.0169202
830.919	0.0170007
830.997	0.0170407
831.075	0.0170016
831.154	0.0169460
831.232	0.0168268
831.310	0.0170137
831.388	0.0170052
831.466	0.0169637
831.544	0.0170232
831.622	0.0170351
831.700	0.0170680
831.779	0.0169453
831.857	0.0170271
831.935	0.0170104
832.013	0.0169279
832.091	0.0170285
832.169	0.0169488
832.247	0.0170293
832.325	0.0171227
832.404	0.0170025
832.482	0.0170555
832.560	0.0171167
832.638	0.0172440
832.716	0.0172381
832.794	0.0171720
832.872	0.0170823
832.950	0.0170458
833.029	0.0171292
833.107	0.0172618
833.185	0.0171294
833.263	0.0172594
833.341	0.0171214
833.419	0.0170866
833.497	0.0169574
833.575	0.0171089
833.654	0.0169607
833.732	0.0171536
833.810	0.0171251
833.888	0.0169171
833.966	0.0171210
834.044	0.0171749
834.122	0.0172300
834.200	0.0172086
834.279	0.0172231
834.357	0.0172438
834.435	0.0170605
834.513	0.0172237
834.591	0.0173540
834.669	0.0171929
834.747	0.0171641
834.825	0.0173222
834.904	0.0172852
834.982	0.0172554
835.060	0.0172002
835.138	0.0172435
835.216	0.0172575
835.294	0.0170872
835.372	0.0170883
835.450	0.0171904
835.529	0.0171764
835.607	0.0171556
835.685	0.0170108
835.763	0.0172376
835.841	0.0172204
835.919	0.0171109
835.997	0.0170665
836.075	0.0170390
836.154	0.0170175
836.232	0.0169279
836.310	0.0170309
836.388	0.0169726
836.466	0.0167553
836.544	0.0169463
836.622	0.0167920
836.700	0.0167829
836.779	0.0168204
836.857	0.0167616
836.935	0.0167692
837.013	0.0168246
837.091	0.0168726
837.169	0.0167908
837.247	0.0168571
837.325	0.0169070
837.404	0.0167952
837.482	0.0169616
837.560	0.0170035
837.638	0.0170425
837.716	0.0170953
837.794	0.0170505
837.872	0.0170106
837.950	0.0172166
838.029	0.0171092
838.107	0.0169505
838.185	0.0170303
838.263	0.0169299
838.341	0.0169344
838.419	0.0169841
838.497	0.0168929
838.575	0.0170068
838.654	0.0172223
838.732	0.0170770
838.810	0.0170793
838.888	0.0172384
838.966	0.0171563
839.044	0.0170828
839.122	0.0172020
839.200	0.0172018
839.279	0.0174015
839.357	0.0171596
839.435	0.0171714
839.513	0.0171380
839.591	0.0172923
839.669	0.0171848
839.747	0.0173028
839.825	0.0171909
839.904	0.0169144
839.982	0.0169758
840.060	0.0170963
840.138	0.0170448
840.216	0.0169849
840.294	0.0168243
840.372	0.0169213
840.450	0.0170100
840.529	0.0171403
840.607	0.0170206
840.685	0.0170049
840.763	0.0170678
840.841	0.0171162
840.919	0.0172063
840.997	0.0171316
841.075	0.0173792
841.154	0.0172159
841.232	0.0170884
841.310	0.0171698
841.388	0.0171590
841.466	0.0171400
841.544	0.0171052
841.622	0.0171265
841.700	0.0172540
841.779	0.0170570
841.857	0.0169028
841.935	0.0170522
842.013	0.0171342
842.091	0.0169211
842.169	0.0169345
842.247	0.0168437
842.325	0.0169234
842.404	0.0169036
842.482	0.0168997
842.560	0.0168374
842.638	0.0169984
842.716	0.0169550
842.794	0.0168979
842.872	0.0167944
842.950	0.0169046
843.029	0.0169756
843.107	0.0171285
843.185	0.0168993
843.263	0.0169514
843.341	0.0170602
843.419	0.0169275
843.497	0.0170644
843.575	0.0170364
843.654	0.0171002
843.732	0.0170470
843.810	0.0170057
843.888	0.0170779
843.966	0.0171709
844.044	0.0172203
844.122	0.0171753
844.200	0.0173907
844.279	0.0173125
844.357	0.0172625
844.435	0.0172811
844.513	0.0173524
844.591	0.0172560
844.669	0.0173182
844.747	0.0172939
844.825	0.0173283
844.904	0.0172385
844.982	0.0172939
845.060	0.0171856
845.138	0.0170762
845.216	0.0171648
845.294	0.0170538
845.372	0.0171016
845.450	0.0169848
845.529	0.0168655
845.607	0.0169817
845.685	0.0169223
845.763	0.0168533
845.841	0.0168690
845.919	0.0168385
845.997	0.0168898
846.075	0.0169350
846.154	0.0169571
846.232	0.0170603
846.310	0.0172140
846.388	0.0172190
846.466	0.0170796
846.544	0.0171903
846.622	0.0172909
846.700	0.0172674
846.779	0.0171475
846.857	0.0171878
846.935	0.0172066
847.013	0.0172580
847.091	0.0172880
847.169	0.0170683
847.247	0.0171698
847.325	0.0171618
847.404	0.0171605
847.482	0.0171333
847.560	0.0171718
847.638	0.0170552
847.716	0.0170993
847.794	0.0170522
847.872	0.0169554
847.950	0.0170724
848.029	0.0169530
848.107	0.0171323
848.185	0.0169728
848.263	0.0167960
848.341	0.0170025
848.419	0.0169527
848.497	0.0168276
848.575	0.0169254
848.654	0.0168556
848.732	0.0167860
848.810	0.0168100
848.888	0.0169843
848.966	0.0169021
849.044	0.0169103
849.122	0.0166451
849.200	0.0168096
849.279	0.0168668
849.357	0.0168591
849.435	0.0168817
849.513	0.0170527
849.591	0.0170248
849.669	0.0170457
849.747	0.0169688
849.825	0.0170701
849.904	0.0169926
849.982	0.0170543
850.060	0.0172376
850.138	0.0172584
850.216	0.0173243
850.294	0.0172414
850.372	0.0172224
850.450	0.0172279
850.529	0.0173798
850.607	0.0173183
850.685	0.0173257
850.763	0.0172486
850.841	0.0173477
850.919	0.0172716
850.997	0.0172964
851.075	0.0172702
851.154	0.0172631
851.232	0.0172825
851.310	0.0173026
851.388	0.0173586
851.466	0.0172637
851.544	0.0173574
851.622	0.0173274
851.700	0.0171376
851.779	0.0171127
851.857	0.0170660
851.935	0.0170612
852.013	0.0170107
852.091	0.0169926
852.169	0.0167850
852.247	0.0169260
852.325	0.0168957
852.404	0.0169176
852.482	0.0169133
852.560	0.0169090
852.638	0.0169843
852.716	0.0169727
852.794	0.0170779
852.872	0.0171043
852.950	0.0170887
853.029	0.0170880
853.107	0.0171177
853.185	0.0173005
853.263	0.0173837
853.341	0.0173138
853.419	0.0170879
853.497	0.0170937
853.575	0.0172251
853.654	0.0171524
853.732	0.0172862
853.810	0.0171036
853.888	0.0171307
853.966	0.0171140
854.044	0.0170029
854.122	0.0171154
854.200	0.0171079
854.279	0.0170686
854.357	0.0170702
854.435	0.0170924
854.513	0.0169487
854.591	0.0171043
854.669	0.0171032
854.747	0.0172033
854.825	0.0170218
854.904	0.0170634
854.982	0.0171111
855.060	0.0168568
855.138	0.0169364
855.216	0.0170152
855.294	0.0170417
855.372	0.0169618
855.450	0.0169375
855.529	0.0168337
855.607	0.0169884
855.685	0.0168482
855.763	0.0168632
855.841	0.0167832
855.919	0.0167467
855.997	0.0169939
856.075	0.0168726
856.154	0.0167313
856.232	0.0167924
856.310	0.0168356
856.388	0.0168928
856.466	0.0169226
856.544	0.0169090
856.622	0.0170127
856.700	0.0170261
856.779	0.0170084
856.857	0.0168207
856.935	0.0169691
857.013	0.0169032
857.091	0.0169472
857.169	0.0168784
857.247	0.0168699
857.325	0.0169077
857.404	0.0168648
857.482	0.0168578
857.560	0.0169001
857.638	0.0168818
857.716	0.0171454
857.794	0.0171594
857.872	0.0172989
857.950	0.0171174
858.029	0.0173928
858.107	0.0175957
858.185	0.0173418
858.263	0.0176496
858.341	0.0176786
858.419	0.0177367
858.497	0.0175900
858.575	0.0176764
858.654	0.0175710
858.732	0.0174691
858.810	0.0177123
858.888	0.0174373
858.966	0.0172838
859.044	0.0174721
859.122	0.0172754
859.200	0.0173110
859.279	0.0172522
859.357	0.0171191
859.435	0.0170426
859.513	0.0171503
859.591	0.0168527
859.669	0.0169755
859.747	0.0169278
859.825	0.0169071
859.904	0.0169405
859.982	0.0169640
860.060	0.0168781
860.138	0.0168624
860.216	0.0168005
860.294	0.0167606
860.372	0.0167763
860.450	0.0168304
860.529	0.0167733
860.607	0.0169238
860.685	0.0168542
860.763	0.0168347
860.841	0.0167873
860.919	0.0168803
860.997	0.0169245
861.075	0.0170399
861.154	0.0171340
861.232	0.0171149
861.310	0.0169649
861.388	0.0170617
861.466	0.0170898
861.544	0.0169914
861.622	0.0170284
861.700	0.0168124
861.779	0.0168652
861.857	0.0169119
861.935	0.0168951
862.013	0.0168315
862.091	0.0168993
862.169	0.0167796
862.247	0.0166813
862.325	0.0168536
862.404	0.0168368
862.482	0.0168396
862.560	0.0168793
862.638	0.0169220
862.716	0.0170171
862.794	0.0170307
862.872	0.0169796
862.950	0.0169928
863.029	0.0173024
863.107	0.0172934
863.185	0.0173628
863.263	0.0171882
863.341	0.0173461
863.419	0.0173301
863.497	0.0172620
863.575	0.0174731
863.654	0.0174680
863.732	0.0173071
863.810	0.0174023
863.888	0.0173340
863.966	0.0173797
864.044	0.0174153
864.122	0.0173728
864.200	0.0172612
864.279	0.0172529
864.357	0.0172723
864.435	0.0172659
864.513	0.0172734
864.591	0.0171632
864.669	0.0169962
864.747	0.0171806
864.825	0.0169630
864.904	0.0172508
864.982	0.0171215
865.060	0.0170205
865.138	0.0169224
865.216	0.0170511
865.294	0.0170634
865.372	0.0170039
865.450	0.0170271
865.529	0.0170187
865.607	0.0169674
865.685	0.0169592
865.763	0.0169917
865.841	0.0168398
865.919	0.0167731
865.997	0.0168826
866.075	0.0170790
866.154	0.0170898
866.232	0.0170002
866.310	0.0169421
866.388	0.0170295
866.466	0.0170403
866.544	0.0171669
866.622	0.0171294
866.700	0.0171991
866.779	0.0171233
866.857	0.0170184
866.935	0.0170255
867.013	0.0171925
867.091	0.0171100
867.169	0.0170589
867.247	0.0170298
867.325	0.0169296
867.404	0.0169958
867.482	0.0168681
867.560	0.0168871
867.638	0.0168864
867.716	0.0167237
867.794	0.0167975
867.872	0.0167486
867.950	0.0166202
868.029	0.0166579
868.107	0.0166689
868.185	0.0166113
868.263	0.0166482
868.341	0.0167629
868.419	0.0167421
868.497	0.0167572
868.575	0.0169216
868.654	0.0170327
868.732	0.0171289
868.810	0.0169151
868.888	0.0169892
868.966	0.0171914
869.044	0.0172581
869.122	0.0173703
869.200	0.0174437
869.279	0.0174023
869.357	0.0174091
869.435	0.0173736
869.513	0.0175648
869.591	0.0176630
869.669	0.0175739
869.747	0.0175064
869.825	0.0175908
869.904	0.0176401
869.982	0.0175015
870.060	0.0175919
870.138	0.0173399
870.216	0.0172082
870.294	0.0171041
870.372	0.0170424
870.450	0.0170195
870.529	0.0169031
870.607	0.0167532
870.685	0.0167484
870.763	0.0166680
870.841	0.0166963
870.919	0.0166663
870.997	0.0166895
871.075	0.0167776
871.154	0.0168880
871.232	0.0170252
871.310	0.0172498
871.388	0.0170873
871.466	0.0171749
871.544	0.0172216
871.622	0.0174887
871.700	0.0174531
871.779	0.0173489
871.857	0.0172497
871.935	0.0172403
872.013	0.0171886
872.091	0.0170380
872.169	0.0171077
872.247	0.0169342
872.325	0.0168896
872.404	0.0167392
872.482	0.0167984
872.560	0.0166759
872.638	0.0166656
872.716	0.0167399
872.794	0.0167016
872.872	0.0166415
872.950	0.0166713
873.029	0.0166978
873.107	0.0167863
873.185	0.0167748
873.263	0.0168153
873.341	0.0167834
873.419	0.0168240
873.497	0.0168819
873.575	0.0168259
873.654	0.0167019
873.732	0.0167446
873.810	0.0166818
873.888	0.0166244
873.966	0.0167011
874.044	0.0166636
874.122	0.0166882
874.200	0.0168241
874.279	0.0167934
874.357	0.0167892
874.435	0.0169109
874.513	0.0170834
874.591	0.0171622
874.669	0.0172629
874.747	0.0174144
874.825	0.0175587
874.904	0.0174075
874.982	0.0174656
875.060	0.0175203
875.138	0.0174499
875.216	0.0176617
875.294	0.0175169
875.372	0.0172971
875.450	0.0173534
875.529	0.0174474
875.607	0.0173855
875.685	0.0173750
875.763	0.0175796
875.841	0.0174387
875.919	0.0173886
875.997	0.0173657
876.075	0.0173013
876.154	0.0173312
876.232	0.0171410
876.310	0.0169638
876.388	0.0171490
876.466	0.0170756
876.544	0.0170761
876.622	0.0168362
876.700	0.0168446
876.779	0.0168554
876.857	0.0167608
876.935	0.0167424
877.013	0.0167775
877.091	0.0165475
877.169	0.0166359
877.247	0.0166425
877.325	0.0167213
877.404	0.0167574
877.482	0.0167954
877.560	0.0167741
877.638	0.0167577
877.716	0.0168951
877.794	0.0169679
877.872	0.0169187
877.950	0.0168951
878.029	0.0171210
878.107	0.0170570
878.185	0.0171352
878.263	0.0170948
878.341	0.0171791
878.419	0.0171840
878.497	0.0170263
878.575	0.0171049
878.654	0.0171522
878.732	0.0171326
878.810	0.0172205
878.888	0.0172592
878.966	0.0173552
879.044	0.0171419
879.122	0.0173000
879.200	0.0171855
879.279	0.0172108
879.357	0.0172371
879.435	0.0170694
879.513	0.0169868
879.591	0.0169086
879.669	0.0169450
879.747	0.0168893
879.825	0.0168073
879.904	0.0167789
879.982	0.0165979
880.060	0.0167672
880.138	0.0167322
880.216	0.0167345
880.294	0.0166694
880.372	0.0165627
880.450	0.0166959
880.529	0.0167231
880.607	0.0167522
880.685	0.0168431
880.763	0.0168098
880.841	0.0169685
880.919	0.0169911
880.997	0.0170816
881.075	0.0171043
881.154	0.0171680
881.232	0.0171996
881.310	0.0171198
881.388	0.0172570
881.466	0.0172847
881.544	0.0170943
881.622	0.0171300
881.700	0.0172205
881.779	0.0171935
881.857	0.0171407
881.935	0.0169598
882.013	0.0170768
882.091	0.0171929
882.169	0.0171518
882.247	0.0170351
882.325	0.0171144
882.404	0.0170258
882.482	0.0171214
882.560	0.0170927
882.638	0.0169495
882.716	0.0172717
882.794	0.0171929
882.872	0.0169950
882.950	0.0170222
883.029	0.0169145
883.107	0.0167500
883.185	0.0169971
883.263	0.0169597
883.341	0.0170463
883.419	0.0170069
883.497	0.0170062
883.575	0.0172124
883.654	0.0170245
883.732	0.0171825
883.810	0.0172066
883.888	0.0173203
883.966	0.0172671
884.044	0.0173265
884.122	0.0173798
884.200	0.0173454
884.279	0.0173586
884.357	0.0173162
884.435	0.0172525
884.513	0.0174261
884.591	0.0173215
884.669	0.0173098
884.747	0.0174506
884.825	0.0173051
884.904	0.0173874
884.982	0.0173940
885.060	0.0173706
885.138	0.0174165
885.216	0.0172840
885.294	0.0172817
885.372	0.0172257
885.450	0.0172776
885.529	0.0171805
885.607	0.0170744
885.685	0.0168497
885.763	0.0167543
885.841	0.0168455
885.919	0.0164928
885.997	0.0164140
886.075	0.0162428
886.154	0.0161713
886.232	0.0163100
886.310	0.0161621
886.388	0.0161792
886.466	0.0162521
886.544	0.0162959
886.622	0.0163779
886.700	0.0165232
886.779	0.0167010
886.857	0.0166857
886.935	0.0168278
887.013	0.0168740
887.091	0.0169572
887.169	0.0170965
887.247	0.0172058
887.325	0.0172425
887.404	0.0172141
887.482	0.0172231
887.560	0.0174131
887.638	0.0174271
887.716	0.0174107
887.794	0.0173660
887.872	0.0174136
887.950	0.0174113
888.029	0.0174066
888.107	0.0173588
888.185	0.0173975
888.263	0.0174845
888.341	0.0172882
888.419	0.0172426
888.497	0.0172218
888.575	0.0173194
888.654	0.0172108
888.732	0.0171174
888.810	0.0170826
888.888	0.0172560
888.966	0.0171705
889.044	0.0171889
889.122	0.0170818
889.200	0.0170200
889.279	0.0170826
889.357	0.0170867
889.435	0.0170654
889.513	0.0171497
889.591	0.0170772
889.669	0.0171628
889.747	0.0171584
889.825	0.0170364
889.904	0.0171405
889.982	0.0172580
890.060	0.0171913
890.138	0.0172110
890.216	0.0172070
890.294	0.0173454
890.372	0.0173703
890.450	0.0172229
890.529	0.0172413
890.607	0.0172784
890.685	0.0171333
890.763	0.0171852
890.841	0.0172585
890.919	0.0171938
890.997	0.0170051
891.075	0.0172813
891.154	0.0172372
891.232	0.0171097
891.310	0.0171791
891.388	0.0171302
891.466	0.0171684
891.544	0.0170795
891.622	0.0170757
891.700	0.0170850
891.779	0.0170853
891.857	0.0170431
891.935	0.0169372
892.013	0.0168622
892.091	0.0168024
892.169	0.0167408
892.247	0.0165851
892.325	0.0165170
892.404	0.0165942
892.482	0.0164893
892.560	0.0163750
892.638	0.0164475
892.716	0.0164458
892.794	0.0164306
892.872	0.0165514
892.950	0.0166324
893.029	0.0165395
893.107	0.0167117
893.185	0.0168273
893.263	0.0166911
893.341	0.0168699
893.419	0.0168209
893.497	0.0169511
893.575	0.0172531
893.654	0.0172520
893.732	0.0172470
893.810	0.0172124
893.888	0.0171829
893.966	0.0173788
894.044	0.0173874
894.122	0.0173147
894.200	0.0172249
894.279	0.0172668
894.357	0.0174281
894.435	0.0173151
894.513	0.0174170
894.591	0.0171464
894.669	0.0172763
894.747	0.0170366
894.825	0.0172033
894.904	0.0172169
894.982	0.0171911
895.060	0.0171372
895.138	0.0171948
895.216	0.0171526
895.294	0.0172135
895.372	0.0171564
895.450	0.0170626
895.529	0.0171249
895.607	0.0172208
895.685	0.0172283
895.763	0.0172968
895.841	0.0170855
895.919	0.0169746
895.997	0.0171162
896.075	0.0170548
896.154	0.0172743
896.232	0.0170853
896.310	0.0172533
896.388	0.0170866
896.466	0.0170306
896.544	0.0170576
896.622	0.0172110
896.700	0.0172272
896.779	0.0171473
896.857	0.0172977
896.935	0.0172118
897.013	0.0170738
897.091	0.0171987
897.169	0.0171919
897.247	0.0171246
897.325	0.0170980
897.404	0.0171642
897.482	0.0171722
897.560	0.0172572
897.638	0.0170364
897.716	0.0170781
897.794	0.0170155
897.872	0.0170547
897.950	0.0170589
898.029	0.0169181
898.107	0.0169420
898.185	0.0170831
898.263	0.0168143
898.341	0.0168604
898.419	0.0170712
898.497	0.0167815
898.575	0.0166462
898.654	0.0168727
898.732	0.0167442
898.810	0.0166757
898.888	0.0168638
898.966	0.0167716
899.044	0.0166236
899.122	0.0165533
899.200	0.0168954
899.279	0.0169466
899.357	0.0169496
899.435	0.0167931
899.513	0.0170634
899.591	0.0170014
899.669	0.0169881
899.747	0.0170742
899.825	0.0168877
899.904	0.0172107
899.982	0.0171311
900.060	0.0171963
900.138	0.0172188
900.216	0.0172379
900.294	0.0172891
900.372	0.0170587
900.450	0.0171718
900.529	0.0170369
900.607	0.0171613
900.685	0.0172330
900.763	0.0171363
900.841	0.0171058
900.919	0.0170952
900.997	0.0169776
901.075	0.0171124
901.154	0.0171307
901.232	0.0171416
901.310	0.0171084
901.388	0.0171306
901.466	0.0171449
901.544	0.0171841
901.622	0.0173566
901.700	0.0173769
901.779	0.0172466
901.857	0.0172797
901.935	0.0173756
902.013	0.0174184
902.091	0.0174111
902.169	0.0174191
902.247	0.0173447
902.325	0.0174324
902.404	0.0173347
902.482	0.0173093
902.560	0.0173040
902.638	0.0174091
902.716	0.0173689
902.794	0.0173875
902.872	0.0174421
902.950	0.0173095
903.029	0.0173997
903.107	0.0172658
903.185	0.0172192
903.263	0.0171562
903.341	0.0172207
903.419	0.0171997
903.497	0.0171364
903.575	0.0171589
903.654	0.0171210
903.732	0.0170140
903.810	0.0170745
903.888	0.0171106
903.966	0.0169518
904.044	0.0169698
904.122	0.0167309
904.200	0.0167954
904.279	0.0168575
904.357	0.0168246
904.435	0.0168617
904.513	0.0167033
904.591	0.0167585
904.669	0.0168090
904.747	0.0168128
904.825	0.0166000
904.904	0.0167107
904.982	0.0167184
905.060	0.0167504
905.138	0.0167383
905.216	0.0166457
905.294	0.0167994
905.372	0.0169158
905.450	0.0171952
905.529	0.0171182
905.607	0.0169582
905.685	0.0169922
905.763	0.0170802
905.841	0.0171056
905.919	0.0171405
905.997	0.0172431
906.075	0.0172865
906.154	0.0173124
906.232	0.0172520
906.310	0.0172091
906.388	0.0172297
906.466	0.0171547
906.544	0.0172166
906.622	0.0169884
906.700	0.0169434
906.779	0.0168700
906.857	0.0170025
906.935	0.0170991
907.013	0.0170467
907.091	0.0169736
907.169	0.0170646
907.247	0.0171046
907.325	0.0170994
907.404	0.0170496
907.482	0.0170950
907.560	0.0170812
907.638	0.0170025
907.716	0.0169808
907.794	0.0170853
907.872	0.0170345
907.950	0.0171367
908.029	0.0171938
908.107	0.0172316
908.185	0.0171433
908.263	0.0170861
908.341	0.0171806
908.419	0.0171764
908.497	0.0172376
908.575	0.0173399
908.654	0.0172843
908.732	0.0173067
908.810	0.0173104
908.888	0.0172274
908.966	0.0171878
909.044	0.0171371
909.122	0.0172012
909.200	0.0171342
909.279	0.0172182
909.357	0.0172385
909.435	0.0170809
909.513	0.0171365
909.591	0.0170278
909.669	0.0170462
909.747	0.0171240
909.825	0.0170607
909.904	0.0172671
909.982	0.0170985
910.060	0.0170030
910.138	0.0171092
910.216	0.0171587
910.294	0.0170878
910.372	0.0170492
910.450	0.0169268
910.529	0.0170872
910.607	0.0171879
910.685	0.0169299
910.763	0.0168956
910.841	0.0170195
910.919	0.0169510
910.997	0.0171400
911.075	0.0170441
911.154	0.0170866
911.232	0.0170896
911.310	0.0170194
911.388	0.0170135
911.466	0.0171025
911.544	0.0171104
911.622	0.0169827
911.700	0.0170855
911.779	0.0171042
911.857	0.0171051
911.935	0.0170264
912.013	0.0170316
912.091	0.0171622
912.169	0.0172276
912.247	0.0170724
912.325	0.0169649
912.404	0.0169994
912.482	0.0171345
912.560	0.0169760
912.638	0.0168996
912.716	0.0169802
912.794	0.0169621
912.872	0.0170213
912.950	0.0170078
913.029	0.0170084
913.107	0.0169874
913.185	0.0168851
913.263	0.0169230
913.341	0.0171223
913.419	0.0170502
913.497	0.0170611
913.575	0.0169533
913.654	0.0169621
913.732	0.0168045
913.810	0.0169341
913.888	0.0170029
913.966	0.0171234
914.044	0.0170844
914.122	0.0170421
914.200	0.0170679
914.279	0.0170199
914.357	0.0169844
914.435	0.0170727
914.513	0.0171145
914.591	0.0171493
914.669	0.0170542
914.747	0.0170776
914.825	0.0170576
914.904	0.0170022
914.982	0.0171045
915.060	0.0170524
915.138	0.0170693
915.216	0.0168999
915.294	0.0168180
915.372	0.0169085
915.450	0.0167845
915.529	0.0168855
915.607	0.0170037
915.685	0.0169598
915.763	0.0169095
915.841	0.0170555
915.919	0.0170442
915.997	0.0169726
916.075	0.0169949
916.154	0.0170665
916.232	0.0170428
916.310	0.0170979
916.388	0.0172065
916.466	0.0172386
916.544	0.0173409
916.622	0.0172239
916.700	0.0172852
916.779	0.0173574
916.857	0.0171732
916.935	0.0172567
917.013	0.0173888
917.091	0.0173792
917.169	0.0174099
917.247	0.0174881
917.325	0.0173296
917.404	0.0173092
917.482	0.0174948
917.560	0.0173687
917.638	0.0173434
917.716	0.0173916
917.794	0.0172973
917.872	0.0172337
917.950	0.0173235
918.029	0.0173077
918.107	0.0171499
918.185	0.0170518
918.263	0.0170969
918.341	0.0171214
918.419	0.0170887
918.497	0.0170107
918.575	0.0169979
918.654	0.0169756
918.732	0.0168481
918.810	0.0169012
918.888	0.0168792
918.966	0.0166882
919.044	0.0168779
919.122	0.0168394
919.200	0.0166726
919.279	0.0167632
919.357	0.0168443
919.435	0.0168187
919.513	0.0166841
919.591	0.0168642
919.669	0.0167856
919.747	0.0166861
919.825	0.0169176
919.904	0.0168681
