06/01/2022	17:30:15	Ver.	4.1	UNKNOWN
Optical Delay	599.981738	Delta X		0.078125	Sweeps	1	Scan Rate	0/0
Coordinates	Axis 1	NaN	Axis 2	NaN	Axis 3	NaN	Axis 4	NaN	Axis 5	NaN	Axis 6	0.000000
TX Power	0.000000	RX Power	0.000000

599.982	0.0166669
600.060	0.0166760
600.138	0.0166537
600.216	0.0166514
600.294	0.0165611
600.372	0.0166467
600.450	0.0166811
600.529	0.0169159
600.607	0.0166982
600.685	0.0165907
600.763	0.0166164
600.841	0.0165759
600.919	0.0168125
600.997	0.0167265
601.075	0.0166254
601.154	0.0165391
601.232	0.0167059
601.310	0.0166428
601.388	0.0168504
601.466	0.0165172
601.544	0.0165818
601.622	0.0167362
601.700	0.0168050
601.779	0.0166492
601.857	0.0166248
601.935	0.0165234
602.013	0.0165947
602.091	0.0167529
602.169	0.0166502
602.247	0.0165456
602.325	0.0167519
602.404	0.0167041
602.482	0.0168006
602.560	0.0166969
602.638	0.0167174
602.716	0.0167260
602.794	0.0167089
602.872	0.0167355
602.950	0.0166815
603.029	0.0166017
603.107	0.0167482
603.185	0.0166422
603.263	0.0167032
603.341	0.0167717
603.419	0.0167679
603.497	0.0166639
603.575	0.0166396
603.654	0.0167513
603.732	0.0167881
603.810	0.0166235
603.888	0.0166985
603.966	0.0167329
604.044	0.0167569
604.122	0.0167010
604.200	0.0167393
604.279	0.0165826
604.357	0.0168149
604.435	0.0167355
604.513	0.0166855
604.591	0.0165111
604.669	0.0166789
604.747	0.0167696
604.825	0.0165909
604.904	0.0166486
604.982	0.0166747
605.060	0.0166478
605.138	0.0165240
605.216	0.0165450
605.294	0.0166756
605.372	0.0166692
605.450	0.0166402
605.529	0.0166042
605.607	0.0167049
605.685	0.0166159
605.763	0.0165186
605.841	0.0165788
605.919	0.0166489
605.997	0.0167496
606.075	0.0166759
606.154	0.0166217
606.232	0.0165110
606.310	0.0166058
606.388	0.0166089
606.466	0.0164677
606.544	0.0167398
606.622	0.0166182
606.700	0.0167500
606.779	0.0166594
606.857	0.0166559
606.935	0.0166561
607.013	0.0166846
607.091	0.0166847
607.169	0.0166611
607.247	0.0167184
607.325	0.0166567
607.404	0.0166267
607.482	0.0166877
607.560	0.0166557
607.638	0.0168139
607.716	0.0166940
607.794	0.0165241
607.872	0.0167522
607.950	0.0166273
608.029	0.0167553
608.107	0.0166586
608.185	0.0166966
608.263	0.0166482
608.341	0.0167076
608.419	0.0166790
608.497	0.0166868
608.575	0.0166714
608.654	0.0166670
608.732	0.0166133
608.810	0.0167113
608.888	0.0165997
608.966	0.0165314
609.044	0.0168125
609.122	0.0166944
609.200	0.0166743
609.279	0.0166691
609.357	0.0167465
609.435	0.0166111
609.513	0.0167575
609.591	0.0166986
609.669	0.0166695
609.747	0.0166908
609.825	0.0166739
609.904	0.0166215
609.982	0.0167031
610.060	0.0165512
610.138	0.0165874
610.216	0.0166889
610.294	0.0166664
610.372	0.0167275
610.450	0.0166414
610.529	0.0166576
610.607	0.0166624
610.685	0.0167220
610.763	0.0167357
610.841	0.0166067
610.919	0.0165466
610.997	0.0166734
611.075	0.0167227
611.154	0.0166956
611.232	0.0164793
611.310	0.0167686
611.388	0.0166843
611.466	0.0166558
611.544	0.0165108
611.622	0.0166505
611.700	0.0168031
611.779	0.0166109
611.857	0.0166503
611.935	0.0166293
612.013	0.0165824
612.091	0.0165569
612.169	0.0167249
612.247	0.0166467
612.325	0.0167027
612.404	0.0167014
612.482	0.0164948
612.560	0.0165409
612.638	0.0167524
612.716	0.0166864
612.794	0.0166330
612.872	0.0167394
612.950	0.0166183
613.029	0.0167344
613.107	0.0166036
613.185	0.0165639
613.263	0.0165459
613.341	0.0166691
613.419	0.0166447
613.497	0.0166811
613.575	0.0166027
613.654	0.0168166
613.732	0.0167191
613.810	0.0166882
613.888	0.0166130
613.966	0.0168056
614.044	0.0167562
614.122	0.0167233
614.200	0.0165508
614.279	0.0165961
614.357	0.0165952
614.435	0.0166663
614.513	0.0167615
614.591	0.0165192
614.669	0.0166062
614.747	0.0167533
614.825	0.0167516
614.904	0.0167607
614.982	0.0166933
615.060	0.0166676
615.138	0.0167661
615.216	0.0167455
615.294	0.0166943
615.372	0.0166841
615.450	0.0166817
615.529	0.0165130
615.607	0.0167445
615.685	0.0167845
615.763	0.0166083
615.841	0.0166843
615.919	0.0166859
615.997	0.0165836
616.075	0.0166823
616.154	0.0167135
616.232	0.0167292
616.310	0.0167009
616.388	0.0166711
616.466	0.0167030
616.544	0.0167250
616.622	0.0167739
616.700	0.0166592
616.779	0.0167661
616.857	0.0166325
616.935	0.0167660
617.013	0.0168157
617.091	0.0166682
617.169	0.0166401
617.247	0.0166061
617.325	0.0166857
617.404	0.0166708
617.482	0.0167558
617.560	0.0166990
617.638	0.0166714
617.716	0.0166700
617.794	0.0167574
617.872	0.0166608
617.950	0.0166325
618.029	0.0166805
618.107	0.0168354
618.185	0.0167818
618.263	0.0167374
618.341	0.0167992
618.419	0.0165342
618.497	0.0167023
618.575	0.0167821
618.654	0.0167527
618.732	0.0166324
618.810	0.0166750
618.888	0.0166906
618.966	0.0166867
619.044	0.0166446
619.122	0.0166235
619.200	0.0165385
619.279	0.0166421
619.357	0.0166754
619.435	0.0166375
619.513	0.0166194
619.591	0.0166425
619.669	0.0166998
619.747	0.0166471
619.825	0.0164950
619.904	0.0167923
619.982	0.0167013
620.060	0.0166333
620.138	0.0167149
620.216	0.0166956
620.294	0.0167489
620.372	0.0167567
620.450	0.0166697
620.529	0.0166893
620.607	0.0166470
620.685	0.0166414
620.763	0.0166589
620.841	0.0166451
620.919	0.0167235
620.997	0.0167244
621.075	0.0166702
621.154	0.0166477
621.232	0.0167484
621.310	0.0166315
621.388	0.0165306
621.466	0.0166279
621.544	0.0168404
621.622	0.0167003
621.700	0.0167393
621.779	0.0167055
621.857	0.0167288
621.935	0.0167604
622.013	0.0167403
622.091	0.0166641
622.169	0.0166627
622.247	0.0167771
622.325	0.0168159
622.404	0.0166576
622.482	0.0167664
622.560	0.0166772
622.638	0.0166943
622.716	0.0165466
622.794	0.0166417
622.872	0.0166348
622.950	0.0166624
623.029	0.0168009
623.107	0.0167018
623.185	0.0166156
623.263	0.0166261
623.341	0.0165033
623.419	0.0167587
623.497	0.0166186
623.575	0.0167876
623.654	0.0168217
623.732	0.0166091
623.810	0.0166379
623.888	0.0167130
623.966	0.0166624
624.044	0.0166997
624.122	0.0166484
624.200	0.0167598
624.279	0.0165907
624.357	0.0166820
624.435	0.0165495
624.513	0.0165966
624.591	0.0167294
624.669	0.0166619
624.747	0.0165681
624.825	0.0166915
624.904	0.0166106
624.982	0.0166409
625.060	0.0165648
625.138	0.0164426
625.216	0.0166267
625.294	0.0166764
625.372	0.0166808
625.450	0.0165454
625.529	0.0166174
625.607	0.0166797
625.685	0.0168064
625.763	0.0165638
625.841	0.0165372
625.919	0.0166073
625.997	0.0167544
626.075	0.0166571
626.154	0.0165846
626.232	0.0167779
626.310	0.0166512
626.388	0.0166279
626.466	0.0166306
626.544	0.0166827
626.622	0.0167583
626.700	0.0166857
626.779	0.0166378
626.857	0.0167202
626.935	0.0167517
627.013	0.0166740
627.091	0.0166467
627.169	0.0166170
627.247	0.0167572
627.325	0.0167695
627.404	0.0166811
627.482	0.0166647
627.560	0.0166759
627.638	0.0167368
627.716	0.0167314
627.794	0.0166132
627.872	0.0167509
627.950	0.0167924
628.029	0.0165361
628.107	0.0166566
628.185	0.0166311
628.263	0.0166350
628.341	0.0167081
628.419	0.0167106
628.497	0.0165300
628.575	0.0166759
628.654	0.0165916
628.732	0.0166086
628.810	0.0165678
628.888	0.0166522
628.966	0.0166656
629.044	0.0167249
629.122	0.0167756
629.200	0.0165452
629.279	0.0164905
629.357	0.0166424
629.435	0.0166248
629.513	0.0167236
629.591	0.0167339
629.669	0.0165766
629.747	0.0165527
629.825	0.0166774
629.904	0.0166721
629.982	0.0166205
630.060	0.0167552
630.138	0.0167247
630.216	0.0166702
630.294	0.0168211
630.372	0.0166698
630.450	0.0167136
630.529	0.0167148
630.607	0.0166672
630.685	0.0165918
630.763	0.0166982
630.841	0.0166234
630.919	0.0164939
630.997	0.0167606
631.075	0.0165661
631.154	0.0168407
631.232	0.0167348
631.310	0.0166669
631.388	0.0166598
631.466	0.0167416
631.544	0.0166343
631.622	0.0166054
631.700	0.0167403
631.779	0.0167026
631.857	0.0167590
631.935	0.0167350
632.013	0.0165623
632.091	0.0166631
632.169	0.0165428
632.247	0.0166778
632.325	0.0166653
632.404	0.0166155
632.482	0.0166087
632.560	0.0167400
632.638	0.0166337
632.716	0.0166277
632.794	0.0165071
632.872	0.0167596
632.950	0.0166625
633.029	0.0167448
633.107	0.0166507
633.185	0.0166225
633.263	0.0165530
633.341	0.0166306
633.419	0.0165929
633.497	0.0166006
633.575	0.0166223
633.654	0.0165784
633.732	0.0166338
633.810	0.0167156
633.888	0.0167442
633.966	0.0165602
634.044	0.0166840
634.122	0.0165970
634.200	0.0167149
634.279	0.0167097
634.357	0.0166176
634.435	0.0167293
634.513	0.0167008
634.591	0.0166827
634.669	0.0167345
634.747	0.0166716
634.825	0.0168000
634.904	0.0167068
634.982	0.0167517
635.060	0.0167767
635.138	0.0166293
635.216	0.0166664
635.294	0.0167014
635.372	0.0166526
635.450	0.0166702
635.529	0.0167812
635.607	0.0167851
635.685	0.0166662
635.763	0.0168774
635.841	0.0168894
635.919	0.0168252
635.997	0.0167011
636.075	0.0167167
636.154	0.0166447
636.232	0.0166514
636.310	0.0166880
636.388	0.0167021
636.466	0.0165903
636.544	0.0166798
636.622	0.0167319
636.700	0.0166141
636.779	0.0167577
636.857	0.0167413
636.935	0.0165324
637.013	0.0166218
637.091	0.0166367
637.169	0.0167343
637.247	0.0166425
637.325	0.0166122
637.404	0.0166882
637.482	0.0166138
637.560	0.0166592
637.638	0.0167828
637.716	0.0166991
637.794	0.0166486
637.872	0.0166123
637.950	0.0165952
638.029	0.0166114
638.107	0.0166999
638.185	0.0166571
638.263	0.0167350
638.341	0.0167383
638.419	0.0166686
638.497	0.0167170
638.575	0.0165823
638.654	0.0167191
638.732	0.0167779
638.810	0.0166307
638.888	0.0166765
638.966	0.0166514
639.044	0.0166074
639.122	0.0166470
639.200	0.0165427
639.279	0.0165575
639.357	0.0165172
639.435	0.0166962
639.513	0.0165202
639.591	0.0164648
639.669	0.0167225
639.747	0.0167213
639.825	0.0166628
639.904	0.0165315
639.982	0.0167442
640.060	0.0166405
640.138	0.0165526
640.216	0.0167760
640.294	0.0167455
640.372	0.0167230
640.450	0.0168023
640.529	0.0167850
640.607	0.0166879
640.685	0.0166953
640.763	0.0166807
640.841	0.0166993
640.919	0.0166412
640.997	0.0166317
641.075	0.0167135
641.154	0.0167914
641.232	0.0167341
641.310	0.0166548
641.388	0.0167082
641.466	0.0167443
641.544	0.0166676
641.622	0.0166307
641.700	0.0166879
641.779	0.0165425
641.857	0.0166498
641.935	0.0165701
642.013	0.0166998
642.091	0.0167249
642.169	0.0166726
642.247	0.0166926
642.325	0.0166830
642.404	0.0166653
642.482	0.0169105
642.560	0.0167867
642.638	0.0165589
642.716	0.0166505
642.794	0.0167582
642.872	0.0166788
642.950	0.0166266
643.029	0.0166689
643.107	0.0165310
643.185	0.0165652
643.263	0.0164627
643.341	0.0164739
643.419	0.0166967
643.497	0.0165394
643.575	0.0165300
643.654	0.0163277
643.732	0.0164674
643.810	0.0164127
643.888	0.0162322
643.966	0.0165230
644.044	0.0165262
644.122	0.0165704
644.200	0.0164796
644.279	0.0165735
644.357	0.0166941
644.435	0.0169029
644.513	0.0167976
644.591	0.0167524
644.669	0.0168723
644.747	0.0168124
644.825	0.0168150
644.904	0.0168548
644.982	0.0167445
645.060	0.0168102
645.138	0.0166218
645.216	0.0164758
645.294	0.0163259
645.372	0.0163386
645.450	0.0162646
645.529	0.0162286
645.607	0.0162373
645.685	0.0161564
645.763	0.0163439
645.841	0.0165177
645.919	0.0166087
645.997	0.0168256
646.075	0.0170220
646.154	0.0171660
646.232	0.0171999
646.310	0.0175564
646.388	0.0174591
646.466	0.0176343
646.544	0.0175641
646.622	0.0175881
646.700	0.0173138
646.779	0.0172478
646.857	0.0169295
646.935	0.0167921
647.013	0.0165353
647.091	0.0163418
647.169	0.0161883
647.247	0.0158751
647.325	0.0156598
647.404	0.0155857
647.482	0.0157703
647.560	0.0156721
647.638	0.0157480
647.716	0.0159146
647.794	0.0158550
647.872	0.0160373
647.950	0.0163402
648.029	0.0164716
648.107	0.0166477
648.185	0.0169985
648.263	0.0170879
648.341	0.0173655
648.419	0.0174711
648.497	0.0176074
648.575	0.0177155
648.654	0.0177657
648.732	0.0177798
648.810	0.0178317
648.888	0.0178057
648.966	0.0175974
649.044	0.0174134
649.122	0.0172657
649.200	0.0171288
649.279	0.0168934
649.357	0.0165686
649.435	0.0162118
649.513	0.0160041
649.591	0.0158677
649.669	0.0156077
649.747	0.0151725
649.825	0.0150475
649.904	0.0149780
649.982	0.0151154
650.060	0.0150986
650.138	0.0153129
650.216	0.0152308
650.294	0.0153246
650.372	0.0155105
650.450	0.0156837
650.529	0.0160129
650.607	0.0161456
650.685	0.0163959
650.763	0.0168172
650.841	0.0170010
650.919	0.0173410
650.997	0.0177170
651.075	0.0179177
651.154	0.0183624
651.232	0.0185891
651.310	0.0188647
651.388	0.0189790
651.466	0.0191089
651.544	0.0190498
651.622	0.0189865
651.700	0.0189406
651.779	0.0187529
651.857	0.0185849
651.935	0.0182447
652.013	0.0178869
652.091	0.0175074
652.169	0.0170652
652.247	0.0165179
652.325	0.0161635
652.404	0.0156525
652.482	0.0152895
652.560	0.0149296
652.638	0.0146858
652.716	0.0141798
652.794	0.0141888
652.872	0.0140440
652.950	0.0139997
653.029	0.0140363
653.107	0.0142711
653.185	0.0144735
653.263	0.0148092
653.341	0.0150813
653.419	0.0154192
653.497	0.0158308
653.575	0.0160817
653.654	0.0164680
653.732	0.0167656
653.810	0.0169541
653.888	0.0170341
653.966	0.0172523
654.044	0.0174371
654.122	0.0176850
654.200	0.0177163
654.279	0.0179510
654.357	0.0180149
654.435	0.0181568
654.513	0.0183529
654.591	0.0184891
654.669	0.0184848
654.747	0.0184975
654.825	0.0184094
654.904	0.0183267
654.982	0.0181644
655.060	0.0181451
655.138	0.0179263
655.216	0.0177122
655.294	0.0175034
655.372	0.0173269
655.450	0.0171392
655.529	0.0167239
655.607	0.0164126
655.685	0.0162282
655.763	0.0160628
655.841	0.0158089
655.919	0.0154176
655.997	0.0152164
656.075	0.0148448
656.154	0.0144615
656.232	0.0143713
656.310	0.0142716
656.388	0.0139503
656.466	0.0138968
656.544	0.0140304
656.622	0.0143343
656.700	0.0146240
656.779	0.0151398
656.857	0.0154148
656.935	0.0158958
657.013	0.0162794
657.091	0.0168661
657.169	0.0175240
657.247	0.0177464
657.325	0.0179782
657.404	0.0183302
657.482	0.0184514
657.560	0.0185913
657.638	0.0188907
657.716	0.0188304
657.794	0.0189339
657.872	0.0191471
657.950	0.0191924
658.029	0.0189915
658.107	0.0190442
658.185	0.0190933
658.263	0.0191703
658.341	0.0190592
658.419	0.0189796
658.497	0.0188004
658.575	0.0186524
658.654	0.0184395
658.732	0.0182935
658.810	0.0178029
658.888	0.0173180
658.966	0.0168282
659.044	0.0161742
659.122	0.0156448
659.200	0.0148957
659.279	0.0143901
659.357	0.0137571
659.435	0.0132167
659.513	0.0130127
659.591	0.0127615
659.669	0.0128998
659.747	0.0129452
659.825	0.0131197
659.904	0.0133231
659.982	0.0137297
660.060	0.0140214
660.138	0.0144823
660.216	0.0148031
660.294	0.0153133
660.372	0.0154986
660.450	0.0157819
660.529	0.0161337
660.607	0.0162702
660.685	0.0165108
660.763	0.0168175
660.841	0.0170287
660.919	0.0172543
660.997	0.0176588
661.075	0.0179924
661.154	0.0183023
661.232	0.0186078
661.310	0.0188737
661.388	0.0190141
661.466	0.0193505
661.544	0.0194802
661.622	0.0195189
661.700	0.0193156
661.779	0.0194434
661.857	0.0192168
661.935	0.0189761
662.013	0.0189163
662.091	0.0185534
662.169	0.0183611
662.247	0.0182938
662.325	0.0181461
662.404	0.0178149
662.482	0.0175038
662.560	0.0174155
662.638	0.0174124
662.716	0.0172044
662.794	0.0167230
662.872	0.0164845
662.950	0.0162051
663.029	0.0161157
663.107	0.0159912
663.185	0.0156406
663.263	0.0157475
663.341	0.0155676
663.419	0.0154927
663.497	0.0154855
663.575	0.0155256
663.654	0.0154494
663.732	0.0153238
663.810	0.0152374
663.888	0.0151209
663.966	0.0150854
664.044	0.0147836
664.122	0.0146243
664.200	0.0144682
664.279	0.0142148
664.357	0.0141333
664.435	0.0140672
664.513	0.0141290
664.591	0.0140886
664.669	0.0141695
664.747	0.0143626
664.825	0.0146278
664.904	0.0148517
664.982	0.0154774
665.060	0.0158251
665.138	0.0162259
665.216	0.0167254
665.294	0.0171400
665.372	0.0174828
665.450	0.0179105
665.529	0.0184660
665.607	0.0186347
665.685	0.0187357
665.763	0.0191080
665.841	0.0193096
665.919	0.0194357
665.997	0.0196526
666.075	0.0196078
666.154	0.0197704
666.232	0.0199091
666.310	0.0198215
666.388	0.0197472
666.466	0.0194742
666.544	0.0193667
666.622	0.0193661
666.700	0.0190482
666.779	0.0187701
666.857	0.0184598
666.935	0.0180695
667.013	0.0175672
667.091	0.0171809
667.169	0.0167992
667.247	0.0162843
667.325	0.0159029
667.404	0.0154397
667.482	0.0150890
667.560	0.0148431
667.638	0.0144289
667.716	0.0143790
667.794	0.0144285
667.872	0.0142715
667.950	0.0142747
668.029	0.0143378
668.107	0.0145232
668.185	0.0144807
668.263	0.0145660
668.341	0.0147761
668.419	0.0149036
668.497	0.0151213
668.575	0.0151324
668.654	0.0150890
668.732	0.0152654
668.810	0.0152320
668.888	0.0153333
668.966	0.0152532
669.044	0.0154372
669.122	0.0153391
669.200	0.0151976
669.279	0.0153941
669.357	0.0154321
669.435	0.0153982
669.513	0.0154842
669.591	0.0157228
669.669	0.0160434
669.747	0.0161956
669.825	0.0162672
669.904	0.0166953
669.982	0.0168228
670.060	0.0170975
670.138	0.0174680
670.216	0.0176061
670.294	0.0176632
670.372	0.0179486
670.450	0.0180891
670.529	0.0181944
670.607	0.0183219
670.685	0.0183548
670.763	0.0184364
670.841	0.0186132
670.919	0.0186743
670.997	0.0190167
671.075	0.0188816
671.154	0.0192213
671.232	0.0194104
671.310	0.0194918
671.388	0.0197125
671.466	0.0199609
671.544	0.0199857
671.622	0.0199646
671.700	0.0198125
671.779	0.0198131
671.857	0.0195995
671.935	0.0195359
672.013	0.0191553
672.091	0.0188227
672.169	0.0184245
672.247	0.0179221
672.325	0.0174287
672.404	0.0167963
672.482	0.0162428
672.560	0.0155577
672.638	0.0148285
672.716	0.0144052
672.794	0.0138454
672.872	0.0131269
672.950	0.0129406
673.029	0.0128448
673.107	0.0125697
673.185	0.0123630
673.263	0.0123363
673.341	0.0124525
673.419	0.0125735
673.497	0.0128088
673.575	0.0131852
673.654	0.0135888
673.732	0.0138100
673.810	0.0142600
673.888	0.0145113
673.966	0.0148271
674.044	0.0152843
674.122	0.0156441
674.200	0.0159731
674.279	0.0162013
674.357	0.0164574
674.435	0.0167863
674.513	0.0168851
674.591	0.0171108
674.669	0.0171866
674.747	0.0171337
674.825	0.0170084
674.904	0.0169566
674.982	0.0166951
675.060	0.0165230
675.138	0.0164642
675.216	0.0162172
675.294	0.0161610
675.372	0.0163041
675.450	0.0162466
675.529	0.0162283
675.607	0.0163914
675.685	0.0166312
675.763	0.0168200
675.841	0.0171703
675.919	0.0174678
675.997	0.0176817
676.075	0.0181712
676.154	0.0186048
676.232	0.0190542
676.310	0.0194031
676.388	0.0198630
676.466	0.0202866
676.544	0.0208070
676.622	0.0211913
676.700	0.0215333
676.779	0.0219073
676.857	0.0222252
676.935	0.0221961
677.013	0.0220583
677.091	0.0220028
677.169	0.0216099
677.247	0.0212502
677.325	0.0206715
677.404	0.0197881
677.482	0.0187545
677.560	0.0179572
677.638	0.0171369
677.716	0.0162017
677.794	0.0152979
677.872	0.0144026
677.950	0.0138451
678.029	0.0132246
678.107	0.0129646
678.185	0.0128176
678.263	0.0127104
678.341	0.0129065
678.419	0.0130859
678.497	0.0134900
678.575	0.0138348
678.654	0.0141441
678.732	0.0144881
678.810	0.0146221
678.888	0.0148171
678.966	0.0148269
679.044	0.0147514
679.122	0.0144441
679.200	0.0142115
679.279	0.0140716
679.357	0.0138708
679.435	0.0138396
679.513	0.0136963
679.591	0.0136406
679.669	0.0137578
679.747	0.0140567
679.825	0.0143604
679.904	0.0146112
679.982	0.0152305
680.060	0.0155005
680.138	0.0158663
680.216	0.0163351
680.294	0.0166026
680.372	0.0167863
680.450	0.0169328
680.529	0.0167937
680.607	0.0167062
680.685	0.0164031
680.763	0.0162190
680.841	0.0160403
680.919	0.0156696
680.997	0.0155321
681.075	0.0155302
681.154	0.0156326
681.232	0.0156656
681.310	0.0159337
681.388	0.0162868
681.466	0.0167754
681.544	0.0173009
681.622	0.0176895
681.700	0.0182059
681.779	0.0185965
681.857	0.0191595
681.935	0.0194308
682.013	0.0198680
682.091	0.0200895
682.169	0.0202886
682.247	0.0204939
682.325	0.0206423
682.404	0.0211222
682.482	0.0212046
682.560	0.0214426
682.638	0.0216106
682.716	0.0219244
682.794	0.0220753
682.872	0.0221313
682.950	0.0219881
683.029	0.0219080
683.107	0.0216010
683.185	0.0213958
683.263	0.0209076
683.341	0.0202001
683.419	0.0197194
683.497	0.0190450
683.575	0.0183530
683.654	0.0175435
683.732	0.0167805
683.810	0.0160278
683.888	0.0152476
683.966	0.0146060
684.044	0.0139632
684.122	0.0131187
684.200	0.0126485
684.279	0.0121287
684.357	0.0115529
684.435	0.0112900
684.513	0.0110539
684.591	0.0109245
684.669	0.0108435
684.747	0.0109250
684.825	0.0109675
684.904	0.0110551
684.982	0.0114033
685.060	0.0117263
685.138	0.0118238
685.216	0.0122013
685.294	0.0125602
685.372	0.0130342
685.450	0.0133456
685.529	0.0138267
685.607	0.0142751
685.685	0.0146838
685.763	0.0154515
685.841	0.0159017
685.919	0.0163949
685.997	0.0169724
686.075	0.0172046
686.154	0.0174356
686.232	0.0178780
686.310	0.0182197
686.388	0.0183504
686.466	0.0184075
686.544	0.0185143
686.622	0.0185812
686.700	0.0184927
686.779	0.0184154
686.857	0.0183138
686.935	0.0180473
687.013	0.0178598
687.091	0.0176545
687.169	0.0172107
687.247	0.0169888
687.325	0.0167348
687.404	0.0166412
687.482	0.0162650
687.560	0.0164598
687.638	0.0163300
687.716	0.0164085
687.794	0.0167834
687.872	0.0171107
687.950	0.0175967
688.029	0.0181940
688.107	0.0186954
688.185	0.0191672
688.263	0.0195982
688.341	0.0199550
688.419	0.0204665
688.497	0.0207288
688.575	0.0209995
688.654	0.0210343
688.732	0.0209939
688.810	0.0210577
688.888	0.0211429
688.966	0.0210872
689.044	0.0208369
689.122	0.0206239
689.200	0.0204737
689.279	0.0203537
689.357	0.0200553
689.435	0.0195007
689.513	0.0188960
689.591	0.0185531
689.669	0.0179819
689.747	0.0174670
689.825	0.0168996
689.904	0.0161330
689.982	0.0156217
690.060	0.0151583
690.138	0.0145831
690.216	0.0140775
690.294	0.0136733
690.372	0.0130964
690.450	0.0128394
690.529	0.0126937
690.607	0.0124494
690.685	0.0121945
690.763	0.0120107
690.841	0.0119217
690.919	0.0118123
690.997	0.0117606
691.075	0.0116446
691.154	0.0115797
691.232	0.0118140
691.310	0.0119255
691.388	0.0120354
691.466	0.0122005
691.544	0.0125087
691.622	0.0130429
691.700	0.0136305
691.779	0.0139619
691.857	0.0146871
691.935	0.0153868
692.013	0.0163630
692.091	0.0170727
692.169	0.0176984
692.247	0.0182040
692.325	0.0188424
692.404	0.0193156
692.482	0.0196065
692.560	0.0196487
692.638	0.0194996
692.716	0.0193728
692.794	0.0191469
692.872	0.0185881
692.950	0.0181306
693.029	0.0176150
693.107	0.0171712
693.185	0.0165987
693.263	0.0163598
693.341	0.0161509
693.419	0.0159563
693.497	0.0159869
693.575	0.0158636
693.654	0.0160101
693.732	0.0161153
693.810	0.0163634
693.888	0.0166606
693.966	0.0170502
694.044	0.0174916
694.122	0.0177788
694.200	0.0181692
694.279	0.0184876
694.357	0.0188260
694.435	0.0191073
694.513	0.0192974
694.591	0.0194157
694.669	0.0194421
694.747	0.0196437
694.825	0.0197928
694.904	0.0197163
694.982	0.0197198
695.060	0.0195703
695.138	0.0195737
695.216	0.0197171
695.294	0.0197109
695.372	0.0195042
695.450	0.0195241
695.529	0.0195020
695.607	0.0193195
695.685	0.0192352
695.763	0.0187737
695.841	0.0185187
695.919	0.0182684
695.997	0.0179633
696.075	0.0175698
696.154	0.0170448
696.232	0.0167392
696.310	0.0163560
696.388	0.0158824
696.466	0.0155386
696.544	0.0151865
696.622	0.0149369
696.700	0.0146581
696.779	0.0143370
696.857	0.0141361
696.935	0.0138335
697.013	0.0136102
697.091	0.0136505
697.169	0.0134834
697.247	0.0132368
697.325	0.0131629
697.404	0.0129825
697.482	0.0128761
697.560	0.0128372
697.638	0.0128491
697.716	0.0126679
697.794	0.0128523
697.872	0.0129668
697.950	0.0132646
698.029	0.0132429
698.107	0.0135056
698.185	0.0139143
698.263	0.0144342
698.341	0.0147386
698.419	0.0150712
698.497	0.0155761
698.575	0.0159501
698.654	0.0162453
698.732	0.0166879
698.810	0.0167997
698.888	0.0170679
698.966	0.0171464
699.044	0.0174075
699.122	0.0174659
699.200	0.0173282
699.279	0.0175283
699.357	0.0173183
699.435	0.0171748
699.513	0.0171314
699.591	0.0171228
699.669	0.0172453
699.747	0.0171753
699.825	0.0172689
699.904	0.0172642
699.982	0.0174019
700.060	0.0176727
700.138	0.0177376
700.216	0.0179229
700.294	0.0183878
700.372	0.0186572
700.450	0.0188052
700.529	0.0189120
700.607	0.0191155
700.685	0.0192613
700.763	0.0194833
700.841	0.0196541
700.919	0.0195453
700.997	0.0193964
701.075	0.0194116
701.154	0.0193642
701.232	0.0191751
701.310	0.0192359
701.388	0.0190774
701.466	0.0190510
701.544	0.0187728
701.622	0.0187578
701.700	0.0185749
701.779	0.0185420
701.857	0.0183959
701.935	0.0183231
702.013	0.0182705
702.091	0.0181524
702.169	0.0181387
702.247	0.0179586
702.325	0.0176738
702.404	0.0176427
702.482	0.0174228
702.560	0.0171748
702.638	0.0169032
702.716	0.0167127
702.794	0.0164156
702.872	0.0162766
702.950	0.0160227
703.029	0.0155124
703.107	0.0151239
703.185	0.0151053
703.263	0.0147523
703.341	0.0144912
703.419	0.0141528
703.497	0.0139042
703.575	0.0136872
703.654	0.0133868
703.732	0.0131983
703.810	0.0129404
703.888	0.0127462
703.966	0.0127190
704.044	0.0125233
704.122	0.0126538
704.200	0.0126713
704.279	0.0128250
704.357	0.0129547
704.435	0.0130975
704.513	0.0135461
704.591	0.0138197
704.669	0.0141833
704.747	0.0144459
704.825	0.0147496
704.904	0.0150800
704.982	0.0154544
705.060	0.0157459
705.138	0.0159969
705.216	0.0163124
705.294	0.0164155
705.372	0.0165032
705.450	0.0166326
705.529	0.0167768
705.607	0.0169506
705.685	0.0171867
705.763	0.0173670
705.841	0.0174892
705.919	0.0177626
705.997	0.0178898
706.075	0.0179394
706.154	0.0182251
706.232	0.0184034
706.310	0.0186114
706.388	0.0187185
706.466	0.0189446
706.544	0.0191663
706.622	0.0191121
706.700	0.0193990
706.779	0.0196034
706.857	0.0195734
706.935	0.0198205
707.013	0.0197958
707.091	0.0196836
707.169	0.0199494
707.247	0.0197882
707.325	0.0195870
707.404	0.0193861
707.482	0.0191865
707.560	0.0189722
707.638	0.0187933
707.716	0.0183987
707.794	0.0183224
707.872	0.0179704
707.950	0.0177415
708.029	0.0174921
708.107	0.0171292
708.185	0.0169869
708.263	0.0168317
708.341	0.0167188
708.419	0.0165228
708.497	0.0163976
708.575	0.0164039
708.654	0.0160990
708.732	0.0160626
708.810	0.0160072
708.888	0.0160589
708.966	0.0160568
709.044	0.0159316
709.122	0.0159338
709.200	0.0158243
709.279	0.0157372
709.357	0.0157623
709.435	0.0157028
709.513	0.0156879
709.591	0.0156819
709.669	0.0155891
709.747	0.0155375
709.825	0.0153496
709.904	0.0153188
709.982	0.0151274
710.060	0.0148812
710.138	0.0149601
710.216	0.0148664
710.294	0.0147086
710.372	0.0147018
710.450	0.0147388
710.529	0.0146091
710.607	0.0145963
710.685	0.0146713
710.763	0.0147697
710.841	0.0148916
710.919	0.0151453
710.997	0.0152245
711.075	0.0153893
711.154	0.0154012
711.232	0.0155952
711.310	0.0157461
711.388	0.0157648
711.466	0.0158604
711.544	0.0158292
711.622	0.0156761
711.700	0.0158042
711.779	0.0156050
711.857	0.0155177
711.935	0.0155904
712.013	0.0155520
712.091	0.0156219
712.169	0.0155354
712.247	0.0157912
712.325	0.0160381
712.404	0.0162120
712.482	0.0164951
712.560	0.0167783
712.638	0.0172710
712.716	0.0176037
712.794	0.0180486
712.872	0.0185769
712.950	0.0187788
713.029	0.0190527
713.107	0.0193726
713.185	0.0194978
713.263	0.0198521
713.341	0.0198466
713.419	0.0196782
713.497	0.0197374
713.575	0.0197639
713.654	0.0196805
713.732	0.0195268
713.810	0.0192462
713.888	0.0189613
713.966	0.0188823
714.044	0.0185844
714.122	0.0183250
714.200	0.0179429
714.279	0.0175861
714.357	0.0173563
714.435	0.0171084
714.513	0.0167870
714.591	0.0166003
714.669	0.0164082
714.747	0.0163236
714.825	0.0161020
714.904	0.0161803
714.982	0.0160941
715.060	0.0160914
715.138	0.0161675
715.216	0.0162011
715.294	0.0162800
715.372	0.0162782
715.450	0.0164012
715.529	0.0163332
715.607	0.0163844
715.685	0.0164339
715.763	0.0162852
715.841	0.0164156
715.919	0.0161551
715.997	0.0160884
716.075	0.0159290
716.154	0.0157866
716.232	0.0156718
716.310	0.0155634
716.388	0.0154501
716.466	0.0155074
716.544	0.0153242
716.622	0.0152238
716.700	0.0153904
716.779	0.0154973
716.857	0.0154746
716.935	0.0155881
717.013	0.0157462
717.091	0.0157407
717.169	0.0160998
717.247	0.0161459
717.325	0.0162884
717.404	0.0162906
717.482	0.0163256
717.560	0.0163028
717.638	0.0161780
717.716	0.0162505
717.794	0.0160740
717.872	0.0161248
717.950	0.0161139
718.029	0.0157716
718.107	0.0157851
718.185	0.0158227
718.263	0.0157524
718.341	0.0156734
718.419	0.0156948
718.497	0.0158560
718.575	0.0159663
718.654	0.0160191
718.732	0.0162580
718.810	0.0163645
718.888	0.0165215
718.966	0.0167238
719.044	0.0168803
719.122	0.0170807
719.200	0.0171259
719.279	0.0172205
719.357	0.0173766
719.435	0.0175724
719.513	0.0177020
719.591	0.0176157
719.669	0.0175632
719.747	0.0176673
719.825	0.0177264
719.904	0.0177507
719.982	0.0178140
720.060	0.0177234
720.138	0.0176392
720.216	0.0177054
720.294	0.0176241
720.372	0.0177198
720.450	0.0175535
720.529	0.0174570
720.607	0.0173554
720.685	0.0172681
720.763	0.0173109
720.841	0.0172359
720.919	0.0172166
720.997	0.0171335
721.075	0.0168662
721.154	0.0167998
721.232	0.0167963
721.310	0.0167600
721.388	0.0168532
721.466	0.0168645
721.544	0.0167802
721.622	0.0169007
721.700	0.0168813
721.779	0.0169315
721.857	0.0169367
721.935	0.0169129
722.013	0.0167999
722.091	0.0170155
722.169	0.0169701
722.247	0.0168768
722.325	0.0167001
722.404	0.0166892
722.482	0.0164922
722.560	0.0164735
722.638	0.0164245
722.716	0.0161497
722.794	0.0159509
722.872	0.0161311
722.950	0.0159835
723.029	0.0160612
723.107	0.0161741
723.185	0.0161375
723.263	0.0160799
723.341	0.0159629
723.419	0.0163348
723.497	0.0165314
723.575	0.0164902
723.654	0.0163687
723.732	0.0164162
723.810	0.0165532
723.888	0.0167306
723.966	0.0165347
724.044	0.0164588
724.122	0.0164179
724.200	0.0163944
724.279	0.0162578
724.357	0.0164510
724.435	0.0162057
724.513	0.0163094
724.591	0.0163576
724.669	0.0163413
724.747	0.0165281
724.825	0.0164371
724.904	0.0164498
724.982	0.0165993
725.060	0.0166181
725.138	0.0166302
725.216	0.0167796
725.294	0.0167737
725.372	0.0168095
725.450	0.0167734
725.529	0.0167383
725.607	0.0168141
725.685	0.0167061
725.763	0.0165018
725.841	0.0165951
725.919	0.0163902
725.997	0.0164526
726.075	0.0163599
726.154	0.0162032
726.232	0.0161295
726.310	0.0161784
726.388	0.0160570
726.466	0.0160468
726.544	0.0161318
726.622	0.0160476
726.700	0.0161774
726.779	0.0161971
726.857	0.0161925
726.935	0.0164641
727.013	0.0165250
727.091	0.0165658
727.169	0.0166441
727.247	0.0168253
727.325	0.0167974
727.404	0.0169159
727.482	0.0170930
727.560	0.0169504
727.638	0.0170861
727.716	0.0171947
727.794	0.0171575
727.872	0.0171741
727.950	0.0171523
728.029	0.0171577
728.107	0.0170363
728.185	0.0170741
728.263	0.0170862
728.341	0.0171589
728.419	0.0170841
728.497	0.0169941
728.575	0.0170530
728.654	0.0170454
728.732	0.0169577
728.810	0.0169502
728.888	0.0169971
728.966	0.0169887
729.044	0.0169712
729.122	0.0170906
729.200	0.0169938
729.279	0.0169683
729.357	0.0169585
729.435	0.0170513
729.513	0.0171249
729.591	0.0170439
729.669	0.0169742
729.747	0.0171433
729.825	0.0171519
729.904	0.0170290
729.982	0.0169922
730.060	0.0169511
730.138	0.0167487
730.216	0.0169081
730.294	0.0168384
730.372	0.0167143
730.450	0.0167299
730.529	0.0165200
730.607	0.0164826
730.685	0.0163750
730.763	0.0162395
730.841	0.0162814
730.919	0.0163704
730.997	0.0164236
731.075	0.0164156
731.154	0.0164615
731.232	0.0163820
731.310	0.0166116
731.388	0.0166763
731.466	0.0166635
731.544	0.0167285
731.622	0.0167999
731.700	0.0166890
731.779	0.0166463
731.857	0.0166144
731.935	0.0165187
732.013	0.0164062
732.091	0.0163660
732.169	0.0163815
732.247	0.0161705
732.325	0.0161756
732.404	0.0159924
732.482	0.0160042
732.560	0.0159061
732.638	0.0159689
732.716	0.0158360
732.794	0.0159412
732.872	0.0158857
732.950	0.0158522
733.029	0.0159357
733.107	0.0159161
733.185	0.0159446
733.263	0.0159711
733.341	0.0160599
733.419	0.0160771
733.497	0.0161957
733.575	0.0162505
733.654	0.0164159
733.732	0.0165077
733.810	0.0165529
733.888	0.0166518
733.966	0.0166497
734.044	0.0167422
734.122	0.0166689
734.200	0.0167194
734.279	0.0166657
734.357	0.0166354
734.435	0.0166001
734.513	0.0167139
734.591	0.0167555
734.669	0.0165041
734.747	0.0166209
734.825	0.0164642
734.904	0.0165227
734.982	0.0165871
735.060	0.0165512
735.138	0.0166190
735.216	0.0167954
735.294	0.0166373
735.372	0.0168214
735.450	0.0169066
735.529	0.0169234
735.607	0.0172066
735.685	0.0172996
735.763	0.0172617
735.841	0.0175163
735.919	0.0175275
735.997	0.0175315
736.075	0.0176414
736.154	0.0177795
736.232	0.0176505
736.310	0.0176006
736.388	0.0175112
736.466	0.0174133
736.544	0.0173774
736.622	0.0173222
736.700	0.0171817
736.779	0.0169810
736.857	0.0169072
736.935	0.0169147
737.013	0.0168929
737.091	0.0168317
737.169	0.0167550
737.247	0.0168568
737.325	0.0168678
737.404	0.0169922
737.482	0.0168990
737.560	0.0168868
737.638	0.0168395
737.716	0.0168397
737.794	0.0168550
737.872	0.0170902
737.950	0.0169928
738.029	0.0168329
738.107	0.0167784
738.185	0.0167372
738.263	0.0166528
738.341	0.0165939
738.419	0.0165136
738.497	0.0165096
738.575	0.0164203
738.654	0.0163327
738.732	0.0162552
738.810	0.0162659
738.888	0.0162672
738.966	0.0160712
739.044	0.0161966
739.122	0.0161623
739.200	0.0160880
739.279	0.0161635
739.357	0.0161032
739.435	0.0160232
739.513	0.0160580
739.591	0.0159499
739.669	0.0159048
739.747	0.0160432
739.825	0.0160028
739.904	0.0160180
739.982	0.0160112
740.060	0.0161001
740.138	0.0161069
740.216	0.0159238
740.294	0.0160217
740.372	0.0159838
740.450	0.0160905
740.529	0.0159663
740.607	0.0160330
740.685	0.0159292
740.763	0.0159956
740.841	0.0160244
740.919	0.0159076
740.997	0.0160634
741.075	0.0160114
741.154	0.0159882
741.232	0.0159181
741.310	0.0161099
741.388	0.0161735
741.466	0.0163058
741.544	0.0162911
741.622	0.0163494
741.700	0.0166608
741.779	0.0167447
741.857	0.0169586
741.935	0.0169789
742.013	0.0170515
742.091	0.0173489
742.169	0.0172742
742.247	0.0174767
742.325	0.0174747
742.404	0.0175973
742.482	0.0175207
742.560	0.0175255
742.638	0.0174220
742.716	0.0174207
742.794	0.0174058
742.872	0.0174024
742.950	0.0172509
743.029	0.0174307
743.107	0.0172623
743.185	0.0173109
743.263	0.0172604
743.341	0.0173925
743.419	0.0174368
743.497	0.0173877
743.575	0.0172413
743.654	0.0173376
743.732	0.0171852
743.810	0.0174129
743.888	0.0173302
743.966	0.0171638
744.044	0.0172331
744.122	0.0171851
744.200	0.0171087
744.279	0.0170544
744.357	0.0170931
744.435	0.0170500
744.513	0.0170374
744.591	0.0168908
744.669	0.0168446
744.747	0.0167026
744.825	0.0166623
744.904	0.0166353
744.982	0.0165239
745.060	0.0166200
745.138	0.0166248
745.216	0.0163808
745.294	0.0164500
745.372	0.0163943
745.450	0.0165028
745.529	0.0164222
745.607	0.0164055
745.685	0.0162887
745.763	0.0162712
745.841	0.0163324
745.919	0.0162521
745.997	0.0162021
746.075	0.0160835
746.154	0.0162171
746.232	0.0162012
746.310	0.0160989
746.388	0.0159511
746.466	0.0160178
746.544	0.0160744
746.622	0.0160578
746.700	0.0159013
746.779	0.0159090
746.857	0.0158846
746.935	0.0159705
747.013	0.0158982
747.091	0.0158470
747.169	0.0159386
747.247	0.0159126
747.325	0.0158755
747.404	0.0160206
747.482	0.0160304
747.560	0.0161241
747.638	0.0161680
747.716	0.0162169
747.794	0.0162798
747.872	0.0162648
747.950	0.0163098
748.029	0.0163969
748.107	0.0164385
748.185	0.0165231
748.263	0.0165541
748.341	0.0166149
748.419	0.0167247
748.497	0.0165913
748.575	0.0166563
748.654	0.0166397
748.732	0.0166586
748.810	0.0164710
748.888	0.0163937
748.966	0.0165249
749.044	0.0164671
749.122	0.0164832
749.200	0.0163664
749.279	0.0163400
749.357	0.0164680
749.435	0.0164161
749.513	0.0165086
749.591	0.0165751
749.669	0.0167991
749.747	0.0167989
749.825	0.0168743
749.904	0.0169241
749.982	0.0170990
750.060	0.0171175
750.138	0.0173097
750.216	0.0171946
750.294	0.0174696
750.372	0.0175093
750.450	0.0176031
750.529	0.0177007
750.607	0.0178031
750.685	0.0177900
750.763	0.0179879
750.841	0.0178942
750.919	0.0177505
750.997	0.0177370
751.075	0.0179288
751.154	0.0177271
751.232	0.0177424
751.310	0.0177745
751.388	0.0175523
751.466	0.0174637
751.544	0.0173729
751.622	0.0172616
751.700	0.0173125
751.779	0.0171158
751.857	0.0170724
751.935	0.0170349
752.013	0.0170599
752.091	0.0168327
752.169	0.0167508
752.247	0.0165408
752.325	0.0165900
752.404	0.0163000
752.482	0.0164315
752.560	0.0162447
752.638	0.0161832
752.716	0.0162239
752.794	0.0160232
752.872	0.0161290
752.950	0.0160435
753.029	0.0160124
753.107	0.0160265
753.185	0.0158800
753.263	0.0157504
753.341	0.0159682
753.419	0.0158218
753.497	0.0155264
753.575	0.0156818
753.654	0.0156757
753.732	0.0155919
753.810	0.0158559
753.888	0.0158328
753.966	0.0157993
754.044	0.0157926
754.122	0.0160529
754.200	0.0160945
754.279	0.0161327
754.357	0.0162721
754.435	0.0164457
754.513	0.0166198
754.591	0.0165065
754.669	0.0166603
754.747	0.0168404
754.825	0.0167806
754.904	0.0168122
754.982	0.0169547
755.060	0.0169302
755.138	0.0168568
755.216	0.0168056
755.294	0.0167745
755.372	0.0165723
755.450	0.0164289
755.529	0.0164155
755.607	0.0164899
755.685	0.0162967
755.763	0.0161224
755.841	0.0160841
755.919	0.0160997
755.997	0.0160313
756.075	0.0159560
756.154	0.0159616
756.232	0.0161383
756.310	0.0161566
756.388	0.0161768
756.466	0.0163223
756.544	0.0166357
756.622	0.0165602
756.700	0.0166575
756.779	0.0167109
756.857	0.0168010
756.935	0.0170442
757.013	0.0169324
757.091	0.0171194
757.169	0.0170341
757.247	0.0172334
757.325	0.0172298
757.404	0.0173022
757.482	0.0174805
757.560	0.0174973
757.638	0.0174407
757.716	0.0176268
757.794	0.0175422
757.872	0.0176636
757.950	0.0176791
758.029	0.0175864
758.107	0.0177593
758.185	0.0175632
758.263	0.0176686
758.341	0.0175179
758.419	0.0174921
758.497	0.0175246
758.575	0.0172657
758.654	0.0174501
758.732	0.0175056
758.810	0.0173291
758.888	0.0171632
758.966	0.0169579
759.044	0.0170541
759.122	0.0171519
759.200	0.0169531
759.279	0.0166299
759.357	0.0166594
759.435	0.0165412
759.513	0.0165845
759.591	0.0163773
759.669	0.0163381
759.747	0.0162398
759.825	0.0163528
759.904	0.0160806
759.982	0.0161143
760.060	0.0159676
760.138	0.0160812
760.216	0.0160247
760.294	0.0159579
760.372	0.0160201
760.450	0.0159165
760.529	0.0159227
760.607	0.0158217
760.685	0.0159843
760.763	0.0158747
760.841	0.0158363
760.919	0.0158810
760.997	0.0159724
761.075	0.0159910
761.154	0.0160535
761.232	0.0160722
761.310	0.0159940
761.388	0.0160732
761.466	0.0160671
761.544	0.0162021
761.622	0.0162025
761.700	0.0160980
761.779	0.0163916
761.857	0.0164664
761.935	0.0165036
762.013	0.0165777
762.091	0.0165356
762.169	0.0165616
762.247	0.0165876
762.325	0.0165699
762.404	0.0165910
762.482	0.0166502
762.560	0.0166820
762.638	0.0165899
762.716	0.0165990
762.794	0.0166964
762.872	0.0166253
762.950	0.0165268
763.029	0.0166174
763.107	0.0165557
763.185	0.0166222
763.263	0.0166330
763.341	0.0165428
763.419	0.0167391
763.497	0.0166846
763.575	0.0166276
763.654	0.0166817
763.732	0.0167166
763.810	0.0168019
763.888	0.0169151
763.966	0.0168616
764.044	0.0167587
764.122	0.0167742
764.200	0.0169918
764.279	0.0171284
764.357	0.0170386
764.435	0.0169341
764.513	0.0169780
764.591	0.0172180
764.669	0.0170553
764.747	0.0171584
764.825	0.0169830
764.904	0.0170753
764.982	0.0170039
765.060	0.0170003
765.138	0.0169479
765.216	0.0167429
765.294	0.0169361
765.372	0.0167771
765.450	0.0166252
765.529	0.0166836
765.607	0.0166736
765.685	0.0166757
765.763	0.0166531
765.841	0.0165759
765.919	0.0165919
765.997	0.0166349
766.075	0.0166173
766.154	0.0165908
766.232	0.0167069
766.310	0.0167682
766.388	0.0167871
766.466	0.0167754
766.544	0.0167772
766.622	0.0169923
766.700	0.0169579
766.779	0.0171252
766.857	0.0171733
766.935	0.0169248
767.013	0.0171136
767.091	0.0171709
767.169	0.0170678
767.247	0.0171828
767.325	0.0172229
767.404	0.0170840
767.482	0.0170638
767.560	0.0169864
767.638	0.0169673
767.716	0.0169917
767.794	0.0169624
767.872	0.0168641
767.950	0.0168158
768.029	0.0167715
768.107	0.0166965
768.185	0.0166786
768.263	0.0166217
768.341	0.0165800
768.419	0.0165177
768.497	0.0165220
768.575	0.0164546
768.654	0.0162721
768.732	0.0163190
768.810	0.0163313
768.888	0.0163783
768.966	0.0162119
769.044	0.0160709
769.122	0.0160146
769.200	0.0160897
769.279	0.0159341
769.357	0.0158670
769.435	0.0158861
769.513	0.0158473
769.591	0.0158938
769.669	0.0157996
769.747	0.0159283
769.825	0.0158237
769.904	0.0158183
769.982	0.0158015
770.060	0.0159044
770.138	0.0159766
770.216	0.0160911
770.294	0.0160765
770.372	0.0161280
770.450	0.0162112
770.529	0.0161825
770.607	0.0162357
770.685	0.0163274
770.763	0.0163684
770.841	0.0165746
770.919	0.0165951
770.997	0.0166495
771.075	0.0165703
771.154	0.0166476
771.232	0.0165874
771.310	0.0166128
771.388	0.0167470
771.466	0.0165716
771.544	0.0167690
771.622	0.0167570
771.700	0.0166335
771.779	0.0167749
771.857	0.0169073
771.935	0.0168104
772.013	0.0168333
772.091	0.0167951
772.169	0.0169181
772.247	0.0169914
772.325	0.0168886
772.404	0.0170013
772.482	0.0170114
772.560	0.0170946
772.638	0.0170969
772.716	0.0172433
772.794	0.0173769
772.872	0.0174800
772.950	0.0173682
773.029	0.0175707
773.107	0.0176907
773.185	0.0176666
773.263	0.0176957
773.341	0.0176517
773.419	0.0178800
773.497	0.0177094
773.575	0.0176250
773.654	0.0178897
773.732	0.0177120
773.810	0.0175792
773.888	0.0174865
773.966	0.0174944
774.044	0.0173539
774.122	0.0173296
774.200	0.0170276
774.279	0.0169801
774.357	0.0168678
774.435	0.0167535
774.513	0.0166880
774.591	0.0164877
774.669	0.0166332
774.747	0.0164906
774.825	0.0161923
774.904	0.0162251
774.982	0.0162041
775.060	0.0161237
775.138	0.0160943
775.216	0.0161253
775.294	0.0160815
775.372	0.0161823
775.450	0.0158423
775.529	0.0159612
775.607	0.0158277
775.685	0.0157562
775.763	0.0158363
775.841	0.0157306
775.919	0.0157639
775.997	0.0158152
776.075	0.0157578
776.154	0.0157185
776.232	0.0158298
776.310	0.0157604
776.388	0.0157088
776.466	0.0159023
776.544	0.0159673
776.622	0.0159395
776.700	0.0158854
776.779	0.0159376
776.857	0.0159592
776.935	0.0160049
777.013	0.0160686
777.091	0.0160963
777.169	0.0161996
777.247	0.0160696
777.325	0.0161571
777.404	0.0162597
777.482	0.0163468
777.560	0.0164060
777.638	0.0163998
777.716	0.0164619
777.794	0.0164969
777.872	0.0166502
777.950	0.0166434
778.029	0.0167254
778.107	0.0168267
778.185	0.0169006
778.263	0.0170964
778.341	0.0171146
778.419	0.0170340
778.497	0.0171099
778.575	0.0172980
778.654	0.0171884
778.732	0.0173842
778.810	0.0172903
778.888	0.0173934
778.966	0.0174437
779.044	0.0175100
779.122	0.0176746
779.200	0.0174311
779.279	0.0175862
779.357	0.0176653
779.435	0.0175272
779.513	0.0176302
779.591	0.0176366
779.669	0.0176710
779.747	0.0176551
779.825	0.0175111
779.904	0.0175969
779.982	0.0174884
780.060	0.0174237
780.138	0.0173771
780.216	0.0173133
780.294	0.0170972
780.372	0.0170625
780.450	0.0169518
780.529	0.0169002
780.607	0.0167851
780.685	0.0164417
780.763	0.0164131
780.841	0.0161917
780.919	0.0161301
780.997	0.0161227
781.075	0.0159988
781.154	0.0159296
781.232	0.0158516
781.310	0.0158718
781.388	0.0158131
781.466	0.0157204
781.544	0.0158858
781.622	0.0159140
781.700	0.0159924
781.779	0.0159940
781.857	0.0159131
781.935	0.0160431
782.013	0.0159911
782.091	0.0161081
782.169	0.0161240
782.247	0.0162504
782.325	0.0163899
782.404	0.0164781
782.482	0.0164412
782.560	0.0164767
782.638	0.0165791
782.716	0.0166945
782.794	0.0167881
782.872	0.0167717
782.950	0.0166764
783.029	0.0166631
783.107	0.0166860
783.185	0.0167478
783.263	0.0167212
783.341	0.0166625
783.419	0.0167442
783.497	0.0166280
783.575	0.0166572
783.654	0.0163926
783.732	0.0165465
783.810	0.0165580
783.888	0.0165726
783.966	0.0163722
784.044	0.0164917
784.122	0.0164420
784.200	0.0165553
784.279	0.0165178
784.357	0.0166185
784.435	0.0166967
784.513	0.0166346
784.591	0.0167664
784.669	0.0166922
784.747	0.0166904
784.825	0.0168085
784.904	0.0168967
784.982	0.0168853
785.060	0.0169053
785.138	0.0170157
785.216	0.0170313
785.294	0.0171761
785.372	0.0171225
785.450	0.0169475
785.529	0.0170917
785.607	0.0171042
785.685	0.0170510
785.763	0.0170445
785.841	0.0168061
785.919	0.0168142
785.997	0.0168576
786.075	0.0167792
786.154	0.0167236
786.232	0.0166951
786.310	0.0167925
786.388	0.0166775
786.466	0.0164007
786.544	0.0165522
786.622	0.0165779
786.700	0.0162524
786.779	0.0163323
786.857	0.0162727
786.935	0.0162238
787.013	0.0161356
787.091	0.0160462
787.169	0.0160429
787.247	0.0161248
787.325	0.0159562
787.404	0.0159998
787.482	0.0159289
787.560	0.0159259
787.638	0.0160690
787.716	0.0160201
787.794	0.0161098
787.872	0.0160846
787.950	0.0161448
788.029	0.0162582
788.107	0.0162297
788.185	0.0164310
788.263	0.0165285
788.341	0.0164983
788.419	0.0166401
788.497	0.0167242
788.575	0.0167052
788.654	0.0168573
788.732	0.0168836
788.810	0.0170015
788.888	0.0170250
788.966	0.0172204
789.044	0.0173485
789.122	0.0172002
789.200	0.0171879
789.279	0.0171787
789.357	0.0173059
789.435	0.0171642
789.513	0.0172481
789.591	0.0172024
789.669	0.0171502
789.747	0.0170577
789.825	0.0171093
789.904	0.0171043
789.982	0.0170042
790.060	0.0170499
790.138	0.0168855
790.216	0.0168399
790.294	0.0168305
790.372	0.0167716
790.450	0.0167699
790.529	0.0167049
790.607	0.0166285
790.685	0.0167245
790.763	0.0165504
790.841	0.0165952
790.919	0.0167746
790.997	0.0165758
791.075	0.0165868
791.154	0.0166272
791.232	0.0166598
791.310	0.0166924
791.388	0.0167146
791.466	0.0167062
791.544	0.0166531
791.622	0.0166924
791.700	0.0166367
791.779	0.0167274
791.857	0.0167798
791.935	0.0166699
792.013	0.0165525
792.091	0.0166370
792.169	0.0166476
792.247	0.0165501
792.325	0.0164866
792.404	0.0164674
792.482	0.0164793
792.560	0.0164127
792.638	0.0164777
792.716	0.0163335
792.794	0.0162755
792.872	0.0163818
792.950	0.0162711
793.029	0.0162656
793.107	0.0161001
793.185	0.0161362
793.263	0.0161000
793.341	0.0161142
793.419	0.0161576
793.497	0.0161215
793.575	0.0160062
793.654	0.0159451
793.732	0.0159993
793.810	0.0160876
793.888	0.0160910
793.966	0.0160454
794.044	0.0160152
794.122	0.0161004
794.200	0.0159976
794.279	0.0161460
794.357	0.0162408
794.435	0.0162249
794.513	0.0162674
794.591	0.0163083
794.669	0.0164496
794.747	0.0163659
794.825	0.0164889
794.904	0.0166710
794.982	0.0167917
795.060	0.0167887
795.138	0.0167846
795.216	0.0169875
795.294	0.0169537
795.372	0.0170662
795.450	0.0171838
795.529	0.0172327
795.607	0.0171605
795.685	0.0171809
795.763	0.0172775
795.841	0.0170992
795.919	0.0171556
795.997	0.0171406
796.075	0.0172117
796.154	0.0172147
796.232	0.0170702
796.310	0.0172027
796.388	0.0171606
796.466	0.0170098
796.544	0.0170258
796.622	0.0170306
796.700	0.0169452
796.779	0.0170946
796.857	0.0169969
796.935	0.0170451
797.013	0.0171568
797.091	0.0170181
797.169	0.0169111
797.247	0.0170382
797.325	0.0170960
797.404	0.0171442
797.482	0.0171024
797.560	0.0171445
797.638	0.0171668
797.716	0.0169351
797.794	0.0169051
797.872	0.0168123
797.950	0.0169305
798.029	0.0169759
798.107	0.0168019
798.185	0.0167247
798.263	0.0167091
798.341	0.0166215
798.419	0.0166105
798.497	0.0164671
798.575	0.0164845
798.654	0.0162681
798.732	0.0163651
798.810	0.0163434
798.888	0.0162943
798.966	0.0162070
799.044	0.0162977
799.122	0.0161549
799.200	0.0162675
799.279	0.0161551
799.357	0.0161641
799.435	0.0162317
799.513	0.0162764
799.591	0.0162399
799.669	0.0162046
799.747	0.0162067
799.825	0.0161362
799.904	0.0161794
799.982	0.0160693
800.060	0.0159520
800.138	0.0160578
800.216	0.0159956
800.294	0.0159008
800.372	0.0159499
800.450	0.0158572
800.529	0.0159154
800.607	0.0158884
800.685	0.0159814
800.763	0.0159681
800.841	0.0159698
800.919	0.0160083
800.997	0.0160292
801.075	0.0161768
801.154	0.0162363
801.232	0.0162609
801.310	0.0163798
801.388	0.0163358
801.466	0.0163947
801.544	0.0165482
801.622	0.0166054
801.700	0.0165974
801.779	0.0167935
801.857	0.0166460
801.935	0.0167596
802.013	0.0168002
802.091	0.0169595
802.169	0.0167816
802.247	0.0170319
802.325	0.0169498
802.404	0.0169164
802.482	0.0171100
802.560	0.0170216
802.638	0.0170397
802.716	0.0170303
802.794	0.0171339
802.872	0.0170976
802.950	0.0171178
803.029	0.0171189
803.107	0.0172079
803.185	0.0172090
803.263	0.0172761
803.341	0.0172811
803.419	0.0171850
803.497	0.0173048
803.575	0.0174639
803.654	0.0173506
803.732	0.0172628
803.810	0.0172206
803.888	0.0172687
803.966	0.0173043
804.044	0.0173684
804.122	0.0172857
804.200	0.0173300
804.279	0.0171976
804.357	0.0170068
804.435	0.0171038
804.513	0.0169733
804.591	0.0169534
804.669	0.0168973
804.747	0.0167400
804.825	0.0166955
804.904	0.0166543
804.982	0.0167072
805.060	0.0166334
805.138	0.0165742
805.216	0.0165067
805.294	0.0164152
805.372	0.0165073
805.450	0.0164824
805.529	0.0163031
805.607	0.0163638
805.685	0.0163761
805.763	0.0163631
805.841	0.0164757
805.919	0.0161830
805.997	0.0163013
806.075	0.0163097
806.154	0.0161005
806.232	0.0161078
806.310	0.0161568
806.388	0.0161040
806.466	0.0161918
806.544	0.0161761
806.622	0.0160973
806.700	0.0160403
806.779	0.0159334
806.857	0.0159663
806.935	0.0158037
807.013	0.0159052
807.091	0.0161224
807.169	0.0159801
807.247	0.0161270
807.325	0.0161024
807.404	0.0159578
807.482	0.0160097
807.560	0.0161622
807.638	0.0161326
807.716	0.0162202
807.794	0.0163793
807.872	0.0163968
807.950	0.0163617
808.029	0.0162540
808.107	0.0164593
808.185	0.0164471
808.263	0.0163442
808.341	0.0164434
808.419	0.0164963
808.497	0.0166314
808.575	0.0166837
808.654	0.0167291
808.732	0.0167611
808.810	0.0167120
808.888	0.0167374
808.966	0.0170018
809.044	0.0169877
809.122	0.0169839
809.200	0.0170033
809.279	0.0171734
809.357	0.0171857
809.435	0.0172690
809.513	0.0172478
809.591	0.0173409
809.669	0.0172865
809.747	0.0174149
809.825	0.0173242
809.904	0.0174290
809.982	0.0173655
810.060	0.0175169
810.138	0.0172829
810.216	0.0172894
810.294	0.0170916
810.372	0.0171397
810.450	0.0173445
810.529	0.0171080
810.607	0.0169574
810.685	0.0169430
810.763	0.0168473
810.841	0.0168257
810.919	0.0166573
810.997	0.0167147
811.075	0.0165588
811.154	0.0166093
811.232	0.0165390
811.310	0.0164053
811.388	0.0164821
811.466	0.0165617
811.544	0.0165694
811.622	0.0162811
811.700	0.0163310
811.779	0.0164420
811.857	0.0163117
811.935	0.0164723
812.013	0.0164495
812.091	0.0163845
812.169	0.0164368
812.247	0.0164708
812.325	0.0163545
812.404	0.0164531
812.482	0.0164358
812.560	0.0164957
812.638	0.0166477
812.716	0.0165865
812.794	0.0163994
812.872	0.0165566
812.950	0.0164940
813.029	0.0165302
813.107	0.0166412
813.185	0.0165186
813.263	0.0163714
813.341	0.0165120
813.419	0.0164962
813.497	0.0165950
813.575	0.0166283
813.654	0.0164349
813.732	0.0164877
813.810	0.0166427
813.888	0.0165586
813.966	0.0163521
814.044	0.0164931
814.122	0.0164479
814.200	0.0164953
814.279	0.0165004
814.357	0.0163798
814.435	0.0166221
814.513	0.0164516
814.591	0.0164024
814.669	0.0164249
814.747	0.0163656
814.825	0.0165253
814.904	0.0163825
814.982	0.0164301
815.060	0.0163687
815.138	0.0164568
815.216	0.0165069
815.294	0.0165604
815.372	0.0165282
815.450	0.0165117
815.529	0.0165952
815.607	0.0166008
815.685	0.0166753
815.763	0.0167414
815.841	0.0167700
815.919	0.0169042
815.997	0.0168392
816.075	0.0166986
816.154	0.0168304
816.232	0.0168395
816.310	0.0167566
816.388	0.0168052
816.466	0.0167854
816.544	0.0167277
816.622	0.0166215
816.700	0.0167410
816.779	0.0166071
816.857	0.0166997
816.935	0.0165859
817.013	0.0165655
817.091	0.0166640
817.169	0.0165279
817.247	0.0164983
817.325	0.0165784
817.404	0.0165021
817.482	0.0164874
817.560	0.0165064
817.638	0.0165445
817.716	0.0165411
817.794	0.0164845
817.872	0.0165909
817.950	0.0166818
818.029	0.0167130
818.107	0.0166336
818.185	0.0167166
818.263	0.0167180
818.341	0.0167942
818.419	0.0168864
818.497	0.0167110
818.575	0.0167806
818.654	0.0169154
818.732	0.0169499
818.810	0.0169481
818.888	0.0168883
818.966	0.0168903
819.044	0.0169888
819.122	0.0168349
819.200	0.0167410
819.279	0.0167613
819.357	0.0166788
819.435	0.0168046
819.513	0.0167644
819.591	0.0166613
819.669	0.0167268
819.747	0.0166222
819.825	0.0166756
819.904	0.0167281
819.982	0.0166055
820.060	0.0166379
820.138	0.0164729
820.216	0.0164870
820.294	0.0166396
820.372	0.0165771
820.450	0.0164926
820.529	0.0166158
820.607	0.0166538
820.685	0.0165477
820.763	0.0165772
820.841	0.0166783
820.919	0.0166605
820.997	0.0165765
821.075	0.0165314
821.154	0.0165786
821.232	0.0165888
821.310	0.0164891
821.388	0.0167399
821.466	0.0166121
821.544	0.0165691
821.622	0.0165557
821.700	0.0165449
821.779	0.0165183
821.857	0.0166256
821.935	0.0165869
822.013	0.0166150
822.091	0.0167220
822.169	0.0164986
822.247	0.0165504
822.325	0.0165330
822.404	0.0164574
822.482	0.0164856
822.560	0.0163548
822.638	0.0164045
822.716	0.0164732
822.794	0.0163651
822.872	0.0164752
822.950	0.0164353
823.029	0.0164725
823.107	0.0163475
823.185	0.0164146
823.263	0.0164343
823.341	0.0165019
823.419	0.0164840
823.497	0.0164343
823.575	0.0162768
823.654	0.0164186
823.732	0.0164104
823.810	0.0163895
823.888	0.0164362
823.966	0.0164548
824.044	0.0164632
824.122	0.0165385
824.200	0.0164978
824.279	0.0165586
824.357	0.0165651
824.435	0.0166975
824.513	0.0167793
824.591	0.0167629
824.669	0.0167838
824.747	0.0169653
824.825	0.0169647
824.904	0.0169926
824.982	0.0170771
825.060	0.0171607
825.138	0.0170488
825.216	0.0170919
825.294	0.0172044
825.372	0.0170914
825.450	0.0169813
825.529	0.0169711
825.607	0.0168619
825.685	0.0168562
825.763	0.0167783
825.841	0.0167173
825.919	0.0167913
825.997	0.0168555
826.075	0.0167021
826.154	0.0167746
826.232	0.0166593
826.310	0.0166029
826.388	0.0166380
826.466	0.0165475
826.544	0.0164530
826.622	0.0165263
826.700	0.0165707
826.779	0.0165786
826.857	0.0167100
826.935	0.0166566
827.013	0.0166322
827.091	0.0166267
827.169	0.0166105
827.247	0.0167217
827.325	0.0166589
827.404	0.0167898
827.482	0.0166358
827.560	0.0167601
827.638	0.0166064
827.716	0.0166116
827.794	0.0166224
827.872	0.0167368
827.950	0.0165986
828.029	0.0165331
828.107	0.0166319
828.185	0.0165849
828.263	0.0165375
828.341	0.0165495
828.419	0.0165511
828.497	0.0164216
828.575	0.0166524
828.654	0.0165884
828.732	0.0165707
828.810	0.0165215
828.888	0.0165553
828.966	0.0165445
829.044	0.0165418
829.122	0.0165360
829.200	0.0164012
829.279	0.0165508
829.357	0.0165068
829.435	0.0165781
829.513	0.0164068
829.591	0.0163913
829.669	0.0165262
829.747	0.0164761
829.825	0.0164600
829.904	0.0163966
829.982	0.0163916
830.060	0.0164521
830.138	0.0164496
830.216	0.0165582
830.294	0.0165330
830.372	0.0164739
830.450	0.0165135
830.529	0.0165867
830.607	0.0165656
830.685	0.0165338
830.763	0.0165862
830.841	0.0166866
830.919	0.0166351
830.997	0.0166862
831.075	0.0166349
831.154	0.0167085
831.232	0.0167482
831.310	0.0168293
831.388	0.0168915
831.466	0.0168742
831.544	0.0166518
831.622	0.0166798
831.700	0.0168045
831.779	0.0167276
831.857	0.0166090
831.935	0.0165858
832.013	0.0166133
832.091	0.0166582
832.169	0.0166892
832.247	0.0166447
832.325	0.0165014
832.404	0.0166895
832.482	0.0166309
832.560	0.0164964
832.638	0.0166537
832.716	0.0166012
832.794	0.0165366
832.872	0.0165582
832.950	0.0165161
833.029	0.0166332
833.107	0.0167336
833.185	0.0167804
833.263	0.0166743
833.341	0.0167654
833.419	0.0167467
833.497	0.0167809
833.575	0.0167267
833.654	0.0168578
833.732	0.0167645
833.810	0.0167255
833.888	0.0168692
833.966	0.0167957
834.044	0.0168111
834.122	0.0167429
834.200	0.0167892
834.279	0.0166904
834.357	0.0167345
834.435	0.0167819
834.513	0.0167633
834.591	0.0167931
834.669	0.0167259
834.747	0.0166758
834.825	0.0166608
834.904	0.0166544
834.982	0.0166972
835.060	0.0165261
835.138	0.0166464
835.216	0.0166580
835.294	0.0164880
835.372	0.0164139
835.450	0.0164446
835.529	0.0164971
835.607	0.0164761
835.685	0.0164339
835.763	0.0164645
835.841	0.0162699
835.919	0.0163492
835.997	0.0164099
836.075	0.0163972
836.154	0.0165051
836.232	0.0163318
836.310	0.0165376
836.388	0.0166116
836.466	0.0165425
836.544	0.0165379
836.622	0.0165830
836.700	0.0166158
836.779	0.0165713
836.857	0.0165481
836.935	0.0166156
837.013	0.0165791
837.091	0.0165807
837.169	0.0164600
837.247	0.0165515
837.325	0.0165619
837.404	0.0165060
837.482	0.0166622
837.560	0.0167300
837.638	0.0167879
837.716	0.0167996
837.794	0.0168733
837.872	0.0167033
837.950	0.0167698
838.029	0.0167912
838.107	0.0167919
838.185	0.0168214
838.263	0.0167223
838.341	0.0166462
838.419	0.0167778
838.497	0.0167390
838.575	0.0167410
838.654	0.0166841
838.732	0.0166179
838.810	0.0166135
838.888	0.0165154
838.966	0.0166056
839.044	0.0164347
839.122	0.0164255
839.200	0.0164497
839.279	0.0166058
839.357	0.0165304
839.435	0.0165755
839.513	0.0166007
839.591	0.0167212
839.669	0.0166921
839.747	0.0167419
839.825	0.0167367
839.904	0.0168546
839.982	0.0168031
840.060	0.0167076
840.138	0.0167558
840.216	0.0168042
840.294	0.0166630
840.372	0.0167694
840.450	0.0166721
840.529	0.0165487
840.607	0.0166531
840.685	0.0166240
840.763	0.0166739
840.841	0.0165382
840.919	0.0166222
840.997	0.0165039
841.075	0.0166317
841.154	0.0164983
841.232	0.0163821
841.310	0.0165526
841.388	0.0163686
841.466	0.0164600
841.544	0.0164951
841.622	0.0165337
841.700	0.0164560
841.779	0.0164735
841.857	0.0166798
841.935	0.0167712
842.013	0.0166264
842.091	0.0166762
842.169	0.0167386
842.247	0.0166549
842.325	0.0166438
842.404	0.0167917
842.482	0.0166482
842.560	0.0166002
842.638	0.0167466
842.716	0.0168224
842.794	0.0167482
842.872	0.0167698
842.950	0.0169020
843.029	0.0168951
843.107	0.0167858
843.185	0.0170224
843.263	0.0169702
843.341	0.0169520
843.419	0.0169017
843.497	0.0168996
843.575	0.0169464
843.654	0.0167493
843.732	0.0167562
843.810	0.0166863
843.888	0.0166351
843.966	0.0167404
844.044	0.0165514
844.122	0.0164613
844.200	0.0165003
844.279	0.0165643
844.357	0.0162180
844.435	0.0164204
844.513	0.0163102
844.591	0.0163631
844.669	0.0163266
844.747	0.0163920
844.825	0.0164564
844.904	0.0163329
844.982	0.0165604
845.060	0.0165025
845.138	0.0165010
845.216	0.0166880
845.294	0.0167561
845.372	0.0166637
845.450	0.0166898
845.529	0.0168386
845.607	0.0167890
845.685	0.0167661
845.763	0.0166943
845.841	0.0168418
845.919	0.0169587
845.997	0.0167651
846.075	0.0168056
846.154	0.0168137
846.232	0.0166248
846.310	0.0168156
846.388	0.0167556
846.466	0.0167209
846.544	0.0166196
846.622	0.0166406
846.700	0.0166205
846.779	0.0166038
846.857	0.0164648
846.935	0.0166748
847.013	0.0166479
847.091	0.0165604
847.169	0.0165194
847.247	0.0164304
847.325	0.0163535
847.404	0.0164731
847.482	0.0166049
847.560	0.0164497
847.638	0.0163419
847.716	0.0164738
847.794	0.0164310
847.872	0.0164483
847.950	0.0163510
848.029	0.0162537
848.107	0.0163493
848.185	0.0163153
848.263	0.0163119
848.341	0.0163972
848.419	0.0163957
848.497	0.0164064
848.575	0.0166125
848.654	0.0164353
848.732	0.0165089
848.810	0.0166824
848.888	0.0166753
848.966	0.0168172
849.044	0.0169204
849.122	0.0168421
849.200	0.0169633
849.279	0.0168226
849.357	0.0170549
849.435	0.0170045
849.513	0.0167394
849.591	0.0169067
849.669	0.0168605
849.747	0.0167361
849.825	0.0167117
849.904	0.0169254
849.982	0.0169032
850.060	0.0167511
850.138	0.0167968
850.216	0.0168501
850.294	0.0168112
850.372	0.0168304
850.450	0.0165882
850.529	0.0167050
850.607	0.0166615
850.685	0.0166846
850.763	0.0166196
850.841	0.0165670
850.919	0.0164732
850.997	0.0163988
851.075	0.0165525
851.154	0.0164681
851.232	0.0162828
851.310	0.0164304
851.388	0.0164364
851.466	0.0164016
851.544	0.0165921
851.622	0.0165617
851.700	0.0166213
851.779	0.0166708
851.857	0.0168166
851.935	0.0165992
852.013	0.0167369
852.091	0.0167023
852.169	0.0167873
852.247	0.0167583
852.325	0.0166860
852.404	0.0166673
852.482	0.0166589
852.560	0.0167309
852.638	0.0167359
852.716	0.0166879
852.794	0.0167356
852.872	0.0167122
852.950	0.0167003
853.029	0.0166470
853.107	0.0168408
853.185	0.0169133
853.263	0.0167651
853.341	0.0167889
853.419	0.0167236
853.497	0.0168090
853.575	0.0166856
853.654	0.0165210
853.732	0.0165196
853.810	0.0164867
853.888	0.0164462
853.966	0.0164564
854.044	0.0164880
854.122	0.0164111
854.200	0.0163108
854.279	0.0163290
854.357	0.0163683
854.435	0.0163464
854.513	0.0163356
854.591	0.0162334
854.669	0.0163176
854.747	0.0163284
854.825	0.0162877
854.904	0.0163210
854.982	0.0162811
855.060	0.0165514
855.138	0.0164135
855.216	0.0164747
855.294	0.0165249
855.372	0.0164943
855.450	0.0165855
855.529	0.0165824
855.607	0.0166057
855.685	0.0166980
855.763	0.0166908
855.841	0.0166584
855.919	0.0165105
855.997	0.0164435
856.075	0.0166457
856.154	0.0166394
856.232	0.0165878
856.310	0.0166792
856.388	0.0166272
856.466	0.0165824
856.544	0.0167687
856.622	0.0167430
856.700	0.0169379
856.779	0.0168153
856.857	0.0168736
856.935	0.0169664
857.013	0.0171465
857.091	0.0170210
857.169	0.0170965
857.247	0.0169701
857.325	0.0169580
857.404	0.0170295
857.482	0.0171608
857.560	0.0168075
857.638	0.0168951
857.716	0.0170309
857.794	0.0169818
857.872	0.0168855
857.950	0.0168163
858.029	0.0168228
858.107	0.0168118
858.185	0.0166822
858.263	0.0167261
858.341	0.0167519
858.419	0.0166957
858.497	0.0165108
858.575	0.0166158
858.654	0.0164587
858.732	0.0164124
858.810	0.0164153
858.888	0.0162798
858.966	0.0163789
859.044	0.0165073
859.122	0.0163227
859.200	0.0163301
859.279	0.0162624
859.357	0.0162694
859.435	0.0164796
859.513	0.0163901
859.591	0.0163017
859.669	0.0164014
859.747	0.0163927
859.825	0.0165173
859.904	0.0164983
859.982	0.0164473
860.060	0.0165364
860.138	0.0164707
860.216	0.0163632
860.294	0.0164878
860.372	0.0164027
860.450	0.0165216
860.529	0.0164440
860.607	0.0163931
860.685	0.0163675
860.763	0.0164854
860.841	0.0163764
860.919	0.0163113
860.997	0.0164331
861.075	0.0165257
861.154	0.0165717
861.232	0.0164637
861.310	0.0164311
861.388	0.0166573
861.466	0.0167111
861.544	0.0167323
861.622	0.0166843
861.700	0.0167722
861.779	0.0168018
861.857	0.0168844
861.935	0.0168359
862.013	0.0168122
862.091	0.0168374
862.169	0.0168525
862.247	0.0168038
862.325	0.0168214
862.404	0.0168877
862.482	0.0166643
862.560	0.0167988
862.638	0.0167902
862.716	0.0166401
862.794	0.0168353
862.872	0.0167349
862.950	0.0167327
863.029	0.0169018
863.107	0.0168313
863.185	0.0167559
863.263	0.0168567
863.341	0.0169306
863.419	0.0167503
863.497	0.0168658
863.575	0.0168917
863.654	0.0169019
863.732	0.0167553
863.810	0.0168292
863.888	0.0168427
863.966	0.0167522
864.044	0.0166261
864.122	0.0165996
864.200	0.0166733
864.279	0.0166496
864.357	0.0165435
864.435	0.0164141
864.513	0.0164376
864.591	0.0164142
864.669	0.0165140
864.747	0.0163379
864.825	0.0163965
864.904	0.0164228
864.982	0.0164170
865.060	0.0164817
865.138	0.0165412
865.216	0.0163491
865.294	0.0164379
865.372	0.0165228
865.450	0.0165302
865.529	0.0166167
865.607	0.0166183
865.685	0.0166779
865.763	0.0166154
865.841	0.0166075
865.919	0.0164494
865.997	0.0165607
866.075	0.0165382
866.154	0.0165928
866.232	0.0165079
866.310	0.0165775
866.388	0.0164699
866.466	0.0165000
866.544	0.0163326
866.622	0.0163903
866.700	0.0163880
866.779	0.0163840
866.857	0.0164070
866.935	0.0164494
867.013	0.0163516
867.091	0.0164085
867.169	0.0162970
867.247	0.0164597
867.325	0.0164944
867.404	0.0165540
867.482	0.0166023
867.560	0.0165961
867.638	0.0166858
867.716	0.0167789
867.794	0.0166283
867.872	0.0167463
867.950	0.0167948
868.029	0.0168599
868.107	0.0167609
868.185	0.0169158
868.263	0.0167908
868.341	0.0169717
868.419	0.0169073
868.497	0.0169899
868.575	0.0171364
868.654	0.0169335
868.732	0.0169767
868.810	0.0170872
868.888	0.0168403
868.966	0.0168664
869.044	0.0168492
869.122	0.0168360
869.200	0.0165957
869.279	0.0166360
869.357	0.0163692
869.435	0.0163034
869.513	0.0162597
869.591	0.0162720
869.669	0.0163394
869.747	0.0164098
869.825	0.0163457
869.904	0.0163799
869.982	0.0166707
870.060	0.0167685
870.138	0.0167369
870.216	0.0167567
870.294	0.0169816
870.372	0.0171022
870.450	0.0169510
870.529	0.0171297
870.607	0.0169930
870.685	0.0169192
870.763	0.0169353
870.841	0.0168099
870.919	0.0167164
870.997	0.0167043
871.075	0.0165668
871.154	0.0163257
871.232	0.0165205
871.310	0.0162552
871.388	0.0161067
871.466	0.0162958
871.544	0.0162749
871.622	0.0162636
871.700	0.0162848
871.779	0.0161729
871.857	0.0163246
871.935	0.0164537
872.013	0.0162517
872.091	0.0164086
872.169	0.0164357
872.247	0.0162202
872.325	0.0162511
872.404	0.0163207
872.482	0.0162661
872.560	0.0160908
872.638	0.0162083
872.716	0.0163026
872.794	0.0163299
872.872	0.0163435
872.950	0.0163338
873.029	0.0164165
873.107	0.0164960
873.185	0.0165636
873.263	0.0165028
873.341	0.0167602
873.419	0.0168239
873.497	0.0169144
873.575	0.0170441
873.654	0.0168926
873.732	0.0169853
873.810	0.0169588
873.888	0.0170479
873.966	0.0169667
874.044	0.0169042
874.122	0.0168943
874.200	0.0169909
874.279	0.0169560
874.357	0.0168854
874.435	0.0168733
874.513	0.0168065
874.591	0.0168455
874.669	0.0169189
874.747	0.0168691
874.825	0.0168320
874.904	0.0167694
874.982	0.0167815
875.060	0.0167801
875.138	0.0165754
875.216	0.0167819
875.294	0.0167903
875.372	0.0165731
875.450	0.0165375
875.529	0.0163770
875.607	0.0165339
875.685	0.0164452
875.763	0.0163438
875.841	0.0164471
875.919	0.0163928
875.997	0.0162877
876.075	0.0163651
876.154	0.0163415
876.232	0.0163535
876.310	0.0163172
876.388	0.0165491
876.466	0.0163809
876.544	0.0164027
876.622	0.0166695
876.700	0.0164026
876.779	0.0165208
876.857	0.0165981
876.935	0.0166530
877.013	0.0166149
877.091	0.0166700
877.169	0.0167155
877.247	0.0167988
877.325	0.0167313
877.404	0.0167751
877.482	0.0168185
877.560	0.0166679
877.638	0.0167361
877.716	0.0167883
877.794	0.0168015
877.872	0.0167938
877.950	0.0166632
878.029	0.0167762
878.107	0.0167493
878.185	0.0165816
878.263	0.0163750
878.341	0.0165862
878.419	0.0165090
878.497	0.0164019
878.575	0.0164005
878.654	0.0163355
878.732	0.0164606
878.810	0.0164392
878.888	0.0164364
878.966	0.0163838
879.044	0.0162929
879.122	0.0164256
879.200	0.0162479
879.279	0.0162245
879.357	0.0161464
879.435	0.0163766
879.513	0.0164842
879.591	0.0165491
879.669	0.0165981
879.747	0.0165442
879.825	0.0166362
879.904	0.0166913
879.982	0.0166902
880.060	0.0168318
880.138	0.0167173
880.216	0.0168511
880.294	0.0167775
880.372	0.0166581
880.450	0.0168153
880.529	0.0167431
880.607	0.0166709
880.685	0.0166873
880.763	0.0167529
880.841	0.0167836
880.919	0.0167335
880.997	0.0166624
881.075	0.0166743
881.154	0.0167221
881.232	0.0166257
881.310	0.0168178
881.388	0.0166349
881.466	0.0167333
881.544	0.0166398
881.622	0.0164741
881.700	0.0164748
881.779	0.0167113
881.857	0.0165378
881.935	0.0164774
882.013	0.0166026
882.091	0.0167009
882.169	0.0165935
882.247	0.0167181
882.325	0.0166470
882.404	0.0165913
882.482	0.0166781
882.560	0.0167157
882.638	0.0167290
882.716	0.0170006
882.794	0.0167301
882.872	0.0167727
882.950	0.0168449
883.029	0.0168305
883.107	0.0168198
883.185	0.0168248
883.263	0.0169475
883.341	0.0169253
883.419	0.0169103
883.497	0.0169380
883.575	0.0169150
883.654	0.0169632
883.732	0.0168353
883.810	0.0169362
883.888	0.0170573
883.966	0.0168884
884.044	0.0169049
884.122	0.0168855
884.200	0.0168273
884.279	0.0166541
884.357	0.0166862
884.435	0.0166160
884.513	0.0164817
884.591	0.0163246
884.669	0.0162273
884.747	0.0160353
884.825	0.0160712
884.904	0.0159463
884.982	0.0159109
885.060	0.0159581
885.138	0.0160134
885.216	0.0160870
885.294	0.0161493
885.372	0.0161887
885.450	0.0161330
885.529	0.0162061
885.607	0.0162238
885.685	0.0162888
885.763	0.0165005
885.841	0.0164953
885.919	0.0165737
885.997	0.0164877
886.075	0.0165533
886.154	0.0166388
886.232	0.0167075
886.310	0.0168378
886.388	0.0167746
886.466	0.0169687
886.544	0.0169613
886.622	0.0169250
886.700	0.0169475
886.779	0.0168671
886.857	0.0170509
886.935	0.0170337
887.013	0.0171062
887.091	0.0169878
887.169	0.0169624
887.247	0.0168304
887.325	0.0168697
887.404	0.0167625
887.482	0.0167004
887.560	0.0167313
887.638	0.0167898
887.716	0.0168259
887.794	0.0167016
887.872	0.0167570
887.950	0.0166717
888.029	0.0167064
888.107	0.0166988
888.185	0.0167815
888.263	0.0166758
888.341	0.0165543
888.419	0.0166034
888.497	0.0166513
888.575	0.0166702
888.654	0.0167197
888.732	0.0166563
888.810	0.0166658
888.888	0.0167586
888.966	0.0166842
889.044	0.0167503
889.122	0.0168001
889.200	0.0168336
889.279	0.0168119
889.357	0.0166813
889.435	0.0168341
889.513	0.0167696
889.591	0.0167421
889.669	0.0167893
889.747	0.0167465
889.825	0.0168054
889.904	0.0168877
889.982	0.0168233
890.060	0.0168071
890.138	0.0167109
890.216	0.0165743
890.294	0.0166239
890.372	0.0168655
890.450	0.0166461
890.529	0.0166528
890.607	0.0165318
890.685	0.0164319
890.763	0.0164211
890.841	0.0162716
890.919	0.0163335
890.997	0.0162035
891.075	0.0162489
891.154	0.0161224
891.232	0.0160476
891.310	0.0158952
891.388	0.0160460
891.466	0.0159404
891.544	0.0160366
891.622	0.0160905
891.700	0.0159887
891.779	0.0159407
891.857	0.0160615
891.935	0.0160751
892.013	0.0160868
892.091	0.0162018
892.169	0.0165214
892.247	0.0164639
892.325	0.0164406
892.404	0.0166685
892.482	0.0168412
892.560	0.0164967
892.638	0.0167506
892.716	0.0169038
892.794	0.0169199
892.872	0.0168963
892.950	0.0170162
893.029	0.0169466
893.107	0.0167284
893.185	0.0168643
893.263	0.0169334
893.341	0.0169340
893.419	0.0170702
893.497	0.0168963
893.575	0.0168296
893.654	0.0168288
893.732	0.0169601
893.810	0.0167689
893.888	0.0166198
893.966	0.0169509
894.044	0.0169131
894.122	0.0167937
894.200	0.0167699
894.279	0.0167634
894.357	0.0167712
894.435	0.0166747
894.513	0.0167415
894.591	0.0166955
894.669	0.0168253
894.747	0.0166178
894.825	0.0165862
894.904	0.0166488
894.982	0.0166805
895.060	0.0167622
895.138	0.0166103
895.216	0.0166707
895.294	0.0166472
895.372	0.0165215
895.450	0.0166088
895.529	0.0167744
895.607	0.0166966
895.685	0.0168135
895.763	0.0166893
895.841	0.0166422
895.919	0.0166959
895.997	0.0167979
896.075	0.0167725
896.154	0.0166776
896.232	0.0166769
896.310	0.0167767
896.388	0.0167956
896.466	0.0166915
896.544	0.0167336
896.622	0.0166566
896.700	0.0166718
896.779	0.0165849
896.857	0.0164509
896.935	0.0166164
897.013	0.0164436
897.091	0.0164296
897.169	0.0164277
897.247	0.0163753
897.325	0.0162486
897.404	0.0162478
897.482	0.0163036
897.560	0.0161855
897.638	0.0161570
897.716	0.0161297
897.794	0.0161691
897.872	0.0161594
897.950	0.0161523
898.029	0.0162776
898.107	0.0162793
898.185	0.0163342
898.263	0.0163303
898.341	0.0162315
898.419	0.0163126
898.497	0.0165398
898.575	0.0164684
898.654	0.0166100
898.732	0.0166014
898.810	0.0165353
898.888	0.0168097
898.966	0.0167208
899.044	0.0165574
899.122	0.0166071
899.200	0.0167809
899.279	0.0168298
899.357	0.0167045
899.435	0.0166915
899.513	0.0166799
899.591	0.0167233
899.669	0.0167448
899.747	0.0166971
899.825	0.0166242
899.904	0.0167495
899.982	0.0167402
900.060	0.0167824
900.138	0.0167401
900.216	0.0166552
900.294	0.0167660
900.372	0.0167385
900.450	0.0168031
900.529	0.0168871
900.607	0.0169299
900.685	0.0168609
900.763	0.0169268
900.841	0.0167931
900.919	0.0167622
900.997	0.0167913
901.075	0.0168166
901.154	0.0168660
901.232	0.0169007
901.310	0.0168600
901.388	0.0167980
901.466	0.0169070
901.544	0.0168275
901.622	0.0168286
901.700	0.0168050
901.779	0.0168096
901.857	0.0167899
901.935	0.0167783
902.013	0.0166691
902.091	0.0167103
902.169	0.0166208
902.247	0.0167170
902.325	0.0166338
902.404	0.0165956
902.482	0.0166508
902.560	0.0166576
902.638	0.0165757
902.716	0.0164286
902.794	0.0164245
902.872	0.0165091
902.950	0.0164549
903.029	0.0163626
903.107	0.0164933
903.185	0.0164015
903.263	0.0162654
903.341	0.0163517
903.419	0.0162725
903.497	0.0162775
903.575	0.0163620
903.654	0.0163897
903.732	0.0162457
903.810	0.0162569
903.888	0.0162777
903.966	0.0161977
904.044	0.0162825
904.122	0.0164506
904.200	0.0163709
904.279	0.0164134
904.357	0.0164444
904.435	0.0165445
904.513	0.0165620
904.591	0.0166666
904.669	0.0166407
904.747	0.0165649
904.825	0.0167803
904.904	0.0166221
904.982	0.0166449
905.060	0.0166228
905.138	0.0166386
905.216	0.0166676
905.294	0.0167168
905.372	0.0166711
905.450	0.0165345
905.529	0.0165971
905.607	0.0165725
905.685	0.0167001
905.763	0.0165701
905.841	0.0165192
905.919	0.0165984
905.997	0.0165990
906.075	0.0164039
906.154	0.0165248
906.232	0.0166006
906.310	0.0166640
906.388	0.0167464
906.466	0.0166642
906.544	0.0168410
906.622	0.0166837
906.700	0.0167930
906.779	0.0167262
906.857	0.0167810
906.935	0.0167898
907.013	0.0167703
907.091	0.0168044
907.169	0.0170272
907.247	0.0168694
907.325	0.0169286
907.404	0.0167524
907.482	0.0168822
907.560	0.0169448
907.638	0.0169085
907.716	0.0169588
907.794	0.0169285
907.872	0.0166547
907.950	0.0166480
908.029	0.0166716
908.107	0.0167693
908.185	0.0166934
908.263	0.0166515
908.341	0.0166882
908.419	0.0166857
908.497	0.0167362
908.575	0.0167224
908.654	0.0165748
908.732	0.0167331
908.810	0.0168414
908.888	0.0168230
908.966	0.0167649
909.044	0.0167106
909.122	0.0167049
909.200	0.0168087
909.279	0.0166109
909.357	0.0166851
909.435	0.0166592
909.513	0.0167966
909.591	0.0165888
909.669	0.0166783
909.747	0.0166981
909.825	0.0164696
909.904	0.0165311
909.982	0.0165704
910.060	0.0164706
910.138	0.0165597
910.216	0.0166319
910.294	0.0164917
910.372	0.0165729
910.450	0.0167545
910.529	0.0167491
910.607	0.0166087
910.685	0.0164953
910.763	0.0165662
910.841	0.0166354
910.919	0.0165582
910.997	0.0166576
911.075	0.0165484
911.154	0.0166310
911.232	0.0166184
911.310	0.0165757
911.388	0.0165718
911.466	0.0167368
911.544	0.0166674
911.622	0.0165552
911.700	0.0164023
911.779	0.0164843
911.857	0.0166669
911.935	0.0165543
912.013	0.0164390
912.091	0.0165606
912.169	0.0166049
912.247	0.0166022
912.325	0.0165971
912.404	0.0164797
912.482	0.0166293
912.560	0.0164587
912.638	0.0165363
912.716	0.0166146
912.794	0.0165961
912.872	0.0166032
912.950	0.0165503
913.029	0.0166799
913.107	0.0167198
913.185	0.0166161
913.263	0.0166262
913.341	0.0166663
913.419	0.0166777
913.497	0.0165561
913.575	0.0165887
913.654	0.0166519
913.732	0.0165984
913.810	0.0166702
913.888	0.0166206
913.966	0.0165861
914.044	0.0165380
914.122	0.0166606
914.200	0.0166718
914.279	0.0165526
914.357	0.0164867
914.435	0.0164942
914.513	0.0164841
914.591	0.0165372
914.669	0.0165491
914.747	0.0165728
914.825	0.0166544
914.904	0.0165816
914.982	0.0165903
915.060	0.0166873
915.138	0.0166643
915.216	0.0166283
915.294	0.0168250
915.372	0.0168256
915.450	0.0168673
915.529	0.0169703
915.607	0.0168220
915.685	0.0168313
915.763	0.0169737
915.841	0.0168807
915.919	0.0168900
915.997	0.0169334
916.075	0.0169324
916.154	0.0167359
916.232	0.0169155
916.310	0.0168036
916.388	0.0169166
916.466	0.0169194
916.544	0.0167534
916.622	0.0166758
916.700	0.0169218
916.779	0.0167439
916.857	0.0167780
916.935	0.0166611
917.013	0.0167213
917.091	0.0166699
917.169	0.0165705
917.247	0.0166793
917.325	0.0166717
917.404	0.0166075
917.482	0.0164886
917.560	0.0165146
917.638	0.0166080
917.716	0.0164681
917.794	0.0162186
917.872	0.0163854
917.950	0.0164099
918.029	0.0163351
918.107	0.0164270
918.185	0.0163762
918.263	0.0163189
918.341	0.0162112
918.419	0.0162139
918.497	0.0163894
918.575	0.0162806
918.654	0.0163496
918.732	0.0164670
918.810	0.0164204
918.888	0.0162383
918.966	0.0163708
919.044	0.0163549
919.122	0.0164402
919.200	0.0162704
919.279	0.0163056
919.357	0.0163680
919.435	0.0164580
919.513	0.0164805
919.591	0.0164922
919.669	0.0164931
919.747	0.0164913
919.825	0.0164843
919.904	0.0165049
