06/01/2022	17:34:40	Ver.	4.1	UNKNOWN
Optical Delay	599.975067	Delta X		0.078125	Sweeps	1	Scan Rate	0/0
Coordinates	Axis 1	NaN	Axis 2	NaN	Axis 3	NaN	Axis 4	NaN	Axis 5	NaN	Axis 6	0.000000
TX Power	0.000000	RX Power	0.000000

599.975	0.0165872
600.053	0.0165831
600.131	0.0164095
600.209	0.0165263
600.288	0.0166010
600.366	0.0165985
600.444	0.0165414
600.522	0.0166350
600.600	0.0165788
600.678	0.0165427
600.756	0.0163923
600.834	0.0165117
600.913	0.0167258
600.991	0.0165360
601.069	0.0165726
601.147	0.0164779
601.225	0.0164563
601.303	0.0166212
601.381	0.0166230
601.459	0.0166901
601.538	0.0165274
601.616	0.0165042
601.694	0.0166953
601.772	0.0167251
601.850	0.0166873
601.928	0.0165927
602.006	0.0164832
602.084	0.0165838
602.163	0.0167189
602.241	0.0166238
602.319	0.0165588
602.397	0.0165919
602.475	0.0166283
602.553	0.0166744
602.631	0.0166692
602.709	0.0166101
602.788	0.0166368
602.866	0.0167465
602.944	0.0165848
603.022	0.0165519
603.100	0.0167102
603.178	0.0164677
603.256	0.0165892
603.334	0.0167022
603.413	0.0165292
603.491	0.0165665
603.569	0.0166178
603.647	0.0166711
603.725	0.0166206
603.803	0.0165290
603.881	0.0166942
603.959	0.0165871
604.038	0.0165395
604.116	0.0166151
604.194	0.0165394
604.272	0.0165543
604.350	0.0164713
604.428	0.0165581
604.506	0.0166312
604.584	0.0166956
604.663	0.0164507
604.741	0.0165817
604.819	0.0165955
604.897	0.0165619
604.975	0.0165488
605.053	0.0166460
605.131	0.0166347
605.209	0.0165499
605.288	0.0165968
605.366	0.0166328
605.444	0.0165592
605.522	0.0165150
605.600	0.0165783
605.678	0.0167120
605.756	0.0165668
605.834	0.0165693
605.913	0.0165685
605.991	0.0166285
606.069	0.0166914
606.147	0.0165534
606.225	0.0165087
606.303	0.0165504
606.381	0.0166059
606.459	0.0166228
606.538	0.0165825
606.616	0.0165677
606.694	0.0165926
606.772	0.0165600
606.850	0.0165754
606.928	0.0164963
607.006	0.0164874
607.084	0.0166335
607.163	0.0166442
607.241	0.0165797
607.319	0.0164514
607.397	0.0166709
607.475	0.0166286
607.553	0.0166254
607.631	0.0164697
607.709	0.0164359
607.788	0.0165501
607.866	0.0165441
607.944	0.0165136
608.022	0.0166059
608.100	0.0164834
608.178	0.0165235
608.256	0.0165215
608.334	0.0167631
608.413	0.0166094
608.491	0.0165769
608.569	0.0165482
608.647	0.0166447
608.725	0.0166448
608.803	0.0165772
608.881	0.0165396
608.959	0.0165527
609.038	0.0166128
609.116	0.0166186
609.194	0.0166297
609.272	0.0165025
609.350	0.0166180
609.428	0.0166533
609.506	0.0166249
609.584	0.0166901
609.663	0.0166673
609.741	0.0165973
609.819	0.0166901
609.897	0.0166670
609.975	0.0165812
610.053	0.0165665
610.131	0.0166280
610.209	0.0166066
610.288	0.0166275
610.366	0.0165375
610.444	0.0165361
610.522	0.0165049
610.600	0.0165851
610.678	0.0165965
610.756	0.0165447
610.834	0.0165892
610.913	0.0167143
610.991	0.0166839
611.069	0.0165562
611.147	0.0165664
611.225	0.0166280
611.303	0.0165124
611.381	0.0165383
611.459	0.0166294
611.538	0.0166506
611.616	0.0166245
611.694	0.0166664
611.772	0.0165366
611.850	0.0165216
611.928	0.0165961
612.006	0.0165804
612.084	0.0165917
612.163	0.0165590
612.241	0.0165471
612.319	0.0166778
612.397	0.0166492
612.475	0.0166650
612.553	0.0166639
612.631	0.0164819
612.709	0.0164794
612.788	0.0167019
612.866	0.0165576
612.944	0.0165930
613.022	0.0166258
613.100	0.0164974
613.178	0.0165974
613.256	0.0165234
613.334	0.0164631
613.413	0.0164748
613.491	0.0166525
613.569	0.0165337
613.647	0.0165803
613.725	0.0165443
613.803	0.0164141
613.881	0.0165516
613.959	0.0165359
614.038	0.0164763
614.116	0.0165481
614.194	0.0165111
614.272	0.0165427
614.350	0.0165741
614.428	0.0165633
614.506	0.0165720
614.584	0.0165937
614.663	0.0165400
614.741	0.0165599
614.819	0.0165249
614.897	0.0165331
614.975	0.0164886
615.053	0.0165806
615.131	0.0165361
615.209	0.0165996
615.288	0.0165742
615.366	0.0166113
615.444	0.0165717
615.522	0.0164573
615.600	0.0165034
615.678	0.0164812
615.756	0.0166727
615.834	0.0164601
615.913	0.0166449
615.991	0.0165788
616.069	0.0166265
616.147	0.0164964
616.225	0.0163256
616.303	0.0165016
616.381	0.0164962
616.459	0.0166549
616.538	0.0166190
616.616	0.0165550
616.694	0.0166418
616.772	0.0165783
616.850	0.0165932
616.928	0.0166612
617.006	0.0164954
617.084	0.0166158
617.163	0.0165453
617.241	0.0166360
617.319	0.0165520
617.397	0.0166183
617.475	0.0165808
617.553	0.0166339
617.631	0.0166205
617.709	0.0166787
617.788	0.0166483
617.866	0.0165952
617.944	0.0164110
618.022	0.0164938
618.100	0.0165635
618.178	0.0165583
618.256	0.0167435
618.334	0.0166378
618.413	0.0164412
618.491	0.0164790
618.569	0.0165759
618.647	0.0166500
618.725	0.0165771
618.803	0.0165010
618.881	0.0164629
618.959	0.0165676
619.038	0.0166019
619.116	0.0163532
619.194	0.0165722
619.272	0.0164294
619.350	0.0166869
619.428	0.0166042
619.506	0.0164328
619.584	0.0165894
619.663	0.0165641
619.741	0.0166145
619.819	0.0166156
619.897	0.0164391
619.975	0.0165544
620.053	0.0165459
620.131	0.0165937
620.209	0.0166154
620.288	0.0164579
620.366	0.0164875
620.444	0.0166860
620.522	0.0164983
620.600	0.0165518
620.678	0.0164524
620.756	0.0164951
620.834	0.0164128
620.913	0.0163750
620.991	0.0164269
621.069	0.0166201
621.147	0.0164534
621.225	0.0164726
621.303	0.0164204
621.381	0.0164709
621.459	0.0166334
621.538	0.0165646
621.616	0.0165428
621.694	0.0166122
621.772	0.0165729
621.850	0.0164793
621.928	0.0164976
622.006	0.0167376
622.084	0.0166334
622.163	0.0167666
622.241	0.0166708
622.319	0.0166366
622.397	0.0165649
622.475	0.0166303
622.553	0.0166957
622.631	0.0164163
622.709	0.0166333
622.788	0.0165300
622.866	0.0165219
622.944	0.0166827
623.022	0.0166157
623.100	0.0165352
623.178	0.0165543
623.256	0.0166214
623.334	0.0166129
623.413	0.0165144
623.491	0.0164780
623.569	0.0167699
623.647	0.0165379
623.725	0.0164095
623.803	0.0164767
623.881	0.0165899
623.959	0.0166019
624.038	0.0164317
624.116	0.0165070
624.194	0.0164609
624.272	0.0165921
624.350	0.0165175
624.428	0.0164849
624.506	0.0166390
624.584	0.0166019
624.663	0.0166423
624.741	0.0165212
624.819	0.0165160
624.897	0.0166671
624.975	0.0166420
625.053	0.0164494
625.131	0.0165527
625.209	0.0166215
625.288	0.0164478
625.366	0.0164735
625.444	0.0163715
625.522	0.0164239
625.600	0.0163879
625.678	0.0163424
625.756	0.0165132
625.834	0.0165371
625.913	0.0165296
625.991	0.0166764
626.069	0.0166284
626.147	0.0167493
626.225	0.0167982
626.303	0.0167670
626.381	0.0168357
626.459	0.0168385
626.538	0.0167260
626.616	0.0167328
626.694	0.0167031
626.772	0.0165125
626.850	0.0163374
626.928	0.0164416
627.006	0.0163598
627.084	0.0162756
627.163	0.0161630
627.241	0.0161563
627.319	0.0162791
627.397	0.0163797
627.475	0.0162962
627.553	0.0164781
627.631	0.0166035
627.709	0.0166962
627.788	0.0169622
627.866	0.0170054
627.944	0.0169627
628.022	0.0171774
628.100	0.0173135
628.178	0.0171861
628.256	0.0171559
628.334	0.0171103
628.413	0.0171612
628.491	0.0170186
628.569	0.0170010
628.647	0.0168265
628.725	0.0166338
628.803	0.0164771
628.881	0.0164282
628.959	0.0162646
629.038	0.0162947
629.116	0.0159769
629.194	0.0159711
629.272	0.0157472
629.350	0.0158153
629.428	0.0158762
629.506	0.0155769
629.584	0.0155329
629.663	0.0158071
629.741	0.0158958
629.819	0.0157596
629.897	0.0160596
629.975	0.0163508
630.053	0.0165472
630.131	0.0166937
630.209	0.0169981
630.288	0.0171793
630.366	0.0174178
630.444	0.0175860
630.522	0.0178076
630.600	0.0180090
630.678	0.0180058
630.756	0.0180518
630.834	0.0181523
630.913	0.0179712
630.991	0.0177127
631.069	0.0174993
631.147	0.0172394
631.225	0.0169941
631.303	0.0167022
631.381	0.0164936
631.459	0.0161710
631.538	0.0158723
631.616	0.0157069
631.694	0.0155272
631.772	0.0154778
631.850	0.0152094
631.928	0.0151348
632.006	0.0152010
632.084	0.0151060
632.163	0.0151719
632.241	0.0152830
632.319	0.0155346
632.397	0.0154158
632.475	0.0156882
632.553	0.0158820
632.631	0.0159821
632.709	0.0162463
632.788	0.0164343
632.866	0.0167608
632.944	0.0170022
633.022	0.0172682
633.100	0.0175179
633.178	0.0177836
633.256	0.0179658
633.334	0.0181510
633.413	0.0181370
633.491	0.0182416
633.569	0.0182790
633.647	0.0183237
633.725	0.0181314
633.803	0.0181345
633.881	0.0179279
633.959	0.0178369
634.038	0.0176720
634.116	0.0174026
634.194	0.0174440
634.272	0.0171963
634.350	0.0171080
634.428	0.0168908
634.506	0.0165437
634.584	0.0163886
634.663	0.0159951
634.741	0.0157272
634.819	0.0156413
634.897	0.0151393
634.975	0.0148661
635.053	0.0147904
635.131	0.0144483
635.209	0.0143884
635.288	0.0142805
635.366	0.0143242
635.444	0.0144593
635.522	0.0146511
635.600	0.0148203
635.678	0.0151263
635.756	0.0154665
635.834	0.0158055
635.913	0.0161935
635.991	0.0166537
636.069	0.0170760
636.147	0.0174573
636.225	0.0176491
636.303	0.0179145
636.381	0.0180912
636.459	0.0182494
636.538	0.0182935
636.616	0.0182791
636.694	0.0182733
636.772	0.0182479
636.850	0.0180802
636.928	0.0178318
637.006	0.0178090
637.084	0.0176011
637.163	0.0173258
637.241	0.0171998
637.319	0.0169496
637.397	0.0167057
637.475	0.0165191
637.553	0.0162878
637.631	0.0161956
637.709	0.0160455
637.788	0.0160917
637.866	0.0160480
637.944	0.0160102
638.022	0.0160308
638.100	0.0161569
638.178	0.0162095
638.256	0.0163176
638.334	0.0165341
638.413	0.0165811
638.491	0.0165191
638.569	0.0165594
638.647	0.0165796
638.725	0.0165840
638.803	0.0165686
638.881	0.0165839
638.959	0.0165887
639.038	0.0165059
639.116	0.0163275
639.194	0.0164149
639.272	0.0162788
639.350	0.0163708
639.428	0.0164652
639.506	0.0162875
639.584	0.0162566
639.663	0.0162154
639.741	0.0160606
639.819	0.0156613
639.897	0.0154982
639.975	0.0153773
640.053	0.0151991
640.131	0.0147740
640.209	0.0147484
640.288	0.0146229
640.366	0.0145824
640.444	0.0146140
640.522	0.0149433
640.600	0.0151395
640.678	0.0155459
640.756	0.0159488
640.834	0.0165308
640.913	0.0170107
640.991	0.0174160
641.069	0.0179989
641.147	0.0184401
641.225	0.0188495
641.303	0.0192236
641.381	0.0193812
641.459	0.0195493
641.538	0.0195162
641.616	0.0195559
641.694	0.0195892
641.772	0.0192687
641.850	0.0193597
641.928	0.0192498
642.006	0.0188790
642.084	0.0188622
642.163	0.0187290
642.241	0.0185854
642.319	0.0182357
642.397	0.0179311
642.475	0.0176679
642.553	0.0173789
642.631	0.0166033
642.709	0.0163361
642.788	0.0157243
642.866	0.0152282
642.944	0.0146678
643.022	0.0142477
643.100	0.0136035
643.178	0.0130315
643.256	0.0126350
643.334	0.0123529
643.413	0.0120731
643.491	0.0122782
643.569	0.0123339
643.647	0.0123307
643.725	0.0126697
643.803	0.0130669
643.881	0.0135389
643.959	0.0140119
644.038	0.0144438
644.116	0.0150375
644.194	0.0155206
644.272	0.0158266
644.350	0.0163152
644.428	0.0165486
644.506	0.0169704
644.584	0.0170739
644.663	0.0172718
644.741	0.0175205
644.819	0.0177423
644.897	0.0178077
644.975	0.0180022
645.053	0.0181752
645.131	0.0183946
645.209	0.0184815
645.288	0.0186043
645.366	0.0188177
645.444	0.0190115
645.522	0.0190424
645.600	0.0191231
645.678	0.0193296
645.756	0.0193742
645.834	0.0195029
645.913	0.0195719
645.991	0.0194276
646.069	0.0194795
646.147	0.0193271
646.225	0.0192014
646.303	0.0189848
646.381	0.0188937
646.459	0.0188667
646.538	0.0184732
646.616	0.0184219
646.694	0.0183915
646.772	0.0181048
646.850	0.0178845
646.928	0.0177023
647.006	0.0174046
647.084	0.0170866
647.163	0.0168220
647.241	0.0160553
647.319	0.0155830
647.397	0.0151440
647.475	0.0143991
647.553	0.0137438
647.631	0.0130692
647.709	0.0125360
647.788	0.0119186
647.866	0.0116451
647.944	0.0111313
648.022	0.0108202
648.100	0.0106304
648.178	0.0107579
648.256	0.0106893
648.334	0.0109818
648.413	0.0113823
648.491	0.0118025
648.569	0.0124316
648.647	0.0131073
648.725	0.0139423
648.803	0.0146873
648.881	0.0154958
648.959	0.0162802
649.038	0.0170662
649.116	0.0177588
649.194	0.0186140
649.272	0.0193204
649.350	0.0198767
649.428	0.0202932
649.506	0.0207264
649.584	0.0210775
649.663	0.0213542
649.741	0.0214712
649.819	0.0215768
649.897	0.0214778
649.975	0.0214887
650.053	0.0213990
650.131	0.0212057
650.209	0.0210361
650.288	0.0208002
650.366	0.0203868
650.444	0.0198933
650.522	0.0195239
650.600	0.0191032
650.678	0.0185719
650.756	0.0181377
650.834	0.0175323
650.913	0.0171128
650.991	0.0167167
651.069	0.0161280
651.147	0.0158963
651.225	0.0155227
651.303	0.0152849
651.381	0.0152195
651.459	0.0151263
651.538	0.0150205
651.616	0.0149080
651.694	0.0148596
651.772	0.0148972
651.850	0.0148067
651.928	0.0148450
652.006	0.0147166
652.084	0.0145953
652.163	0.0145354
652.241	0.0143657
652.319	0.0141113
652.397	0.0138211
652.475	0.0134625
652.553	0.0133097
652.631	0.0131588
652.709	0.0128423
652.788	0.0124429
652.866	0.0121450
652.944	0.0120613
653.022	0.0120290
653.100	0.0121114
653.178	0.0123221
653.256	0.0124945
653.334	0.0130312
653.413	0.0135320
653.491	0.0140638
653.569	0.0148467
653.647	0.0157244
653.725	0.0165816
653.803	0.0176979
653.881	0.0185881
653.959	0.0195617
654.038	0.0203003
654.116	0.0210905
654.194	0.0217335
654.272	0.0222647
654.350	0.0227251
654.428	0.0229186
654.506	0.0230485
654.584	0.0229331
654.663	0.0228180
654.741	0.0224847
654.819	0.0221191
654.897	0.0218235
654.975	0.0210739
655.053	0.0207856
655.131	0.0203488
655.209	0.0196724
655.288	0.0190769
655.366	0.0186799
655.444	0.0180094
655.522	0.0174683
655.600	0.0169626
655.678	0.0164500
655.756	0.0158582
655.834	0.0154305
655.913	0.0146888
655.991	0.0141344
656.069	0.0138163
656.147	0.0133022
656.225	0.0127859
656.303	0.0124910
656.381	0.0122887
656.459	0.0122073
656.538	0.0121619
656.616	0.0122839
656.694	0.0123058
656.772	0.0124918
656.850	0.0128640
656.928	0.0131363
657.006	0.0136530
657.084	0.0138411
657.163	0.0141417
657.241	0.0142381
657.319	0.0147381
657.397	0.0149174
657.475	0.0150529
657.553	0.0154265
657.631	0.0155550
657.709	0.0158117
657.788	0.0158845
657.866	0.0161414
657.944	0.0163473
658.022	0.0165947
658.100	0.0167800
658.178	0.0170428
658.256	0.0172142
658.334	0.0175690
658.413	0.0175446
658.491	0.0178428
658.569	0.0177730
658.647	0.0179172
658.725	0.0180830
658.803	0.0181503
658.881	0.0181395
658.959	0.0182776
659.038	0.0184343
659.116	0.0184319
659.194	0.0185354
659.272	0.0182972
659.350	0.0185941
659.428	0.0185926
659.506	0.0186290
659.584	0.0187270
659.663	0.0185609
659.741	0.0186581
659.819	0.0185925
659.897	0.0187180
659.975	0.0187071
660.053	0.0187224
660.131	0.0186527
660.209	0.0186005
660.288	0.0185970
660.366	0.0184761
660.444	0.0181813
660.522	0.0179890
660.600	0.0175501
660.678	0.0170335
660.756	0.0165530
660.834	0.0160670
660.913	0.0153802
660.991	0.0148853
661.069	0.0144779
661.147	0.0140038
661.225	0.0137098
661.303	0.0135693
661.381	0.0134546
661.459	0.0134103
661.538	0.0134012
661.616	0.0135744
661.694	0.0138348
661.772	0.0142443
661.850	0.0144666
661.928	0.0150255
662.006	0.0154238
662.084	0.0158591
662.163	0.0162997
662.241	0.0169211
662.319	0.0170259
662.397	0.0175397
662.475	0.0177419
662.553	0.0178837
662.631	0.0179136
662.709	0.0179050
662.788	0.0177645
662.866	0.0175880
662.944	0.0174330
663.022	0.0172214
663.100	0.0168578
663.178	0.0167077
663.256	0.0166251
663.334	0.0165993
663.413	0.0163951
663.491	0.0161481
663.569	0.0160197
663.647	0.0158337
663.725	0.0157667
663.803	0.0156577
663.881	0.0155695
663.959	0.0153125
664.038	0.0152335
664.116	0.0150681
664.194	0.0152247
664.272	0.0151584
664.350	0.0151064
664.428	0.0155356
664.506	0.0158525
664.584	0.0158877
664.663	0.0161276
664.741	0.0165450
664.819	0.0167693
664.897	0.0169620
664.975	0.0171758
665.053	0.0172651
665.131	0.0172916
665.209	0.0174576
665.288	0.0175367
665.366	0.0175745
665.444	0.0176906
665.522	0.0179231
665.600	0.0179340
665.678	0.0178859
665.756	0.0180333
665.834	0.0182534
665.913	0.0182246
665.991	0.0184294
666.069	0.0184631
666.147	0.0185571
666.225	0.0185088
666.303	0.0183826
666.381	0.0182616
666.459	0.0180497
666.538	0.0180782
666.616	0.0177551
666.694	0.0175358
666.772	0.0173201
666.850	0.0170722
666.928	0.0168421
667.006	0.0165611
667.084	0.0165090
667.163	0.0162885
667.241	0.0161423
667.319	0.0160321
667.397	0.0159660
667.475	0.0159248
667.553	0.0158951
667.631	0.0159467
667.709	0.0158240
667.788	0.0156314
667.866	0.0155917
667.944	0.0154027
668.022	0.0153922
668.100	0.0152492
668.178	0.0150714
668.256	0.0148484
668.334	0.0146674
668.413	0.0146811
668.491	0.0143565
668.569	0.0143571
668.647	0.0146187
668.725	0.0147151
668.803	0.0148799
668.881	0.0149907
668.959	0.0153431
669.038	0.0153866
669.116	0.0154568
669.194	0.0158016
669.272	0.0161384
669.350	0.0162935
669.428	0.0164556
669.506	0.0165792
669.584	0.0166191
669.663	0.0166690
669.741	0.0168285
669.819	0.0166946
669.897	0.0168186
669.975	0.0166961
670.053	0.0167090
670.131	0.0167962
670.209	0.0168893
670.288	0.0167016
670.366	0.0167559
670.444	0.0167838
670.522	0.0168656
670.600	0.0171109
670.678	0.0171497
670.756	0.0172115
670.834	0.0173053
670.913	0.0175609
670.991	0.0177071
671.069	0.0180363
671.147	0.0183617
671.225	0.0184853
671.303	0.0186369
671.381	0.0189848
671.459	0.0191133
671.538	0.0191685
671.616	0.0192432
671.694	0.0192631
671.772	0.0191780
671.850	0.0191331
671.928	0.0189986
672.006	0.0186662
672.084	0.0185008
672.163	0.0181432
672.241	0.0178267
672.319	0.0175928
672.397	0.0172550
672.475	0.0168955
672.553	0.0166472
672.631	0.0162465
672.709	0.0160028
672.788	0.0157098
672.866	0.0154547
672.944	0.0152319
673.022	0.0149764
673.100	0.0148482
673.178	0.0145835
673.256	0.0144443
673.334	0.0144151
673.413	0.0142381
673.491	0.0141927
673.569	0.0141824
673.647	0.0141195
673.725	0.0142107
673.803	0.0142358
673.881	0.0141872
673.959	0.0142571
674.038	0.0144788
674.116	0.0146037
674.194	0.0149106
674.272	0.0150151
674.350	0.0152293
674.428	0.0152409
674.506	0.0155791
674.584	0.0158777
674.663	0.0161296
674.741	0.0162238
674.819	0.0163264
674.897	0.0166222
674.975	0.0169376
675.053	0.0171844
675.131	0.0174127
675.209	0.0176609
675.288	0.0177493
675.366	0.0178723
675.444	0.0178476
675.522	0.0178635
675.600	0.0178618
675.678	0.0176150
675.756	0.0176450
675.834	0.0174947
675.913	0.0172266
675.991	0.0169295
676.069	0.0168060
676.147	0.0165384
676.225	0.0162222
676.303	0.0161220
676.381	0.0159388
676.459	0.0159486
676.538	0.0159269
676.616	0.0161297
676.694	0.0158841
676.772	0.0160499
676.850	0.0160519
676.928	0.0163902
677.006	0.0164570
677.084	0.0164561
677.163	0.0167680
677.241	0.0170840
677.319	0.0173545
677.397	0.0175651
677.475	0.0178522
677.553	0.0178445
677.631	0.0181306
677.709	0.0182486
677.788	0.0184302
677.866	0.0185413
677.944	0.0183156
678.022	0.0186423
678.100	0.0187137
678.178	0.0185450
678.256	0.0186010
678.334	0.0185962
678.413	0.0182946
678.491	0.0183211
678.569	0.0181519
678.647	0.0179095
678.725	0.0176733
678.803	0.0175400
678.881	0.0171210
678.959	0.0168035
679.038	0.0166434
679.116	0.0163295
679.194	0.0160352
679.272	0.0157920
679.350	0.0156657
679.428	0.0154181
679.506	0.0152515
679.584	0.0151359
679.663	0.0151618
679.741	0.0151147
679.819	0.0151500
679.897	0.0148514
679.975	0.0150258
680.053	0.0148809
680.131	0.0147296
680.209	0.0146835
680.288	0.0145084
680.366	0.0146190
680.444	0.0144067
680.522	0.0141663
680.600	0.0140707
680.678	0.0140721
680.756	0.0140488
680.834	0.0140989
680.913	0.0140999
680.991	0.0142334
681.069	0.0144002
681.147	0.0147156
681.225	0.0150790
681.303	0.0152607
681.381	0.0155112
681.459	0.0158855
681.538	0.0162128
681.616	0.0164484
681.694	0.0166773
681.772	0.0169264
681.850	0.0172977
681.928	0.0174746
682.006	0.0175428
682.084	0.0176887
682.163	0.0178705
682.241	0.0179765
682.319	0.0181628
682.397	0.0183304
682.475	0.0184571
682.553	0.0184129
682.631	0.0184192
682.709	0.0186312
682.788	0.0185441
682.866	0.0184015
682.944	0.0184060
683.022	0.0183071
683.100	0.0182696
683.178	0.0180894
683.256	0.0179568
683.334	0.0177038
683.413	0.0174762
683.491	0.0173003
683.569	0.0171096
683.647	0.0168718
683.725	0.0168845
683.803	0.0165557
683.881	0.0165839
683.959	0.0164922
684.038	0.0165414
684.116	0.0164632
684.194	0.0165668
684.272	0.0166934
684.350	0.0165796
684.428	0.0168140
684.506	0.0170492
684.584	0.0170209
684.663	0.0171552
684.741	0.0173337
684.819	0.0174267
684.897	0.0175002
684.975	0.0176148
685.053	0.0176541
685.131	0.0175700
685.209	0.0176205
685.288	0.0177789
685.366	0.0177034
685.444	0.0177057
685.522	0.0176827
685.600	0.0175053
685.678	0.0173969
685.756	0.0174324
685.834	0.0171806
685.913	0.0169799
685.991	0.0166238
686.069	0.0164792
686.147	0.0161895
686.225	0.0159287
686.303	0.0154719
686.381	0.0152490
686.459	0.0149802
686.538	0.0147393
686.616	0.0143993
686.694	0.0140800
686.772	0.0141412
686.850	0.0139682
686.928	0.0137764
687.006	0.0137460
687.084	0.0136424
687.163	0.0138170
687.241	0.0136900
687.319	0.0135481
687.397	0.0135327
687.475	0.0137383
687.553	0.0138470
687.631	0.0139587
687.709	0.0140079
687.788	0.0142873
687.866	0.0146871
687.944	0.0148819
688.022	0.0152956
688.100	0.0157591
688.178	0.0161262
688.256	0.0165600
688.334	0.0169923
688.413	0.0173923
688.491	0.0178603
688.569	0.0181334
688.647	0.0185881
688.725	0.0188457
688.803	0.0190630
688.881	0.0191164
688.959	0.0193790
689.038	0.0195804
689.116	0.0195071
689.194	0.0194311
689.272	0.0192968
689.350	0.0191620
689.428	0.0190849
689.506	0.0189530
689.584	0.0188000
689.663	0.0185339
689.741	0.0182198
689.819	0.0181792
689.897	0.0178333
689.975	0.0177439
690.053	0.0175122
690.131	0.0172080
690.209	0.0169082
690.288	0.0167445
690.366	0.0165538
690.444	0.0163107
690.522	0.0159206
690.600	0.0157968
690.678	0.0155690
690.756	0.0154404
690.834	0.0154552
690.913	0.0154562
690.991	0.0152316
691.069	0.0154117
691.147	0.0154900
691.225	0.0157673
691.303	0.0159134
691.381	0.0159756
691.459	0.0162934
691.538	0.0163882
691.616	0.0165416
691.694	0.0168534
691.772	0.0170380
691.850	0.0172574
691.928	0.0173481
692.006	0.0175848
692.084	0.0174640
692.163	0.0175483
692.241	0.0175857
692.319	0.0175893
692.397	0.0176576
692.475	0.0175832
692.553	0.0172878
692.631	0.0172294
692.709	0.0171198
692.788	0.0169444
692.866	0.0166006
692.944	0.0165885
693.022	0.0164069
693.100	0.0162031
693.178	0.0160086
693.256	0.0160606
693.334	0.0158323
693.413	0.0157689
693.491	0.0157635
693.569	0.0155151
693.647	0.0156011
693.725	0.0155525
693.803	0.0154371
693.881	0.0154090
693.959	0.0153856
694.038	0.0152599
694.116	0.0152406
694.194	0.0153009
694.272	0.0151183
694.350	0.0150758
694.428	0.0149082
694.506	0.0151481
694.584	0.0149332
694.663	0.0149655
694.741	0.0149258
694.819	0.0150593
694.897	0.0149628
694.975	0.0151254
695.053	0.0152021
695.131	0.0153467
695.209	0.0156025
695.288	0.0158791
695.366	0.0159964
695.444	0.0164311
695.522	0.0166343
695.600	0.0168013
695.678	0.0172381
695.756	0.0175193
695.834	0.0176424
695.913	0.0178224
695.991	0.0180195
696.069	0.0182642
696.147	0.0182495
696.225	0.0183149
696.303	0.0183784
696.381	0.0183735
696.459	0.0182469
696.538	0.0182238
696.616	0.0181140
696.694	0.0180768
696.772	0.0179388
696.850	0.0177666
696.928	0.0174973
697.006	0.0174297
697.084	0.0172324
697.163	0.0170713
697.241	0.0169885
697.319	0.0169150
697.397	0.0166772
697.475	0.0166082
697.553	0.0164304
697.631	0.0164380
697.709	0.0163719
697.788	0.0162699
697.866	0.0161538
697.944	0.0160835
698.022	0.0160618
698.100	0.0161751
698.178	0.0162978
698.256	0.0162337
698.334	0.0162525
698.413	0.0164751
698.491	0.0165626
698.569	0.0166297
698.647	0.0168473
698.725	0.0170361
698.803	0.0171316
698.881	0.0172599
698.959	0.0173869
699.038	0.0174538
699.116	0.0177489
699.194	0.0176496
699.272	0.0178576
699.350	0.0179185
699.428	0.0178875
699.506	0.0179575
699.584	0.0178567
699.663	0.0178101
699.741	0.0177816
699.819	0.0175262
699.897	0.0173634
699.975	0.0174354
700.053	0.0172225
700.131	0.0169711
700.209	0.0167435
700.288	0.0164597
700.366	0.0162717
700.444	0.0160114
700.522	0.0158243
700.600	0.0155730
700.678	0.0154195
700.756	0.0152013
700.834	0.0149157
700.913	0.0148264
700.991	0.0145034
701.069	0.0143596
701.147	0.0144086
701.225	0.0143388
701.303	0.0140051
701.381	0.0141167
701.459	0.0140495
701.538	0.0141463
701.616	0.0141200
701.694	0.0143084
701.772	0.0142944
701.850	0.0144140
701.928	0.0146043
702.006	0.0148515
702.084	0.0150014
702.163	0.0152733
702.241	0.0155450
702.319	0.0157430
702.397	0.0158858
702.475	0.0163185
702.553	0.0166962
702.631	0.0168491
702.709	0.0173555
702.788	0.0176982
702.866	0.0179008
702.944	0.0180638
703.022	0.0180340
703.100	0.0182205
703.178	0.0183415
703.256	0.0184805
703.334	0.0184686
703.413	0.0185477
703.491	0.0185180
703.569	0.0183893
703.647	0.0183295
703.725	0.0180431
703.803	0.0181702
703.881	0.0179237
703.959	0.0177114
704.038	0.0176615
704.116	0.0174776
704.194	0.0173732
704.272	0.0171896
704.350	0.0171400
704.428	0.0171088
704.506	0.0169085
704.584	0.0168690
704.663	0.0169527
704.741	0.0169846
704.819	0.0167455
704.897	0.0166596
704.975	0.0167460
705.053	0.0166660
705.131	0.0165653
705.209	0.0164326
705.288	0.0165168
705.366	0.0163839
705.444	0.0164024
705.522	0.0163392
705.600	0.0164980
705.678	0.0164811
705.756	0.0164579
705.834	0.0165531
705.913	0.0166496
705.991	0.0167876
706.069	0.0168369
706.147	0.0169660
706.225	0.0170651
706.303	0.0171404
706.381	0.0173637
706.459	0.0176142
706.538	0.0175813
706.616	0.0175221
706.694	0.0176745
706.772	0.0177250
706.850	0.0178065
706.928	0.0176490
707.006	0.0175212
707.084	0.0173533
707.163	0.0170356
707.241	0.0168484
707.319	0.0167245
707.397	0.0161989
707.475	0.0161430
707.553	0.0159940
707.631	0.0156475
707.709	0.0154974
707.788	0.0152501
707.866	0.0151380
707.944	0.0149685
708.022	0.0147652
708.100	0.0145604
708.178	0.0148163
708.256	0.0145762
708.334	0.0145120
708.413	0.0145820
708.491	0.0145238
708.569	0.0146047
708.647	0.0147154
708.725	0.0147521
708.803	0.0147296
708.881	0.0150003
708.959	0.0150844
709.038	0.0152752
709.116	0.0153041
709.194	0.0157184
709.272	0.0156332
709.350	0.0157939
709.428	0.0159798
709.506	0.0160394
709.584	0.0161967
709.663	0.0161990
709.741	0.0163348
709.819	0.0166975
709.897	0.0167193
709.975	0.0168172
710.053	0.0169975
710.131	0.0172964
710.209	0.0174236
710.288	0.0176928
710.366	0.0178428
710.444	0.0177926
710.522	0.0179623
710.600	0.0182845
710.678	0.0183171
710.756	0.0182845
710.834	0.0183948
710.913	0.0183765
710.991	0.0184322
711.069	0.0183023
711.147	0.0181471
711.225	0.0180791
711.303	0.0180527
711.381	0.0176919
711.459	0.0176803
711.538	0.0173905
711.616	0.0172256
711.694	0.0171569
711.772	0.0170328
711.850	0.0169743
711.928	0.0167274
712.006	0.0166338
712.084	0.0164534
712.163	0.0163020
712.241	0.0162759
712.319	0.0160561
712.397	0.0160194
712.475	0.0160532
712.553	0.0160674
712.631	0.0161459
712.709	0.0162469
712.788	0.0161893
712.866	0.0163343
712.944	0.0164759
713.022	0.0166442
713.100	0.0169936
713.178	0.0170004
713.256	0.0172030
713.334	0.0174077
713.413	0.0173733
713.491	0.0176199
713.569	0.0176308
713.647	0.0177435
713.725	0.0179570
713.803	0.0179849
713.881	0.0178743
713.959	0.0178107
714.038	0.0177908
714.116	0.0177072
714.194	0.0175895
714.272	0.0174038
714.350	0.0172450
714.428	0.0169598
714.506	0.0169796
714.584	0.0167013
714.663	0.0164272
714.741	0.0162016
714.819	0.0159380
714.897	0.0157088
714.975	0.0153705
715.053	0.0152065
715.131	0.0149007
715.209	0.0147945
715.288	0.0147406
715.366	0.0146106
715.444	0.0143233
715.522	0.0142603
715.600	0.0140810
715.678	0.0141853
715.756	0.0142032
715.834	0.0142668
715.913	0.0143172
715.991	0.0144734
716.069	0.0145779
716.147	0.0148444
716.225	0.0150313
716.303	0.0150506
716.381	0.0153547
716.459	0.0155340
716.538	0.0156953
716.616	0.0157505
716.694	0.0160836
716.772	0.0162140
716.850	0.0163087
716.928	0.0166361
717.006	0.0167240
717.084	0.0167649
717.163	0.0170033
717.241	0.0172593
717.319	0.0174710
717.397	0.0175276
717.475	0.0176402
717.553	0.0179602
717.631	0.0180037
717.709	0.0183017
717.788	0.0180892
717.866	0.0183203
717.944	0.0185146
718.022	0.0183564
718.100	0.0182120
718.178	0.0182982
718.256	0.0183878
718.334	0.0182001
718.413	0.0181221
718.491	0.0180318
718.569	0.0180307
718.647	0.0177180
718.725	0.0176022
718.803	0.0174415
718.881	0.0174328
718.959	0.0174078
719.038	0.0172962
719.116	0.0169714
719.194	0.0170081
719.272	0.0167574
719.350	0.0166831
719.428	0.0165140
719.506	0.0163694
719.584	0.0164542
719.663	0.0163833
719.741	0.0162119
719.819	0.0162691
719.897	0.0162177
719.975	0.0162275
720.053	0.0163292
720.131	0.0162621
720.209	0.0163870
720.288	0.0163345
720.366	0.0165734
720.444	0.0167841
720.522	0.0168555
720.600	0.0169187
720.678	0.0170387
720.756	0.0170847
720.834	0.0171619
720.913	0.0170877
720.991	0.0172215
721.069	0.0173623
721.147	0.0172885
721.225	0.0172320
721.303	0.0172127
721.381	0.0172207
721.459	0.0170982
721.538	0.0169979
721.616	0.0168539
721.694	0.0166455
721.772	0.0165860
721.850	0.0164218
721.928	0.0162772
722.006	0.0162901
722.084	0.0160748
722.163	0.0158491
722.241	0.0158981
722.319	0.0157343
722.397	0.0155110
722.475	0.0154678
722.553	0.0154865
722.631	0.0152219
722.709	0.0151599
722.788	0.0151752
722.866	0.0149236
722.944	0.0149694
723.022	0.0149997
723.100	0.0148444
723.178	0.0149158
723.256	0.0148454
723.334	0.0149583
723.413	0.0150004
723.491	0.0149608
723.569	0.0151220
723.647	0.0152570
723.725	0.0152618
723.803	0.0154500
723.881	0.0157344
723.959	0.0157719
724.038	0.0158956
724.116	0.0160763
724.194	0.0161922
724.272	0.0163512
724.350	0.0164149
724.428	0.0166805
724.506	0.0167821
724.584	0.0169800
724.663	0.0171493
724.741	0.0173333
724.819	0.0174162
724.897	0.0176424
724.975	0.0178626
725.053	0.0181950
725.131	0.0180132
725.209	0.0181151
725.288	0.0182266
725.366	0.0182872
725.444	0.0183015
725.522	0.0181651
725.600	0.0182027
725.678	0.0180913
725.756	0.0178914
725.834	0.0178883
725.913	0.0177026
725.991	0.0174235
726.069	0.0174030
726.147	0.0172344
726.225	0.0171210
726.303	0.0171445
726.381	0.0169452
726.459	0.0168013
726.538	0.0167976
726.616	0.0167996
726.694	0.0167437
726.772	0.0168538
726.850	0.0166165
726.928	0.0166008
727.006	0.0166885
727.084	0.0167489
727.163	0.0167349
727.241	0.0167985
727.319	0.0165933
727.397	0.0166306
727.475	0.0168314
727.553	0.0168387
727.631	0.0167942
727.709	0.0167713
727.788	0.0168829
727.866	0.0170947
727.944	0.0171442
728.022	0.0169869
728.100	0.0171050
728.178	0.0169813
728.256	0.0169279
728.334	0.0169987
728.413	0.0167937
728.491	0.0166679
728.569	0.0166428
728.647	0.0165121
728.725	0.0163773
728.803	0.0162681
728.881	0.0160049
728.959	0.0160798
729.038	0.0159523
729.116	0.0159476
729.194	0.0158226
729.272	0.0157809
729.350	0.0157364
729.428	0.0155398
729.506	0.0155978
729.584	0.0155720
729.663	0.0154366
729.741	0.0157231
729.819	0.0156704
729.897	0.0156423
729.975	0.0157181
730.053	0.0156020
730.131	0.0155436
730.209	0.0155051
730.288	0.0157874
730.366	0.0157214
730.444	0.0157367
730.522	0.0157404
730.600	0.0157592
730.678	0.0159930
730.756	0.0160260
730.834	0.0161305
730.913	0.0161243
730.991	0.0161716
731.069	0.0162724
731.147	0.0162769
731.225	0.0163284
731.303	0.0163364
731.381	0.0164472
731.459	0.0163039
731.538	0.0163548
731.616	0.0163850
731.694	0.0164852
731.772	0.0163170
731.850	0.0164438
731.928	0.0166544
732.006	0.0167261
732.084	0.0168140
732.163	0.0167803
732.241	0.0169144
732.319	0.0171506
732.397	0.0172962
732.475	0.0172096
732.553	0.0172915
732.631	0.0173571
732.709	0.0174599
732.788	0.0174600
732.866	0.0175426
732.944	0.0175002
733.022	0.0173833
733.100	0.0175725
733.178	0.0175575
733.256	0.0173078
733.334	0.0172211
733.413	0.0172104
733.491	0.0174062
733.569	0.0172599
733.647	0.0171817
733.725	0.0172066
733.803	0.0170835
733.881	0.0171075
733.959	0.0170119
734.038	0.0171295
734.116	0.0171009
734.194	0.0169942
734.272	0.0171230
734.350	0.0171975
734.428	0.0170352
734.506	0.0169965
734.584	0.0170065
734.663	0.0169876
734.741	0.0170691
734.819	0.0171308
734.897	0.0170805
734.975	0.0171141
735.053	0.0171328
735.131	0.0170811
735.209	0.0170565
735.288	0.0170332
735.366	0.0169962
735.444	0.0168985
735.522	0.0168044
735.600	0.0167432
735.678	0.0167062
735.756	0.0164681
735.834	0.0165040
735.913	0.0163092
735.991	0.0163363
736.069	0.0160748
736.147	0.0161354
736.225	0.0160056
736.303	0.0157237
736.381	0.0158655
736.459	0.0158339
736.538	0.0155820
736.616	0.0157392
736.694	0.0156214
736.772	0.0155513
736.850	0.0155249
736.928	0.0154929
737.006	0.0155281
737.084	0.0155013
737.163	0.0154631
737.241	0.0156341
737.319	0.0155534
737.397	0.0155590
737.475	0.0156272
737.553	0.0157199
737.631	0.0157542
737.709	0.0157694
737.788	0.0157854
737.866	0.0158781
737.944	0.0160088
738.022	0.0160256
738.100	0.0160664
738.178	0.0161262
738.256	0.0162774
738.334	0.0163090
738.413	0.0163872
738.491	0.0165064
738.569	0.0164288
738.647	0.0165324
738.725	0.0166702
738.803	0.0166741
738.881	0.0166340
738.959	0.0166918
739.038	0.0166856
739.116	0.0168571
739.194	0.0168421
739.272	0.0168401
739.350	0.0168279
739.428	0.0168141
739.506	0.0167943
739.584	0.0167684
739.663	0.0169616
739.741	0.0170290
739.819	0.0170863
739.897	0.0168546
739.975	0.0169761
740.053	0.0170345
740.131	0.0170894
740.209	0.0170695
740.288	0.0169323
740.366	0.0170705
740.444	0.0170782
740.522	0.0169489
740.600	0.0171633
740.678	0.0169571
740.756	0.0168760
740.834	0.0170226
740.913	0.0170518
740.991	0.0169961
741.069	0.0172237
741.147	0.0172060
741.225	0.0171293
741.303	0.0171661
741.381	0.0172264
741.459	0.0173486
741.538	0.0172957
741.616	0.0172899
741.694	0.0173542
741.772	0.0174747
741.850	0.0171478
741.928	0.0173261
742.006	0.0173096
742.084	0.0173855
742.163	0.0172880
742.241	0.0171231
742.319	0.0171703
742.397	0.0172744
742.475	0.0170596
742.553	0.0168931
742.631	0.0169839
742.709	0.0168977
742.788	0.0167693
742.866	0.0165880
742.944	0.0164271
743.022	0.0165031
743.100	0.0163952
743.178	0.0163499
743.256	0.0161138
743.334	0.0161300
743.413	0.0160241
743.491	0.0160544
743.569	0.0160072
743.647	0.0159138
743.725	0.0159005
743.803	0.0157711
743.881	0.0157140
743.959	0.0156064
744.038	0.0155877
744.116	0.0158148
744.194	0.0154916
744.272	0.0154789
744.350	0.0155003
744.428	0.0152925
744.506	0.0153848
744.584	0.0156514
744.663	0.0154077
744.741	0.0153965
744.819	0.0155302
744.897	0.0155717
744.975	0.0156013
745.053	0.0157606
745.131	0.0158759
745.209	0.0158689
745.288	0.0159211
745.366	0.0162078
745.444	0.0160098
745.522	0.0162371
745.600	0.0162535
745.678	0.0162359
745.756	0.0164225
745.834	0.0166050
745.913	0.0166782
745.991	0.0167261
746.069	0.0167934
746.147	0.0166897
746.225	0.0167661
746.303	0.0168549
746.381	0.0169760
746.459	0.0172273
746.538	0.0169845
746.616	0.0171239
746.694	0.0172523
746.772	0.0173672
746.850	0.0173373
746.928	0.0173886
747.006	0.0174865
747.084	0.0175696
747.163	0.0174574
747.241	0.0175427
747.319	0.0175201
747.397	0.0174945
747.475	0.0174168
747.553	0.0173505
747.631	0.0173799
747.709	0.0174223
747.788	0.0172501
747.866	0.0173566
747.944	0.0171396
748.022	0.0170745
748.100	0.0169777
748.178	0.0171111
748.256	0.0170118
748.334	0.0169478
748.413	0.0169041
748.491	0.0168003
748.569	0.0169125
748.647	0.0168087
748.725	0.0167246
748.803	0.0166979
748.881	0.0165014
748.959	0.0166174
749.038	0.0166061
749.116	0.0166254
749.194	0.0164974
749.272	0.0164214
749.350	0.0163943
749.428	0.0163795
749.506	0.0164108
749.584	0.0161183
749.663	0.0161566
749.741	0.0162020
749.819	0.0159821
749.897	0.0161179
749.975	0.0161069
750.053	0.0161691
750.131	0.0161922
750.209	0.0161748
750.288	0.0162612
750.366	0.0164974
750.444	0.0163805
750.522	0.0164232
750.600	0.0165405
750.678	0.0167530
750.756	0.0168398
750.834	0.0168867
750.913	0.0166962
750.991	0.0168286
751.069	0.0170392
751.147	0.0169524
751.225	0.0169318
751.303	0.0168609
751.381	0.0168186
751.459	0.0168578
751.538	0.0167786
751.616	0.0168430
751.694	0.0167769
751.772	0.0166682
751.850	0.0166293
751.928	0.0167511
752.006	0.0164774
752.084	0.0165371
752.163	0.0164712
752.241	0.0163747
752.319	0.0163080
752.397	0.0162124
752.475	0.0160121
752.553	0.0160803
752.631	0.0161183
752.709	0.0159266
752.788	0.0160358
752.866	0.0157463
752.944	0.0156702
753.022	0.0157726
753.100	0.0157561
753.178	0.0156316
753.256	0.0158733
753.334	0.0157302
753.413	0.0157867
753.491	0.0158669
753.569	0.0159363
753.647	0.0159357
753.725	0.0160191
753.803	0.0158865
753.881	0.0158563
753.959	0.0161520
754.038	0.0162230
754.116	0.0160495
754.194	0.0162331
754.272	0.0161733
754.350	0.0162890
754.428	0.0164552
754.506	0.0165862
754.584	0.0166417
754.663	0.0165544
754.741	0.0167370
754.819	0.0168984
754.897	0.0170214
754.975	0.0170855
755.053	0.0170558
755.131	0.0170176
755.209	0.0172386
755.288	0.0172618
755.366	0.0172533
755.444	0.0173183
755.522	0.0173582
755.600	0.0174358
755.678	0.0173508
755.756	0.0174406
755.834	0.0173735
755.913	0.0175087
755.991	0.0175562
756.069	0.0175291
756.147	0.0174837
756.225	0.0174673
756.303	0.0173993
756.381	0.0174794
756.459	0.0172813
756.538	0.0173746
756.616	0.0172688
756.694	0.0171748
756.772	0.0171156
756.850	0.0170772
756.928	0.0170413
757.006	0.0169047
757.084	0.0167935
757.163	0.0167100
757.241	0.0165191
757.319	0.0164185
757.397	0.0164337
757.475	0.0162243
757.553	0.0163325
757.631	0.0162225
757.709	0.0160538
757.788	0.0161821
757.866	0.0160342
757.944	0.0159708
758.022	0.0161868
758.100	0.0160275
758.178	0.0160007
758.256	0.0160922
758.334	0.0161227
758.413	0.0160115
758.491	0.0161691
758.569	0.0162579
758.647	0.0163692
758.725	0.0162743
758.803	0.0163099
758.881	0.0163766
758.959	0.0162437
759.038	0.0163394
759.116	0.0163437
759.194	0.0164399
759.272	0.0162660
759.350	0.0162957
759.428	0.0160963
759.506	0.0161343
759.584	0.0160677
759.663	0.0160454
759.741	0.0160402
759.819	0.0159434
759.897	0.0160232
759.975	0.0159955
760.053	0.0159254
760.131	0.0159885
760.209	0.0160199
760.288	0.0159982
760.366	0.0159643
760.444	0.0161060
760.522	0.0160797
760.600	0.0160577
760.678	0.0161929
760.756	0.0162839
760.834	0.0162572
760.913	0.0162705
760.991	0.0163692
761.069	0.0164188
761.147	0.0164126
761.225	0.0163535
761.303	0.0165936
761.381	0.0165604
761.459	0.0165506
761.538	0.0166377
761.616	0.0165923
761.694	0.0167217
761.772	0.0168190
761.850	0.0167434
761.928	0.0168778
762.006	0.0170033
762.084	0.0169438
762.163	0.0169145
762.241	0.0170560
762.319	0.0171995
762.397	0.0172812
762.475	0.0170425
762.553	0.0172382
762.631	0.0172971
762.709	0.0172393
762.788	0.0174271
762.866	0.0173573
762.944	0.0174744
763.022	0.0174715
763.100	0.0174245
763.178	0.0172840
763.256	0.0172820
763.334	0.0173378
763.413	0.0173592
763.491	0.0172805
763.569	0.0172791
763.647	0.0170901
763.725	0.0170657
763.803	0.0169699
763.881	0.0169304
763.959	0.0167914
764.038	0.0167379
764.116	0.0164716
764.194	0.0164894
764.272	0.0164311
764.350	0.0162926
764.428	0.0162762
764.506	0.0161536
764.584	0.0160264
764.663	0.0160600
764.741	0.0160863
764.819	0.0161046
764.897	0.0161761
764.975	0.0160030
765.053	0.0159393
765.131	0.0161707
765.209	0.0161242
765.288	0.0161171
765.366	0.0161473
765.444	0.0161936
765.522	0.0161739
765.600	0.0162751
765.678	0.0162496
765.756	0.0162533
765.834	0.0164159
765.913	0.0164017
765.991	0.0164017
766.069	0.0163246
766.147	0.0165845
766.225	0.0164693
766.303	0.0163854
766.381	0.0164660
766.459	0.0164445
766.538	0.0164677
766.616	0.0163951
766.694	0.0164223
766.772	0.0163217
766.850	0.0162675
766.928	0.0162957
767.006	0.0163594
767.084	0.0164426
767.163	0.0164781
767.241	0.0164830
767.319	0.0165668
767.397	0.0164871
767.475	0.0166312
767.553	0.0166709
767.631	0.0166821
767.709	0.0166383
767.788	0.0168397
767.866	0.0166460
767.944	0.0167944
768.022	0.0168557
768.100	0.0168449
768.178	0.0168098
768.256	0.0168042
768.334	0.0168581
768.413	0.0167732
768.491	0.0167322
768.569	0.0167262
768.647	0.0165632
768.725	0.0166592
768.803	0.0166892
768.881	0.0166674
768.959	0.0165523
769.038	0.0164174
769.116	0.0162769
769.194	0.0163181
769.272	0.0163669
769.350	0.0163653
769.428	0.0163576
769.506	0.0163220
769.584	0.0164613
769.663	0.0162860
769.741	0.0163554
769.819	0.0163490
769.897	0.0164266
769.975	0.0164619
770.053	0.0163393
770.131	0.0164469
770.209	0.0165644
770.288	0.0164306
770.366	0.0164302
770.444	0.0165614
770.522	0.0164631
770.600	0.0165343
770.678	0.0165941
770.756	0.0166705
770.834	0.0166322
770.913	0.0166827
770.991	0.0167382
771.069	0.0166744
771.147	0.0167160
771.225	0.0166534
771.303	0.0166820
771.381	0.0167812
771.459	0.0167083
771.538	0.0168009
771.616	0.0166969
771.694	0.0167269
771.772	0.0167252
771.850	0.0168864
771.928	0.0168754
772.006	0.0169391
772.084	0.0169849
772.163	0.0171169
772.241	0.0170528
772.319	0.0170253
772.397	0.0169962
772.475	0.0170580
772.553	0.0170156
772.631	0.0169090
772.709	0.0169152
772.788	0.0169991
772.866	0.0168215
772.944	0.0168324
773.022	0.0167690
773.100	0.0167519
773.178	0.0166866
773.256	0.0164863
773.334	0.0165256
773.413	0.0165392
773.491	0.0163553
773.569	0.0163814
773.647	0.0162664
773.725	0.0163114
773.803	0.0161457
773.881	0.0161562
773.959	0.0161959
774.038	0.0162690
774.116	0.0162793
774.194	0.0163943
774.272	0.0163938
774.350	0.0163714
774.428	0.0163326
774.506	0.0162858
774.584	0.0164989
774.663	0.0163663
774.741	0.0165205
774.819	0.0163203
774.897	0.0164175
774.975	0.0164704
775.053	0.0164184
775.131	0.0164534
775.209	0.0163712
775.288	0.0164242
775.366	0.0163354
775.444	0.0163474
775.522	0.0164036
775.600	0.0163947
775.678	0.0162865
775.756	0.0162516
775.834	0.0162071
775.913	0.0162528
775.991	0.0164419
776.069	0.0163816
776.147	0.0164214
776.225	0.0164359
776.303	0.0164250
776.381	0.0163908
776.459	0.0162225
776.538	0.0163898
776.616	0.0164402
776.694	0.0164914
776.772	0.0165809
776.850	0.0164997
776.928	0.0164178
777.006	0.0165836
777.084	0.0165712
777.163	0.0165573
777.241	0.0166200
777.319	0.0165388
777.397	0.0167074
777.475	0.0165051
777.553	0.0166351
777.631	0.0165898
777.709	0.0166685
777.788	0.0166470
777.866	0.0165824
777.944	0.0166946
778.022	0.0165696
778.100	0.0164941
778.178	0.0165431
778.256	0.0166873
778.334	0.0166096
778.413	0.0164816
778.491	0.0166579
778.569	0.0168663
778.647	0.0168690
778.725	0.0168643
778.803	0.0168764
778.881	0.0169839
778.959	0.0170325
779.038	0.0171467
779.116	0.0170701
779.194	0.0171573
779.272	0.0171036
779.350	0.0172242
779.428	0.0171581
779.506	0.0168650
779.584	0.0170588
779.663	0.0171291
779.741	0.0169851
779.819	0.0169044
779.897	0.0170745
779.975	0.0168845
780.053	0.0168232
780.131	0.0168176
780.209	0.0168349
780.288	0.0166145
780.366	0.0166483
780.444	0.0167029
780.522	0.0167076
780.600	0.0165781
780.678	0.0165990
780.756	0.0166529
780.834	0.0166971
780.913	0.0165038
780.991	0.0164292
781.069	0.0164180
781.147	0.0164442
781.225	0.0164998
781.303	0.0165760
781.381	0.0164206
781.459	0.0164138
781.538	0.0164292
781.616	0.0164223
781.694	0.0163461
781.772	0.0163699
781.850	0.0162460
781.928	0.0163788
782.006	0.0163418
782.084	0.0161966
782.163	0.0162300
782.241	0.0163580
782.319	0.0162501
782.397	0.0161523
782.475	0.0161348
782.553	0.0162305
782.631	0.0161731
782.709	0.0161478
782.788	0.0162804
782.866	0.0160381
782.944	0.0160265
783.022	0.0161044
783.100	0.0160754
783.178	0.0161446
783.256	0.0161864
783.334	0.0161726
783.413	0.0160355
783.491	0.0161947
783.569	0.0162558
783.647	0.0161438
783.725	0.0163085
783.803	0.0161636
783.881	0.0163814
783.959	0.0163843
784.038	0.0163959
784.116	0.0164348
784.194	0.0164491
784.272	0.0166526
784.350	0.0164559
784.428	0.0165368
784.506	0.0164484
784.584	0.0165385
784.663	0.0165910
784.741	0.0165780
784.819	0.0166772
784.897	0.0166898
784.975	0.0166560
785.053	0.0166645
785.131	0.0168430
785.209	0.0167241
785.288	0.0166487
785.366	0.0167666
785.444	0.0168380
785.522	0.0168952
785.600	0.0168326
785.678	0.0168065
785.756	0.0169476
785.834	0.0168703
785.913	0.0168615
785.991	0.0169532
786.069	0.0169730
786.147	0.0169199
786.225	0.0169980
786.303	0.0169271
786.381	0.0169592
786.459	0.0169302
786.538	0.0169221
786.616	0.0168493
786.694	0.0169070
786.772	0.0168701
786.850	0.0167834
786.928	0.0169077
787.006	0.0168887
787.084	0.0168586
787.163	0.0168753
787.241	0.0167746
787.319	0.0168707
787.397	0.0167606
787.475	0.0166124
787.553	0.0166888
787.631	0.0167216
787.709	0.0167623
787.788	0.0168340
787.866	0.0167857
787.944	0.0167935
788.022	0.0167198
788.100	0.0166662
788.178	0.0166457
788.256	0.0167619
788.334	0.0167326
788.413	0.0169186
788.491	0.0167885
788.569	0.0165846
788.647	0.0165397
788.725	0.0166134
788.803	0.0166203
788.881	0.0166126
788.959	0.0164082
789.038	0.0166627
789.116	0.0163182
789.194	0.0162894
789.272	0.0162431
789.350	0.0163566
789.428	0.0163158
789.506	0.0161738
789.584	0.0161401
789.663	0.0161655
789.741	0.0160724
789.819	0.0160847
789.897	0.0160719
789.975	0.0161355
790.053	0.0159673
790.131	0.0160561
790.209	0.0160646
790.288	0.0160524
790.366	0.0160427
790.444	0.0162134
790.522	0.0160938
790.600	0.0161369
790.678	0.0161024
790.756	0.0160162
790.834	0.0162067
790.913	0.0163264
790.991	0.0161649
791.069	0.0161903
791.147	0.0163084
791.225	0.0162761
791.303	0.0162975
791.381	0.0164342
791.459	0.0163737
791.538	0.0164883
791.616	0.0165740
791.694	0.0164945
791.772	0.0165359
791.850	0.0166347
791.928	0.0165335
792.006	0.0165820
792.084	0.0166245
792.163	0.0166185
792.241	0.0166113
792.319	0.0167533
792.397	0.0168629
792.475	0.0166566
792.553	0.0168499
792.631	0.0167560
792.709	0.0169511
792.788	0.0169154
792.866	0.0169701
792.944	0.0169399
793.022	0.0169843
793.100	0.0169821
793.178	0.0170191
793.256	0.0169628
793.334	0.0169565
793.413	0.0170055
793.491	0.0169197
793.569	0.0169881
793.647	0.0170132
793.725	0.0168887
793.803	0.0168957
793.881	0.0169443
793.959	0.0167912
794.038	0.0168999
794.116	0.0167377
794.194	0.0167853
794.272	0.0166319
794.350	0.0167318
794.428	0.0165224
794.506	0.0166864
794.584	0.0167325
794.663	0.0166463
794.741	0.0164501
794.819	0.0164843
794.897	0.0164989
794.975	0.0165171
795.053	0.0165035
795.131	0.0167249
795.209	0.0165767
795.288	0.0165968
795.366	0.0166530
795.444	0.0165889
795.522	0.0167068
795.600	0.0166036
795.678	0.0168947
795.756	0.0166959
795.834	0.0165971
795.913	0.0167289
795.991	0.0167985
796.069	0.0166267
796.147	0.0165974
796.225	0.0166048
796.303	0.0166235
796.381	0.0166106
796.459	0.0164314
796.538	0.0164139
796.616	0.0163441
796.694	0.0162628
796.772	0.0163470
796.850	0.0163747
796.928	0.0161198
797.006	0.0161700
797.084	0.0162763
797.163	0.0163589
797.241	0.0162146
797.319	0.0162095
797.397	0.0161672
797.475	0.0163109
797.553	0.0162885
797.631	0.0164334
797.709	0.0163012
797.788	0.0162802
797.866	0.0163432
797.944	0.0163872
798.022	0.0164552
798.100	0.0164373
798.178	0.0164369
798.256	0.0164179
798.334	0.0164320
798.413	0.0163606
798.491	0.0164789
798.569	0.0163816
798.647	0.0164300
798.725	0.0163654
798.803	0.0163093
798.881	0.0163684
798.959	0.0164918
799.038	0.0165907
799.116	0.0165195
799.194	0.0164090
799.272	0.0165440
799.350	0.0164648
799.428	0.0164236
799.506	0.0165909
799.584	0.0166312
799.663	0.0166177
799.741	0.0165809
799.819	0.0166107
799.897	0.0167331
799.975	0.0166555
800.053	0.0167933
800.131	0.0167989
800.209	0.0167149
800.288	0.0168349
800.366	0.0168384
800.444	0.0168015
800.522	0.0169555
800.600	0.0168406
800.678	0.0166850
800.756	0.0167727
800.834	0.0166713
800.913	0.0168143
800.991	0.0168281
801.069	0.0167680
801.147	0.0166789
801.225	0.0167615
801.303	0.0166645
801.381	0.0166965
801.459	0.0167207
801.538	0.0167597
801.616	0.0166929
801.694	0.0166840
801.772	0.0167633
801.850	0.0168480
801.928	0.0166996
802.006	0.0166599
802.084	0.0168641
802.163	0.0166898
802.241	0.0168935
802.319	0.0168560
802.397	0.0167950
802.475	0.0168194
802.553	0.0168759
802.631	0.0168742
802.709	0.0168503
802.788	0.0169267
802.866	0.0169975
802.944	0.0167862
803.022	0.0167578
803.100	0.0167467
803.178	0.0167834
803.256	0.0168018
803.334	0.0166822
803.413	0.0166531
803.491	0.0166922
803.569	0.0167313
803.647	0.0165239
803.725	0.0165307
803.803	0.0165690
803.881	0.0164209
803.959	0.0166204
804.038	0.0164655
804.116	0.0163552
804.194	0.0164229
804.272	0.0164346
804.350	0.0163999
804.428	0.0163693
804.506	0.0164602
804.584	0.0164288
804.663	0.0164694
804.741	0.0164568
804.819	0.0164873
804.897	0.0164719
804.975	0.0164796
805.053	0.0164929
805.131	0.0164894
805.209	0.0164625
805.288	0.0165170
805.366	0.0166011
805.444	0.0164198
805.522	0.0162834
805.600	0.0163265
805.678	0.0164964
805.756	0.0164113
805.834	0.0162495
805.913	0.0161813
805.991	0.0162060
806.069	0.0161615
806.147	0.0161515
806.225	0.0163539
806.303	0.0162189
806.381	0.0161047
806.459	0.0162260
806.538	0.0164050
806.616	0.0163272
806.694	0.0162907
806.772	0.0164483
806.850	0.0164155
806.928	0.0165400
807.006	0.0164754
807.084	0.0166137
807.163	0.0165500
807.241	0.0166621
807.319	0.0166844
807.397	0.0167398
807.475	0.0166865
807.553	0.0167035
807.631	0.0165148
807.709	0.0166664
807.788	0.0167614
807.866	0.0167113
807.944	0.0167127
808.022	0.0168199
808.100	0.0166754
808.178	0.0167101
808.256	0.0167419
808.334	0.0165512
808.413	0.0165992
808.491	0.0167722
808.569	0.0167695
808.647	0.0167054
808.725	0.0167765
808.803	0.0167870
808.881	0.0167731
808.959	0.0168638
809.038	0.0167236
809.116	0.0167654
809.194	0.0170153
809.272	0.0168684
809.350	0.0168124
809.428	0.0169695
809.506	0.0170045
809.584	0.0171005
809.663	0.0170846
809.741	0.0172056
809.819	0.0169217
809.897	0.0169943
809.975	0.0171158
810.053	0.0169408
810.131	0.0168699
810.209	0.0169575
810.288	0.0168954
810.366	0.0167954
810.444	0.0167680
810.522	0.0167681
810.600	0.0166517
810.678	0.0165972
810.756	0.0166748
810.834	0.0164699
810.913	0.0164095
810.991	0.0164574
811.069	0.0163368
811.147	0.0162218
811.225	0.0162254
811.303	0.0162490
811.381	0.0163099
811.459	0.0161894
811.538	0.0162154
811.616	0.0163203
811.694	0.0163260
811.772	0.0162814
811.850	0.0163123
811.928	0.0163557
812.006	0.0162917
812.084	0.0165043
812.163	0.0163863
812.241	0.0163667
812.319	0.0164410
812.397	0.0163885
812.475	0.0163224
812.553	0.0163547
812.631	0.0165325
812.709	0.0164574
812.788	0.0162728
812.866	0.0163740
812.944	0.0164719
813.022	0.0163382
813.100	0.0164897
813.178	0.0164462
813.256	0.0164275
813.334	0.0165201
813.413	0.0164095
813.491	0.0163334
813.569	0.0164606
813.647	0.0164693
813.725	0.0165136
813.803	0.0165388
813.881	0.0164928
813.959	0.0165150
814.038	0.0166502
814.116	0.0166171
814.194	0.0166085
814.272	0.0166238
814.350	0.0168358
814.428	0.0167500
814.506	0.0167325
814.584	0.0167626
814.663	0.0168227
814.741	0.0166644
814.819	0.0167494
814.897	0.0165792
814.975	0.0167589
815.053	0.0166599
815.131	0.0167239
815.209	0.0164916
815.288	0.0164603
815.366	0.0166624
815.444	0.0165037
815.522	0.0162840
815.600	0.0164174
815.678	0.0165602
815.756	0.0165550
815.834	0.0163992
815.913	0.0164730
815.991	0.0164692
816.069	0.0165093
816.147	0.0165639
816.225	0.0164980
816.303	0.0166149
816.381	0.0165064
816.459	0.0165653
816.538	0.0165979
816.616	0.0166707
816.694	0.0168631
816.772	0.0167212
816.850	0.0167210
816.928	0.0168003
817.006	0.0167697
817.084	0.0167398
817.163	0.0168407
817.241	0.0167761
817.319	0.0168259
817.397	0.0167356
817.475	0.0168552
817.553	0.0167202
817.631	0.0168609
817.709	0.0168777
817.788	0.0166982
817.866	0.0169624
817.944	0.0168737
818.022	0.0167610
818.100	0.0166634
818.178	0.0166363
818.256	0.0167209
818.334	0.0166690
818.413	0.0167077
818.491	0.0166239
818.569	0.0166583
818.647	0.0164442
818.725	0.0166970
818.803	0.0165221
818.881	0.0163839
818.959	0.0164407
819.038	0.0165961
819.116	0.0164787
819.194	0.0163931
819.272	0.0163609
819.350	0.0164633
819.428	0.0165444
819.506	0.0163162
819.584	0.0163694
819.663	0.0163623
819.741	0.0163663
819.819	0.0162379
819.897	0.0163521
819.975	0.0161472
820.053	0.0162048
820.131	0.0162753
820.209	0.0160671
820.288	0.0161752
820.366	0.0162269
820.444	0.0161528
820.522	0.0162173
820.600	0.0163408
820.678	0.0163655
820.756	0.0163969
820.834	0.0163523
820.913	0.0164095
820.991	0.0164679
821.069	0.0164724
821.147	0.0165828
821.225	0.0165879
821.303	0.0167010
821.381	0.0165959
821.459	0.0167033
821.538	0.0167533
821.616	0.0167980
821.694	0.0168665
821.772	0.0168369
821.850	0.0168505
821.928	0.0168774
822.006	0.0168162
822.084	0.0167636
822.163	0.0167641
822.241	0.0168735
822.319	0.0167878
822.397	0.0167758
822.475	0.0167573
822.553	0.0166953
822.631	0.0167344
822.709	0.0166907
822.788	0.0165417
822.866	0.0164034
822.944	0.0162669
823.022	0.0164508
823.100	0.0166035
823.178	0.0164327
823.256	0.0164017
823.334	0.0164148
823.413	0.0164341
823.491	0.0164851
823.569	0.0165411
823.647	0.0164637
823.725	0.0164015
823.803	0.0164648
823.881	0.0164605
823.959	0.0164529
824.038	0.0164391
824.116	0.0164803
824.194	0.0163148
824.272	0.0165122
824.350	0.0164959
824.428	0.0164182
824.506	0.0164897
824.584	0.0166183
824.663	0.0166678
824.741	0.0165516
824.819	0.0164591
824.897	0.0166708
824.975	0.0166624
825.053	0.0167392
825.131	0.0166420
825.209	0.0167797
825.288	0.0167477
825.366	0.0167221
825.444	0.0167181
825.522	0.0167542
825.600	0.0167764
825.678	0.0169537
825.756	0.0168641
825.834	0.0167915
825.913	0.0166538
825.991	0.0168372
826.069	0.0168459
826.147	0.0167437
826.225	0.0167054
826.303	0.0166792
826.381	0.0165844
826.459	0.0167704
826.538	0.0165488
826.616	0.0165063
826.694	0.0164874
826.772	0.0163448
826.850	0.0164868
826.928	0.0165002
827.006	0.0164478
827.084	0.0162740
827.163	0.0164066
827.241	0.0164934
827.319	0.0164456
827.397	0.0163242
827.475	0.0165170
827.553	0.0166487
827.631	0.0165614
827.709	0.0163961
827.788	0.0164784
827.866	0.0165601
827.944	0.0165752
828.022	0.0165590
828.100	0.0166238
828.178	0.0165481
828.256	0.0163857
828.334	0.0164909
828.413	0.0163036
828.491	0.0164158
828.569	0.0163731
828.647	0.0164991
828.725	0.0163854
828.803	0.0163988
828.881	0.0164005
828.959	0.0163334
829.038	0.0163019
829.116	0.0162407
829.194	0.0163033
829.272	0.0164072
829.350	0.0163136
829.428	0.0164487
829.506	0.0164577
829.584	0.0164508
829.663	0.0163778
829.741	0.0164090
829.819	0.0165629
829.897	0.0165965
829.975	0.0166035
830.053	0.0165907
830.131	0.0166617
830.209	0.0166299
830.288	0.0166801
830.366	0.0165408
830.444	0.0165108
830.522	0.0166856
830.600	0.0165893
830.678	0.0165857
830.756	0.0166333
830.834	0.0167120
830.913	0.0168253
830.991	0.0167458
831.069	0.0166960
831.147	0.0167182
831.225	0.0167390
831.303	0.0168682
831.381	0.0167881
831.459	0.0167128
831.538	0.0167630
831.616	0.0167310
831.694	0.0165030
831.772	0.0166917
831.850	0.0165906
831.928	0.0164258
832.006	0.0164989
832.084	0.0165253
832.163	0.0164551
832.241	0.0164682
832.319	0.0166034
832.397	0.0165794
832.475	0.0166431
832.553	0.0166140
832.631	0.0167415
832.709	0.0168191
832.788	0.0166840
832.866	0.0167449
832.944	0.0168136
833.022	0.0168526
833.100	0.0167508
833.178	0.0166987
833.256	0.0167676
833.334	0.0167361
833.413	0.0167772
833.491	0.0166389
833.569	0.0167520
833.647	0.0165417
833.725	0.0164912
833.803	0.0165654
833.881	0.0166238
833.959	0.0165890
834.038	0.0166671
834.116	0.0167313
834.194	0.0166569
834.272	0.0165256
834.350	0.0163557
834.428	0.0163755
834.506	0.0163041
834.584	0.0163985
834.663	0.0163686
834.741	0.0161359
834.819	0.0160781
834.897	0.0161498
834.975	0.0161733
835.053	0.0160303
835.131	0.0161771
835.209	0.0161762
835.288	0.0162763
835.366	0.0163034
835.444	0.0162633
835.522	0.0165802
835.600	0.0164381
835.678	0.0165975
835.756	0.0166960
835.834	0.0166818
835.913	0.0167694
835.991	0.0168222
836.069	0.0165896
836.147	0.0167110
836.225	0.0168616
836.303	0.0167478
836.381	0.0167411
836.459	0.0167740
836.538	0.0165345
836.616	0.0165967
836.694	0.0166110
836.772	0.0165935
836.850	0.0163978
836.928	0.0165032
837.006	0.0166014
837.084	0.0166248
837.163	0.0166384
837.241	0.0164198
837.319	0.0164903
837.397	0.0165724
837.475	0.0165083
837.553	0.0163953
837.631	0.0164548
837.709	0.0165316
837.788	0.0165022
837.866	0.0165398
837.944	0.0164397
838.022	0.0163680
838.100	0.0166562
838.178	0.0166615
838.256	0.0164669
838.334	0.0165192
838.413	0.0166830
838.491	0.0166547
838.569	0.0166183
838.647	0.0165989
838.725	0.0165527
838.803	0.0167549
838.881	0.0166164
838.959	0.0165701
839.038	0.0164835
839.116	0.0164446
839.194	0.0164120
839.272	0.0162387
839.350	0.0163519
839.428	0.0161344
839.506	0.0160866
839.584	0.0160897
839.663	0.0161268
839.741	0.0159845
839.819	0.0160948
839.897	0.0162728
839.975	0.0162830
840.053	0.0163443
840.131	0.0164184
840.209	0.0165149
840.288	0.0166688
840.366	0.0167929
840.444	0.0168319
840.522	0.0169285
840.600	0.0169373
840.678	0.0171194
840.756	0.0170185
840.834	0.0171565
840.913	0.0169758
840.991	0.0169814
841.069	0.0170528
841.147	0.0170582
841.225	0.0169867
841.303	0.0169904
841.381	0.0168999
841.459	0.0168844
841.538	0.0168382
841.616	0.0168631
841.694	0.0168327
841.772	0.0166677
841.850	0.0166855
841.928	0.0166219
842.006	0.0166592
842.084	0.0166344
842.163	0.0164032
842.241	0.0165598
842.319	0.0165584
842.397	0.0164063
842.475	0.0164816
842.553	0.0163103
842.631	0.0162766
842.709	0.0163853
842.788	0.0162794
842.866	0.0162297
842.944	0.0163268
843.022	0.0163091
843.100	0.0164539
843.178	0.0162601
843.256	0.0164307
843.334	0.0164197
843.413	0.0164164
843.491	0.0163772
843.569	0.0164446
843.647	0.0163640
843.725	0.0164103
843.803	0.0162965
843.881	0.0162121
843.959	0.0162385
844.038	0.0160997
844.116	0.0160675
844.194	0.0160871
844.272	0.0160660
844.350	0.0160922
844.428	0.0160474
844.506	0.0160159
844.584	0.0160377
844.663	0.0159335
844.741	0.0160398
844.819	0.0161378
844.897	0.0161751
844.975	0.0161380
845.053	0.0163018
845.131	0.0164781
845.209	0.0164207
845.288	0.0165164
845.366	0.0167846
845.444	0.0169211
845.522	0.0169071
845.600	0.0169904
845.678	0.0169871
845.756	0.0172103
845.834	0.0172173
845.913	0.0172263
845.991	0.0171936
846.069	0.0172316
846.147	0.0171735
846.225	0.0169958
846.303	0.0172793
846.381	0.0170586
846.459	0.0169069
846.538	0.0168455
846.616	0.0169442
846.694	0.0167854
846.772	0.0168394
846.850	0.0165298
846.928	0.0166096
847.006	0.0166699
847.084	0.0164135
847.163	0.0165317
847.241	0.0165462
847.319	0.0165272
847.397	0.0163782
847.475	0.0163591
847.553	0.0163401
847.631	0.0162846
847.709	0.0164285
847.788	0.0163042
847.866	0.0161677
847.944	0.0161977
848.022	0.0162164
848.100	0.0162424
848.178	0.0162522
848.256	0.0161777
848.334	0.0163408
848.413	0.0163912
848.491	0.0164185
848.569	0.0164184
848.647	0.0165623
848.725	0.0164624
848.803	0.0166641
848.881	0.0167323
848.959	0.0166836
849.038	0.0166367
849.116	0.0166624
849.194	0.0167503
849.272	0.0166757
849.350	0.0167675
849.428	0.0167112
849.506	0.0166741
849.584	0.0165258
849.663	0.0166812
849.741	0.0165858
849.819	0.0165137
849.897	0.0165360
849.975	0.0165445
850.053	0.0164777
850.131	0.0165833
850.209	0.0165343
850.288	0.0165189
850.366	0.0164413
850.444	0.0165000
850.522	0.0166344
850.600	0.0164754
850.678	0.0165275
850.756	0.0165163
850.834	0.0164592
850.913	0.0164217
850.991	0.0165840
851.069	0.0165508
851.147	0.0166296
851.225	0.0164502
851.303	0.0164669
851.381	0.0165466
851.459	0.0166621
851.538	0.0166352
851.616	0.0165654
851.694	0.0166317
851.772	0.0166375
851.850	0.0166673
851.928	0.0166575
852.006	0.0166234
852.084	0.0165365
852.163	0.0165856
852.241	0.0165637
852.319	0.0166400
852.397	0.0164027
852.475	0.0164182
852.553	0.0162729
852.631	0.0163024
852.709	0.0162766
852.788	0.0161082
852.866	0.0160188
852.944	0.0162685
853.022	0.0162969
853.100	0.0162708
853.178	0.0164947
853.256	0.0164829
853.334	0.0165857
853.413	0.0166178
853.491	0.0168064
853.569	0.0168902
853.647	0.0169791
853.725	0.0169621
853.803	0.0171323
853.881	0.0170744
853.959	0.0171638
854.038	0.0170090
854.116	0.0171809
854.194	0.0170686
854.272	0.0171073
854.350	0.0170380
854.428	0.0169232
854.506	0.0169227
854.584	0.0168407
854.663	0.0166972
854.741	0.0165524
854.819	0.0164753
854.897	0.0166206
854.975	0.0166164
855.053	0.0166148
855.131	0.0166051
855.209	0.0164942
855.288	0.0165832
855.366	0.0163938
855.444	0.0163724
855.522	0.0163514
855.600	0.0164771
855.678	0.0163966
855.756	0.0164440
855.834	0.0163639
855.913	0.0163297
855.991	0.0163018
856.069	0.0163612
856.147	0.0164749
856.225	0.0165238
856.303	0.0164368
856.381	0.0164948
856.459	0.0165547
856.538	0.0165035
856.616	0.0166922
856.694	0.0166370
856.772	0.0168116
856.850	0.0167197
856.928	0.0166357
857.006	0.0166600
857.084	0.0167952
857.163	0.0166324
857.241	0.0166924
857.319	0.0166531
857.397	0.0165513
857.475	0.0166852
857.553	0.0167007
857.631	0.0167895
857.709	0.0167638
857.788	0.0166915
857.866	0.0166100
857.944	0.0166579
858.022	0.0164832
858.100	0.0165433
858.178	0.0166004
858.256	0.0165855
858.334	0.0165299
858.413	0.0164732
858.491	0.0165568
858.569	0.0164656
858.647	0.0164193
858.725	0.0164870
858.803	0.0165225
858.881	0.0165199
858.959	0.0164284
859.038	0.0165622
859.116	0.0167042
859.194	0.0164826
859.272	0.0164977
859.350	0.0165380
859.428	0.0167148
859.506	0.0167923
859.584	0.0165630
859.663	0.0166206
859.741	0.0167068
859.819	0.0166323
859.897	0.0165590
859.975	0.0165172
860.053	0.0165497
860.131	0.0165154
860.209	0.0166383
860.288	0.0164396
860.366	0.0164105
860.444	0.0164087
860.522	0.0165072
860.600	0.0164230
860.678	0.0164501
860.756	0.0164740
860.834	0.0167072
860.913	0.0167674
860.991	0.0166243
861.069	0.0166132
861.147	0.0166513
861.225	0.0165975
861.303	0.0166408
861.381	0.0164774
861.459	0.0164072
861.538	0.0165417
861.616	0.0164643
861.694	0.0165117
861.772	0.0165262
861.850	0.0165045
861.928	0.0164558
862.006	0.0165653
862.084	0.0164471
862.163	0.0165874
862.241	0.0165260
862.319	0.0164265
862.397	0.0164500
862.475	0.0165284
862.553	0.0166458
862.631	0.0165250
862.709	0.0166229
862.788	0.0166003
862.866	0.0166010
862.944	0.0166479
863.022	0.0168987
863.100	0.0169074
863.178	0.0166824
863.256	0.0167982
863.334	0.0166895
863.413	0.0168217
863.491	0.0166622
863.569	0.0166578
863.647	0.0165123
863.725	0.0168082
863.803	0.0166261
863.881	0.0166145
863.959	0.0165031
864.038	0.0165906
864.116	0.0164270
864.194	0.0164060
864.272	0.0165636
864.350	0.0166036
864.428	0.0165309
864.506	0.0163662
864.584	0.0164410
864.663	0.0164478
864.741	0.0163608
864.819	0.0163403
864.897	0.0163138
864.975	0.0163409
865.053	0.0162656
865.131	0.0165026
865.209	0.0163160
865.288	0.0162735
865.366	0.0164558
865.444	0.0163983
865.522	0.0162630
865.600	0.0163963
865.678	0.0163583
865.756	0.0162201
865.834	0.0164073
865.913	0.0164356
865.991	0.0163626
866.069	0.0163042
866.147	0.0164032
866.225	0.0165025
866.303	0.0164798
866.381	0.0165115
866.459	0.0167152
866.538	0.0165215
866.616	0.0165417
866.694	0.0166045
866.772	0.0166774
866.850	0.0166620
866.928	0.0166540
867.006	0.0167088
867.084	0.0168237
867.163	0.0165826
867.241	0.0166302
867.319	0.0166724
867.397	0.0165488
867.475	0.0167155
867.553	0.0167706
867.631	0.0165333
867.709	0.0164636
867.788	0.0164957
867.866	0.0164956
867.944	0.0164719
868.022	0.0165256
868.100	0.0165491
868.178	0.0164538
868.256	0.0164677
868.334	0.0164223
868.413	0.0164439
868.491	0.0164864
868.569	0.0165471
868.647	0.0163815
868.725	0.0164442
868.803	0.0164125
868.881	0.0165211
868.959	0.0165211
869.038	0.0165982
869.116	0.0164928
869.194	0.0165319
869.272	0.0166437
869.350	0.0165070
869.428	0.0165911
869.506	0.0165102
869.584	0.0165556
869.663	0.0166942
869.741	0.0165278
869.819	0.0165215
869.897	0.0166261
869.975	0.0166181
870.053	0.0166344
870.131	0.0165621
870.209	0.0165860
870.288	0.0166137
870.366	0.0167657
870.444	0.0164402
870.522	0.0164989
870.600	0.0166843
870.678	0.0166325
870.756	0.0166882
870.834	0.0166453
870.913	0.0164970
870.991	0.0165353
871.069	0.0166180
871.147	0.0166307
871.225	0.0165434
871.303	0.0165983
871.381	0.0167607
871.459	0.0165556
871.538	0.0166388
871.616	0.0165894
871.694	0.0167646
871.772	0.0166820
871.850	0.0167144
871.928	0.0166130
872.006	0.0166250
872.084	0.0166703
872.163	0.0165458
872.241	0.0165408
872.319	0.0165492
872.397	0.0166178
872.475	0.0165294
872.553	0.0164465
872.631	0.0164171
872.709	0.0164430
872.788	0.0165391
872.866	0.0164230
872.944	0.0163758
873.022	0.0164828
873.100	0.0163839
873.178	0.0162972
873.256	0.0162819
873.334	0.0162781
873.413	0.0162504
873.491	0.0162048
873.569	0.0163729
873.647	0.0164404
873.725	0.0163164
873.803	0.0162099
873.881	0.0163373
873.959	0.0163982
874.038	0.0163825
874.116	0.0163774
874.194	0.0164144
874.272	0.0164770
874.350	0.0164888
874.428	0.0164250
874.506	0.0164964
874.584	0.0165136
874.663	0.0165413
874.741	0.0166138
874.819	0.0167014
874.897	0.0167355
874.975	0.0166875
875.053	0.0166408
875.131	0.0167683
875.209	0.0167955
875.288	0.0167583
875.366	0.0166097
875.444	0.0167428
875.522	0.0166888
875.600	0.0167273
875.678	0.0166112
875.756	0.0166704
875.834	0.0167236
875.913	0.0166906
875.991	0.0167702
876.069	0.0166566
876.147	0.0164404
876.225	0.0166816
876.303	0.0168372
876.381	0.0166750
876.459	0.0166027
876.538	0.0167290
876.616	0.0166087
876.694	0.0166064
876.772	0.0165620
876.850	0.0166579
876.928	0.0166468
877.006	0.0164807
877.084	0.0166010
877.163	0.0166123
877.241	0.0165950
877.319	0.0166077
877.397	0.0164883
877.475	0.0166782
877.553	0.0167260
877.631	0.0166261
877.709	0.0165110
877.788	0.0166971
877.866	0.0167233
877.944	0.0167136
878.022	0.0165817
878.100	0.0164790
878.178	0.0165163
878.256	0.0164458
878.334	0.0167072
878.413	0.0165257
878.491	0.0165486
878.569	0.0165532
878.647	0.0164851
878.725	0.0164699
878.803	0.0166169
878.881	0.0164978
878.959	0.0165865
879.038	0.0165981
879.116	0.0167602
879.194	0.0165917
879.272	0.0166103
879.350	0.0166676
879.428	0.0165681
879.506	0.0165078
879.584	0.0166602
879.663	0.0166913
879.741	0.0166157
879.819	0.0167516
879.897	0.0166526
879.975	0.0166812
880.053	0.0165704
880.131	0.0166030
880.209	0.0165797
880.288	0.0166608
880.366	0.0166022
880.444	0.0166538
880.522	0.0165111
880.600	0.0166629
880.678	0.0166234
880.756	0.0164722
880.834	0.0164452
880.913	0.0165943
880.991	0.0164725
881.069	0.0164155
881.147	0.0163479
881.225	0.0162795
881.303	0.0163786
881.381	0.0163553
881.459	0.0163267
881.538	0.0162344
881.616	0.0162264
881.694	0.0161697
881.772	0.0162859
881.850	0.0163346
881.928	0.0162740
882.006	0.0163031
882.084	0.0163876
882.163	0.0164104
882.241	0.0165575
882.319	0.0164484
882.397	0.0164491
882.475	0.0164252
882.553	0.0164844
882.631	0.0165427
882.709	0.0166293
882.788	0.0167477
882.866	0.0166562
882.944	0.0166393
883.022	0.0165601
883.100	0.0167914
883.178	0.0166234
883.256	0.0168241
883.334	0.0167988
883.413	0.0168121
883.491	0.0169229
883.569	0.0168326
883.647	0.0167993
883.725	0.0167439
883.803	0.0167965
883.881	0.0168797
883.959	0.0169761
884.038	0.0168391
884.116	0.0168672
884.194	0.0168629
884.272	0.0167973
884.350	0.0167760
884.428	0.0169210
884.506	0.0168935
884.584	0.0166576
884.663	0.0167853
884.741	0.0168323
884.819	0.0167090
884.897	0.0166721
884.975	0.0167039
885.053	0.0167261
885.131	0.0165759
885.209	0.0165051
885.288	0.0165434
885.366	0.0166781
885.444	0.0167118
885.522	0.0165489
885.600	0.0164508
885.678	0.0166646
885.756	0.0165854
885.834	0.0166553
885.913	0.0166010
885.991	0.0165144
886.069	0.0165191
886.147	0.0165899
886.225	0.0165303
886.303	0.0164486
886.381	0.0165250
886.459	0.0164893
886.538	0.0164934
886.616	0.0165024
886.694	0.0163647
886.772	0.0163041
886.850	0.0164562
886.928	0.0163286
887.006	0.0164413
887.084	0.0164413
887.163	0.0164581
887.241	0.0165231
887.319	0.0167001
887.397	0.0164362
887.475	0.0164659
887.553	0.0164837
887.631	0.0164976
887.709	0.0165309
887.788	0.0165574
887.866	0.0164057
887.944	0.0164542
888.022	0.0163998
888.100	0.0163837
888.178	0.0163836
888.256	0.0164240
888.334	0.0165302
888.413	0.0163748
888.491	0.0165936
888.569	0.0165775
888.647	0.0166126
888.725	0.0165584
888.803	0.0166222
888.881	0.0165551
888.959	0.0165524
889.038	0.0165108
889.116	0.0166812
889.194	0.0166155
889.272	0.0165115
889.350	0.0166787
889.428	0.0165556
889.506	0.0166118
889.584	0.0166539
889.663	0.0165697
889.741	0.0166878
889.819	0.0165147
889.897	0.0166060
889.975	0.0165379
890.053	0.0167564
890.131	0.0167538
890.209	0.0166470
890.288	0.0167883
890.366	0.0166682
890.444	0.0165692
890.522	0.0168163
890.600	0.0168459
890.678	0.0168339
890.756	0.0164820
890.834	0.0166936
890.913	0.0167456
890.991	0.0167001
891.069	0.0168163
891.147	0.0167227
891.225	0.0166806
891.303	0.0166920
891.381	0.0167124
891.459	0.0167262
891.538	0.0168410
891.616	0.0167864
891.694	0.0165541
891.772	0.0166666
891.850	0.0166972
891.928	0.0165756
892.006	0.0165450
892.084	0.0166814
892.163	0.0166116
892.241	0.0166286
892.319	0.0166073
892.397	0.0166334
892.475	0.0166484
892.553	0.0164914
892.631	0.0163956
892.709	0.0164477
892.788	0.0165305
892.866	0.0165137
892.944	0.0166154
893.022	0.0163647
893.100	0.0165423
893.178	0.0165015
893.256	0.0164749
893.334	0.0164145
893.413	0.0164403
893.491	0.0163802
893.569	0.0164760
893.647	0.0164786
893.725	0.0164172
893.803	0.0165079
893.881	0.0164504
893.959	0.0164531
894.038	0.0164651
894.116	0.0165112
894.194	0.0165876
894.272	0.0164893
894.350	0.0165434
894.428	0.0165945
894.506	0.0167538
894.584	0.0167471
894.663	0.0164422
894.741	0.0162885
894.819	0.0165197
894.897	0.0165420
894.975	0.0165823
895.053	0.0165532
895.131	0.0164935
895.209	0.0163258
895.288	0.0163506
895.366	0.0164050
895.444	0.0164069
895.522	0.0163703
895.600	0.0163368
895.678	0.0163358
895.756	0.0164036
895.834	0.0162635
895.913	0.0163498
895.991	0.0163473
896.069	0.0164050
896.147	0.0164680
896.225	0.0163552
896.303	0.0164638
896.381	0.0164924
896.459	0.0164845
896.538	0.0165737
896.616	0.0165750
896.694	0.0166383
896.772	0.0166453
896.850	0.0166933
896.928	0.0166422
897.006	0.0165051
897.084	0.0166725
897.163	0.0166699
897.241	0.0165577
897.319	0.0166939
897.397	0.0164945
897.475	0.0165481
897.553	0.0167397
897.631	0.0166487
897.709	0.0165598
897.788	0.0165533
897.866	0.0166985
897.944	0.0166480
898.022	0.0167315
898.100	0.0166256
898.178	0.0166756
898.256	0.0167100
898.334	0.0167828
898.413	0.0165643
898.491	0.0167045
898.569	0.0167387
898.647	0.0166824
898.725	0.0165266
898.803	0.0167272
898.881	0.0165873
898.959	0.0165541
899.038	0.0166090
899.116	0.0163506
899.194	0.0165479
899.272	0.0166231
899.350	0.0163949
899.428	0.0164820
899.506	0.0166178
899.584	0.0165665
899.663	0.0165567
899.741	0.0165307
899.819	0.0166647
899.897	0.0166677
899.975	0.0165916
900.053	0.0166608
900.131	0.0167302
900.209	0.0165758
900.288	0.0165692
900.366	0.0166659
900.444	0.0166466
900.522	0.0166634
900.600	0.0165974
900.678	0.0166752
900.756	0.0165633
900.834	0.0167061
900.913	0.0166346
900.991	0.0167001
901.069	0.0166863
901.147	0.0166770
901.225	0.0165787
901.303	0.0165781
901.381	0.0166216
901.459	0.0166224
901.538	0.0166767
901.616	0.0165028
901.694	0.0166060
901.772	0.0165981
901.850	0.0164852
901.928	0.0165427
902.006	0.0165411
902.084	0.0165472
902.163	0.0165067
902.241	0.0164239
902.319	0.0163428
902.397	0.0164742
902.475	0.0164296
902.553	0.0165046
902.631	0.0163393
902.709	0.0163939
902.788	0.0162997
902.866	0.0163385
902.944	0.0164142
903.022	0.0163385
903.100	0.0161704
903.178	0.0162668
903.256	0.0163256
903.334	0.0162160
903.413	0.0165558
903.491	0.0164756
903.569	0.0163359
903.647	0.0164001
903.725	0.0163863
903.803	0.0162962
903.881	0.0163798
903.959	0.0164471
904.038	0.0163795
904.116	0.0164224
904.194	0.0164909
904.272	0.0164970
904.350	0.0165195
904.428	0.0166191
904.506	0.0165534
904.584	0.0167099
904.663	0.0167038
904.741	0.0167901
904.819	0.0167800
904.897	0.0168997
904.975	0.0168640
905.053	0.0168816
905.131	0.0168581
905.209	0.0169424
905.288	0.0169004
905.366	0.0169161
905.444	0.0168835
905.522	0.0168897
905.600	0.0168010
905.678	0.0168555
905.756	0.0167461
905.834	0.0167851
905.913	0.0167345
905.991	0.0167423
906.069	0.0167654
906.147	0.0166212
906.225	0.0167130
906.303	0.0166408
906.381	0.0165630
906.459	0.0165726
906.538	0.0167013
906.616	0.0166889
906.694	0.0166610
906.772	0.0165911
906.850	0.0166782
906.928	0.0164030
907.006	0.0165755
907.084	0.0165980
907.163	0.0166018
907.241	0.0164819
907.319	0.0166189
907.397	0.0165841
907.475	0.0165980
907.553	0.0164918
907.631	0.0165764
907.709	0.0165903
907.788	0.0166985
907.866	0.0165900
907.944	0.0166089
908.022	0.0166571
908.100	0.0165847
908.178	0.0165311
908.256	0.0166286
908.334	0.0164212
908.413	0.0165587
908.491	0.0164870
908.569	0.0164014
908.647	0.0164474
908.725	0.0166389
908.803	0.0164036
908.881	0.0163902
908.959	0.0164000
909.038	0.0165060
909.116	0.0164240
909.194	0.0164841
909.272	0.0165694
909.350	0.0164175
909.428	0.0165534
909.506	0.0165154
909.584	0.0165210
909.663	0.0166074
909.741	0.0164837
909.819	0.0164565
909.897	0.0164532
909.975	0.0164221
910.053	0.0165357
910.131	0.0163800
910.209	0.0164761
910.288	0.0163826
910.366	0.0164178
910.444	0.0165152
910.522	0.0164765
910.600	0.0164522
910.678	0.0164198
910.756	0.0165894
910.834	0.0165929
910.913	0.0165623
910.991	0.0165843
911.069	0.0165943
911.147	0.0165968
911.225	0.0165362
911.303	0.0166187
911.381	0.0165951
911.459	0.0165938
911.538	0.0164516
911.616	0.0166582
911.694	0.0166759
911.772	0.0165492
911.850	0.0167188
911.928	0.0166566
912.006	0.0166750
912.084	0.0167358
912.163	0.0167521
912.241	0.0165812
912.319	0.0166511
912.397	0.0167228
912.475	0.0166143
912.553	0.0166112
912.631	0.0166474
912.709	0.0165342
912.788	0.0166280
912.866	0.0166616
912.944	0.0165828
913.022	0.0164845
913.100	0.0165996
913.178	0.0166692
913.256	0.0164852
913.334	0.0165705
913.413	0.0164051
913.491	0.0164714
913.569	0.0165919
913.647	0.0164994
913.725	0.0164521
913.803	0.0165498
913.881	0.0166369
913.959	0.0164445
914.038	0.0164494
914.116	0.0164575
914.194	0.0165193
914.272	0.0164593
914.350	0.0163132
914.428	0.0164687
914.506	0.0165578
914.584	0.0163725
914.663	0.0164402
914.741	0.0164529
914.819	0.0163717
914.897	0.0163577
914.975	0.0164799
915.053	0.0164240
915.131	0.0163656
915.209	0.0164756
915.288	0.0165742
915.366	0.0165858
915.444	0.0164796
915.522	0.0165516
915.600	0.0167465
915.678	0.0167030
915.756	0.0166217
915.834	0.0167706
915.913	0.0167034
915.991	0.0167451
916.069	0.0167339
916.147	0.0167452
916.225	0.0166920
916.303	0.0167111
916.381	0.0165783
916.459	0.0165477
916.538	0.0166659
916.616	0.0165992
916.694	0.0165144
916.772	0.0165955
916.850	0.0165266
916.928	0.0165468
917.006	0.0164611
917.084	0.0165065
917.163	0.0165558
917.241	0.0163998
917.319	0.0164075
917.397	0.0164022
917.475	0.0164137
917.553	0.0165153
917.631	0.0164712
917.709	0.0162611
917.788	0.0164339
917.866	0.0162920
917.944	0.0164252
918.022	0.0163446
918.100	0.0164736
918.178	0.0165161
918.256	0.0164105
918.334	0.0164723
918.413	0.0165293
918.491	0.0164442
918.569	0.0164333
918.647	0.0164983
918.725	0.0166490
918.803	0.0166585
918.881	0.0166210
918.959	0.0166514
919.038	0.0165113
919.116	0.0165087
919.194	0.0165208
919.272	0.0165562
919.350	0.0166937
919.428	0.0165794
919.506	0.0165671
919.584	0.0166071
919.663	0.0167272
919.741	0.0166051
919.819	0.0166215
919.897	0.0166729
