06/01/2022	17:35:00	Ver.	4.1	UNKNOWN
Optical Delay	599.981738	Delta X		0.078125	Sweeps	1	Scan Rate	0/0
Coordinates	Axis 1	NaN	Axis 2	NaN	Axis 3	NaN	Axis 4	NaN	Axis 5	NaN	Axis 6	0.000000
TX Power	0.000000	RX Power	0.000000

599.982	0.0167948
600.060	0.0168387
600.138	0.0168549
600.216	0.0168236
600.294	0.0168424
600.372	0.0167548
600.450	0.0168806
600.529	0.0167003
600.607	0.0166080
600.685	0.0168190
600.763	0.0168504
600.841	0.0167719
600.919	0.0167804
600.997	0.0167904
601.075	0.0169018
601.154	0.0168548
601.232	0.0167359
601.310	0.0167286
601.388	0.0168211
601.466	0.0169226
601.544	0.0168724
601.622	0.0168090
601.700	0.0168302
601.779	0.0168970
601.857	0.0168096
601.935	0.0167451
602.013	0.0167670
602.091	0.0167982
602.169	0.0168639
602.247	0.0169173
602.325	0.0167297
602.404	0.0168330
602.482	0.0168132
602.560	0.0167657
602.638	0.0167627
602.716	0.0169299
602.794	0.0169164
602.872	0.0167063
602.950	0.0168860
603.029	0.0168265
603.107	0.0168911
603.185	0.0167270
603.263	0.0168835
603.341	0.0167825
603.419	0.0167523
603.497	0.0167075
603.575	0.0169356
603.654	0.0168040
603.732	0.0168668
603.810	0.0167777
603.888	0.0168525
603.966	0.0168082
604.044	0.0168375
604.122	0.0168182
604.200	0.0166833
604.279	0.0167719
604.357	0.0168008
604.435	0.0167327
604.513	0.0166731
604.591	0.0167766
604.669	0.0169080
604.747	0.0168497
604.825	0.0168760
604.904	0.0167461
604.982	0.0167231
605.060	0.0167817
605.138	0.0167403
605.216	0.0168903
605.294	0.0168486
605.372	0.0167666
605.450	0.0166058
605.529	0.0167480
605.607	0.0167702
605.685	0.0166843
605.763	0.0167378
605.841	0.0166972
605.919	0.0167649
605.997	0.0168132
606.075	0.0166996
606.154	0.0167570
606.232	0.0166577
606.310	0.0167867
606.388	0.0167901
606.466	0.0167239
606.544	0.0167625
606.622	0.0169161
606.700	0.0167725
606.779	0.0167296
606.857	0.0168974
606.935	0.0168307
607.013	0.0167184
607.091	0.0168483
607.169	0.0168362
607.247	0.0166675
607.325	0.0167307
607.404	0.0168150
607.482	0.0167164
607.560	0.0168888
607.638	0.0167989
607.716	0.0167669
607.794	0.0168513
607.872	0.0168523
607.950	0.0166993
608.029	0.0169209
608.107	0.0167603
608.185	0.0168288
608.263	0.0167751
608.341	0.0170012
608.419	0.0167910
608.497	0.0166817
608.575	0.0169090
608.654	0.0169496
608.732	0.0167120
608.810	0.0167764
608.888	0.0168612
608.966	0.0167451
609.044	0.0167210
609.122	0.0167217
609.200	0.0167517
609.279	0.0167325
609.357	0.0167965
609.435	0.0167831
609.513	0.0167510
609.591	0.0168500
609.669	0.0167673
609.747	0.0167135
609.825	0.0168429
609.904	0.0168761
609.982	0.0167597
610.060	0.0168484
610.138	0.0167400
610.216	0.0168045
610.294	0.0169746
610.372	0.0168122
610.450	0.0168079
610.529	0.0168545
610.607	0.0168668
610.685	0.0169334
610.763	0.0166819
610.841	0.0167847
610.919	0.0167995
610.997	0.0167306
611.075	0.0167590
611.154	0.0167583
611.232	0.0167007
611.310	0.0167265
611.388	0.0167525
611.466	0.0167157
611.544	0.0167074
611.622	0.0166505
611.700	0.0168981
611.779	0.0167639
611.857	0.0167712
611.935	0.0168240
612.013	0.0167628
612.091	0.0167957
612.169	0.0167284
612.247	0.0167403
612.325	0.0168773
612.404	0.0168816
612.482	0.0167865
612.560	0.0167529
612.638	0.0168250
612.716	0.0168780
612.794	0.0167135
612.872	0.0166088
612.950	0.0166335
613.029	0.0167108
613.107	0.0166574
613.185	0.0168484
613.263	0.0166346
613.341	0.0168063
613.419	0.0168493
613.497	0.0167096
613.575	0.0166628
613.654	0.0166974
613.732	0.0168254
613.810	0.0168553
613.888	0.0168908
613.966	0.0168829
614.044	0.0168640
614.122	0.0167403
614.200	0.0166840
614.279	0.0166293
614.357	0.0167708
614.435	0.0166894
614.513	0.0167667
614.591	0.0166226
614.669	0.0167678
614.747	0.0168790
614.825	0.0166755
614.904	0.0167998
614.982	0.0167562
615.060	0.0167872
615.138	0.0166555
615.216	0.0165517
615.294	0.0166917
615.372	0.0167085
615.450	0.0167500
615.529	0.0167810
615.607	0.0167830
615.685	0.0168360
615.763	0.0167597
615.841	0.0167146
615.919	0.0167377
615.997	0.0167170
616.075	0.0168937
616.154	0.0167351
616.232	0.0167877
616.310	0.0167016
616.388	0.0167408
616.466	0.0168309
616.544	0.0167344
616.622	0.0168058
616.700	0.0167044
616.779	0.0169019
616.857	0.0167427
616.935	0.0168165
617.013	0.0168523
617.091	0.0167828
617.169	0.0168026
617.247	0.0167676
617.325	0.0167502
617.404	0.0166953
617.482	0.0166368
617.560	0.0167430
617.638	0.0166834
617.716	0.0167132
617.794	0.0166757
617.872	0.0166723
617.950	0.0167897
618.029	0.0168423
618.107	0.0167835
618.185	0.0167202
618.263	0.0166828
618.341	0.0166791
618.419	0.0166525
618.497	0.0167746
618.575	0.0167735
618.654	0.0167461
618.732	0.0169094
618.810	0.0166705
618.888	0.0167955
618.966	0.0167647
619.044	0.0166666
619.122	0.0167307
619.200	0.0167465
619.279	0.0166399
619.357	0.0167710
619.435	0.0167996
619.513	0.0166757
619.591	0.0167276
619.669	0.0166079
619.747	0.0167896
619.825	0.0168571
619.904	0.0168020
619.982	0.0167706
620.060	0.0167020
620.138	0.0167054
620.216	0.0168228
620.294	0.0168813
620.372	0.0168400
620.450	0.0167911
620.529	0.0167593
620.607	0.0167309
620.685	0.0168290
620.763	0.0168132
620.841	0.0170473
620.919	0.0168808
620.997	0.0168676
621.075	0.0169095
621.154	0.0167469
621.232	0.0168163
621.310	0.0166887
621.388	0.0169077
621.466	0.0167902
621.544	0.0168622
621.622	0.0167498
621.700	0.0168227
621.779	0.0168900
621.857	0.0167947
621.935	0.0167496
622.013	0.0167132
622.091	0.0168021
622.169	0.0167500
622.247	0.0167473
622.325	0.0167730
622.404	0.0167321
622.482	0.0168734
622.560	0.0167167
622.638	0.0166888
622.716	0.0167678
622.794	0.0166294
622.872	0.0166755
622.950	0.0166453
623.029	0.0167870
623.107	0.0167018
623.185	0.0167451
623.263	0.0167570
623.341	0.0168626
623.419	0.0167524
623.497	0.0167341
623.575	0.0166295
623.654	0.0166117
623.732	0.0167860
623.810	0.0168074
623.888	0.0167529
623.966	0.0167923
624.044	0.0167603
624.122	0.0167751
624.200	0.0167000
624.279	0.0166817
624.357	0.0166410
624.435	0.0166476
624.513	0.0165912
624.591	0.0167242
624.669	0.0166699
624.747	0.0166599
624.825	0.0166356
624.904	0.0168838
624.982	0.0168257
625.060	0.0168060
625.138	0.0170543
625.216	0.0168710
625.294	0.0170252
625.372	0.0171094
625.450	0.0172713
625.529	0.0170312
625.607	0.0168194
625.685	0.0167104
625.763	0.0168942
625.841	0.0168602
625.919	0.0165849
625.997	0.0165332
626.075	0.0165313
626.154	0.0163840
626.232	0.0164186
626.310	0.0163832
626.388	0.0164333
626.466	0.0164927
626.544	0.0165031
626.622	0.0167564
626.700	0.0168375
626.779	0.0170590
626.857	0.0172644
626.935	0.0173355
627.013	0.0173370
627.091	0.0173695
627.169	0.0173522
627.247	0.0173730
627.325	0.0173985
627.404	0.0173553
627.482	0.0172098
627.560	0.0170679
627.638	0.0169351
627.716	0.0167779
627.794	0.0168026
627.872	0.0166819
627.950	0.0164169
628.029	0.0163257
628.107	0.0162488
628.185	0.0161086
628.263	0.0159702
628.341	0.0160406
628.419	0.0158711
628.497	0.0157531
628.575	0.0157672
628.654	0.0158212
628.732	0.0160717
628.810	0.0161459
628.888	0.0160289
628.966	0.0163445
629.044	0.0164947
629.122	0.0166814
629.200	0.0169447
629.279	0.0171786
629.357	0.0173141
629.435	0.0174792
629.513	0.0179102
629.591	0.0180318
629.669	0.0180022
629.747	0.0181814
629.825	0.0180866
629.904	0.0180952
629.982	0.0179958
630.060	0.0178875
630.138	0.0178074
630.216	0.0174263
630.294	0.0171180
630.372	0.0167690
630.450	0.0166492
630.529	0.0163844
630.607	0.0160133
630.685	0.0158873
630.763	0.0157283
630.841	0.0156181
630.919	0.0155636
630.997	0.0155025
631.075	0.0154408
631.154	0.0154370
631.232	0.0154758
631.310	0.0155697
631.388	0.0156417
631.466	0.0157424
631.544	0.0157849
631.622	0.0160249
631.700	0.0162208
631.779	0.0163832
631.857	0.0166094
631.935	0.0168198
632.013	0.0170069
632.091	0.0174645
632.169	0.0176964
632.247	0.0178016
632.325	0.0178915
632.404	0.0180956
632.482	0.0183683
632.560	0.0183258
632.638	0.0185044
632.716	0.0185506
632.794	0.0184583
632.872	0.0183429
632.950	0.0183067
633.029	0.0181179
633.107	0.0179340
633.185	0.0177209
633.263	0.0176115
633.341	0.0173004
633.419	0.0172232
633.497	0.0170122
633.575	0.0167103
633.654	0.0166083
633.732	0.0162738
633.810	0.0158643
633.888	0.0157424
633.966	0.0155643
634.044	0.0152490
634.122	0.0148719
634.200	0.0147356
634.279	0.0146109
634.357	0.0144765
634.435	0.0145567
634.513	0.0145281
634.591	0.0145194
634.669	0.0147697
634.747	0.0150388
634.825	0.0154069
634.904	0.0157517
634.982	0.0162354
635.060	0.0164866
635.138	0.0170335
635.216	0.0174319
635.294	0.0178080
635.372	0.0180230
635.450	0.0184125
635.529	0.0186642
635.607	0.0187812
635.685	0.0186073
635.763	0.0187973
635.841	0.0187401
635.919	0.0185892
635.997	0.0185392
636.075	0.0181721
636.154	0.0179608
636.232	0.0178068
636.310	0.0175882
636.388	0.0171936
636.466	0.0168519
636.544	0.0168103
636.622	0.0163588
636.700	0.0161917
636.779	0.0161637
636.857	0.0159889
636.935	0.0159108
637.013	0.0159589
637.091	0.0158652
637.169	0.0160024
637.247	0.0159749
637.325	0.0162994
637.404	0.0164156
637.482	0.0166859
637.560	0.0166096
637.638	0.0168182
637.716	0.0170891
637.794	0.0169373
637.872	0.0169105
637.950	0.0169917
638.029	0.0169073
638.107	0.0168382
638.185	0.0167886
638.263	0.0166548
638.341	0.0165318
638.419	0.0164940
638.497	0.0164011
638.575	0.0162471
638.654	0.0162721
638.732	0.0163833
638.810	0.0162141
638.888	0.0163152
638.966	0.0159888
639.044	0.0157780
639.122	0.0158080
639.200	0.0157288
639.279	0.0154231
639.357	0.0153973
639.435	0.0152816
639.513	0.0152705
639.591	0.0152324
639.669	0.0152442
639.747	0.0154631
639.825	0.0158703
639.904	0.0161005
639.982	0.0165012
640.060	0.0170153
640.138	0.0174599
640.216	0.0180312
640.294	0.0185131
640.372	0.0188211
640.450	0.0190902
640.529	0.0194016
640.607	0.0195863
640.685	0.0195950
640.763	0.0197141
640.841	0.0195747
640.919	0.0196898
640.997	0.0193523
641.075	0.0191293
641.154	0.0189484
641.232	0.0187049
641.310	0.0185962
641.388	0.0183816
641.466	0.0181525
641.544	0.0179111
641.622	0.0177076
641.700	0.0173855
641.779	0.0172240
641.857	0.0167670
641.935	0.0163667
642.013	0.0158422
642.091	0.0154195
642.169	0.0147856
642.247	0.0141763
642.325	0.0136852
642.404	0.0131390
642.482	0.0127135
642.560	0.0124915
642.638	0.0122617
642.716	0.0121799
642.794	0.0122462
642.872	0.0123703
642.950	0.0128806
643.029	0.0133149
643.107	0.0137454
643.185	0.0143987
643.263	0.0145327
643.341	0.0152274
643.419	0.0158578
643.497	0.0162026
643.575	0.0167649
643.654	0.0173223
643.732	0.0175146
643.810	0.0177253
643.888	0.0180920
643.966	0.0184046
644.044	0.0186522
644.122	0.0188071
644.200	0.0190776
644.279	0.0192966
644.357	0.0194941
644.435	0.0195852
644.513	0.0197482
644.591	0.0197403
644.669	0.0196656
644.747	0.0197507
644.825	0.0197068
644.904	0.0195155
644.982	0.0194115
645.060	0.0195113
645.138	0.0191351
645.216	0.0189743
645.294	0.0187416
645.372	0.0188058
645.450	0.0184836
645.529	0.0183124
645.607	0.0182334
645.685	0.0178667
645.763	0.0178557
645.841	0.0178661
645.919	0.0176305
645.997	0.0174839
646.075	0.0175808
646.154	0.0173136
646.232	0.0170039
646.310	0.0166919
646.388	0.0164806
646.466	0.0160897
646.544	0.0156300
646.622	0.0152516
646.700	0.0145605
646.779	0.0140278
646.857	0.0134303
646.935	0.0129227
647.013	0.0122573
647.091	0.0118793
647.169	0.0116914
647.247	0.0114223
647.325	0.0111592
647.404	0.0112275
647.482	0.0114402
647.560	0.0117480
647.638	0.0121620
647.716	0.0126048
647.794	0.0129613
647.872	0.0136738
647.950	0.0142755
648.029	0.0151614
648.107	0.0158242
648.185	0.0165437
648.263	0.0173298
648.341	0.0178601
648.419	0.0186591
648.497	0.0193500
648.575	0.0200466
648.654	0.0205901
648.732	0.0208917
648.810	0.0213996
648.888	0.0216068
648.966	0.0219238
649.044	0.0220168
649.122	0.0221136
649.200	0.0222327
649.279	0.0220216
649.357	0.0218581
649.435	0.0216685
649.513	0.0213982
649.591	0.0209644
649.669	0.0205772
649.747	0.0200084
649.825	0.0197378
649.904	0.0190750
649.982	0.0186054
650.060	0.0179664
650.138	0.0171799
650.216	0.0166563
650.294	0.0160521
650.372	0.0155492
650.450	0.0150870
650.529	0.0148019
650.607	0.0145508
650.685	0.0142988
650.763	0.0141246
650.841	0.0141215
650.919	0.0140310
650.997	0.0140145
651.075	0.0141439
651.154	0.0143423
651.232	0.0144439
651.310	0.0144936
651.388	0.0144830
651.466	0.0143761
651.544	0.0142386
651.622	0.0142533
651.700	0.0139933
651.779	0.0138982
651.857	0.0136820
651.935	0.0134519
652.013	0.0131801
652.091	0.0131115
652.169	0.0128925
652.247	0.0130653
652.325	0.0130632
652.404	0.0131755
652.482	0.0136590
652.560	0.0140356
652.638	0.0145362
652.716	0.0150363
652.794	0.0157980
652.872	0.0166038
652.950	0.0173215
653.029	0.0182482
653.107	0.0189340
653.185	0.0195230
653.263	0.0201756
653.341	0.0207496
653.419	0.0213708
653.497	0.0216746
653.575	0.0217542
653.654	0.0219737
653.732	0.0221281
653.810	0.0223030
653.888	0.0220552
653.966	0.0218899
654.044	0.0218391
654.122	0.0217543
654.200	0.0214219
654.279	0.0210500
654.357	0.0207413
654.435	0.0203843
654.513	0.0198294
654.591	0.0193135
654.669	0.0189590
654.747	0.0183622
654.825	0.0178106
654.904	0.0171642
654.982	0.0163940
655.060	0.0156927
655.138	0.0151919
655.216	0.0145883
655.294	0.0138637
655.372	0.0134584
655.450	0.0131238
655.529	0.0126242
655.607	0.0124224
655.685	0.0123299
655.763	0.0121528
655.841	0.0123788
655.919	0.0124197
655.997	0.0125986
656.075	0.0127813
656.154	0.0130608
656.232	0.0134507
656.310	0.0135911
656.388	0.0139594
656.466	0.0140004
656.544	0.0143028
656.622	0.0146056
656.700	0.0149732
656.779	0.0151439
656.857	0.0154933
656.935	0.0158387
657.013	0.0159860
657.091	0.0163288
657.169	0.0166167
657.247	0.0168477
657.325	0.0172578
657.404	0.0175406
657.482	0.0178200
657.560	0.0178799
657.638	0.0178867
657.716	0.0181995
657.794	0.0182461
657.872	0.0183116
657.950	0.0184660
658.029	0.0186711
658.107	0.0187293
658.185	0.0186421
658.263	0.0186118
658.341	0.0187421
658.419	0.0189808
658.497	0.0188708
658.575	0.0188493
658.654	0.0191381
658.732	0.0190922
658.810	0.0189379
658.888	0.0191477
658.966	0.0190554
659.044	0.0190623
659.122	0.0190759
659.200	0.0190859
659.279	0.0189764
659.357	0.0187856
659.435	0.0187347
659.513	0.0183678
659.591	0.0180929
659.669	0.0178143
659.747	0.0175346
659.825	0.0171854
659.904	0.0168394
659.982	0.0164831
660.060	0.0160963
660.138	0.0159808
660.216	0.0156349
660.294	0.0153762
660.372	0.0150681
660.450	0.0148685
660.529	0.0146208
660.607	0.0147277
660.685	0.0143787
660.763	0.0143215
660.841	0.0141340
660.919	0.0142010
660.997	0.0143179
661.075	0.0141922
661.154	0.0144389
661.232	0.0145179
661.310	0.0146104
661.388	0.0148703
661.466	0.0152539
661.544	0.0153585
661.622	0.0156763
661.700	0.0161696
661.779	0.0165484
661.857	0.0166467
661.935	0.0169223
662.013	0.0173482
662.091	0.0176244
662.169	0.0177782
662.247	0.0178261
662.325	0.0180704
662.404	0.0181915
662.482	0.0181516
662.560	0.0180321
662.638	0.0177947
662.716	0.0175753
662.794	0.0173499
662.872	0.0171131
662.950	0.0168089
663.029	0.0165836
663.107	0.0161733
663.185	0.0159162
663.263	0.0158079
663.341	0.0155802
663.419	0.0155305
663.497	0.0155920
663.575	0.0155463
663.654	0.0157625
663.732	0.0159845
663.810	0.0163219
663.888	0.0167819
663.966	0.0167805
664.044	0.0170279
664.122	0.0172379
664.200	0.0175652
664.279	0.0177302
664.357	0.0176847
664.435	0.0179026
664.513	0.0180966
664.591	0.0181181
664.669	0.0180346
664.747	0.0181094
664.825	0.0182887
664.904	0.0179326
664.982	0.0178963
665.060	0.0179775
665.138	0.0177785
665.216	0.0175386
665.294	0.0176001
665.372	0.0174010
665.450	0.0172800
665.529	0.0171958
665.607	0.0170492
665.685	0.0170943
665.763	0.0169728
665.841	0.0168765
665.919	0.0168182
665.997	0.0168183
666.075	0.0168627
666.154	0.0168810
666.232	0.0171064
666.310	0.0171523
666.388	0.0172586
666.466	0.0173898
666.544	0.0172850
666.622	0.0171967
666.700	0.0172188
666.779	0.0173279
666.857	0.0171519
666.935	0.0170077
667.013	0.0164993
667.091	0.0163865
667.169	0.0162211
667.247	0.0156447
667.325	0.0153915
667.404	0.0151968
667.482	0.0151186
667.560	0.0147312
667.638	0.0146163
667.716	0.0144980
667.794	0.0145720
667.872	0.0144401
667.950	0.0146486
668.029	0.0148083
668.107	0.0151398
668.185	0.0152317
668.263	0.0155261
668.341	0.0157078
668.419	0.0158620
668.497	0.0160626
668.575	0.0162881
668.654	0.0164046
668.732	0.0164017
668.810	0.0165520
668.888	0.0165242
668.966	0.0165600
669.044	0.0165353
669.122	0.0164943
669.200	0.0166248
669.279	0.0165018
669.357	0.0166416
669.435	0.0167319
669.513	0.0167443
669.591	0.0168782
669.669	0.0170481
669.747	0.0171744
669.825	0.0173925
669.904	0.0176930
669.982	0.0179187
670.060	0.0178928
670.138	0.0181246
670.216	0.0185371
670.294	0.0185415
670.372	0.0186583
670.450	0.0188352
670.529	0.0189600
670.607	0.0191028
670.685	0.0192869
670.763	0.0193447
670.841	0.0195099
670.919	0.0195148
670.997	0.0194248
671.075	0.0195229
671.154	0.0192514
671.232	0.0190912
671.310	0.0186633
671.388	0.0183668
671.466	0.0181588
671.544	0.0177962
671.622	0.0174341
671.700	0.0168672
671.779	0.0165645
671.857	0.0162450
671.935	0.0158711
672.013	0.0154551
672.091	0.0152987
672.169	0.0151386
672.247	0.0148956
672.325	0.0148398
672.404	0.0147182
672.482	0.0145290
672.560	0.0145417
672.638	0.0145059
672.716	0.0145296
672.794	0.0144884
672.872	0.0143490
672.950	0.0143636
673.029	0.0143158
673.107	0.0144354
673.185	0.0145535
673.263	0.0146287
673.341	0.0147790
673.419	0.0147849
673.497	0.0150333
673.575	0.0152814
673.654	0.0154045
673.732	0.0157835
673.810	0.0159055
673.888	0.0161327
673.966	0.0166148
674.044	0.0168114
674.122	0.0171957
674.200	0.0173975
674.279	0.0177978
674.357	0.0181229
674.435	0.0181863
674.513	0.0183367
674.591	0.0182919
674.669	0.0182527
674.747	0.0181281
674.825	0.0181631
674.904	0.0180798
674.982	0.0178252
675.060	0.0176003
675.138	0.0174768
675.216	0.0172897
675.294	0.0170423
675.372	0.0167850
675.450	0.0167513
675.529	0.0166649
675.607	0.0164711
675.685	0.0164169
675.763	0.0163398
675.841	0.0163691
675.919	0.0164590
675.997	0.0165176
676.075	0.0166473
676.154	0.0166601
676.232	0.0169615
676.310	0.0170257
676.388	0.0171754
676.466	0.0174057
676.544	0.0176260
676.622	0.0177570
676.700	0.0180070
676.779	0.0180292
676.857	0.0181661
676.935	0.0183324
677.013	0.0183968
677.091	0.0183510
677.169	0.0184569
677.247	0.0183458
677.325	0.0185166
677.404	0.0183991
677.482	0.0183254
677.560	0.0183003
677.638	0.0182809
677.716	0.0180821
677.794	0.0178838
677.872	0.0177718
677.950	0.0175859
678.029	0.0172452
678.107	0.0170866
678.185	0.0167890
678.263	0.0165769
678.341	0.0162196
678.419	0.0159369
678.497	0.0156206
678.575	0.0154549
678.654	0.0152853
678.732	0.0153738
678.810	0.0152258
678.888	0.0151353
678.966	0.0151923
679.044	0.0153925
679.122	0.0154581
679.200	0.0153384
679.279	0.0154307
679.357	0.0153741
679.435	0.0154492
679.513	0.0154967
679.591	0.0153662
679.669	0.0154135
679.747	0.0152670
679.825	0.0151727
679.904	0.0152783
679.982	0.0152395
680.060	0.0150416
680.138	0.0152130
680.216	0.0152854
680.294	0.0152197
680.372	0.0153887
680.450	0.0156458
680.529	0.0158045
680.607	0.0158346
680.685	0.0161247
680.763	0.0162709
680.841	0.0165974
680.919	0.0166911
680.997	0.0168018
681.075	0.0168867
681.154	0.0173217
681.232	0.0173199
681.310	0.0174614
681.388	0.0175629
681.466	0.0175258
681.544	0.0177835
681.622	0.0179431
681.700	0.0180927
681.779	0.0180872
681.857	0.0181646
681.935	0.0183651
682.013	0.0183929
682.091	0.0183804
682.169	0.0183868
682.247	0.0184422
682.325	0.0183382
682.404	0.0183137
682.482	0.0181730
682.560	0.0180756
682.638	0.0179276
682.716	0.0177113
682.794	0.0175702
682.872	0.0172940
682.950	0.0173508
683.029	0.0173103
683.107	0.0170927
683.185	0.0170958
683.263	0.0169573
683.341	0.0170998
683.419	0.0171175
683.497	0.0170904
683.575	0.0170046
683.654	0.0171693
683.732	0.0172704
683.810	0.0172556
683.888	0.0174304
683.966	0.0175562
684.044	0.0176554
684.122	0.0177004
684.200	0.0176885
684.279	0.0177887
684.357	0.0177579
684.435	0.0177253
684.513	0.0177186
684.591	0.0177086
684.669	0.0176186
684.747	0.0175189
684.825	0.0172542
684.904	0.0171772
684.982	0.0170914
685.060	0.0167628
685.138	0.0166151
685.216	0.0163527
685.294	0.0161950
685.372	0.0158006
685.450	0.0155299
685.529	0.0152919
685.607	0.0151202
685.685	0.0147321
685.763	0.0145197
685.841	0.0143790
685.919	0.0142621
685.997	0.0140298
686.075	0.0139245
686.154	0.0138601
686.232	0.0139289
686.310	0.0139040
686.388	0.0138898
686.466	0.0138475
686.544	0.0138307
686.622	0.0141837
686.700	0.0142420
686.779	0.0143761
686.857	0.0143765
686.935	0.0147486
687.013	0.0150039
687.091	0.0151091
687.169	0.0157346
687.247	0.0159562
687.325	0.0162745
687.404	0.0166174
687.482	0.0171486
687.560	0.0175186
687.638	0.0179338
687.716	0.0184180
687.794	0.0188393
687.872	0.0191515
687.950	0.0193874
688.029	0.0196033
688.107	0.0196010
688.185	0.0197534
688.263	0.0198788
688.341	0.0198131
688.419	0.0197146
688.497	0.0197203
688.575	0.0195484
688.654	0.0192921
688.732	0.0189244
688.810	0.0186791
688.888	0.0184854
688.966	0.0183346
689.044	0.0180687
689.122	0.0178354
689.200	0.0175517
689.279	0.0172717
689.357	0.0171073
689.435	0.0169644
689.513	0.0166798
689.591	0.0162782
689.669	0.0162003
689.747	0.0159519
689.825	0.0157005
689.904	0.0156340
689.982	0.0156071
690.060	0.0154046
690.138	0.0155727
690.216	0.0156169
690.294	0.0155653
690.372	0.0157983
690.450	0.0159921
690.529	0.0162663
690.607	0.0165228
690.685	0.0166357
690.763	0.0168370
690.841	0.0171316
690.919	0.0172874
690.997	0.0174345
691.075	0.0176114
691.154	0.0177868
691.232	0.0178103
691.310	0.0178565
691.388	0.0176860
691.466	0.0175242
691.544	0.0174750
691.622	0.0174467
691.700	0.0173075
691.779	0.0172373
691.857	0.0169457
691.935	0.0166453
692.013	0.0164519
692.091	0.0162740
692.169	0.0162464
692.247	0.0160934
692.325	0.0158617
692.404	0.0157708
692.482	0.0157246
692.560	0.0156651
692.638	0.0157148
692.716	0.0157549
692.794	0.0156161
692.872	0.0156273
692.950	0.0157330
693.029	0.0157189
693.107	0.0158720
693.185	0.0158738
693.263	0.0158291
693.341	0.0158731
693.419	0.0158112
693.497	0.0156795
693.575	0.0156797
693.654	0.0156592
693.732	0.0157253
693.810	0.0157455
693.888	0.0156698
693.966	0.0155547
694.044	0.0157070
694.122	0.0158465
694.200	0.0159683
694.279	0.0159566
694.357	0.0162010
694.435	0.0163486
694.513	0.0166391
694.591	0.0168672
694.669	0.0169793
694.747	0.0173340
694.825	0.0174910
694.904	0.0177601
694.982	0.0177543
695.060	0.0179844
695.138	0.0181551
695.216	0.0181367
695.294	0.0183096
695.372	0.0182334
695.450	0.0183820
695.529	0.0182986
695.607	0.0182724
695.685	0.0182529
695.763	0.0180917
695.841	0.0180915
695.919	0.0179150
695.997	0.0177118
696.075	0.0176147
696.154	0.0174125
696.232	0.0173260
696.310	0.0172465
696.388	0.0172163
696.466	0.0171714
696.544	0.0168997
696.622	0.0168179
696.700	0.0167963
696.779	0.0165416
696.857	0.0165158
696.935	0.0164319
697.013	0.0162992
697.091	0.0161565
697.169	0.0161749
697.247	0.0161913
697.325	0.0163014
697.404	0.0164085
697.482	0.0164568
697.560	0.0165868
697.638	0.0167899
697.716	0.0169119
697.794	0.0171708
697.872	0.0172131
697.950	0.0173229
698.029	0.0173854
698.107	0.0175822
698.185	0.0177547
698.263	0.0177425
698.341	0.0177501
698.419	0.0179217
698.497	0.0180005
698.575	0.0181855
698.654	0.0180034
698.732	0.0179483
698.810	0.0179668
698.888	0.0178389
698.966	0.0177939
699.044	0.0176329
699.122	0.0173721
699.200	0.0171470
699.279	0.0169756
699.357	0.0168379
699.435	0.0166009
699.513	0.0162123
699.591	0.0160497
699.669	0.0158339
699.747	0.0157941
699.825	0.0154932
699.904	0.0152692
699.982	0.0151112
700.060	0.0150742
700.138	0.0148895
700.216	0.0147415
700.294	0.0146017
700.372	0.0147368
700.450	0.0147338
700.529	0.0145024
700.607	0.0144717
700.685	0.0145586
700.763	0.0145777
700.841	0.0145871
700.919	0.0148397
700.997	0.0149237
701.075	0.0151190
701.154	0.0152248
701.232	0.0153361
701.310	0.0156819
701.388	0.0157880
701.466	0.0159848
701.544	0.0163071
701.622	0.0167048
701.700	0.0168682
701.779	0.0171404
701.857	0.0174527
701.935	0.0177488
702.013	0.0177859
702.091	0.0181809
702.169	0.0182832
702.247	0.0184249
702.325	0.0185101
702.404	0.0186660
702.482	0.0186236
702.560	0.0185249
702.638	0.0185985
702.716	0.0183270
702.794	0.0182862
702.872	0.0181388
702.950	0.0182472
703.029	0.0178244
703.107	0.0177681
703.185	0.0174320
703.263	0.0174997
703.341	0.0173253
703.419	0.0171977
703.497	0.0172203
703.575	0.0172803
703.654	0.0170849
703.732	0.0170269
703.810	0.0169788
703.888	0.0169569
703.966	0.0170789
704.044	0.0168636
704.122	0.0167457
704.200	0.0168798
704.279	0.0167655
704.357	0.0168473
704.435	0.0167183
704.513	0.0167771
704.591	0.0169053
704.669	0.0167664
704.747	0.0167876
704.825	0.0166062
704.904	0.0168108
704.982	0.0167869
705.060	0.0169299
705.138	0.0170574
705.216	0.0170496
705.294	0.0169742
705.372	0.0171298
705.450	0.0172227
705.529	0.0172901
705.607	0.0173499
705.685	0.0176291
705.763	0.0177732
705.841	0.0177127
705.919	0.0177962
705.997	0.0177348
706.075	0.0176473
706.154	0.0174717
706.232	0.0172990
706.310	0.0173472
706.388	0.0170826
706.466	0.0169292
706.544	0.0167078
706.622	0.0163777
706.700	0.0160928
706.779	0.0159644
706.857	0.0157767
706.935	0.0155045
707.013	0.0152171
707.091	0.0150473
707.169	0.0149051
707.247	0.0147811
707.325	0.0146182
707.404	0.0145416
707.482	0.0145763
707.560	0.0144323
707.638	0.0144861
707.716	0.0146542
707.794	0.0145821
707.872	0.0148785
707.950	0.0150148
708.029	0.0152005
708.107	0.0152989
708.185	0.0153432
708.263	0.0156030
708.341	0.0158345
708.419	0.0159131
708.497	0.0160051
708.575	0.0160593
708.654	0.0163279
708.732	0.0165157
708.810	0.0164386
708.888	0.0166170
708.966	0.0167000
709.044	0.0169313
709.122	0.0171027
709.200	0.0172242
709.279	0.0175230
709.357	0.0175989
709.435	0.0176440
709.513	0.0178943
709.591	0.0181152
709.669	0.0183673
709.747	0.0184430
709.825	0.0184105
709.904	0.0185342
709.982	0.0184450
710.060	0.0183598
710.138	0.0184210
710.216	0.0182569
710.294	0.0182362
710.372	0.0182666
710.450	0.0179405
710.529	0.0179005
710.607	0.0177055
710.685	0.0176543
710.763	0.0175417
710.841	0.0173329
710.919	0.0172379
710.997	0.0172783
711.075	0.0171354
711.154	0.0168336
711.232	0.0167912
711.310	0.0165221
711.388	0.0165767
711.466	0.0163913
711.544	0.0162578
711.622	0.0161700
711.700	0.0162324
711.779	0.0160790
711.857	0.0162215
711.935	0.0161903
712.013	0.0162751
712.091	0.0165852
712.169	0.0167227
712.247	0.0168528
712.325	0.0170628
712.404	0.0172678
712.482	0.0174338
712.560	0.0176039
712.638	0.0176231
712.716	0.0176396
712.794	0.0178090
712.872	0.0180118
712.950	0.0178506
713.029	0.0179358
713.107	0.0178272
713.185	0.0178630
713.263	0.0176321
713.341	0.0176130
713.419	0.0174265
713.497	0.0171616
713.575	0.0170079
713.654	0.0168521
713.732	0.0168543
713.810	0.0165985
713.888	0.0163873
713.966	0.0161678
714.044	0.0160072
714.122	0.0157328
714.200	0.0155667
714.279	0.0153002
714.357	0.0151604
714.435	0.0149281
714.513	0.0146729
714.591	0.0145870
714.669	0.0146236
714.747	0.0145229
714.825	0.0146269
714.904	0.0146807
714.982	0.0145399
715.060	0.0146039
715.138	0.0147761
715.216	0.0148390
715.294	0.0148135
715.372	0.0150938
715.450	0.0154306
715.529	0.0154650
715.607	0.0156329
715.685	0.0156582
715.763	0.0158676
715.841	0.0161198
715.919	0.0161801
715.997	0.0162500
716.075	0.0164725
716.154	0.0165875
716.232	0.0168800
716.310	0.0169603
716.388	0.0172125
716.466	0.0173664
716.544	0.0176850
716.622	0.0178033
716.700	0.0180730
716.779	0.0181752
716.857	0.0183245
716.935	0.0184525
717.013	0.0186761
717.091	0.0187576
717.169	0.0187262
717.247	0.0186661
717.325	0.0186797
717.404	0.0185937
717.482	0.0182069
717.560	0.0183025
717.638	0.0182021
717.716	0.0179655
717.794	0.0178183
717.872	0.0176048
717.950	0.0175790
718.029	0.0174096
718.107	0.0172298
718.185	0.0171714
718.263	0.0169690
718.341	0.0167551
718.419	0.0168547
718.497	0.0166716
718.575	0.0166453
718.654	0.0164842
718.732	0.0165723
718.810	0.0164116
718.888	0.0163881
718.966	0.0163465
719.044	0.0162737
719.122	0.0163839
719.200	0.0165224
719.279	0.0165070
719.357	0.0167297
719.435	0.0167406
719.513	0.0167206
719.591	0.0169460
719.669	0.0170905
719.747	0.0169877
719.825	0.0171157
719.904	0.0171861
719.982	0.0173954
720.060	0.0173915
720.138	0.0174892
720.216	0.0173553
720.294	0.0173938
720.372	0.0175205
720.450	0.0174308
720.529	0.0174100
720.607	0.0173283
720.685	0.0172910
720.763	0.0171922
720.841	0.0168843
720.919	0.0167989
720.997	0.0167618
721.075	0.0166105
721.154	0.0165417
721.232	0.0163102
721.310	0.0161197
721.388	0.0160241
721.466	0.0159584
721.544	0.0157097
721.622	0.0156796
721.700	0.0155208
721.779	0.0154088
721.857	0.0152930
721.935	0.0153652
722.013	0.0152869
722.091	0.0152509
722.169	0.0152182
722.247	0.0152058
722.325	0.0153317
722.404	0.0151000
722.482	0.0152305
722.560	0.0152785
722.638	0.0152696
722.716	0.0153638
722.794	0.0156779
722.872	0.0155880
722.950	0.0155759
723.029	0.0157161
723.107	0.0157914
723.185	0.0158499
723.263	0.0160356
723.341	0.0160372
723.419	0.0161741
723.497	0.0165124
723.575	0.0165649
723.654	0.0168112
723.732	0.0168792
723.810	0.0171944
723.888	0.0174783
723.966	0.0175460
724.044	0.0178116
724.122	0.0180064
724.200	0.0183144
724.279	0.0184039
724.357	0.0185504
724.435	0.0187377
724.513	0.0185558
724.591	0.0184966
724.669	0.0185873
724.747	0.0186968
724.825	0.0183241
724.904	0.0182303
724.982	0.0180565
725.060	0.0180196
725.138	0.0179549
725.216	0.0177731
725.294	0.0174497
725.372	0.0175854
725.450	0.0173075
725.529	0.0172314
725.607	0.0171933
725.685	0.0170924
725.763	0.0169162
725.841	0.0168160
725.919	0.0170365
725.997	0.0169103
726.075	0.0168925
726.154	0.0168718
726.232	0.0167103
726.310	0.0167960
726.388	0.0166348
726.466	0.0168224
726.544	0.0168196
726.622	0.0168041
726.700	0.0167332
726.779	0.0168832
726.857	0.0169207
726.935	0.0170524
727.013	0.0172575
727.091	0.0170253
727.169	0.0171540
727.247	0.0171226
727.325	0.0172041
727.404	0.0172520
727.482	0.0171403
727.560	0.0171196
727.638	0.0169235
727.716	0.0168549
727.794	0.0167929
727.872	0.0165680
727.950	0.0165740
728.029	0.0164655
728.107	0.0163641
728.185	0.0162510
728.263	0.0161077
728.341	0.0160200
728.419	0.0159531
728.497	0.0157989
728.575	0.0158215
728.654	0.0158053
728.732	0.0156579
728.810	0.0155562
728.888	0.0157331
728.966	0.0156635
729.044	0.0156776
729.122	0.0156203
729.200	0.0156744
729.279	0.0155162
729.357	0.0157312
729.435	0.0156496
729.513	0.0157806
729.591	0.0157225
729.669	0.0158430
729.747	0.0158260
729.825	0.0159421
729.904	0.0161275
729.982	0.0161795
730.060	0.0163591
730.138	0.0162151
730.216	0.0163335
730.294	0.0164395
730.372	0.0165328
730.450	0.0163451
730.529	0.0165834
730.607	0.0165499
730.685	0.0164784
730.763	0.0165335
730.841	0.0167266
730.919	0.0168559
730.997	0.0168968
731.075	0.0168448
731.154	0.0169093
731.232	0.0171598
731.310	0.0172845
731.388	0.0174148
731.466	0.0174788
731.544	0.0175527
731.622	0.0175803
731.700	0.0175937
731.779	0.0177180
731.857	0.0177357
731.935	0.0177590
732.013	0.0177008
732.091	0.0177012
732.169	0.0176689
732.247	0.0176072
732.325	0.0174275
732.404	0.0173302
732.482	0.0175459
732.560	0.0173603
732.638	0.0174123
732.716	0.0172630
732.794	0.0171655
732.872	0.0171484
732.950	0.0171754
733.029	0.0172109
733.107	0.0173269
733.185	0.0170918
733.263	0.0171284
733.341	0.0171947
733.419	0.0171839
733.497	0.0171931
733.575	0.0171619
733.654	0.0170456
733.732	0.0170600
733.810	0.0172528
733.888	0.0173106
733.966	0.0172149
734.044	0.0171019
734.122	0.0171176
734.200	0.0172238
734.279	0.0171246
734.357	0.0171594
734.435	0.0171143
734.513	0.0171584
734.591	0.0171207
734.669	0.0169666
734.747	0.0171241
734.825	0.0169902
734.904	0.0169473
734.982	0.0166383
735.060	0.0164986
735.138	0.0166125
735.216	0.0163605
735.294	0.0162335
735.372	0.0162032
735.450	0.0161863
735.529	0.0161460
735.607	0.0160137
735.685	0.0159497
735.763	0.0159352
735.841	0.0158082
735.919	0.0157986
735.997	0.0154792
736.075	0.0156051
736.154	0.0155938
736.232	0.0156956
736.310	0.0156122
736.388	0.0157269
736.466	0.0156405
736.544	0.0156741
736.622	0.0157104
736.700	0.0156811
736.779	0.0156241
736.857	0.0158531
736.935	0.0158984
737.013	0.0159412
737.091	0.0161544
737.169	0.0160564
737.247	0.0162122
737.325	0.0162087
737.404	0.0162642
737.482	0.0163674
737.560	0.0164252
737.638	0.0165077
737.716	0.0166499
737.794	0.0166225
737.872	0.0167305
737.950	0.0167393
738.029	0.0168922
738.107	0.0168555
738.185	0.0171046
738.263	0.0171299
738.341	0.0172915
738.419	0.0170483
738.497	0.0173413
738.575	0.0171362
738.654	0.0170900
738.732	0.0171281
738.810	0.0171832
738.888	0.0171992
738.966	0.0172756
739.044	0.0172744
739.122	0.0172919
739.200	0.0172671
739.279	0.0172576
739.357	0.0172925
739.435	0.0172012
739.513	0.0171473
739.591	0.0170354
739.669	0.0170951
739.747	0.0172147
739.825	0.0171629
739.904	0.0171259
739.982	0.0171540
740.060	0.0172118
740.138	0.0172504
740.216	0.0171350
740.294	0.0172974
740.372	0.0174351
740.450	0.0174026
740.529	0.0175463
740.607	0.0176283
740.685	0.0176825
740.763	0.0175467
740.841	0.0175000
740.919	0.0176138
740.997	0.0174894
741.075	0.0175886
741.154	0.0174957
741.232	0.0175166
741.310	0.0175395
741.388	0.0175600
741.466	0.0174790
741.544	0.0173271
741.622	0.0171800
741.700	0.0172500
741.779	0.0171338
741.857	0.0169247
741.935	0.0168096
742.013	0.0168214
742.091	0.0166724
742.169	0.0166467
742.247	0.0166456
742.325	0.0164535
742.404	0.0164145
742.482	0.0163647
742.560	0.0162469
742.638	0.0161458
742.716	0.0161896
742.794	0.0160352
742.872	0.0159980
742.950	0.0160700
743.029	0.0159729
743.107	0.0156796
743.185	0.0157789
743.263	0.0157304
743.341	0.0157877
743.419	0.0156923
743.497	0.0155980
743.575	0.0156734
743.654	0.0155887
743.732	0.0156123
743.810	0.0155833
743.888	0.0156582
743.966	0.0157184
744.044	0.0157349
744.122	0.0157197
744.200	0.0157632
744.279	0.0159090
744.357	0.0159561
744.435	0.0158903
744.513	0.0158823
744.591	0.0161890
744.669	0.0162698
744.747	0.0161658
744.825	0.0163724
744.904	0.0165379
744.982	0.0165493
745.060	0.0168950
745.138	0.0167539
745.216	0.0168491
745.294	0.0169480
745.372	0.0170964
745.450	0.0170895
745.529	0.0172482
745.607	0.0174976
745.685	0.0172997
745.763	0.0175124
745.841	0.0175745
745.919	0.0176041
745.997	0.0174770
746.075	0.0175340
746.154	0.0176634
746.232	0.0176455
746.310	0.0177547
746.388	0.0176801
746.466	0.0177045
746.544	0.0176445
746.622	0.0176008
746.700	0.0176084
746.779	0.0175470
746.857	0.0175880
746.935	0.0174684
747.013	0.0172840
747.091	0.0171867
747.169	0.0173129
747.247	0.0172455
747.325	0.0170789
747.404	0.0170191
747.482	0.0170590
747.560	0.0170403
747.638	0.0170922
747.716	0.0170661
747.794	0.0168937
747.872	0.0168072
747.950	0.0168409
748.029	0.0168876
748.107	0.0167250
748.185	0.0166750
748.263	0.0167936
748.341	0.0166582
748.419	0.0166443
748.497	0.0166109
748.575	0.0165057
748.654	0.0166370
748.732	0.0164054
748.810	0.0164429
748.888	0.0162198
748.966	0.0163271
749.044	0.0163167
749.122	0.0162881
749.200	0.0162937
749.279	0.0162671
749.357	0.0163893
749.435	0.0163792
749.513	0.0164414
749.591	0.0166026
749.669	0.0166268
749.747	0.0166798
749.825	0.0167148
749.904	0.0168713
749.982	0.0168879
750.060	0.0169579
750.138	0.0171506
750.216	0.0169971
750.294	0.0172131
750.372	0.0171613
750.450	0.0171976
750.529	0.0170275
750.607	0.0171040
750.685	0.0170226
750.763	0.0170277
750.841	0.0169526
750.919	0.0169180
750.997	0.0169501
751.075	0.0169761
751.154	0.0167382
751.232	0.0166199
751.310	0.0166555
751.388	0.0165705
751.466	0.0164251
751.544	0.0163386
751.622	0.0163616
751.700	0.0163081
751.779	0.0163091
751.857	0.0163026
751.935	0.0161207
752.013	0.0161496
752.091	0.0159698
752.169	0.0159481
752.247	0.0160188
752.325	0.0159502
752.404	0.0158746
752.482	0.0161066
752.560	0.0158543
752.638	0.0159374
752.716	0.0160820
752.794	0.0161539
752.872	0.0159773
752.950	0.0162429
753.029	0.0162709
753.107	0.0162301
753.185	0.0162259
753.263	0.0163557
753.341	0.0164340
753.419	0.0165622
753.497	0.0166270
753.575	0.0165824
753.654	0.0166273
753.732	0.0166910
753.810	0.0168394
753.888	0.0168900
753.966	0.0168946
754.044	0.0170741
754.122	0.0171775
754.200	0.0171986
754.279	0.0172958
754.357	0.0173878
754.435	0.0174895
754.513	0.0175291
754.591	0.0176342
754.669	0.0176450
754.747	0.0177458
754.825	0.0176096
754.904	0.0176804
754.982	0.0177527
755.060	0.0177155
755.138	0.0176804
755.216	0.0177619
755.294	0.0177203
755.372	0.0177229
755.450	0.0177747
755.529	0.0176430
755.607	0.0177039
755.685	0.0177014
755.763	0.0176463
755.841	0.0174158
755.919	0.0172408
755.997	0.0173796
756.075	0.0172511
756.154	0.0171986
756.232	0.0170397
756.310	0.0169922
756.388	0.0169113
756.466	0.0167537
756.544	0.0167003
756.622	0.0165681
756.700	0.0164769
756.779	0.0164523
756.857	0.0162777
756.935	0.0163937
757.013	0.0163312
757.091	0.0162201
757.169	0.0161839
757.247	0.0161754
757.325	0.0162334
757.404	0.0160738
757.482	0.0161451
757.560	0.0161801
757.638	0.0163127
757.716	0.0161464
757.794	0.0162092
757.872	0.0162608
757.950	0.0162019
758.029	0.0161536
758.107	0.0161453
758.185	0.0163484
758.263	0.0163327
758.341	0.0164459
758.419	0.0163404
758.497	0.0164121
758.575	0.0164983
758.654	0.0164877
758.732	0.0165295
758.810	0.0163677
758.888	0.0165707
758.966	0.0164220
759.044	0.0164455
759.122	0.0163199
759.200	0.0163783
759.279	0.0163993
759.357	0.0163050
759.435	0.0163860
759.513	0.0163461
759.591	0.0163166
759.669	0.0163622
759.747	0.0164085
759.825	0.0162996
759.904	0.0164364
759.982	0.0165520
760.060	0.0164539
760.138	0.0165977
760.216	0.0165809
760.294	0.0166932
760.372	0.0166826
760.450	0.0167187
760.529	0.0168547
760.607	0.0169545
760.685	0.0170188
760.763	0.0170224
760.841	0.0170822
760.919	0.0169669
760.997	0.0171612
761.075	0.0171462
761.154	0.0170914
761.232	0.0170712
761.310	0.0171093
761.388	0.0170309
761.466	0.0170427
761.544	0.0175589
761.622	0.0172983
761.700	0.0173687
761.779	0.0173770
761.857	0.0173174
761.935	0.0175449
762.013	0.0174930
762.091	0.0174357
762.169	0.0175973
762.247	0.0175500
762.325	0.0177581
762.404	0.0174680
762.482	0.0174408
762.560	0.0173804
762.638	0.0174601
762.716	0.0173619
762.794	0.0174079
762.872	0.0171709
762.950	0.0171811
763.029	0.0171161
763.107	0.0169934
763.185	0.0170204
763.263	0.0168298
763.341	0.0167387
763.419	0.0166597
763.497	0.0165894
763.575	0.0165089
763.654	0.0164236
763.732	0.0162952
763.810	0.0163428
763.888	0.0162820
763.966	0.0163873
764.044	0.0161923
764.122	0.0160841
764.200	0.0161971
764.279	0.0160506
764.357	0.0162031
764.435	0.0162697
764.513	0.0162833
764.591	0.0163340
764.669	0.0164304
764.747	0.0163976
764.825	0.0163754
764.904	0.0165661
764.982	0.0166203
765.060	0.0166663
765.138	0.0164656
765.216	0.0165359
765.294	0.0166306
765.372	0.0166418
765.450	0.0165447
765.529	0.0165987
765.607	0.0164969
765.685	0.0166463
765.763	0.0166430
765.841	0.0165836
765.919	0.0164476
765.997	0.0165908
766.075	0.0167131
766.154	0.0166666
766.232	0.0166356
766.310	0.0166409
766.388	0.0165985
766.466	0.0167119
766.544	0.0166518
766.622	0.0167984
766.700	0.0169087
766.779	0.0168767
766.857	0.0170128
766.935	0.0168820
767.013	0.0169242
767.091	0.0170048
767.169	0.0169851
767.247	0.0168405
767.325	0.0169534
767.404	0.0168565
767.482	0.0169199
767.560	0.0170305
767.638	0.0169199
767.716	0.0168820
767.794	0.0169549
767.872	0.0169257
767.950	0.0168285
768.029	0.0167348
768.107	0.0168178
768.185	0.0167630
768.263	0.0166517
768.341	0.0166637
768.419	0.0165219
768.497	0.0163854
768.575	0.0164435
768.654	0.0163862
768.732	0.0164093
768.810	0.0163628
768.888	0.0163250
768.966	0.0165121
769.044	0.0165434
769.122	0.0165027
769.200	0.0165222
769.279	0.0166255
769.357	0.0166817
769.435	0.0165544
769.513	0.0167415
769.591	0.0168200
769.669	0.0169180
769.747	0.0169135
769.825	0.0169360
769.904	0.0167321
769.982	0.0168803
770.060	0.0169939
770.138	0.0169463
770.216	0.0169234
770.294	0.0169706
770.372	0.0168532
770.450	0.0168587
770.529	0.0170798
770.607	0.0170014
770.685	0.0168848
770.763	0.0169923
770.841	0.0169167
770.919	0.0169542
770.997	0.0171275
771.075	0.0170401
771.154	0.0169831
771.232	0.0170822
771.310	0.0170639
771.388	0.0171505
771.466	0.0171716
771.544	0.0170436
771.622	0.0170800
771.700	0.0171125
771.779	0.0170835
771.857	0.0170039
771.935	0.0169059
772.013	0.0169832
772.091	0.0169962
772.169	0.0169217
772.247	0.0168983
772.325	0.0168119
772.404	0.0166634
772.482	0.0168421
772.560	0.0167119
772.638	0.0167471
772.716	0.0166868
772.794	0.0167477
772.872	0.0165453
772.950	0.0166273
773.029	0.0166220
773.107	0.0164092
773.185	0.0164527
773.263	0.0165031
773.341	0.0164600
773.419	0.0165545
773.497	0.0164675
773.575	0.0166016
773.654	0.0166261
773.732	0.0166504
773.810	0.0165086
773.888	0.0165359
773.966	0.0165894
774.044	0.0165809
774.122	0.0166557
774.200	0.0166349
774.279	0.0166430
774.357	0.0164847
774.435	0.0164292
774.513	0.0165343
774.591	0.0165334
774.669	0.0164783
774.747	0.0164791
774.825	0.0164620
774.904	0.0164755
774.982	0.0163737
775.060	0.0164635
775.138	0.0165157
775.216	0.0163435
775.294	0.0166343
775.372	0.0164514
775.450	0.0164423
775.529	0.0164438
775.607	0.0166135
775.685	0.0164831
775.763	0.0165377
775.841	0.0165011
775.919	0.0165443
775.997	0.0167255
776.075	0.0166602
776.154	0.0166513
776.232	0.0167044
776.310	0.0168360
776.388	0.0168961
776.466	0.0167392
776.544	0.0168732
776.622	0.0168648
776.700	0.0169135
776.779	0.0169579
776.857	0.0169221
776.935	0.0169511
777.013	0.0169013
777.091	0.0169608
777.169	0.0170729
777.247	0.0169582
777.325	0.0169787
777.404	0.0168784
777.482	0.0168668
777.560	0.0168704
777.638	0.0169805
777.716	0.0169511
777.794	0.0170216
777.872	0.0169001
777.950	0.0169988
778.029	0.0171206
778.107	0.0170143
778.185	0.0170800
778.263	0.0170507
778.341	0.0169376
778.419	0.0170535
778.497	0.0172375
778.575	0.0171074
778.654	0.0171568
778.732	0.0169909
778.810	0.0171677
778.888	0.0170461
778.966	0.0171003
779.044	0.0169305
779.122	0.0170111
779.200	0.0171716
779.279	0.0169205
779.357	0.0171047
779.435	0.0170281
779.513	0.0170351
779.591	0.0169337
779.669	0.0169409
779.747	0.0169196
779.825	0.0168266
779.904	0.0167028
779.982	0.0167352
780.060	0.0168190
780.138	0.0166293
780.216	0.0166382
780.294	0.0165137
780.372	0.0166824
780.450	0.0166886
780.529	0.0166335
780.607	0.0166116
780.685	0.0166933
780.763	0.0166638
780.841	0.0165875
780.919	0.0165533
780.997	0.0166824
781.075	0.0167058
781.154	0.0164078
781.232	0.0165734
781.310	0.0167200
781.388	0.0166397
781.466	0.0165820
781.544	0.0164625
781.622	0.0165968
781.700	0.0165318
781.779	0.0164697
781.857	0.0164261
781.935	0.0164684
782.013	0.0163864
782.091	0.0164094
782.169	0.0163258
782.247	0.0163036
782.325	0.0163052
782.404	0.0162009
782.482	0.0162252
782.560	0.0163667
782.638	0.0163499
782.716	0.0162890
782.794	0.0162196
782.872	0.0163421
782.950	0.0163493
783.029	0.0164602
783.107	0.0165517
783.185	0.0165720
783.263	0.0166070
783.341	0.0165945
783.419	0.0165987
783.497	0.0166425
783.575	0.0166875
783.654	0.0167410
783.732	0.0168860
783.810	0.0169103
783.888	0.0170060
783.966	0.0169920
784.044	0.0170149
784.122	0.0169938
784.200	0.0169934
784.279	0.0171661
784.357	0.0170222
784.435	0.0170533
784.513	0.0170982
784.591	0.0170684
784.669	0.0170695
784.747	0.0170920
784.825	0.0170098
784.904	0.0171175
784.982	0.0170873
785.060	0.0172521
785.138	0.0171329
785.216	0.0170703
785.294	0.0171143
785.372	0.0171562
785.450	0.0172311
785.529	0.0170946
785.607	0.0170916
785.685	0.0171671
785.763	0.0170391
785.841	0.0171748
785.919	0.0171468
785.997	0.0171638
786.075	0.0170214
786.154	0.0170652
786.232	0.0171668
786.310	0.0170927
786.388	0.0170391
786.466	0.0169943
786.544	0.0170274
786.622	0.0169511
786.700	0.0170549
786.779	0.0170767
786.857	0.0170365
786.935	0.0170419
787.013	0.0168258
787.091	0.0168624
787.169	0.0169334
787.247	0.0170886
787.325	0.0169701
787.404	0.0169291
787.482	0.0169499
787.560	0.0168958
787.638	0.0168292
787.716	0.0168335
787.794	0.0168186
787.872	0.0167705
787.950	0.0168527
788.029	0.0167444
788.107	0.0167606
788.185	0.0167123
788.263	0.0165076
788.341	0.0164757
788.419	0.0166437
788.497	0.0166312
788.575	0.0164854
788.654	0.0163270
788.732	0.0163673
788.810	0.0164588
788.888	0.0163584
788.966	0.0163149
789.044	0.0163414
789.122	0.0163018
789.200	0.0162029
789.279	0.0162682
789.357	0.0162080
789.435	0.0163188
789.513	0.0161237
789.591	0.0163438
789.669	0.0163275
789.747	0.0162016
789.825	0.0163529
789.904	0.0161720
789.982	0.0163305
790.060	0.0164478
790.138	0.0164178
790.216	0.0165024
790.294	0.0165228
790.372	0.0164899
790.450	0.0165489
790.529	0.0165414
790.607	0.0165109
790.685	0.0167134
790.763	0.0167641
790.841	0.0169073
790.919	0.0168628
790.997	0.0167245
791.075	0.0168101
791.154	0.0169404
791.232	0.0169131
791.310	0.0170800
791.388	0.0171204
791.466	0.0169856
791.544	0.0170564
791.622	0.0170071
791.700	0.0170867
791.779	0.0170980
791.857	0.0171822
791.935	0.0172131
792.013	0.0171703
792.091	0.0172803
792.169	0.0171573
792.247	0.0171300
792.325	0.0171989
792.404	0.0171838
792.482	0.0171828
792.560	0.0172241
792.638	0.0171135
792.716	0.0172271
792.794	0.0170403
792.872	0.0170695
792.950	0.0170916
793.029	0.0169849
793.107	0.0170940
793.185	0.0169576
793.263	0.0170058
793.341	0.0168932
793.419	0.0168676
793.497	0.0169404
793.575	0.0168739
793.654	0.0168264
793.732	0.0167471
793.810	0.0167539
793.888	0.0168207
793.966	0.0168235
794.044	0.0167648
794.122	0.0168485
794.200	0.0167689
794.279	0.0167699
794.357	0.0168661
794.435	0.0168539
794.513	0.0168600
794.591	0.0167434
794.669	0.0168422
794.747	0.0168187
794.825	0.0167365
794.904	0.0169431
794.982	0.0168307
795.060	0.0167075
795.138	0.0168604
795.216	0.0169434
795.294	0.0168118
795.372	0.0167771
795.450	0.0167704
795.529	0.0166028
795.607	0.0167419
795.685	0.0166202
795.763	0.0165665
795.841	0.0165302
795.919	0.0164922
795.997	0.0162444
796.075	0.0165203
796.154	0.0164728
796.232	0.0164265
796.310	0.0163870
796.388	0.0163805
796.466	0.0164720
796.544	0.0164381
796.622	0.0164747
796.700	0.0165707
796.779	0.0165135
796.857	0.0164912
796.935	0.0165211
797.013	0.0165968
797.091	0.0165625
797.169	0.0165206
797.247	0.0165941
797.325	0.0166103
797.404	0.0166097
797.482	0.0167033
797.560	0.0165739
797.638	0.0167368
797.716	0.0166617
797.794	0.0166164
797.872	0.0167676
797.950	0.0167020
798.029	0.0167293
798.107	0.0167206
798.185	0.0168262
798.263	0.0167883
798.341	0.0168189
798.419	0.0168311
798.497	0.0167853
798.575	0.0167060
798.654	0.0167689
798.732	0.0169440
798.810	0.0168125
798.888	0.0168388
798.966	0.0167834
799.044	0.0168728
799.122	0.0167567
799.200	0.0167453
799.279	0.0167525
799.357	0.0168443
799.435	0.0168324
799.513	0.0169115
799.591	0.0169115
799.669	0.0169189
799.747	0.0169379
799.825	0.0168827
799.904	0.0169242
799.982	0.0168909
800.060	0.0168753
800.138	0.0171368
800.216	0.0169578
800.294	0.0167206
800.372	0.0168845
800.450	0.0168575
800.529	0.0168867
800.607	0.0168681
800.685	0.0169300
800.763	0.0169916
800.841	0.0170502
800.919	0.0169253
800.997	0.0168904
801.075	0.0169923
801.154	0.0170175
801.232	0.0170303
801.310	0.0168472
801.388	0.0169408
801.466	0.0169312
801.544	0.0169761
801.622	0.0170872
801.700	0.0170749
801.779	0.0170013
801.857	0.0172371
801.935	0.0170697
802.013	0.0171498
802.091	0.0169547
802.169	0.0168818
802.247	0.0168138
802.325	0.0169829
802.404	0.0170026
802.482	0.0168423
802.560	0.0167515
802.638	0.0168497
802.716	0.0167024
802.794	0.0168269
802.872	0.0167213
802.950	0.0167684
803.029	0.0167376
803.107	0.0165451
803.185	0.0168184
803.263	0.0166409
803.341	0.0166878
803.419	0.0166724
803.497	0.0166520
803.575	0.0166782
803.654	0.0165363
803.732	0.0166090
803.810	0.0165965
803.888	0.0164729
803.966	0.0164298
804.044	0.0166255
804.122	0.0166100
804.200	0.0165544
804.279	0.0164925
804.357	0.0166147
804.435	0.0166371
804.513	0.0165948
804.591	0.0164849
804.669	0.0166520
804.747	0.0165629
804.825	0.0165778
804.904	0.0166013
804.982	0.0166649
805.060	0.0164414
805.138	0.0163086
805.216	0.0164548
805.294	0.0165351
805.372	0.0165087
805.450	0.0164520
805.529	0.0162848
805.607	0.0163889
805.685	0.0164355
805.763	0.0165820
805.841	0.0165513
805.919	0.0165599
805.997	0.0167490
806.075	0.0167253
806.154	0.0166997
806.232	0.0167245
806.310	0.0168044
806.388	0.0168917
806.466	0.0168353
806.544	0.0169473
806.622	0.0171082
806.700	0.0169150
806.779	0.0168325
806.857	0.0169559
806.935	0.0169060
807.013	0.0170911
807.091	0.0169109
807.169	0.0168166
807.247	0.0168137
807.325	0.0169010
807.404	0.0168450
807.482	0.0169517
807.560	0.0167915
807.638	0.0169530
807.716	0.0168421
807.794	0.0169498
807.872	0.0170020
807.950	0.0166774
808.029	0.0169584
808.107	0.0169343
808.185	0.0169855
808.263	0.0169128
808.341	0.0170057
808.419	0.0171219
808.497	0.0170398
808.575	0.0171526
808.654	0.0171542
808.732	0.0170927
808.810	0.0172079
808.888	0.0171519
808.966	0.0171866
809.044	0.0173109
809.122	0.0172261
809.200	0.0172298
809.279	0.0170960
809.357	0.0171182
809.435	0.0170751
809.513	0.0171173
809.591	0.0169906
809.669	0.0170055
809.747	0.0169447
809.825	0.0168713
809.904	0.0169356
809.982	0.0168639
810.060	0.0167191
810.138	0.0165881
810.216	0.0167097
810.294	0.0165154
810.372	0.0166129
810.450	0.0166007
810.529	0.0165398
810.607	0.0166574
810.685	0.0164696
810.763	0.0163915
810.841	0.0164937
810.919	0.0164757
810.997	0.0164154
811.075	0.0163965
811.154	0.0164194
811.232	0.0164973
811.310	0.0163326
811.388	0.0165544
811.466	0.0165381
811.544	0.0165527
811.622	0.0165803
811.700	0.0166254
811.779	0.0165044
811.857	0.0165811
811.935	0.0165788
812.013	0.0165966
812.091	0.0166351
812.169	0.0164945
812.247	0.0166559
812.325	0.0165373
812.404	0.0166808
812.482	0.0166843
812.560	0.0166462
812.638	0.0165398
812.716	0.0167394
812.794	0.0167875
812.872	0.0167345
812.950	0.0166422
813.029	0.0168237
813.107	0.0166501
813.185	0.0168681
813.263	0.0167980
813.341	0.0167470
813.419	0.0169556
813.497	0.0169123
813.575	0.0169735
813.654	0.0168502
813.732	0.0170846
813.810	0.0170092
813.888	0.0170419
813.966	0.0168558
814.044	0.0168021
814.122	0.0168172
814.200	0.0168918
814.279	0.0169417
814.357	0.0168449
814.435	0.0168079
814.513	0.0166939
814.591	0.0167693
814.669	0.0167909
814.747	0.0167310
814.825	0.0166546
814.904	0.0164791
814.982	0.0166681
815.060	0.0168469
815.138	0.0167418
815.216	0.0167078
815.294	0.0167548
815.372	0.0166830
815.450	0.0167168
815.529	0.0167801
815.607	0.0168642
815.685	0.0167776
815.763	0.0169974
815.841	0.0169230
815.919	0.0168080
815.997	0.0168972
816.075	0.0169453
816.154	0.0170013
816.232	0.0169378
816.310	0.0170025
816.388	0.0170573
816.466	0.0171928
816.544	0.0171566
816.622	0.0169588
816.700	0.0171210
816.779	0.0170118
816.857	0.0171209
816.935	0.0170444
817.013	0.0171043
817.091	0.0170409
817.169	0.0170238
817.247	0.0170893
817.325	0.0169660
817.404	0.0168903
817.482	0.0169703
817.560	0.0169788
817.638	0.0168684
817.716	0.0168453
817.794	0.0168761
817.872	0.0168420
817.950	0.0167965
818.029	0.0167648
818.107	0.0167081
818.185	0.0165826
818.263	0.0167709
818.341	0.0167558
818.419	0.0165382
818.497	0.0167278
818.575	0.0166145
818.654	0.0166598
818.732	0.0166208
818.810	0.0166302
818.888	0.0165938
818.966	0.0165104
819.044	0.0164757
819.122	0.0165359
819.200	0.0164162
819.279	0.0164720
819.357	0.0163946
819.435	0.0164223
819.513	0.0163316
819.591	0.0164282
819.669	0.0162556
819.747	0.0165048
819.825	0.0164561
819.904	0.0166249
819.982	0.0165961
820.060	0.0165451
820.138	0.0168439
820.216	0.0166232
820.294	0.0166818
820.372	0.0168642
820.450	0.0167104
820.529	0.0168940
820.607	0.0168948
820.685	0.0168217
820.763	0.0169608
820.841	0.0171000
820.919	0.0169836
820.997	0.0169682
821.075	0.0170453
821.154	0.0170827
821.232	0.0169804
821.310	0.0170441
821.388	0.0169820
821.466	0.0170353
821.544	0.0171121
821.622	0.0169612
821.700	0.0169499
821.779	0.0169716
821.857	0.0169653
821.935	0.0169877
822.013	0.0166716
822.091	0.0168713
822.169	0.0167907
822.247	0.0166969
822.325	0.0166438
822.404	0.0167335
822.482	0.0167319
822.560	0.0167126
822.638	0.0165445
822.716	0.0166274
822.794	0.0167332
822.872	0.0167505
822.950	0.0166245
823.029	0.0165841
823.107	0.0167999
823.185	0.0167980
823.263	0.0167293
823.341	0.0166425
823.419	0.0167742
823.497	0.0167815
823.575	0.0169606
823.654	0.0167684
823.732	0.0167094
823.810	0.0168910
823.888	0.0167989
823.966	0.0168516
824.044	0.0169562
824.122	0.0170006
824.200	0.0169791
824.279	0.0170329
824.357	0.0170483
824.435	0.0169997
824.513	0.0169859
824.591	0.0170361
824.669	0.0170526
824.747	0.0170407
824.825	0.0170790
824.904	0.0169591
824.982	0.0171965
825.060	0.0169346
825.138	0.0169804
825.216	0.0169175
825.294	0.0169080
825.372	0.0169792
825.450	0.0167825
825.529	0.0169110
825.607	0.0170281
825.685	0.0168101
825.763	0.0168524
825.841	0.0169334
825.919	0.0167056
825.997	0.0168843
826.075	0.0167417
826.154	0.0166296
826.232	0.0167048
826.310	0.0166930
826.388	0.0166488
826.466	0.0167155
826.544	0.0165324
826.622	0.0165807
826.700	0.0167771
826.779	0.0167728
826.857	0.0167885
826.935	0.0166839
827.013	0.0167094
827.091	0.0167315
827.169	0.0167048
827.247	0.0167183
827.325	0.0166997
827.404	0.0167754
827.482	0.0165739
827.560	0.0165682
827.638	0.0166097
827.716	0.0166243
827.794	0.0166131
827.872	0.0164088
827.950	0.0166502
828.029	0.0166213
828.107	0.0165829
828.185	0.0165199
828.263	0.0165509
828.341	0.0164925
828.419	0.0165054
828.497	0.0166544
828.575	0.0165970
828.654	0.0165350
828.732	0.0165406
828.810	0.0166685
828.888	0.0167432
828.966	0.0166038
829.044	0.0167249
829.122	0.0166268
829.200	0.0168415
829.279	0.0167408
829.357	0.0166997
829.435	0.0168498
829.513	0.0169006
829.591	0.0168645
829.669	0.0169080
829.747	0.0168519
829.825	0.0169711
829.904	0.0169699
829.982	0.0169588
830.060	0.0169543
830.138	0.0169749
830.216	0.0167709
830.294	0.0169719
830.372	0.0170072
830.450	0.0169337
830.529	0.0170081
830.607	0.0169792
830.685	0.0168884
830.763	0.0169866
830.841	0.0169579
830.919	0.0168630
830.997	0.0167908
831.075	0.0168745
831.154	0.0168430
831.232	0.0167643
831.310	0.0166533
831.388	0.0168404
831.466	0.0166779
831.544	0.0167587
831.622	0.0168269
831.700	0.0168159
831.779	0.0168874
831.857	0.0168502
831.935	0.0170740
832.013	0.0170456
832.091	0.0170350
832.169	0.0169482
832.247	0.0169485
832.325	0.0170146
832.404	0.0170547
832.482	0.0169541
832.560	0.0168919
832.638	0.0168519
832.716	0.0168884
832.794	0.0168798
832.872	0.0168168
832.950	0.0167809
833.029	0.0166969
833.107	0.0166313
833.185	0.0166364
833.263	0.0167845
833.341	0.0167943
833.419	0.0167915
833.497	0.0166487
833.575	0.0165135
833.654	0.0166765
833.732	0.0165301
833.810	0.0165345
833.888	0.0164980
833.966	0.0164980
834.044	0.0163867
834.122	0.0164458
834.200	0.0162919
834.279	0.0164122
834.357	0.0163801
834.435	0.0164417
834.513	0.0165331
834.591	0.0165179
834.669	0.0165553
834.747	0.0165623
834.825	0.0167661
834.904	0.0168534
834.982	0.0169194
835.060	0.0169225
835.138	0.0172321
835.216	0.0169098
835.294	0.0169722
835.372	0.0169920
835.450	0.0170470
835.529	0.0169954
835.607	0.0169257
835.685	0.0169561
835.763	0.0170000
835.841	0.0169073
835.919	0.0168733
835.997	0.0168468
836.075	0.0167841
836.154	0.0168325
836.232	0.0167883
836.310	0.0167892
836.388	0.0166550
836.466	0.0166564
836.544	0.0167079
836.622	0.0165445
836.700	0.0166631
836.779	0.0166208
836.857	0.0166058
836.935	0.0166520
837.013	0.0165157
837.091	0.0166626
837.169	0.0165757
837.247	0.0166803
837.325	0.0166951
837.404	0.0167113
837.482	0.0169383
837.560	0.0168464
837.638	0.0167133
837.716	0.0168158
837.794	0.0169387
837.872	0.0167791
837.950	0.0169189
838.029	0.0169042
838.107	0.0169504
838.185	0.0169869
838.263	0.0168466
838.341	0.0166454
838.419	0.0166548
838.497	0.0165810
838.575	0.0165700
838.654	0.0163800
838.732	0.0164626
838.810	0.0164697
838.888	0.0164874
838.966	0.0163052
839.044	0.0163619
839.122	0.0166135
839.200	0.0166209
839.279	0.0165102
839.357	0.0166619
839.435	0.0167719
839.513	0.0168653
839.591	0.0169238
839.669	0.0169481
839.747	0.0170592
839.825	0.0170717
839.904	0.0170498
839.982	0.0172565
840.060	0.0172009
840.138	0.0171586
840.216	0.0171535
840.294	0.0172873
840.372	0.0173796
840.450	0.0172259
840.529	0.0171767
840.607	0.0169973
840.685	0.0170255
840.763	0.0170112
840.841	0.0170185
840.919	0.0170961
840.997	0.0170054
841.075	0.0169618
841.154	0.0169296
841.232	0.0168887
841.310	0.0168122
841.388	0.0168966
841.466	0.0166798
841.544	0.0167818
841.622	0.0167029
841.700	0.0166180
841.779	0.0165523
841.857	0.0165743
841.935	0.0165921
842.013	0.0164590
842.091	0.0165856
842.169	0.0166537
842.247	0.0164859
842.325	0.0165238
842.404	0.0165633
842.482	0.0166457
842.560	0.0167204
842.638	0.0165660
842.716	0.0166378
842.794	0.0166919
842.872	0.0165146
842.950	0.0164779
843.029	0.0166006
843.107	0.0167355
843.185	0.0165444
843.263	0.0165567
843.341	0.0164747
843.419	0.0163438
843.497	0.0163574
843.575	0.0163369
843.654	0.0162533
843.732	0.0162083
843.810	0.0162116
843.888	0.0163022
843.966	0.0162614
844.044	0.0163834
844.122	0.0162302
844.200	0.0164808
844.279	0.0166159
844.357	0.0165696
844.435	0.0166821
844.513	0.0169616
844.591	0.0169633
844.669	0.0169185
844.747	0.0170381
844.825	0.0171947
844.904	0.0172334
844.982	0.0172517
845.060	0.0172680
845.138	0.0172540
845.216	0.0175188
845.294	0.0174344
845.372	0.0173526
845.450	0.0173271
845.529	0.0172471
845.607	0.0172993
845.685	0.0172980
845.763	0.0171964
845.841	0.0170744
845.919	0.0172498
845.997	0.0172751
846.075	0.0170137
846.154	0.0170717
846.232	0.0170129
846.310	0.0168906
846.388	0.0169648
846.466	0.0167776
846.544	0.0167531
846.622	0.0166442
846.700	0.0166209
846.779	0.0165302
846.857	0.0165472
846.935	0.0163032
847.013	0.0163317
847.091	0.0163405
847.169	0.0163554
847.247	0.0163589
847.325	0.0163577
847.404	0.0163922
847.482	0.0163763
847.560	0.0164586
847.638	0.0165900
847.716	0.0166765
847.794	0.0165093
847.872	0.0167070
847.950	0.0167867
848.029	0.0168925
848.107	0.0168696
848.185	0.0168668
848.263	0.0168821
848.341	0.0169273
848.419	0.0169869
848.497	0.0169806
848.575	0.0169497
848.654	0.0169300
848.732	0.0168181
848.810	0.0170216
848.888	0.0168215
848.966	0.0169434
849.044	0.0169536
849.122	0.0169357
849.200	0.0170409
849.279	0.0168534
849.357	0.0168431
849.435	0.0167973
849.513	0.0167352
849.591	0.0166425
849.669	0.0168320
849.747	0.0166283
849.825	0.0166547
849.904	0.0166875
849.982	0.0164884
850.060	0.0166461
850.138	0.0167311
850.216	0.0166766
850.294	0.0166673
850.372	0.0167244
850.450	0.0167300
850.529	0.0166126
850.607	0.0167081
850.685	0.0165909
850.763	0.0166261
850.841	0.0168057
850.919	0.0167184
850.997	0.0166420
851.075	0.0168226
851.154	0.0168816
851.232	0.0167645
851.310	0.0166942
851.388	0.0167148
851.466	0.0166638
851.544	0.0166911
851.622	0.0166405
851.700	0.0165333
851.779	0.0166827
851.857	0.0166940
851.935	0.0165687
852.013	0.0165971
852.091	0.0168290
852.169	0.0164754
852.247	0.0167094
852.325	0.0166528
852.404	0.0166209
852.482	0.0167545
852.560	0.0166638
852.638	0.0169357
852.716	0.0169964
852.794	0.0168359
852.872	0.0169762
852.950	0.0170260
853.029	0.0170080
853.107	0.0171986
853.185	0.0173431
853.263	0.0172327
853.341	0.0173686
853.419	0.0172399
853.497	0.0173174
853.575	0.0173661
853.654	0.0173240
853.732	0.0173328
853.810	0.0173200
853.888	0.0171725
853.966	0.0171532
854.044	0.0170708
854.122	0.0169213
854.200	0.0169370
854.279	0.0168201
854.357	0.0168143
854.435	0.0167695
854.513	0.0167686
854.591	0.0166863
854.669	0.0165195
854.747	0.0165165
854.825	0.0164897
854.904	0.0164056
854.982	0.0164899
855.060	0.0165246
855.138	0.0165238
855.216	0.0165320
855.294	0.0164527
855.372	0.0165741
855.450	0.0165350
855.529	0.0167625
855.607	0.0166098
855.685	0.0167542
855.763	0.0170036
855.841	0.0168683
855.919	0.0170318
855.997	0.0169347
856.075	0.0169833
856.154	0.0169189
856.232	0.0168363
856.310	0.0169234
856.388	0.0169884
856.466	0.0167544
856.544	0.0168748
856.622	0.0169409
856.700	0.0167777
856.779	0.0168612
856.857	0.0168520
856.935	0.0167776
857.013	0.0168407
857.091	0.0169005
857.169	0.0167814
857.247	0.0167768
857.325	0.0167852
857.404	0.0166653
857.482	0.0167519
857.560	0.0167476
857.638	0.0166899
857.716	0.0166785
857.794	0.0167954
857.872	0.0167840
857.950	0.0166354
858.029	0.0167388
858.107	0.0167570
858.185	0.0167947
858.263	0.0168113
858.341	0.0168374
858.419	0.0168610
858.497	0.0167809
858.575	0.0168848
858.654	0.0169128
858.732	0.0167886
858.810	0.0165917
858.888	0.0167749
858.966	0.0168144
859.044	0.0165859
859.122	0.0166336
859.200	0.0166557
859.279	0.0165868
859.357	0.0166605
859.435	0.0165664
859.513	0.0167131
859.591	0.0165658
859.669	0.0164497
859.747	0.0167014
859.825	0.0167435
859.904	0.0168217
859.982	0.0168524
860.060	0.0169299
860.138	0.0168341
860.216	0.0168962
860.294	0.0168648
860.372	0.0167440
860.450	0.0168436
860.529	0.0168058
860.607	0.0168740
860.685	0.0167953
860.763	0.0167556
860.841	0.0166862
860.919	0.0167567
860.997	0.0166950
861.075	0.0166168
861.154	0.0168032
861.232	0.0166664
861.310	0.0166370
861.388	0.0168737
861.466	0.0168444
861.544	0.0166788
861.622	0.0166719
861.700	0.0168769
861.779	0.0167840
861.857	0.0167542
861.935	0.0168430
862.013	0.0168153
862.091	0.0167992
862.169	0.0169340
862.247	0.0169019
862.325	0.0168190
862.404	0.0168860
862.482	0.0169219
862.560	0.0168395
862.638	0.0169447
862.716	0.0169498
862.794	0.0170081
862.872	0.0169553
862.950	0.0169791
863.029	0.0169814
863.107	0.0169653
863.185	0.0168005
863.263	0.0169042
863.341	0.0168528
863.419	0.0167899
863.497	0.0165902
863.575	0.0166149
863.654	0.0166523
863.732	0.0166521
863.810	0.0166173
863.888	0.0166990
863.966	0.0165372
864.044	0.0165360
864.122	0.0165408
864.200	0.0166750
864.279	0.0167175
864.357	0.0165592
864.435	0.0166483
864.513	0.0167442
864.591	0.0167745
864.669	0.0167235
864.747	0.0165884
864.825	0.0166251
864.904	0.0165242
864.982	0.0166074
865.060	0.0166768
865.138	0.0165799
865.216	0.0166394
865.294	0.0166258
865.372	0.0166737
865.450	0.0167128
865.529	0.0165898
865.607	0.0166525
865.685	0.0167216
865.763	0.0166574
865.841	0.0167946
865.919	0.0167103
865.997	0.0168256
866.075	0.0168242
866.154	0.0167670
866.232	0.0167619
866.310	0.0167232
866.388	0.0168930
866.466	0.0168563
866.544	0.0168211
866.622	0.0167178
866.700	0.0167778
866.779	0.0166367
866.857	0.0168016
866.935	0.0166880
867.013	0.0166942
867.091	0.0166513
867.169	0.0166640
867.247	0.0166675
867.325	0.0167661
867.404	0.0167371
867.482	0.0167264
867.560	0.0167997
867.638	0.0168184
867.716	0.0167454
867.794	0.0168691
867.872	0.0169362
867.950	0.0168291
868.029	0.0169614
868.107	0.0169448
868.185	0.0167372
868.263	0.0168597
868.341	0.0169829
868.419	0.0167254
868.497	0.0167514
868.575	0.0169800
868.654	0.0169238
868.732	0.0166843
868.810	0.0168723
868.888	0.0167480
868.966	0.0166910
869.044	0.0169111
869.122	0.0167553
869.200	0.0167463
869.279	0.0166695
869.357	0.0168408
869.435	0.0168751
869.513	0.0167807
869.591	0.0167390
869.669	0.0168704
869.747	0.0168519
869.825	0.0167355
869.904	0.0167572
869.982	0.0167231
870.060	0.0167606
870.138	0.0168389
870.216	0.0167213
870.294	0.0167995
870.372	0.0168509
870.450	0.0168997
870.529	0.0168861
870.607	0.0167989
870.685	0.0168710
870.763	0.0170869
870.841	0.0170776
870.919	0.0169695
870.997	0.0169744
871.075	0.0169209
871.154	0.0170804
871.232	0.0170618
871.310	0.0168356
871.388	0.0169677
871.466	0.0167984
871.544	0.0167910
871.622	0.0167397
871.700	0.0167617
871.779	0.0167186
871.857	0.0168117
871.935	0.0167460
872.013	0.0166510
872.091	0.0165424
872.169	0.0165597
872.247	0.0166044
872.325	0.0165515
872.404	0.0164211
872.482	0.0164746
872.560	0.0164757
872.638	0.0165113
872.716	0.0165129
872.794	0.0165461
872.872	0.0164484
872.950	0.0164156
873.029	0.0166288
873.107	0.0165151
873.185	0.0166124
873.263	0.0163992
873.341	0.0165759
873.419	0.0166324
873.497	0.0165757
873.575	0.0166677
873.654	0.0167900
873.732	0.0167090
873.810	0.0168171
873.888	0.0168595
873.966	0.0168256
874.044	0.0168928
874.122	0.0168522
874.200	0.0169534
874.279	0.0168980
874.357	0.0169453
874.435	0.0171240
874.513	0.0170827
874.591	0.0169569
874.669	0.0169643
874.747	0.0170992
874.825	0.0169243
874.904	0.0169107
874.982	0.0169977
875.060	0.0171013
875.138	0.0169659
875.216	0.0169081
875.294	0.0168355
875.372	0.0169868
875.450	0.0169862
875.529	0.0168695
875.607	0.0169102
875.685	0.0168890
875.763	0.0168098
875.841	0.0168021
875.919	0.0168312
875.997	0.0168517
876.075	0.0169118
876.154	0.0169096
876.232	0.0168118
876.310	0.0168108
876.388	0.0168108
876.466	0.0169616
876.544	0.0168348
876.622	0.0168197
876.700	0.0167892
876.779	0.0168165
876.857	0.0167828
876.935	0.0167929
877.013	0.0168024
877.091	0.0168037
877.169	0.0168005
877.247	0.0166614
877.325	0.0165666
877.404	0.0167836
877.482	0.0168210
877.560	0.0167683
877.638	0.0167849
877.716	0.0167145
877.794	0.0166656
877.872	0.0167546
877.950	0.0168343
878.029	0.0168535
878.107	0.0166908
878.185	0.0167462
878.263	0.0166378
878.341	0.0166832
878.419	0.0167822
878.497	0.0168566
878.575	0.0166986
878.654	0.0168637
878.732	0.0167455
878.810	0.0168211
878.888	0.0170432
878.966	0.0169712
879.044	0.0169351
879.122	0.0169691
879.200	0.0169788
879.279	0.0170578
879.357	0.0168419
879.435	0.0169814
879.513	0.0169839
879.591	0.0169186
879.669	0.0169259
879.747	0.0168527
879.825	0.0168951
879.904	0.0169480
879.982	0.0167478
880.060	0.0168320
880.138	0.0166772
880.216	0.0167430
880.294	0.0166164
880.372	0.0165166
880.450	0.0165108
880.529	0.0166584
880.607	0.0163752
880.685	0.0164133
880.763	0.0164112
880.841	0.0164557
880.919	0.0165370
880.997	0.0163914
881.075	0.0165623
881.154	0.0165753
881.232	0.0166859
881.310	0.0165709
881.388	0.0165450
881.466	0.0166219
881.544	0.0166243
881.622	0.0166319
881.700	0.0167197
881.779	0.0167949
881.857	0.0168548
881.935	0.0168246
882.013	0.0167179
882.091	0.0168193
882.169	0.0169971
882.247	0.0170986
882.325	0.0169741
882.404	0.0170853
882.482	0.0171072
882.560	0.0169894
882.638	0.0171817
882.716	0.0169874
882.794	0.0171928
882.872	0.0171758
882.950	0.0170810
883.029	0.0171666
883.107	0.0170660
883.185	0.0169884
883.263	0.0170769
883.341	0.0171498
883.419	0.0170438
883.497	0.0170071
883.575	0.0170043
883.654	0.0170554
883.732	0.0170372
883.810	0.0169201
883.888	0.0169527
883.966	0.0169842
884.044	0.0170635
884.122	0.0168540
884.200	0.0168864
884.279	0.0168555
884.357	0.0169051
884.435	0.0169247
884.513	0.0168090
884.591	0.0167745
884.669	0.0169279
884.747	0.0167271
884.825	0.0170021
884.904	0.0169113
884.982	0.0167513
885.060	0.0167458
885.138	0.0168171
885.216	0.0168459
885.294	0.0167917
885.372	0.0167141
885.450	0.0166310
885.529	0.0166751
885.607	0.0167319
885.685	0.0167600
885.763	0.0166313
885.841	0.0165894
885.919	0.0167202
885.997	0.0165892
886.075	0.0166124
886.154	0.0167529
886.232	0.0166737
886.310	0.0165492
886.388	0.0167067
886.466	0.0167295
886.544	0.0166676
886.622	0.0166241
886.700	0.0167601
886.779	0.0165783
886.857	0.0165839
886.935	0.0164705
887.013	0.0167090
887.091	0.0166944
887.169	0.0165848
887.247	0.0166027
887.325	0.0166893
887.404	0.0166911
887.482	0.0166715
887.560	0.0166951
887.638	0.0165994
887.716	0.0166107
887.794	0.0166068
887.872	0.0166586
887.950	0.0166644
888.029	0.0167660
888.107	0.0168088
888.185	0.0166298
888.263	0.0168000
888.341	0.0168692
888.419	0.0167516
888.497	0.0166621
888.575	0.0167384
888.654	0.0168470
888.732	0.0167895
888.810	0.0168601
888.888	0.0168669
888.966	0.0167377
889.044	0.0167761
889.122	0.0167499
889.200	0.0168925
889.279	0.0169028
889.357	0.0168679
889.435	0.0169547
889.513	0.0169482
889.591	0.0169716
889.669	0.0170646
889.747	0.0169889
889.825	0.0168915
889.904	0.0169201
889.982	0.0169849
890.060	0.0169663
890.138	0.0170293
890.216	0.0168648
890.294	0.0168288
890.372	0.0170168
890.450	0.0169388
890.529	0.0169367
890.607	0.0169239
890.685	0.0169343
890.763	0.0167710
890.841	0.0168118
890.919	0.0168966
890.997	0.0169365
891.075	0.0168046
891.154	0.0168339
891.232	0.0167820
891.310	0.0167236
891.388	0.0167830
891.466	0.0166962
891.544	0.0167532
891.622	0.0167191
891.700	0.0166349
891.779	0.0165924
891.857	0.0166164
891.935	0.0166071
892.013	0.0166509
892.091	0.0167102
892.169	0.0165954
892.247	0.0166010
892.325	0.0165959
892.404	0.0165240
892.482	0.0165535
892.560	0.0166659
892.638	0.0166401
892.716	0.0166026
892.794	0.0166633
892.872	0.0167722
892.950	0.0167129
893.029	0.0167028
893.107	0.0166495
893.185	0.0167252
893.263	0.0167709
893.341	0.0168385
893.419	0.0167263
893.497	0.0167756
893.575	0.0169447
893.654	0.0168306
893.732	0.0168372
893.810	0.0168789
893.888	0.0168008
893.966	0.0168275
894.044	0.0168935
894.122	0.0166930
894.200	0.0168349
894.279	0.0167737
894.357	0.0167450
894.435	0.0167960
894.513	0.0166838
894.591	0.0166914
894.669	0.0166611
894.747	0.0167023
894.825	0.0166534
894.904	0.0165901
894.982	0.0165992
895.060	0.0165360
895.138	0.0164447
895.216	0.0166370
895.294	0.0165635
895.372	0.0167670
895.450	0.0166961
895.529	0.0166688
895.607	0.0167504
895.685	0.0166929
895.763	0.0166470
895.841	0.0168493
895.919	0.0167645
895.997	0.0167490
896.075	0.0166863
896.154	0.0167133
896.232	0.0167078
896.310	0.0167494
896.388	0.0166103
896.466	0.0168079
896.544	0.0167076
896.622	0.0167842
896.700	0.0168508
896.779	0.0168372
896.857	0.0168971
896.935	0.0168989
897.013	0.0169162
897.091	0.0167965
897.169	0.0169154
897.247	0.0170183
897.325	0.0167540
897.404	0.0168430
897.482	0.0170485
897.560	0.0168950
897.638	0.0168614
897.716	0.0169148
897.794	0.0169440
897.872	0.0168392
897.950	0.0168154
898.029	0.0169347
898.107	0.0168817
898.185	0.0167604
898.263	0.0168858
898.341	0.0167481
898.419	0.0167545
898.497	0.0167584
898.575	0.0168388
898.654	0.0167718
898.732	0.0166660
898.810	0.0168173
898.888	0.0167127
898.966	0.0167247
899.044	0.0166905
899.122	0.0167448
899.200	0.0167641
899.279	0.0167735
899.357	0.0167941
899.435	0.0168520
899.513	0.0169222
899.591	0.0168828
899.669	0.0166206
899.747	0.0167860
899.825	0.0168815
899.904	0.0169757
899.982	0.0168603
900.060	0.0169535
900.138	0.0169585
900.216	0.0168247
900.294	0.0167751
900.372	0.0167622
900.450	0.0169690
900.529	0.0167462
900.607	0.0167397
900.685	0.0167518
900.763	0.0166528
900.841	0.0168459
900.919	0.0168550
900.997	0.0168951
901.075	0.0169066
901.154	0.0166809
901.232	0.0167622
901.310	0.0168085
901.388	0.0166995
901.466	0.0166333
901.544	0.0168399
901.622	0.0166962
901.700	0.0166389
901.779	0.0166360
901.857	0.0165884
901.935	0.0165143
902.013	0.0164780
902.091	0.0164881
902.169	0.0165407
902.247	0.0165118
902.325	0.0165623
902.404	0.0164469
902.482	0.0165195
902.560	0.0167080
902.638	0.0164513
902.716	0.0165898
902.794	0.0165855
902.872	0.0166817
902.950	0.0167044
903.029	0.0166138
903.107	0.0166492
903.185	0.0166552
903.263	0.0166019
903.341	0.0167844
903.419	0.0167344
903.497	0.0165900
903.575	0.0166033
903.654	0.0167648
903.732	0.0167078
903.810	0.0168039
903.888	0.0169215
903.966	0.0168805
904.044	0.0169027
904.122	0.0169698
904.200	0.0171255
904.279	0.0171845
904.357	0.0170865
904.435	0.0171696
904.513	0.0170929
904.591	0.0171752
904.669	0.0172082
904.747	0.0172379
904.825	0.0170775
904.904	0.0170204
904.982	0.0172011
905.060	0.0170911
905.138	0.0168813
905.216	0.0168659
905.294	0.0168883
905.372	0.0168190
905.450	0.0168086
905.529	0.0168935
905.607	0.0167213
905.685	0.0168501
905.763	0.0168336
905.841	0.0167295
905.919	0.0168157
905.997	0.0168048
906.075	0.0168230
906.154	0.0167846
906.232	0.0166990
906.310	0.0166583
906.388	0.0167133
906.466	0.0166528
906.544	0.0166358
906.622	0.0167805
906.700	0.0167003
906.779	0.0168261
906.857	0.0167611
906.935	0.0166151
907.013	0.0167396
907.091	0.0167861
907.169	0.0167207
907.247	0.0167884
907.325	0.0168212
907.404	0.0167580
907.482	0.0167879
907.560	0.0167555
907.638	0.0166940
907.716	0.0165794
907.794	0.0167035
907.872	0.0167692
907.950	0.0164922
908.029	0.0167017
908.107	0.0166436
908.185	0.0165409
908.263	0.0166584
908.341	0.0165877
908.419	0.0165925
908.497	0.0166296
908.575	0.0166232
908.654	0.0166963
908.732	0.0168288
908.810	0.0167161
908.888	0.0167934
908.966	0.0166517
909.044	0.0167805
909.122	0.0166866
909.200	0.0166122
909.279	0.0167327
909.357	0.0167171
909.435	0.0166762
909.513	0.0166706
909.591	0.0167159
909.669	0.0166808
909.747	0.0166284
909.825	0.0167161
909.904	0.0168414
909.982	0.0166783
910.060	0.0168398
910.138	0.0169324
910.216	0.0168008
910.294	0.0167873
910.372	0.0168128
910.450	0.0168596
910.529	0.0168201
910.607	0.0168700
910.685	0.0167995
910.763	0.0166807
910.841	0.0168491
910.919	0.0167408
910.997	0.0168215
911.075	0.0168317
911.154	0.0168124
911.232	0.0167519
911.310	0.0167707
911.388	0.0167524
911.466	0.0168063
911.544	0.0168219
911.622	0.0167917
911.700	0.0167262
911.779	0.0169067
911.857	0.0168850
911.935	0.0168404
912.013	0.0167505
912.091	0.0168277
912.169	0.0167572
912.247	0.0167163
912.325	0.0166949
912.404	0.0166947
912.482	0.0166557
912.560	0.0166894
912.638	0.0166137
912.716	0.0167017
912.794	0.0166962
912.872	0.0167088
912.950	0.0167363
913.029	0.0167693
913.107	0.0166854
913.185	0.0167008
913.263	0.0168114
913.341	0.0166875
913.419	0.0166116
913.497	0.0167995
913.575	0.0166800
913.654	0.0167542
913.732	0.0166912
913.810	0.0167065
913.888	0.0166202
913.966	0.0165813
914.044	0.0165392
914.122	0.0166094
914.200	0.0167282
914.279	0.0165519
914.357	0.0167936
914.435	0.0166543
914.513	0.0168133
914.591	0.0166711
914.669	0.0167684
914.747	0.0167865
914.825	0.0167437
914.904	0.0167413
914.982	0.0168124
915.060	0.0170329
915.138	0.0170284
915.216	0.0168293
915.294	0.0169182
915.372	0.0169467
915.450	0.0169945
915.529	0.0168557
915.607	0.0170370
915.685	0.0168752
915.763	0.0168909
915.841	0.0167924
915.919	0.0168668
915.997	0.0168567
916.075	0.0167558
916.154	0.0168428
916.232	0.0167564
916.310	0.0167606
916.388	0.0167068
916.466	0.0165742
916.544	0.0165338
916.622	0.0166117
916.700	0.0165903
916.779	0.0167414
916.857	0.0166300
916.935	0.0164938
917.013	0.0166137
917.091	0.0165472
917.169	0.0165839
917.247	0.0165884
917.325	0.0167323
917.404	0.0167500
917.482	0.0167779
917.560	0.0166968
917.638	0.0166539
917.716	0.0167788
917.794	0.0166474
917.872	0.0166739
917.950	0.0167593
918.029	0.0167723
918.107	0.0167075
918.185	0.0166232
918.263	0.0168204
918.341	0.0166367
918.419	0.0166214
918.497	0.0167731
918.575	0.0167567
918.654	0.0167742
918.732	0.0168284
918.810	0.0168857
918.888	0.0168713
918.966	0.0167872
919.044	0.0167301
919.122	0.0167421
919.200	0.0167833
919.279	0.0166975
919.357	0.0169228
919.435	0.0168572
919.513	0.0167677
919.591	0.0167184
919.669	0.0166808
919.747	0.0167629
919.825	0.0167720
919.904	0.0168113
