06/01/2022	17:13:38	Ver.	4.1	UNKNOWN
Optical Delay	599.981738	Delta X		0.078125	Sweeps	1	Scan Rate	0/0
Coordinates	Axis 1	NaN	Axis 2	NaN	Axis 3	NaN	Axis 4	NaN	Axis 5	NaN	Axis 6	0.000000
TX Power	0.000000	RX Power	0.000000

599.982	0.0167212
600.060	0.0167583
600.138	0.0167635
600.216	0.0166799
600.294	0.0167365
600.372	0.0167159
600.450	0.0166563
600.529	0.0166951
600.607	0.0167731
600.685	0.0166500
600.763	0.0166297
600.841	0.0167207
600.919	0.0168180
600.997	0.0166069
601.075	0.0167643
601.154	0.0167177
601.232	0.0167103
601.310	0.0167010
601.388	0.0165654
601.466	0.0166582
601.544	0.0167658
601.622	0.0167154
601.700	0.0167073
601.779	0.0166814
601.857	0.0168266
601.935	0.0167329
602.013	0.0167081
602.091	0.0168060
602.169	0.0167403
602.247	0.0165923
602.325	0.0165804
602.404	0.0166516
602.482	0.0167116
602.560	0.0165594
602.638	0.0168364
602.716	0.0167165
602.794	0.0167484
602.872	0.0166821
602.950	0.0166580
603.029	0.0166917
603.107	0.0167259
603.185	0.0167369
603.263	0.0167356
603.341	0.0166139
603.419	0.0165666
603.497	0.0167107
603.575	0.0167963
603.654	0.0167103
603.732	0.0166312
603.810	0.0167530
603.888	0.0168339
603.966	0.0166824
604.044	0.0167664
604.122	0.0167985
604.200	0.0167894
604.279	0.0167503
604.357	0.0167813
604.435	0.0168478
604.513	0.0165866
604.591	0.0167482
604.669	0.0166682
604.747	0.0166874
604.825	0.0167307
604.904	0.0167320
604.982	0.0167021
605.060	0.0166035
605.138	0.0168234
605.216	0.0166590
605.294	0.0165993
605.372	0.0167100
605.450	0.0166643
605.529	0.0166646
605.607	0.0166962
605.685	0.0168054
605.763	0.0167157
605.841	0.0167417
605.919	0.0166806
605.997	0.0166991
606.075	0.0166508
606.154	0.0164730
606.232	0.0166963
606.310	0.0167838
606.388	0.0167373
606.466	0.0167355
606.544	0.0166404
606.622	0.0166954
606.700	0.0167188
606.779	0.0167035
606.857	0.0167587
606.935	0.0166189
607.013	0.0168701
607.091	0.0166937
607.169	0.0167210
607.247	0.0167558
607.325	0.0166239
607.404	0.0167070
607.482	0.0167526
607.560	0.0166980
607.638	0.0167872
607.716	0.0167274
607.794	0.0166756
607.872	0.0166992
607.950	0.0166871
608.029	0.0165835
608.107	0.0167539
608.185	0.0167606
608.263	0.0167870
608.341	0.0167490
608.419	0.0167014
608.497	0.0166557
608.575	0.0166210
608.654	0.0167741
608.732	0.0166891
608.810	0.0165921
608.888	0.0166782
608.966	0.0165405
609.044	0.0166209
609.122	0.0167098
609.200	0.0167509
609.279	0.0166563
609.357	0.0166432
609.435	0.0166515
609.513	0.0167549
609.591	0.0167983
609.669	0.0166561
609.747	0.0166378
609.825	0.0165636
609.904	0.0165633
609.982	0.0167098
610.060	0.0166450
610.138	0.0167052
610.216	0.0165387
610.294	0.0165932
610.372	0.0166962
610.450	0.0167251
610.529	0.0165907
610.607	0.0167733
610.685	0.0166830
610.763	0.0168351
610.841	0.0166852
610.919	0.0166389
610.997	0.0166421
611.075	0.0167062
611.154	0.0168636
611.232	0.0167731
611.310	0.0167297
611.388	0.0166532
611.466	0.0167347
611.544	0.0168208
611.622	0.0167828
611.700	0.0167133
611.779	0.0166110
611.857	0.0166335
611.935	0.0166338
612.013	0.0165968
612.091	0.0167498
612.169	0.0167674
612.247	0.0167004
612.325	0.0167863
612.404	0.0165594
612.482	0.0166409
612.560	0.0167163
612.638	0.0166497
612.716	0.0167198
612.794	0.0166758
612.872	0.0167358
612.950	0.0166528
613.029	0.0167477
613.107	0.0167854
613.185	0.0166224
613.263	0.0166974
613.341	0.0167318
613.419	0.0167063
613.497	0.0167677
613.575	0.0166524
613.654	0.0166132
613.732	0.0167396
613.810	0.0166074
613.888	0.0167493
613.966	0.0167406
614.044	0.0167474
614.122	0.0167088
614.200	0.0167626
614.279	0.0166278
614.357	0.0168752
614.435	0.0165925
614.513	0.0167280
614.591	0.0166779
614.669	0.0166482
614.747	0.0166972
614.825	0.0167004
614.904	0.0165800
614.982	0.0167368
615.060	0.0167966
615.138	0.0168198
615.216	0.0166586
615.294	0.0166977
615.372	0.0167220
615.450	0.0166209
615.529	0.0166380
615.607	0.0167304
615.685	0.0166799
615.763	0.0167641
615.841	0.0167030
615.919	0.0167899
615.997	0.0167101
616.075	0.0168523
616.154	0.0167649
616.232	0.0165880
616.310	0.0166690
616.388	0.0168053
616.466	0.0167010
616.544	0.0166675
616.622	0.0167747
616.700	0.0166961
616.779	0.0165820
616.857	0.0165845
616.935	0.0166368
617.013	0.0166937
617.091	0.0167501
617.169	0.0167235
617.247	0.0166170
617.325	0.0166970
617.404	0.0166145
617.482	0.0167187
617.560	0.0167907
617.638	0.0167270
617.716	0.0167452
617.794	0.0166988
617.872	0.0166509
617.950	0.0166850
618.029	0.0169066
618.107	0.0167622
618.185	0.0167091
618.263	0.0167018
618.341	0.0167418
618.419	0.0166845
618.497	0.0166852
618.575	0.0167104
618.654	0.0167361
618.732	0.0166879
618.810	0.0166599
618.888	0.0167069
618.966	0.0167032
619.044	0.0166949
619.122	0.0167780
619.200	0.0166957
619.279	0.0166138
619.357	0.0166783
619.435	0.0166750
619.513	0.0167582
619.591	0.0167755
619.669	0.0166550
619.747	0.0168050
619.825	0.0167591
619.904	0.0166548
619.982	0.0166273
620.060	0.0166551
620.138	0.0167628
620.216	0.0166915
620.294	0.0167265
620.372	0.0166470
620.450	0.0166892
620.529	0.0167078
620.607	0.0167971
620.685	0.0168234
620.763	0.0165935
620.841	0.0166387
620.919	0.0166710
620.997	0.0167077
621.075	0.0166631
621.154	0.0166335
621.232	0.0168054
621.310	0.0166731
621.388	0.0166769
621.466	0.0165376
621.544	0.0166744
621.622	0.0167258
621.700	0.0168197
621.779	0.0166871
621.857	0.0165282
621.935	0.0166237
622.013	0.0166843
622.091	0.0166161
622.169	0.0166659
622.247	0.0166089
622.325	0.0165717
622.404	0.0166834
622.482	0.0167989
622.560	0.0166286
622.638	0.0167399
622.716	0.0166843
622.794	0.0166293
622.872	0.0167190
622.950	0.0166901
623.029	0.0166617
623.107	0.0167134
623.185	0.0167743
623.263	0.0165804
623.341	0.0168501
623.419	0.0167023
623.497	0.0165807
623.575	0.0165894
623.654	0.0167375
623.732	0.0166181
623.810	0.0166821
623.888	0.0166840
623.966	0.0166422
624.044	0.0167582
624.122	0.0166463
624.200	0.0166851
624.279	0.0166077
624.357	0.0167579
624.435	0.0166173
624.513	0.0166915
624.591	0.0166721
624.669	0.0167016
624.747	0.0167357
624.825	0.0167162
624.904	0.0166443
624.982	0.0165986
625.060	0.0166997
625.138	0.0166669
625.216	0.0165997
625.294	0.0167632
625.372	0.0165666
625.450	0.0166532
625.529	0.0167021
625.607	0.0166508
625.685	0.0167186
625.763	0.0166805
625.841	0.0167551
625.919	0.0166673
625.997	0.0166099
626.075	0.0165672
626.154	0.0166096
626.232	0.0167271
626.310	0.0167785
626.388	0.0165917
626.466	0.0166688
626.544	0.0166618
626.622	0.0166805
626.700	0.0166756
626.779	0.0167039
626.857	0.0165520
626.935	0.0165657
627.013	0.0165554
627.091	0.0165850
627.169	0.0168073
627.247	0.0166848
627.325	0.0167377
627.404	0.0166086
627.482	0.0166808
627.560	0.0167157
627.638	0.0167857
627.716	0.0167385
627.794	0.0166908
627.872	0.0167404
627.950	0.0167962
628.029	0.0166602
628.107	0.0168014
628.185	0.0167056
628.263	0.0166772
628.341	0.0166656
628.419	0.0166644
628.497	0.0167599
628.575	0.0167718
628.654	0.0167545
628.732	0.0166656
628.810	0.0166862
628.888	0.0168733
628.966	0.0168166
629.044	0.0165807
629.122	0.0166769
629.200	0.0166949
629.279	0.0168013
629.357	0.0167419
629.435	0.0167385
629.513	0.0167166
629.591	0.0167659
629.669	0.0167745
629.747	0.0167472
629.825	0.0166812
629.904	0.0167881
629.982	0.0168505
630.060	0.0167507
630.138	0.0166300
630.216	0.0166561
630.294	0.0165882
630.372	0.0166872
630.450	0.0166744
630.529	0.0166597
630.607	0.0166495
630.685	0.0166586
630.763	0.0166752
630.841	0.0167464
630.919	0.0166760
630.997	0.0166998
631.075	0.0165471
631.154	0.0167649
631.232	0.0166433
631.310	0.0167141
631.388	0.0166851
631.466	0.0166988
631.544	0.0166270
631.622	0.0166934
631.700	0.0166638
631.779	0.0168027
631.857	0.0167505
631.935	0.0167935
632.013	0.0167285
632.091	0.0167965
632.169	0.0167215
632.247	0.0166788
632.325	0.0166837
632.404	0.0166489
632.482	0.0168381
632.560	0.0168005
632.638	0.0167306
632.716	0.0166001
632.794	0.0167352
632.872	0.0167643
632.950	0.0167520
633.029	0.0166597
633.107	0.0167031
633.185	0.0166383
633.263	0.0165009
633.341	0.0167173
633.419	0.0166216
633.497	0.0166277
633.575	0.0165746
633.654	0.0167701
633.732	0.0168398
633.810	0.0165951
633.888	0.0166909
633.966	0.0167316
634.044	0.0166956
634.122	0.0167679
634.200	0.0166599
634.279	0.0167179
634.357	0.0166734
634.435	0.0167915
634.513	0.0167440
634.591	0.0167172
634.669	0.0167592
634.747	0.0168496
634.825	0.0167348
634.904	0.0168301
634.982	0.0168227
635.060	0.0166340
635.138	0.0165257
635.216	0.0166919
635.294	0.0167113
635.372	0.0165780
635.450	0.0167456
635.529	0.0167518
635.607	0.0167138
635.685	0.0168231
635.763	0.0166897
635.841	0.0168555
635.919	0.0166734
635.997	0.0167657
636.075	0.0166494
636.154	0.0166301
636.232	0.0168258
636.310	0.0166771
636.388	0.0166234
636.466	0.0166083
636.544	0.0167155
636.622	0.0167551
636.700	0.0167158
636.779	0.0166705
636.857	0.0167188
636.935	0.0166303
637.013	0.0167467
637.091	0.0167603
637.169	0.0167330
637.247	0.0167377
637.325	0.0165719
637.404	0.0167545
637.482	0.0167183
637.560	0.0166443
637.638	0.0167643
637.716	0.0165314
637.794	0.0166257
637.872	0.0165915
637.950	0.0167448
638.029	0.0166922
638.107	0.0166957
638.185	0.0166842
638.263	0.0167129
638.341	0.0168591
638.419	0.0167706
638.497	0.0166622
638.575	0.0167686
638.654	0.0167399
638.732	0.0167339
638.810	0.0166782
638.888	0.0167118
638.966	0.0166911
639.044	0.0167066
639.122	0.0165350
639.200	0.0168354
639.279	0.0169015
639.357	0.0167719
639.435	0.0166335
639.513	0.0168840
639.591	0.0167249
639.669	0.0166692
639.747	0.0166650
639.825	0.0167076
639.904	0.0166035
639.982	0.0165860
640.060	0.0168149
640.138	0.0166977
640.216	0.0166712
640.294	0.0166584
640.372	0.0166548
640.450	0.0166669
640.529	0.0165841
640.607	0.0167145
640.685	0.0167439
640.763	0.0167764
640.841	0.0166862
640.919	0.0165899
640.997	0.0167798
641.075	0.0166830
641.154	0.0166084
641.232	0.0167706
641.310	0.0167760
641.388	0.0166717
641.466	0.0166902
641.544	0.0166323
641.622	0.0167448
641.700	0.0166851
641.779	0.0166414
641.857	0.0166593
641.935	0.0167744
642.013	0.0166743
642.091	0.0165862
642.169	0.0167645
642.247	0.0166263
642.325	0.0166639
642.404	0.0167504
642.482	0.0166530
642.560	0.0167646
642.638	0.0166939
642.716	0.0168438
642.794	0.0167589
642.872	0.0167326
642.950	0.0168458
643.029	0.0166105
643.107	0.0166581
643.185	0.0167957
643.263	0.0166502
643.341	0.0166972
643.419	0.0167607
643.497	0.0166500
643.575	0.0168329
643.654	0.0166286
643.732	0.0167372
643.810	0.0167226
643.888	0.0168077
643.966	0.0166347
644.044	0.0168015
644.122	0.0167158
644.200	0.0166109
644.279	0.0167342
644.357	0.0167560
644.435	0.0167254
644.513	0.0165645
644.591	0.0166167
644.669	0.0167684
644.747	0.0167683
644.825	0.0167165
644.904	0.0167499
644.982	0.0166589
645.060	0.0166695
645.138	0.0165933
645.216	0.0166595
645.294	0.0167664
645.372	0.0167049
645.450	0.0166566
645.529	0.0166251
645.607	0.0167214
645.685	0.0167268
645.763	0.0167950
645.841	0.0165613
645.919	0.0166276
645.997	0.0166621
646.075	0.0167143
646.154	0.0166145
646.232	0.0166364
646.310	0.0166322
646.388	0.0167319
646.466	0.0167213
646.544	0.0166714
646.622	0.0165747
646.700	0.0167105
646.779	0.0167885
646.857	0.0168466
646.935	0.0167152
647.013	0.0167116
647.091	0.0167173
647.169	0.0165958
647.247	0.0167660
647.325	0.0165865
647.404	0.0167963
647.482	0.0167911
647.560	0.0167125
647.638	0.0166174
647.716	0.0166512
647.794	0.0167075
647.872	0.0166435
647.950	0.0167205
648.029	0.0168473
648.107	0.0167832
648.185	0.0166989
648.263	0.0167058
648.341	0.0167052
648.419	0.0165881
648.497	0.0165550
648.575	0.0165495
648.654	0.0167625
648.732	0.0167284
648.810	0.0165995
648.888	0.0166467
648.966	0.0167769
649.044	0.0166922
649.122	0.0167260
649.200	0.0167872
649.279	0.0167593
649.357	0.0168211
649.435	0.0167609
649.513	0.0165609
649.591	0.0165752
649.669	0.0167877
649.747	0.0167907
649.825	0.0167118
649.904	0.0166241
649.982	0.0166720
650.060	0.0166779
650.138	0.0168256
650.216	0.0168462
650.294	0.0166824
650.372	0.0166367
650.450	0.0167220
650.529	0.0166471
650.607	0.0167950
650.685	0.0167836
650.763	0.0166566
650.841	0.0168397
650.919	0.0167724
650.997	0.0168022
651.075	0.0166433
651.154	0.0167501
651.232	0.0166002
651.310	0.0167780
651.388	0.0166863
651.466	0.0165475
651.544	0.0167294
651.622	0.0167401
651.700	0.0167809
651.779	0.0168047
651.857	0.0166461
651.935	0.0167290
652.013	0.0167632
652.091	0.0166613
652.169	0.0165311
652.247	0.0166460
652.325	0.0167248
652.404	0.0167168
652.482	0.0167000
652.560	0.0166735
652.638	0.0166374
652.716	0.0166960
652.794	0.0167513
652.872	0.0167543
652.950	0.0167245
653.029	0.0167546
653.107	0.0166756
653.185	0.0167645
653.263	0.0168446
653.341	0.0167068
653.419	0.0166518
653.497	0.0166558
653.575	0.0166165
653.654	0.0167937
653.732	0.0166904
653.810	0.0167522
653.888	0.0166426
653.966	0.0167780
654.044	0.0165768
654.122	0.0167259
654.200	0.0168106
654.279	0.0168593
654.357	0.0167159
654.435	0.0167232
654.513	0.0166116
654.591	0.0166351
654.669	0.0167963
654.747	0.0166852
654.825	0.0165966
654.904	0.0166920
654.982	0.0167210
655.060	0.0166602
655.138	0.0167207
655.216	0.0167447
655.294	0.0167582
655.372	0.0167375
655.450	0.0167892
655.529	0.0167028
655.607	0.0166848
655.685	0.0165842
655.763	0.0167485
655.841	0.0167661
655.919	0.0166221
655.997	0.0167055
656.075	0.0167656
656.154	0.0166731
656.232	0.0166372
656.310	0.0167822
656.388	0.0168565
656.466	0.0166830
656.544	0.0166401
656.622	0.0167194
656.700	0.0166939
656.779	0.0166485
656.857	0.0166919
656.935	0.0166619
657.013	0.0165659
657.091	0.0165953
657.169	0.0167180
657.247	0.0166856
657.325	0.0166206
657.404	0.0167727
657.482	0.0167136
657.560	0.0166226
657.638	0.0166932
657.716	0.0166551
657.794	0.0166523
657.872	0.0166708
657.950	0.0167938
658.029	0.0166600
658.107	0.0166238
658.185	0.0167720
658.263	0.0167604
658.341	0.0166274
658.419	0.0167201
658.497	0.0167031
658.575	0.0166560
658.654	0.0167294
658.732	0.0166715
658.810	0.0166849
658.888	0.0167011
658.966	0.0165800
659.044	0.0166715
659.122	0.0166716
659.200	0.0166868
659.279	0.0165119
659.357	0.0166673
659.435	0.0165942
659.513	0.0166718
659.591	0.0167583
659.669	0.0166174
659.747	0.0167506
659.825	0.0167089
659.904	0.0168317
659.982	0.0166582
660.060	0.0166821
660.138	0.0166232
660.216	0.0168201
660.294	0.0167371
660.372	0.0166404
660.450	0.0165767
660.529	0.0166656
660.607	0.0167407
660.685	0.0167214
660.763	0.0167329
660.841	0.0167515
660.919	0.0168060
660.997	0.0167633
661.075	0.0167353
661.154	0.0167039
661.232	0.0167047
661.310	0.0167335
661.388	0.0166519
661.466	0.0167165
661.544	0.0166622
661.622	0.0167588
661.700	0.0166800
661.779	0.0166178
661.857	0.0168438
661.935	0.0168207
662.013	0.0167469
662.091	0.0167697
662.169	0.0168258
662.247	0.0166192
662.325	0.0168382
662.404	0.0167785
662.482	0.0167063
662.560	0.0166241
662.638	0.0167498
662.716	0.0166446
662.794	0.0166789
662.872	0.0167056
662.950	0.0166373
663.029	0.0165993
663.107	0.0167184
663.185	0.0167931
663.263	0.0168680
663.341	0.0168790
663.419	0.0168323
663.497	0.0166293
663.575	0.0167485
663.654	0.0168314
663.732	0.0168314
663.810	0.0168193
663.888	0.0167782
663.966	0.0166898
664.044	0.0166912
664.122	0.0168097
664.200	0.0167698
664.279	0.0166335
664.357	0.0166423
664.435	0.0166572
664.513	0.0167996
664.591	0.0168096
664.669	0.0166615
664.747	0.0168410
664.825	0.0167435
664.904	0.0166346
664.982	0.0166440
665.060	0.0166059
665.138	0.0166656
665.216	0.0167181
665.294	0.0167376
665.372	0.0166514
665.450	0.0168044
665.529	0.0168398
665.607	0.0165393
665.685	0.0167751
665.763	0.0166488
665.841	0.0166645
665.919	0.0167433
665.997	0.0167732
666.075	0.0167552
666.154	0.0167373
666.232	0.0167583
666.310	0.0168359
666.388	0.0167256
666.466	0.0167789
666.544	0.0167238
666.622	0.0166505
666.700	0.0167746
666.779	0.0168355
666.857	0.0166800
666.935	0.0166701
667.013	0.0166008
667.091	0.0167611
667.169	0.0167129
667.247	0.0165898
667.325	0.0167118
667.404	0.0168010
667.482	0.0167171
667.560	0.0168071
667.638	0.0167979
667.716	0.0167102
667.794	0.0168159
667.872	0.0166641
667.950	0.0167628
668.029	0.0167194
668.107	0.0166829
668.185	0.0167316
668.263	0.0166908
668.341	0.0167210
668.419	0.0167813
668.497	0.0167995
668.575	0.0165860
668.654	0.0167457
668.732	0.0167564
668.810	0.0165691
668.888	0.0168031
668.966	0.0166931
669.044	0.0168039
669.122	0.0167249
669.200	0.0166136
669.279	0.0166622
669.357	0.0166112
669.435	0.0167391
669.513	0.0166418
669.591	0.0165833
669.669	0.0167857
669.747	0.0167331
669.825	0.0167054
669.904	0.0166076
669.982	0.0167733
670.060	0.0166468
670.138	0.0167085
670.216	0.0167601
670.294	0.0166540
670.372	0.0166460
670.450	0.0166962
670.529	0.0166900
670.607	0.0168172
670.685	0.0167159
670.763	0.0167603
670.841	0.0167496
670.919	0.0166362
670.997	0.0165770
671.075	0.0167088
671.154	0.0168182
671.232	0.0167365
671.310	0.0166868
671.388	0.0165873
671.466	0.0167123
671.544	0.0167056
671.622	0.0166894
671.700	0.0166941
671.779	0.0169279
671.857	0.0167068
671.935	0.0167974
672.013	0.0168191
672.091	0.0166987
672.169	0.0168687
672.247	0.0166244
672.325	0.0166116
672.404	0.0167208
672.482	0.0168871
672.560	0.0167254
672.638	0.0167274
672.716	0.0167521
672.794	0.0167687
672.872	0.0166737
672.950	0.0165787
673.029	0.0166749
673.107	0.0167265
673.185	0.0167857
673.263	0.0165702
673.341	0.0167654
673.419	0.0166293
673.497	0.0167968
673.575	0.0166190
673.654	0.0167883
673.732	0.0167046
673.810	0.0167007
673.888	0.0166689
673.966	0.0166323
674.044	0.0167089
674.122	0.0167144
674.200	0.0167842
674.279	0.0166581
674.357	0.0168197
674.435	0.0167493
674.513	0.0166088
674.591	0.0166982
674.669	0.0166570
674.747	0.0167537
674.825	0.0167412
674.904	0.0167724
674.982	0.0167590
675.060	0.0167417
675.138	0.0166735
675.216	0.0167007
675.294	0.0167525
675.372	0.0166786
675.450	0.0166737
675.529	0.0166938
675.607	0.0167128
675.685	0.0167605
675.763	0.0166054
675.841	0.0166786
675.919	0.0165355
675.997	0.0166067
676.075	0.0166324
676.154	0.0166321
676.232	0.0166846
676.310	0.0166732
676.388	0.0165340
676.466	0.0167268
676.544	0.0165884
676.622	0.0165096
676.700	0.0166724
676.779	0.0167095
676.857	0.0166161
676.935	0.0167276
677.013	0.0167087
677.091	0.0165359
677.169	0.0165217
677.247	0.0165176
677.325	0.0165482
677.404	0.0166201
677.482	0.0166225
677.560	0.0167217
677.638	0.0166367
677.716	0.0165781
677.794	0.0166076
677.872	0.0165781
677.950	0.0165605
678.029	0.0166104
678.107	0.0166518
678.185	0.0165700
678.263	0.0166676
678.341	0.0167493
678.419	0.0166433
678.497	0.0165747
678.575	0.0164824
678.654	0.0165767
678.732	0.0166971
678.810	0.0167105
678.888	0.0165982
678.966	0.0165108
679.044	0.0164932
679.122	0.0166161
679.200	0.0168519
679.279	0.0167445
679.357	0.0166157
679.435	0.0166083
679.513	0.0166653
679.591	0.0167136
679.669	0.0166229
679.747	0.0167174
679.825	0.0167705
679.904	0.0166246
679.982	0.0165246
680.060	0.0166555
680.138	0.0167441
680.216	0.0166353
680.294	0.0168007
680.372	0.0167117
680.450	0.0166397
680.529	0.0166110
680.607	0.0165761
680.685	0.0166299
680.763	0.0166523
680.841	0.0166288
680.919	0.0167298
680.997	0.0166028
681.075	0.0167174
681.154	0.0167202
681.232	0.0167709
681.310	0.0167526
681.388	0.0167934
681.466	0.0168104
681.544	0.0167068
681.622	0.0167839
681.700	0.0167088
681.779	0.0167280
681.857	0.0166599
681.935	0.0167547
682.013	0.0167801
682.091	0.0168151
682.169	0.0165973
682.247	0.0168044
682.325	0.0168795
682.404	0.0167621
682.482	0.0167016
682.560	0.0167426
682.638	0.0167985
682.716	0.0168243
682.794	0.0167857
682.872	0.0167412
682.950	0.0166891
683.029	0.0166333
683.107	0.0168062
683.185	0.0168576
683.263	0.0167744
683.341	0.0167446
683.419	0.0168230
683.497	0.0167600
683.575	0.0168036
683.654	0.0167967
683.732	0.0168452
683.810	0.0168520
683.888	0.0167150
683.966	0.0168636
684.044	0.0167160
684.122	0.0166901
684.200	0.0167408
684.279	0.0168729
684.357	0.0167744
684.435	0.0167137
684.513	0.0166870
684.591	0.0167904
684.669	0.0167680
684.747	0.0167781
684.825	0.0166078
684.904	0.0166588
684.982	0.0167613
685.060	0.0167968
685.138	0.0166895
685.216	0.0167100
685.294	0.0167449
685.372	0.0166310
685.450	0.0167962
685.529	0.0166664
685.607	0.0165257
685.685	0.0166440
685.763	0.0166724
685.841	0.0167187
685.919	0.0166048
685.997	0.0165646
686.075	0.0167117
686.154	0.0167090
686.232	0.0166006
686.310	0.0166632
686.388	0.0166900
686.466	0.0168218
686.544	0.0167892
686.622	0.0165969
686.700	0.0165973
686.779	0.0166943
686.857	0.0166959
686.935	0.0167770
687.013	0.0167216
687.091	0.0165936
687.169	0.0167100
687.247	0.0166616
687.325	0.0165755
687.404	0.0165211
687.482	0.0165151
687.560	0.0164986
687.638	0.0165647
687.716	0.0165397
687.794	0.0167382
687.872	0.0166367
687.950	0.0165984
688.029	0.0166193
688.107	0.0166773
688.185	0.0165774
688.263	0.0166052
688.341	0.0165635
688.419	0.0166204
688.497	0.0166649
688.575	0.0166026
688.654	0.0166906
688.732	0.0165311
688.810	0.0164471
688.888	0.0165729
688.966	0.0166901
689.044	0.0165894
689.122	0.0167344
689.200	0.0165068
689.279	0.0165886
689.357	0.0166708
689.435	0.0165115
689.513	0.0167587
689.591	0.0166010
689.669	0.0165677
689.747	0.0167863
689.825	0.0166435
689.904	0.0167046
689.982	0.0167025
690.060	0.0166460
690.138	0.0167032
690.216	0.0167841
690.294	0.0167500
690.372	0.0166595
690.450	0.0167535
690.529	0.0166856
690.607	0.0167776
690.685	0.0166991
690.763	0.0166859
690.841	0.0165890
690.919	0.0166663
690.997	0.0166269
691.075	0.0166808
691.154	0.0167630
691.232	0.0165575
691.310	0.0165976
691.388	0.0166024
691.466	0.0166553
691.544	0.0166170
691.622	0.0167907
691.700	0.0167075
691.779	0.0167012
691.857	0.0167862
691.935	0.0166469
692.013	0.0165652
692.091	0.0167002
692.169	0.0167408
692.247	0.0167749
692.325	0.0166853
692.404	0.0165897
692.482	0.0165829
692.560	0.0165028
692.638	0.0166831
692.716	0.0166136
692.794	0.0166911
692.872	0.0167194
692.950	0.0165912
693.029	0.0166906
693.107	0.0167627
693.185	0.0168955
693.263	0.0167252
693.341	0.0168931
693.419	0.0168513
693.497	0.0170108
693.575	0.0167722
693.654	0.0166423
693.732	0.0167854
693.810	0.0166465
693.888	0.0163860
693.966	0.0164113
694.044	0.0164589
694.122	0.0162609
694.200	0.0163595
694.279	0.0164740
694.357	0.0165201
694.435	0.0165566
694.513	0.0166161
694.591	0.0168894
694.669	0.0168931
694.747	0.0170364
694.825	0.0169868
694.904	0.0170745
694.982	0.0172133
695.060	0.0171238
695.138	0.0169390
695.216	0.0169527
695.294	0.0169140
695.372	0.0168988
695.450	0.0167614
695.529	0.0165138
695.607	0.0164347
695.685	0.0163938
695.763	0.0161909
695.841	0.0162470
695.919	0.0163241
695.997	0.0162620
696.075	0.0162560
696.154	0.0162959
696.232	0.0164822
696.310	0.0164673
696.388	0.0165552
696.466	0.0165495
696.544	0.0167510
696.622	0.0168188
696.700	0.0168731
696.779	0.0168781
696.857	0.0169413
696.935	0.0168884
697.013	0.0169423
697.091	0.0170303
697.169	0.0168976
697.247	0.0169400
697.325	0.0169888
697.404	0.0169196
697.482	0.0167687
697.560	0.0170177
697.638	0.0168793
697.716	0.0166783
697.794	0.0168774
697.872	0.0167727
697.950	0.0167773
698.029	0.0168888
698.107	0.0167635
698.185	0.0167448
698.263	0.0166068
698.341	0.0166367
698.419	0.0165862
698.497	0.0166251
698.575	0.0164703
698.654	0.0163591
698.732	0.0162392
698.810	0.0163091
698.888	0.0161697
698.966	0.0161615
699.044	0.0161143
699.122	0.0161166
699.200	0.0163200
699.279	0.0163793
699.357	0.0163534
699.435	0.0163824
699.513	0.0164148
699.591	0.0165246
699.669	0.0166495
699.747	0.0169048
699.825	0.0168461
699.904	0.0168955
699.982	0.0170067
700.060	0.0169957
700.138	0.0171164
700.216	0.0171538
700.294	0.0172464
700.372	0.0173636
700.450	0.0172993
700.529	0.0174601
700.607	0.0172915
700.685	0.0173294
700.763	0.0172788
700.841	0.0171931
700.919	0.0171696
700.997	0.0169352
701.075	0.0168050
701.154	0.0167603
701.232	0.0165913
701.310	0.0165856
701.388	0.0164102
701.466	0.0161262
701.544	0.0160621
701.622	0.0159175
701.700	0.0157355
701.779	0.0159017
701.857	0.0158015
701.935	0.0159281
702.013	0.0159492
702.091	0.0160458
702.169	0.0160875
702.247	0.0163052
702.325	0.0162991
702.404	0.0163844
702.482	0.0167036
702.560	0.0167254
702.638	0.0167719
702.716	0.0169389
702.794	0.0170662
702.872	0.0169488
702.950	0.0168670
703.029	0.0170979
703.107	0.0169958
703.185	0.0169650
703.263	0.0168845
703.341	0.0168880
703.419	0.0169074
703.497	0.0168581
703.575	0.0168413
703.654	0.0168366
703.732	0.0169128
703.810	0.0170453
703.888	0.0170369
703.966	0.0169885
704.044	0.0170097
704.122	0.0171206
704.200	0.0170908
704.279	0.0171621
704.357	0.0172679
704.435	0.0172930
704.513	0.0172049
704.591	0.0171026
704.669	0.0170164
704.747	0.0171263
704.825	0.0168812
704.904	0.0166545
704.982	0.0167455
705.060	0.0165967
705.138	0.0165475
705.216	0.0163570
705.294	0.0162939
705.372	0.0162623
705.450	0.0162128
705.529	0.0160497
705.607	0.0159959
705.685	0.0159311
705.763	0.0161261
705.841	0.0160378
705.919	0.0160253
705.997	0.0162099
706.075	0.0161718
706.154	0.0163147
706.232	0.0163311
706.310	0.0163707
706.388	0.0164890
706.466	0.0164772
706.544	0.0165974
706.622	0.0166851
706.700	0.0166441
706.779	0.0167165
706.857	0.0167000
706.935	0.0167328
707.013	0.0167251
707.091	0.0166998
707.169	0.0167426
707.247	0.0168522
707.325	0.0168029
707.404	0.0169129
707.482	0.0167174
707.560	0.0167251
707.638	0.0167382
707.716	0.0167667
707.794	0.0168401
707.872	0.0170618
707.950	0.0170269
708.029	0.0170079
708.107	0.0171644
708.185	0.0172033
708.263	0.0170798
708.341	0.0170995
708.419	0.0170685
708.497	0.0170709
708.575	0.0170735
708.654	0.0170407
708.732	0.0170704
708.810	0.0168826
708.888	0.0168808
708.966	0.0168895
709.044	0.0169370
709.122	0.0167029
709.200	0.0167521
709.279	0.0166891
709.357	0.0166733
709.435	0.0164871
709.513	0.0165072
709.591	0.0166489
709.669	0.0164584
709.747	0.0164561
709.825	0.0164221
709.904	0.0163897
709.982	0.0164213
710.060	0.0164247
710.138	0.0164455
710.216	0.0165067
710.294	0.0163972
710.372	0.0165062
710.450	0.0164378
710.529	0.0164404
710.607	0.0165434
710.685	0.0165350
710.763	0.0165332
710.841	0.0165058
710.919	0.0164003
710.997	0.0165315
711.075	0.0165083
711.154	0.0164623
711.232	0.0164660
711.310	0.0165424
711.388	0.0166199
711.466	0.0165023
711.544	0.0166313
711.622	0.0166141
711.700	0.0166230
711.779	0.0168642
711.857	0.0168653
711.935	0.0167803
712.013	0.0169426
712.091	0.0168812
712.169	0.0171367
712.247	0.0171825
712.325	0.0172156
712.404	0.0171342
712.482	0.0172741
712.560	0.0171117
712.638	0.0171668
712.716	0.0171317
712.794	0.0172440
712.872	0.0172052
712.950	0.0171471
713.029	0.0170492
713.107	0.0169399
713.185	0.0169477
713.263	0.0169339
713.341	0.0168235
713.419	0.0167677
713.497	0.0167245
713.575	0.0167155
713.654	0.0166847
713.732	0.0166245
713.810	0.0165366
713.888	0.0165125
713.966	0.0165044
714.044	0.0166058
714.122	0.0165745
714.200	0.0166020
714.279	0.0164395
714.357	0.0164066
714.435	0.0164545
714.513	0.0164698
714.591	0.0163622
714.669	0.0163885
714.747	0.0163683
714.825	0.0164856
714.904	0.0164301
714.982	0.0164630
715.060	0.0163354
715.138	0.0163694
715.216	0.0164108
715.294	0.0163651
715.372	0.0162737
715.450	0.0164832
715.529	0.0163984
715.607	0.0164644
715.685	0.0164063
715.763	0.0164472
715.841	0.0165337
715.919	0.0164782
715.997	0.0165739
716.075	0.0165481
716.154	0.0166567
716.232	0.0165129
716.310	0.0164831
716.388	0.0165770
716.466	0.0166611
716.544	0.0165583
716.622	0.0165766
716.700	0.0167135
716.779	0.0168477
716.857	0.0168043
716.935	0.0167906
717.013	0.0169304
717.091	0.0170969
717.169	0.0170132
717.247	0.0167897
717.325	0.0170501
717.404	0.0171287
717.482	0.0169842
717.560	0.0170829
717.638	0.0171262
717.716	0.0170283
717.794	0.0169622
717.872	0.0169820
717.950	0.0170125
718.029	0.0170754
718.107	0.0170621
718.185	0.0170097
718.263	0.0169209
718.341	0.0169630
718.419	0.0167894
718.497	0.0166412
718.575	0.0167816
718.654	0.0168047
718.732	0.0166788
718.810	0.0168008
718.888	0.0166095
718.966	0.0165179
719.044	0.0165414
719.122	0.0165701
719.200	0.0165945
719.279	0.0166875
719.357	0.0165886
719.435	0.0165311
719.513	0.0165083
719.591	0.0165726
719.669	0.0166802
719.747	0.0166534
719.825	0.0165438
719.904	0.0164870
719.982	0.0165005
720.060	0.0164975
720.138	0.0162820
720.216	0.0164635
720.294	0.0165969
720.372	0.0162958
720.450	0.0163597
720.529	0.0164233
720.607	0.0163447
720.685	0.0163272
720.763	0.0163809
720.841	0.0163750
720.919	0.0166304
720.997	0.0165113
721.075	0.0165028
721.154	0.0165678
721.232	0.0167152
721.310	0.0167421
721.388	0.0166039
721.466	0.0166953
721.544	0.0168431
721.622	0.0167061
721.700	0.0165906
721.779	0.0166405
721.857	0.0167460
721.935	0.0167091
722.013	0.0166067
722.091	0.0168402
722.169	0.0167846
722.247	0.0167948
722.325	0.0167636
722.404	0.0168466
722.482	0.0170004
722.560	0.0168850
722.638	0.0169464
722.716	0.0170361
722.794	0.0170758
722.872	0.0169769
722.950	0.0170140
723.029	0.0170964
723.107	0.0171576
723.185	0.0170962
723.263	0.0168754
723.341	0.0169464
723.419	0.0169878
723.497	0.0170277
723.575	0.0168993
723.654	0.0168282
723.732	0.0167225
723.810	0.0166837
723.888	0.0166871
723.966	0.0166615
724.044	0.0166313
724.122	0.0165778
724.200	0.0165412
724.279	0.0165232
724.357	0.0166562
724.435	0.0165542
724.513	0.0166057
724.591	0.0166307
724.669	0.0166248
724.747	0.0165449
724.825	0.0165450
724.904	0.0165719
724.982	0.0164207
725.060	0.0164632
725.138	0.0164906
725.216	0.0164362
725.294	0.0165940
725.372	0.0165300
725.450	0.0164758
725.529	0.0164516
725.607	0.0165063
725.685	0.0166708
725.763	0.0165805
725.841	0.0164874
725.919	0.0165864
725.997	0.0166721
726.075	0.0166764
726.154	0.0167399
726.232	0.0166884
726.310	0.0165089
726.388	0.0166554
726.466	0.0165888
726.544	0.0167056
726.622	0.0167993
726.700	0.0166643
726.779	0.0166526
726.857	0.0166261
726.935	0.0165623
727.013	0.0167078
727.091	0.0166850
727.169	0.0166476
727.247	0.0166787
727.325	0.0167506
727.404	0.0167116
727.482	0.0167249
727.560	0.0167644
727.638	0.0165886
727.716	0.0167680
727.794	0.0167869
727.872	0.0168417
727.950	0.0168214
728.029	0.0168433
728.107	0.0167707
728.185	0.0168349
728.263	0.0170136
728.341	0.0167921
728.419	0.0168201
728.497	0.0168973
728.575	0.0168061
728.654	0.0168874
728.732	0.0168427
728.810	0.0167039
728.888	0.0168498
728.966	0.0168003
729.044	0.0167899
729.122	0.0165583
729.200	0.0167346
729.279	0.0167242
729.357	0.0166047
729.435	0.0165772
729.513	0.0165520
729.591	0.0163850
729.669	0.0165282
729.747	0.0164807
729.825	0.0167088
729.904	0.0166837
729.982	0.0165363
730.060	0.0166295
730.138	0.0165911
730.216	0.0167281
730.294	0.0167386
730.372	0.0167292
730.450	0.0167850
730.529	0.0168296
730.607	0.0166315
730.685	0.0167152
730.763	0.0167335
730.841	0.0167662
730.919	0.0167763
730.997	0.0165847
731.075	0.0166521
731.154	0.0167010
731.232	0.0166873
731.310	0.0165707
731.388	0.0164428
731.466	0.0166515
731.544	0.0165004
731.622	0.0165710
731.700	0.0166676
731.779	0.0165228
731.857	0.0165213
731.935	0.0166976
732.013	0.0168068
732.091	0.0166683
732.169	0.0166863
732.247	0.0167074
732.325	0.0166286
732.404	0.0166923
732.482	0.0168343
732.560	0.0167529
732.638	0.0167170
732.716	0.0167822
732.794	0.0167640
732.872	0.0166934
732.950	0.0166828
733.029	0.0167080
733.107	0.0165711
733.185	0.0166145
733.263	0.0166356
733.341	0.0167209
733.419	0.0168751
733.497	0.0168449
733.575	0.0167431
733.654	0.0169511
733.732	0.0168066
733.810	0.0169305
733.888	0.0167582
733.966	0.0168766
734.044	0.0167781
734.122	0.0167536
734.200	0.0166496
734.279	0.0168510
734.357	0.0169012
734.435	0.0168495
734.513	0.0168834
734.591	0.0168176
734.669	0.0167965
734.747	0.0166890
734.825	0.0166961
734.904	0.0167330
734.982	0.0168634
735.060	0.0167537
735.138	0.0167605
735.216	0.0167658
735.294	0.0167274
735.372	0.0167940
735.450	0.0168246
735.529	0.0167750
735.607	0.0167731
735.685	0.0167529
735.763	0.0169091
735.841	0.0166875
735.919	0.0166774
735.997	0.0167560
736.075	0.0169124
736.154	0.0168320
736.232	0.0167358
736.310	0.0167364
736.388	0.0166757
736.466	0.0166618
736.544	0.0167055
736.622	0.0165916
736.700	0.0165962
736.779	0.0165138
736.857	0.0165349
736.935	0.0166076
737.013	0.0164346
737.091	0.0166537
737.169	0.0165682
737.247	0.0164989
737.325	0.0164977
737.404	0.0164882
737.482	0.0165366
737.560	0.0165108
737.638	0.0165654
737.716	0.0165217
737.794	0.0164604
737.872	0.0165060
737.950	0.0166321
738.029	0.0165932
738.107	0.0166897
738.185	0.0165644
738.263	0.0166463
738.341	0.0166373
738.419	0.0167969
738.497	0.0166602
738.575	0.0165553
738.654	0.0167398
738.732	0.0167591
738.810	0.0167586
738.888	0.0166800
738.966	0.0167089
739.044	0.0166555
739.122	0.0167268
739.200	0.0168742
739.279	0.0167262
739.357	0.0168018
739.435	0.0168124
739.513	0.0168148
739.591	0.0167864
739.669	0.0167910
739.747	0.0167018
739.825	0.0166796
739.904	0.0166739
739.982	0.0167377
740.060	0.0165724
740.138	0.0167849
740.216	0.0167039
740.294	0.0166750
740.372	0.0166599
740.450	0.0165234
740.529	0.0166892
740.607	0.0166597
740.685	0.0165709
740.763	0.0168470
740.841	0.0167407
740.919	0.0165964
740.997	0.0167117
741.075	0.0167409
741.154	0.0166418
741.232	0.0166632
741.310	0.0167478
741.388	0.0167056
741.466	0.0167265
741.544	0.0166716
741.622	0.0167584
741.700	0.0167056
741.779	0.0166431
741.857	0.0165689
741.935	0.0167924
742.013	0.0167686
742.091	0.0169312
742.169	0.0168092
742.247	0.0167021
742.325	0.0167402
742.404	0.0166605
742.482	0.0168154
742.560	0.0166003
742.638	0.0166372
742.716	0.0167991
742.794	0.0168203
742.872	0.0167611
742.950	0.0167385
743.029	0.0167537
743.107	0.0166417
743.185	0.0167535
743.263	0.0166883
743.341	0.0166117
743.419	0.0167652
743.497	0.0167661
743.575	0.0166452
743.654	0.0166994
743.732	0.0167476
743.810	0.0167127
743.888	0.0166276
743.966	0.0165680
744.044	0.0165445
744.122	0.0165187
744.200	0.0165304
744.279	0.0166026
744.357	0.0165848
744.435	0.0165506
744.513	0.0166527
744.591	0.0165680
744.669	0.0166003
744.747	0.0166026
744.825	0.0165951
744.904	0.0166233
744.982	0.0166329
745.060	0.0167521
745.138	0.0166078
745.216	0.0166942
745.294	0.0167484
745.372	0.0167692
745.450	0.0165510
745.529	0.0166463
745.607	0.0167323
745.685	0.0166773
745.763	0.0166763
745.841	0.0166889
745.919	0.0165642
745.997	0.0167152
746.075	0.0168470
746.154	0.0166480
746.232	0.0168505
746.310	0.0168383
746.388	0.0167690
746.466	0.0167165
746.544	0.0166964
746.622	0.0167075
746.700	0.0168909
746.779	0.0168506
746.857	0.0169184
746.935	0.0166708
747.013	0.0167941
747.091	0.0166781
747.169	0.0168065
747.247	0.0168108
747.325	0.0168490
747.404	0.0167161
747.482	0.0168913
747.560	0.0168230
747.638	0.0167331
747.716	0.0167857
747.794	0.0167262
747.872	0.0166483
747.950	0.0167312
748.029	0.0168272
748.107	0.0166994
748.185	0.0165491
748.263	0.0165775
748.341	0.0167286
748.419	0.0167663
748.497	0.0167680
748.575	0.0166853
748.654	0.0166754
748.732	0.0167084
748.810	0.0167902
748.888	0.0168382
748.966	0.0167031
749.044	0.0168160
749.122	0.0168667
749.200	0.0166734
749.279	0.0166901
749.357	0.0168256
749.435	0.0166523
749.513	0.0167110
749.591	0.0167848
749.669	0.0167833
749.747	0.0166138
749.825	0.0166978
749.904	0.0166067
749.982	0.0166525
750.060	0.0166663
750.138	0.0165284
750.216	0.0165332
750.294	0.0167477
750.372	0.0165852
750.450	0.0165584
750.529	0.0165889
750.607	0.0166072
750.685	0.0165133
750.763	0.0164777
750.841	0.0164865
750.919	0.0165041
750.997	0.0165677
751.075	0.0167265
751.154	0.0165779
751.232	0.0167023
751.310	0.0166655
751.388	0.0166249
751.466	0.0166039
751.544	0.0167103
751.622	0.0168481
751.700	0.0166769
751.779	0.0165903
751.857	0.0167762
751.935	0.0167883
752.013	0.0167136
752.091	0.0168555
752.169	0.0167158
752.247	0.0166975
752.325	0.0167758
752.404	0.0167207
752.482	0.0167952
752.560	0.0167004
752.638	0.0167664
752.716	0.0166939
752.794	0.0167271
752.872	0.0167538
752.950	0.0167905
753.029	0.0167213
753.107	0.0168215
753.185	0.0167171
753.263	0.0168207
753.341	0.0167335
753.419	0.0167594
753.497	0.0167368
753.575	0.0166679
753.654	0.0166696
753.732	0.0167019
753.810	0.0167351
753.888	0.0167184
753.966	0.0167342
754.044	0.0167004
754.122	0.0166867
754.200	0.0165938
754.279	0.0167214
754.357	0.0166363
754.435	0.0167349
754.513	0.0167025
754.591	0.0167393
754.669	0.0165210
754.747	0.0166824
754.825	0.0166759
754.904	0.0166515
754.982	0.0166079
755.060	0.0164639
755.138	0.0167796
755.216	0.0168314
755.294	0.0167384
755.372	0.0167530
755.450	0.0167675
755.529	0.0167139
755.607	0.0168139
755.685	0.0168526
755.763	0.0167294
755.841	0.0169048
755.919	0.0169209
755.997	0.0167177
756.075	0.0167830
756.154	0.0168592
756.232	0.0169604
756.310	0.0166921
756.388	0.0167077
756.466	0.0169067
756.544	0.0167148
756.622	0.0168420
756.700	0.0166970
756.779	0.0166128
756.857	0.0166945
756.935	0.0167747
757.013	0.0167007
757.091	0.0165040
757.169	0.0166483
757.247	0.0166705
757.325	0.0167667
757.404	0.0165974
757.482	0.0166630
757.560	0.0167171
757.638	0.0167767
757.716	0.0166259
757.794	0.0167348
757.872	0.0168176
757.950	0.0167779
758.029	0.0168672
758.107	0.0167025
758.185	0.0167606
758.263	0.0167844
758.341	0.0168006
758.419	0.0168285
758.497	0.0167149
758.575	0.0166405
758.654	0.0168917
758.732	0.0166624
758.810	0.0167258
758.888	0.0168544
758.966	0.0167734
759.044	0.0166586
759.122	0.0165916
759.200	0.0167992
759.279	0.0168165
759.357	0.0166133
759.435	0.0166563
759.513	0.0167358
759.591	0.0168176
759.669	0.0167108
759.747	0.0167227
759.825	0.0166278
759.904	0.0166888
759.982	0.0166799
760.060	0.0167125
760.138	0.0168016
760.216	0.0166563
760.294	0.0166711
760.372	0.0165179
760.450	0.0166292
760.529	0.0166908
760.607	0.0165565
760.685	0.0167068
760.763	0.0167506
760.841	0.0168703
760.919	0.0167151
760.997	0.0166862
761.075	0.0166892
761.154	0.0167290
761.232	0.0167609
761.310	0.0167061
761.388	0.0167119
761.466	0.0167019
761.544	0.0167593
761.622	0.0166374
761.700	0.0167549
761.779	0.0168376
761.857	0.0167018
761.935	0.0166776
762.013	0.0167812
762.091	0.0168907
762.169	0.0166936
762.247	0.0166361
762.325	0.0167722
762.404	0.0167540
762.482	0.0167368
762.560	0.0166281
762.638	0.0167102
762.716	0.0166734
762.794	0.0166753
762.872	0.0167049
762.950	0.0166315
763.029	0.0166553
763.107	0.0166171
763.185	0.0166923
763.263	0.0167802
763.341	0.0167644
763.419	0.0166328
763.497	0.0165221
763.575	0.0165045
763.654	0.0166540
763.732	0.0167105
763.810	0.0166567
763.888	0.0166241
763.966	0.0165819
764.044	0.0166296
764.122	0.0166174
764.200	0.0165512
764.279	0.0165541
764.357	0.0166598
764.435	0.0165820
764.513	0.0164941
764.591	0.0165759
764.669	0.0165006
764.747	0.0164471
764.825	0.0165407
764.904	0.0166241
764.982	0.0166946
765.060	0.0166078
765.138	0.0165994
765.216	0.0166687
765.294	0.0166660
765.372	0.0166146
765.450	0.0166875
765.529	0.0167507
765.607	0.0167221
765.685	0.0167973
765.763	0.0167181
765.841	0.0167050
765.919	0.0168040
765.997	0.0167676
766.075	0.0166195
766.154	0.0166186
766.232	0.0167670
766.310	0.0165766
766.388	0.0167828
766.466	0.0167902
766.544	0.0167786
766.622	0.0168378
766.700	0.0168913
766.779	0.0168153
766.857	0.0166462
766.935	0.0167021
767.013	0.0167524
767.091	0.0167026
767.169	0.0167410
767.247	0.0166846
767.325	0.0167123
767.404	0.0167358
767.482	0.0167443
767.560	0.0166577
767.638	0.0166566
767.716	0.0167921
767.794	0.0166521
767.872	0.0165631
767.950	0.0166794
768.029	0.0167443
768.107	0.0166273
768.185	0.0166407
768.263	0.0165760
768.341	0.0165969
768.419	0.0166569
768.497	0.0165894
768.575	0.0166090
768.654	0.0167487
768.732	0.0168187
768.810	0.0166750
768.888	0.0167076
768.966	0.0167921
769.044	0.0166817
769.122	0.0166166
769.200	0.0167094
769.279	0.0166283
769.357	0.0166868
769.435	0.0166755
769.513	0.0166322
769.591	0.0166228
769.669	0.0166541
769.747	0.0167064
769.825	0.0166515
769.904	0.0166482
769.982	0.0167735
770.060	0.0168300
770.138	0.0166579
770.216	0.0167591
770.294	0.0168163
770.372	0.0168823
770.450	0.0168290
770.529	0.0168517
770.607	0.0167854
770.685	0.0167358
770.763	0.0167902
770.841	0.0167779
770.919	0.0169597
770.997	0.0168108
771.075	0.0168055
771.154	0.0167982
771.232	0.0168111
771.310	0.0166946
771.388	0.0168092
771.466	0.0167546
771.544	0.0168130
771.622	0.0166708
771.700	0.0167529
771.779	0.0166814
771.857	0.0167005
771.935	0.0166134
772.013	0.0166694
772.091	0.0165490
772.169	0.0165247
772.247	0.0165911
772.325	0.0166342
772.404	0.0164889
772.482	0.0163955
772.560	0.0166846
772.638	0.0164958
772.716	0.0163940
772.794	0.0165416
772.872	0.0165867
772.950	0.0165363
773.029	0.0164674
773.107	0.0165150
773.185	0.0165083
773.263	0.0164203
773.341	0.0165681
773.419	0.0167699
773.497	0.0166397
773.575	0.0166663
773.654	0.0167310
773.732	0.0166015
773.810	0.0166918
773.888	0.0166647
773.966	0.0166086
774.044	0.0166776
774.122	0.0168119
774.200	0.0167780
774.279	0.0167483
774.357	0.0167239
774.435	0.0167946
774.513	0.0167667
774.591	0.0166329
774.669	0.0167088
774.747	0.0167546
774.825	0.0168571
774.904	0.0167064
774.982	0.0169065
775.060	0.0168703
775.138	0.0167804
775.216	0.0166141
775.294	0.0167777
775.372	0.0167675
775.450	0.0167687
775.529	0.0166148
775.607	0.0167653
775.685	0.0167383
775.763	0.0167766
775.841	0.0167884
775.919	0.0167429
775.997	0.0168270
776.075	0.0167666
776.154	0.0168075
776.232	0.0167365
776.310	0.0165849
776.388	0.0166948
776.466	0.0167435
776.544	0.0166999
776.622	0.0166656
776.700	0.0166047
776.779	0.0168477
776.857	0.0166476
776.935	0.0167112
777.013	0.0167906
777.091	0.0166066
777.169	0.0165618
777.247	0.0167226
777.325	0.0167342
777.404	0.0167059
777.482	0.0168277
777.560	0.0166753
777.638	0.0166097
777.716	0.0166030
777.794	0.0167822
777.872	0.0165594
777.950	0.0166151
778.029	0.0166848
778.107	0.0166212
778.185	0.0165883
778.263	0.0165885
778.341	0.0166521
778.419	0.0164893
778.497	0.0165783
778.575	0.0167182
778.654	0.0166796
778.732	0.0166975
778.810	0.0165996
778.888	0.0166524
778.966	0.0166579
779.044	0.0167511
779.122	0.0168299
779.200	0.0168087
779.279	0.0167921
779.357	0.0168530
779.435	0.0167986
779.513	0.0168132
779.591	0.0166952
779.669	0.0167611
779.747	0.0168095
779.825	0.0168367
779.904	0.0166385
779.982	0.0167638
780.060	0.0168015
780.138	0.0168496
780.216	0.0167478
780.294	0.0167355
780.372	0.0167046
780.450	0.0166615
780.529	0.0167196
780.607	0.0166084
780.685	0.0166792
780.763	0.0166676
780.841	0.0167267
780.919	0.0168091
780.997	0.0167003
781.075	0.0167088
781.154	0.0167132
781.232	0.0167150
781.310	0.0167248
781.388	0.0166465
781.466	0.0168557
781.544	0.0165376
781.622	0.0165727
781.700	0.0164939
781.779	0.0166402
781.857	0.0167772
781.935	0.0165698
782.013	0.0165983
782.091	0.0166518
782.169	0.0167524
782.247	0.0167920
782.325	0.0168254
782.404	0.0167017
782.482	0.0168442
782.560	0.0169567
782.638	0.0167451
782.716	0.0167048
782.794	0.0168432
782.872	0.0168404
782.950	0.0167511
783.029	0.0167489
783.107	0.0168148
783.185	0.0169374
783.263	0.0168612
783.341	0.0168624
783.419	0.0169135
783.497	0.0168653
783.575	0.0168523
783.654	0.0168362
783.732	0.0167823
783.810	0.0167968
783.888	0.0167934
783.966	0.0168149
784.044	0.0167326
784.122	0.0167166
784.200	0.0166128
784.279	0.0165703
784.357	0.0166924
784.435	0.0166253
784.513	0.0167586
784.591	0.0165752
784.669	0.0167073
784.747	0.0166264
784.825	0.0166309
784.904	0.0166892
784.982	0.0167441
785.060	0.0167394
785.138	0.0166321
785.216	0.0165684
785.294	0.0166980
785.372	0.0166981
785.450	0.0166418
785.529	0.0166699
785.607	0.0166212
785.685	0.0167150
785.763	0.0166022
785.841	0.0165224
785.919	0.0165444
785.997	0.0165665
786.075	0.0166398
786.154	0.0166721
786.232	0.0167681
786.310	0.0167229
786.388	0.0166708
786.466	0.0165020
786.544	0.0166551
786.622	0.0167438
786.700	0.0166502
786.779	0.0167331
786.857	0.0166782
786.935	0.0167440
787.013	0.0166639
787.091	0.0166880
787.169	0.0168102
787.247	0.0167699
787.325	0.0167282
787.404	0.0167741
787.482	0.0165505
787.560	0.0167563
787.638	0.0166531
787.716	0.0167382
787.794	0.0169253
787.872	0.0167833
787.950	0.0168239
788.029	0.0166720
788.107	0.0167100
788.185	0.0168472
788.263	0.0168068
788.341	0.0167043
788.419	0.0167456
788.497	0.0167484
788.575	0.0168172
788.654	0.0168910
788.732	0.0168147
788.810	0.0169537
788.888	0.0166793
788.966	0.0166879
789.044	0.0166440
789.122	0.0168497
789.200	0.0167660
789.279	0.0167326
789.357	0.0167632
789.435	0.0166812
789.513	0.0167377
789.591	0.0166168
789.669	0.0167126
789.747	0.0167040
789.825	0.0167317
789.904	0.0167735
789.982	0.0167213
790.060	0.0166464
790.138	0.0167057
790.216	0.0167316
790.294	0.0164240
790.372	0.0166511
790.450	0.0166786
790.529	0.0166056
790.607	0.0166509
790.685	0.0166508
790.763	0.0165839
790.841	0.0165695
790.919	0.0166868
790.997	0.0166835
791.075	0.0166080
791.154	0.0165952
791.232	0.0167474
791.310	0.0167329
791.388	0.0167773
791.466	0.0167599
791.544	0.0167374
791.622	0.0168141
791.700	0.0168156
791.779	0.0167499
791.857	0.0167712
791.935	0.0166922
792.013	0.0168456
792.091	0.0166767
792.169	0.0167733
792.247	0.0166308
792.325	0.0168520
792.404	0.0167570
792.482	0.0167096
792.560	0.0165869
792.638	0.0167317
792.716	0.0168259
792.794	0.0168349
792.872	0.0167857
792.950	0.0167690
793.029	0.0167561
793.107	0.0166131
793.185	0.0165283
793.263	0.0166897
793.341	0.0166379
793.419	0.0166178
793.497	0.0165775
793.575	0.0164936
793.654	0.0166779
793.732	0.0166216
793.810	0.0166454
793.888	0.0164914
793.966	0.0165838
794.044	0.0165215
794.122	0.0165466
794.200	0.0165341
794.279	0.0164567
794.357	0.0165334
794.435	0.0165976
794.513	0.0165421
794.591	0.0165723
794.669	0.0165623
794.747	0.0165774
794.825	0.0165797
794.904	0.0166046
794.982	0.0166195
795.060	0.0167210
795.138	0.0165369
795.216	0.0164882
795.294	0.0165034
795.372	0.0167233
795.450	0.0165165
795.529	0.0166443
795.607	0.0166290
795.685	0.0166652
795.763	0.0166012
795.841	0.0166198
795.919	0.0167223
795.997	0.0167538
796.075	0.0166117
796.154	0.0167394
796.232	0.0167989
796.310	0.0167642
796.388	0.0167499
796.466	0.0168333
796.544	0.0167447
796.622	0.0168379
796.700	0.0169173
796.779	0.0167333
796.857	0.0167698
796.935	0.0167750
797.013	0.0168090
797.091	0.0167400
797.169	0.0167353
797.247	0.0167039
797.325	0.0168106
797.404	0.0166322
797.482	0.0166802
797.560	0.0167346
797.638	0.0167454
797.716	0.0167232
797.794	0.0166760
797.872	0.0167191
797.950	0.0167099
798.029	0.0167585
798.107	0.0168008
798.185	0.0167292
798.263	0.0166515
798.341	0.0167028
798.419	0.0167393
798.497	0.0167969
798.575	0.0167260
798.654	0.0166854
798.732	0.0167246
798.810	0.0164786
798.888	0.0166212
798.966	0.0166039
799.044	0.0166555
799.122	0.0165743
799.200	0.0165664
799.279	0.0167271
799.357	0.0166638
799.435	0.0165543
799.513	0.0165786
799.591	0.0167159
799.669	0.0167160
799.747	0.0164864
799.825	0.0166911
799.904	0.0167165
799.982	0.0165340
800.060	0.0166418
800.138	0.0166958
800.216	0.0166371
800.294	0.0167159
800.372	0.0168006
800.450	0.0166826
800.529	0.0167443
800.607	0.0167548
800.685	0.0167715
800.763	0.0167033
800.841	0.0167830
800.919	0.0166899
800.997	0.0166943
801.075	0.0167555
801.154	0.0167040
801.232	0.0165108
801.310	0.0166955
801.388	0.0166349
801.466	0.0165616
801.544	0.0166674
801.622	0.0166086
801.700	0.0164795
801.779	0.0165586
801.857	0.0167474
801.935	0.0164598
802.013	0.0166228
802.091	0.0166173
802.169	0.0165356
802.247	0.0166487
802.325	0.0166264
802.404	0.0164477
802.482	0.0166218
802.560	0.0165869
802.638	0.0167243
802.716	0.0166595
802.794	0.0167195
802.872	0.0167229
802.950	0.0165450
803.029	0.0166073
803.107	0.0166590
803.185	0.0167081
803.263	0.0167193
803.341	0.0165975
803.419	0.0166444
803.497	0.0167289
803.575	0.0166936
803.654	0.0166370
803.732	0.0167746
803.810	0.0167137
803.888	0.0167665
803.966	0.0167506
804.044	0.0168778
804.122	0.0168524
804.200	0.0167830
804.279	0.0167580
804.357	0.0168100
804.435	0.0167812
804.513	0.0167876
804.591	0.0168512
804.669	0.0167339
804.747	0.0168051
804.825	0.0169846
804.904	0.0168777
804.982	0.0166956
805.060	0.0167942
805.138	0.0167331
805.216	0.0167585
805.294	0.0167635
805.372	0.0167459
805.450	0.0167799
805.529	0.0167027
805.607	0.0166098
805.685	0.0167366
805.763	0.0167028
805.841	0.0167820
805.919	0.0167580
805.997	0.0166825
806.075	0.0167847
806.154	0.0167141
806.232	0.0166460
806.310	0.0166961
806.388	0.0167560
806.466	0.0166184
806.544	0.0168090
806.622	0.0166444
806.700	0.0166485
806.779	0.0166482
806.857	0.0167506
806.935	0.0166393
807.013	0.0166072
807.091	0.0165824
807.169	0.0165901
807.247	0.0166785
807.325	0.0164848
807.404	0.0164890
807.482	0.0167799
807.560	0.0166898
807.638	0.0166940
807.716	0.0167923
807.794	0.0167078
807.872	0.0165328
807.950	0.0165150
808.029	0.0166516
808.107	0.0166985
808.185	0.0165620
808.263	0.0166635
808.341	0.0165369
808.419	0.0166408
808.497	0.0166747
808.575	0.0166438
808.654	0.0165676
808.732	0.0165382
808.810	0.0168419
808.888	0.0167246
808.966	0.0165508
809.044	0.0166953
809.122	0.0168171
809.200	0.0166568
809.279	0.0166155
809.357	0.0167497
809.435	0.0167341
809.513	0.0167413
809.591	0.0167369
809.669	0.0167303
809.747	0.0167593
809.825	0.0167698
809.904	0.0168108
809.982	0.0167110
810.060	0.0168381
810.138	0.0167663
810.216	0.0167676
810.294	0.0167547
810.372	0.0168121
810.450	0.0166938
810.529	0.0166169
810.607	0.0166944
810.685	0.0167212
810.763	0.0168440
810.841	0.0167339
810.919	0.0166240
810.997	0.0167177
811.075	0.0167569
811.154	0.0166196
811.232	0.0166534
811.310	0.0166106
811.388	0.0166521
811.466	0.0167127
811.544	0.0165634
811.622	0.0165369
811.700	0.0167849
811.779	0.0165298
811.857	0.0166241
811.935	0.0164867
812.013	0.0165987
812.091	0.0165642
812.169	0.0163959
812.247	0.0163997
812.325	0.0165347
812.404	0.0165434
812.482	0.0166923
812.560	0.0165794
812.638	0.0165587
812.716	0.0166574
812.794	0.0165254
812.872	0.0167227
812.950	0.0167456
813.029	0.0166143
813.107	0.0166999
813.185	0.0166654
813.263	0.0167931
813.341	0.0167548
813.419	0.0167630
813.497	0.0167429
813.575	0.0168322
813.654	0.0168536
813.732	0.0168649
813.810	0.0168457
813.888	0.0168101
813.966	0.0167220
814.044	0.0167507
814.122	0.0168134
814.200	0.0167812
814.279	0.0167184
814.357	0.0168604
814.435	0.0168536
814.513	0.0167984
814.591	0.0166623
814.669	0.0166451
814.747	0.0167149
814.825	0.0166895
814.904	0.0167278
814.982	0.0167179
815.060	0.0167552
815.138	0.0166346
815.216	0.0166665
815.294	0.0167345
815.372	0.0167419
815.450	0.0165956
815.529	0.0166665
815.607	0.0166380
815.685	0.0166869
815.763	0.0166853
815.841	0.0167057
815.919	0.0166273
815.997	0.0167290
816.075	0.0166237
816.154	0.0166025
816.232	0.0166005
816.310	0.0166835
816.388	0.0166692
816.466	0.0166605
816.544	0.0165351
816.622	0.0167023
816.700	0.0165257
816.779	0.0165096
816.857	0.0165321
816.935	0.0166496
817.013	0.0165890
817.091	0.0166723
817.169	0.0166576
817.247	0.0166756
817.325	0.0165822
817.404	0.0167140
817.482	0.0166536
817.560	0.0166904
817.638	0.0165944
817.716	0.0166720
817.794	0.0167979
817.872	0.0167059
817.950	0.0165808
818.029	0.0165972
818.107	0.0167718
818.185	0.0167361
818.263	0.0167252
818.341	0.0166690
818.419	0.0166988
818.497	0.0166348
818.575	0.0167310
818.654	0.0168306
818.732	0.0167932
818.810	0.0166103
818.888	0.0167838
818.966	0.0168237
819.044	0.0167767
819.122	0.0168629
819.200	0.0168767
819.279	0.0168063
819.357	0.0168130
819.435	0.0169586
819.513	0.0169378
819.591	0.0168966
819.669	0.0168732
819.747	0.0169363
819.825	0.0168497
819.904	0.0167934
819.982	0.0170861
820.060	0.0169859
820.138	0.0168861
820.216	0.0167216
820.294	0.0168159
820.372	0.0167725
820.450	0.0168949
820.529	0.0167973
820.607	0.0166451
820.685	0.0164833
820.763	0.0167342
820.841	0.0166897
820.919	0.0165266
820.997	0.0165786
821.075	0.0164546
821.154	0.0165410
821.232	0.0165142
821.310	0.0163917
821.388	0.0164786
821.466	0.0164186
821.544	0.0164022
821.622	0.0164168
821.700	0.0167281
821.779	0.0164571
821.857	0.0165223
821.935	0.0166455
822.013	0.0166527
822.091	0.0166145
822.169	0.0167330
822.247	0.0167735
822.325	0.0166872
822.404	0.0167014
822.482	0.0167352
822.560	0.0167715
822.638	0.0166878
822.716	0.0167192
822.794	0.0167075
822.872	0.0167895
822.950	0.0167375
823.029	0.0166657
823.107	0.0165762
823.185	0.0166840
823.263	0.0167127
823.341	0.0166541
823.419	0.0167673
823.497	0.0166129
823.575	0.0165899
823.654	0.0167052
823.732	0.0167192
823.810	0.0166851
823.888	0.0167181
823.966	0.0166878
824.044	0.0167039
824.122	0.0167641
824.200	0.0166615
824.279	0.0167817
824.357	0.0168648
824.435	0.0167701
824.513	0.0166885
824.591	0.0168327
824.669	0.0167385
824.747	0.0166029
824.825	0.0168570
824.904	0.0166786
824.982	0.0167005
825.060	0.0167609
825.138	0.0165636
825.216	0.0166920
825.294	0.0167080
825.372	0.0166427
825.450	0.0164803
825.529	0.0166565
825.607	0.0166789
825.685	0.0165889
825.763	0.0166114
825.841	0.0166521
825.919	0.0167484
825.997	0.0165031
826.075	0.0164954
826.154	0.0166840
826.232	0.0166156
826.310	0.0166129
826.388	0.0165392
826.466	0.0164643
826.544	0.0166978
826.622	0.0166287
826.700	0.0166380
826.779	0.0167680
826.857	0.0166955
826.935	0.0166625
827.013	0.0167525
827.091	0.0167078
827.169	0.0166627
827.247	0.0166618
827.325	0.0167188
827.404	0.0166787
827.482	0.0166315
827.560	0.0167570
827.638	0.0167838
827.716	0.0168185
827.794	0.0167886
827.872	0.0169133
827.950	0.0166785
828.029	0.0167973
828.107	0.0167765
828.185	0.0166767
828.263	0.0166839
828.341	0.0167899
828.419	0.0167854
828.497	0.0168166
828.575	0.0168707
828.654	0.0167532
828.732	0.0166576
828.810	0.0167178
828.888	0.0167562
828.966	0.0167826
829.044	0.0168307
829.122	0.0166376
829.200	0.0166335
829.279	0.0167475
829.357	0.0167162
829.435	0.0167281
829.513	0.0167355
829.591	0.0166404
829.669	0.0166444
829.747	0.0168042
829.825	0.0167820
829.904	0.0167282
829.982	0.0167857
830.060	0.0167677
830.138	0.0168112
830.216	0.0166112
830.294	0.0167123
830.372	0.0165611
830.450	0.0167378
830.529	0.0167178
830.607	0.0168087
830.685	0.0166576
830.763	0.0166158
830.841	0.0166285
830.919	0.0165549
830.997	0.0166203
831.075	0.0167444
831.154	0.0166866
831.232	0.0166370
831.310	0.0167342
831.388	0.0167580
831.466	0.0166595
831.544	0.0165783
831.622	0.0168472
831.700	0.0166908
831.779	0.0166955
831.857	0.0166927
831.935	0.0166937
832.013	0.0167152
832.091	0.0167131
832.169	0.0168041
832.247	0.0167377
832.325	0.0167362
832.404	0.0168433
832.482	0.0168526
832.560	0.0167264
832.638	0.0166983
832.716	0.0167851
832.794	0.0166107
832.872	0.0167458
832.950	0.0168917
833.029	0.0167834
833.107	0.0167500
833.185	0.0167635
833.263	0.0167590
833.341	0.0167319
833.419	0.0166972
833.497	0.0167641
833.575	0.0167287
833.654	0.0166241
833.732	0.0167898
833.810	0.0166663
833.888	0.0167046
833.966	0.0165794
834.044	0.0167021
834.122	0.0166682
834.200	0.0167662
834.279	0.0165894
834.357	0.0165247
834.435	0.0165980
834.513	0.0166824
834.591	0.0165884
834.669	0.0165366
834.747	0.0165257
834.825	0.0165796
834.904	0.0166961
834.982	0.0165156
835.060	0.0164360
835.138	0.0165611
835.216	0.0167125
835.294	0.0166129
835.372	0.0167297
835.450	0.0166972
835.529	0.0167209
835.607	0.0166621
835.685	0.0165888
835.763	0.0166203
835.841	0.0168210
835.919	0.0167827
835.997	0.0166959
836.075	0.0166214
836.154	0.0167173
836.232	0.0165757
836.310	0.0167243
836.388	0.0168073
836.466	0.0167644
836.544	0.0166591
836.622	0.0167120
836.700	0.0168663
836.779	0.0167833
836.857	0.0167109
836.935	0.0168055
837.013	0.0168346
837.091	0.0168510
837.169	0.0169113
837.247	0.0169199
837.325	0.0167580
837.404	0.0169029
837.482	0.0169317
837.560	0.0168409
837.638	0.0168523
837.716	0.0170562
837.794	0.0168414
837.872	0.0168592
837.950	0.0169815
838.029	0.0168211
838.107	0.0168216
838.185	0.0167448
838.263	0.0167519
838.341	0.0168011
838.419	0.0166941
838.497	0.0166421
838.575	0.0167462
838.654	0.0167760
838.732	0.0166163
838.810	0.0165158
838.888	0.0164812
838.966	0.0164028
839.044	0.0164998
839.122	0.0163581
839.200	0.0164098
839.279	0.0163503
839.357	0.0164467
839.435	0.0163286
839.513	0.0164100
839.591	0.0164079
839.669	0.0164282
839.747	0.0164935
839.825	0.0164618
839.904	0.0164456
839.982	0.0164962
840.060	0.0165339
840.138	0.0163474
840.216	0.0166894
840.294	0.0167760
840.372	0.0167929
840.450	0.0166312
840.529	0.0168663
840.607	0.0168054
840.685	0.0169132
840.763	0.0169688
840.841	0.0170024
840.919	0.0169424
840.997	0.0170028
841.075	0.0170550
841.154	0.0170038
841.232	0.0169812
841.310	0.0169039
841.388	0.0169968
841.466	0.0170003
841.544	0.0169504
841.622	0.0169751
841.700	0.0168691
841.779	0.0167791
841.857	0.0168603
841.935	0.0167061
842.013	0.0167245
842.091	0.0166866
842.169	0.0166833
842.247	0.0166228
842.325	0.0165434
842.404	0.0165981
842.482	0.0164568
842.560	0.0166135
842.638	0.0164870
842.716	0.0164213
842.794	0.0165781
842.872	0.0165302
842.950	0.0164689
843.029	0.0166326
843.107	0.0166361
843.185	0.0166029
843.263	0.0166447
843.341	0.0165755
843.419	0.0166774
843.497	0.0166485
843.575	0.0167426
843.654	0.0166890
843.732	0.0165980
843.810	0.0166022
843.888	0.0168720
843.966	0.0167038
844.044	0.0166397
844.122	0.0168092
844.200	0.0167838
844.279	0.0167755
844.357	0.0168166
844.435	0.0167549
844.513	0.0167264
844.591	0.0167036
844.669	0.0168202
844.747	0.0167599
844.825	0.0167308
844.904	0.0167912
844.982	0.0167882
845.060	0.0167181
845.138	0.0166848
845.216	0.0166795
845.294	0.0168212
845.372	0.0168574
845.450	0.0167753
845.529	0.0167262
845.607	0.0167660
845.685	0.0168060
845.763	0.0167910
845.841	0.0168179
845.919	0.0167482
845.997	0.0168279
846.075	0.0168620
846.154	0.0166857
846.232	0.0167670
846.310	0.0168041
846.388	0.0166533
846.466	0.0166469
846.544	0.0167061
846.622	0.0166543
846.700	0.0166467
846.779	0.0165779
846.857	0.0165052
846.935	0.0165479
847.013	0.0165337
847.091	0.0164139
847.169	0.0165058
847.247	0.0164344
847.325	0.0163155
847.404	0.0165308
847.482	0.0164741
847.560	0.0164545
847.638	0.0163747
847.716	0.0165045
847.794	0.0165900
847.872	0.0164906
847.950	0.0165620
848.029	0.0166914
848.107	0.0165763
848.185	0.0166111
848.263	0.0166868
848.341	0.0167392
848.419	0.0167734
848.497	0.0167633
848.575	0.0168379
848.654	0.0168201
848.732	0.0167840
848.810	0.0169426
848.888	0.0168701
848.966	0.0169314
849.044	0.0169266
849.122	0.0169311
849.200	0.0169456
849.279	0.0168589
849.357	0.0170641
849.435	0.0169762
849.513	0.0168992
849.591	0.0169086
849.669	0.0167249
849.747	0.0167598
849.825	0.0168939
849.904	0.0168391
849.982	0.0166885
850.060	0.0166252
850.138	0.0167036
850.216	0.0164848
850.294	0.0166643
850.372	0.0165290
850.450	0.0165394
850.529	0.0164620
850.607	0.0164194
850.685	0.0164909
850.763	0.0163702
850.841	0.0163237
850.919	0.0163763
850.997	0.0163071
851.075	0.0164669
851.154	0.0163573
851.232	0.0163648
851.310	0.0164132
851.388	0.0164767
851.466	0.0163418
851.544	0.0163666
851.622	0.0166230
851.700	0.0165880
851.779	0.0167373
851.857	0.0166706
851.935	0.0167051
852.013	0.0167381
852.091	0.0167227
852.169	0.0166998
852.247	0.0169014
852.325	0.0168423
852.404	0.0167687
852.482	0.0168754
852.560	0.0169083
852.638	0.0169756
852.716	0.0169637
852.794	0.0170399
852.872	0.0169070
852.950	0.0168587
853.029	0.0169459
853.107	0.0169161
853.185	0.0169495
853.263	0.0170258
853.341	0.0169671
853.419	0.0168916
853.497	0.0168386
853.575	0.0169706
853.654	0.0168923
853.732	0.0169399
853.810	0.0168423
853.888	0.0169062
853.966	0.0169006
854.044	0.0169863
854.122	0.0168491
854.200	0.0168941
854.279	0.0168219
854.357	0.0168554
854.435	0.0168120
854.513	0.0167628
854.591	0.0167813
854.669	0.0167270
854.747	0.0166437
854.825	0.0167253
854.904	0.0165858
854.982	0.0166475
855.060	0.0166141
855.138	0.0163137
855.216	0.0164142
855.294	0.0164645
855.372	0.0164680
855.450	0.0164033
855.529	0.0164730
855.607	0.0164245
855.685	0.0164066
855.763	0.0163870
855.841	0.0164436
855.919	0.0165248
855.997	0.0167461
856.075	0.0166396
856.154	0.0165783
856.232	0.0165256
856.310	0.0165124
856.388	0.0165499
856.466	0.0166695
856.544	0.0166727
856.622	0.0166113
856.700	0.0168210
856.779	0.0167339
856.857	0.0168150
856.935	0.0167766
857.013	0.0169093
857.091	0.0168500
857.169	0.0169482
857.247	0.0170037
857.325	0.0169474
857.404	0.0169673
857.482	0.0169273
857.560	0.0168519
857.638	0.0168911
857.716	0.0168419
857.794	0.0168664
857.872	0.0168329
857.950	0.0168903
858.029	0.0169742
858.107	0.0168517
858.185	0.0169268
858.263	0.0169677
858.341	0.0167736
858.419	0.0168773
858.497	0.0168027
858.575	0.0169498
858.654	0.0168488
858.732	0.0167585
858.810	0.0168745
858.888	0.0168205
858.966	0.0168508
859.044	0.0167866
859.122	0.0166961
859.200	0.0167950
859.279	0.0168144
859.357	0.0166596
859.435	0.0167097
859.513	0.0166158
859.591	0.0166560
859.669	0.0165636
859.747	0.0164925
859.825	0.0164884
859.904	0.0165057
859.982	0.0164713
860.060	0.0164646
860.138	0.0165063
860.216	0.0163930
860.294	0.0164841
860.372	0.0164425
860.450	0.0163710
860.529	0.0165047
860.607	0.0165985
860.685	0.0165656
860.763	0.0166161
860.841	0.0166499
860.919	0.0165111
860.997	0.0166157
861.075	0.0167262
861.154	0.0168044
861.232	0.0167909
861.310	0.0168938
861.388	0.0169276
861.466	0.0169241
861.544	0.0169846
861.622	0.0169522
861.700	0.0169756
861.779	0.0170210
861.857	0.0170187
861.935	0.0170032
862.013	0.0170709
862.091	0.0170557
862.169	0.0169919
862.247	0.0170363
862.325	0.0169447
862.404	0.0169144
862.482	0.0169519
862.560	0.0168513
862.638	0.0170824
862.716	0.0169827
862.794	0.0166765
862.872	0.0168654
862.950	0.0168957
863.029	0.0169106
863.107	0.0166745
863.185	0.0167503
863.263	0.0167806
863.341	0.0166921
863.419	0.0167397
863.497	0.0167220
863.575	0.0166756
863.654	0.0167218
863.732	0.0167102
863.810	0.0166779
863.888	0.0166599
863.966	0.0166320
864.044	0.0166090
864.122	0.0166502
864.200	0.0166542
864.279	0.0165448
864.357	0.0166053
864.435	0.0165600
864.513	0.0165300
864.591	0.0166036
864.669	0.0165958
864.747	0.0166322
864.825	0.0165501
864.904	0.0166966
864.982	0.0165272
865.060	0.0165602
865.138	0.0165340
865.216	0.0165170
865.294	0.0165057
865.372	0.0165650
865.450	0.0165121
865.529	0.0164370
865.607	0.0166938
865.685	0.0165629
865.763	0.0165350
865.841	0.0166707
865.919	0.0166555
865.997	0.0167760
866.075	0.0166857
866.154	0.0166803
866.232	0.0169047
866.310	0.0167483
866.388	0.0166714
866.466	0.0168110
866.544	0.0168203
866.622	0.0168411
866.700	0.0168137
866.779	0.0168545
866.857	0.0167609
866.935	0.0168170
867.013	0.0168137
867.091	0.0168578
867.169	0.0168217
867.247	0.0168245
867.325	0.0169592
867.404	0.0167952
867.482	0.0168124
867.560	0.0169008
867.638	0.0168439
867.716	0.0168855
867.794	0.0167243
867.872	0.0166281
867.950	0.0167777
868.029	0.0166719
868.107	0.0165857
868.185	0.0166637
868.263	0.0167050
868.341	0.0166889
868.419	0.0166457
868.497	0.0166685
868.575	0.0167352
868.654	0.0166417
868.732	0.0166557
868.810	0.0165678
868.888	0.0165666
868.966	0.0166903
869.044	0.0169251
869.122	0.0168083
869.200	0.0166713
869.279	0.0167035
869.357	0.0166178
869.435	0.0168176
869.513	0.0168147
869.591	0.0166934
869.669	0.0166999
869.747	0.0166625
869.825	0.0168446
869.904	0.0167752
869.982	0.0166135
870.060	0.0167518
870.138	0.0168208
870.216	0.0167480
870.294	0.0168259
870.372	0.0166291
870.450	0.0166196
870.529	0.0166978
870.607	0.0166905
870.685	0.0165569
870.763	0.0167818
870.841	0.0166885
870.919	0.0165023
870.997	0.0165141
871.075	0.0166048
871.154	0.0167368
871.232	0.0166713
871.310	0.0166475
871.388	0.0166371
871.466	0.0165249
871.544	0.0165292
871.622	0.0165812
871.700	0.0166302
871.779	0.0166379
871.857	0.0166123
871.935	0.0167134
872.013	0.0165365
872.091	0.0166221
872.169	0.0166525
872.247	0.0165951
872.325	0.0165405
872.404	0.0166334
872.482	0.0166209
872.560	0.0165259
872.638	0.0166361
872.716	0.0165958
872.794	0.0164726
872.872	0.0164819
872.950	0.0165295
873.029	0.0165577
873.107	0.0165786
873.185	0.0166056
873.263	0.0165462
873.341	0.0164727
873.419	0.0165797
873.497	0.0166565
873.575	0.0167233
873.654	0.0166609
873.732	0.0165435
873.810	0.0167934
873.888	0.0168826
873.966	0.0166739
874.044	0.0166918
874.122	0.0168974
874.200	0.0168954
874.279	0.0167989
874.357	0.0167758
874.435	0.0168755
874.513	0.0169009
874.591	0.0169386
874.669	0.0168571
874.747	0.0167917
874.825	0.0170401
874.904	0.0169993
874.982	0.0170393
875.060	0.0169865
875.138	0.0169087
875.216	0.0169203
875.294	0.0171467
875.372	0.0169000
875.450	0.0169460
875.529	0.0169347
875.607	0.0169277
875.685	0.0168829
875.763	0.0168115
875.841	0.0169179
875.919	0.0168308
875.997	0.0168837
876.075	0.0167258
876.154	0.0166845
876.232	0.0167815
876.310	0.0167233
876.388	0.0167759
876.466	0.0166788
876.544	0.0164796
876.622	0.0164905
876.700	0.0165671
876.779	0.0166506
876.857	0.0164812
876.935	0.0163908
877.013	0.0164620
877.091	0.0164162
877.169	0.0163734
877.247	0.0164510
877.325	0.0163092
877.404	0.0163169
877.482	0.0163961
877.560	0.0163330
877.638	0.0163573
877.716	0.0163758
877.794	0.0163712
877.872	0.0164339
877.950	0.0163336
878.029	0.0163454
878.107	0.0163663
878.185	0.0164503
878.263	0.0164581
878.341	0.0164627
878.419	0.0165887
878.497	0.0165536
878.575	0.0164473
878.654	0.0165242
878.732	0.0167942
878.810	0.0167897
878.888	0.0166540
878.966	0.0167479
879.044	0.0169328
879.122	0.0168147
879.200	0.0168007
879.279	0.0169058
879.357	0.0169920
879.435	0.0170992
879.513	0.0168121
879.591	0.0168831
879.669	0.0169789
879.747	0.0170001
879.825	0.0169039
879.904	0.0170310
879.982	0.0168008
880.060	0.0170796
880.138	0.0169342
880.216	0.0168195
880.294	0.0170144
880.372	0.0168625
880.450	0.0167667
880.529	0.0168761
880.607	0.0168212
880.685	0.0167818
880.763	0.0167115
880.841	0.0167943
880.919	0.0167787
880.997	0.0166235
881.075	0.0166888
881.154	0.0167270
881.232	0.0165900
881.310	0.0166756
881.388	0.0166141
881.466	0.0166820
881.544	0.0166779
881.622	0.0167190
881.700	0.0168655
881.779	0.0167560
881.857	0.0164639
881.935	0.0166610
882.013	0.0168160
882.091	0.0168623
882.169	0.0166612
882.247	0.0167025
882.325	0.0168516
882.404	0.0166444
882.482	0.0166853
882.560	0.0166261
882.638	0.0167356
882.716	0.0166687
882.794	0.0168858
882.872	0.0167207
882.950	0.0166650
883.029	0.0167564
883.107	0.0167983
883.185	0.0168076
883.263	0.0166401
883.341	0.0166766
883.419	0.0167767
883.497	0.0165689
883.575	0.0165845
883.654	0.0166038
883.732	0.0166534
883.810	0.0166061
883.888	0.0166139
883.966	0.0166188
884.044	0.0165073
884.122	0.0164970
884.200	0.0165979
884.279	0.0163855
884.357	0.0164568
884.435	0.0165385
884.513	0.0165025
884.591	0.0165398
884.669	0.0164355
884.747	0.0164822
884.825	0.0165051
884.904	0.0164679
884.982	0.0164878
885.060	0.0165842
885.138	0.0165501
885.216	0.0166035
885.294	0.0166193
885.372	0.0166278
885.450	0.0167291
885.529	0.0168028
885.607	0.0167771
885.685	0.0166573
885.763	0.0168649
885.841	0.0168209
885.919	0.0167978
885.997	0.0169616
886.075	0.0169366
886.154	0.0169845
886.232	0.0168959
886.310	0.0169111
886.388	0.0170290
886.466	0.0169582
886.544	0.0170129
886.622	0.0168985
886.700	0.0169462
886.779	0.0170094
886.857	0.0169444
886.935	0.0167519
887.013	0.0168190
887.091	0.0168013
887.169	0.0167416
887.247	0.0167110
887.325	0.0167582
887.404	0.0166344
887.482	0.0166573
887.560	0.0168240
887.638	0.0166158
887.716	0.0166454
887.794	0.0167118
887.872	0.0166821
887.950	0.0166951
888.029	0.0165818
888.107	0.0167405
888.185	0.0166383
888.263	0.0165457
888.341	0.0166705
888.419	0.0166755
888.497	0.0166532
888.575	0.0164212
888.654	0.0166966
888.732	0.0165208
888.810	0.0166843
888.888	0.0166285
888.966	0.0165453
889.044	0.0165452
889.122	0.0165781
889.200	0.0166543
889.279	0.0165973
889.357	0.0166074
889.435	0.0166491
889.513	0.0166637
889.591	0.0167012
889.669	0.0166624
889.747	0.0164872
889.825	0.0165250
889.904	0.0165869
889.982	0.0166940
890.060	0.0166461
890.138	0.0166136
890.216	0.0166917
890.294	0.0168027
890.372	0.0167233
890.450	0.0167057
890.529	0.0167521
890.607	0.0167509
890.685	0.0168485
890.763	0.0168628
890.841	0.0168147
890.919	0.0168729
890.997	0.0168381
891.075	0.0170673
891.154	0.0168276
891.232	0.0168986
891.310	0.0169502
891.388	0.0167651
891.466	0.0168591
891.544	0.0169233
891.622	0.0169662
891.700	0.0169085
891.779	0.0168843
891.857	0.0167272
891.935	0.0166962
892.013	0.0168037
892.091	0.0168695
892.169	0.0165383
892.247	0.0166685
892.325	0.0168004
892.404	0.0166457
892.482	0.0166321
892.560	0.0164978
892.638	0.0166035
892.716	0.0164979
892.794	0.0166107
892.872	0.0164430
892.950	0.0166023
893.029	0.0166521
893.107	0.0165296
893.185	0.0166428
893.263	0.0166485
893.341	0.0165051
893.419	0.0165599
893.497	0.0164479
893.575	0.0165148
893.654	0.0165788
893.732	0.0166423
893.810	0.0166589
893.888	0.0166620
893.966	0.0166817
894.044	0.0167499
894.122	0.0167307
894.200	0.0165763
894.279	0.0166827
894.357	0.0166556
894.435	0.0166145
894.513	0.0167059
894.591	0.0166891
894.669	0.0168024
894.747	0.0167056
894.825	0.0167839
894.904	0.0167561
894.982	0.0166690
895.060	0.0167088
895.138	0.0166654
895.216	0.0167550
895.294	0.0169154
895.372	0.0168060
895.450	0.0169081
895.529	0.0168301
895.607	0.0168198
895.685	0.0167703
895.763	0.0167969
895.841	0.0168423
895.919	0.0168369
895.997	0.0168119
896.075	0.0169471
896.154	0.0168378
896.232	0.0167822
896.310	0.0167701
896.388	0.0166881
896.466	0.0166257
896.544	0.0166647
896.622	0.0165954
896.700	0.0165511
896.779	0.0163875
896.857	0.0165378
896.935	0.0166358
897.013	0.0165351
897.091	0.0165781
897.169	0.0166839
897.247	0.0166460
897.325	0.0167297
897.404	0.0166576
897.482	0.0167152
897.560	0.0166348
897.638	0.0166456
897.716	0.0166799
897.794	0.0167286
897.872	0.0167097
897.950	0.0164993
898.029	0.0167316
898.107	0.0167277
898.185	0.0166388
898.263	0.0167744
898.341	0.0167445
898.419	0.0166561
898.497	0.0166736
898.575	0.0168952
898.654	0.0168663
898.732	0.0168345
898.810	0.0167596
898.888	0.0167123
898.966	0.0167847
899.044	0.0168044
899.122	0.0168772
899.200	0.0168981
899.279	0.0167549
899.357	0.0166778
899.435	0.0168088
899.513	0.0166963
899.591	0.0166531
899.669	0.0166536
899.747	0.0166328
899.825	0.0166586
899.904	0.0166987
899.982	0.0166274
900.060	0.0166727
900.138	0.0166974
900.216	0.0166605
900.294	0.0166575
900.372	0.0166000
900.450	0.0165506
900.529	0.0164907
900.607	0.0165694
900.685	0.0165549
900.763	0.0165733
900.841	0.0166743
900.919	0.0166693
900.997	0.0166626
901.075	0.0166898
901.154	0.0167110
901.232	0.0166074
901.310	0.0166627
901.388	0.0166588
901.466	0.0167933
901.544	0.0167617
901.622	0.0167156
901.700	0.0166386
901.779	0.0166513
901.857	0.0166572
901.935	0.0167122
902.013	0.0166950
902.091	0.0166793
902.169	0.0168051
902.247	0.0166560
902.325	0.0166732
902.404	0.0167176
902.482	0.0167467
902.560	0.0166389
902.638	0.0166649
902.716	0.0167657
902.794	0.0166642
902.872	0.0167448
902.950	0.0167594
903.029	0.0166105
903.107	0.0166950
903.185	0.0167384
903.263	0.0166357
903.341	0.0166821
903.419	0.0166943
903.497	0.0167955
903.575	0.0167461
903.654	0.0167505
903.732	0.0166616
903.810	0.0168858
903.888	0.0167696
903.966	0.0166498
904.044	0.0168922
904.122	0.0167401
904.200	0.0167445
904.279	0.0167300
904.357	0.0167516
904.435	0.0166923
904.513	0.0167469
904.591	0.0167433
904.669	0.0168068
904.747	0.0167473
904.825	0.0167203
904.904	0.0165992
904.982	0.0166739
905.060	0.0166940
905.138	0.0168169
905.216	0.0166173
905.294	0.0167056
905.372	0.0166128
905.450	0.0166994
905.529	0.0167390
905.607	0.0166096
905.685	0.0166802
905.763	0.0168381
905.841	0.0167207
905.919	0.0165832
905.997	0.0167686
906.075	0.0167242
906.154	0.0166200
906.232	0.0166535
906.310	0.0165900
906.388	0.0167821
906.466	0.0166658
906.544	0.0166879
906.622	0.0167170
906.700	0.0166786
906.779	0.0166142
906.857	0.0167296
906.935	0.0166020
907.013	0.0166903
907.091	0.0166475
907.169	0.0165968
907.247	0.0165553
907.325	0.0166265
907.404	0.0166193
907.482	0.0164565
907.560	0.0164610
907.638	0.0165851
907.716	0.0166071
907.794	0.0165482
907.872	0.0165747
907.950	0.0166435
908.029	0.0165376
908.107	0.0166061
908.185	0.0167926
908.263	0.0165714
908.341	0.0165936
908.419	0.0167131
908.497	0.0166087
908.575	0.0166759
908.654	0.0167509
908.732	0.0168291
908.810	0.0166061
908.888	0.0165791
908.966	0.0166277
909.044	0.0167174
909.122	0.0165756
909.200	0.0165975
909.279	0.0166238
909.357	0.0166557
909.435	0.0166616
909.513	0.0166936
909.591	0.0167396
909.669	0.0165967
909.747	0.0167960
909.825	0.0168587
909.904	0.0166609
909.982	0.0167902
910.060	0.0168068
910.138	0.0168312
910.216	0.0167273
910.294	0.0168209
910.372	0.0167147
910.450	0.0167908
910.529	0.0168256
910.607	0.0168052
910.685	0.0168060
910.763	0.0168246
910.841	0.0167645
910.919	0.0167310
910.997	0.0167977
911.075	0.0167937
911.154	0.0167800
911.232	0.0167089
911.310	0.0167367
911.388	0.0168035
911.466	0.0166949
911.544	0.0166695
911.622	0.0166944
911.700	0.0165739
911.779	0.0166606
911.857	0.0166096
911.935	0.0165823
912.013	0.0165280
912.091	0.0164632
912.169	0.0165002
912.247	0.0166424
912.325	0.0166044
912.404	0.0164688
912.482	0.0165524
912.560	0.0165427
912.638	0.0164498
912.716	0.0165643
912.794	0.0165241
912.872	0.0165837
912.950	0.0165960
913.029	0.0167802
913.107	0.0168314
913.185	0.0168122
913.263	0.0168074
913.341	0.0168281
913.419	0.0167214
913.497	0.0166721
913.575	0.0167462
913.654	0.0166359
913.732	0.0168066
913.810	0.0167610
913.888	0.0167506
913.966	0.0167084
914.044	0.0167580
914.122	0.0166417
914.200	0.0165314
914.279	0.0166372
914.357	0.0165871
914.435	0.0165612
914.513	0.0165084
914.591	0.0166473
914.669	0.0165099
914.747	0.0163860
914.825	0.0165120
914.904	0.0164963
914.982	0.0165144
915.060	0.0166018
915.138	0.0167294
915.216	0.0166077
915.294	0.0167120
915.372	0.0166140
915.450	0.0167682
915.529	0.0168073
915.607	0.0168301
915.685	0.0168886
915.763	0.0167887
915.841	0.0168339
915.919	0.0169676
915.997	0.0168069
916.075	0.0169403
916.154	0.0169038
916.232	0.0168661
916.310	0.0169221
916.388	0.0170004
916.466	0.0167995
916.544	0.0168877
916.622	0.0168253
916.700	0.0168946
916.779	0.0169801
916.857	0.0169078
916.935	0.0168079
917.013	0.0167924
917.091	0.0169205
917.169	0.0167313
917.247	0.0166609
917.325	0.0167612
917.404	0.0166105
917.482	0.0166585
917.560	0.0166673
917.638	0.0166206
917.716	0.0166823
917.794	0.0167101
917.872	0.0166103
917.950	0.0166445
918.029	0.0165500
918.107	0.0165508
918.185	0.0164365
918.263	0.0165522
918.341	0.0166517
918.419	0.0164812
918.497	0.0166009
918.575	0.0165523
918.654	0.0165894
918.732	0.0165613
918.810	0.0164494
918.888	0.0166324
918.966	0.0165531
919.044	0.0165668
919.122	0.0165826
919.200	0.0166096
919.279	0.0167548
919.357	0.0165997
919.435	0.0166907
919.513	0.0166978
919.591	0.0167645
919.669	0.0168483
919.747	0.0167342
919.825	0.0166867
919.904	0.0168082
