06/01/2022	17:37:11	Ver.	4.1	UNKNOWN
Optical Delay	539.993571	Delta X		0.078125	Sweeps	1	Scan Rate	0/0
Coordinates	Axis 1	NaN	Axis 2	NaN	Axis 3	NaN	Axis 4	NaN	Axis 5	NaN	Axis 6	0.000000
TX Power	0.000000	RX Power	0.000000

539.994	0.0167170
540.072	0.0167921
540.150	0.0167480
540.228	0.0166992
540.306	0.0169207
540.384	0.0167126
540.462	0.0166991
540.540	0.0167281
540.619	0.0166190
540.697	0.0167439
540.775	0.0169016
540.853	0.0166577
540.931	0.0167910
541.009	0.0167941
541.087	0.0166220
541.165	0.0167025
541.244	0.0167073
541.322	0.0168137
541.400	0.0166722
541.478	0.0166048
541.556	0.0165591
541.634	0.0167372
541.712	0.0166843
541.790	0.0167716
541.869	0.0168124
541.947	0.0167508
542.025	0.0168462
542.103	0.0167150
542.181	0.0166449
542.259	0.0166101
542.337	0.0165711
542.415	0.0165922
542.494	0.0167973
542.572	0.0167072
542.650	0.0166589
542.728	0.0167225
542.806	0.0167008
542.884	0.0166654
542.962	0.0167809
543.040	0.0166962
543.119	0.0167388
543.197	0.0166833
543.275	0.0166997
543.353	0.0167068
543.431	0.0167506
543.509	0.0166662
543.587	0.0166133
543.665	0.0165856
543.744	0.0166397
543.822	0.0166613
543.900	0.0166920
543.978	0.0166648
544.056	0.0167728
544.134	0.0167480
544.212	0.0167075
544.290	0.0166978
544.369	0.0166845
544.447	0.0167770
544.525	0.0166932
544.603	0.0168208
544.681	0.0165899
544.759	0.0166469
544.837	0.0166016
544.915	0.0167471
544.994	0.0166351
545.072	0.0165907
545.150	0.0167873
545.228	0.0167806
545.306	0.0167851
545.384	0.0166127
545.462	0.0166250
545.540	0.0166650
545.619	0.0166779
545.697	0.0166994
545.775	0.0167310
545.853	0.0168031
545.931	0.0167822
546.009	0.0165867
546.087	0.0166883
546.165	0.0167214
546.244	0.0166373
546.322	0.0166283
546.400	0.0166232
546.478	0.0166815
546.556	0.0166080
546.634	0.0166792
546.712	0.0166689
546.790	0.0166254
546.869	0.0166930
546.947	0.0168269
547.025	0.0167034
547.103	0.0166695
547.181	0.0166479
547.259	0.0167109
547.337	0.0167471
547.415	0.0166823
547.494	0.0165838
547.572	0.0166784
547.650	0.0167813
547.728	0.0166637
547.806	0.0166322
547.884	0.0166785
547.962	0.0166599
548.040	0.0165128
548.119	0.0166229
548.197	0.0166972
548.275	0.0166399
548.353	0.0166599
548.431	0.0166473
548.509	0.0165612
548.587	0.0166192
548.665	0.0166686
548.744	0.0167004
548.822	0.0166067
548.900	0.0166209
548.978	0.0167135
549.056	0.0168353
549.134	0.0166074
549.212	0.0168027
549.290	0.0166314
549.369	0.0166791
549.447	0.0166209
549.525	0.0165438
549.603	0.0166526
549.681	0.0167396
549.759	0.0167697
549.837	0.0165675
549.915	0.0166208
549.994	0.0167770
550.072	0.0166875
550.150	0.0165357
550.228	0.0166515
550.306	0.0167329
550.384	0.0167228
550.462	0.0167422
550.540	0.0165856
550.619	0.0165755
550.697	0.0167505
550.775	0.0167444
550.853	0.0167371
550.931	0.0166765
551.009	0.0166750
551.087	0.0166644
551.165	0.0166593
551.244	0.0167036
551.322	0.0166614
551.400	0.0165823
551.478	0.0166400
551.556	0.0166277
551.634	0.0166805
551.712	0.0166743
551.790	0.0165279
551.869	0.0166223
551.947	0.0166607
552.025	0.0166669
552.103	0.0165993
552.181	0.0167886
552.259	0.0165774
552.337	0.0167088
552.415	0.0167462
552.494	0.0166202
552.572	0.0165846
552.650	0.0166948
552.728	0.0165224
552.806	0.0164851
552.884	0.0165801
552.962	0.0166210
553.040	0.0166217
553.119	0.0165658
553.197	0.0166361
553.275	0.0166012
553.353	0.0166045
553.431	0.0166062
553.509	0.0167961
553.587	0.0167844
553.665	0.0165289
553.744	0.0165433
553.822	0.0166039
553.900	0.0166154
553.978	0.0167615
554.056	0.0166707
554.134	0.0166589
554.212	0.0165241
554.290	0.0166930
554.369	0.0167381
554.447	0.0165990
554.525	0.0165437
554.603	0.0166673
554.681	0.0167066
554.759	0.0165083
554.837	0.0165758
554.915	0.0166803
554.994	0.0166927
555.072	0.0166089
555.150	0.0168214
555.228	0.0166931
555.306	0.0165668
555.384	0.0166724
555.462	0.0165920
555.540	0.0167061
555.619	0.0165469
555.697	0.0167693
555.775	0.0167371
555.853	0.0168301
555.931	0.0166585
556.009	0.0165750
556.087	0.0166032
556.165	0.0166109
556.244	0.0165868
556.322	0.0166011
556.400	0.0167318
556.478	0.0166782
556.556	0.0166535
556.634	0.0166993
556.712	0.0166687
556.790	0.0166635
556.869	0.0165826
556.947	0.0167208
557.025	0.0165778
557.103	0.0166386
557.181	0.0166195
557.259	0.0165858
557.337	0.0167526
557.415	0.0167161
557.494	0.0167198
557.572	0.0166382
557.650	0.0167293
557.728	0.0165833
557.806	0.0167102
557.884	0.0167375
557.962	0.0165826
558.040	0.0166383
558.119	0.0167738
558.197	0.0167507
558.275	0.0165750
558.353	0.0166827
558.431	0.0167367
558.509	0.0167215
558.587	0.0166876
558.665	0.0167080
558.744	0.0166492
558.822	0.0166695
558.900	0.0167860
558.978	0.0166438
559.056	0.0166704
559.134	0.0167340
559.212	0.0167081
559.290	0.0166484
559.369	0.0167786
559.447	0.0167751
559.525	0.0165394
559.603	0.0166467
559.681	0.0168356
559.759	0.0167554
559.837	0.0166383
559.915	0.0167978
559.994	0.0167112
560.072	0.0166349
560.150	0.0167564
560.228	0.0167404
560.306	0.0165417
560.384	0.0166656
560.462	0.0167294
560.540	0.0167170
560.619	0.0166717
560.697	0.0166260
560.775	0.0165712
560.853	0.0167034
560.931	0.0166111
561.009	0.0167072
561.087	0.0165874
561.165	0.0165034
561.244	0.0166768
561.322	0.0167570
561.400	0.0165476
561.478	0.0166442
561.556	0.0166709
561.634	0.0166637
561.712	0.0167720
561.790	0.0165170
561.869	0.0166617
561.947	0.0166681
562.025	0.0167236
562.103	0.0166099
562.181	0.0166735
562.259	0.0166586
562.337	0.0166894
562.415	0.0166936
562.494	0.0167047
562.572	0.0168285
562.650	0.0166943
562.728	0.0167781
562.806	0.0167385
562.884	0.0167514
562.962	0.0166124
563.040	0.0166018
563.119	0.0167909
563.197	0.0166790
563.275	0.0166785
563.353	0.0166531
563.431	0.0166109
563.509	0.0167376
563.587	0.0167520
563.665	0.0167104
563.744	0.0168860
563.822	0.0167100
563.900	0.0166299
563.978	0.0167043
564.056	0.0166409
564.134	0.0166704
564.212	0.0165376
564.290	0.0167319
564.369	0.0166776
564.447	0.0167820
564.525	0.0167656
564.603	0.0167515
564.681	0.0166109
564.759	0.0165818
564.837	0.0166553
564.915	0.0167109
564.994	0.0167063
565.072	0.0166380
565.150	0.0167522
565.228	0.0166295
565.306	0.0166552
565.384	0.0168848
565.462	0.0168263
565.540	0.0167447
565.619	0.0167254
565.697	0.0166432
565.775	0.0165263
565.853	0.0165831
565.931	0.0166833
566.009	0.0166408
566.087	0.0167376
566.165	0.0166781
566.244	0.0167055
566.322	0.0166675
566.400	0.0167034
566.478	0.0167571
566.556	0.0167224
566.634	0.0167628
566.712	0.0165746
566.790	0.0166167
566.869	0.0167712
566.947	0.0166939
567.025	0.0166920
567.103	0.0166788
567.181	0.0167806
567.259	0.0167017
567.337	0.0166630
567.415	0.0165656
567.494	0.0167497
567.572	0.0165896
567.650	0.0167710
567.728	0.0168144
567.806	0.0167661
567.884	0.0166727
567.962	0.0166607
568.040	0.0167629
568.119	0.0168136
568.197	0.0166854
568.275	0.0166798
568.353	0.0167793
568.431	0.0167034
568.509	0.0167564
568.587	0.0166533
568.665	0.0167402
568.744	0.0167886
568.822	0.0167069
568.900	0.0164238
568.978	0.0166059
569.056	0.0166248
569.134	0.0165599
569.212	0.0165831
569.290	0.0166129
569.369	0.0166247
569.447	0.0167288
569.525	0.0167162
569.603	0.0166418
569.681	0.0166695
569.759	0.0167626
569.837	0.0167702
569.915	0.0167844
569.994	0.0166354
570.072	0.0166304
570.150	0.0167390
570.228	0.0166848
570.306	0.0165493
570.384	0.0167548
570.462	0.0167541
570.540	0.0165281
570.619	0.0165411
570.697	0.0166425
570.775	0.0167051
570.853	0.0167486
570.931	0.0166931
571.009	0.0166962
571.087	0.0166859
571.165	0.0166341
571.244	0.0166911
571.322	0.0167271
571.400	0.0168165
571.478	0.0166486
571.556	0.0167184
571.634	0.0167764
571.712	0.0166962
571.790	0.0167339
571.869	0.0166190
571.947	0.0166962
572.025	0.0168116
572.103	0.0165703
572.181	0.0168552
572.259	0.0166755
572.337	0.0166740
572.415	0.0166302
572.494	0.0167591
572.572	0.0167953
572.650	0.0166737
572.728	0.0166769
572.806	0.0168208
572.884	0.0166895
572.962	0.0167661
573.040	0.0166909
573.119	0.0167006
573.197	0.0167159
573.275	0.0167419
573.353	0.0167818
573.431	0.0167540
573.509	0.0166419
573.587	0.0166068
573.665	0.0166870
573.744	0.0166136
573.822	0.0166782
573.900	0.0167564
573.978	0.0166863
574.056	0.0166341
574.134	0.0167487
574.212	0.0167480
574.290	0.0166039
574.369	0.0166850
574.447	0.0168458
574.525	0.0167668
574.603	0.0167426
574.681	0.0165627
574.759	0.0167675
574.837	0.0167081
574.915	0.0165970
574.994	0.0165739
575.072	0.0167198
575.150	0.0165897
575.228	0.0166271
575.306	0.0167518
575.384	0.0167159
575.462	0.0167014
575.540	0.0167139
575.619	0.0167078
575.697	0.0167300
575.775	0.0165638
575.853	0.0166091
575.931	0.0168729
576.009	0.0167037
576.087	0.0169209
576.165	0.0166241
576.244	0.0165230
576.322	0.0165519
576.400	0.0167277
576.478	0.0167429
576.556	0.0166094
576.634	0.0167493
576.712	0.0167109
576.790	0.0167368
576.869	0.0167574
576.947	0.0167236
577.025	0.0166662
577.103	0.0167173
577.181	0.0166618
577.259	0.0167284
577.337	0.0166488
577.415	0.0166592
577.494	0.0167032
577.572	0.0167180
577.650	0.0165649
577.728	0.0166500
577.806	0.0166524
577.884	0.0167485
577.962	0.0166172
578.040	0.0167813
578.119	0.0168633
578.197	0.0168118
578.275	0.0166459
578.353	0.0167735
578.431	0.0165965
578.509	0.0167817
578.587	0.0166470
578.665	0.0167567
578.744	0.0167446
578.822	0.0165810
578.900	0.0168619
578.978	0.0167230
579.056	0.0166397
579.134	0.0166164
579.212	0.0166794
579.290	0.0166653
579.369	0.0167990
579.447	0.0167194
579.525	0.0166950
579.603	0.0166254
579.681	0.0167963
579.759	0.0167339
579.837	0.0166152
579.915	0.0166318
579.994	0.0167262
580.072	0.0167942
580.150	0.0167780
580.228	0.0166910
580.306	0.0166900
580.384	0.0166795
580.462	0.0166959
580.540	0.0167884
580.619	0.0167130
580.697	0.0166355
580.775	0.0167013
580.853	0.0166698
580.931	0.0166887
581.009	0.0166887
581.087	0.0167357
581.165	0.0167344
581.244	0.0166045
581.322	0.0166705
581.400	0.0166876
581.478	0.0167541
581.556	0.0167780
581.634	0.0167513
581.712	0.0167151
581.790	0.0166390
581.869	0.0167414
581.947	0.0166622
582.025	0.0166718
582.103	0.0167169
582.181	0.0166788
582.259	0.0166631
582.337	0.0168249
582.415	0.0166945
582.494	0.0167374
582.572	0.0167136
582.650	0.0168387
582.728	0.0166272
582.806	0.0167345
582.884	0.0167499
582.962	0.0167014
583.040	0.0166658
583.119	0.0166199
583.197	0.0166814
583.275	0.0167590
583.353	0.0165702
583.431	0.0166359
583.509	0.0167584
583.587	0.0169375
583.665	0.0167663
583.744	0.0167104
583.822	0.0165725
583.900	0.0167554
583.978	0.0167016
584.056	0.0167912
584.134	0.0168491
584.212	0.0166371
584.290	0.0166697
584.369	0.0168162
584.447	0.0168818
584.525	0.0167752
584.603	0.0166180
584.681	0.0167170
584.759	0.0167316
584.837	0.0167293
584.915	0.0166833
584.994	0.0166550
585.072	0.0166972
585.150	0.0167619
585.228	0.0166975
585.306	0.0166030
585.384	0.0167367
585.462	0.0166630
585.540	0.0166285
585.619	0.0167394
585.697	0.0168266
585.775	0.0168140
585.853	0.0167400
585.931	0.0166785
586.009	0.0167359
586.087	0.0167110
586.165	0.0166015
586.244	0.0167392
586.322	0.0166149
586.400	0.0165692
586.478	0.0167263
586.556	0.0167322
586.634	0.0167342
586.712	0.0166906
586.790	0.0168005
586.869	0.0167414
586.947	0.0166933
587.025	0.0166342
587.103	0.0166821
587.181	0.0166922
587.259	0.0168443
587.337	0.0167638
587.415	0.0166051
587.494	0.0165259
587.572	0.0167347
587.650	0.0166302
587.728	0.0167429
587.806	0.0167035
587.884	0.0166465
587.962	0.0166769
588.040	0.0166347
588.119	0.0166583
588.197	0.0166508
588.275	0.0167017
588.353	0.0167324
588.431	0.0166400
588.509	0.0167412
588.587	0.0166878
588.665	0.0166196
588.744	0.0166286
588.822	0.0166250
588.900	0.0166626
588.978	0.0166418
589.056	0.0167164
589.134	0.0166582
589.212	0.0167909
589.290	0.0168216
589.369	0.0166293
589.447	0.0167549
589.525	0.0167566
589.603	0.0168151
589.681	0.0167576
589.759	0.0167427
589.837	0.0167061
589.915	0.0166351
589.994	0.0165834
590.072	0.0166582
590.150	0.0168568
590.228	0.0166927
590.306	0.0166718
590.384	0.0167325
590.462	0.0168064
590.540	0.0166998
590.619	0.0168489
590.697	0.0166779
590.775	0.0165989
590.853	0.0166050
590.931	0.0167381
591.009	0.0167416
591.087	0.0167989
591.165	0.0166856
591.244	0.0167699
591.322	0.0166840
591.400	0.0165603
591.478	0.0166972
591.556	0.0166568
591.634	0.0167100
591.712	0.0166335
591.790	0.0166668
591.869	0.0165871
591.947	0.0166182
592.025	0.0166270
592.103	0.0165977
592.181	0.0166514
592.259	0.0167524
592.337	0.0165833
592.415	0.0167152
592.494	0.0167465
592.572	0.0167178
592.650	0.0167973
592.728	0.0166700
592.806	0.0167821
592.884	0.0167265
592.962	0.0166900
593.040	0.0166477
593.119	0.0166753
593.197	0.0167072
593.275	0.0166747
593.353	0.0168304
593.431	0.0167105
593.509	0.0166849
593.587	0.0167184
593.665	0.0167570
593.744	0.0168587
593.822	0.0166696
593.900	0.0166122
593.978	0.0166417
594.056	0.0168334
594.134	0.0166159
594.212	0.0165870
594.290	0.0166747
594.369	0.0167278
594.447	0.0166221
594.525	0.0168355
594.603	0.0168019
594.681	0.0166310
594.759	0.0166922
594.837	0.0166647
594.915	0.0166446
594.994	0.0165653
595.072	0.0168013
595.150	0.0167937
595.228	0.0167599
595.306	0.0167765
595.384	0.0166618
595.462	0.0166913
595.540	0.0167973
595.619	0.0167699
595.697	0.0166807
595.775	0.0166892
595.853	0.0168967
595.931	0.0167069
596.009	0.0166170
596.087	0.0166396
596.165	0.0166729
596.244	0.0165853
596.322	0.0166691
596.400	0.0166429
596.478	0.0165635
596.556	0.0167902
596.634	0.0166888
596.712	0.0165951
596.790	0.0166293
596.869	0.0166493
596.947	0.0167381
597.025	0.0167004
597.103	0.0167239
597.181	0.0167344
597.259	0.0168007
597.337	0.0166136
597.415	0.0166592
597.494	0.0166022
597.572	0.0167371
597.650	0.0166986
597.728	0.0164994
597.806	0.0165456
597.884	0.0167026
597.962	0.0167336
598.040	0.0166904
598.119	0.0166241
598.197	0.0167813
598.275	0.0166254
598.353	0.0165298
598.431	0.0166438
598.509	0.0166992
598.587	0.0166587
598.665	0.0168116
598.744	0.0167559
598.822	0.0166630
598.900	0.0165875
598.978	0.0167803
599.056	0.0167278
599.134	0.0167235
599.212	0.0167850
599.290	0.0167924
599.369	0.0165849
599.447	0.0167362
599.525	0.0165652
599.603	0.0166014
599.681	0.0167233
599.759	0.0166927
599.837	0.0166847
599.915	0.0168555
599.994	0.0167552
600.072	0.0166334
600.150	0.0166248
600.228	0.0166890
600.306	0.0165907
600.384	0.0167776
600.462	0.0167782
600.540	0.0168661
600.619	0.0167251
600.697	0.0166805
600.775	0.0166676
600.853	0.0167196
600.931	0.0167217
601.009	0.0167276
601.087	0.0167907
601.165	0.0167457
601.244	0.0168515
601.322	0.0167869
601.400	0.0166339
601.478	0.0165992
601.556	0.0167308
601.634	0.0166750
601.712	0.0166470
601.790	0.0166748
601.869	0.0167702
601.947	0.0167741
602.025	0.0165831
602.103	0.0166747
602.181	0.0166494
602.259	0.0166314
602.337	0.0166681
602.415	0.0166725
602.494	0.0166714
602.572	0.0165990
602.650	0.0166157
602.728	0.0166544
602.806	0.0166492
602.884	0.0167024
602.962	0.0166243
603.040	0.0167013
603.119	0.0165694
603.197	0.0166209
603.275	0.0167113
603.353	0.0166756
603.431	0.0167065
603.509	0.0167075
603.587	0.0167818
603.665	0.0168055
603.744	0.0166139
603.822	0.0166326
603.900	0.0166712
603.978	0.0167345
604.056	0.0167653
604.134	0.0168456
604.212	0.0166827
604.290	0.0167262
604.369	0.0167051
604.447	0.0166232
604.525	0.0167889
604.603	0.0167759
604.681	0.0166642
604.759	0.0167130
604.837	0.0166651
604.915	0.0167312
604.994	0.0167062
605.072	0.0167033
605.150	0.0166555
605.228	0.0166846
605.306	0.0167605
605.384	0.0167437
605.462	0.0167661
605.540	0.0166689
605.619	0.0167354
605.697	0.0167518
605.775	0.0167596
605.853	0.0166598
605.931	0.0167311
606.009	0.0165737
606.087	0.0164975
606.165	0.0166885
606.244	0.0166541
606.322	0.0166156
606.400	0.0166659
606.478	0.0165882
606.556	0.0167880
606.634	0.0165730
606.712	0.0166780
606.790	0.0166824
606.869	0.0165894
606.947	0.0165496
607.025	0.0166966
607.103	0.0166634
607.181	0.0166743
607.259	0.0166962
607.337	0.0166714
607.415	0.0166625
607.494	0.0166936
607.572	0.0167013
607.650	0.0167202
607.728	0.0166241
607.806	0.0166549
607.884	0.0167292
607.962	0.0167232
608.040	0.0165985
608.119	0.0166723
608.197	0.0165862
608.275	0.0165515
608.353	0.0166513
608.431	0.0167145
608.509	0.0167027
608.587	0.0166293
608.665	0.0166951
608.744	0.0167599
608.822	0.0166696
608.900	0.0166096
608.978	0.0166273
609.056	0.0167805
609.134	0.0167084
609.212	0.0167260
609.290	0.0166858
609.369	0.0166397
609.447	0.0166568
609.525	0.0166624
609.603	0.0166383
609.681	0.0167249
609.759	0.0166890
609.837	0.0168010
609.915	0.0165519
609.994	0.0166799
610.072	0.0165446
610.150	0.0166723
610.228	0.0166722
610.306	0.0167040
610.384	0.0167094
610.462	0.0166751
610.540	0.0167192
610.619	0.0166486
610.697	0.0166452
610.775	0.0167067
610.853	0.0167255
610.931	0.0167250
611.009	0.0166827
611.087	0.0167701
611.165	0.0166893
611.244	0.0167092
611.322	0.0167126
611.400	0.0167630
611.478	0.0167306
611.556	0.0166019
611.634	0.0167951
611.712	0.0169743
611.790	0.0168180
611.869	0.0166125
611.947	0.0166986
612.025	0.0168793
612.103	0.0168005
612.181	0.0166559
612.259	0.0167356
612.337	0.0166308
612.415	0.0166669
612.494	0.0168233
612.572	0.0166373
612.650	0.0166273
612.728	0.0166644
612.806	0.0167212
612.884	0.0167677
612.962	0.0167047
613.040	0.0166656
613.119	0.0165536
613.197	0.0167400
613.275	0.0166656
613.353	0.0166502
613.431	0.0165797
613.509	0.0167061
613.587	0.0166526
613.665	0.0165392
613.744	0.0166432
613.822	0.0166433
613.900	0.0165193
613.978	0.0166274
614.056	0.0166153
614.134	0.0167444
614.212	0.0165726
614.290	0.0167120
614.369	0.0167625
614.447	0.0168247
614.525	0.0164723
614.603	0.0165381
614.681	0.0166848
614.759	0.0167342
614.837	0.0166348
614.915	0.0166313
614.994	0.0166682
615.072	0.0167342
615.150	0.0167742
615.228	0.0166936
615.306	0.0167474
615.384	0.0168340
615.462	0.0166746
615.540	0.0168139
615.619	0.0167496
615.697	0.0167270
615.775	0.0168384
615.853	0.0167945
615.931	0.0166433
616.009	0.0168067
616.087	0.0168856
616.165	0.0168418
616.244	0.0167844
616.322	0.0168120
616.400	0.0168119
616.478	0.0167422
616.556	0.0167138
616.634	0.0166750
616.712	0.0167850
616.790	0.0168245
616.869	0.0165822
616.947	0.0167200
617.025	0.0167120
617.103	0.0166663
617.181	0.0166356
617.259	0.0166330
617.337	0.0167671
617.415	0.0167789
617.494	0.0167894
617.572	0.0168319
617.650	0.0167877
617.728	0.0168091
617.806	0.0168978
617.884	0.0167036
617.962	0.0167492
618.040	0.0167519
618.119	0.0166377
618.197	0.0165854
618.275	0.0164819
618.353	0.0162766
618.431	0.0162973
618.509	0.0163408
618.587	0.0161779
618.665	0.0161475
618.744	0.0161808
618.822	0.0162019
618.900	0.0165441
618.978	0.0163178
619.056	0.0165074
619.134	0.0166834
619.212	0.0168909
619.290	0.0169474
619.369	0.0170015
619.447	0.0171693
619.525	0.0172172
619.603	0.0171663
619.681	0.0173315
619.759	0.0173910
619.837	0.0173029
619.915	0.0169778
619.994	0.0169588
620.072	0.0169198
620.150	0.0166556
620.228	0.0166406
620.306	0.0164645
620.384	0.0162904
620.462	0.0161665
620.540	0.0160940
620.619	0.0159305
620.697	0.0160723
620.775	0.0158599
620.853	0.0158395
620.931	0.0157846
621.009	0.0160124
621.087	0.0160690
621.165	0.0159673
621.244	0.0161797
621.322	0.0163622
621.400	0.0163594
621.478	0.0165716
621.556	0.0167805
621.634	0.0168845
621.712	0.0170102
621.790	0.0173073
621.869	0.0175195
621.947	0.0177506
622.025	0.0178273
622.103	0.0179743
622.181	0.0181020
622.259	0.0179533
622.337	0.0179556
622.415	0.0179876
622.494	0.0178037
622.572	0.0175295
622.650	0.0174628
622.728	0.0172857
622.806	0.0170989
622.884	0.0167880
622.962	0.0166125
623.040	0.0163235
623.119	0.0159590
623.197	0.0158730
623.275	0.0157545
623.353	0.0155541
623.431	0.0156432
623.509	0.0156240
623.587	0.0155363
623.665	0.0153014
623.744	0.0155605
623.822	0.0155764
623.900	0.0155513
623.978	0.0155807
624.056	0.0158145
624.134	0.0158435
624.212	0.0160467
624.290	0.0161589
624.369	0.0163206
624.447	0.0165688
624.525	0.0168155
624.603	0.0170090
624.681	0.0172903
624.759	0.0174968
624.837	0.0175719
624.915	0.0178697
624.994	0.0176945
625.072	0.0180740
625.150	0.0180990
625.228	0.0180762
625.306	0.0180730
625.384	0.0181387
625.462	0.0181322
625.540	0.0178905
625.619	0.0178990
625.697	0.0177480
625.775	0.0179008
625.853	0.0177737
625.931	0.0174850
626.009	0.0172631
626.087	0.0171365
626.165	0.0167656
626.244	0.0165912
626.322	0.0163383
626.400	0.0159975
626.478	0.0156870
626.556	0.0154128
626.634	0.0152567
626.712	0.0147906
626.790	0.0146812
626.869	0.0146486
626.947	0.0143985
627.025	0.0141917
627.103	0.0144754
627.181	0.0145528
627.259	0.0146662
627.337	0.0148125
627.415	0.0149902
627.494	0.0153274
627.572	0.0157005
627.650	0.0162043
627.728	0.0162801
627.806	0.0166713
627.884	0.0169576
627.962	0.0172993
628.040	0.0176618
628.119	0.0178809
628.197	0.0182199
628.275	0.0183921
628.353	0.0184525
628.431	0.0187767
628.509	0.0189088
628.587	0.0187457
628.665	0.0189066
628.744	0.0191760
628.822	0.0191246
628.900	0.0188566
628.978	0.0187312
629.056	0.0186647
629.134	0.0186147
629.212	0.0181884
629.290	0.0178859
629.369	0.0176198
629.447	0.0171707
629.525	0.0168297
629.603	0.0163975
629.681	0.0159422
629.759	0.0154860
629.837	0.0149127
629.915	0.0146461
629.994	0.0145381
630.072	0.0142195
630.150	0.0141296
630.228	0.0141551
630.306	0.0142136
630.384	0.0141778
630.462	0.0142570
630.540	0.0145292
630.619	0.0148004
630.697	0.0149854
630.775	0.0153950
630.853	0.0159536
630.931	0.0160925
631.009	0.0163926
631.087	0.0168024
631.165	0.0171590
631.244	0.0172196
631.322	0.0175258
631.400	0.0175932
631.478	0.0177338
631.556	0.0178666
631.634	0.0178526
631.712	0.0178111
631.790	0.0177831
631.869	0.0177508
631.947	0.0174753
632.025	0.0175239
632.103	0.0172617
632.181	0.0170261
632.259	0.0169280
632.337	0.0168295
632.415	0.0166005
632.494	0.0165050
632.572	0.0164717
632.650	0.0164323
632.728	0.0164900
632.806	0.0163561
632.884	0.0163747
632.962	0.0165136
633.040	0.0165567
633.119	0.0166375
633.197	0.0167805
633.275	0.0166898
633.353	0.0169669
633.431	0.0170674
633.509	0.0170512
633.587	0.0172124
633.665	0.0169530
633.744	0.0172457
633.822	0.0173770
633.900	0.0171767
633.978	0.0172567
634.056	0.0173798
634.134	0.0172972
634.212	0.0172990
634.290	0.0173370
634.369	0.0172948
634.447	0.0174805
634.525	0.0174007
634.603	0.0174495
634.681	0.0174799
634.759	0.0174939
634.837	0.0172639
634.915	0.0171796
634.994	0.0171210
635.072	0.0169998
635.150	0.0167823
635.228	0.0164195
635.306	0.0162473
635.384	0.0158434
635.462	0.0156450
635.540	0.0154348
635.619	0.0149422
635.697	0.0147340
635.775	0.0145960
635.853	0.0144170
635.931	0.0142545
636.009	0.0139899
636.087	0.0138361
636.165	0.0139794
636.244	0.0137562
636.322	0.0137772
636.400	0.0139130
636.478	0.0141140
636.556	0.0143277
636.634	0.0145465
636.712	0.0148923
636.790	0.0152146
636.869	0.0158218
636.947	0.0162617
637.025	0.0169552
637.103	0.0176118
637.181	0.0181908
637.259	0.0187553
637.337	0.0193564
637.415	0.0200496
637.494	0.0205214
637.572	0.0208549
637.650	0.0212350
637.728	0.0215669
637.806	0.0215833
637.884	0.0218660
637.962	0.0217223
638.040	0.0216676
638.119	0.0215224
638.197	0.0211086
638.275	0.0206302
638.353	0.0202237
638.431	0.0196413
638.509	0.0190028
638.587	0.0182848
638.665	0.0176713
638.744	0.0170209
638.822	0.0164608
638.900	0.0158314
638.978	0.0153102
639.056	0.0148390
639.134	0.0143346
639.212	0.0137236
639.290	0.0135384
639.369	0.0132157
639.447	0.0127895
639.525	0.0125064
639.603	0.0122068
639.681	0.0120299
639.759	0.0118885
639.837	0.0117669
639.915	0.0116331
639.994	0.0118742
640.072	0.0119819
640.150	0.0120876
640.228	0.0122247
640.306	0.0127137
640.384	0.0130975
640.462	0.0138014
640.540	0.0141501
640.619	0.0145921
640.697	0.0152704
640.775	0.0161986
640.853	0.0166779
640.931	0.0173798
641.009	0.0180255
641.087	0.0186142
641.165	0.0190788
641.244	0.0195089
641.322	0.0198827
641.400	0.0201746
641.478	0.0202032
641.556	0.0205947
641.634	0.0205365
641.712	0.0203473
641.790	0.0203191
641.869	0.0203255
641.947	0.0200505
642.025	0.0197769
642.103	0.0195948
642.181	0.0193079
642.259	0.0190514
642.337	0.0189091
642.415	0.0186198
642.494	0.0184708
642.572	0.0182578
642.650	0.0180045
642.728	0.0177907
642.806	0.0177630
642.884	0.0176129
642.962	0.0174904
643.040	0.0174738
643.119	0.0173502
643.197	0.0173030
643.275	0.0173248
643.353	0.0172417
643.431	0.0171796
643.509	0.0172195
643.587	0.0172906
643.665	0.0173304
643.744	0.0174048
643.822	0.0172374
643.900	0.0171581
643.978	0.0169709
644.056	0.0166949
644.134	0.0162608
644.212	0.0158682
644.290	0.0155468
644.369	0.0150687
644.447	0.0145187
644.525	0.0138346
644.603	0.0132849
644.681	0.0127856
644.759	0.0122145
644.837	0.0118403
644.915	0.0114668
644.994	0.0112728
645.072	0.0109997
645.150	0.0112630
645.228	0.0114856
645.306	0.0116113
645.384	0.0120752
645.462	0.0125316
645.540	0.0131731
645.619	0.0137278
645.697	0.0144608
645.775	0.0151897
645.853	0.0159792
645.931	0.0167100
646.009	0.0175146
646.087	0.0180545
646.165	0.0186774
646.244	0.0194804
646.322	0.0198872
646.400	0.0203249
646.478	0.0207392
646.556	0.0212184
646.634	0.0213530
646.712	0.0214172
646.790	0.0217581
646.869	0.0218000
646.947	0.0217563
647.025	0.0216710
647.103	0.0215806
647.181	0.0213076
647.259	0.0210876
647.337	0.0206140
647.415	0.0203014
647.494	0.0198824
647.572	0.0194003
647.650	0.0187849
647.728	0.0183067
647.806	0.0176518
647.884	0.0169910
647.962	0.0164406
648.040	0.0160361
648.119	0.0154494
648.197	0.0149594
648.275	0.0146028
648.353	0.0144639
648.431	0.0142674
648.509	0.0141814
648.587	0.0140573
648.665	0.0141853
648.744	0.0143262
648.822	0.0147411
648.900	0.0146930
648.978	0.0149945
649.056	0.0151915
649.134	0.0153595
649.212	0.0156175
649.290	0.0157571
649.369	0.0159295
649.447	0.0159167
649.525	0.0159471
649.603	0.0159750
649.681	0.0161616
649.759	0.0159869
649.837	0.0160786
649.915	0.0161092
649.994	0.0157850
650.072	0.0158114
650.150	0.0156921
650.228	0.0154505
650.306	0.0154835
650.384	0.0153868
650.462	0.0151679
650.540	0.0151505
650.619	0.0149133
650.697	0.0149518
650.775	0.0147287
650.853	0.0147169
650.931	0.0146172
651.009	0.0146964
651.087	0.0146346
651.165	0.0148815
651.244	0.0150011
651.322	0.0151337
651.400	0.0152396
651.478	0.0155059
651.556	0.0157516
651.634	0.0162925
651.712	0.0167327
651.790	0.0170917
651.869	0.0175847
651.947	0.0181947
652.025	0.0187851
652.103	0.0193090
652.181	0.0197577
652.259	0.0201789
652.337	0.0206850
652.415	0.0209557
652.494	0.0212064
652.572	0.0213436
652.650	0.0215225
652.728	0.0215150
652.806	0.0214109
652.884	0.0211560
652.962	0.0209434
653.040	0.0205319
653.119	0.0202279
653.197	0.0199081
653.275	0.0192786
653.353	0.0184785
653.431	0.0179169
653.509	0.0174185
653.587	0.0169294
653.665	0.0161987
653.744	0.0156781
653.822	0.0151860
653.900	0.0147929
653.978	0.0143068
654.056	0.0137666
654.134	0.0135410
654.212	0.0132984
654.290	0.0131175
654.369	0.0130642
654.447	0.0129974
654.525	0.0129350
654.603	0.0130498
654.681	0.0133064
654.759	0.0135384
654.837	0.0138067
654.915	0.0142628
654.994	0.0143631
655.072	0.0148038
655.150	0.0150789
655.228	0.0155689
655.306	0.0157040
655.384	0.0158668
655.462	0.0160360
655.540	0.0160997
655.619	0.0161289
655.697	0.0160030
655.775	0.0158311
655.853	0.0159201
655.931	0.0157147
656.009	0.0156451
656.087	0.0154601
656.165	0.0155003
656.244	0.0153558
656.322	0.0155186
656.400	0.0157828
656.478	0.0158117
656.556	0.0159790
656.634	0.0162341
656.712	0.0165329
656.790	0.0167664
656.869	0.0171042
656.947	0.0174169
657.025	0.0178602
657.103	0.0181472
657.181	0.0185290
657.259	0.0187390
657.337	0.0189359
657.415	0.0193237
657.494	0.0195541
657.572	0.0196952
657.650	0.0197866
657.728	0.0198910
657.806	0.0199212
657.884	0.0198808
657.962	0.0201322
658.040	0.0200053
658.119	0.0198032
658.197	0.0196625
658.275	0.0193993
658.353	0.0190951
658.431	0.0189044
658.509	0.0184520
658.587	0.0183401
658.665	0.0177841
658.744	0.0175686
658.822	0.0173283
658.900	0.0172416
658.978	0.0168779
659.056	0.0166840
659.134	0.0164407
659.212	0.0162613
659.290	0.0161803
659.369	0.0159457
659.447	0.0158246
659.525	0.0156362
659.603	0.0153448
659.681	0.0151311
659.759	0.0149534
659.837	0.0148207
659.915	0.0145000
659.994	0.0142242
660.072	0.0140224
660.150	0.0136687
660.228	0.0135745
660.306	0.0133122
660.384	0.0133732
660.462	0.0133063
660.540	0.0131859
660.619	0.0132999
660.697	0.0133306
660.775	0.0136122
660.853	0.0139206
660.931	0.0142290
661.009	0.0145407
661.087	0.0149808
661.165	0.0154296
661.244	0.0158693
661.322	0.0163473
661.400	0.0167825
661.478	0.0170033
661.556	0.0174462
661.634	0.0177008
661.712	0.0180088
661.790	0.0181453
661.869	0.0182342
661.947	0.0183750
662.025	0.0183423
662.103	0.0183579
662.181	0.0183270
662.259	0.0181841
662.337	0.0181045
662.415	0.0180236
662.494	0.0180214
662.572	0.0180616
662.650	0.0180225
662.728	0.0180838
662.806	0.0180579
662.884	0.0179854
662.962	0.0182114
663.040	0.0182103
663.119	0.0181963
663.197	0.0182647
663.275	0.0182851
663.353	0.0182627
663.431	0.0182259
663.509	0.0182266
663.587	0.0181041
663.665	0.0180499
663.744	0.0179641
663.822	0.0178587
663.900	0.0178711
663.978	0.0176585
664.056	0.0174270
664.134	0.0173377
664.212	0.0171169
664.290	0.0169730
664.369	0.0166526
664.447	0.0164506
664.525	0.0162768
664.603	0.0159604
664.681	0.0156800
664.759	0.0154272
664.837	0.0154530
664.915	0.0152010
664.994	0.0150773
665.072	0.0152189
665.150	0.0151448
665.228	0.0153017
665.306	0.0153928
665.384	0.0154604
665.462	0.0156934
665.540	0.0156626
665.619	0.0158920
665.697	0.0161657
665.775	0.0160836
665.853	0.0162854
665.931	0.0164284
666.009	0.0165627
666.087	0.0164408
666.165	0.0165224
666.244	0.0165289
666.322	0.0165261
666.400	0.0164443
666.478	0.0163274
666.556	0.0162537
666.634	0.0163014
666.712	0.0161665
666.790	0.0164426
666.869	0.0162364
666.947	0.0164472
667.025	0.0164129
667.103	0.0165150
667.181	0.0165150
667.259	0.0165632
667.337	0.0165551
667.415	0.0166801
667.494	0.0166545
667.572	0.0165377
667.650	0.0165290
667.728	0.0165124
667.806	0.0162436
667.884	0.0161874
667.962	0.0161667
668.040	0.0161267
668.119	0.0159169
668.197	0.0160212
668.275	0.0161164
668.353	0.0162384
668.431	0.0164645
668.509	0.0165701
668.587	0.0166367
668.665	0.0167921
668.744	0.0169615
668.822	0.0171859
668.900	0.0170149
668.978	0.0170784
669.056	0.0172523
669.134	0.0170647
669.212	0.0170853
669.290	0.0170126
669.369	0.0169881
669.447	0.0169888
669.525	0.0170065
669.603	0.0169628
669.681	0.0171210
669.759	0.0171690
669.837	0.0173367
669.915	0.0174424
669.994	0.0175489
670.072	0.0175648
670.150	0.0175687
670.228	0.0176897
670.306	0.0178784
670.384	0.0179945
670.462	0.0182281
670.540	0.0182113
670.619	0.0181003
670.697	0.0181474
670.775	0.0181021
670.853	0.0180965
670.931	0.0178937
671.009	0.0177316
671.087	0.0175411
671.165	0.0171430
671.244	0.0171058
671.322	0.0168555
671.400	0.0165642
671.478	0.0162479
671.556	0.0160393
671.634	0.0157401
671.712	0.0156999
671.790	0.0155867
671.869	0.0155293
671.947	0.0155589
672.025	0.0152882
672.103	0.0153411
672.181	0.0153491
672.259	0.0153464
672.337	0.0152298
672.415	0.0151826
672.494	0.0152434
672.572	0.0153170
672.650	0.0153902
672.728	0.0152863
672.806	0.0154959
672.884	0.0153755
672.962	0.0154240
673.040	0.0156010
673.119	0.0156050
673.197	0.0157410
673.275	0.0158247
673.353	0.0157772
673.431	0.0159914
673.509	0.0161524
673.587	0.0162089
673.665	0.0164931
673.744	0.0166613
673.822	0.0166705
673.900	0.0167969
673.978	0.0168169
674.056	0.0170786
674.134	0.0170030
674.212	0.0171152
674.290	0.0171323
674.369	0.0170898
674.447	0.0172121
674.525	0.0172815
674.603	0.0173253
674.681	0.0173251
674.759	0.0173991
674.837	0.0173257
674.915	0.0172131
674.994	0.0172198
675.072	0.0172392
675.150	0.0171488
675.228	0.0170674
675.306	0.0171046
675.384	0.0171464
675.462	0.0171931
675.540	0.0170078
675.619	0.0170832
675.697	0.0170236
675.775	0.0171339
675.853	0.0169904
675.931	0.0168603
676.009	0.0171071
676.087	0.0171095
676.165	0.0171341
676.244	0.0169785
676.322	0.0171301
676.400	0.0173374
676.478	0.0173919
676.556	0.0173571
676.634	0.0176707
676.712	0.0176607
676.790	0.0178782
676.869	0.0179648
676.947	0.0178448
677.025	0.0178175
677.103	0.0176836
677.181	0.0176078
677.259	0.0175475
677.337	0.0173250
677.415	0.0171513
677.494	0.0170179
677.572	0.0168987
677.650	0.0167873
677.728	0.0166292
677.806	0.0164030
677.884	0.0163574
677.962	0.0163786
678.040	0.0162012
678.119	0.0162366
678.197	0.0159288
678.275	0.0157330
678.353	0.0157610
678.431	0.0156663
678.509	0.0154776
678.587	0.0152679
678.665	0.0150612
678.744	0.0149935
678.822	0.0147457
678.900	0.0147058
678.978	0.0148035
679.056	0.0146895
679.134	0.0147533
679.212	0.0148337
679.290	0.0149856
679.369	0.0150980
679.447	0.0151330
679.525	0.0153072
679.603	0.0155750
679.681	0.0157956
679.759	0.0160724
679.837	0.0161743
679.915	0.0163647
679.994	0.0165939
680.072	0.0169395
680.150	0.0170548
680.228	0.0171790
680.306	0.0173029
680.384	0.0176322
680.462	0.0177578
680.540	0.0177949
680.619	0.0179163
680.697	0.0180456
680.775	0.0179768
680.853	0.0181531
680.931	0.0180648
681.009	0.0179475
681.087	0.0178220
681.165	0.0176941
681.244	0.0177264
681.322	0.0177195
681.400	0.0175056
681.478	0.0174393
681.556	0.0172973
681.634	0.0171196
681.712	0.0170217
681.790	0.0169252
681.869	0.0169731
681.947	0.0168782
682.025	0.0165556
682.103	0.0165228
682.181	0.0165994
682.259	0.0166320
682.337	0.0165331
682.415	0.0165850
682.494	0.0166462
682.572	0.0166734
682.650	0.0165728
682.728	0.0166846
682.806	0.0167126
682.884	0.0166104
682.962	0.0164670
683.040	0.0165790
683.119	0.0166751
683.197	0.0165675
683.275	0.0164899
683.353	0.0165596
683.431	0.0168502
683.509	0.0169667
683.587	0.0170827
683.665	0.0171722
683.744	0.0173767
683.822	0.0176102
683.900	0.0177454
683.978	0.0178207
684.056	0.0179394
684.134	0.0179237
684.212	0.0177704
684.290	0.0177079
684.369	0.0175594
684.447	0.0173086
684.525	0.0171582
684.603	0.0169507
684.681	0.0166253
684.759	0.0163708
684.837	0.0161813
684.915	0.0157509
684.994	0.0156521
685.072	0.0153490
685.150	0.0151575
685.228	0.0150970
685.306	0.0151094
685.384	0.0148180
685.462	0.0148988
685.540	0.0150140
685.619	0.0151051
685.697	0.0150827
685.775	0.0153004
685.853	0.0153805
685.931	0.0156751
686.009	0.0156801
686.087	0.0158887
686.165	0.0159963
686.244	0.0162543
686.322	0.0162984
686.400	0.0162527
686.478	0.0164050
686.556	0.0163496
686.634	0.0164068
686.712	0.0164058
686.790	0.0165023
686.869	0.0164528
686.947	0.0166367
687.025	0.0165849
687.103	0.0166452
687.181	0.0168706
687.259	0.0168924
687.337	0.0169353
687.415	0.0172494
687.494	0.0175215
687.572	0.0175049
687.650	0.0177686
687.728	0.0178485
687.806	0.0179572
687.884	0.0180097
687.962	0.0180838
688.040	0.0180526
688.119	0.0179762
688.197	0.0180326
688.275	0.0178597
688.353	0.0177417
688.431	0.0176956
688.509	0.0177028
688.587	0.0175785
688.665	0.0174122
688.744	0.0172732
688.822	0.0171398
688.900	0.0173501
688.978	0.0170795
689.056	0.0169042
689.134	0.0168291
689.212	0.0167986
689.290	0.0166929
689.369	0.0167173
689.447	0.0166472
689.525	0.0164072
689.603	0.0164384
689.681	0.0164347
689.759	0.0163337
689.837	0.0162487
689.915	0.0161095
689.994	0.0160799
690.072	0.0163145
690.150	0.0161621
690.228	0.0160818
690.306	0.0162431
690.384	0.0163707
690.462	0.0164691
690.540	0.0166268
690.619	0.0167182
690.697	0.0167812
690.775	0.0168543
690.853	0.0170768
690.931	0.0171466
691.009	0.0172424
691.087	0.0172292
691.165	0.0173631
691.244	0.0172995
691.322	0.0173408
691.400	0.0172717
691.478	0.0173283
691.556	0.0171537
691.634	0.0172087
691.712	0.0170411
691.790	0.0171256
691.869	0.0168446
691.947	0.0167104
692.025	0.0166797
692.103	0.0163915
692.181	0.0163733
692.259	0.0162746
692.337	0.0160202
692.415	0.0159087
692.494	0.0157204
692.572	0.0157214
692.650	0.0155324
692.728	0.0153831
692.806	0.0152259
692.884	0.0152972
692.962	0.0152512
693.040	0.0152201
693.119	0.0154269
693.197	0.0153350
693.275	0.0155122
693.353	0.0154855
693.431	0.0154253
693.509	0.0155260
693.587	0.0155727
693.665	0.0157576
693.744	0.0157087
693.822	0.0157201
693.900	0.0159566
693.978	0.0160471
694.056	0.0161237
694.134	0.0163125
694.212	0.0164825
694.290	0.0164861
694.369	0.0167365
694.447	0.0170791
694.525	0.0170455
694.603	0.0172507
694.681	0.0175423
694.759	0.0176511
694.837	0.0179514
694.915	0.0178506
694.994	0.0181395
695.072	0.0181834
695.150	0.0182603
695.228	0.0184299
695.306	0.0184004
695.384	0.0184599
695.462	0.0184843
695.540	0.0182961
695.619	0.0182635
695.697	0.0182186
695.775	0.0180623
695.853	0.0177250
695.931	0.0176933
696.009	0.0174140
696.087	0.0173148
696.165	0.0171190
696.244	0.0168917
696.322	0.0167904
696.400	0.0167448
696.478	0.0164423
696.556	0.0165497
696.634	0.0162952
696.712	0.0162409
696.790	0.0162837
696.869	0.0161852
696.947	0.0160826
697.025	0.0161173
697.103	0.0162706
697.181	0.0161926
697.259	0.0161962
697.337	0.0161102
697.415	0.0161922
697.494	0.0162747
697.572	0.0164223
697.650	0.0163982
697.728	0.0163705
697.806	0.0166615
697.884	0.0165569
697.962	0.0166988
698.040	0.0166501
698.119	0.0168142
698.197	0.0168864
698.275	0.0169910
698.353	0.0169629
698.431	0.0169329
698.509	0.0170500
698.587	0.0170207
698.665	0.0170638
698.744	0.0170299
698.822	0.0169662
698.900	0.0169707
698.978	0.0167863
699.056	0.0167868
699.134	0.0165719
699.212	0.0164668
699.290	0.0164027
699.369	0.0163124
699.447	0.0162012
699.525	0.0160599
699.603	0.0160669
699.681	0.0158466
699.759	0.0159743
699.837	0.0158708
699.915	0.0158929
699.994	0.0157848
700.072	0.0158176
700.150	0.0157471
700.228	0.0156939
700.306	0.0156506
700.384	0.0157997
700.462	0.0158377
700.540	0.0157945
700.619	0.0158160
700.697	0.0159102
700.775	0.0160558
700.853	0.0159629
700.931	0.0160918
701.009	0.0161504
701.087	0.0164209
701.165	0.0165305
701.244	0.0165265
701.322	0.0167194
701.400	0.0168286
701.478	0.0169872
701.556	0.0170219
701.634	0.0173319
701.712	0.0173219
701.790	0.0174776
701.869	0.0175936
701.947	0.0176791
702.025	0.0177394
702.103	0.0177592
702.181	0.0177811
702.259	0.0178571
702.337	0.0179201
702.415	0.0178490
702.494	0.0177182
702.572	0.0177019
702.650	0.0179259
702.728	0.0177798
702.806	0.0176231
702.884	0.0175179
702.962	0.0174242
703.040	0.0172526
703.119	0.0171799
703.197	0.0169767
703.275	0.0168144
703.353	0.0168124
703.431	0.0167156
703.509	0.0166035
703.587	0.0165487
703.665	0.0163707
703.744	0.0163794
703.822	0.0161819
703.900	0.0160905
703.978	0.0162058
704.056	0.0162648
704.134	0.0161649
704.212	0.0160303
704.290	0.0160951
704.369	0.0160909
704.447	0.0161543
704.525	0.0161267
704.603	0.0160867
704.681	0.0163767
704.759	0.0164514
704.837	0.0165514
704.915	0.0165359
704.994	0.0166579
705.072	0.0168579
705.150	0.0169508
705.228	0.0170937
705.306	0.0170869
705.384	0.0172710
705.462	0.0174282
705.540	0.0173943
705.619	0.0173776
705.697	0.0173769
705.775	0.0176249
705.853	0.0175825
705.931	0.0174957
706.009	0.0176259
706.087	0.0175085
706.165	0.0173918
706.244	0.0174660
706.322	0.0172352
706.400	0.0171887
706.478	0.0171500
706.556	0.0169778
706.634	0.0168206
706.712	0.0166947
706.790	0.0166048
706.869	0.0162643
706.947	0.0161573
707.025	0.0159772
707.103	0.0158318
707.181	0.0157442
707.259	0.0158212
707.337	0.0155403
707.415	0.0154161
707.494	0.0154420
707.572	0.0153757
707.650	0.0153561
707.728	0.0154171
707.806	0.0154906
707.884	0.0154055
707.962	0.0153751
708.040	0.0154210
708.119	0.0156637
708.197	0.0156841
708.275	0.0155912
708.353	0.0156284
708.431	0.0157926
708.509	0.0157772
708.587	0.0159076
708.665	0.0159039
708.744	0.0161132
708.822	0.0162419
708.900	0.0162769
708.978	0.0165405
709.056	0.0166880
709.134	0.0168207
709.212	0.0171379
709.290	0.0171410
709.369	0.0173172
709.447	0.0176818
709.525	0.0176556
709.603	0.0176342
709.681	0.0175790
709.759	0.0178248
709.837	0.0177281
709.915	0.0178330
709.994	0.0178715
710.072	0.0178783
710.150	0.0178601
710.228	0.0177161
710.306	0.0176852
710.384	0.0178070
710.462	0.0177357
710.540	0.0176598
710.619	0.0175526
710.697	0.0174817
710.775	0.0174586
710.853	0.0174382
710.931	0.0174782
711.009	0.0171599
711.087	0.0172062
711.165	0.0172800
711.244	0.0170299
711.322	0.0169479
711.400	0.0167991
711.478	0.0167962
711.556	0.0166751
711.634	0.0165573
711.712	0.0166009
711.790	0.0163818
711.869	0.0164461
711.947	0.0162939
712.025	0.0163235
712.103	0.0163726
712.181	0.0164069
712.259	0.0164514
712.337	0.0165293
712.415	0.0162864
712.494	0.0163047
712.572	0.0164200
712.650	0.0165987
712.728	0.0165874
712.806	0.0166153
712.884	0.0166937
712.962	0.0167804
713.040	0.0169727
713.119	0.0171289
713.197	0.0171545
713.275	0.0170988
713.353	0.0171384
713.431	0.0171601
713.509	0.0172317
713.587	0.0171407
713.665	0.0172186
713.744	0.0170376
713.822	0.0169994
713.900	0.0168767
713.978	0.0168605
714.056	0.0167798
714.134	0.0165348
714.212	0.0165445
714.290	0.0164835
714.369	0.0161987
714.447	0.0162563
714.525	0.0161359
714.603	0.0159361
714.681	0.0157246
714.759	0.0156644
714.837	0.0157980
714.915	0.0156241
714.994	0.0154149
715.072	0.0155297
715.150	0.0154503
715.228	0.0153514
715.306	0.0155520
715.384	0.0156124
715.462	0.0154241
715.540	0.0156026
715.619	0.0155830
715.697	0.0156292
715.775	0.0156194
715.853	0.0157981
715.931	0.0157733
716.009	0.0157700
716.087	0.0159547
716.165	0.0160594
716.244	0.0159102
716.322	0.0162382
716.400	0.0163438
716.478	0.0164314
716.556	0.0166354
716.634	0.0167876
716.712	0.0168861
716.790	0.0171624
716.869	0.0172500
716.947	0.0173071
717.025	0.0175800
717.103	0.0177386
717.181	0.0177376
717.259	0.0179611
717.337	0.0179474
717.415	0.0181139
717.494	0.0180571
717.572	0.0180054
717.650	0.0180550
717.728	0.0179646
717.806	0.0179897
717.884	0.0179362
717.962	0.0178155
718.040	0.0176476
718.119	0.0176974
718.197	0.0175081
718.275	0.0174218
718.353	0.0173845
718.431	0.0173729
718.509	0.0173060
718.587	0.0170551
718.665	0.0169801
718.744	0.0169503
718.822	0.0168427
718.900	0.0168256
718.978	0.0167471
719.056	0.0164864
719.134	0.0166067
719.212	0.0165588
719.290	0.0165425
719.369	0.0165765
719.447	0.0166033
719.525	0.0164182
719.603	0.0165362
719.681	0.0165649
719.759	0.0165887
719.837	0.0165656
719.915	0.0167299
719.994	0.0167326
720.072	0.0167767
720.150	0.0167233
720.228	0.0168414
720.306	0.0168610
720.384	0.0167001
720.462	0.0168588
720.540	0.0167741
720.619	0.0168381
720.697	0.0168970
720.775	0.0167602
720.853	0.0168299
720.931	0.0166647
721.009	0.0167776
721.087	0.0166424
721.165	0.0165846
721.244	0.0167619
721.322	0.0164626
721.400	0.0163920
721.478	0.0163627
721.556	0.0163449
721.634	0.0162451
721.712	0.0161782
721.790	0.0162000
721.869	0.0159896
721.947	0.0159774
722.025	0.0159480
722.103	0.0156781
722.181	0.0158231
722.259	0.0157742
722.337	0.0158069
722.415	0.0156448
722.494	0.0154923
722.572	0.0156089
722.650	0.0156575
722.728	0.0156864
722.806	0.0156773
722.884	0.0158286
722.962	0.0157295
723.040	0.0157655
723.119	0.0157964
723.197	0.0157854
723.275	0.0157182
723.353	0.0158679
723.431	0.0156475
723.509	0.0158311
723.587	0.0160259
723.665	0.0160850
723.744	0.0161403
723.822	0.0162549
723.900	0.0163683
723.978	0.0165417
724.056	0.0167043
724.134	0.0167515
724.212	0.0169676
724.290	0.0171632
724.369	0.0174683
724.447	0.0174287
724.525	0.0178543
724.603	0.0179979
724.681	0.0178746
724.759	0.0179790
724.837	0.0181051
724.915	0.0181744
724.994	0.0180968
725.072	0.0180363
725.150	0.0181934
725.228	0.0180634
725.306	0.0179226
725.384	0.0179675
725.462	0.0178316
725.540	0.0176091
725.619	0.0177413
725.697	0.0174950
725.775	0.0173655
725.853	0.0174043
725.931	0.0173233
726.009	0.0173334
726.087	0.0169762
726.165	0.0171320
726.244	0.0169668
726.322	0.0165934
726.400	0.0166749
726.478	0.0166312
726.556	0.0165676
726.634	0.0164509
726.712	0.0163710
726.790	0.0164059
726.869	0.0162856
726.947	0.0162709
727.025	0.0160175
727.103	0.0161498
727.181	0.0163822
727.259	0.0162558
727.337	0.0163121
727.415	0.0163151
727.494	0.0163571
727.572	0.0163591
727.650	0.0164445
727.728	0.0165194
727.806	0.0166756
727.884	0.0165997
727.962	0.0166682
728.040	0.0168257
728.119	0.0167308
728.197	0.0168368
728.275	0.0168628
728.353	0.0169176
728.431	0.0169364
728.509	0.0168771
728.587	0.0167423
728.665	0.0167678
728.744	0.0166839
728.822	0.0166479
728.900	0.0166373
728.978	0.0165317
729.056	0.0165176
729.134	0.0165025
729.212	0.0163169
729.290	0.0163081
729.369	0.0160464
729.447	0.0161324
729.525	0.0160072
729.603	0.0157398
729.681	0.0157066
729.759	0.0156656
729.837	0.0155653
729.915	0.0154187
729.994	0.0155328
730.072	0.0156106
730.150	0.0155941
730.228	0.0154719
730.306	0.0156740
730.384	0.0156796
730.462	0.0157348
730.540	0.0160087
730.619	0.0159317
730.697	0.0159641
730.775	0.0161658
730.853	0.0162518
730.931	0.0162928
731.009	0.0163123
731.087	0.0162628
731.165	0.0163481
731.244	0.0165464
731.322	0.0167030
731.400	0.0167120
731.478	0.0168591
731.556	0.0168749
731.634	0.0170290
731.712	0.0171981
731.790	0.0173112
731.869	0.0172064
731.947	0.0172723
732.025	0.0173666
732.103	0.0174570
732.181	0.0174404
732.259	0.0174802
732.337	0.0173248
732.415	0.0174838
732.494	0.0173526
732.572	0.0171602
732.650	0.0172407
732.728	0.0172832
732.806	0.0173679
732.884	0.0173556
732.962	0.0170162
733.040	0.0171362
733.119	0.0171471
733.197	0.0173166
733.275	0.0170838
733.353	0.0171750
733.431	0.0171262
733.509	0.0171098
733.587	0.0172219
733.665	0.0171828
733.744	0.0173299
733.822	0.0172857
733.900	0.0173182
733.978	0.0172554
734.056	0.0172387
734.134	0.0172729
734.212	0.0173522
734.290	0.0171413
734.369	0.0171162
734.447	0.0171655
734.525	0.0171896
734.603	0.0171483
734.681	0.0169434
734.759	0.0169267
734.837	0.0169348
734.915	0.0167323
734.994	0.0167508
735.072	0.0167564
735.150	0.0166079
735.228	0.0165176
735.306	0.0166418
735.384	0.0165805
735.462	0.0164304
735.540	0.0163013
735.619	0.0163805
735.697	0.0162743
735.775	0.0162296
735.853	0.0161664
735.931	0.0160542
736.009	0.0159792
736.087	0.0159087
736.165	0.0159800
736.244	0.0158102
736.322	0.0159783
736.400	0.0158906
736.478	0.0158204
736.556	0.0157423
736.634	0.0156368
736.712	0.0157242
736.790	0.0157840
736.869	0.0157298
736.947	0.0156958
737.025	0.0157827
737.103	0.0157899
737.181	0.0159061
737.259	0.0158403
737.337	0.0157989
737.415	0.0160213
737.494	0.0160558
737.572	0.0161568
737.650	0.0160898
737.728	0.0161169
737.806	0.0164252
737.884	0.0163246
737.962	0.0162905
738.040	0.0163186
738.119	0.0165160
738.197	0.0164869
738.275	0.0165222
738.353	0.0165598
738.431	0.0166581
738.509	0.0166758
738.587	0.0167119
738.665	0.0167236
738.744	0.0168737
738.822	0.0168900
738.900	0.0170571
738.978	0.0170956
739.056	0.0171934
739.134	0.0172947
739.212	0.0173807
739.290	0.0174299
739.369	0.0177402
739.447	0.0176975
739.525	0.0177164
739.603	0.0176759
739.681	0.0177097
739.759	0.0176369
739.837	0.0176614
739.915	0.0176824
739.994	0.0176249
740.072	0.0175751
740.150	0.0175740
740.228	0.0174818
740.306	0.0174878
740.384	0.0172996
740.462	0.0173373
740.540	0.0173092
740.619	0.0171723
740.697	0.0171045
740.775	0.0170991
740.853	0.0170457
740.931	0.0168963
741.009	0.0168641
741.087	0.0167868
741.165	0.0166228
741.244	0.0165710
741.322	0.0166669
741.400	0.0162682
741.478	0.0161861
741.556	0.0163046
741.634	0.0162274
741.712	0.0161138
741.790	0.0160828
741.869	0.0160532
741.947	0.0159581
742.025	0.0158957
742.103	0.0161041
742.181	0.0159947
742.259	0.0162072
742.337	0.0164017
742.415	0.0163199
742.494	0.0162737
742.572	0.0165162
742.650	0.0167075
742.728	0.0168356
742.806	0.0168711
742.884	0.0169730
742.962	0.0171239
743.040	0.0171310
743.119	0.0171805
743.197	0.0172443
743.275	0.0172913
743.353	0.0173437
743.431	0.0172198
743.509	0.0172196
743.587	0.0173391
743.665	0.0173134
743.744	0.0171597
743.822	0.0172694
743.900	0.0170947
743.978	0.0170142
744.056	0.0169549
744.134	0.0165929
744.212	0.0166784
744.290	0.0165013
744.369	0.0163123
744.447	0.0162199
744.525	0.0160702
744.603	0.0159679
744.681	0.0159565
744.759	0.0157854
744.837	0.0157053
744.915	0.0156558
744.994	0.0157654
745.072	0.0155633
745.150	0.0156715
745.228	0.0155373
745.306	0.0155348
745.384	0.0155220
745.462	0.0155544
745.540	0.0156650
745.619	0.0156295
745.697	0.0156561
745.775	0.0157577
745.853	0.0159277
745.931	0.0161143
746.009	0.0160945
746.087	0.0159901
746.165	0.0162212
746.244	0.0162502
746.322	0.0165366
746.400	0.0165305
746.478	0.0167539
746.556	0.0168874
746.634	0.0169202
746.712	0.0170058
746.790	0.0169895
746.869	0.0170257
746.947	0.0173974
747.025	0.0173543
747.103	0.0173208
747.181	0.0173714
747.259	0.0173022
747.337	0.0174632
747.415	0.0173342
747.494	0.0172914
747.572	0.0173444
747.650	0.0173138
747.728	0.0173333
747.806	0.0172644
747.884	0.0173653
747.962	0.0173695
748.040	0.0173765
748.119	0.0173486
748.197	0.0174859
748.275	0.0173831
748.353	0.0173586
748.431	0.0173875
748.509	0.0172736
748.587	0.0172050
748.665	0.0172902
748.744	0.0172407
748.822	0.0173431
748.900	0.0172731
748.978	0.0172732
749.056	0.0173402
749.134	0.0172433
749.212	0.0171185
749.290	0.0170767
749.369	0.0171001
749.447	0.0170016
749.525	0.0170161
749.603	0.0170415
749.681	0.0171558
749.759	0.0169970
749.837	0.0170485
749.915	0.0167959
749.994	0.0168754
750.072	0.0166447
750.150	0.0167295
750.228	0.0166605
750.306	0.0166708
750.384	0.0165314
750.462	0.0165534
750.540	0.0164862
750.619	0.0163182
750.697	0.0163232
750.775	0.0163308
750.853	0.0161414
750.931	0.0161930
751.009	0.0160336
751.087	0.0159892
751.165	0.0160051
751.244	0.0158379
751.322	0.0159266
751.400	0.0157156
751.478	0.0157743
751.556	0.0158076
751.634	0.0157935
751.712	0.0158648
751.790	0.0158187
751.869	0.0156813
751.947	0.0157294
752.025	0.0157175
752.103	0.0159225
752.181	0.0159479
752.259	0.0158823
752.337	0.0158542
752.415	0.0160464
752.494	0.0160883
752.572	0.0160204
752.650	0.0159942
752.728	0.0161668
752.806	0.0160664
752.884	0.0163162
752.962	0.0162613
753.040	0.0164400
753.119	0.0164518
753.197	0.0164977
753.275	0.0165624
753.353	0.0167179
753.431	0.0167048
753.509	0.0168080
753.587	0.0168195
753.665	0.0169883
753.744	0.0169040
753.822	0.0169654
753.900	0.0172581
753.978	0.0172831
754.056	0.0173204
754.134	0.0174757
754.212	0.0175415
754.290	0.0174588
754.369	0.0176146
754.447	0.0176237
754.525	0.0176561
754.603	0.0175064
754.681	0.0176154
754.759	0.0174936
754.837	0.0175761
754.915	0.0176204
754.994	0.0175364
755.072	0.0175566
755.150	0.0174689
755.228	0.0175454
755.306	0.0174809
755.384	0.0173531
755.462	0.0173193
755.540	0.0175000
755.619	0.0174467
755.697	0.0173349
755.775	0.0170998
755.853	0.0171633
755.931	0.0172099
756.009	0.0170628
756.087	0.0168990
756.165	0.0168703
756.244	0.0166609
756.322	0.0167776
756.400	0.0165087
756.478	0.0164801
756.556	0.0162503
756.634	0.0163042
756.712	0.0161822
756.790	0.0159916
756.869	0.0159534
756.947	0.0160198
757.025	0.0160052
757.103	0.0157955
757.181	0.0158273
757.259	0.0158811
757.337	0.0158867
757.415	0.0158662
757.494	0.0160578
757.572	0.0161060
757.650	0.0161767
757.728	0.0162148
757.806	0.0163052
757.884	0.0162407
757.962	0.0164757
758.040	0.0163416
758.119	0.0164302
758.197	0.0165663
758.275	0.0165583
758.353	0.0165627
758.431	0.0167210
758.509	0.0167348
758.587	0.0166496
758.665	0.0166399
758.744	0.0167509
758.822	0.0167097
758.900	0.0167312
758.978	0.0168106
759.056	0.0168717
759.134	0.0167937
759.212	0.0167563
759.290	0.0167490
759.369	0.0168085
759.447	0.0168694
759.525	0.0168798
759.603	0.0169219
759.681	0.0168099
759.759	0.0168349
759.837	0.0168188
759.915	0.0169057
759.994	0.0168930
760.072	0.0167976
760.150	0.0167630
760.228	0.0167544
760.306	0.0168246
760.384	0.0168636
760.462	0.0167680
760.540	0.0166106
760.619	0.0167964
760.697	0.0167429
760.775	0.0167349
760.853	0.0166058
760.931	0.0166062
761.009	0.0166408
761.087	0.0166481
761.165	0.0167136
761.244	0.0166953
761.322	0.0166113
761.400	0.0167063
761.478	0.0166154
761.556	0.0165127
761.634	0.0165623
761.712	0.0165977
761.790	0.0165545
761.869	0.0165996
761.947	0.0164515
762.025	0.0163869
762.103	0.0166160
762.181	0.0164904
762.259	0.0165668
762.337	0.0165560
762.415	0.0165654
762.494	0.0165392
762.572	0.0165325
762.650	0.0166210
762.728	0.0166501
762.806	0.0165648
762.884	0.0165028
762.962	0.0166636
763.040	0.0165623
763.119	0.0165691
763.197	0.0166425
763.275	0.0165900
763.353	0.0167834
763.431	0.0167448
763.509	0.0168287
763.587	0.0168474
763.665	0.0168081
763.744	0.0168287
763.822	0.0169800
763.900	0.0170515
763.978	0.0171396
764.056	0.0169897
764.134	0.0170849
764.212	0.0171012
764.290	0.0171114
764.369	0.0171964
764.447	0.0172459
764.525	0.0172231
764.603	0.0172009
764.681	0.0171126
764.759	0.0172288
764.837	0.0171865
764.915	0.0170738
764.994	0.0170930
765.072	0.0170036
765.150	0.0169521
765.228	0.0169224
765.306	0.0168787
765.384	0.0167300
765.462	0.0168373
765.540	0.0167278
765.619	0.0164237
765.697	0.0165488
765.775	0.0166219
765.853	0.0165099
765.931	0.0165991
766.009	0.0164288
766.087	0.0164281
766.165	0.0164727
766.244	0.0163602
766.322	0.0164400
766.400	0.0163074
766.478	0.0163950
766.556	0.0163263
766.634	0.0164976
766.712	0.0164722
766.790	0.0165006
766.869	0.0163622
766.947	0.0163802
767.025	0.0165175
767.103	0.0165261
767.181	0.0166732
767.259	0.0165458
767.337	0.0166302
767.415	0.0166324
767.494	0.0165334
767.572	0.0166085
767.650	0.0164898
767.728	0.0167116
767.806	0.0165900
767.884	0.0167246
767.962	0.0164649
768.040	0.0164684
768.119	0.0165698
768.197	0.0164933
768.275	0.0164494
768.353	0.0163534
768.431	0.0163888
768.509	0.0165673
768.587	0.0165787
768.665	0.0163860
768.744	0.0164803
768.822	0.0165495
768.900	0.0164337
768.978	0.0162867
769.056	0.0164183
769.134	0.0163766
769.212	0.0163953
769.290	0.0163638
769.369	0.0163699
769.447	0.0165118
769.525	0.0165169
769.603	0.0165758
769.681	0.0166522
769.759	0.0166532
769.837	0.0167511
769.915	0.0167198
769.994	0.0168143
770.072	0.0169485
770.150	0.0169139
770.228	0.0169620
770.306	0.0169537
770.384	0.0169491
770.462	0.0170496
770.540	0.0171827
770.619	0.0173174
770.697	0.0172322
770.775	0.0171003
770.853	0.0172785
770.931	0.0171353
771.009	0.0171604
771.087	0.0172378
771.165	0.0174008
771.244	0.0172331
771.322	0.0171365
771.400	0.0171072
771.478	0.0170676
771.556	0.0170184
771.634	0.0168677
771.712	0.0170203
771.790	0.0169778
771.869	0.0169605
771.947	0.0170423
772.025	0.0168203
772.103	0.0167966
772.181	0.0168080
772.259	0.0166866
772.337	0.0166393
772.415	0.0166418
772.494	0.0165493
772.572	0.0166129
772.650	0.0165987
772.728	0.0164954
772.806	0.0163467
772.884	0.0164986
772.962	0.0164608
773.040	0.0164793
773.119	0.0166155
773.197	0.0164967
773.275	0.0163993
773.353	0.0164648
773.431	0.0166641
773.509	0.0166342
773.587	0.0166115
773.665	0.0166930
773.744	0.0166516
773.822	0.0167760
773.900	0.0166056
773.978	0.0166794
774.056	0.0167032
774.134	0.0167736
774.212	0.0168284
774.290	0.0168008
774.369	0.0167063
774.447	0.0166221
774.525	0.0166360
774.603	0.0166638
774.681	0.0165355
774.759	0.0165062
774.837	0.0164770
774.915	0.0162897
774.994	0.0164859
775.072	0.0163181
775.150	0.0163423
775.228	0.0162220
775.306	0.0163184
775.384	0.0163103
775.462	0.0162885
775.540	0.0163575
775.619	0.0165044
775.697	0.0164179
775.775	0.0162963
775.853	0.0162904
775.931	0.0163733
776.009	0.0163797
776.087	0.0165040
776.165	0.0163638
776.244	0.0163364
776.322	0.0164644
776.400	0.0164024
776.478	0.0164877
776.556	0.0165398
776.634	0.0164904
776.712	0.0166853
776.790	0.0166351
776.869	0.0166802
776.947	0.0166132
777.025	0.0167522
777.103	0.0166914
777.181	0.0168467
777.259	0.0166491
777.337	0.0167497
777.415	0.0168193
777.494	0.0167693
777.572	0.0166662
777.650	0.0167140
777.728	0.0169126
777.806	0.0168730
777.884	0.0169582
777.962	0.0167712
778.040	0.0167788
778.119	0.0169922
778.197	0.0170158
778.275	0.0169954
778.353	0.0168761
778.431	0.0169801
778.509	0.0169597
778.587	0.0171306
778.665	0.0169878
778.744	0.0169466
778.822	0.0171310
778.900	0.0171857
778.978	0.0170358
779.056	0.0171259
779.134	0.0169620
779.212	0.0171244
779.290	0.0169890
779.369	0.0169674
779.447	0.0170280
779.525	0.0171677
779.603	0.0171394
779.681	0.0171109
779.759	0.0169554
779.837	0.0171188
779.915	0.0169783
779.994	0.0169865
780.072	0.0169470
780.150	0.0169641
780.228	0.0168266
780.306	0.0168964
780.384	0.0168161
780.462	0.0168359
780.540	0.0166759
780.619	0.0166158
780.697	0.0167023
780.775	0.0166222
780.853	0.0166222
780.931	0.0165247
781.009	0.0164854
781.087	0.0164775
781.165	0.0164549
781.244	0.0162529
781.322	0.0164645
781.400	0.0165320
781.478	0.0164431
781.556	0.0163944
781.634	0.0165318
781.712	0.0163450
781.790	0.0163503
781.869	0.0165065
781.947	0.0164101
782.025	0.0163039
782.103	0.0164758
782.181	0.0164276
782.259	0.0164558
782.337	0.0164493
782.415	0.0163990
782.494	0.0165399
782.572	0.0164120
782.650	0.0163942
782.728	0.0164277
782.806	0.0164259
782.884	0.0166095
782.962	0.0164964
783.040	0.0164839
783.119	0.0165088
783.197	0.0166078
783.275	0.0163990
783.353	0.0164742
783.431	0.0165363
783.509	0.0166283
783.587	0.0165793
783.665	0.0165804
783.744	0.0166074
783.822	0.0165810
783.900	0.0165082
783.978	0.0164463
784.056	0.0166519
784.134	0.0166177
784.212	0.0166561
784.290	0.0168198
784.369	0.0168291
784.447	0.0167379
784.525	0.0166296
784.603	0.0168235
784.681	0.0168636
784.759	0.0168261
784.837	0.0168633
784.915	0.0168185
784.994	0.0168793
785.072	0.0168969
785.150	0.0169235
785.228	0.0170608
785.306	0.0170289
785.384	0.0170976
785.462	0.0169848
785.540	0.0171053
785.619	0.0171075
785.697	0.0169689
785.775	0.0170406
785.853	0.0169592
785.931	0.0170807
786.009	0.0171358
786.087	0.0170441
786.165	0.0170182
786.244	0.0170534
786.322	0.0169939
786.400	0.0169580
786.478	0.0169170
786.556	0.0168556
786.634	0.0169901
786.712	0.0169221
786.790	0.0169111
786.869	0.0169169
786.947	0.0168787
787.025	0.0168143
787.103	0.0167683
787.181	0.0168288
787.259	0.0167603
787.337	0.0165955
787.415	0.0168336
787.494	0.0166936
787.572	0.0167279
787.650	0.0166640
787.728	0.0165687
787.806	0.0166422
787.884	0.0165208
787.962	0.0165789
788.040	0.0165163
788.119	0.0164317
788.197	0.0164917
788.275	0.0165800
788.353	0.0164535
788.431	0.0164014
788.509	0.0165537
788.587	0.0165192
788.665	0.0166917
788.744	0.0165326
788.822	0.0164413
788.900	0.0165627
788.978	0.0165284
789.056	0.0165762
789.134	0.0164708
789.212	0.0166125
789.290	0.0166063
789.369	0.0165429
789.447	0.0166113
789.525	0.0166663
789.603	0.0165157
789.681	0.0165489
789.759	0.0166349
789.837	0.0165753
789.915	0.0166990
789.994	0.0166669
790.072	0.0167819
790.150	0.0166503
790.228	0.0167001
790.306	0.0168442
790.384	0.0167339
790.462	0.0166741
790.540	0.0165495
790.619	0.0166749
790.697	0.0166898
790.775	0.0166639
790.853	0.0165748
790.931	0.0166237
791.009	0.0166132
791.087	0.0166258
791.165	0.0166340
791.244	0.0166076
791.322	0.0166203
791.400	0.0166074
791.478	0.0165658
791.556	0.0167778
791.634	0.0166576
791.712	0.0166589
791.790	0.0165813
791.869	0.0167710
791.947	0.0169421
792.025	0.0168092
792.103	0.0168264
792.181	0.0169277
792.259	0.0167243
792.337	0.0167946
792.415	0.0168399
792.494	0.0167683
792.572	0.0166733
792.650	0.0167113
792.728	0.0168109
792.806	0.0169069
792.884	0.0166244
792.962	0.0167522
793.040	0.0167982
793.119	0.0166305
793.197	0.0166793
793.275	0.0167317
793.353	0.0165907
793.431	0.0166521
793.509	0.0166982
793.587	0.0166836
793.665	0.0165952
793.744	0.0168442
793.822	0.0166866
793.900	0.0166609
793.978	0.0166183
794.056	0.0166473
794.134	0.0166203
794.212	0.0166021
794.290	0.0166724
794.369	0.0166481
794.447	0.0166843
794.525	0.0165462
794.603	0.0165850
794.681	0.0167342
794.759	0.0166617
794.837	0.0166888
794.915	0.0166282
794.994	0.0166250
795.072	0.0167390
795.150	0.0167625
795.228	0.0165827
795.306	0.0166820
795.384	0.0169174
795.462	0.0167871
795.540	0.0167438
795.619	0.0168223
795.697	0.0167889
795.775	0.0168207
795.853	0.0168948
795.931	0.0168928
796.009	0.0169891
796.087	0.0169300
796.165	0.0169897
796.244	0.0169323
796.322	0.0169440
796.400	0.0169122
796.478	0.0168845
796.556	0.0167860
796.634	0.0168113
796.712	0.0166809
796.790	0.0167544
796.869	0.0167392
796.947	0.0167702
797.025	0.0166080
797.103	0.0166428
797.181	0.0165580
797.259	0.0165443
797.337	0.0166055
797.415	0.0163885
797.494	0.0165287
797.572	0.0164628
797.650	0.0164569
797.728	0.0164894
797.806	0.0163541
797.884	0.0164360
797.962	0.0164453
798.040	0.0163953
798.119	0.0165001
798.197	0.0164502
798.275	0.0163322
798.353	0.0163622
798.431	0.0163810
798.509	0.0164632
798.587	0.0164130
798.665	0.0165007
798.744	0.0165701
798.822	0.0164345
798.900	0.0163937
798.978	0.0165707
799.056	0.0165252
799.134	0.0165847
799.212	0.0166905
799.290	0.0164952
799.369	0.0164950
799.447	0.0163192
799.525	0.0167165
799.603	0.0165319
799.681	0.0166106
799.759	0.0166444
799.837	0.0165210
799.915	0.0166319
799.994	0.0166852
800.072	0.0167437
800.150	0.0166537
800.228	0.0167146
800.306	0.0167677
800.384	0.0167039
800.462	0.0166382
800.540	0.0166753
800.619	0.0168330
800.697	0.0169151
800.775	0.0168962
800.853	0.0167819
800.931	0.0169131
801.009	0.0169264
801.087	0.0170141
801.165	0.0172190
801.244	0.0170853
801.322	0.0169312
801.400	0.0170704
801.478	0.0170124
801.556	0.0170339
801.634	0.0170338
801.712	0.0169482
801.790	0.0169888
801.869	0.0168905
801.947	0.0167998
802.025	0.0169023
802.103	0.0168744
802.181	0.0167748
802.259	0.0167690
802.337	0.0167899
802.415	0.0168805
802.494	0.0166946
802.572	0.0165949
802.650	0.0166457
802.728	0.0166500
802.806	0.0166315
802.884	0.0167027
802.962	0.0167128
803.040	0.0166267
803.119	0.0166853
803.197	0.0166191
803.275	0.0167558
803.353	0.0165268
803.431	0.0165288
803.509	0.0165913
803.587	0.0166225
803.665	0.0166504
803.744	0.0166197
803.822	0.0165679
803.900	0.0166123
803.978	0.0165351
804.056	0.0164381
804.134	0.0164912
804.212	0.0166387
804.290	0.0164459
804.369	0.0164548
804.447	0.0166412
804.525	0.0166091
804.603	0.0166698
804.681	0.0165695
804.759	0.0165276
804.837	0.0165195
804.915	0.0166762
804.994	0.0166550
805.072	0.0166315
805.150	0.0165620
805.228	0.0165422
805.306	0.0164987
805.384	0.0164913
805.462	0.0166311
805.540	0.0166831
805.619	0.0164916
805.697	0.0165215
805.775	0.0164479
805.853	0.0165831
805.931	0.0165480
806.009	0.0165413
806.087	0.0164954
806.165	0.0165394
806.244	0.0165874
806.322	0.0165604
806.400	0.0166220
806.478	0.0165746
806.556	0.0165588
806.634	0.0165792
806.712	0.0166746
806.790	0.0165624
806.869	0.0165715
806.947	0.0166893
807.025	0.0166878
807.103	0.0165444
807.181	0.0165937
807.259	0.0167110
807.337	0.0167439
807.415	0.0168904
807.494	0.0165924
807.572	0.0167236
807.650	0.0165907
807.728	0.0167793
807.806	0.0167954
807.884	0.0169003
807.962	0.0168763
808.040	0.0168861
808.119	0.0168206
808.197	0.0167954
808.275	0.0167958
808.353	0.0167363
808.431	0.0167823
808.509	0.0168712
808.587	0.0168881
808.665	0.0168240
808.744	0.0168095
808.822	0.0167038
808.900	0.0167412
808.978	0.0167625
809.056	0.0168035
809.134	0.0167365
809.212	0.0167721
809.290	0.0168011
809.369	0.0167832
809.447	0.0167527
809.525	0.0168440
809.603	0.0168098
809.681	0.0168217
809.759	0.0166994
809.837	0.0166978
809.915	0.0166441
809.994	0.0168427
810.072	0.0168463
810.150	0.0166822
810.228	0.0167631
810.306	0.0168021
810.384	0.0168810
810.462	0.0168140
810.540	0.0166855
810.619	0.0168936
810.697	0.0166652
810.775	0.0167408
810.853	0.0167981
810.931	0.0167577
811.009	0.0167975
811.087	0.0168324
811.165	0.0167910
811.244	0.0166199
811.322	0.0166693
811.400	0.0165964
811.478	0.0166950
811.556	0.0165126
811.634	0.0164748
811.712	0.0164619
811.790	0.0163656
811.869	0.0164818
811.947	0.0164147
812.025	0.0163757
812.103	0.0163317
812.181	0.0163682
812.259	0.0164266
812.337	0.0164340
812.415	0.0165025
812.494	0.0165967
812.572	0.0165384
812.650	0.0164774
812.728	0.0165919
812.806	0.0166380
812.884	0.0166373
812.962	0.0166084
813.040	0.0167120
813.119	0.0166881
813.197	0.0167066
813.275	0.0167668
813.353	0.0167737
813.431	0.0168372
813.509	0.0167899
813.587	0.0167936
813.665	0.0168499
813.744	0.0167902
813.822	0.0168112
813.900	0.0166950
813.978	0.0168539
814.056	0.0168521
814.134	0.0167110
814.212	0.0167636
814.290	0.0166615
814.369	0.0166599
814.447	0.0168692
814.525	0.0166734
814.603	0.0166603
814.681	0.0168491
814.759	0.0167235
814.837	0.0167667
814.915	0.0167172
814.994	0.0164982
815.072	0.0165182
815.150	0.0168687
815.228	0.0166283
815.306	0.0166763
815.384	0.0166128
815.462	0.0167191
815.540	0.0167255
815.619	0.0165995
815.697	0.0166363
815.775	0.0166505
815.853	0.0166307
815.931	0.0166719
816.009	0.0166250
816.087	0.0166750
816.165	0.0167705
816.244	0.0168476
816.322	0.0167918
816.400	0.0167942
816.478	0.0168471
816.556	0.0168717
816.634	0.0168947
816.712	0.0169166
816.790	0.0166578
816.869	0.0168681
816.947	0.0169143
817.025	0.0168601
817.103	0.0169017
817.181	0.0168625
817.259	0.0168624
817.337	0.0167573
817.415	0.0167931
817.494	0.0166920
817.572	0.0167559
817.650	0.0168616
817.728	0.0167402
817.806	0.0168450
817.884	0.0167088
817.962	0.0167609
818.040	0.0168238
818.119	0.0166759
818.197	0.0166094
818.275	0.0167769
818.353	0.0167186
818.431	0.0167014
818.509	0.0165614
818.587	0.0165916
818.665	0.0166825
818.744	0.0166512
818.822	0.0166752
818.900	0.0167050
818.978	0.0166033
819.056	0.0167136
819.134	0.0167452
819.212	0.0169313
819.290	0.0167370
819.369	0.0168660
819.447	0.0168096
819.525	0.0168493
819.603	0.0168060
819.681	0.0168069
819.759	0.0168318
819.837	0.0167613
819.915	0.0167521
819.994	0.0166835
820.072	0.0165981
820.150	0.0168893
820.228	0.0166342
820.306	0.0166879
820.384	0.0167375
820.462	0.0166088
820.540	0.0164908
820.619	0.0167047
820.697	0.0167892
820.775	0.0166666
820.853	0.0165476
820.931	0.0166556
821.009	0.0166051
821.087	0.0165923
821.165	0.0163564
821.244	0.0165052
821.322	0.0165565
821.400	0.0165411
821.478	0.0164614
821.556	0.0162369
821.634	0.0163177
821.712	0.0162421
821.790	0.0162204
821.869	0.0164013
821.947	0.0164392
822.025	0.0163780
822.103	0.0165159
822.181	0.0165646
822.259	0.0165294
822.337	0.0166782
822.415	0.0167824
822.494	0.0168615
822.572	0.0168546
822.650	0.0170303
822.728	0.0169173
822.806	0.0169083
822.884	0.0170918
822.962	0.0171058
823.040	0.0171632
823.119	0.0169635
823.197	0.0170424
823.275	0.0169704
823.353	0.0170242
823.431	0.0171169
823.509	0.0170291
823.587	0.0168108
823.665	0.0169275
823.744	0.0168901
823.822	0.0167135
823.900	0.0167620
823.978	0.0167892
824.056	0.0165941
824.134	0.0166318
824.212	0.0165897
824.290	0.0165710
824.369	0.0167189
824.447	0.0166079
824.525	0.0165533
824.603	0.0166326
824.681	0.0165736
824.759	0.0166716
824.837	0.0166946
824.915	0.0167799
824.994	0.0168529
825.072	0.0167482
825.150	0.0167113
825.228	0.0168427
825.306	0.0169202
825.384	0.0168441
825.462	0.0168768
825.540	0.0168310
825.619	0.0168306
825.697	0.0168723
825.775	0.0167286
825.853	0.0168573
825.931	0.0167188
826.009	0.0167313
826.087	0.0167987
826.165	0.0168194
826.244	0.0167177
826.322	0.0167081
826.400	0.0167973
826.478	0.0166684
826.556	0.0166206
826.634	0.0165941
826.712	0.0166856
826.790	0.0165244
826.869	0.0164831
826.947	0.0164994
827.025	0.0165451
827.103	0.0164574
827.181	0.0165790
827.259	0.0164301
827.337	0.0163815
827.415	0.0162505
827.494	0.0163319
827.572	0.0164096
827.650	0.0163507
827.728	0.0164545
827.806	0.0163921
827.884	0.0164306
827.962	0.0163251
828.040	0.0164121
828.119	0.0164480
828.197	0.0165701
828.275	0.0167327
828.353	0.0166629
828.431	0.0166756
828.509	0.0166403
828.587	0.0168166
828.665	0.0168597
828.744	0.0169787
828.822	0.0169666
828.900	0.0169137
828.978	0.0169055
829.056	0.0169696
829.134	0.0169717
829.212	0.0170471
829.290	0.0170560
829.369	0.0171867
829.447	0.0171066
829.525	0.0171131
829.603	0.0169606
829.681	0.0168945
829.759	0.0168929
829.837	0.0168389
829.915	0.0167943
829.994	0.0166696
830.072	0.0166417
830.150	0.0165964
830.228	0.0164214
830.306	0.0164384
830.384	0.0165477
830.462	0.0164693
830.540	0.0163382
830.619	0.0163752
830.697	0.0164104
830.775	0.0162730
830.853	0.0164143
830.931	0.0163570
831.009	0.0162595
831.087	0.0163730
831.165	0.0163883
831.244	0.0164445
831.322	0.0164127
831.400	0.0164083
831.478	0.0165563
831.556	0.0166047
831.634	0.0165742
831.712	0.0165582
831.790	0.0165696
831.869	0.0165062
831.947	0.0166751
832.025	0.0167405
832.103	0.0166697
832.181	0.0166212
832.259	0.0167543
832.337	0.0168399
832.415	0.0169607
832.494	0.0169791
832.572	0.0169720
832.650	0.0169841
832.728	0.0170789
832.806	0.0170860
832.884	0.0169590
832.962	0.0169692
833.040	0.0169421
833.119	0.0170865
833.197	0.0171418
833.275	0.0168147
833.353	0.0170773
833.431	0.0169071
833.509	0.0167402
833.587	0.0167551
833.665	0.0166083
833.744	0.0166137
833.822	0.0166871
833.900	0.0167120
833.978	0.0168444
834.056	0.0167888
834.134	0.0168247
834.212	0.0166704
834.290	0.0167058
834.369	0.0168018
834.447	0.0168990
834.525	0.0167771
834.603	0.0168391
834.681	0.0167460
834.759	0.0166924
834.837	0.0166978
834.915	0.0167871
834.994	0.0168613
835.072	0.0167149
835.150	0.0166824
835.228	0.0167041
835.306	0.0167300
835.384	0.0167014
835.462	0.0166092
835.540	0.0165388
835.619	0.0166468
835.697	0.0165417
835.775	0.0166354
835.853	0.0165725
835.931	0.0164292
836.009	0.0165273
836.087	0.0162579
836.165	0.0163364
836.244	0.0162038
836.322	0.0161232
836.400	0.0159116
836.478	0.0160874
836.556	0.0158973
836.634	0.0160381
836.712	0.0161465
836.790	0.0159569
836.869	0.0161769
836.947	0.0160952
837.025	0.0161880
837.103	0.0161441
837.181	0.0165131
837.259	0.0164733
837.337	0.0165174
837.415	0.0167706
837.494	0.0168882
837.572	0.0169093
837.650	0.0168425
837.728	0.0171181
837.806	0.0170441
837.884	0.0171924
837.962	0.0172024
838.040	0.0172523
838.119	0.0171498
838.197	0.0171192
838.275	0.0172912
838.353	0.0172643
838.431	0.0173418
838.509	0.0173823
838.587	0.0173743
838.665	0.0172894
838.744	0.0172105
838.822	0.0170758
838.900	0.0171124
838.978	0.0169940
839.056	0.0169251
839.134	0.0169125
839.212	0.0168773
839.290	0.0168729
839.369	0.0166982
839.447	0.0167070
839.525	0.0164300
839.603	0.0166074
839.681	0.0165096
839.759	0.0163261
839.837	0.0163194
839.915	0.0164098
839.994	0.0164265
840.072	0.0164142
840.150	0.0164091
840.228	0.0164207
840.306	0.0166228
840.384	0.0164314
840.462	0.0165044
840.540	0.0165289
840.619	0.0165610
840.697	0.0166275
840.775	0.0166363
840.853	0.0167914
840.931	0.0168563
841.009	0.0165969
841.087	0.0167072
841.165	0.0167899
841.244	0.0167109
841.322	0.0166991
841.400	0.0167620
841.478	0.0168683
841.556	0.0168129
841.634	0.0166698
841.712	0.0167048
841.790	0.0167097
841.869	0.0167915
841.947	0.0166674
842.025	0.0166254
842.103	0.0166961
842.181	0.0166669
842.259	0.0166607
842.337	0.0167281
842.415	0.0166750
842.494	0.0165173
842.572	0.0166265
842.650	0.0164981
842.728	0.0165064
842.806	0.0165999
842.884	0.0166412
842.962	0.0165331
843.040	0.0166019
843.119	0.0165766
843.197	0.0166816
843.275	0.0167532
843.353	0.0167184
843.431	0.0166693
843.509	0.0165955
843.587	0.0166908
843.665	0.0168903
843.744	0.0168692
843.822	0.0169447
843.900	0.0168460
843.978	0.0169981
844.056	0.0170092
844.134	0.0168945
844.212	0.0169617
844.290	0.0169202
844.369	0.0168349
844.447	0.0168251
844.525	0.0167493
844.603	0.0165943
844.681	0.0166277
844.759	0.0167751
844.837	0.0166026
844.915	0.0165225
844.994	0.0166223
845.072	0.0165756
845.150	0.0165821
845.228	0.0165500
845.306	0.0166744
845.384	0.0165832
845.462	0.0166343
845.540	0.0165986
845.619	0.0166248
845.697	0.0166996
845.775	0.0166438
845.853	0.0165479
845.931	0.0167310
846.009	0.0167913
846.087	0.0167248
846.165	0.0167263
846.244	0.0167742
846.322	0.0169230
846.400	0.0167793
846.478	0.0168047
846.556	0.0167350
846.634	0.0168867
846.712	0.0168562
846.790	0.0168336
846.869	0.0168477
846.947	0.0168462
847.025	0.0168159
847.103	0.0167900
847.181	0.0167478
847.259	0.0166904
847.337	0.0165929
847.415	0.0165431
847.494	0.0165752
847.572	0.0164965
847.650	0.0165851
847.728	0.0164215
847.806	0.0164670
847.884	0.0163811
847.962	0.0165715
848.040	0.0165710
848.119	0.0164038
848.197	0.0164637
848.275	0.0164799
848.353	0.0165472
848.431	0.0165872
848.509	0.0164772
848.587	0.0165467
848.665	0.0166394
848.744	0.0166610
848.822	0.0167123
848.900	0.0167631
848.978	0.0167595
849.056	0.0168946
849.134	0.0168874
849.212	0.0168994
849.290	0.0167673
849.369	0.0168726
849.447	0.0169270
849.525	0.0168925
849.603	0.0168733
849.681	0.0168130
849.759	0.0169565
849.837	0.0169006
849.915	0.0169396
849.994	0.0169893
850.072	0.0168969
850.150	0.0168536
850.228	0.0167211
850.306	0.0168896
850.384	0.0167868
850.462	0.0167353
850.540	0.0167993
850.619	0.0168604
850.697	0.0165697
850.775	0.0166520
850.853	0.0168488
850.931	0.0166458
851.009	0.0166196
851.087	0.0164140
851.165	0.0165699
851.244	0.0165742
851.322	0.0165845
851.400	0.0165342
851.478	0.0165683
851.556	0.0165443
851.634	0.0164764
851.712	0.0165685
851.790	0.0164329
851.869	0.0164925
851.947	0.0165857
852.025	0.0164518
852.103	0.0164963
852.181	0.0164987
852.259	0.0164581
852.337	0.0165146
852.415	0.0166598
852.494	0.0166737
852.572	0.0166860
852.650	0.0167521
852.728	0.0166644
852.806	0.0167599
852.884	0.0167501
852.962	0.0166461
853.040	0.0167773
853.119	0.0167234
853.197	0.0167099
853.275	0.0168085
853.353	0.0167067
853.431	0.0167837
853.509	0.0167493
853.587	0.0165443
853.665	0.0165666
853.744	0.0166055
853.822	0.0165311
853.900	0.0166027
853.978	0.0164849
854.056	0.0165552
854.134	0.0164581
854.212	0.0165279
854.290	0.0165012
854.369	0.0165064
854.447	0.0166649
854.525	0.0165620
854.603	0.0167362
854.681	0.0166476
854.759	0.0166032
854.837	0.0166187
854.915	0.0166419
854.994	0.0168860
855.072	0.0166844
855.150	0.0168134
855.228	0.0167403
855.306	0.0166351
855.384	0.0167544
855.462	0.0167686
855.540	0.0167563
855.619	0.0166253
855.697	0.0166224
855.775	0.0167448
855.853	0.0166133
855.931	0.0167602
856.009	0.0165831
856.087	0.0167780
856.165	0.0167535
856.244	0.0167004
856.322	0.0167914
856.400	0.0167416
856.478	0.0166280
856.556	0.0165640
856.634	0.0166356
856.712	0.0166413
856.790	0.0167164
856.869	0.0166854
856.947	0.0166564
857.025	0.0165848
857.103	0.0165879
857.181	0.0167542
857.259	0.0166111
857.337	0.0167101
857.415	0.0165496
857.494	0.0166759
857.572	0.0166705
857.650	0.0168159
857.728	0.0166442
857.806	0.0166317
857.884	0.0165624
857.962	0.0165746
858.040	0.0165389
858.119	0.0166269
858.197	0.0165116
858.275	0.0164045
858.353	0.0165536
858.431	0.0164913
858.509	0.0165482
858.587	0.0164669
858.665	0.0166004
858.744	0.0166502
858.822	0.0166760
858.900	0.0167553
858.978	0.0166330
859.056	0.0167446
859.134	0.0167015
859.212	0.0167564
859.290	0.0168602
859.369	0.0167380
859.447	0.0167377
859.525	0.0166595
859.603	0.0167082
859.681	0.0165764
859.759	0.0165251
859.837	0.0165469
859.915	0.0165230
