06/01/2022	17:42:32	Ver.	4.1	UNKNOWN
Optical Delay	539.993571	Delta X		0.078125	Sweeps	1	Scan Rate	0/0
Coordinates	Axis 1	NaN	Axis 2	NaN	Axis 3	NaN	Axis 4	NaN	Axis 5	NaN	Axis 6	0.000000
TX Power	0.000000	RX Power	0.000000

539.994	0.0166171
540.072	0.0165593
540.150	0.0166549
540.228	0.0165753
540.306	0.0165362
540.384	0.0166670
540.462	0.0166068
540.540	0.0167114
540.619	0.0166607
540.697	0.0166650
540.775	0.0166034
540.853	0.0166853
540.931	0.0167052
541.009	0.0167152
541.087	0.0166741
541.165	0.0166621
541.244	0.0166801
541.322	0.0165008
541.400	0.0164548
541.478	0.0166862
541.556	0.0168163
541.634	0.0166251
541.712	0.0166376
541.790	0.0167854
541.869	0.0167719
541.947	0.0165914
542.025	0.0167148
542.103	0.0166388
542.181	0.0167108
542.259	0.0168008
542.337	0.0167850
542.415	0.0166923
542.494	0.0165473
542.572	0.0167609
542.650	0.0167359
542.728	0.0167458
542.806	0.0167538
542.884	0.0166839
542.962	0.0167452
543.040	0.0167845
543.119	0.0166103
543.197	0.0166857
543.275	0.0166016
543.353	0.0167328
543.431	0.0166514
543.509	0.0167362
543.587	0.0167431
543.665	0.0168104
543.744	0.0166557
543.822	0.0166649
543.900	0.0166953
543.978	0.0166689
544.056	0.0166840
544.134	0.0167633
544.212	0.0165978
544.290	0.0167130
544.369	0.0165310
544.447	0.0166631
544.525	0.0167133
544.603	0.0167899
544.681	0.0165707
544.759	0.0166746
544.837	0.0167603
544.915	0.0167336
544.994	0.0166782
545.072	0.0165434
545.150	0.0168633
545.228	0.0167254
545.306	0.0168792
545.384	0.0167199
545.462	0.0167822
545.540	0.0167842
545.619	0.0168350
545.697	0.0169100
545.775	0.0167185
545.853	0.0168349
545.931	0.0167227
546.009	0.0167317
546.087	0.0167090
546.165	0.0166610
546.244	0.0166943
546.322	0.0166779
546.400	0.0168002
546.478	0.0168406
546.556	0.0167392
546.634	0.0167242
546.712	0.0166997
546.790	0.0166792
546.869	0.0168164
546.947	0.0167561
547.025	0.0167979
547.103	0.0168086
547.181	0.0167970
547.259	0.0169520
547.337	0.0166612
547.415	0.0168394
547.494	0.0167310
547.572	0.0167725
547.650	0.0168645
547.728	0.0167715
547.806	0.0168512
547.884	0.0168822
547.962	0.0169165
548.040	0.0167730
548.119	0.0168298
548.197	0.0166001
548.275	0.0169017
548.353	0.0168695
548.431	0.0167083
548.509	0.0166170
548.587	0.0168404
548.665	0.0168425
548.744	0.0166679
548.822	0.0168480
548.900	0.0166853
548.978	0.0166298
549.056	0.0167026
549.134	0.0167531
549.212	0.0167132
549.290	0.0166989
549.369	0.0167249
549.447	0.0168555
549.525	0.0167573
549.603	0.0167069
549.681	0.0168290
549.759	0.0168678
549.837	0.0166718
549.915	0.0166846
549.994	0.0167245
550.072	0.0167866
550.150	0.0168005
550.228	0.0167957
550.306	0.0167767
550.384	0.0166558
550.462	0.0168192
550.540	0.0167772
550.619	0.0165402
550.697	0.0166821
550.775	0.0167218
550.853	0.0167405
550.931	0.0167037
551.009	0.0166871
551.087	0.0167093
551.165	0.0166636
551.244	0.0166566
551.322	0.0168425
551.400	0.0167113
551.478	0.0168414
551.556	0.0167365
551.634	0.0167616
551.712	0.0168006
551.790	0.0167851
551.869	0.0167200
551.947	0.0167957
552.025	0.0167860
552.103	0.0168866
552.181	0.0169113
552.259	0.0166776
552.337	0.0167326
552.415	0.0168931
552.494	0.0168233
552.572	0.0167615
552.650	0.0168007
552.728	0.0169355
552.806	0.0167805
552.884	0.0168752
552.962	0.0168486
553.040	0.0167517
553.119	0.0167596
553.197	0.0169404
553.275	0.0168999
553.353	0.0167661
553.431	0.0167521
553.509	0.0168290
553.587	0.0167254
553.665	0.0169648
553.744	0.0168938
553.822	0.0168404
553.900	0.0168915
553.978	0.0167872
554.056	0.0168330
554.134	0.0168612
554.212	0.0169042
554.290	0.0167074
554.369	0.0167426
554.447	0.0167978
554.525	0.0169122
554.603	0.0167788
554.681	0.0167655
554.759	0.0168298
554.837	0.0168251
554.915	0.0168644
554.994	0.0168720
555.072	0.0168766
555.150	0.0168095
555.228	0.0168401
555.306	0.0168372
555.384	0.0169025
555.462	0.0169057
555.540	0.0168775
555.619	0.0167769
555.697	0.0168719
555.775	0.0169323
555.853	0.0168282
555.931	0.0168034
556.009	0.0168758
556.087	0.0169965
556.165	0.0167853
556.244	0.0168223
556.322	0.0169088
556.400	0.0168769
556.478	0.0168507
556.556	0.0169202
556.634	0.0168567
556.712	0.0169985
556.790	0.0168477
556.869	0.0168379
556.947	0.0167203
557.025	0.0169069
557.103	0.0168490
557.181	0.0168291
557.259	0.0168320
557.337	0.0167017
557.415	0.0168302
557.494	0.0167919
557.572	0.0166510
557.650	0.0168482
557.728	0.0168452
557.806	0.0169212
557.884	0.0168764
557.962	0.0167899
558.040	0.0169272
558.119	0.0167140
558.197	0.0168152
558.275	0.0167870
558.353	0.0168356
558.431	0.0167432
558.509	0.0166492
558.587	0.0167734
558.665	0.0167941
558.744	0.0167727
558.822	0.0167357
558.900	0.0167992
558.978	0.0167957
559.056	0.0168666
559.134	0.0166537
559.212	0.0167500
559.290	0.0166595
559.369	0.0167846
559.447	0.0167766
559.525	0.0166116
559.603	0.0166328
559.681	0.0166200
559.759	0.0165206
559.837	0.0166828
559.915	0.0166231
559.994	0.0165615
560.072	0.0165989
560.150	0.0165390
560.228	0.0165266
560.306	0.0165450
560.384	0.0165357
560.462	0.0165070
560.540	0.0165143
560.619	0.0166827
560.697	0.0165559
560.775	0.0165200
560.853	0.0164816
560.931	0.0164925
561.009	0.0164496
561.087	0.0164835
561.165	0.0165392
561.244	0.0164331
561.322	0.0164323
561.400	0.0166604
561.478	0.0165669
561.556	0.0165162
561.634	0.0164658
561.712	0.0164687
561.790	0.0165138
561.869	0.0166176
561.947	0.0165023
562.025	0.0164495
562.103	0.0165730
562.181	0.0164651
562.259	0.0165759
562.337	0.0167104
562.415	0.0166682
562.494	0.0165746
562.572	0.0162959
562.650	0.0165075
562.728	0.0165294
562.806	0.0166684
562.884	0.0166099
562.962	0.0166512
563.040	0.0165649
563.119	0.0164320
563.197	0.0165908
563.275	0.0165856
563.353	0.0165742
563.431	0.0166946
563.509	0.0165987
563.587	0.0166293
563.665	0.0166684
563.744	0.0166621
563.822	0.0166440
563.900	0.0166774
563.978	0.0167643
564.056	0.0167561
564.134	0.0166862
564.212	0.0166084
564.290	0.0166388
564.369	0.0166857
564.447	0.0167665
564.525	0.0166654
564.603	0.0167564
564.681	0.0166265
564.759	0.0167086
564.837	0.0167344
564.915	0.0167669
564.994	0.0166283
565.072	0.0166940
565.150	0.0166376
565.228	0.0167947
565.306	0.0168100
565.384	0.0167564
565.462	0.0167664
565.540	0.0166104
565.619	0.0167580
565.697	0.0167193
565.775	0.0168552
565.853	0.0167596
565.931	0.0168434
566.009	0.0167339
566.087	0.0167806
566.165	0.0167778
566.244	0.0167811
566.322	0.0167461
566.400	0.0167815
566.478	0.0167606
566.556	0.0168005
566.634	0.0167931
566.712	0.0168668
566.790	0.0168792
566.869	0.0167862
566.947	0.0168370
567.025	0.0168085
567.103	0.0167809
567.181	0.0168347
567.259	0.0168006
567.337	0.0167422
567.415	0.0168121
567.494	0.0166488
567.572	0.0167624
567.650	0.0168362
567.728	0.0167576
567.806	0.0169001
567.884	0.0168726
567.962	0.0167850
568.040	0.0167731
568.119	0.0168821
568.197	0.0169290
568.275	0.0169283
568.353	0.0170349
568.431	0.0170229
568.509	0.0170136
568.587	0.0170074
568.665	0.0170194
568.744	0.0168910
568.822	0.0170003
568.900	0.0169242
568.978	0.0169405
569.056	0.0169245
569.134	0.0169985
569.212	0.0169604
569.290	0.0168929
569.369	0.0169271
569.447	0.0171258
569.525	0.0169688
569.603	0.0169650
569.681	0.0169873
569.759	0.0170729
569.837	0.0169477
569.915	0.0169332
569.994	0.0169696
570.072	0.0170278
570.150	0.0170854
570.228	0.0169867
570.306	0.0168821
570.384	0.0170316
570.462	0.0168872
570.540	0.0169304
570.619	0.0170006
570.697	0.0169878
570.775	0.0168691
570.853	0.0169435
570.931	0.0170184
571.009	0.0170217
571.087	0.0169829
571.165	0.0168771
571.244	0.0170838
571.322	0.0169942
571.400	0.0169186
571.478	0.0170540
571.556	0.0168756
571.634	0.0168896
571.712	0.0170560
571.790	0.0169661
571.869	0.0169398
571.947	0.0169940
572.025	0.0169612
572.103	0.0170288
572.181	0.0169013
572.259	0.0169476
572.337	0.0169050
572.415	0.0170247
572.494	0.0169780
572.572	0.0169414
572.650	0.0170191
572.728	0.0168804
572.806	0.0169740
572.884	0.0170190
572.962	0.0169297
573.040	0.0169215
573.119	0.0169499
573.197	0.0169779
573.275	0.0169817
573.353	0.0169167
573.431	0.0168581
573.509	0.0168888
573.587	0.0169022
573.665	0.0167554
573.744	0.0166962
573.822	0.0169501
573.900	0.0168525
573.978	0.0167907
574.056	0.0168764
574.134	0.0168690
574.212	0.0167154
574.290	0.0167474
574.369	0.0167900
574.447	0.0168566
574.525	0.0167732
574.603	0.0168510
574.681	0.0169084
574.759	0.0169368
574.837	0.0167344
574.915	0.0168272
574.994	0.0169019
575.072	0.0168095
575.150	0.0169066
575.228	0.0167582
575.306	0.0167478
575.384	0.0168526
575.462	0.0167463
575.540	0.0168970
575.619	0.0167915
575.697	0.0168478
575.775	0.0169209
575.853	0.0168780
575.931	0.0168510
576.009	0.0169149
576.087	0.0169423
576.165	0.0169153
576.244	0.0167637
576.322	0.0168615
576.400	0.0168136
576.478	0.0168254
576.556	0.0169027
576.634	0.0168281
576.712	0.0169799
576.790	0.0168262
576.869	0.0168154
576.947	0.0170076
577.025	0.0167337
577.103	0.0168481
577.181	0.0170014
577.259	0.0168349
577.337	0.0168456
577.415	0.0167729
577.494	0.0169035
577.572	0.0169178
577.650	0.0168968
577.728	0.0169292
577.806	0.0168273
577.884	0.0168867
577.962	0.0168503
578.040	0.0168711
578.119	0.0168494
578.197	0.0167342
578.275	0.0168644
578.353	0.0167777
578.431	0.0170108
578.509	0.0168124
578.587	0.0166938
578.665	0.0167554
578.744	0.0168400
578.822	0.0167924
578.900	0.0168068
578.978	0.0167034
579.056	0.0168676
579.134	0.0167603
579.212	0.0167570
579.290	0.0168000
579.369	0.0168502
579.447	0.0168507
579.525	0.0167561
579.603	0.0168823
579.681	0.0168109
579.759	0.0169125
579.837	0.0167833
579.915	0.0169260
579.994	0.0168670
580.072	0.0168980
580.150	0.0168905
580.228	0.0167689
580.306	0.0169192
580.384	0.0167722
580.462	0.0168863
580.540	0.0168001
580.619	0.0167510
580.697	0.0168295
580.775	0.0167187
580.853	0.0168239
580.931	0.0167958
581.009	0.0167493
581.087	0.0168384
581.165	0.0169508
581.244	0.0167721
581.322	0.0167312
581.400	0.0168350
581.478	0.0167556
581.556	0.0168017
581.634	0.0166650
581.712	0.0168622
581.790	0.0168707
581.869	0.0167783
581.947	0.0168004
582.025	0.0166849
582.103	0.0169073
582.181	0.0167885
582.259	0.0166895
582.337	0.0167150
582.415	0.0167212
582.494	0.0167683
582.572	0.0168531
582.650	0.0169219
582.728	0.0168841
582.806	0.0167422
582.884	0.0168292
582.962	0.0166000
583.040	0.0165650
583.119	0.0167101
583.197	0.0166090
583.275	0.0166676
583.353	0.0166084
583.431	0.0166157
583.509	0.0166359
583.587	0.0165402
583.665	0.0166154
583.744	0.0166376
583.822	0.0166843
583.900	0.0167277
583.978	0.0167763
584.056	0.0166885
584.134	0.0167157
584.212	0.0165383
584.290	0.0166377
584.369	0.0166773
584.447	0.0166602
584.525	0.0166857
584.603	0.0166366
584.681	0.0166884
584.759	0.0166692
584.837	0.0167255
584.915	0.0167413
584.994	0.0167962
585.072	0.0166842
585.150	0.0166124
585.228	0.0165910
585.306	0.0166277
585.384	0.0164931
585.462	0.0165799
585.540	0.0166793
585.619	0.0164641
585.697	0.0165299
585.775	0.0166344
585.853	0.0167108
585.931	0.0166220
586.009	0.0166202
586.087	0.0165353
586.165	0.0165976
586.244	0.0166047
586.322	0.0165627
586.400	0.0165520
586.478	0.0166029
586.556	0.0165855
586.634	0.0167296
586.712	0.0167180
586.790	0.0166171
586.869	0.0165705
586.947	0.0166029
587.025	0.0165816
587.103	0.0166820
587.181	0.0166174
587.259	0.0165709
587.337	0.0166245
587.415	0.0166660
587.494	0.0166670
587.572	0.0166196
587.650	0.0165057
587.728	0.0165828
587.806	0.0166059
587.884	0.0167465
587.962	0.0167800
588.040	0.0167026
588.119	0.0166487
588.197	0.0167107
588.275	0.0167218
588.353	0.0166547
588.431	0.0167843
588.509	0.0167623
588.587	0.0166117
588.665	0.0167528
588.744	0.0166444
588.822	0.0165324
588.900	0.0167062
588.978	0.0167964
589.056	0.0168333
589.134	0.0168557
589.212	0.0167068
589.290	0.0166103
589.369	0.0168508
589.447	0.0167763
589.525	0.0167425
589.603	0.0167818
589.681	0.0167039
589.759	0.0166980
589.837	0.0166958
589.915	0.0167018
589.994	0.0167269
590.072	0.0167190
590.150	0.0167761
590.228	0.0167104
590.306	0.0166724
590.384	0.0168197
590.462	0.0166806
590.540	0.0165578
590.619	0.0166585
590.697	0.0167071
590.775	0.0167123
590.853	0.0165899
590.931	0.0167075
591.009	0.0167632
591.087	0.0167602
591.165	0.0166793
591.244	0.0168558
591.322	0.0166743
591.400	0.0167548
591.478	0.0168242
591.556	0.0167123
591.634	0.0167249
591.712	0.0168837
591.790	0.0166840
591.869	0.0167889
591.947	0.0169263
592.025	0.0167677
592.103	0.0167012
592.181	0.0167610
592.259	0.0168333
592.337	0.0167535
592.415	0.0168843
592.494	0.0169915
592.572	0.0169179
592.650	0.0169463
592.728	0.0168879
592.806	0.0169138
592.884	0.0168615
592.962	0.0168485
593.040	0.0167754
593.119	0.0169677
593.197	0.0169411
593.275	0.0169363
593.353	0.0169364
593.431	0.0169002
593.509	0.0170656
593.587	0.0169459
593.665	0.0169800
593.744	0.0168077
593.822	0.0168481
593.900	0.0169748
593.978	0.0169605
594.056	0.0169276
594.134	0.0169392
594.212	0.0169632
594.290	0.0169283
594.369	0.0167145
594.447	0.0170301
594.525	0.0168452
594.603	0.0169868
594.681	0.0169235
594.759	0.0169234
594.837	0.0168298
594.915	0.0168169
594.994	0.0167805
595.072	0.0168382
595.150	0.0167131
595.228	0.0166975
595.306	0.0168041
595.384	0.0167698
595.462	0.0167557
595.540	0.0166986
595.619	0.0166213
595.697	0.0166369
595.775	0.0166563
595.853	0.0166589
595.931	0.0167154
596.009	0.0167960
596.087	0.0166214
596.165	0.0166489
596.244	0.0166954
596.322	0.0166422
596.400	0.0167288
596.478	0.0167220
596.556	0.0168011
596.634	0.0167146
596.712	0.0167228
596.790	0.0166281
596.869	0.0167555
596.947	0.0166972
597.025	0.0166177
597.103	0.0165719
597.181	0.0167603
597.259	0.0166900
597.337	0.0167504
597.415	0.0165211
597.494	0.0166260
597.572	0.0166951
597.650	0.0167215
597.728	0.0165862
597.806	0.0166126
597.884	0.0167587
597.962	0.0166071
598.040	0.0167566
598.119	0.0167256
598.197	0.0167423
598.275	0.0168163
598.353	0.0168641
598.431	0.0169264
598.509	0.0168633
598.587	0.0168737
598.665	0.0170016
598.744	0.0170169
598.822	0.0168651
598.900	0.0168650
598.978	0.0168286
599.056	0.0168560
599.134	0.0168380
599.212	0.0170166
599.290	0.0169284
599.369	0.0169720
599.447	0.0168742
599.525	0.0168436
599.603	0.0170492
599.681	0.0167850
599.759	0.0169014
599.837	0.0169347
599.915	0.0169035
599.994	0.0167979
600.072	0.0167970
600.150	0.0167901
600.228	0.0168285
600.306	0.0167532
600.384	0.0164737
600.462	0.0163793
600.540	0.0166073
600.619	0.0166098
600.697	0.0164162
600.775	0.0164322
600.853	0.0163939
600.931	0.0165160
601.009	0.0163036
601.087	0.0164033
601.165	0.0165421
601.244	0.0166704
601.322	0.0166447
601.400	0.0167680
601.478	0.0167535
601.556	0.0168161
601.634	0.0169482
601.712	0.0169882
601.790	0.0170042
601.869	0.0171589
601.947	0.0171145
602.025	0.0168430
602.103	0.0169115
602.181	0.0168604
602.259	0.0166251
602.337	0.0165154
602.415	0.0165190
602.494	0.0163169
602.572	0.0161764
602.650	0.0159460
602.728	0.0159099
602.806	0.0158084
602.884	0.0157607
602.962	0.0155462
603.040	0.0157336
603.119	0.0156248
603.197	0.0157568
603.275	0.0159424
603.353	0.0160777
603.431	0.0160826
603.509	0.0162775
603.587	0.0165176
603.665	0.0167040
603.744	0.0169527
603.822	0.0172875
603.900	0.0172424
603.978	0.0174638
604.056	0.0178156
604.134	0.0178085
604.212	0.0178795
604.290	0.0180492
604.369	0.0180462
604.447	0.0178204
604.525	0.0178885
604.603	0.0177985
604.681	0.0174884
604.759	0.0174977
604.837	0.0172604
604.915	0.0170504
604.994	0.0168987
605.072	0.0166260
605.150	0.0165048
605.228	0.0163484
605.306	0.0161801
605.384	0.0161086
605.462	0.0160205
605.540	0.0159172
605.619	0.0159338
605.697	0.0158633
605.775	0.0159090
605.853	0.0159748
605.931	0.0160289
606.009	0.0161903
606.087	0.0161540
606.165	0.0163945
606.244	0.0163352
606.322	0.0165031
606.400	0.0167966
606.478	0.0169090
606.556	0.0168639
606.634	0.0169195
606.712	0.0171445
606.790	0.0172621
606.869	0.0174704
606.947	0.0175790
607.025	0.0176040
607.103	0.0177709
607.181	0.0179360
607.259	0.0179709
607.337	0.0181339
607.415	0.0181992
607.494	0.0183381
607.572	0.0182761
607.650	0.0183310
607.728	0.0182361
607.806	0.0181020
607.884	0.0182360
607.962	0.0180095
608.040	0.0179866
608.119	0.0176428
608.197	0.0176808
608.275	0.0174360
608.353	0.0173312
608.431	0.0170020
608.509	0.0165650
608.587	0.0163849
608.665	0.0161601
608.744	0.0159727
608.822	0.0157743
608.900	0.0155772
608.978	0.0155856
609.056	0.0153101
609.134	0.0151357
609.212	0.0150832
609.290	0.0151743
609.369	0.0150932
609.447	0.0151213
609.525	0.0151835
609.603	0.0153555
609.681	0.0153006
609.759	0.0155019
609.837	0.0158266
609.915	0.0160485
609.994	0.0162775
610.072	0.0165834
610.150	0.0167253
610.228	0.0172686
610.306	0.0173565
610.384	0.0174995
610.462	0.0178033
610.540	0.0180492
610.619	0.0182278
610.697	0.0183820
610.775	0.0186236
610.853	0.0185394
610.931	0.0186144
611.009	0.0185515
611.087	0.0185201
611.165	0.0184777
611.244	0.0183916
611.322	0.0182722
611.400	0.0181234
611.478	0.0179357
611.556	0.0178011
611.634	0.0175780
611.712	0.0173084
611.790	0.0170623
611.869	0.0168429
611.947	0.0168002
612.025	0.0166636
612.103	0.0163918
612.181	0.0161247
612.259	0.0160938
612.337	0.0160300
612.415	0.0158304
612.494	0.0157220
612.572	0.0156805
612.650	0.0154325
612.728	0.0152524
612.806	0.0152276
612.884	0.0150228
612.962	0.0149439
613.040	0.0147616
613.119	0.0146293
613.197	0.0144357
613.275	0.0145670
613.353	0.0145663
613.431	0.0144901
613.509	0.0145442
613.587	0.0146262
613.665	0.0147183
613.744	0.0149155
613.822	0.0151965
613.900	0.0153604
613.978	0.0156895
614.056	0.0159322
614.134	0.0161372
614.212	0.0162850
614.290	0.0168330
614.369	0.0170491
614.447	0.0172741
614.525	0.0172920
614.603	0.0174185
614.681	0.0175455
614.759	0.0177006
614.837	0.0178808
614.915	0.0179746
614.994	0.0180173
615.072	0.0180701
615.150	0.0181247
615.228	0.0180177
615.306	0.0181924
615.384	0.0181931
615.462	0.0180757
615.540	0.0181066
615.619	0.0181670
615.697	0.0180746
615.775	0.0181840
615.853	0.0181371
615.931	0.0180170
616.009	0.0178793
616.087	0.0178241
616.165	0.0176954
616.244	0.0176142
616.322	0.0174464
616.400	0.0173033
616.478	0.0171442
616.556	0.0167376
616.634	0.0165939
616.712	0.0163695
616.790	0.0159838
616.869	0.0156935
616.947	0.0153932
617.025	0.0152495
617.103	0.0147554
617.181	0.0144199
617.259	0.0143568
617.337	0.0138940
617.415	0.0138579
617.494	0.0138623
617.572	0.0137047
617.650	0.0137263
617.728	0.0138072
617.806	0.0137482
617.884	0.0136934
617.962	0.0137674
618.040	0.0142062
618.119	0.0142786
618.197	0.0145833
618.275	0.0147870
618.353	0.0151916
618.431	0.0156291
618.509	0.0160252
618.587	0.0166861
618.665	0.0170832
618.744	0.0176447
618.822	0.0182624
618.900	0.0187917
618.978	0.0192506
619.056	0.0197565
619.134	0.0200080
619.212	0.0205258
619.290	0.0205733
619.369	0.0205968
619.447	0.0208372
619.525	0.0207585
619.603	0.0204741
619.681	0.0203455
619.759	0.0200455
619.837	0.0195348
619.915	0.0194920
619.994	0.0191978
620.072	0.0187381
620.150	0.0184685
620.228	0.0180461
620.306	0.0176086
620.384	0.0172710
620.462	0.0168845
620.540	0.0162738
620.619	0.0158978
620.697	0.0155753
620.775	0.0153159
620.853	0.0150395
620.931	0.0146023
621.009	0.0143668
621.087	0.0142007
621.165	0.0140405
621.244	0.0138636
621.322	0.0137908
621.400	0.0138093
621.478	0.0138263
621.556	0.0140689
621.634	0.0142758
621.712	0.0144416
621.790	0.0148467
621.869	0.0152204
621.947	0.0154082
622.025	0.0157352
622.103	0.0160851
622.181	0.0164375
622.259	0.0167574
622.337	0.0170842
622.415	0.0172746
622.494	0.0174245
622.572	0.0175575
622.650	0.0177159
622.728	0.0177471
622.806	0.0175854
622.884	0.0176266
622.962	0.0176153
623.040	0.0174395
623.119	0.0173679
623.197	0.0172282
623.275	0.0171406
623.353	0.0169235
623.431	0.0168497
623.509	0.0165443
623.587	0.0166144
623.665	0.0164471
623.744	0.0164672
623.822	0.0163674
623.900	0.0165021
623.978	0.0165334
624.056	0.0164715
624.134	0.0167636
624.212	0.0167532
624.290	0.0168573
624.369	0.0170663
624.447	0.0170235
624.525	0.0171626
624.603	0.0171546
624.681	0.0172827
624.759	0.0175195
624.837	0.0174523
624.915	0.0175264
624.994	0.0178878
625.072	0.0178428
625.150	0.0179569
625.228	0.0180777
625.306	0.0178914
625.384	0.0181408
625.462	0.0180692
625.540	0.0181130
625.619	0.0180212
625.697	0.0179775
625.775	0.0178863
625.853	0.0177161
625.931	0.0175691
626.009	0.0174538
626.087	0.0172861
626.165	0.0169409
626.244	0.0167639
626.322	0.0164093
626.400	0.0161829
626.478	0.0159245
626.556	0.0155280
626.634	0.0152746
626.712	0.0148804
626.790	0.0145787
626.869	0.0143102
626.947	0.0142350
627.025	0.0140539
627.103	0.0139625
627.181	0.0139251
627.259	0.0141190
627.337	0.0142675
627.415	0.0145967
627.494	0.0149654
627.572	0.0154935
627.650	0.0157610
627.728	0.0161826
627.806	0.0165997
627.884	0.0169318
627.962	0.0173209
628.040	0.0176163
628.119	0.0178078
628.197	0.0180871
628.275	0.0182986
628.353	0.0182841
628.431	0.0185767
628.509	0.0186812
628.587	0.0184470
628.665	0.0187735
628.744	0.0188543
628.822	0.0188010
628.900	0.0187519
628.978	0.0186647
629.056	0.0186607
629.134	0.0185616
629.212	0.0182771
629.290	0.0179370
629.369	0.0177869
629.447	0.0174660
629.525	0.0170879
629.603	0.0167344
629.681	0.0165392
629.759	0.0161872
629.837	0.0158286
629.915	0.0155895
629.994	0.0154501
630.072	0.0153365
630.150	0.0152197
630.228	0.0152927
630.306	0.0153010
630.384	0.0155334
630.462	0.0155229
630.540	0.0157552
630.619	0.0158530
630.697	0.0161453
630.775	0.0164243
630.853	0.0166081
630.931	0.0168040
631.009	0.0169965
631.087	0.0172452
631.165	0.0173769
631.244	0.0174660
631.322	0.0174877
631.400	0.0177039
631.478	0.0177119
631.556	0.0181793
631.634	0.0181947
631.712	0.0183817
631.790	0.0187788
631.869	0.0188257
631.947	0.0190459
632.025	0.0192045
632.103	0.0192095
632.181	0.0192243
632.259	0.0192559
632.337	0.0190212
632.415	0.0188837
632.494	0.0185539
632.572	0.0181347
632.650	0.0176925
632.728	0.0171889
632.806	0.0168009
632.884	0.0161781
632.962	0.0158929
633.040	0.0151921
633.119	0.0146760
633.197	0.0142608
633.275	0.0138934
633.353	0.0135380
633.431	0.0132941
633.509	0.0129992
633.587	0.0128921
633.665	0.0128346
633.744	0.0129199
633.822	0.0130117
633.900	0.0130238
633.978	0.0131686
634.056	0.0134428
634.134	0.0136597
634.212	0.0141240
634.290	0.0142731
634.369	0.0147010
634.447	0.0153325
634.525	0.0157315
634.603	0.0162295
634.681	0.0166162
634.759	0.0169580
634.837	0.0173099
634.915	0.0178601
634.994	0.0180819
635.072	0.0184403
635.150	0.0187183
635.228	0.0188866
635.306	0.0190982
635.384	0.0191778
635.462	0.0192809
635.540	0.0192931
635.619	0.0194345
635.697	0.0194510
635.775	0.0192738
635.853	0.0192271
635.931	0.0192184
636.009	0.0188665
636.087	0.0185538
636.165	0.0184170
636.244	0.0181841
636.322	0.0179362
636.400	0.0175567
636.478	0.0175008
636.556	0.0172032
636.634	0.0168946
636.712	0.0168013
636.790	0.0166836
636.869	0.0166431
636.947	0.0164972
637.025	0.0163628
637.103	0.0163219
637.181	0.0164228
637.259	0.0165469
637.337	0.0164218
637.415	0.0164716
637.494	0.0164536
637.572	0.0166196
637.650	0.0165372
637.728	0.0164676
637.806	0.0165684
637.884	0.0165683
637.962	0.0164311
638.040	0.0164204
638.119	0.0164378
638.197	0.0163285
638.275	0.0163724
638.353	0.0162542
638.431	0.0161520
638.509	0.0160693
638.587	0.0161108
638.665	0.0158692
638.744	0.0157926
638.822	0.0156327
638.900	0.0155489
638.978	0.0156390
639.056	0.0154671
639.134	0.0152639
639.212	0.0151907
639.290	0.0152086
639.369	0.0152074
639.447	0.0151350
639.525	0.0150606
639.603	0.0151212
639.681	0.0152299
639.759	0.0151823
639.837	0.0153410
639.915	0.0154070
639.994	0.0155384
640.072	0.0156990
640.150	0.0157618
640.228	0.0158942
640.306	0.0161710
640.384	0.0163338
640.462	0.0166283
640.540	0.0169338
640.619	0.0171712
640.697	0.0175709
640.775	0.0178006
640.853	0.0181187
640.931	0.0184231
641.009	0.0186730
641.087	0.0187971
641.165	0.0189709
641.244	0.0192111
641.322	0.0189259
641.400	0.0187874
641.478	0.0188937
641.556	0.0187805
641.634	0.0183813
641.712	0.0182195
641.790	0.0178384
641.869	0.0176711
641.947	0.0174383
642.025	0.0172440
642.103	0.0171923
642.181	0.0171456
642.259	0.0171420
642.337	0.0170666
642.415	0.0171323
642.494	0.0171474
642.572	0.0171435
642.650	0.0172583
642.728	0.0173562
642.806	0.0171100
642.884	0.0172446
642.962	0.0173087
643.040	0.0171986
643.119	0.0172019
643.197	0.0171169
643.275	0.0171651
643.353	0.0170998
643.431	0.0169280
643.509	0.0168067
643.587	0.0168023
643.665	0.0167244
643.744	0.0165646
643.822	0.0164198
643.900	0.0163100
643.978	0.0160852
644.056	0.0159406
644.134	0.0159792
644.212	0.0158634
644.290	0.0155966
644.369	0.0156752
644.447	0.0155267
644.525	0.0154934
644.603	0.0153048
644.681	0.0152962
644.759	0.0152201
644.837	0.0152452
644.915	0.0152729
644.994	0.0151387
645.072	0.0150824
645.150	0.0151571
645.228	0.0150839
645.306	0.0149480
645.384	0.0149412
645.462	0.0151708
645.540	0.0153050
645.619	0.0153303
645.697	0.0153230
645.775	0.0155923
645.853	0.0156375
645.931	0.0159184
646.009	0.0160517
646.087	0.0160559
646.165	0.0163141
646.244	0.0165556
646.322	0.0165817
646.400	0.0167392
646.478	0.0168290
646.556	0.0169034
646.634	0.0171021
646.712	0.0170094
646.790	0.0170940
646.869	0.0172654
646.947	0.0174289
647.025	0.0174576
647.103	0.0174723
647.181	0.0176474
647.259	0.0178214
647.337	0.0177705
647.415	0.0180935
647.494	0.0182191
647.572	0.0184355
647.650	0.0186386
647.728	0.0186665
647.806	0.0188852
647.884	0.0189121
647.962	0.0190516
648.040	0.0191207
648.119	0.0191695
648.197	0.0191443
648.275	0.0190439
648.353	0.0189402
648.431	0.0187549
648.509	0.0186703
648.587	0.0184349
648.665	0.0180718
648.744	0.0179555
648.822	0.0176579
648.900	0.0174213
648.978	0.0174152
649.056	0.0172488
649.134	0.0170934
649.212	0.0169302
649.290	0.0167641
649.369	0.0168455
649.447	0.0166747
649.525	0.0165405
649.603	0.0165366
649.681	0.0163837
649.759	0.0162112
649.837	0.0160375
649.915	0.0158315
649.994	0.0155505
650.072	0.0154222
650.150	0.0151520
650.228	0.0151735
650.306	0.0149184
650.384	0.0147364
650.462	0.0147831
650.540	0.0146824
650.619	0.0146276
650.697	0.0146358
650.775	0.0146058
650.853	0.0147714
650.931	0.0148309
651.009	0.0149085
651.087	0.0152434
651.165	0.0153501
651.244	0.0155914
651.322	0.0159261
651.400	0.0160908
651.478	0.0162174
651.556	0.0164810
651.634	0.0167269
651.712	0.0170855
651.790	0.0171607
651.869	0.0174130
651.947	0.0174717
652.025	0.0174192
652.103	0.0176595
652.181	0.0177120
652.259	0.0174149
652.337	0.0175111
652.415	0.0174597
652.494	0.0175928
652.572	0.0175045
652.650	0.0175172
652.728	0.0174706
652.806	0.0173574
652.884	0.0172657
652.962	0.0172818
653.040	0.0173605
653.119	0.0172378
653.197	0.0172112
653.275	0.0170293
653.353	0.0169606
653.431	0.0168880
653.509	0.0168009
653.587	0.0166490
653.665	0.0165721
653.744	0.0165400
653.822	0.0164439
653.900	0.0162176
653.978	0.0163870
654.056	0.0164047
654.134	0.0165043
654.212	0.0164834
654.290	0.0167032
654.369	0.0169419
654.447	0.0170610
654.525	0.0172520
654.603	0.0175095
654.681	0.0176508
654.759	0.0178735
654.837	0.0178974
654.915	0.0181370
654.994	0.0182188
655.072	0.0183436
655.150	0.0182355
655.228	0.0183417
655.306	0.0183638
655.384	0.0180835
655.462	0.0180946
655.540	0.0179331
655.619	0.0178472
655.697	0.0177496
655.775	0.0175820
655.853	0.0174674
655.931	0.0173309
656.009	0.0171091
656.087	0.0169803
656.165	0.0169512
656.244	0.0165691
656.322	0.0163515
656.400	0.0161867
656.478	0.0158717
656.556	0.0155819
656.634	0.0152890
656.712	0.0150892
656.790	0.0148307
656.869	0.0146629
656.947	0.0144712
657.025	0.0143125
657.103	0.0142006
657.181	0.0141607
657.259	0.0140497
657.337	0.0141622
657.415	0.0142799
657.494	0.0142556
657.572	0.0145585
657.650	0.0146394
657.728	0.0149025
657.806	0.0152511
657.884	0.0154447
657.962	0.0155850
658.040	0.0158286
658.119	0.0161124
658.197	0.0162976
658.275	0.0166335
658.353	0.0167632
658.431	0.0169812
658.509	0.0172491
658.587	0.0174777
658.665	0.0174821
658.744	0.0176089
658.822	0.0176434
658.900	0.0177528
658.978	0.0178001
659.056	0.0176701
659.134	0.0178257
659.212	0.0177039
659.290	0.0175323
659.369	0.0174902
659.447	0.0173690
659.525	0.0173044
659.603	0.0171960
659.681	0.0170988
659.759	0.0170391
659.837	0.0171497
659.915	0.0171270
659.994	0.0171533
660.072	0.0170432
660.150	0.0170760
660.228	0.0173119
660.306	0.0173640
660.384	0.0173804
660.462	0.0175172
660.540	0.0175524
660.619	0.0176729
660.697	0.0176254
660.775	0.0177659
660.853	0.0176683
660.931	0.0177440
661.009	0.0178737
661.087	0.0178407
661.165	0.0176200
661.244	0.0176749
661.322	0.0176686
661.400	0.0176077
661.478	0.0175758
661.556	0.0175193
661.634	0.0176019
661.712	0.0174491
661.790	0.0173434
661.869	0.0172310
661.947	0.0171976
662.025	0.0170009
662.103	0.0170103
662.181	0.0168665
662.259	0.0165774
662.337	0.0164514
662.415	0.0161407
662.494	0.0159104
662.572	0.0158509
662.650	0.0157471
662.728	0.0157413
662.806	0.0155766
662.884	0.0155945
662.962	0.0156323
663.040	0.0156992
663.119	0.0156156
663.197	0.0157324
663.275	0.0157246
663.353	0.0158706
663.431	0.0159492
663.509	0.0158801
663.587	0.0159696
663.665	0.0161804
663.744	0.0160208
663.822	0.0158988
663.900	0.0159296
663.978	0.0160566
664.056	0.0159703
664.134	0.0159588
664.212	0.0160697
664.290	0.0159897
664.369	0.0161445
664.447	0.0161327
664.525	0.0162089
664.603	0.0164138
664.681	0.0164536
664.759	0.0166663
664.837	0.0168562
664.915	0.0168875
664.994	0.0170943
665.072	0.0169762
665.150	0.0170013
665.228	0.0170934
665.306	0.0171448
665.384	0.0171023
665.462	0.0171500
665.540	0.0172993
665.619	0.0172250
665.697	0.0173621
665.775	0.0173333
665.853	0.0173602
665.931	0.0172588
666.009	0.0173194
666.087	0.0175055
666.165	0.0174385
666.244	0.0175483
666.322	0.0175225
666.400	0.0173812
666.478	0.0175723
666.556	0.0176920
666.634	0.0175764
666.712	0.0176077
666.790	0.0176782
666.869	0.0177457
666.947	0.0176845
667.025	0.0177911
667.103	0.0176694
667.181	0.0175513
667.259	0.0175423
667.337	0.0176556
667.415	0.0174846
667.494	0.0173590
667.572	0.0173426
667.650	0.0173210
667.728	0.0171828
667.806	0.0173686
667.884	0.0172227
667.962	0.0171383
668.040	0.0170445
668.119	0.0169555
668.197	0.0171770
668.275	0.0172474
668.353	0.0170535
668.431	0.0169462
668.509	0.0169603
668.587	0.0171065
668.665	0.0170467
668.744	0.0170896
668.822	0.0168919
668.900	0.0167403
668.978	0.0167200
669.056	0.0164603
669.134	0.0165047
669.212	0.0162897
669.290	0.0161693
669.369	0.0160068
669.447	0.0158786
669.525	0.0157372
669.603	0.0155190
669.681	0.0154236
669.759	0.0152879
669.837	0.0150490
669.915	0.0150497
669.994	0.0151085
670.072	0.0149972
670.150	0.0149694
670.228	0.0150143
670.306	0.0151556
670.384	0.0151817
670.462	0.0152610
670.540	0.0154367
670.619	0.0156793
670.697	0.0158890
670.775	0.0160970
670.853	0.0164428
670.931	0.0166927
671.009	0.0169454
671.087	0.0170793
671.165	0.0173465
671.244	0.0177317
671.322	0.0179655
671.400	0.0180470
671.478	0.0182477
671.556	0.0184003
671.634	0.0185006
671.712	0.0186188
671.790	0.0185952
671.869	0.0187192
671.947	0.0185074
672.025	0.0185030
672.103	0.0184790
672.181	0.0184241
672.259	0.0183179
672.337	0.0182062
672.415	0.0179498
672.494	0.0179154
672.572	0.0178333
672.650	0.0176820
672.728	0.0174533
672.806	0.0173427
672.884	0.0171696
672.962	0.0170932
673.040	0.0168314
673.119	0.0167994
673.197	0.0166324
673.275	0.0166329
673.353	0.0164676
673.431	0.0162619
673.509	0.0162139
673.587	0.0162782
673.665	0.0161767
673.744	0.0159783
673.822	0.0159396
673.900	0.0158887
673.978	0.0159550
674.056	0.0158087
674.134	0.0156706
674.212	0.0157703
674.290	0.0157028
674.369	0.0156782
674.447	0.0158020
674.525	0.0159131
674.603	0.0159144
674.681	0.0158195
674.759	0.0160802
674.837	0.0160715
674.915	0.0162183
674.994	0.0162730
675.072	0.0162002
675.150	0.0162849
675.228	0.0164989
675.306	0.0164127
675.384	0.0163789
675.462	0.0165430
675.540	0.0165203
675.619	0.0163786
675.697	0.0165893
675.775	0.0165435
675.853	0.0163464
675.931	0.0163960
676.009	0.0163586
676.087	0.0164031
676.165	0.0163515
676.244	0.0164300
676.322	0.0165118
676.400	0.0165663
676.478	0.0165351
676.556	0.0163814
676.634	0.0166093
676.712	0.0165515
676.790	0.0166619
676.869	0.0165757
676.947	0.0165383
677.025	0.0166212
677.103	0.0165108
677.181	0.0165635
677.259	0.0165517
677.337	0.0165566
677.415	0.0164778
677.494	0.0167164
677.572	0.0167930
677.650	0.0167178
677.728	0.0168930
677.806	0.0169691
677.884	0.0171150
677.962	0.0171939
678.040	0.0172645
678.119	0.0171456
678.197	0.0175039
678.275	0.0174349
678.353	0.0173835
678.431	0.0174709
678.509	0.0174017
678.587	0.0174128
678.665	0.0173376
678.744	0.0173527
678.822	0.0172939
678.900	0.0173129
678.978	0.0171791
679.056	0.0171097
679.134	0.0171579
679.212	0.0169067
679.290	0.0169486
679.369	0.0169331
679.447	0.0168848
679.525	0.0169649
679.603	0.0167761
679.681	0.0168874
679.759	0.0166984
679.837	0.0166917
679.915	0.0167376
679.994	0.0165553
680.072	0.0164920
680.150	0.0163689
680.228	0.0161993
680.306	0.0161219
680.384	0.0160798
680.462	0.0160165
680.540	0.0157572
680.619	0.0157919
680.697	0.0156934
680.775	0.0156137
680.853	0.0157716
680.931	0.0157354
681.009	0.0157611
681.087	0.0156773
681.165	0.0157726
681.244	0.0158443
681.322	0.0160177
681.400	0.0160864
681.478	0.0161529
681.556	0.0160599
681.634	0.0163893
681.712	0.0163770
681.790	0.0165962
681.869	0.0168273
681.947	0.0167680
682.025	0.0170947
682.103	0.0171373
682.181	0.0172400
682.259	0.0172420
682.337	0.0174197
682.415	0.0175308
682.494	0.0175694
682.572	0.0176031
682.650	0.0174966
682.728	0.0174680
682.806	0.0175062
682.884	0.0174904
682.962	0.0174582
683.040	0.0174294
683.119	0.0173403
683.197	0.0170235
683.275	0.0167581
683.353	0.0168028
683.431	0.0167449
683.509	0.0164577
683.587	0.0164883
683.665	0.0162216
683.744	0.0162293
683.822	0.0161499
683.900	0.0160918
683.978	0.0160899
684.056	0.0162255
684.134	0.0161938
684.212	0.0162847
684.290	0.0163862
684.369	0.0163729
684.447	0.0163557
684.525	0.0165687
684.603	0.0166038
684.681	0.0166630
684.759	0.0168597
684.837	0.0164478
684.915	0.0166489
684.994	0.0165920
685.072	0.0166057
685.150	0.0166110
685.228	0.0164974
685.306	0.0164778
685.384	0.0164329
685.462	0.0165427
685.540	0.0164563
685.619	0.0163958
685.697	0.0164605
685.775	0.0166757
685.853	0.0164461
685.931	0.0164948
686.009	0.0165932
686.087	0.0165121
686.165	0.0165645
686.244	0.0166295
686.322	0.0167515
686.400	0.0166274
686.478	0.0168703
686.556	0.0166629
686.634	0.0167497
686.712	0.0170529
686.790	0.0170622
686.869	0.0170345
686.947	0.0172011
687.025	0.0171084
687.103	0.0173497
687.181	0.0172393
687.259	0.0172147
687.337	0.0172308
687.415	0.0171768
687.494	0.0171061
687.572	0.0172144
687.650	0.0171990
687.728	0.0170277
687.806	0.0170313
687.884	0.0168089
687.962	0.0168755
688.040	0.0168979
688.119	0.0167347
688.197	0.0167337
688.275	0.0167947
688.353	0.0166461
688.431	0.0166110
688.509	0.0166615
688.587	0.0167580
688.665	0.0168830
688.744	0.0168114
688.822	0.0167055
688.900	0.0168952
688.978	0.0168136
689.056	0.0167604
689.134	0.0168871
689.212	0.0167641
689.290	0.0169371
689.369	0.0168375
689.447	0.0167568
689.525	0.0169760
689.603	0.0168581
689.681	0.0168262
689.759	0.0168970
689.837	0.0169061
689.915	0.0167897
689.994	0.0168327
690.072	0.0169713
690.150	0.0168948
690.228	0.0168304
690.306	0.0167931
690.384	0.0167865
690.462	0.0168095
690.540	0.0164790
690.619	0.0165553
690.697	0.0165047
690.775	0.0164574
690.853	0.0164192
690.931	0.0163011
691.009	0.0162062
691.087	0.0162648
691.165	0.0164423
691.244	0.0163325
691.322	0.0163239
691.400	0.0162916
691.478	0.0163210
691.556	0.0163767
691.634	0.0164256
691.712	0.0165221
691.790	0.0165041
691.869	0.0165218
691.947	0.0164474
692.025	0.0164487
692.103	0.0164488
692.181	0.0165933
692.259	0.0165802
692.337	0.0165760
692.415	0.0166839
692.494	0.0165626
692.572	0.0167358
692.650	0.0167712
692.728	0.0168250
692.806	0.0168478
692.884	0.0169530
692.962	0.0169699
693.040	0.0168150
693.119	0.0169754
693.197	0.0169156
693.275	0.0170876
693.353	0.0170439
693.431	0.0170625
693.509	0.0170927
693.587	0.0169744
693.665	0.0170558
693.744	0.0171327
693.822	0.0171828
693.900	0.0171387
693.978	0.0170826
694.056	0.0170268
694.134	0.0169592
694.212	0.0170360
694.290	0.0170623
694.369	0.0170572
694.447	0.0169238
694.525	0.0168745
694.603	0.0168403
694.681	0.0168644
694.759	0.0167805
694.837	0.0167806
694.915	0.0166531
694.994	0.0166787
695.072	0.0166134
695.150	0.0164829
695.228	0.0165780
695.306	0.0164682
695.384	0.0162687
695.462	0.0162428
695.540	0.0164720
695.619	0.0164587
695.697	0.0163091
695.775	0.0161935
695.853	0.0163288
695.931	0.0164299
696.009	0.0164917
696.087	0.0163744
696.165	0.0162957
696.244	0.0163720
696.322	0.0164467
696.400	0.0164415
696.478	0.0164695
696.556	0.0164931
696.634	0.0164368
696.712	0.0164765
696.790	0.0164415
696.869	0.0164418
696.947	0.0163218
697.025	0.0162907
697.103	0.0163329
697.181	0.0164059
697.259	0.0163110
697.337	0.0164249
697.415	0.0164105
697.494	0.0164480
697.572	0.0163339
697.650	0.0163696
697.728	0.0163549
697.806	0.0164114
697.884	0.0164906
697.962	0.0165008
698.040	0.0165076
698.119	0.0166370
698.197	0.0166971
698.275	0.0166835
698.353	0.0166785
698.431	0.0165617
698.509	0.0166304
698.587	0.0165853
698.665	0.0168925
698.744	0.0166619
698.822	0.0166518
698.900	0.0167263
698.978	0.0168082
699.056	0.0166564
699.134	0.0166986
699.212	0.0166946
699.290	0.0166774
699.369	0.0168535
699.447	0.0168288
699.525	0.0168586
699.603	0.0169003
699.681	0.0168780
699.759	0.0168916
699.837	0.0169584
699.915	0.0169883
699.994	0.0169562
700.072	0.0170266
700.150	0.0170998
700.228	0.0170885
700.306	0.0172701
700.384	0.0172842
700.462	0.0173356
700.540	0.0174023
700.619	0.0174049
700.697	0.0174046
700.775	0.0174553
700.853	0.0175029
700.931	0.0174460
701.009	0.0174875
701.087	0.0174188
701.165	0.0173237
701.244	0.0171440
701.322	0.0172003
701.400	0.0172340
701.478	0.0171552
701.556	0.0170799
701.634	0.0168708
701.712	0.0168734
701.790	0.0168430
701.869	0.0166673
701.947	0.0165344
702.025	0.0166553
702.103	0.0165555
702.181	0.0165451
702.259	0.0164461
702.337	0.0164983
702.415	0.0163545
702.494	0.0163244
702.572	0.0164643
702.650	0.0164980
702.728	0.0165383
702.806	0.0163967
702.884	0.0163675
702.962	0.0165795
703.040	0.0165276
703.119	0.0164971
703.197	0.0165144
703.275	0.0165797
703.353	0.0166929
703.431	0.0167083
703.509	0.0167454
703.587	0.0168248
703.665	0.0166883
703.744	0.0168124
703.822	0.0167069
703.900	0.0168832
703.978	0.0168102
704.056	0.0169981
704.134	0.0170425
704.212	0.0168093
704.290	0.0170508
704.369	0.0171422
704.447	0.0171155
704.525	0.0170767
704.603	0.0171595
704.681	0.0171655
704.759	0.0171178
704.837	0.0171136
704.915	0.0171264
704.994	0.0171690
705.072	0.0170306
705.150	0.0169512
705.228	0.0168593
705.306	0.0168924
705.384	0.0167582
705.462	0.0165683
705.540	0.0166450
705.619	0.0166992
705.697	0.0166529
705.775	0.0165585
705.853	0.0165958
705.931	0.0164790
706.009	0.0165347
706.087	0.0164740
706.165	0.0166543
706.244	0.0166277
706.322	0.0165252
706.400	0.0165951
706.478	0.0166991
706.556	0.0167187
706.634	0.0166365
706.712	0.0167111
706.790	0.0167651
706.869	0.0167372
706.947	0.0168372
707.025	0.0168887
707.103	0.0168335
707.181	0.0168923
707.259	0.0170245
707.337	0.0169601
707.415	0.0168794
707.494	0.0170175
707.572	0.0169639
707.650	0.0171599
707.728	0.0171164
707.806	0.0169894
707.884	0.0171347
707.962	0.0171914
708.040	0.0171142
708.119	0.0171014
708.197	0.0170193
708.275	0.0170194
708.353	0.0169975
708.431	0.0169255
708.509	0.0167700
708.587	0.0167364
708.665	0.0167194
708.744	0.0167818
708.822	0.0165516
708.900	0.0165476
708.978	0.0166801
709.056	0.0166157
709.134	0.0165760
709.212	0.0163753
709.290	0.0165155
709.369	0.0163390
709.447	0.0163455
709.525	0.0163656
709.603	0.0162948
709.681	0.0162347
709.759	0.0164037
709.837	0.0162421
709.915	0.0163295
709.994	0.0163474
710.072	0.0163216
710.150	0.0162456
710.228	0.0162538
710.306	0.0163483
710.384	0.0164903
710.462	0.0165247
710.540	0.0164339
710.619	0.0165756
710.697	0.0166048
710.775	0.0166908
710.853	0.0165318
710.931	0.0166603
711.009	0.0168031
711.087	0.0168659
711.165	0.0169183
711.244	0.0169670
711.322	0.0169056
711.400	0.0169823
711.478	0.0169180
711.556	0.0170007
711.634	0.0169855
711.712	0.0169645
711.790	0.0169601
711.869	0.0170435
711.947	0.0169662
712.025	0.0168729
712.103	0.0169680
712.181	0.0168043
712.259	0.0168452
712.337	0.0167391
712.415	0.0167281
712.494	0.0166142
712.572	0.0166552
712.650	0.0166611
712.728	0.0164803
712.806	0.0164306
712.884	0.0164886
712.962	0.0164923
713.040	0.0163817
713.119	0.0164762
713.197	0.0165073
713.275	0.0163583
713.353	0.0164824
713.431	0.0163818
713.509	0.0164103
713.587	0.0163779
713.665	0.0164378
713.744	0.0165813
713.822	0.0164300
713.900	0.0164236
713.978	0.0165506
714.056	0.0165164
714.134	0.0164403
714.212	0.0165422
714.290	0.0164848
714.369	0.0166070
714.447	0.0166997
714.525	0.0166783
714.603	0.0166219
714.681	0.0166676
714.759	0.0167676
714.837	0.0167905
714.915	0.0167879
714.994	0.0169920
715.072	0.0169330
715.150	0.0170054
715.228	0.0169868
715.306	0.0171066
715.384	0.0170698
715.462	0.0169938
715.540	0.0170326
715.619	0.0171230
715.697	0.0171897
715.775	0.0169620
715.853	0.0170341
715.931	0.0168966
716.009	0.0170399
716.087	0.0169798
716.165	0.0168439
716.244	0.0167970
716.322	0.0168453
716.400	0.0166924
716.478	0.0168109
716.556	0.0167641
716.634	0.0167313
716.712	0.0166581
716.790	0.0166888
716.869	0.0166263
716.947	0.0165050
717.025	0.0165723
717.103	0.0163276
717.181	0.0163273
717.259	0.0163721
717.337	0.0162392
717.415	0.0163512
717.494	0.0162876
717.572	0.0162491
717.650	0.0163329
717.728	0.0163354
717.806	0.0162483
717.884	0.0164144
717.962	0.0164680
718.040	0.0164536
718.119	0.0165250
718.197	0.0165159
718.275	0.0164314
718.353	0.0165850
718.431	0.0166640
718.509	0.0165122
718.587	0.0165434
718.665	0.0165865
718.744	0.0166212
718.822	0.0165713
718.900	0.0166374
718.978	0.0166379
719.056	0.0166199
719.134	0.0165879
719.212	0.0168190
719.290	0.0165945
719.369	0.0166196
719.447	0.0167312
719.525	0.0166032
719.603	0.0166322
719.681	0.0165795
719.759	0.0165026
719.837	0.0166326
719.915	0.0166304
719.994	0.0165479
720.072	0.0166402
720.150	0.0165107
720.228	0.0164941
720.306	0.0165428
720.384	0.0165298
720.462	0.0165398
720.540	0.0165745
720.619	0.0166210
720.697	0.0166001
720.775	0.0166721
720.853	0.0166976
720.931	0.0167261
721.009	0.0166969
721.087	0.0168626
721.165	0.0167876
721.244	0.0168727
721.322	0.0169553
721.400	0.0171155
721.478	0.0171099
721.556	0.0171892
721.634	0.0170999
721.712	0.0171426
721.790	0.0172913
721.869	0.0172555
721.947	0.0174470
722.025	0.0173234
722.103	0.0172749
722.181	0.0173097
722.259	0.0172440
722.337	0.0172485
722.415	0.0171828
722.494	0.0171355
722.572	0.0171912
722.650	0.0171008
722.728	0.0171055
722.806	0.0170853
722.884	0.0170707
722.962	0.0168026
723.040	0.0167871
723.119	0.0167002
723.197	0.0166146
723.275	0.0164815
723.353	0.0164310
723.431	0.0163781
723.509	0.0164206
723.587	0.0162804
723.665	0.0163190
723.744	0.0162479
723.822	0.0161744
723.900	0.0162329
723.978	0.0164902
724.056	0.0165804
724.134	0.0165403
724.212	0.0165535
724.290	0.0165558
724.369	0.0166947
724.447	0.0165491
724.525	0.0166960
724.603	0.0167765
724.681	0.0167859
724.759	0.0168769
724.837	0.0169677
724.915	0.0170190
724.994	0.0170051
725.072	0.0170960
725.150	0.0169547
725.228	0.0171496
725.306	0.0171533
725.384	0.0171716
725.462	0.0172982
725.540	0.0172143
725.619	0.0173130
725.697	0.0172823
725.775	0.0170162
725.853	0.0170628
725.931	0.0171273
726.009	0.0171149
726.087	0.0171154
726.165	0.0170080
726.244	0.0168160
726.322	0.0168932
726.400	0.0168571
726.478	0.0168393
726.556	0.0166486
726.634	0.0166048
726.712	0.0167193
726.790	0.0166384
726.869	0.0165393
726.947	0.0165678
727.025	0.0164505
727.103	0.0164753
727.181	0.0164436
727.259	0.0164731
727.337	0.0165721
727.415	0.0165148
727.494	0.0165977
727.572	0.0166607
727.650	0.0166563
727.728	0.0165819
727.806	0.0166166
727.884	0.0167431
727.962	0.0166751
728.040	0.0168724
728.119	0.0169556
728.197	0.0169029
728.275	0.0168961
728.353	0.0168875
728.431	0.0170956
728.509	0.0171858
728.587	0.0170563
728.665	0.0171448
728.744	0.0172128
728.822	0.0171310
728.900	0.0171137
728.978	0.0172652
729.056	0.0171203
729.134	0.0171285
729.212	0.0171638
729.290	0.0169762
729.369	0.0170143
729.447	0.0169215
729.525	0.0168182
729.603	0.0167802
729.681	0.0166130
729.759	0.0166022
729.837	0.0165977
729.915	0.0166213
729.994	0.0165820
730.072	0.0163847
730.150	0.0164497
730.228	0.0163322
730.306	0.0164787
730.384	0.0164149
730.462	0.0165609
730.540	0.0165232
730.619	0.0163599
730.697	0.0165029
730.775	0.0165232
730.853	0.0165874
730.931	0.0166520
731.009	0.0165964
731.087	0.0166401
731.165	0.0167809
731.244	0.0167822
731.322	0.0169616
731.400	0.0168690
731.478	0.0170089
731.556	0.0169733
731.634	0.0170964
731.712	0.0170547
731.790	0.0170113
731.869	0.0171041
731.947	0.0171095
732.025	0.0171667
732.103	0.0171960
732.181	0.0171737
732.259	0.0171710
732.337	0.0171814
732.415	0.0170756
732.494	0.0172873
732.572	0.0170670
732.650	0.0170679
732.728	0.0169550
732.806	0.0170338
732.884	0.0171136
732.962	0.0170279
733.040	0.0169172
733.119	0.0168967
733.197	0.0167953
733.275	0.0168689
733.353	0.0166827
733.431	0.0167406
733.509	0.0166752
733.587	0.0166659
733.665	0.0166579
733.744	0.0166637
733.822	0.0166233
733.900	0.0165889
733.978	0.0164918
734.056	0.0165006
734.134	0.0164372
734.212	0.0164436
734.290	0.0164914
734.369	0.0165424
734.447	0.0165466
734.525	0.0164332
734.603	0.0165118
734.681	0.0165237
734.759	0.0164211
734.837	0.0163651
734.915	0.0163593
734.994	0.0165364
735.072	0.0164070
735.150	0.0163616
735.228	0.0165427
735.306	0.0164561
735.384	0.0163560
735.462	0.0163840
735.540	0.0163188
735.619	0.0163825
735.697	0.0163242
735.775	0.0163865
735.853	0.0163581
735.931	0.0163451
736.009	0.0163205
736.087	0.0164066
736.165	0.0164154
736.244	0.0165205
736.322	0.0164320
736.400	0.0165176
736.478	0.0166828
736.556	0.0166518
736.634	0.0167749
736.712	0.0167743
736.790	0.0166727
736.869	0.0166424
736.947	0.0167958
737.025	0.0168295
737.103	0.0170238
737.181	0.0168848
737.259	0.0169460
737.337	0.0171016
737.415	0.0170498
737.494	0.0171039
737.572	0.0170885
737.650	0.0172584
737.728	0.0173679
737.806	0.0171873
737.884	0.0171892
737.962	0.0172752
738.040	0.0172721
738.119	0.0172947
738.197	0.0171670
738.275	0.0170961
738.353	0.0171663
738.431	0.0170446
738.509	0.0170564
738.587	0.0169335
738.665	0.0168210
738.744	0.0167699
738.822	0.0167300
738.900	0.0168607
738.978	0.0167125
739.056	0.0167918
739.134	0.0166300
739.212	0.0166332
739.290	0.0167637
739.369	0.0167237
739.447	0.0166961
739.525	0.0167793
739.603	0.0167006
739.681	0.0166681
739.759	0.0165794
739.837	0.0165154
739.915	0.0165678
739.994	0.0166276
740.072	0.0166231
740.150	0.0166736
740.228	0.0166295
740.306	0.0165636
740.384	0.0165997
740.462	0.0165471
740.540	0.0164728
740.619	0.0164444
740.697	0.0164783
740.775	0.0165672
740.853	0.0165673
740.931	0.0164755
741.009	0.0164214
741.087	0.0164538
741.165	0.0164312
741.244	0.0164787
741.322	0.0164069
741.400	0.0163381
741.478	0.0164189
741.556	0.0161885
741.634	0.0163114
741.712	0.0164771
741.790	0.0163166
741.869	0.0161473
741.947	0.0163541
742.025	0.0164235
742.103	0.0164659
742.181	0.0162731
742.259	0.0164513
742.337	0.0162952
742.415	0.0164876
742.494	0.0164672
742.572	0.0165338
742.650	0.0165685
742.728	0.0165469
742.806	0.0165791
742.884	0.0167798
742.962	0.0166052
743.040	0.0167233
743.119	0.0167975
743.197	0.0167442
743.275	0.0167437
743.353	0.0167947
743.431	0.0167787
743.509	0.0167696
743.587	0.0168212
743.665	0.0169672
743.744	0.0168728
743.822	0.0170088
743.900	0.0169425
743.978	0.0171037
744.056	0.0170373
744.134	0.0171159
744.212	0.0170222
744.290	0.0170998
744.369	0.0171318
744.447	0.0171772
744.525	0.0171733
744.603	0.0171423
744.681	0.0173182
744.759	0.0172427
744.837	0.0171117
744.915	0.0171207
744.994	0.0171413
745.072	0.0171731
745.150	0.0171482
745.228	0.0171162
745.306	0.0169709
745.384	0.0171076
745.462	0.0170434
745.540	0.0171024
745.619	0.0169646
745.697	0.0169518
745.775	0.0169988
745.853	0.0169365
745.931	0.0169288
746.009	0.0168227
746.087	0.0167923
746.165	0.0167628
746.244	0.0167052
746.322	0.0165288
746.400	0.0164993
746.478	0.0164797
746.556	0.0165138
746.634	0.0164182
746.712	0.0161803
746.790	0.0163743
746.869	0.0163596
746.947	0.0161873
747.025	0.0162084
747.103	0.0161741
747.181	0.0161623
747.259	0.0161613
747.337	0.0161179
747.415	0.0160871
747.494	0.0160997
747.572	0.0160857
747.650	0.0159912
747.728	0.0161558
747.806	0.0161318
747.884	0.0160983
747.962	0.0160857
748.040	0.0162225
748.119	0.0164152
748.197	0.0163145
748.275	0.0162710
748.353	0.0162472
748.431	0.0164337
748.509	0.0165178
748.587	0.0166080
748.665	0.0165981
748.744	0.0166183
748.822	0.0166795
748.900	0.0167807
748.978	0.0167766
749.056	0.0168200
749.134	0.0168422
749.212	0.0169343
749.290	0.0169374
749.369	0.0170280
749.447	0.0170490
749.525	0.0170420
749.603	0.0170299
749.681	0.0169249
749.759	0.0169670
749.837	0.0169308
749.915	0.0170287
749.994	0.0169609
750.072	0.0168594
750.150	0.0170438
750.228	0.0168571
750.306	0.0169025
750.384	0.0168149
750.462	0.0168472
750.540	0.0168390
750.619	0.0168243
750.697	0.0168422
750.775	0.0169289
750.853	0.0169151
750.931	0.0168502
751.009	0.0168803
751.087	0.0168560
751.165	0.0168357
751.244	0.0169267
751.322	0.0167347
751.400	0.0170093
751.478	0.0169983
751.556	0.0168456
751.634	0.0168648
751.712	0.0169437
751.790	0.0169798
751.869	0.0169776
751.947	0.0168396
752.025	0.0168604
752.103	0.0169668
752.181	0.0170518
752.259	0.0171012
752.337	0.0169813
752.415	0.0170946
752.494	0.0169859
752.572	0.0170649
752.650	0.0170552
752.728	0.0171552
752.806	0.0169289
752.884	0.0169150
752.962	0.0167730
753.040	0.0169088
753.119	0.0169443
753.197	0.0168266
753.275	0.0168427
753.353	0.0168433
753.431	0.0167023
753.509	0.0166664
753.587	0.0166290
753.665	0.0165143
753.744	0.0167340
753.822	0.0165583
753.900	0.0165121
753.978	0.0165446
754.056	0.0165546
754.134	0.0165545
754.212	0.0166043
754.290	0.0166492
754.369	0.0164104
754.447	0.0164532
754.525	0.0164809
754.603	0.0165591
754.681	0.0165605
754.759	0.0165956
754.837	0.0168017
754.915	0.0166912
754.994	0.0167551
755.072	0.0167844
755.150	0.0167930
755.228	0.0167200
755.306	0.0168238
755.384	0.0168663
755.462	0.0168375
755.540	0.0167830
755.619	0.0168340
755.697	0.0168626
755.775	0.0168718
755.853	0.0169949
755.931	0.0169932
756.009	0.0169212
756.087	0.0169706
756.165	0.0169134
756.244	0.0168279
756.322	0.0170300
756.400	0.0169612
756.478	0.0170452
756.556	0.0170203
756.634	0.0170052
756.712	0.0167290
756.790	0.0167583
756.869	0.0168455
756.947	0.0169016
757.025	0.0168996
757.103	0.0167921
757.181	0.0167991
757.259	0.0167623
757.337	0.0168059
757.415	0.0167783
757.494	0.0165587
757.572	0.0165987
757.650	0.0166714
757.728	0.0167794
757.806	0.0167248
757.884	0.0166267
757.962	0.0167493
758.040	0.0166958
758.119	0.0166901
758.197	0.0167373
758.275	0.0168766
758.353	0.0167630
758.431	0.0166465
758.509	0.0166615
758.587	0.0166757
758.665	0.0166771
758.744	0.0165573
758.822	0.0166817
758.900	0.0166827
758.978	0.0165198
759.056	0.0165429
759.134	0.0164912
759.212	0.0163904
759.290	0.0164270
759.369	0.0165100
759.447	0.0163779
759.525	0.0163890
759.603	0.0164400
759.681	0.0163663
759.759	0.0163165
759.837	0.0164998
759.915	0.0165403
759.994	0.0164755
760.072	0.0164324
760.150	0.0164921
760.228	0.0166111
760.306	0.0167889
760.384	0.0167514
760.462	0.0167075
760.540	0.0168046
760.619	0.0168817
760.697	0.0168324
760.775	0.0168618
760.853	0.0169494
760.931	0.0169696
761.009	0.0169990
761.087	0.0170663
761.165	0.0170750
761.244	0.0171281
761.322	0.0172254
761.400	0.0172497
761.478	0.0174161
761.556	0.0173374
761.634	0.0173873
761.712	0.0172364
761.790	0.0173061
761.869	0.0172192
761.947	0.0172632
762.025	0.0172195
762.103	0.0170782
762.181	0.0170126
762.259	0.0172002
762.337	0.0169199
762.415	0.0170045
762.494	0.0168831
762.572	0.0169485
762.650	0.0168758
762.728	0.0168533
762.806	0.0167507
762.884	0.0166907
762.962	0.0167606
763.040	0.0167446
763.119	0.0167262
763.197	0.0165768
763.275	0.0165025
763.353	0.0164442
763.431	0.0164794
763.509	0.0165025
763.587	0.0165857
763.665	0.0166355
763.744	0.0165036
763.822	0.0165717
763.900	0.0164951
763.978	0.0164993
764.056	0.0164903
764.134	0.0165075
764.212	0.0166758
764.290	0.0166417
764.369	0.0166611
764.447	0.0166077
764.525	0.0166782
764.603	0.0168596
764.681	0.0167737
764.759	0.0165544
764.837	0.0166772
764.915	0.0168282
764.994	0.0166239
765.072	0.0167025
765.150	0.0166317
765.228	0.0166405
765.306	0.0166223
765.384	0.0166780
765.462	0.0165952
765.540	0.0166825
765.619	0.0166122
765.697	0.0164306
765.775	0.0166058
765.853	0.0165232
765.931	0.0164826
766.009	0.0164619
766.087	0.0164890
766.165	0.0164568
766.244	0.0165394
766.322	0.0164115
766.400	0.0165142
766.478	0.0165192
766.556	0.0164144
766.634	0.0164423
766.712	0.0165441
766.790	0.0163686
766.869	0.0164856
766.947	0.0166314
767.025	0.0165582
767.103	0.0165255
767.181	0.0166502
767.259	0.0166721
767.337	0.0166658
767.415	0.0167672
767.494	0.0168972
767.572	0.0167460
767.650	0.0167738
767.728	0.0169344
767.806	0.0170663
767.884	0.0170760
767.962	0.0169843
768.040	0.0170487
768.119	0.0171097
768.197	0.0170313
768.275	0.0170751
768.353	0.0170860
768.431	0.0171397
768.509	0.0171820
768.587	0.0171120
768.665	0.0171534
768.744	0.0171125
768.822	0.0170526
768.900	0.0169830
768.978	0.0169683
769.056	0.0169359
769.134	0.0170095
769.212	0.0169130
769.290	0.0169050
769.369	0.0170163
769.447	0.0169403
769.525	0.0168481
769.603	0.0167845
769.681	0.0167104
769.759	0.0167181
769.837	0.0167606
769.915	0.0167368
769.994	0.0167720
770.072	0.0168998
770.150	0.0167972
770.228	0.0166814
770.306	0.0167346
770.384	0.0165298
770.462	0.0167385
770.540	0.0167970
770.619	0.0165972
770.697	0.0166378
770.775	0.0166908
770.853	0.0165359
770.931	0.0164545
771.009	0.0166948
771.087	0.0166599
771.165	0.0166003
771.244	0.0165186
771.322	0.0164626
771.400	0.0163927
771.478	0.0164060
771.556	0.0164846
771.634	0.0166035
771.712	0.0163184
771.790	0.0162894
771.869	0.0164200
771.947	0.0164325
772.025	0.0162910
772.103	0.0162233
772.181	0.0163671
772.259	0.0162635
772.337	0.0161842
772.415	0.0163755
772.494	0.0162151
772.572	0.0163750
772.650	0.0163496
772.728	0.0164416
772.806	0.0163898
772.884	0.0163053
772.962	0.0164044
773.040	0.0163611
773.119	0.0163896
773.197	0.0165011
773.275	0.0163963
773.353	0.0164566
773.431	0.0163909
773.509	0.0164851
773.587	0.0165302
773.665	0.0166652
773.744	0.0166222
773.822	0.0167030
773.900	0.0168870
773.978	0.0168930
774.056	0.0167387
774.134	0.0169206
774.212	0.0171748
774.290	0.0169015
774.369	0.0171284
774.447	0.0170975
774.525	0.0169171
774.603	0.0170879
774.681	0.0170647
774.759	0.0171626
774.837	0.0171397
774.915	0.0170783
774.994	0.0170853
775.072	0.0170943
775.150	0.0171149
775.228	0.0171104
775.306	0.0171004
775.384	0.0169444
775.462	0.0170000
775.540	0.0169929
775.619	0.0169764
775.697	0.0169691
775.775	0.0169836
775.853	0.0170296
775.931	0.0169877
776.009	0.0167875
776.087	0.0167904
776.165	0.0168865
776.244	0.0170625
776.322	0.0168024
776.400	0.0167735
776.478	0.0168117
776.556	0.0168199
776.634	0.0167855
776.712	0.0167133
776.790	0.0167879
776.869	0.0166076
776.947	0.0166866
777.025	0.0166237
777.103	0.0167059
777.181	0.0167052
777.259	0.0166966
777.337	0.0166055
777.415	0.0165850
777.494	0.0166298
777.572	0.0165393
777.650	0.0165295
777.728	0.0167048
777.806	0.0166797
777.884	0.0167349
777.962	0.0166061
778.040	0.0167567
778.119	0.0168021
778.197	0.0167541
778.275	0.0167301
778.353	0.0166499
778.431	0.0168186
778.509	0.0167465
778.587	0.0167262
778.665	0.0168755
778.744	0.0167746
778.822	0.0167780
778.900	0.0167577
778.978	0.0168430
779.056	0.0168225
779.134	0.0168336
779.212	0.0167460
779.290	0.0168579
779.369	0.0166551
779.447	0.0167390
779.525	0.0168632
779.603	0.0166921
779.681	0.0166793
779.759	0.0168021
779.837	0.0165406
779.915	0.0167106
779.994	0.0166402
780.072	0.0167049
780.150	0.0165820
780.228	0.0164873
780.306	0.0164955
780.384	0.0166708
780.462	0.0166874
780.540	0.0164841
780.619	0.0164741
780.697	0.0164643
780.775	0.0164856
780.853	0.0164559
780.931	0.0165430
781.009	0.0166893
781.087	0.0165536
781.165	0.0165312
781.244	0.0166531
781.322	0.0166215
781.400	0.0167164
781.478	0.0166564
781.556	0.0166154
781.634	0.0166964
781.712	0.0167730
781.790	0.0169067
781.869	0.0167256
781.947	0.0168584
782.025	0.0167555
782.103	0.0168442
782.181	0.0168723
782.259	0.0167651
782.337	0.0168085
782.415	0.0167600
782.494	0.0168614
782.572	0.0167047
782.650	0.0167770
782.728	0.0168587
782.806	0.0168338
782.884	0.0168806
782.962	0.0168517
783.040	0.0168407
783.119	0.0169085
783.197	0.0169249
783.275	0.0168575
783.353	0.0168519
783.431	0.0169307
783.509	0.0169482
783.587	0.0170041
783.665	0.0169174
783.744	0.0169682
783.822	0.0170017
783.900	0.0170422
783.978	0.0169356
784.056	0.0169257
784.134	0.0171255
784.212	0.0168650
784.290	0.0168800
784.369	0.0171281
784.447	0.0169160
784.525	0.0168092
784.603	0.0169323
784.681	0.0168155
784.759	0.0168475
784.837	0.0169019
784.915	0.0168594
784.994	0.0169006
785.072	0.0166103
785.150	0.0167461
785.228	0.0168205
785.306	0.0168337
785.384	0.0167081
785.462	0.0168011
785.540	0.0166950
785.619	0.0167767
785.697	0.0167788
785.775	0.0168430
785.853	0.0166708
785.931	0.0168268
786.009	0.0168630
786.087	0.0167493
786.165	0.0167435
786.244	0.0167129
786.322	0.0166807
786.400	0.0166932
786.478	0.0167782
786.556	0.0166393
786.634	0.0166788
786.712	0.0166607
786.790	0.0166050
786.869	0.0165796
786.947	0.0167000
787.025	0.0168115
787.103	0.0167767
787.181	0.0166650
787.259	0.0166325
787.337	0.0166070
787.415	0.0165073
787.494	0.0166605
787.572	0.0165341
787.650	0.0164967
787.728	0.0164411
787.806	0.0166650
787.884	0.0164275
787.962	0.0164652
788.040	0.0163556
788.119	0.0163776
788.197	0.0163563
788.275	0.0163294
788.353	0.0164801
788.431	0.0164270
788.509	0.0163348
788.587	0.0164372
788.665	0.0165118
788.744	0.0163901
788.822	0.0164091
788.900	0.0163183
788.978	0.0163492
789.056	0.0165335
789.134	0.0164658
789.212	0.0163354
789.290	0.0165266
789.369	0.0166871
789.447	0.0165075
789.525	0.0165934
789.603	0.0164896
789.681	0.0165541
789.759	0.0165264
789.837	0.0166187
789.915	0.0166345
789.994	0.0165326
790.072	0.0167053
790.150	0.0167519
790.228	0.0166557
790.306	0.0167566
790.384	0.0168851
790.462	0.0168195
790.540	0.0167986
790.619	0.0170003
790.697	0.0168790
790.775	0.0170423
790.853	0.0170133
790.931	0.0169930
791.009	0.0168560
791.087	0.0170093
791.165	0.0170433
791.244	0.0170511
791.322	0.0171378
791.400	0.0170312
791.478	0.0170464
791.556	0.0169212
791.634	0.0168504
791.712	0.0170698
791.790	0.0171271
791.869	0.0169946
791.947	0.0168095
792.025	0.0169266
792.103	0.0169014
792.181	0.0169742
792.259	0.0169944
792.337	0.0168607
792.415	0.0168611
792.494	0.0169392
792.572	0.0169176
792.650	0.0169819
792.728	0.0169336
792.806	0.0167812
792.884	0.0169055
792.962	0.0168945
793.040	0.0169235
793.119	0.0168113
793.197	0.0168163
793.275	0.0168066
793.353	0.0168489
793.431	0.0167866
793.509	0.0167302
793.587	0.0166267
793.665	0.0167107
793.744	0.0166549
793.822	0.0167193
793.900	0.0166557
793.978	0.0164883
794.056	0.0166432
794.134	0.0166676
794.212	0.0166032
794.290	0.0166250
794.369	0.0165952
794.447	0.0166592
794.525	0.0166371
794.603	0.0166928
794.681	0.0165318
794.759	0.0165836
794.837	0.0165752
794.915	0.0165045
794.994	0.0165234
795.072	0.0165736
795.150	0.0167220
795.228	0.0166230
795.306	0.0167056
795.384	0.0168315
795.462	0.0166876
795.540	0.0167726
795.619	0.0166773
795.697	0.0166512
795.775	0.0166861
795.853	0.0167038
795.931	0.0167389
796.009	0.0167891
796.087	0.0167669
796.165	0.0168023
796.244	0.0167417
796.322	0.0165609
796.400	0.0166689
796.478	0.0165236
796.556	0.0166322
796.634	0.0164829
796.712	0.0164286
796.790	0.0164767
796.869	0.0165393
796.947	0.0165144
797.025	0.0165653
797.103	0.0165502
797.181	0.0165205
797.259	0.0167413
797.337	0.0167731
797.415	0.0165665
797.494	0.0165688
797.572	0.0166899
797.650	0.0167110
797.728	0.0167943
797.806	0.0168478
797.884	0.0166807
797.962	0.0167651
798.040	0.0167074
798.119	0.0168251
798.197	0.0168193
798.275	0.0169016
798.353	0.0168078
798.431	0.0168896
798.509	0.0169584
798.587	0.0170207
798.665	0.0170195
798.744	0.0170344
798.822	0.0171162
798.900	0.0169891
798.978	0.0168461
799.056	0.0169428
799.134	0.0169805
799.212	0.0169106
799.290	0.0167045
799.369	0.0168324
799.447	0.0167911
799.525	0.0167282
799.603	0.0166346
799.681	0.0166582
799.759	0.0166871
799.837	0.0164848
799.915	0.0165719
799.994	0.0165287
800.072	0.0166639
800.150	0.0163889
800.228	0.0163467
800.306	0.0164553
800.384	0.0164076
800.462	0.0164689
800.540	0.0165089
800.619	0.0166242
800.697	0.0165482
800.775	0.0167254
800.853	0.0166463
800.931	0.0166360
801.009	0.0166793
801.087	0.0166736
801.165	0.0166872
801.244	0.0167471
801.322	0.0166863
801.400	0.0168111
801.478	0.0167912
801.556	0.0168013
801.634	0.0167050
801.712	0.0167529
801.790	0.0166242
801.869	0.0168008
801.947	0.0167211
802.025	0.0167844
802.103	0.0168610
802.181	0.0168542
802.259	0.0168385
802.337	0.0167419
802.415	0.0167535
802.494	0.0167512
802.572	0.0167500
802.650	0.0166315
802.728	0.0167068
802.806	0.0165744
802.884	0.0166900
802.962	0.0167127
803.040	0.0167820
803.119	0.0166362
803.197	0.0165479
803.275	0.0164577
803.353	0.0164304
803.431	0.0163974
803.509	0.0165958
803.587	0.0165786
803.665	0.0164357
803.744	0.0164076
803.822	0.0164341
803.900	0.0165001
803.978	0.0163432
804.056	0.0164397
804.134	0.0165171
804.212	0.0165287
804.290	0.0165501
804.369	0.0165827
804.447	0.0165229
804.525	0.0165709
804.603	0.0164485
804.681	0.0165414
804.759	0.0166471
804.837	0.0168095
804.915	0.0166747
804.994	0.0165745
805.072	0.0167845
805.150	0.0168150
805.228	0.0169920
805.306	0.0167869
805.384	0.0168642
805.462	0.0168250
805.540	0.0169763
805.619	0.0170358
805.697	0.0170531
805.775	0.0170825
805.853	0.0171690
805.931	0.0171008
806.009	0.0170665
806.087	0.0169848
806.165	0.0170763
806.244	0.0170662
806.322	0.0170497
806.400	0.0170482
806.478	0.0170992
806.556	0.0170219
806.634	0.0170194
806.712	0.0169544
806.790	0.0169769
806.869	0.0170686
806.947	0.0168470
807.025	0.0167999
807.103	0.0169172
807.181	0.0169790
807.259	0.0169174
807.337	0.0168111
807.415	0.0168652
807.494	0.0169096
807.572	0.0168724
807.650	0.0167992
807.728	0.0167622
807.806	0.0167719
807.884	0.0168306
807.962	0.0168053
808.040	0.0167366
808.119	0.0166661
808.197	0.0167188
808.275	0.0166840
808.353	0.0167442
808.431	0.0166976
808.509	0.0167998
808.587	0.0167838
808.665	0.0165772
808.744	0.0166201
808.822	0.0166013
808.900	0.0166648
808.978	0.0166118
809.056	0.0166078
809.134	0.0164915
809.212	0.0165861
809.290	0.0166557
809.369	0.0167336
809.447	0.0167088
809.525	0.0167419
809.603	0.0167905
809.681	0.0167934
809.759	0.0168420
809.837	0.0169106
809.915	0.0170216
809.994	0.0168445
810.072	0.0169719
810.150	0.0168176
810.228	0.0169080
810.306	0.0169163
810.384	0.0169420
810.462	0.0169147
810.540	0.0168579
810.619	0.0169115
810.697	0.0169351
810.775	0.0169263
810.853	0.0168618
810.931	0.0168667
811.009	0.0169807
811.087	0.0168843
811.165	0.0166777
811.244	0.0167642
811.322	0.0166381
811.400	0.0166652
811.478	0.0166697
811.556	0.0165460
811.634	0.0166206
811.712	0.0165702
811.790	0.0165509
811.869	0.0164652
811.947	0.0164558
812.025	0.0163753
812.103	0.0164639
812.181	0.0163346
812.259	0.0163414
812.337	0.0163743
812.415	0.0163047
812.494	0.0164736
812.572	0.0163583
812.650	0.0163898
812.728	0.0162484
812.806	0.0163497
812.884	0.0163547
812.962	0.0164238
813.040	0.0164731
813.119	0.0165878
813.197	0.0165762
813.275	0.0165159
813.353	0.0165484
813.431	0.0166647
813.509	0.0168069
813.587	0.0167516
813.665	0.0169173
813.744	0.0169632
813.822	0.0168513
813.900	0.0168640
813.978	0.0168522
814.056	0.0169508
814.134	0.0169358
814.212	0.0168686
814.290	0.0168802
814.369	0.0167999
814.447	0.0168599
814.525	0.0168011
814.603	0.0167594
814.681	0.0165971
814.759	0.0166801
814.837	0.0166313
814.915	0.0165745
814.994	0.0165867
815.072	0.0165268
815.150	0.0165450
815.228	0.0165958
815.306	0.0166848
815.384	0.0165110
815.462	0.0164719
815.540	0.0165309
815.619	0.0165874
815.697	0.0166187
815.775	0.0166550
815.853	0.0167715
815.931	0.0167142
816.009	0.0167332
816.087	0.0166355
816.165	0.0166802
816.244	0.0168505
816.322	0.0168449
816.400	0.0168404
816.478	0.0168446
816.556	0.0167828
816.634	0.0170269
816.712	0.0168488
816.790	0.0168336
816.869	0.0169289
816.947	0.0168591
817.025	0.0169386
817.103	0.0169554
817.181	0.0170425
817.259	0.0168899
817.337	0.0169216
817.415	0.0168178
817.494	0.0168401
817.572	0.0168445
817.650	0.0168785
817.728	0.0167693
817.806	0.0166936
817.884	0.0167982
817.962	0.0166723
818.040	0.0167606
818.119	0.0166850
818.197	0.0166439
818.275	0.0166863
818.353	0.0165971
818.431	0.0167841
818.509	0.0166133
818.587	0.0165814
818.665	0.0166050
818.744	0.0165700
818.822	0.0166634
818.900	0.0167259
818.978	0.0165794
819.056	0.0166904
819.134	0.0167821
819.212	0.0169418
819.290	0.0169899
819.369	0.0169913
819.447	0.0168599
819.525	0.0169474
819.603	0.0169557
819.681	0.0171008
819.759	0.0171898
819.837	0.0171711
819.915	0.0171674
819.994	0.0171828
820.072	0.0170286
820.150	0.0169723
820.228	0.0170190
820.306	0.0170734
820.384	0.0170362
820.462	0.0170193
820.540	0.0169336
820.619	0.0169219
820.697	0.0168896
820.775	0.0167965
820.853	0.0168167
820.931	0.0168697
821.009	0.0169004
821.087	0.0166340
821.165	0.0167331
821.244	0.0167044
821.322	0.0167403
821.400	0.0166183
821.478	0.0167148
821.556	0.0167297
821.634	0.0166880
821.712	0.0166809
821.790	0.0165934
821.869	0.0165294
821.947	0.0165999
822.025	0.0166153
822.103	0.0167060
822.181	0.0166449
822.259	0.0166867
822.337	0.0166492
822.415	0.0168032
822.494	0.0166788
822.572	0.0166370
822.650	0.0167974
822.728	0.0169910
822.806	0.0169836
822.884	0.0168813
822.962	0.0169456
823.040	0.0170099
823.119	0.0169578
823.197	0.0171815
823.275	0.0171404
823.353	0.0169904
823.431	0.0170969
823.509	0.0170805
823.587	0.0172031
823.665	0.0171101
823.744	0.0170383
823.822	0.0170963
823.900	0.0169991
823.978	0.0170015
824.056	0.0169279
824.134	0.0169248
824.212	0.0169082
824.290	0.0168871
824.369	0.0167644
824.447	0.0167643
824.525	0.0167080
824.603	0.0166792
824.681	0.0164811
824.759	0.0164162
824.837	0.0164433
824.915	0.0165368
824.994	0.0164734
825.072	0.0163966
825.150	0.0165039
825.228	0.0165284
825.306	0.0163502
825.384	0.0164472
825.462	0.0164993
825.540	0.0165446
825.619	0.0165680
825.697	0.0165734
825.775	0.0166653
825.853	0.0167342
825.931	0.0165914
826.009	0.0168153
826.087	0.0168034
826.165	0.0167399
826.244	0.0168665
826.322	0.0168533
826.400	0.0168954
826.478	0.0168781
826.556	0.0168073
826.634	0.0168626
826.712	0.0168402
826.790	0.0168307
826.869	0.0167178
826.947	0.0166202
827.025	0.0167071
827.103	0.0166563
827.181	0.0166167
827.259	0.0166499
827.337	0.0167891
827.415	0.0166405
827.494	0.0166065
827.572	0.0166109
827.650	0.0166781
827.728	0.0165031
827.806	0.0166891
827.884	0.0167238
827.962	0.0166877
828.040	0.0164655
828.119	0.0164239
828.197	0.0166821
828.275	0.0165866
828.353	0.0164773
828.431	0.0164636
828.509	0.0165823
828.587	0.0165988
828.665	0.0165488
828.744	0.0164097
828.822	0.0166256
828.900	0.0166827
828.978	0.0166557
829.056	0.0166788
829.134	0.0165111
829.212	0.0166419
829.290	0.0166212
829.369	0.0165475
829.447	0.0166438
829.525	0.0165939
829.603	0.0165041
829.681	0.0165923
829.759	0.0164887
829.837	0.0165410
829.915	0.0165837
829.994	0.0166113
830.072	0.0164827
830.150	0.0165675
830.228	0.0163840
830.306	0.0165419
830.384	0.0164061
830.462	0.0164768
830.540	0.0165632
830.619	0.0164346
830.697	0.0165385
830.775	0.0165577
830.853	0.0165561
830.931	0.0166358
831.009	0.0166009
831.087	0.0166662
831.165	0.0165715
831.244	0.0168581
831.322	0.0167402
831.400	0.0166461
831.478	0.0167447
831.556	0.0166735
831.634	0.0167493
831.712	0.0168371
831.790	0.0169574
831.869	0.0167909
831.947	0.0167883
832.025	0.0168844
832.103	0.0168570
832.181	0.0168247
832.259	0.0168823
832.337	0.0171257
832.415	0.0170428
832.494	0.0171173
832.572	0.0170811
832.650	0.0170760
832.728	0.0171196
832.806	0.0170937
832.884	0.0171555
832.962	0.0171394
833.040	0.0170602
833.119	0.0171230
833.197	0.0169687
833.275	0.0170242
833.353	0.0169542
833.431	0.0168589
833.509	0.0168489
833.587	0.0167729
833.665	0.0167675
833.744	0.0167874
833.822	0.0167873
833.900	0.0167433
833.978	0.0167091
834.056	0.0168250
834.134	0.0167448
834.212	0.0168788
834.290	0.0168658
834.369	0.0170053
834.447	0.0168858
834.525	0.0167891
834.603	0.0169006
834.681	0.0169109
834.759	0.0168729
834.837	0.0167122
834.915	0.0168393
834.994	0.0168457
835.072	0.0168924
835.150	0.0168471
835.228	0.0168498
835.306	0.0168201
835.384	0.0169294
835.462	0.0168008
835.540	0.0167942
835.619	0.0168099
835.697	0.0169111
835.775	0.0168802
835.853	0.0168578
835.931	0.0167899
836.009	0.0168214
836.087	0.0167459
836.165	0.0168427
836.244	0.0169272
836.322	0.0167899
836.400	0.0169012
836.478	0.0169975
836.556	0.0168970
836.634	0.0168859
836.712	0.0169598
836.790	0.0168147
836.869	0.0168921
836.947	0.0168305
837.025	0.0169296
837.103	0.0167960
837.181	0.0168266
837.259	0.0167656
837.337	0.0168167
837.415	0.0167384
837.494	0.0168542
837.572	0.0168399
837.650	0.0167338
837.728	0.0168742
837.806	0.0168756
837.884	0.0168481
837.962	0.0168530
838.040	0.0168652
838.119	0.0168822
838.197	0.0168212
838.275	0.0168667
838.353	0.0167985
838.431	0.0169231
838.509	0.0167702
838.587	0.0167378
838.665	0.0167532
838.744	0.0168519
838.822	0.0167997
838.900	0.0167128
838.978	0.0168520
839.056	0.0168231
839.134	0.0168504
839.212	0.0167768
839.290	0.0166818
839.369	0.0168736
839.447	0.0169359
839.525	0.0168685
839.603	0.0168408
839.681	0.0169896
839.759	0.0167824
839.837	0.0168745
839.915	0.0168367
839.994	0.0167541
840.072	0.0169134
840.150	0.0168136
840.228	0.0166924
840.306	0.0166920
840.384	0.0168146
840.462	0.0167491
840.540	0.0167847
840.619	0.0167884
840.697	0.0167008
840.775	0.0167057
840.853	0.0167198
840.931	0.0166778
841.009	0.0166613
841.087	0.0167179
841.165	0.0165626
841.244	0.0166622
841.322	0.0167440
841.400	0.0168068
841.478	0.0167068
841.556	0.0166584
841.634	0.0166587
841.712	0.0167908
841.790	0.0167226
841.869	0.0167629
841.947	0.0167608
842.025	0.0166354
842.103	0.0166993
842.181	0.0167020
842.259	0.0168106
842.337	0.0168061
842.415	0.0166879
842.494	0.0166544
842.572	0.0168566
842.650	0.0167969
842.728	0.0166718
842.806	0.0167231
842.884	0.0169124
842.962	0.0168153
843.040	0.0167952
843.119	0.0169839
843.197	0.0169320
843.275	0.0168770
843.353	0.0168181
843.431	0.0167660
843.509	0.0170017
843.587	0.0169352
843.665	0.0169019
843.744	0.0169109
843.822	0.0168929
843.900	0.0169978
843.978	0.0168668
844.056	0.0169555
844.134	0.0167664
844.212	0.0165735
844.290	0.0167059
844.369	0.0167912
844.447	0.0166779
844.525	0.0166206
844.603	0.0165444
844.681	0.0165450
844.759	0.0167681
844.837	0.0165667
844.915	0.0164818
844.994	0.0164013
845.072	0.0162897
845.150	0.0163605
845.228	0.0164595
845.306	0.0163923
845.384	0.0163808
845.462	0.0163284
845.540	0.0164928
845.619	0.0165476
845.697	0.0164160
845.775	0.0164498
845.853	0.0164166
845.931	0.0165743
846.009	0.0165855
846.087	0.0166318
846.165	0.0166429
846.244	0.0166859
846.322	0.0167703
846.400	0.0167506
846.478	0.0167216
846.556	0.0168378
846.634	0.0168775
846.712	0.0168652
846.790	0.0168442
846.869	0.0168971
846.947	0.0169190
847.025	0.0167859
847.103	0.0168770
847.181	0.0168607
847.259	0.0169150
847.337	0.0167342
847.415	0.0167660
847.494	0.0167590
847.572	0.0165594
847.650	0.0168476
847.728	0.0168284
847.806	0.0165797
847.884	0.0166707
847.962	0.0166644
848.040	0.0167400
848.119	0.0167332
848.197	0.0166534
848.275	0.0165955
848.353	0.0165719
848.431	0.0165672
848.509	0.0165746
848.587	0.0166595
848.665	0.0167907
848.744	0.0167693
848.822	0.0166693
848.900	0.0167778
848.978	0.0167492
849.056	0.0166692
849.134	0.0167722
849.212	0.0170099
849.290	0.0168568
849.369	0.0167876
849.447	0.0168852
849.525	0.0169907
849.603	0.0170984
849.681	0.0170916
849.759	0.0169687
849.837	0.0170010
849.915	0.0169691
849.994	0.0169450
850.072	0.0169247
850.150	0.0169904
850.228	0.0169381
850.306	0.0168887
850.384	0.0168893
850.462	0.0167362
850.540	0.0167793
850.619	0.0166152
850.697	0.0167245
850.775	0.0166206
850.853	0.0165056
850.931	0.0164497
851.009	0.0164339
851.087	0.0164234
851.165	0.0164168
851.244	0.0162608
851.322	0.0162910
851.400	0.0162394
851.478	0.0163494
851.556	0.0164426
851.634	0.0163195
851.712	0.0162692
851.790	0.0164049
851.869	0.0164413
851.947	0.0165082
852.025	0.0165240
852.103	0.0166943
852.181	0.0164873
852.259	0.0166255
852.337	0.0166406
852.415	0.0167161
852.494	0.0167432
852.572	0.0168179
852.650	0.0168414
852.728	0.0169436
852.806	0.0167110
852.884	0.0167326
852.962	0.0168325
853.040	0.0167448
853.119	0.0168595
853.197	0.0168084
853.275	0.0167867
853.353	0.0168819
853.431	0.0170367
853.509	0.0169547
853.587	0.0168239
853.665	0.0168603
853.744	0.0169925
853.822	0.0168465
853.900	0.0168836
853.978	0.0169224
854.056	0.0169107
854.134	0.0168797
854.212	0.0167870
854.290	0.0170024
854.369	0.0169848
854.447	0.0170242
854.525	0.0170650
854.603	0.0169685
854.681	0.0169472
854.759	0.0169350
854.837	0.0169963
854.915	0.0170242
854.994	0.0171098
855.072	0.0170535
855.150	0.0170803
855.228	0.0171387
855.306	0.0169994
855.384	0.0168140
855.462	0.0171141
855.540	0.0169359
855.619	0.0169247
855.697	0.0169104
855.775	0.0170181
855.853	0.0167454
855.931	0.0168645
856.009	0.0169905
856.087	0.0168569
856.165	0.0168295
856.244	0.0170406
856.322	0.0168705
856.400	0.0167822
856.478	0.0169460
856.556	0.0168462
856.634	0.0169538
856.712	0.0168569
856.790	0.0167907
856.869	0.0169083
856.947	0.0168657
857.025	0.0166912
857.103	0.0168997
857.181	0.0168899
857.259	0.0168896
857.337	0.0168830
857.415	0.0167911
857.494	0.0168409
857.572	0.0167149
857.650	0.0167192
857.728	0.0167403
857.806	0.0169545
857.884	0.0168909
857.962	0.0168391
858.040	0.0166865
858.119	0.0167628
858.197	0.0167789
858.275	0.0167427
858.353	0.0168271
858.431	0.0167694
858.509	0.0167276
858.587	0.0168158
858.665	0.0167782
858.744	0.0167684
858.822	0.0167422
858.900	0.0167767
858.978	0.0168274
859.056	0.0168187
859.134	0.0167181
859.212	0.0167792
859.290	0.0168974
859.369	0.0166702
859.447	0.0164602
859.525	0.0167225
859.603	0.0166513
859.681	0.0165418
859.759	0.0166032
859.837	0.0167439
859.915	0.0166061
