06/03/2022	15:23:25	Ver.	4.1	UNKNOWN
Optical Delay	550.020508	Delta X		0.078125	Sweeps	1	Scan Rate	0/0
Coordinates	Axis 1	NaN	Axis 2	NaN	Axis 3	NaN	Axis 4	NaN	Axis 5	NaN	Axis 6	0.000000
TX Power	0.000000	RX Power	0.000000

550.021	0.0181040
550.099	0.0180675
550.177	0.0181536
550.255	0.0181890
550.333	0.0181374
550.411	0.0180999
550.489	0.0180901
550.567	0.0180198
550.646	0.0182381
550.724	0.0180558
550.802	0.0181440
550.880	0.0180994
550.958	0.0180728
551.036	0.0179818
551.114	0.0181858
551.192	0.0182839
551.271	0.0180882
551.349	0.0181239
551.427	0.0181007
551.505	0.0181551
551.583	0.0180121
551.661	0.0180817
551.739	0.0180167
551.817	0.0180688
551.896	0.0181335
551.974	0.0180603
552.052	0.0180888
552.130	0.0181944
552.208	0.0181091
552.286	0.0180527
552.364	0.0180039
552.442	0.0180141
552.521	0.0181781
552.599	0.0179911
552.677	0.0180354
552.755	0.0180438
552.833	0.0181725
552.911	0.0182644
552.989	0.0181173
553.067	0.0181849
553.146	0.0181634
553.224	0.0181313
553.302	0.0179470
553.380	0.0180274
553.458	0.0181015
553.536	0.0180435
553.614	0.0181332
553.692	0.0181735
553.771	0.0181003
553.849	0.0180676
553.927	0.0181812
554.005	0.0180975
554.083	0.0180291
554.161	0.0181786
554.239	0.0181751
554.317	0.0181709
554.396	0.0180353
554.474	0.0180177
554.552	0.0181487
554.630	0.0181591
554.708	0.0180499
554.786	0.0180797
554.864	0.0180865
554.942	0.0180265
555.021	0.0181527
555.099	0.0180917
555.177	0.0181989
555.255	0.0180508
555.333	0.0180932
555.411	0.0181622
555.489	0.0178668
555.567	0.0180819
555.646	0.0182225
555.724	0.0182506
555.802	0.0180438
555.880	0.0179138
555.958	0.0180771
556.036	0.0181361
556.114	0.0181225
556.192	0.0181355
556.271	0.0182639
556.349	0.0182193
556.427	0.0180166
556.505	0.0179899
556.583	0.0181140
556.661	0.0181181
556.739	0.0181239
556.817	0.0181993
556.896	0.0181690
556.974	0.0181142
557.052	0.0180741
557.130	0.0180341
557.208	0.0179987
557.286	0.0180276
557.364	0.0180924
557.442	0.0180847
557.521	0.0180352
557.599	0.0180856
557.677	0.0181365
557.755	0.0180728
557.833	0.0180679
557.911	0.0179977
557.989	0.0180621
558.067	0.0181927
558.146	0.0181032
558.224	0.0181098
558.302	0.0180728
558.380	0.0180727
558.458	0.0180867
558.536	0.0180858
558.614	0.0180685
558.692	0.0181345
558.771	0.0179863
558.849	0.0181066
558.927	0.0182768
559.005	0.0180259
559.083	0.0182280
559.161	0.0181016
559.239	0.0179962
559.317	0.0180814
559.396	0.0181141
559.474	0.0181113
559.552	0.0180477
559.630	0.0182211
559.708	0.0182317
559.786	0.0181013
559.864	0.0180574
559.942	0.0181207
560.021	0.0181667
560.099	0.0182152
560.177	0.0181126
560.255	0.0180054
560.333	0.0182094
560.411	0.0180848
560.489	0.0180669
560.567	0.0181588
560.646	0.0179758
560.724	0.0181608
560.802	0.0181515
560.880	0.0180892
560.958	0.0180621
561.036	0.0179554
561.114	0.0180916
561.192	0.0180035
561.271	0.0179721
561.349	0.0181781
561.427	0.0180971
561.505	0.0180740
561.583	0.0182276
561.661	0.0181432
561.739	0.0181294
561.817	0.0180835
561.896	0.0181861
561.974	0.0181441
562.052	0.0181236
562.130	0.0181256
562.208	0.0180437
562.286	0.0181277
562.364	0.0182957
562.442	0.0181071
562.521	0.0181348
562.599	0.0181677
562.677	0.0181323
562.755	0.0182176
562.833	0.0180479
562.911	0.0181944
562.989	0.0181428
563.067	0.0179881
563.146	0.0180653
563.224	0.0180907
563.302	0.0180993
563.380	0.0181457
563.458	0.0181966
563.536	0.0180788
563.614	0.0180475
563.692	0.0180219
563.771	0.0182243
563.849	0.0180718
563.927	0.0181591
564.005	0.0180778
564.083	0.0182272
564.161	0.0180592
564.239	0.0180524
564.317	0.0180177
564.396	0.0181589
564.474	0.0181188
564.552	0.0180409
564.630	0.0181435
564.708	0.0181854
564.786	0.0182597
564.864	0.0181364
564.942	0.0180836
565.021	0.0182070
565.099	0.0180974
565.177	0.0180843
565.255	0.0180911
565.333	0.0181618
565.411	0.0181094
565.489	0.0180683
565.567	0.0180915
565.646	0.0181497
565.724	0.0181450
565.802	0.0181002
565.880	0.0181797
565.958	0.0179509
566.036	0.0181690
566.114	0.0182658
566.192	0.0181419
566.271	0.0181020
566.349	0.0180687
566.427	0.0181779
566.505	0.0180635
566.583	0.0180647
566.661	0.0181218
566.739	0.0181297
566.817	0.0182244
566.896	0.0181718
566.974	0.0180711
567.052	0.0180799
567.130	0.0180750
567.208	0.0182300
567.286	0.0180374
567.364	0.0181499
567.442	0.0181895
567.521	0.0181676
567.599	0.0181689
567.677	0.0180589
567.755	0.0180788
567.833	0.0181199
567.911	0.0182134
567.989	0.0181044
568.067	0.0180058
568.146	0.0182401
568.224	0.0182281
568.302	0.0180715
568.380	0.0181428
568.458	0.0180798
568.536	0.0182150
568.614	0.0182492
568.692	0.0181999
568.771	0.0182393
568.849	0.0181472
568.927	0.0180499
569.005	0.0181131
569.083	0.0182983
569.161	0.0180640
569.239	0.0179369
569.317	0.0181098
569.396	0.0181463
569.474	0.0180421
569.552	0.0181602
569.630	0.0181713
569.708	0.0180347
569.786	0.0179408
569.864	0.0180347
569.942	0.0182327
570.021	0.0180914
570.099	0.0180369
570.177	0.0181031
570.255	0.0182050
570.333	0.0181229
570.411	0.0181295
570.489	0.0181168
570.567	0.0179832
570.646	0.0180667
570.724	0.0181052
570.802	0.0182181
570.880	0.0181166
570.958	0.0181184
571.036	0.0181576
571.114	0.0179910
571.192	0.0182508
571.271	0.0181443
571.349	0.0181815
571.427	0.0181345
571.505	0.0180531
571.583	0.0182227
571.661	0.0180262
571.739	0.0182098
571.817	0.0182787
571.896	0.0180303
571.974	0.0180567
572.052	0.0181612
572.130	0.0181675
572.208	0.0180206
572.286	0.0180849
572.364	0.0181670
572.442	0.0181042
572.521	0.0182727
572.599	0.0180427
572.677	0.0180241
572.755	0.0181049
572.833	0.0181416
572.911	0.0181577
572.989	0.0181157
573.067	0.0181831
573.146	0.0182098
573.224	0.0182365
573.302	0.0181974
573.380	0.0181314
573.458	0.0180840
573.536	0.0181618
573.614	0.0181699
573.692	0.0181924
573.771	0.0181026
573.849	0.0179876
573.927	0.0180886
574.005	0.0181003
574.083	0.0181399
574.161	0.0182306
574.239	0.0180743
574.317	0.0180651
574.396	0.0182676
574.474	0.0182579
574.552	0.0180627
574.630	0.0180246
574.708	0.0180544
574.786	0.0182474
574.864	0.0180913
574.942	0.0182416
575.021	0.0181873
575.099	0.0181150
575.177	0.0181367
575.255	0.0181727
575.333	0.0182248
575.411	0.0180563
575.489	0.0181735
575.567	0.0180704
575.646	0.0180450
575.724	0.0182565
575.802	0.0181393
575.880	0.0180759
575.958	0.0181260
576.036	0.0181805
576.114	0.0180723
576.192	0.0180207
576.271	0.0180856
576.349	0.0180259
576.427	0.0180820
576.505	0.0181283
576.583	0.0181255
576.661	0.0180061
576.739	0.0180521
576.817	0.0182014
576.896	0.0180629
576.974	0.0180581
577.052	0.0181266
577.130	0.0181948
577.208	0.0182139
577.286	0.0181909
577.364	0.0180015
577.442	0.0181418
577.521	0.0180478
577.599	0.0181747
577.677	0.0181537
577.755	0.0180630
577.833	0.0181993
577.911	0.0180284
577.989	0.0180517
578.067	0.0181556
578.146	0.0179726
578.224	0.0181947
578.302	0.0180830
578.380	0.0181199
578.458	0.0180824
578.536	0.0181030
578.614	0.0180775
578.692	0.0180775
578.771	0.0181392
578.849	0.0181083
578.927	0.0181281
579.005	0.0181860
579.083	0.0182568
579.161	0.0181505
579.239	0.0180352
579.317	0.0180950
579.396	0.0180660
579.474	0.0181985
579.552	0.0180922
579.630	0.0181609
579.708	0.0182460
579.786	0.0180748
579.864	0.0179963
579.942	0.0180846
580.021	0.0182137
580.099	0.0179750
580.177	0.0181400
580.255	0.0183798
580.333	0.0182001
580.411	0.0180753
580.489	0.0180660
580.567	0.0180968
580.646	0.0180959
580.724	0.0182236
580.802	0.0182555
580.880	0.0181682
580.958	0.0182185
581.036	0.0181390
581.114	0.0181695
581.192	0.0181100
581.271	0.0182422
581.349	0.0181711
581.427	0.0181509
581.505	0.0181093
581.583	0.0180841
581.661	0.0181081
581.739	0.0181264
581.817	0.0181269
581.896	0.0180096
581.974	0.0182299
582.052	0.0182061
582.130	0.0180935
582.208	0.0180325
582.286	0.0182118
582.364	0.0180775
582.442	0.0181071
582.521	0.0181348
582.599	0.0180015
582.677	0.0180893
582.755	0.0181509
582.833	0.0182023
582.911	0.0181660
582.989	0.0181492
583.067	0.0179993
583.146	0.0181448
583.224	0.0182881
583.302	0.0180804
583.380	0.0179755
583.458	0.0181564
583.536	0.0182056
583.614	0.0181007
583.692	0.0181158
583.771	0.0181773
583.849	0.0181043
583.927	0.0179193
584.005	0.0180836
584.083	0.0181184
584.161	0.0182274
584.239	0.0180759
584.317	0.0180498
584.396	0.0182987
584.474	0.0181839
584.552	0.0180976
584.630	0.0179920
584.708	0.0180936
584.786	0.0181557
584.864	0.0182193
584.942	0.0181513
585.021	0.0181092
585.099	0.0181219
585.177	0.0180325
585.255	0.0180564
585.333	0.0182119
585.411	0.0181082
585.489	0.0181139
585.567	0.0181049
585.646	0.0181638
585.724	0.0182430
585.802	0.0181575
585.880	0.0181899
585.958	0.0179868
586.036	0.0181044
586.114	0.0181293
586.192	0.0180501
586.271	0.0180978
586.349	0.0181197
586.427	0.0181360
586.505	0.0182052
586.583	0.0181063
586.661	0.0180685
586.739	0.0180862
586.817	0.0179875
586.896	0.0180774
586.974	0.0180975
587.052	0.0181303
587.130	0.0180937
587.208	0.0180777
587.286	0.0180279
587.364	0.0180697
587.442	0.0179975
587.521	0.0181747
587.599	0.0181018
587.677	0.0180011
587.755	0.0181787
587.833	0.0181760
587.911	0.0182464
587.989	0.0180740
588.067	0.0181412
588.146	0.0179459
588.224	0.0181172
588.302	0.0182626
588.380	0.0181039
588.458	0.0182747
588.536	0.0180363
588.614	0.0180470
588.692	0.0181927
588.771	0.0180012
588.849	0.0181874
588.927	0.0181567
589.005	0.0181261
589.083	0.0181125
589.161	0.0180441
589.239	0.0181841
589.317	0.0181940
589.396	0.0180791
589.474	0.0181509
589.552	0.0181347
589.630	0.0180700
589.708	0.0181396
589.786	0.0182505
589.864	0.0181422
589.942	0.0181339
590.021	0.0181387
590.099	0.0181094
590.177	0.0181082
590.255	0.0182158
590.333	0.0181109
590.411	0.0181527
590.489	0.0181309
590.567	0.0180367
590.646	0.0181166
590.724	0.0181267
590.802	0.0181983
590.880	0.0182466
590.958	0.0182194
591.036	0.0181650
591.114	0.0179354
591.192	0.0181917
591.271	0.0181285
591.349	0.0180121
591.427	0.0180952
591.505	0.0181569
591.583	0.0179239
591.661	0.0180487
591.739	0.0181779
591.817	0.0181300
591.896	0.0183514
591.974	0.0183015
592.052	0.0180454
592.130	0.0181749
592.208	0.0182351
592.286	0.0181137
592.364	0.0181444
592.442	0.0180836
592.521	0.0180463
592.599	0.0181706
592.677	0.0182062
592.755	0.0181704
592.833	0.0182031
592.911	0.0181423
592.989	0.0181588
593.067	0.0182482
593.146	0.0181536
593.224	0.0181055
593.302	0.0180283
593.380	0.0180653
593.458	0.0180843
593.536	0.0181734
593.614	0.0181055
593.692	0.0181737
593.771	0.0182110
593.849	0.0181294
593.927	0.0180852
594.005	0.0179964
594.083	0.0182168
594.161	0.0182825
594.239	0.0181670
594.317	0.0180751
594.396	0.0181312
594.474	0.0182384
594.552	0.0182189
594.630	0.0181081
594.708	0.0181568
594.786	0.0181657
594.864	0.0181725
594.942	0.0181172
595.021	0.0182426
595.099	0.0181065
595.177	0.0182422
595.255	0.0182054
595.333	0.0181549
595.411	0.0181591
595.489	0.0181891
595.567	0.0181696
595.646	0.0181331
595.724	0.0181873
595.802	0.0181139
595.880	0.0181325
595.958	0.0181857
596.036	0.0181321
596.114	0.0180434
596.192	0.0182069
596.271	0.0180786
596.349	0.0181250
596.427	0.0181654
596.505	0.0181070
596.583	0.0181080
596.661	0.0180144
596.739	0.0180752
596.817	0.0181461
596.896	0.0182083
596.974	0.0182516
597.052	0.0182095
597.130	0.0180931
597.208	0.0181265
597.286	0.0182251
597.364	0.0181202
597.442	0.0181800
597.521	0.0181294
597.599	0.0180636
597.677	0.0181387
597.755	0.0180892
597.833	0.0180238
597.911	0.0180506
597.989	0.0181223
598.067	0.0182269
598.146	0.0180643
598.224	0.0180663
598.302	0.0182391
598.380	0.0181612
598.458	0.0180283
598.536	0.0180786
598.614	0.0182365
598.692	0.0181325
598.771	0.0180467
598.849	0.0181690
598.927	0.0182800
599.005	0.0182324
599.083	0.0180573
599.161	0.0180700
599.239	0.0181663
599.317	0.0180875
599.396	0.0182327
599.474	0.0182114
599.552	0.0181495
599.630	0.0180898
599.708	0.0181133
599.786	0.0182162
599.864	0.0181297
599.942	0.0181248
600.021	0.0180460
600.099	0.0183216
600.177	0.0181195
600.255	0.0181013
600.333	0.0180944
600.411	0.0181599
600.489	0.0180414
600.567	0.0182280
600.646	0.0179861
600.724	0.0179872
600.802	0.0180840
600.880	0.0181165
600.958	0.0182834
601.036	0.0181075
601.114	0.0180571
601.192	0.0182362
601.271	0.0182197
601.349	0.0181613
601.427	0.0181200
601.505	0.0182469
601.583	0.0180334
601.661	0.0179983
601.739	0.0182485
601.817	0.0181099
601.896	0.0182212
601.974	0.0181634
602.052	0.0179950
602.130	0.0181670
602.208	0.0182341
602.286	0.0181541
602.364	0.0179845
602.442	0.0181992
602.521	0.0181124
602.599	0.0180608
602.677	0.0181618
602.755	0.0179802
602.833	0.0181385
602.911	0.0182355
602.989	0.0182414
603.067	0.0182494
603.146	0.0180763
603.224	0.0180819
603.302	0.0180817
603.380	0.0182005
603.458	0.0181479
603.536	0.0180887
603.614	0.0181797
603.692	0.0182289
603.771	0.0181483
603.849	0.0181762
603.927	0.0179932
604.005	0.0181387
604.083	0.0181213
604.161	0.0181829
604.239	0.0180031
604.317	0.0180392
604.396	0.0181589
604.474	0.0181529
604.552	0.0181423
604.630	0.0181088
604.708	0.0182024
604.786	0.0182330
604.864	0.0181953
604.942	0.0181724
605.021	0.0180544
605.099	0.0182370
605.177	0.0180932
605.255	0.0181225
605.333	0.0181509
605.411	0.0181625
605.489	0.0182858
605.567	0.0181841
605.646	0.0182484
605.724	0.0183119
605.802	0.0181093
605.880	0.0182224
605.958	0.0181037
606.036	0.0181644
606.114	0.0180338
606.192	0.0181052
606.271	0.0181133
606.349	0.0181145
606.427	0.0182127
606.505	0.0181393
606.583	0.0182185
606.661	0.0180715
606.739	0.0181033
606.817	0.0182752
606.896	0.0180193
606.974	0.0180566
607.052	0.0182180
607.130	0.0182485
607.208	0.0182211
607.286	0.0181597
607.364	0.0181906
607.442	0.0180250
607.521	0.0180177
607.599	0.0180747
607.677	0.0181495
607.755	0.0181120
607.833	0.0181081
607.911	0.0180667
607.989	0.0180889
608.067	0.0180056
608.146	0.0180877
608.224	0.0181718
608.302	0.0181740
608.380	0.0181027
608.458	0.0180628
608.536	0.0182987
608.614	0.0181329
608.692	0.0180750
608.771	0.0180434
608.849	0.0181579
608.927	0.0181997
609.005	0.0180493
609.083	0.0180482
609.161	0.0180098
609.239	0.0182335
609.317	0.0181712
609.396	0.0181115
609.474	0.0181009
609.552	0.0180877
609.630	0.0181140
609.708	0.0182045
609.786	0.0181721
609.864	0.0180180
609.942	0.0181427
610.021	0.0181574
610.099	0.0181650
610.177	0.0180347
610.255	0.0181771
610.333	0.0181494
610.411	0.0181297
610.489	0.0181322
610.567	0.0181588
610.646	0.0181628
610.724	0.0181394
610.802	0.0180262
610.880	0.0181067
610.958	0.0182325
611.036	0.0180666
611.114	0.0180779
611.192	0.0181341
611.271	0.0179892
611.349	0.0181116
611.427	0.0181721
611.505	0.0181851
611.583	0.0181091
611.661	0.0181200
611.739	0.0180769
611.817	0.0180749
611.896	0.0181683
611.974	0.0181921
612.052	0.0179931
612.130	0.0180628
612.208	0.0180071
612.286	0.0181708
612.364	0.0182652
612.442	0.0181929
612.521	0.0182780
612.599	0.0180762
612.677	0.0182344
612.755	0.0182765
612.833	0.0181216
612.911	0.0181029
612.989	0.0182020
613.067	0.0181469
613.146	0.0181204
613.224	0.0180498
613.302	0.0181281
613.380	0.0182273
613.458	0.0180859
613.536	0.0181047
613.614	0.0181609
613.692	0.0180686
613.771	0.0180972
613.849	0.0182182
613.927	0.0181245
614.005	0.0181288
614.083	0.0181223
614.161	0.0181866
614.239	0.0180959
614.317	0.0181320
614.396	0.0182041
614.474	0.0181135
614.552	0.0182729
614.630	0.0180118
614.708	0.0181268
614.786	0.0180841
614.864	0.0180643
614.942	0.0181120
615.021	0.0182726
615.099	0.0180924
615.177	0.0181030
615.255	0.0180798
615.333	0.0181918
615.411	0.0182225
615.489	0.0182370
615.567	0.0180581
615.646	0.0181220
615.724	0.0181719
615.802	0.0181910
615.880	0.0182732
615.958	0.0182096
616.036	0.0181311
616.114	0.0181471
616.192	0.0182072
616.271	0.0181754
616.349	0.0181036
616.427	0.0180929
616.505	0.0181707
616.583	0.0181811
616.661	0.0182196
616.739	0.0180242
616.817	0.0181799
616.896	0.0181030
616.974	0.0181591
617.052	0.0181469
617.130	0.0181236
617.208	0.0181094
617.286	0.0181286
617.364	0.0179466
617.442	0.0180990
617.521	0.0182124
617.599	0.0182640
617.677	0.0181999
617.755	0.0180070
617.833	0.0180968
617.911	0.0181306
617.989	0.0180323
618.067	0.0180888
618.146	0.0181641
618.224	0.0181789
618.302	0.0180951
618.380	0.0179793
618.458	0.0180899
618.536	0.0181158
618.614	0.0180091
618.692	0.0180903
618.771	0.0182695
618.849	0.0181187
618.927	0.0181281
619.005	0.0180441
619.083	0.0181535
619.161	0.0182488
619.239	0.0181640
619.317	0.0180862
619.396	0.0180627
619.474	0.0180705
619.552	0.0182348
619.630	0.0181747
619.708	0.0180096
619.786	0.0180228
619.864	0.0181010
619.942	0.0180431
620.021	0.0181381
620.099	0.0181018
620.177	0.0182206
620.255	0.0180964
620.333	0.0181271
620.411	0.0181487
620.489	0.0180036
620.567	0.0181010
620.646	0.0180226
620.724	0.0181708
620.802	0.0180968
620.880	0.0181310
620.958	0.0182732
621.036	0.0180553
621.114	0.0180454
621.192	0.0181757
621.271	0.0181236
621.349	0.0181557
621.427	0.0180518
621.505	0.0181959
621.583	0.0180567
621.661	0.0180907
621.739	0.0181107
621.817	0.0180907
621.896	0.0181453
621.974	0.0181152
622.052	0.0181629
622.130	0.0181140
622.208	0.0180836
622.286	0.0180495
622.364	0.0181609
622.442	0.0181601
622.521	0.0181427
622.599	0.0180456
622.677	0.0181062
622.755	0.0182246
622.833	0.0180969
622.911	0.0181551
622.989	0.0182219
623.067	0.0180812
623.146	0.0180972
623.224	0.0180687
623.302	0.0180978
623.380	0.0180681
623.458	0.0180544
623.536	0.0180801
623.614	0.0180964
623.692	0.0181731
623.771	0.0180321
623.849	0.0180210
623.927	0.0181590
624.005	0.0181101
624.083	0.0179784
624.161	0.0182147
624.239	0.0180167
624.317	0.0180561
624.396	0.0182104
624.474	0.0181146
624.552	0.0181847
624.630	0.0180981
624.708	0.0180822
624.786	0.0180711
624.864	0.0181969
624.942	0.0181629
625.021	0.0182218
625.099	0.0180537
625.177	0.0181300
625.255	0.0180623
625.333	0.0181439
625.411	0.0181532
625.489	0.0182049
625.567	0.0181969
625.646	0.0180878
625.724	0.0180560
625.802	0.0181557
625.880	0.0181686
625.958	0.0181165
626.036	0.0179778
626.114	0.0180743
626.192	0.0180280
626.271	0.0180364
626.349	0.0181945
626.427	0.0181319
626.505	0.0181613
626.583	0.0180407
626.661	0.0182031
626.739	0.0181388
626.817	0.0181161
626.896	0.0181414
626.974	0.0179757
627.052	0.0180970
627.130	0.0183851
627.208	0.0181729
627.286	0.0180730
627.364	0.0181123
627.442	0.0181092
627.521	0.0181794
627.599	0.0180313
627.677	0.0181098
627.755	0.0181480
627.833	0.0181950
627.911	0.0180119
627.989	0.0181210
628.067	0.0181947
628.146	0.0181850
628.224	0.0182008
628.302	0.0181551
628.380	0.0180318
628.458	0.0181522
628.536	0.0180118
628.614	0.0180932
628.692	0.0181242
628.771	0.0182577
628.849	0.0180392
628.927	0.0181420
629.005	0.0180872
629.083	0.0181802
629.161	0.0181979
629.239	0.0180637
629.317	0.0180105
629.396	0.0182736
629.474	0.0181978
629.552	0.0181053
629.630	0.0180576
629.708	0.0180583
629.786	0.0181287
629.864	0.0181193
629.942	0.0181213
630.021	0.0180852
630.099	0.0179775
630.177	0.0180733
630.255	0.0180729
630.333	0.0180482
630.411	0.0181850
630.489	0.0180788
630.567	0.0181776
630.646	0.0182139
630.724	0.0180515
630.802	0.0181036
630.880	0.0180889
630.958	0.0180647
631.036	0.0182838
631.114	0.0180708
631.192	0.0182074
631.271	0.0182506
631.349	0.0181818
631.427	0.0180022
631.505	0.0181654
631.583	0.0181643
631.661	0.0181857
631.739	0.0182053
631.817	0.0181413
631.896	0.0181877
631.974	0.0181688
632.052	0.0180408
632.130	0.0180883
632.208	0.0182360
632.286	0.0181477
632.364	0.0181017
632.442	0.0181270
632.521	0.0181317
632.599	0.0182149
632.677	0.0182735
632.755	0.0181635
632.833	0.0181348
632.911	0.0181906
632.989	0.0181014
633.067	0.0180014
633.146	0.0180836
633.224	0.0181406
633.302	0.0180453
633.380	0.0180717
633.458	0.0181473
633.536	0.0181289
633.614	0.0181026
633.692	0.0180663
633.771	0.0179978
633.849	0.0181453
633.927	0.0182973
634.005	0.0181213
634.083	0.0181859
634.161	0.0181541
634.239	0.0180734
634.317	0.0179909
634.396	0.0180513
634.474	0.0182020
634.552	0.0181404
634.630	0.0180929
634.708	0.0180135
634.786	0.0180281
634.864	0.0180665
634.942	0.0180743
635.021	0.0181403
635.099	0.0181377
635.177	0.0180518
635.255	0.0182442
635.333	0.0181591
635.411	0.0179078
635.489	0.0180811
635.567	0.0181623
635.646	0.0180534
635.724	0.0182040
635.802	0.0181229
635.880	0.0179713
635.958	0.0182320
636.036	0.0181545
636.114	0.0180952
636.192	0.0181402
636.271	0.0180563
636.349	0.0181499
636.427	0.0182217
636.505	0.0179901
636.583	0.0181385
636.661	0.0181155
636.739	0.0181002
636.817	0.0180681
636.896	0.0181475
636.974	0.0181533
637.052	0.0181268
637.130	0.0180956
637.208	0.0181232
637.286	0.0181897
637.364	0.0179462
637.442	0.0181580
637.521	0.0180797
637.599	0.0181525
637.677	0.0180469
637.755	0.0181170
637.833	0.0179833
637.911	0.0180140
637.989	0.0180818
638.067	0.0180890
638.146	0.0180782
638.224	0.0181322
638.302	0.0180175
638.380	0.0180989
638.458	0.0181548
638.536	0.0182601
638.614	0.0181034
638.692	0.0179993
638.771	0.0181351
638.849	0.0182584
638.927	0.0181847
639.005	0.0180790
639.083	0.0180620
639.161	0.0181230
639.239	0.0181400
639.317	0.0181109
639.396	0.0180647
639.474	0.0180702
639.552	0.0181305
639.630	0.0181204
639.708	0.0181690
639.786	0.0181245
639.864	0.0181442
639.942	0.0182921
640.021	0.0181822
640.099	0.0180582
640.177	0.0181321
640.255	0.0181734
640.333	0.0182638
640.411	0.0180994
640.489	0.0182273
640.567	0.0181442
640.646	0.0181680
640.724	0.0181100
640.802	0.0180712
640.880	0.0182417
640.958	0.0181312
641.036	0.0180817
641.114	0.0179991
641.192	0.0179935
641.271	0.0181855
641.349	0.0181380
641.427	0.0180676
641.505	0.0181418
641.583	0.0181564
641.661	0.0180939
641.739	0.0181208
641.817	0.0181287
641.896	0.0180882
641.974	0.0181362
642.052	0.0181832
642.130	0.0181900
642.208	0.0181085
642.286	0.0181577
642.364	0.0181085
642.442	0.0181835
642.521	0.0182187
642.599	0.0181620
642.677	0.0181645
642.755	0.0180930
642.833	0.0181042
642.911	0.0182084
642.989	0.0181989
643.067	0.0180260
643.146	0.0180663
643.224	0.0182660
643.302	0.0181108
643.380	0.0181870
643.458	0.0181223
643.536	0.0181631
643.614	0.0181513
643.692	0.0182263
643.771	0.0180347
643.849	0.0181743
643.927	0.0181828
644.005	0.0181863
644.083	0.0182639
644.161	0.0181763
644.239	0.0182088
644.317	0.0182817
644.396	0.0182059
644.474	0.0182007
644.552	0.0182119
644.630	0.0182719
644.708	0.0181506
644.786	0.0180789
644.864	0.0180960
644.942	0.0181195
645.021	0.0181720
645.099	0.0182021
645.177	0.0181152
645.255	0.0181236
645.333	0.0181089
645.411	0.0181256
645.489	0.0180956
645.567	0.0180968
645.646	0.0181438
645.724	0.0182833
645.802	0.0182491
645.880	0.0181596
645.958	0.0181544
646.036	0.0180784
646.114	0.0181769
646.192	0.0181193
646.271	0.0181270
646.349	0.0181014
646.427	0.0181742
646.505	0.0181548
646.583	0.0181577
646.661	0.0181074
646.739	0.0181508
646.817	0.0181441
646.896	0.0182826
646.974	0.0179863
647.052	0.0179348
647.130	0.0181546
647.208	0.0181123
647.286	0.0181692
647.364	0.0182391
647.442	0.0180453
647.521	0.0180450
647.599	0.0181444
647.677	0.0180850
647.755	0.0180212
647.833	0.0182074
647.911	0.0182946
647.989	0.0180728
648.067	0.0182083
648.146	0.0180729
648.224	0.0180381
648.302	0.0181366
648.380	0.0182010
648.458	0.0182105
648.536	0.0181529
648.614	0.0181550
648.692	0.0181563
648.771	0.0181040
648.849	0.0181503
648.927	0.0180549
649.005	0.0181174
649.083	0.0181561
649.161	0.0181552
649.239	0.0179067
649.317	0.0180402
649.396	0.0181274
649.474	0.0181583
649.552	0.0181551
649.630	0.0181323
649.708	0.0182371
649.786	0.0180914
649.864	0.0181535
649.942	0.0180920
650.021	0.0181203
650.099	0.0181150
650.177	0.0180906
650.255	0.0181919
650.333	0.0182040
650.411	0.0180664
650.489	0.0181743
650.567	0.0181946
650.646	0.0181357
650.724	0.0182349
650.802	0.0182736
650.880	0.0181796
650.958	0.0181348
651.036	0.0180923
651.114	0.0182170
651.192	0.0181548
651.271	0.0183089
651.349	0.0181424
651.427	0.0181654
651.505	0.0182163
651.583	0.0181149
651.661	0.0180884
651.739	0.0181442
651.817	0.0181997
651.896	0.0182780
651.974	0.0180546
652.052	0.0181350
652.130	0.0181944
652.208	0.0181801
652.286	0.0182211
652.364	0.0182020
652.442	0.0181267
652.521	0.0181210
652.599	0.0182844
652.677	0.0181783
652.755	0.0180433
652.833	0.0181483
652.911	0.0182899
652.989	0.0181521
653.067	0.0179983
653.146	0.0181000
653.224	0.0180906
653.302	0.0181042
653.380	0.0181661
653.458	0.0180807
653.536	0.0181709
653.614	0.0182597
653.692	0.0181025
653.771	0.0182843
653.849	0.0181485
653.927	0.0180550
654.005	0.0181169
654.083	0.0182206
654.161	0.0182360
654.239	0.0181715
654.317	0.0180448
654.396	0.0181651
654.474	0.0181620
654.552	0.0181066
654.630	0.0180470
654.708	0.0182011
654.786	0.0181948
654.864	0.0182516
654.942	0.0180642
655.021	0.0181990
655.099	0.0182217
655.177	0.0181588
655.255	0.0180482
655.333	0.0181680
655.411	0.0181865
655.489	0.0181225
655.567	0.0180513
655.646	0.0180695
655.724	0.0182401
655.802	0.0180314
655.880	0.0180479
655.958	0.0181681
656.036	0.0179927
656.114	0.0182430
656.192	0.0181733
656.271	0.0182194
656.349	0.0182159
656.427	0.0181438
656.505	0.0181855
656.583	0.0181539
656.661	0.0181403
656.739	0.0181072
656.817	0.0182424
656.896	0.0182314
656.974	0.0182361
657.052	0.0182097
657.130	0.0180148
657.208	0.0181247
657.286	0.0181783
657.364	0.0180795
657.442	0.0182419
657.521	0.0181857
657.599	0.0182214
657.677	0.0181810
657.755	0.0182993
657.833	0.0181564
657.911	0.0181026
657.989	0.0181646
658.067	0.0180626
658.146	0.0181007
658.224	0.0181889
658.302	0.0180872
658.380	0.0181357
658.458	0.0181485
658.536	0.0180196
658.614	0.0180532
658.692	0.0182074
658.771	0.0180701
658.849	0.0181732
658.927	0.0181152
659.005	0.0181140
659.083	0.0180611
659.161	0.0180653
659.239	0.0182297
659.317	0.0181304
659.396	0.0181386
659.474	0.0182702
659.552	0.0182525
659.630	0.0182476
659.708	0.0181264
659.786	0.0179863
659.864	0.0181636
659.942	0.0182251
660.021	0.0181354
660.099	0.0181437
660.177	0.0180062
660.255	0.0180250
660.333	0.0181615
660.411	0.0181457
660.489	0.0180964
660.567	0.0181487
660.646	0.0182081
660.724	0.0181272
660.802	0.0181082
660.880	0.0181313
660.958	0.0180385
661.036	0.0181438
661.114	0.0181329
661.192	0.0182158
661.271	0.0181499
661.349	0.0181052
661.427	0.0179785
661.505	0.0182397
661.583	0.0182381
661.661	0.0180092
661.739	0.0180833
661.817	0.0180275
661.896	0.0180823
661.974	0.0181760
662.052	0.0182146
662.130	0.0181012
662.208	0.0181275
662.286	0.0181187
662.364	0.0180860
662.442	0.0181693
662.521	0.0181773
662.599	0.0181215
662.677	0.0181087
662.755	0.0181049
662.833	0.0180714
662.911	0.0182582
662.989	0.0181757
663.067	0.0180968
663.146	0.0181768
663.224	0.0181953
663.302	0.0182142
663.380	0.0181569
663.458	0.0181501
663.536	0.0180835
663.614	0.0181105
663.692	0.0180651
663.771	0.0181406
663.849	0.0182020
663.927	0.0180611
664.005	0.0181808
664.083	0.0182286
664.161	0.0180152
664.239	0.0181532
664.317	0.0181714
664.396	0.0179910
664.474	0.0181562
664.552	0.0181380
664.630	0.0181635
664.708	0.0180621
664.786	0.0181503
664.864	0.0180942
664.942	0.0182071
665.021	0.0181358
665.099	0.0181326
665.177	0.0182335
665.255	0.0182379
665.333	0.0181253
665.411	0.0181189
665.489	0.0181690
665.567	0.0180437
665.646	0.0180019
665.724	0.0181389
665.802	0.0181067
665.880	0.0181536
665.958	0.0180920
666.036	0.0180913
666.114	0.0181013
666.192	0.0181359
666.271	0.0182613
666.349	0.0182634
666.427	0.0180650
666.505	0.0181352
666.583	0.0181822
666.661	0.0181955
666.739	0.0181401
666.817	0.0180170
666.896	0.0181344
666.974	0.0181002
667.052	0.0180694
667.130	0.0180720
667.208	0.0180463
667.286	0.0182775
667.364	0.0181230
667.442	0.0181227
667.521	0.0181850
667.599	0.0180666
667.677	0.0181458
667.755	0.0181437
667.833	0.0182465
667.911	0.0181751
667.989	0.0180858
668.067	0.0180640
668.146	0.0182477
668.224	0.0182288
668.302	0.0182684
668.380	0.0181516
668.458	0.0181348
668.536	0.0182469
668.614	0.0181416
668.692	0.0181805
668.771	0.0181010
668.849	0.0182215
668.927	0.0182560
669.005	0.0181377
669.083	0.0180888
669.161	0.0182211
669.239	0.0181407
669.317	0.0181596
669.396	0.0181532
669.474	0.0181844
669.552	0.0180286
669.630	0.0180405
669.708	0.0181528
669.786	0.0180834
669.864	0.0180318
669.942	0.0181946
670.021	0.0182013
670.099	0.0181587
670.177	0.0180480
670.255	0.0180136
670.333	0.0180077
670.411	0.0180506
670.489	0.0181475
670.567	0.0181236
670.646	0.0182016
670.724	0.0181163
670.802	0.0180180
670.880	0.0181105
670.958	0.0181808
671.036	0.0182397
671.114	0.0181300
671.192	0.0182038
671.271	0.0181030
671.349	0.0181089
671.427	0.0181223
671.505	0.0181905
671.583	0.0182545
671.661	0.0181317
671.739	0.0181009
671.817	0.0181071
671.896	0.0182619
671.974	0.0180894
672.052	0.0181182
672.130	0.0182234
672.208	0.0181120
672.286	0.0181313
672.364	0.0180048
672.442	0.0180432
672.521	0.0180186
672.599	0.0180994
672.677	0.0181981
672.755	0.0180865
672.833	0.0181889
672.911	0.0182156
672.989	0.0181765
673.067	0.0181667
673.146	0.0181532
673.224	0.0181132
673.302	0.0180840
673.380	0.0181640
673.458	0.0181667
673.536	0.0182352
673.614	0.0181644
673.692	0.0180144
673.771	0.0182669
673.849	0.0181350
673.927	0.0181814
674.005	0.0180867
674.083	0.0180984
674.161	0.0182124
674.239	0.0181768
674.317	0.0182436
674.396	0.0181834
674.474	0.0181341
674.552	0.0181563
674.630	0.0179842
674.708	0.0181473
674.786	0.0180908
674.864	0.0180193
674.942	0.0182340
675.021	0.0181934
675.099	0.0180983
675.177	0.0181635
675.255	0.0180758
675.333	0.0180215
675.411	0.0179910
675.489	0.0182138
675.567	0.0181260
675.646	0.0181755
675.724	0.0181448
675.802	0.0182049
675.880	0.0181595
675.958	0.0180627
676.036	0.0181239
676.114	0.0181660
676.192	0.0180607
676.271	0.0180295
676.349	0.0181043
676.427	0.0180799
676.505	0.0181356
676.583	0.0181692
676.661	0.0181728
676.739	0.0181059
676.817	0.0180573
676.896	0.0180904
676.974	0.0181547
677.052	0.0182124
677.130	0.0181031
677.208	0.0182222
677.286	0.0181340
677.364	0.0180838
677.442	0.0182075
677.521	0.0179645
677.599	0.0182453
677.677	0.0182474
677.755	0.0181403
677.833	0.0181483
677.911	0.0181384
677.989	0.0181117
678.067	0.0180641
678.146	0.0181029
678.224	0.0182159
678.302	0.0181447
678.380	0.0182124
678.458	0.0182471
678.536	0.0180517
678.614	0.0181404
678.692	0.0181567
678.771	0.0180689
678.849	0.0180514
678.927	0.0181557
679.005	0.0180292
679.083	0.0181339
679.161	0.0181434
679.239	0.0179841
679.317	0.0181553
679.396	0.0179646
679.474	0.0179586
679.552	0.0181979
679.630	0.0180439
679.708	0.0181126
679.786	0.0181448
679.864	0.0180454
679.942	0.0180699
680.021	0.0180991
680.099	0.0179705
680.177	0.0180897
680.255	0.0181103
680.333	0.0181743
680.411	0.0181286
680.489	0.0180611
680.567	0.0181570
680.646	0.0181443
680.724	0.0181402
680.802	0.0180527
680.880	0.0182107
680.958	0.0180550
681.036	0.0181467
681.114	0.0180757
681.192	0.0179828
681.271	0.0182333
681.349	0.0182127
681.427	0.0179947
681.505	0.0180884
681.583	0.0182230
681.661	0.0180604
681.739	0.0181004
681.817	0.0180271
681.896	0.0181625
681.974	0.0181385
682.052	0.0180817
682.130	0.0180770
682.208	0.0182354
682.286	0.0181922
682.364	0.0181834
682.442	0.0180090
682.521	0.0180936
682.599	0.0181971
682.677	0.0181020
682.755	0.0181467
682.833	0.0182684
682.911	0.0182030
682.989	0.0181836
683.067	0.0180537
683.146	0.0182309
683.224	0.0181851
683.302	0.0181863
683.380	0.0181799
683.458	0.0181100
683.536	0.0182334
683.614	0.0182605
683.692	0.0181707
683.771	0.0180949
683.849	0.0181361
683.927	0.0181614
684.005	0.0181725
684.083	0.0181495
684.161	0.0181236
684.239	0.0182268
684.317	0.0180263
684.396	0.0182147
684.474	0.0180506
684.552	0.0182155
684.630	0.0181278
684.708	0.0182130
684.786	0.0181241
684.864	0.0180788
684.942	0.0181337
685.021	0.0181390
685.099	0.0181496
685.177	0.0181414
685.255	0.0181983
685.333	0.0182215
685.411	0.0181270
685.489	0.0180598
685.567	0.0180967
685.646	0.0181882
685.724	0.0182441
685.802	0.0181330
685.880	0.0180447
685.958	0.0180341
686.036	0.0182041
686.114	0.0180457
686.192	0.0181371
686.271	0.0181397
686.349	0.0180693
686.427	0.0180933
686.505	0.0181539
686.583	0.0182946
686.661	0.0182319
686.739	0.0181950
686.817	0.0181143
686.896	0.0180793
686.974	0.0181110
687.052	0.0181278
687.130	0.0181617
687.208	0.0181963
687.286	0.0182484
687.364	0.0180748
687.442	0.0181336
687.521	0.0180489
687.599	0.0181531
687.677	0.0181270
687.755	0.0181030
687.833	0.0183159
687.911	0.0180974
687.989	0.0181229
688.067	0.0182170
688.146	0.0182748
688.224	0.0181805
688.302	0.0181245
688.380	0.0181415
688.458	0.0181876
688.536	0.0181576
688.614	0.0180507
688.692	0.0182385
688.771	0.0182432
688.849	0.0180466
688.927	0.0181116
689.005	0.0181834
689.083	0.0182184
689.161	0.0180559
689.239	0.0181784
689.317	0.0182257
689.396	0.0181666
689.474	0.0182019
689.552	0.0181881
689.630	0.0181462
689.708	0.0180267
689.786	0.0181361
689.864	0.0181590
689.942	0.0180718
690.021	0.0181332
690.099	0.0180254
690.177	0.0181260
690.255	0.0180951
690.333	0.0181605
690.411	0.0179704
690.489	0.0180784
690.567	0.0182015
690.646	0.0182087
690.724	0.0181020
690.802	0.0181109
690.880	0.0181208
690.958	0.0180835
691.036	0.0181039
691.114	0.0181641
691.192	0.0182217
691.271	0.0180905
691.349	0.0180973
691.427	0.0181028
691.505	0.0180167
691.583	0.0180054
691.661	0.0181601
691.739	0.0180007
691.817	0.0181295
691.896	0.0181218
691.974	0.0179950
692.052	0.0180698
692.130	0.0181526
692.208	0.0180411
692.286	0.0181883
692.364	0.0181448
692.442	0.0180828
692.521	0.0180760
692.599	0.0180917
692.677	0.0181752
692.755	0.0181710
692.833	0.0180856
692.911	0.0178735
692.989	0.0180967
693.067	0.0179648
693.146	0.0182089
693.224	0.0180968
693.302	0.0181171
693.380	0.0181388
693.458	0.0182051
693.536	0.0181211
693.614	0.0181651
693.692	0.0181643
693.771	0.0181021
693.849	0.0181156
693.927	0.0180842
694.005	0.0181280
694.083	0.0181253
694.161	0.0179685
694.239	0.0178979
694.317	0.0181123
694.396	0.0180822
694.474	0.0180301
694.552	0.0182181
694.630	0.0181050
694.708	0.0181017
694.786	0.0180579
694.864	0.0180850
694.942	0.0181522
695.021	0.0180795
695.099	0.0181072
695.177	0.0182603
695.255	0.0180331
695.333	0.0180370
695.411	0.0180656
695.489	0.0182204
695.567	0.0180367
695.646	0.0179383
695.724	0.0180695
695.802	0.0181532
695.880	0.0182873
695.958	0.0181150
696.036	0.0182153
696.114	0.0181499
696.192	0.0181084
696.271	0.0180820
696.349	0.0181216
696.427	0.0181409
696.505	0.0180891
696.583	0.0182001
696.661	0.0180920
696.739	0.0181685
696.817	0.0180820
696.896	0.0181676
696.974	0.0181112
697.052	0.0182510
697.130	0.0181132
697.208	0.0182182
697.286	0.0180810
697.364	0.0181368
697.442	0.0181478
697.521	0.0181500
697.599	0.0181425
697.677	0.0181927
697.755	0.0181618
697.833	0.0180484
697.911	0.0181215
697.989	0.0180444
698.067	0.0180840
698.146	0.0180582
698.224	0.0181648
698.302	0.0181500
698.380	0.0182250
698.458	0.0181190
698.536	0.0180514
698.614	0.0181930
698.692	0.0183140
698.771	0.0180972
698.849	0.0181604
698.927	0.0181293
699.005	0.0183110
699.083	0.0181998
699.161	0.0180698
699.239	0.0181516
699.317	0.0182223
699.396	0.0181091
699.474	0.0180835
699.552	0.0181313
699.630	0.0179556
699.708	0.0181213
699.786	0.0182359
699.864	0.0180141
699.942	0.0180231
700.021	0.0182440
700.099	0.0183118
700.177	0.0182453
700.255	0.0183146
700.333	0.0181953
700.411	0.0183282
700.489	0.0181474
700.567	0.0179562
700.646	0.0182322
700.724	0.0181170
700.802	0.0180511
700.880	0.0181867
700.958	0.0181773
701.036	0.0181113
701.114	0.0181284
701.192	0.0180110
701.271	0.0180288
701.349	0.0180657
701.427	0.0180374
701.505	0.0179839
701.583	0.0180001
701.661	0.0180017
701.739	0.0181069
701.817	0.0181802
701.896	0.0181458
701.974	0.0181136
702.052	0.0181361
702.130	0.0182104
702.208	0.0180769
702.286	0.0182325
702.364	0.0180889
702.442	0.0180566
702.521	0.0182260
702.599	0.0182722
702.677	0.0180693
702.755	0.0181859
702.833	0.0183459
702.911	0.0183918
702.989	0.0181753
703.067	0.0181611
703.146	0.0182405
703.224	0.0182470
703.302	0.0181870
703.380	0.0180287
703.458	0.0179382
703.536	0.0178248
703.614	0.0179124
703.692	0.0179591
703.771	0.0179086
703.849	0.0180617
703.927	0.0179388
704.005	0.0179105
704.083	0.0180458
704.161	0.0180443
704.239	0.0180766
704.317	0.0180093
704.396	0.0181624
704.474	0.0179935
704.552	0.0182012
704.630	0.0182968
704.708	0.0181872
704.786	0.0182336
704.864	0.0183417
704.942	0.0182187
705.021	0.0183234
705.099	0.0183195
705.177	0.0181908
705.255	0.0181030
705.333	0.0182805
705.411	0.0182795
705.489	0.0180634
705.567	0.0181583
705.646	0.0182506
705.724	0.0181915
705.802	0.0179626
705.880	0.0180972
705.958	0.0180939
706.036	0.0180696
706.114	0.0179716
706.192	0.0179839
706.271	0.0180683
706.349	0.0181261
706.427	0.0180535
706.505	0.0179889
706.583	0.0180128
706.661	0.0180511
706.739	0.0179949
706.817	0.0178981
706.896	0.0180207
706.974	0.0181355
707.052	0.0181562
707.130	0.0181319
707.208	0.0182162
707.286	0.0182291
707.364	0.0181167
707.442	0.0181353
707.521	0.0181957
707.599	0.0182430
707.677	0.0183562
707.755	0.0183210
707.833	0.0182279
707.911	0.0182947
707.989	0.0183167
708.067	0.0182332
708.146	0.0182524
708.224	0.0182287
708.302	0.0180947
708.380	0.0181667
708.458	0.0180811
708.536	0.0180614
708.614	0.0180695
708.692	0.0180694
708.771	0.0179339
708.849	0.0178493
708.927	0.0178905
709.005	0.0178712
709.083	0.0180234
709.161	0.0179050
709.239	0.0179290
709.317	0.0180148
709.396	0.0179666
709.474	0.0180283
709.552	0.0180925
709.630	0.0179807
709.708	0.0180870
709.786	0.0180577
709.864	0.0181918
709.942	0.0182546
710.021	0.0181471
710.099	0.0181607
710.177	0.0182256
710.255	0.0182574
710.333	0.0183594
710.411	0.0181474
710.489	0.0181519
710.567	0.0181937
710.646	0.0183369
710.724	0.0183483
710.802	0.0181376
710.880	0.0181457
710.958	0.0182020
711.036	0.0180851
711.114	0.0181191
711.192	0.0180217
711.271	0.0180612
711.349	0.0178948
711.427	0.0179855
711.505	0.0179497
711.583	0.0180200
711.661	0.0180683
711.739	0.0180075
711.817	0.0180441
711.896	0.0179565
711.974	0.0180250
712.052	0.0179961
712.130	0.0181015
712.208	0.0180779
712.286	0.0180820
712.364	0.0182182
712.442	0.0181957
712.521	0.0181632
712.599	0.0182793
712.677	0.0181477
712.755	0.0181367
712.833	0.0181280
712.911	0.0182115
712.989	0.0180902
713.067	0.0180585
713.146	0.0180473
713.224	0.0180964
713.302	0.0181274
713.380	0.0179731
713.458	0.0180495
713.536	0.0181232
713.614	0.0179925
713.692	0.0181151
713.771	0.0180482
713.849	0.0180081
713.927	0.0181419
714.005	0.0182150
714.083	0.0182496
714.161	0.0181706
714.239	0.0182407
714.317	0.0181405
714.396	0.0181167
714.474	0.0180723
714.552	0.0182536
714.630	0.0182626
714.708	0.0182872
714.786	0.0181702
714.864	0.0182051
714.942	0.0182003
715.021	0.0181515
715.099	0.0182513
715.177	0.0182107
715.255	0.0181102
715.333	0.0180972
715.411	0.0180457
715.489	0.0182834
715.567	0.0182949
715.646	0.0181458
715.724	0.0181227
715.802	0.0184023
715.880	0.0182915
715.958	0.0181115
716.036	0.0181599
716.114	0.0182322
716.192	0.0180862
716.271	0.0180350
716.349	0.0180863
716.427	0.0180192
716.505	0.0180533
716.583	0.0180541
716.661	0.0179562
716.739	0.0181487
716.817	0.0180640
716.896	0.0179842
716.974	0.0181419
717.052	0.0180743
717.130	0.0179427
717.208	0.0180328
717.286	0.0181369
717.364	0.0181382
717.442	0.0181953
717.521	0.0181744
717.599	0.0180485
717.677	0.0180477
717.755	0.0181370
717.833	0.0181936
717.911	0.0181516
717.989	0.0182015
718.067	0.0182426
718.146	0.0181669
718.224	0.0182175
718.302	0.0181869
718.380	0.0181637
718.458	0.0182670
718.536	0.0181973
718.614	0.0181776
718.692	0.0182093
718.771	0.0181886
718.849	0.0182866
718.927	0.0181920
719.005	0.0181756
719.083	0.0181767
719.161	0.0182301
719.239	0.0183157
719.317	0.0182928
719.396	0.0181969
719.474	0.0181510
719.552	0.0182027
719.630	0.0182507
719.708	0.0180933
719.786	0.0181293
719.864	0.0182228
719.942	0.0180608
720.021	0.0181180
720.099	0.0181493
720.177	0.0182278
720.255	0.0181310
720.333	0.0180791
720.411	0.0180733
720.489	0.0180143
720.567	0.0180682
720.646	0.0181006
720.724	0.0178525
720.802	0.0178838
720.880	0.0179910
720.958	0.0179672
721.036	0.0179144
721.114	0.0178853
721.192	0.0179795
721.271	0.0178341
721.349	0.0179674
721.427	0.0179709
721.505	0.0180022
721.583	0.0179133
721.661	0.0179742
721.739	0.0180058
721.817	0.0179349
721.896	0.0180533
721.974	0.0179753
722.052	0.0180804
722.130	0.0181986
722.208	0.0181177
722.286	0.0183041
722.364	0.0181134
722.442	0.0180235
722.521	0.0181170
722.599	0.0182826
722.677	0.0182166
722.755	0.0180838
722.833	0.0182670
722.911	0.0181200
722.989	0.0181867
723.067	0.0182039
723.146	0.0182880
723.224	0.0181402
723.302	0.0181880
723.380	0.0182281
723.458	0.0181918
723.536	0.0181367
723.614	0.0182781
723.692	0.0181818
723.771	0.0180914
723.849	0.0181640
723.927	0.0180636
724.005	0.0181789
724.083	0.0181884
724.161	0.0180268
724.239	0.0182101
724.317	0.0180750
724.396	0.0180884
724.474	0.0181868
724.552	0.0180787
724.630	0.0180919
724.708	0.0181626
724.786	0.0182460
724.864	0.0182532
724.942	0.0180432
725.021	0.0180443
725.099	0.0182594
725.177	0.0183364
725.255	0.0182481
725.333	0.0181774
725.411	0.0181473
725.489	0.0181840
725.567	0.0179367
725.646	0.0182156
725.724	0.0181535
725.802	0.0180768
725.880	0.0179435
725.958	0.0181792
726.036	0.0181029
726.114	0.0181640
726.192	0.0181673
726.271	0.0181653
726.349	0.0181198
726.427	0.0180546
726.505	0.0182129
726.583	0.0181999
726.661	0.0180695
726.739	0.0181875
726.817	0.0182176
726.896	0.0182018
726.974	0.0182086
727.052	0.0181757
727.130	0.0179868
727.208	0.0181398
727.286	0.0182226
727.364	0.0182381
727.442	0.0182061
727.521	0.0181641
727.599	0.0182063
727.677	0.0181771
727.755	0.0182102
727.833	0.0183182
727.911	0.0181172
727.989	0.0181895
728.067	0.0182228
728.146	0.0180726
728.224	0.0182254
728.302	0.0181094
728.380	0.0181017
728.458	0.0181050
728.536	0.0183679
728.614	0.0183062
728.692	0.0182549
728.771	0.0181813
728.849	0.0182793
728.927	0.0182748
729.005	0.0181395
729.083	0.0181513
729.161	0.0182011
729.239	0.0182797
729.317	0.0181437
729.396	0.0181854
729.474	0.0181704
729.552	0.0181509
729.630	0.0180238
729.708	0.0180496
729.786	0.0181345
729.864	0.0180356
729.942	0.0179955
730.021	0.0180981
730.099	0.0181842
730.177	0.0180395
730.255	0.0180001
730.333	0.0181289
730.411	0.0181255
730.489	0.0180737
730.567	0.0180403
730.646	0.0180259
730.724	0.0180376
730.802	0.0181607
730.880	0.0181117
730.958	0.0180608
731.036	0.0181072
731.114	0.0180397
731.192	0.0179848
731.271	0.0180212
731.349	0.0179662
731.427	0.0179907
731.505	0.0180019
731.583	0.0179356
731.661	0.0180501
731.739	0.0179255
731.817	0.0178496
731.896	0.0181344
731.974	0.0181406
732.052	0.0179865
732.130	0.0181648
732.208	0.0181602
732.286	0.0182348
732.364	0.0181827
732.442	0.0181313
732.521	0.0183118
732.599	0.0181049
732.677	0.0181166
732.755	0.0180694
732.833	0.0180328
732.911	0.0181643
732.989	0.0181795
733.067	0.0180697
733.146	0.0180486
733.224	0.0181321
733.302	0.0181800
733.380	0.0182291
733.458	0.0182113
733.536	0.0181526
733.614	0.0183243
733.692	0.0182284
733.771	0.0183054
733.849	0.0182523
733.927	0.0182449
734.005	0.0182868
734.083	0.0183713
734.161	0.0183565
734.239	0.0182198
734.317	0.0180527
734.396	0.0181585
734.474	0.0182216
734.552	0.0180941
734.630	0.0180499
734.708	0.0179710
734.786	0.0180738
734.864	0.0181119
734.942	0.0180180
735.021	0.0180798
735.099	0.0180572
735.177	0.0180247
735.255	0.0180898
735.333	0.0181514
735.411	0.0180022
735.489	0.0181811
735.567	0.0181612
735.646	0.0181889
735.724	0.0180365
735.802	0.0179964
735.880	0.0179395
735.958	0.0180415
736.036	0.0180462
736.114	0.0179411
736.192	0.0180993
736.271	0.0181470
736.349	0.0179994
736.427	0.0179020
736.505	0.0180537
736.583	0.0180141
736.661	0.0180768
736.739	0.0179587
736.817	0.0181408
736.896	0.0182187
736.974	0.0181718
737.052	0.0180956
737.130	0.0181238
737.208	0.0181764
737.286	0.0181554
737.364	0.0181571
737.442	0.0180738
737.521	0.0181363
737.599	0.0182134
737.677	0.0183163
737.755	0.0181528
737.833	0.0181892
737.911	0.0183238
737.989	0.0182632
738.067	0.0182813
738.146	0.0182072
738.224	0.0181721
738.302	0.0181567
738.380	0.0183030
738.458	0.0182092
738.536	0.0181321
738.614	0.0181403
738.692	0.0182793
738.771	0.0181544
738.849	0.0182182
738.927	0.0182047
739.005	0.0182216
739.083	0.0181286
739.161	0.0183177
739.239	0.0182826
739.317	0.0181924
739.396	0.0181866
739.474	0.0181584
739.552	0.0182645
739.630	0.0181259
739.708	0.0181856
739.786	0.0181062
739.864	0.0180943
739.942	0.0181974
740.021	0.0181370
740.099	0.0181483
740.177	0.0181759
740.255	0.0181290
740.333	0.0181627
740.411	0.0182477
740.489	0.0181681
740.567	0.0182034
740.646	0.0181877
740.724	0.0181081
740.802	0.0181744
740.880	0.0181749
740.958	0.0180167
741.036	0.0181197
741.114	0.0181436
741.192	0.0180042
741.271	0.0180798
741.349	0.0178799
741.427	0.0180261
741.505	0.0180632
741.583	0.0180296
741.661	0.0181226
741.739	0.0180855
741.817	0.0179376
741.896	0.0180443
741.974	0.0181096
742.052	0.0181189
742.130	0.0180383
742.208	0.0181249
742.286	0.0181348
742.364	0.0182233
742.442	0.0181732
742.521	0.0181548
742.599	0.0181239
742.677	0.0181938
742.755	0.0181973
742.833	0.0180539
742.911	0.0180331
742.989	0.0182105
743.067	0.0182018
743.146	0.0181620
743.224	0.0181341
743.302	0.0182369
743.380	0.0182180
743.458	0.0181004
743.536	0.0179963
743.614	0.0183184
743.692	0.0181384
743.771	0.0180489
743.849	0.0180659
743.927	0.0181496
744.005	0.0182414
744.083	0.0182207
744.161	0.0181276
744.239	0.0181596
744.317	0.0182500
744.396	0.0183031
744.474	0.0180414
744.552	0.0182629
744.630	0.0181640
744.708	0.0181466
744.786	0.0180850
744.864	0.0180790
744.942	0.0182535
745.021	0.0181734
745.099	0.0181169
745.177	0.0181949
745.255	0.0182094
745.333	0.0180810
745.411	0.0181335
745.489	0.0180278
745.567	0.0181311
745.646	0.0181574
745.724	0.0181833
745.802	0.0181768
745.880	0.0182758
745.958	0.0181397
746.036	0.0181490
746.114	0.0182173
746.192	0.0182595
746.271	0.0181615
746.349	0.0182181
746.427	0.0183161
746.505	0.0180190
746.583	0.0182238
746.661	0.0182805
746.739	0.0182886
746.817	0.0181715
746.896	0.0181277
746.974	0.0180988
747.052	0.0182759
747.130	0.0180924
747.208	0.0182207
747.286	0.0181450
747.364	0.0182845
747.442	0.0182166
747.521	0.0180866
747.599	0.0180605
747.677	0.0180532
747.755	0.0181901
747.833	0.0180897
747.911	0.0181956
747.989	0.0180238
748.067	0.0179526
748.146	0.0180427
748.224	0.0180464
748.302	0.0180116
748.380	0.0181067
748.458	0.0182540
748.536	0.0181087
748.614	0.0179928
748.692	0.0180515
748.771	0.0181139
748.849	0.0181780
748.927	0.0181164
749.005	0.0181054
749.083	0.0181553
749.161	0.0181129
749.239	0.0180834
749.317	0.0180939
749.396	0.0180730
749.474	0.0180809
749.552	0.0181861
749.630	0.0183199
749.708	0.0181107
749.786	0.0181315
749.864	0.0182212
749.942	0.0181059
750.021	0.0182364
750.099	0.0180506
750.177	0.0181066
750.255	0.0182160
750.333	0.0181245
750.411	0.0180873
750.489	0.0181769
750.567	0.0181841
750.646	0.0183006
750.724	0.0181653
750.802	0.0181248
750.880	0.0181322
750.958	0.0180896
751.036	0.0180980
751.114	0.0180413
751.192	0.0181276
751.271	0.0181634
751.349	0.0181051
751.427	0.0181470
751.505	0.0180320
751.583	0.0181092
751.661	0.0180849
751.739	0.0181020
751.817	0.0180553
751.896	0.0181622
751.974	0.0181499
752.052	0.0181335
752.130	0.0181448
752.208	0.0180418
752.286	0.0181238
752.364	0.0180825
752.442	0.0182363
752.521	0.0181151
752.599	0.0181482
752.677	0.0181951
752.755	0.0181039
752.833	0.0181728
752.911	0.0182251
752.989	0.0180624
753.067	0.0181605
753.146	0.0182982
753.224	0.0181997
753.302	0.0180685
753.380	0.0180608
753.458	0.0182500
753.536	0.0181392
753.614	0.0181858
753.692	0.0181069
753.771	0.0180343
753.849	0.0180074
753.927	0.0180806
754.005	0.0181802
754.083	0.0181157
754.161	0.0180341
754.239	0.0181410
754.317	0.0182035
754.396	0.0181277
754.474	0.0179502
754.552	0.0182042
754.630	0.0182118
754.708	0.0181169
754.786	0.0182018
754.864	0.0182909
754.942	0.0182491
755.021	0.0182077
755.099	0.0181326
755.177	0.0182270
755.255	0.0182134
755.333	0.0180820
755.411	0.0181809
755.489	0.0181550
755.567	0.0180994
755.646	0.0181638
755.724	0.0183186
755.802	0.0181709
755.880	0.0180333
755.958	0.0181615
756.036	0.0179804
756.114	0.0180540
756.192	0.0182269
756.271	0.0179698
756.349	0.0180879
756.427	0.0181296
756.505	0.0180562
756.583	0.0181746
756.661	0.0182970
756.739	0.0182108
756.817	0.0180643
756.896	0.0181680
756.974	0.0181594
757.052	0.0181100
757.130	0.0180550
757.208	0.0181799
757.286	0.0182359
757.364	0.0180892
757.442	0.0181642
757.521	0.0182684
757.599	0.0181845
757.677	0.0181306
757.755	0.0181225
757.833	0.0180241
757.911	0.0181752
757.989	0.0180829
758.067	0.0180466
758.146	0.0182030
758.224	0.0180382
758.302	0.0180538
758.380	0.0179784
758.458	0.0178999
758.536	0.0180161
758.614	0.0181079
758.692	0.0180720
758.771	0.0181464
758.849	0.0181497
758.927	0.0179630
759.005	0.0182041
759.083	0.0180858
759.161	0.0180556
759.239	0.0180661
759.317	0.0181576
759.396	0.0181001
759.474	0.0180933
759.552	0.0179819
759.630	0.0180973
759.708	0.0180468
759.786	0.0180087
759.864	0.0180598
759.942	0.0181255
760.021	0.0182102
760.099	0.0180774
760.177	0.0180463
760.255	0.0179403
760.333	0.0180618
760.411	0.0182009
760.489	0.0179859
760.567	0.0180856
760.646	0.0181495
760.724	0.0181145
760.802	0.0181813
760.880	0.0181892
760.958	0.0179592
761.036	0.0180531
761.114	0.0180421
761.192	0.0179924
761.271	0.0182198
761.349	0.0180439
761.427	0.0180590
761.505	0.0179720
761.583	0.0180910
761.661	0.0182473
761.739	0.0182066
761.817	0.0181214
761.896	0.0180839
761.974	0.0182729
762.052	0.0180035
762.130	0.0181586
762.208	0.0181284
762.286	0.0180980
762.364	0.0180817
762.442	0.0181405
762.521	0.0182762
762.599	0.0182693
762.677	0.0180711
762.755	0.0181406
762.833	0.0181204
762.911	0.0180975
762.989	0.0182150
763.067	0.0180563
763.146	0.0182400
763.224	0.0182446
763.302	0.0181178
763.380	0.0182136
763.458	0.0182332
763.536	0.0181381
763.614	0.0181039
763.692	0.0180608
763.771	0.0181055
763.849	0.0180273
763.927	0.0183798
764.005	0.0181983
764.083	0.0179194
764.161	0.0180640
764.239	0.0181293
764.317	0.0180931
764.396	0.0181242
764.474	0.0181701
764.552	0.0181468
764.630	0.0180695
764.708	0.0181989
764.786	0.0181079
764.864	0.0180321
764.942	0.0180973
765.021	0.0181133
765.099	0.0181435
765.177	0.0181277
765.255	0.0181518
765.333	0.0181696
765.411	0.0179847
765.489	0.0182913
765.567	0.0182310
765.646	0.0180499
765.724	0.0181947
765.802	0.0181459
765.880	0.0179896
765.958	0.0181525
766.036	0.0181526
766.114	0.0180685
766.192	0.0180296
766.271	0.0180926
766.349	0.0180826
766.427	0.0180801
766.505	0.0182510
766.583	0.0181331
766.661	0.0181211
766.739	0.0182954
766.817	0.0182018
766.896	0.0181519
766.974	0.0181615
767.052	0.0181940
767.130	0.0182526
767.208	0.0180486
767.286	0.0181814
767.364	0.0181802
767.442	0.0182482
767.521	0.0181403
767.599	0.0182373
767.677	0.0181721
767.755	0.0181831
767.833	0.0180419
767.911	0.0182104
767.989	0.0182305
768.067	0.0180898
768.146	0.0181094
768.224	0.0182800
768.302	0.0181906
768.380	0.0181099
768.458	0.0181178
768.536	0.0181989
768.614	0.0181908
768.692	0.0181616
768.771	0.0181213
768.849	0.0182551
768.927	0.0182976
769.005	0.0181778
769.083	0.0181033
769.161	0.0180820
769.239	0.0181024
769.317	0.0180717
769.396	0.0181114
769.474	0.0181273
769.552	0.0181395
769.630	0.0180291
769.708	0.0180010
769.786	0.0180292
769.864	0.0179723
769.942	0.0181826
770.021	0.0180427
770.099	0.0180431
770.177	0.0181444
770.255	0.0181449
770.333	0.0181546
770.411	0.0179953
770.489	0.0181397
770.567	0.0182408
770.646	0.0180072
770.724	0.0181096
770.802	0.0180191
770.880	0.0181518
770.958	0.0181415
771.036	0.0181074
771.114	0.0181616
771.192	0.0181689
771.271	0.0180448
771.349	0.0181245
771.427	0.0181298
771.505	0.0181775
771.583	0.0181057
771.661	0.0181463
771.739	0.0181700
771.817	0.0181890
771.896	0.0181892
771.974	0.0182138
772.052	0.0181942
772.130	0.0181223
772.208	0.0181637
772.286	0.0181758
772.364	0.0180727
772.442	0.0180499
772.521	0.0180819
772.599	0.0181363
772.677	0.0180474
772.755	0.0180502
772.833	0.0181767
772.911	0.0179842
772.989	0.0179861
773.067	0.0181358
773.146	0.0180731
773.224	0.0181557
773.302	0.0179611
773.380	0.0181234
773.458	0.0182291
773.536	0.0180194
773.614	0.0179996
773.692	0.0180491
773.771	0.0182342
773.849	0.0182210
773.927	0.0180860
774.005	0.0181509
774.083	0.0181231
774.161	0.0181640
774.239	0.0182317
774.317	0.0181837
774.396	0.0181005
774.474	0.0181982
774.552	0.0180537
774.630	0.0181969
774.708	0.0181098
774.786	0.0179168
774.864	0.0180344
774.942	0.0181590
775.021	0.0180364
775.099	0.0181413
775.177	0.0181898
775.255	0.0180280
775.333	0.0180585
775.411	0.0181554
775.489	0.0181706
775.567	0.0181085
775.646	0.0181938
775.724	0.0181017
775.802	0.0181032
775.880	0.0181567
775.958	0.0182019
776.036	0.0182155
776.114	0.0181439
776.192	0.0180895
776.271	0.0181739
776.349	0.0180560
776.427	0.0181169
776.505	0.0182217
776.583	0.0182792
776.661	0.0181691
776.739	0.0181228
776.817	0.0180663
776.896	0.0181928
776.974	0.0181121
777.052	0.0179986
777.130	0.0180947
777.208	0.0182845
777.286	0.0181381
777.364	0.0180899
777.442	0.0181383
777.521	0.0181647
777.599	0.0181767
777.677	0.0182218
777.755	0.0180193
777.833	0.0180569
777.911	0.0181045
777.989	0.0181120
778.067	0.0179301
778.146	0.0180950
778.224	0.0181322
778.302	0.0182426
778.380	0.0179420
778.458	0.0181559
778.536	0.0181237
778.614	0.0181198
778.692	0.0181548
778.771	0.0182575
778.849	0.0181725
778.927	0.0180230
779.005	0.0182399
779.083	0.0182106
779.161	0.0182258
779.239	0.0180859
779.317	0.0181533
779.396	0.0181549
779.474	0.0181659
779.552	0.0180522
779.630	0.0181291
779.708	0.0181425
779.786	0.0180485
779.864	0.0180046
779.942	0.0181952
780.021	0.0182076
780.099	0.0180157
780.177	0.0182085
780.255	0.0181261
780.333	0.0182287
780.411	0.0181789
780.489	0.0181174
780.567	0.0180103
780.646	0.0181263
780.724	0.0181001
780.802	0.0181268
780.880	0.0181157
780.958	0.0182311
781.036	0.0181003
781.114	0.0179496
781.192	0.0181723
781.271	0.0180943
781.349	0.0180805
781.427	0.0180819
781.505	0.0181443
781.583	0.0182195
781.661	0.0180521
781.739	0.0181274
781.817	0.0178522
781.896	0.0180975
781.974	0.0181924
782.052	0.0180134
782.130	0.0180645
782.208	0.0180965
782.286	0.0180595
782.364	0.0180703
782.442	0.0181302
782.521	0.0181361
782.599	0.0181857
782.677	0.0180544
782.755	0.0181112
782.833	0.0181368
782.911	0.0181433
782.989	0.0182240
783.067	0.0182239
783.146	0.0181715
783.224	0.0182490
783.302	0.0181738
783.380	0.0180531
783.458	0.0181612
783.536	0.0181177
783.614	0.0181554
783.692	0.0179961
783.771	0.0182275
783.849	0.0181861
783.927	0.0181239
784.005	0.0182489
784.083	0.0181290
784.161	0.0181577
784.239	0.0180186
784.317	0.0181406
784.396	0.0181926
784.474	0.0180768
784.552	0.0179417
784.630	0.0181561
784.708	0.0181506
784.786	0.0181735
784.864	0.0182064
784.942	0.0182542
785.021	0.0181287
785.099	0.0180931
785.177	0.0180898
785.255	0.0182040
785.333	0.0182094
785.411	0.0180773
785.489	0.0182831
785.567	0.0182104
785.646	0.0181368
785.724	0.0182909
785.802	0.0181885
785.880	0.0181419
785.958	0.0182636
786.036	0.0181668
786.114	0.0179074
786.192	0.0181169
786.271	0.0182281
786.349	0.0180704
786.427	0.0179928
786.505	0.0180744
786.583	0.0181141
786.661	0.0179961
786.739	0.0180163
786.817	0.0180628
786.896	0.0179789
786.974	0.0179865
787.052	0.0180511
787.130	0.0181200
787.208	0.0181850
787.286	0.0179235
787.364	0.0181424
787.442	0.0181727
787.521	0.0181742
787.599	0.0179881
787.677	0.0181466
787.755	0.0181196
787.833	0.0180886
787.911	0.0181974
787.989	0.0181853
788.067	0.0180362
788.146	0.0181449
788.224	0.0180666
788.302	0.0180911
788.380	0.0180751
788.458	0.0181640
788.536	0.0180787
788.614	0.0180538
788.692	0.0181263
788.771	0.0181128
788.849	0.0181877
788.927	0.0180774
789.005	0.0182101
789.083	0.0181863
789.161	0.0181395
789.239	0.0181090
789.317	0.0180640
789.396	0.0182452
789.474	0.0182770
789.552	0.0182475
789.630	0.0181202
789.708	0.0181786
789.786	0.0180861
789.864	0.0180798
789.942	0.0182217
790.021	0.0180031
790.099	0.0180457
790.177	0.0180902
790.255	0.0181010
790.333	0.0180901
790.411	0.0183451
790.489	0.0182051
790.567	0.0182486
790.646	0.0181314
790.724	0.0180621
790.802	0.0181876
790.880	0.0182050
790.958	0.0182379
791.036	0.0181124
791.114	0.0181316
791.192	0.0181951
791.271	0.0181160
791.349	0.0180463
791.427	0.0182294
791.505	0.0181446
791.583	0.0182876
791.661	0.0180503
791.739	0.0182604
791.817	0.0181796
791.896	0.0182106
791.974	0.0181001
792.052	0.0183226
792.130	0.0181509
792.208	0.0181480
792.286	0.0182948
792.364	0.0181524
792.442	0.0182127
792.521	0.0182320
792.599	0.0181713
792.677	0.0180529
792.755	0.0179005
792.833	0.0181957
792.911	0.0181236
792.989	0.0181536
793.067	0.0181878
793.146	0.0181187
793.224	0.0182017
793.302	0.0182338
793.380	0.0182278
793.458	0.0181594
793.536	0.0181799
793.614	0.0180524
793.692	0.0181235
793.771	0.0182552
793.849	0.0182654
793.927	0.0182402
794.005	0.0181963
794.083	0.0181441
794.161	0.0180995
794.239	0.0182221
794.317	0.0181344
794.396	0.0180775
794.474	0.0182594
794.552	0.0182064
794.630	0.0181380
794.708	0.0180077
794.786	0.0181123
794.864	0.0180938
794.942	0.0180405
795.021	0.0180547
795.099	0.0180814
795.177	0.0183109
795.255	0.0181486
795.333	0.0180501
795.411	0.0179955
795.489	0.0180748
795.567	0.0182996
795.646	0.0181843
795.724	0.0182607
795.802	0.0181181
795.880	0.0182267
795.958	0.0181087
796.036	0.0180041
796.114	0.0180205
796.192	0.0182285
796.271	0.0182185
796.349	0.0180932
796.427	0.0182078
796.505	0.0181100
796.583	0.0182856
796.661	0.0182520
796.739	0.0181367
796.817	0.0181763
796.896	0.0180833
796.974	0.0183096
797.052	0.0181327
797.130	0.0181828
797.208	0.0181087
797.286	0.0181145
797.364	0.0181438
797.442	0.0180280
797.521	0.0182809
797.599	0.0181393
797.677	0.0181356
797.755	0.0181174
797.833	0.0180793
797.911	0.0181507
797.989	0.0182050
798.067	0.0181855
798.146	0.0180396
798.224	0.0179867
798.302	0.0183414
798.380	0.0181657
798.458	0.0180405
798.536	0.0181409
798.614	0.0180272
798.692	0.0180793
798.771	0.0180554
798.849	0.0181098
798.927	0.0181223
799.005	0.0179976
799.083	0.0180582
799.161	0.0180128
799.239	0.0180917
799.317	0.0182166
799.396	0.0181706
799.474	0.0182169
799.552	0.0180161
799.630	0.0180386
799.708	0.0181700
799.786	0.0180607
799.864	0.0181153
799.942	0.0180061
800.021	0.0179387
800.099	0.0180671
800.177	0.0182435
800.255	0.0179533
800.333	0.0181571
800.411	0.0181744
800.489	0.0181557
800.567	0.0180814
800.646	0.0182348
800.724	0.0183141
800.802	0.0181371
800.880	0.0181362
800.958	0.0181001
801.036	0.0182088
801.114	0.0181977
801.192	0.0181805
801.271	0.0182100
801.349	0.0182216
801.427	0.0180057
801.505	0.0181176
801.583	0.0181477
801.661	0.0182705
801.739	0.0181520
801.817	0.0180632
801.896	0.0180244
801.974	0.0180508
802.052	0.0182215
802.130	0.0180766
802.208	0.0181555
802.286	0.0180227
802.364	0.0181357
802.442	0.0180573
802.521	0.0180971
802.599	0.0182179
802.677	0.0181454
802.755	0.0181594
802.833	0.0181049
802.911	0.0181689
802.989	0.0180038
803.067	0.0180093
803.146	0.0180244
803.224	0.0181583
803.302	0.0180839
803.380	0.0180492
803.458	0.0180988
803.536	0.0180579
803.614	0.0180898
803.692	0.0182204
803.771	0.0181458
803.849	0.0180760
803.927	0.0181716
804.005	0.0181268
804.083	0.0181354
804.161	0.0181845
804.239	0.0181818
804.317	0.0183166
804.396	0.0182717
804.474	0.0181745
804.552	0.0181042
804.630	0.0181011
804.708	0.0181409
804.786	0.0180812
804.864	0.0181110
804.942	0.0182201
805.021	0.0181458
805.099	0.0181384
805.177	0.0181322
805.255	0.0180930
805.333	0.0182646
805.411	0.0179980
805.489	0.0181411
805.567	0.0182134
805.646	0.0180406
805.724	0.0180972
805.802	0.0180404
805.880	0.0179925
805.958	0.0181359
806.036	0.0179596
806.114	0.0180623
806.192	0.0181983
806.271	0.0182134
806.349	0.0181972
806.427	0.0181428
806.505	0.0181483
806.583	0.0181828
806.661	0.0181837
806.739	0.0182134
806.817	0.0181208
806.896	0.0181212
806.974	0.0180309
807.052	0.0181033
807.130	0.0180505
807.208	0.0181216
807.286	0.0181672
807.364	0.0181573
807.442	0.0182273
807.521	0.0180706
807.599	0.0180080
807.677	0.0181190
807.755	0.0182031
807.833	0.0181690
807.911	0.0180302
807.989	0.0182528
808.067	0.0181387
808.146	0.0180637
808.224	0.0181081
808.302	0.0181544
808.380	0.0181158
808.458	0.0180127
808.536	0.0180815
808.614	0.0180656
808.692	0.0180795
808.771	0.0181028
808.849	0.0181452
808.927	0.0180579
809.005	0.0181250
809.083	0.0181574
809.161	0.0180371
809.239	0.0181392
809.317	0.0181989
809.396	0.0181964
809.474	0.0181192
809.552	0.0182615
809.630	0.0182468
809.708	0.0181052
809.786	0.0180334
809.864	0.0181355
809.942	0.0181256
810.021	0.0182033
810.099	0.0182684
810.177	0.0181832
810.255	0.0180730
810.333	0.0182670
810.411	0.0181659
810.489	0.0180930
810.567	0.0180103
810.646	0.0181976
810.724	0.0182032
810.802	0.0181477
810.880	0.0180959
810.958	0.0181070
811.036	0.0181107
811.114	0.0180584
811.192	0.0181537
811.271	0.0179762
811.349	0.0181572
811.427	0.0181987
811.505	0.0181924
811.583	0.0180238
811.661	0.0180631
811.739	0.0182564
811.817	0.0180687
811.896	0.0180293
811.974	0.0181796
812.052	0.0181879
812.130	0.0180577
812.208	0.0182129
812.286	0.0181049
812.364	0.0180792
812.442	0.0181768
812.521	0.0180885
812.599	0.0180460
812.677	0.0182275
812.755	0.0180840
812.833	0.0180732
812.911	0.0180682
812.989	0.0181120
813.067	0.0180983
813.146	0.0181371
813.224	0.0181321
813.302	0.0181202
813.380	0.0181464
813.458	0.0180575
813.536	0.0181846
813.614	0.0180914
813.692	0.0180658
813.771	0.0180832
813.849	0.0181217
813.927	0.0181150
814.005	0.0180220
814.083	0.0181306
814.161	0.0181051
814.239	0.0179728
814.317	0.0181550
814.396	0.0182076
814.474	0.0181685
814.552	0.0181110
814.630	0.0181979
814.708	0.0181088
814.786	0.0182163
814.864	0.0182014
814.942	0.0181655
815.021	0.0182110
815.099	0.0181585
815.177	0.0180417
815.255	0.0182524
815.333	0.0181833
815.411	0.0182061
815.489	0.0181400
815.567	0.0180984
815.646	0.0181335
815.724	0.0180885
815.802	0.0180524
815.880	0.0180779
815.958	0.0182145
816.036	0.0180914
816.114	0.0180692
816.192	0.0181380
816.271	0.0181178
816.349	0.0180835
816.427	0.0181579
816.505	0.0181358
816.583	0.0180727
816.661	0.0180886
816.739	0.0180551
816.817	0.0181348
816.896	0.0181451
816.974	0.0180695
817.052	0.0180498
817.130	0.0180252
817.208	0.0179781
817.286	0.0181488
817.364	0.0180681
817.442	0.0181861
817.521	0.0182742
817.599	0.0180013
817.677	0.0180025
817.755	0.0180494
817.833	0.0179713
817.911	0.0178982
817.989	0.0180687
818.067	0.0180301
818.146	0.0179471
818.224	0.0180809
818.302	0.0179176
818.380	0.0181179
818.458	0.0180478
818.536	0.0181475
818.614	0.0182614
818.692	0.0181166
818.771	0.0179893
818.849	0.0181688
818.927	0.0183654
819.005	0.0181103
819.083	0.0183015
819.161	0.0183153
819.239	0.0181705
819.317	0.0181074
819.396	0.0182384
819.474	0.0183678
819.552	0.0181705
819.630	0.0181641
819.708	0.0182082
819.786	0.0181246
819.864	0.0181722
819.942	0.0181648
820.021	0.0182806
820.099	0.0182975
820.177	0.0181087
820.255	0.0181453
820.333	0.0180676
820.411	0.0181503
820.489	0.0181381
820.567	0.0182133
820.646	0.0181083
820.724	0.0180948
820.802	0.0181246
820.880	0.0180880
820.958	0.0181131
821.036	0.0180865
821.114	0.0179303
821.192	0.0181351
821.271	0.0181100
821.349	0.0181496
821.427	0.0180346
821.505	0.0179753
821.583	0.0182966
821.661	0.0182301
821.739	0.0182393
821.817	0.0181355
821.896	0.0181203
821.974	0.0181129
822.052	0.0180848
822.130	0.0181486
822.208	0.0180189
822.286	0.0180129
822.364	0.0181107
822.442	0.0179777
822.521	0.0180576
822.599	0.0182958
822.677	0.0181754
822.755	0.0181612
822.833	0.0182233
822.911	0.0181514
822.989	0.0180354
823.067	0.0179539
823.146	0.0181722
823.224	0.0181318
823.302	0.0181311
823.380	0.0182564
823.458	0.0181880
823.536	0.0181715
823.614	0.0181773
823.692	0.0182407
823.771	0.0181883
823.849	0.0181155
823.927	0.0181152
824.005	0.0180824
824.083	0.0181602
824.161	0.0181039
824.239	0.0181743
824.317	0.0181473
824.396	0.0181397
824.474	0.0180764
824.552	0.0181129
824.630	0.0180827
824.708	0.0181699
824.786	0.0181992
824.864	0.0181435
824.942	0.0180490
825.021	0.0181065
825.099	0.0180932
825.177	0.0182358
825.255	0.0180630
825.333	0.0181015
825.411	0.0181489
825.489	0.0179466
825.567	0.0180618
825.646	0.0181195
825.724	0.0181713
825.802	0.0179635
825.880	0.0180732
825.958	0.0180947
826.036	0.0182591
826.114	0.0181598
826.192	0.0181402
826.271	0.0181073
826.349	0.0180952
826.427	0.0180201
826.505	0.0180804
826.583	0.0181654
826.661	0.0183399
826.739	0.0180844
826.817	0.0180412
826.896	0.0181226
826.974	0.0181745
827.052	0.0180576
827.130	0.0181539
827.208	0.0179297
827.286	0.0181429
827.364	0.0182001
827.442	0.0179572
827.521	0.0179768
827.599	0.0180503
827.677	0.0179505
827.755	0.0181609
827.833	0.0179970
827.911	0.0179581
827.989	0.0181267
828.067	0.0182047
828.146	0.0181241
828.224	0.0182230
828.302	0.0180989
828.380	0.0181815
828.458	0.0180393
828.536	0.0182114
828.614	0.0181370
828.692	0.0182660
828.771	0.0182455
828.849	0.0182909
828.927	0.0181281
829.005	0.0182545
829.083	0.0181643
829.161	0.0181176
829.239	0.0182146
829.317	0.0181219
829.396	0.0182153
829.474	0.0181535
829.552	0.0181005
829.630	0.0180518
829.708	0.0181714
829.786	0.0180758
829.864	0.0181255
829.942	0.0180330
830.021	0.0181123
830.099	0.0181585
830.177	0.0180473
830.255	0.0181441
830.333	0.0180836
830.411	0.0180497
830.489	0.0181170
830.567	0.0181277
830.646	0.0181148
830.724	0.0181570
830.802	0.0181885
830.880	0.0182000
830.958	0.0181902
831.036	0.0180878
831.114	0.0180907
831.192	0.0180808
831.271	0.0180116
831.349	0.0181331
831.427	0.0180954
831.505	0.0181749
831.583	0.0182389
831.661	0.0180218
831.739	0.0179224
831.817	0.0181194
831.896	0.0180778
831.974	0.0180942
832.052	0.0180817
832.130	0.0182457
832.208	0.0180956
832.286	0.0180165
832.364	0.0180962
832.442	0.0180807
832.521	0.0181805
832.599	0.0180075
832.677	0.0181766
832.755	0.0180953
832.833	0.0179574
832.911	0.0181025
832.989	0.0181207
833.067	0.0182461
833.146	0.0181779
833.224	0.0179939
833.302	0.0181402
833.380	0.0182076
833.458	0.0181966
833.536	0.0180644
833.614	0.0180872
833.692	0.0181906
833.771	0.0180752
833.849	0.0178555
833.927	0.0180994
834.005	0.0180522
834.083	0.0180633
834.161	0.0181131
834.239	0.0181924
834.317	0.0180910
834.396	0.0182567
834.474	0.0179457
834.552	0.0180956
834.630	0.0180769
834.708	0.0181763
834.786	0.0181508
834.864	0.0181468
834.942	0.0182604
835.021	0.0181767
835.099	0.0182254
835.177	0.0180753
835.255	0.0180621
835.333	0.0181218
835.411	0.0180522
835.489	0.0181805
835.567	0.0181806
835.646	0.0180989
835.724	0.0181418
835.802	0.0181473
835.880	0.0182240
835.958	0.0182823
836.036	0.0182175
836.114	0.0182079
836.192	0.0180641
836.271	0.0180904
836.349	0.0181121
836.427	0.0181573
836.505	0.0182202
836.583	0.0182053
836.661	0.0181518
836.739	0.0181631
836.817	0.0181533
836.896	0.0181701
836.974	0.0181898
837.052	0.0180142
837.130	0.0180910
837.208	0.0179636
837.286	0.0181334
837.364	0.0180605
837.442	0.0179649
837.521	0.0178775
837.599	0.0182539
837.677	0.0180734
837.755	0.0180408
837.833	0.0180895
837.911	0.0179057
837.989	0.0179317
838.067	0.0181152
838.146	0.0181342
838.224	0.0181906
838.302	0.0180920
838.380	0.0181670
838.458	0.0180801
838.536	0.0180575
838.614	0.0181741
838.692	0.0181917
838.771	0.0179434
838.849	0.0181086
838.927	0.0181307
839.005	0.0179834
839.083	0.0179589
839.161	0.0179597
839.239	0.0179362
839.317	0.0179996
839.396	0.0179959
839.474	0.0181513
839.552	0.0181322
839.630	0.0181107
839.708	0.0181343
839.786	0.0180766
839.864	0.0180807
839.942	0.0181207
840.021	0.0182628
840.099	0.0181466
840.177	0.0181646
840.255	0.0183711
840.333	0.0183768
840.411	0.0182691
840.489	0.0182800
840.567	0.0181547
840.646	0.0180339
840.724	0.0182835
840.802	0.0183682
840.880	0.0181915
840.958	0.0182924
841.036	0.0182443
841.114	0.0182272
841.192	0.0181470
841.271	0.0181429
841.349	0.0181165
841.427	0.0180525
841.505	0.0181631
841.583	0.0181309
841.661	0.0180859
841.739	0.0181239
841.817	0.0181022
841.896	0.0181060
841.974	0.0181071
842.052	0.0180651
842.130	0.0181897
842.208	0.0181512
842.286	0.0181599
842.364	0.0181343
842.442	0.0180730
842.521	0.0182188
842.599	0.0180859
842.677	0.0181092
842.755	0.0180503
842.833	0.0181636
842.911	0.0181953
842.989	0.0180310
843.067	0.0179422
843.146	0.0180312
843.224	0.0180402
843.302	0.0180504
843.380	0.0180239
843.458	0.0180174
843.536	0.0180756
843.614	0.0180604
843.692	0.0180594
843.771	0.0180588
843.849	0.0181825
843.927	0.0180497
844.005	0.0181210
844.083	0.0181574
844.161	0.0180823
844.239	0.0180094
844.317	0.0180771
844.396	0.0181213
844.474	0.0180190
844.552	0.0181135
844.630	0.0180816
844.708	0.0181005
844.786	0.0180357
844.864	0.0180117
844.942	0.0182080
845.021	0.0181261
845.099	0.0179812
845.177	0.0181293
845.255	0.0181199
845.333	0.0181789
845.411	0.0180592
845.489	0.0181294
845.567	0.0181126
845.646	0.0181079
845.724	0.0180068
845.802	0.0179348
845.880	0.0180544
845.958	0.0181169
846.036	0.0179084
846.114	0.0179946
846.192	0.0180488
846.271	0.0180678
846.349	0.0181326
846.427	0.0180846
846.505	0.0179867
846.583	0.0180650
846.661	0.0181723
846.739	0.0181841
846.817	0.0181736
846.896	0.0181623
846.974	0.0182166
847.052	0.0182026
847.130	0.0182357
847.208	0.0182140
847.286	0.0181783
847.364	0.0181364
847.442	0.0180901
847.521	0.0181755
847.599	0.0181820
847.677	0.0181026
847.755	0.0181392
847.833	0.0181696
847.911	0.0181022
847.989	0.0181632
848.067	0.0182072
848.146	0.0182631
848.224	0.0180613
848.302	0.0180869
848.380	0.0181268
848.458	0.0182508
848.536	0.0181674
848.614	0.0182205
848.692	0.0181401
848.771	0.0181670
848.849	0.0179893
848.927	0.0181308
849.005	0.0180509
849.083	0.0179863
849.161	0.0181069
849.239	0.0180685
849.317	0.0179681
849.396	0.0179128
849.474	0.0178970
849.552	0.0179474
849.630	0.0179638
849.708	0.0178777
849.786	0.0180807
849.864	0.0178294
849.942	0.0178578
850.021	0.0179513
850.099	0.0179264
850.177	0.0179475
850.255	0.0180023
850.333	0.0178593
850.411	0.0179415
850.489	0.0180338
850.567	0.0179295
850.646	0.0180842
850.724	0.0180163
850.802	0.0179910
850.880	0.0180769
850.958	0.0181821
851.036	0.0180372
851.114	0.0180439
851.192	0.0181271
851.271	0.0182835
851.349	0.0183595
851.427	0.0183443
851.505	0.0182811
851.583	0.0181996
851.661	0.0184235
851.739	0.0183430
851.817	0.0183736
851.896	0.0183313
851.974	0.0182635
852.052	0.0182853
852.130	0.0182338
852.208	0.0182578
852.286	0.0182467
852.364	0.0181039
852.442	0.0182058
852.521	0.0181616
852.599	0.0181812
852.677	0.0180923
852.755	0.0180408
852.833	0.0179820
852.911	0.0182275
852.989	0.0180587
853.067	0.0178844
853.146	0.0179881
853.224	0.0180900
853.302	0.0179948
853.380	0.0180173
853.458	0.0179288
853.536	0.0179939
853.614	0.0179657
853.692	0.0181423
853.771	0.0180997
853.849	0.0179671
853.927	0.0180466
854.005	0.0180463
854.083	0.0181160
854.161	0.0180293
854.239	0.0179171
854.317	0.0182159
854.396	0.0182373
854.474	0.0180309
854.552	0.0180318
854.630	0.0180525
854.708	0.0181628
854.786	0.0181455
854.864	0.0181493
854.942	0.0180532
855.021	0.0180826
855.099	0.0179855
855.177	0.0181294
855.255	0.0180611
855.333	0.0180093
855.411	0.0180847
855.489	0.0182275
855.567	0.0182715
855.646	0.0181192
855.724	0.0180830
855.802	0.0181285
855.880	0.0180907
855.958	0.0180952
856.036	0.0180956
856.114	0.0181975
856.192	0.0181117
856.271	0.0180466
856.349	0.0180198
856.427	0.0181143
856.505	0.0182056
856.583	0.0182440
856.661	0.0181734
856.739	0.0181522
856.817	0.0181953
856.896	0.0182181
856.974	0.0183085
857.052	0.0181165
857.130	0.0181681
857.208	0.0181491
857.286	0.0182082
857.364	0.0181022
857.442	0.0181637
857.521	0.0180983
857.599	0.0181929
857.677	0.0181206
857.755	0.0180798
857.833	0.0181463
857.911	0.0181337
857.989	0.0181105
858.067	0.0179941
858.146	0.0180235
858.224	0.0182481
858.302	0.0181843
858.380	0.0181071
858.458	0.0182075
858.536	0.0181448
858.614	0.0182793
858.692	0.0181587
858.771	0.0180216
858.849	0.0182317
858.927	0.0181927
859.005	0.0182030
859.083	0.0182816
859.161	0.0182864
859.239	0.0181883
859.317	0.0181514
859.396	0.0181528
859.474	0.0180952
859.552	0.0181543
859.630	0.0181136
859.708	0.0180918
859.786	0.0181781
859.864	0.0182133
859.942	0.0181116
860.021	0.0181376
860.099	0.0181749
860.177	0.0182629
860.255	0.0182110
860.333	0.0181595
860.411	0.0181298
860.489	0.0180900
860.567	0.0180499
860.646	0.0181944
860.724	0.0181452
860.802	0.0181263
860.880	0.0181020
860.958	0.0181675
861.036	0.0182394
861.114	0.0181741
861.192	0.0180575
861.271	0.0182791
861.349	0.0181674
861.427	0.0180936
861.505	0.0181073
861.583	0.0182573
861.661	0.0182034
861.739	0.0182962
861.817	0.0182669
861.896	0.0181207
861.974	0.0181595
862.052	0.0180836
862.130	0.0182437
862.208	0.0181871
862.286	0.0181944
862.364	0.0181403
862.442	0.0181464
862.521	0.0182965
862.599	0.0181390
862.677	0.0181345
862.755	0.0182323
862.833	0.0182594
862.911	0.0181578
862.989	0.0180268
863.067	0.0182444
863.146	0.0181678
863.224	0.0180148
863.302	0.0181918
863.380	0.0181683
863.458	0.0180802
863.536	0.0181359
863.614	0.0181109
863.692	0.0181196
863.771	0.0180135
863.849	0.0180185
863.927	0.0182119
864.005	0.0179789
864.083	0.0180319
864.161	0.0181062
864.239	0.0181203
864.317	0.0180979
864.396	0.0179114
864.474	0.0181520
864.552	0.0180855
864.630	0.0181947
864.708	0.0180440
864.786	0.0179568
864.864	0.0181054
864.942	0.0181408
865.021	0.0182159
865.099	0.0180491
865.177	0.0180640
865.255	0.0182204
865.333	0.0181799
865.411	0.0181107
865.489	0.0181068
865.567	0.0181918
865.646	0.0180894
865.724	0.0180411
865.802	0.0181657
865.880	0.0181483
865.958	0.0181938
866.036	0.0180493
866.114	0.0181528
866.192	0.0182587
866.271	0.0182159
866.349	0.0182268
866.427	0.0180791
866.505	0.0181869
866.583	0.0182320
866.661	0.0181487
866.739	0.0182012
866.817	0.0183754
866.896	0.0181121
866.974	0.0180610
867.052	0.0181718
867.130	0.0181782
867.208	0.0179784
867.286	0.0181853
867.364	0.0180484
867.442	0.0179351
867.521	0.0182130
867.599	0.0180258
867.677	0.0181852
867.755	0.0182204
867.833	0.0182363
867.911	0.0181934
867.989	0.0181928
868.067	0.0181924
868.146	0.0182015
868.224	0.0181894
868.302	0.0182301
868.380	0.0181791
868.458	0.0181296
868.536	0.0181252
868.614	0.0183335
868.692	0.0182693
868.771	0.0181461
868.849	0.0181112
868.927	0.0182119
869.005	0.0182729
869.083	0.0181492
869.161	0.0181187
869.239	0.0179945
869.317	0.0180995
869.396	0.0180727
869.474	0.0180349
869.552	0.0181837
869.630	0.0180759
869.708	0.0180934
869.786	0.0180814
869.864	0.0181492
869.942	0.0180321
