06/03/2022	16:03:02	Ver.	4.1	UNKNOWN
Optical Delay	550.020508	Delta X		0.078125	Sweeps	1	Scan Rate	0/0
Coordinates	Axis 1	NaN	Axis 2	NaN	Axis 3	NaN	Axis 4	NaN	Axis 5	NaN	Axis 6	0.000000
TX Power	0.000000	RX Power	0.000000

550.021	0.0166103
550.099	0.0165702
550.177	0.0165707
550.255	0.0166248
550.333	0.0166436
550.411	0.0165914
550.489	0.0165456
550.567	0.0165025
550.646	0.0166357
550.724	0.0167034
550.802	0.0165623
550.880	0.0165533
550.958	0.0167511
551.036	0.0166020
551.114	0.0164312
551.192	0.0164854
551.271	0.0165978
551.349	0.0165999
551.427	0.0166239
551.505	0.0165806
551.583	0.0165154
551.661	0.0167109
551.739	0.0164668
551.817	0.0165163
551.896	0.0164970
551.974	0.0165909
552.052	0.0165431
552.130	0.0166199
552.208	0.0164774
552.286	0.0165818
552.364	0.0165262
552.442	0.0165450
552.521	0.0165489
552.599	0.0164986
552.677	0.0163651
552.755	0.0165298
552.833	0.0165622
552.911	0.0165108
552.989	0.0166832
553.067	0.0165594
553.146	0.0165832
553.224	0.0163894
553.302	0.0166142
553.380	0.0166457
553.458	0.0166071
553.536	0.0164999
553.614	0.0165080
553.692	0.0165437
553.771	0.0167106
553.849	0.0166526
553.927	0.0166137
554.005	0.0165913
554.083	0.0166013
554.161	0.0165061
554.239	0.0166742
554.317	0.0167651
554.396	0.0166747
554.474	0.0166233
554.552	0.0166972
554.630	0.0165268
554.708	0.0166293
554.786	0.0166021
554.864	0.0165940
554.942	0.0166576
555.021	0.0165742
555.099	0.0164915
555.177	0.0166172
555.255	0.0167226
555.333	0.0166609
555.411	0.0167126
555.489	0.0167164
555.567	0.0165611
555.646	0.0166779
555.724	0.0167303
555.802	0.0166137
555.880	0.0167829
555.958	0.0165558
556.036	0.0166068
556.114	0.0168004
556.192	0.0166293
556.271	0.0165927
556.349	0.0166557
556.427	0.0166861
556.505	0.0167604
556.583	0.0167271
556.661	0.0166302
556.739	0.0166619
556.817	0.0166499
556.896	0.0166828
556.974	0.0167206
557.052	0.0167561
557.130	0.0166853
557.208	0.0166355
557.286	0.0166904
557.364	0.0167583
557.442	0.0166864
557.521	0.0167560
557.599	0.0167745
557.677	0.0167104
557.755	0.0167401
557.833	0.0166663
557.911	0.0167181
557.989	0.0166843
558.067	0.0166077
558.146	0.0167132
558.224	0.0165005
558.302	0.0166913
558.380	0.0167767
558.458	0.0166470
558.536	0.0167265
558.614	0.0167992
558.692	0.0166696
558.771	0.0168395
558.849	0.0167161
558.927	0.0166121
559.005	0.0168078
559.083	0.0167438
559.161	0.0167385
559.239	0.0167886
559.317	0.0167298
559.396	0.0166241
559.474	0.0167085
559.552	0.0166808
559.630	0.0166838
559.708	0.0168143
559.786	0.0168768
559.864	0.0167494
559.942	0.0166544
560.021	0.0167481
560.099	0.0167043
560.177	0.0167204
560.255	0.0166138
560.333	0.0167644
560.411	0.0167515
560.489	0.0166698
560.567	0.0168651
560.646	0.0168137
560.724	0.0167454
560.802	0.0167017
560.880	0.0167772
560.958	0.0166326
561.036	0.0168781
561.114	0.0167013
561.192	0.0165828
561.271	0.0168057
561.349	0.0167782
561.427	0.0167599
561.505	0.0166558
561.583	0.0168680
561.661	0.0167597
561.739	0.0166655
561.817	0.0166577
561.896	0.0167445
561.974	0.0168241
562.052	0.0166221
562.130	0.0166882
562.208	0.0168887
562.286	0.0166966
562.364	0.0166143
562.442	0.0166139
562.521	0.0165743
562.599	0.0167558
562.677	0.0168082
562.755	0.0167277
562.833	0.0167201
562.911	0.0167506
562.989	0.0166502
563.067	0.0167612
563.146	0.0167060
563.224	0.0167427
563.302	0.0167717
563.380	0.0168245
563.458	0.0167783
563.536	0.0167268
563.614	0.0168803
563.692	0.0167178
563.771	0.0166291
563.849	0.0168887
563.927	0.0168291
564.005	0.0166819
564.083	0.0167527
564.161	0.0167669
564.239	0.0168501
564.317	0.0167009
564.396	0.0167531
564.474	0.0168053
564.552	0.0166797
564.630	0.0167793
564.708	0.0167153
564.786	0.0168449
564.864	0.0166402
564.942	0.0165942
565.021	0.0167088
565.099	0.0168095
565.177	0.0168151
565.255	0.0167006
565.333	0.0166567
565.411	0.0167667
565.489	0.0166256
565.567	0.0165591
565.646	0.0166850
565.724	0.0166616
565.802	0.0166079
565.880	0.0167065
565.958	0.0165993
566.036	0.0166842
566.114	0.0165937
566.192	0.0166665
566.271	0.0168085
566.349	0.0166405
566.427	0.0166498
566.505	0.0165428
566.583	0.0166183
566.661	0.0166158
566.739	0.0166985
566.817	0.0167265
566.896	0.0166991
566.974	0.0165058
567.052	0.0166527
567.130	0.0166136
567.208	0.0167260
567.286	0.0167422
567.364	0.0166422
567.442	0.0166914
567.521	0.0166203
567.599	0.0165939
567.677	0.0166051
567.755	0.0166181
567.833	0.0167750
567.911	0.0167050
567.989	0.0166068
568.067	0.0165810
568.146	0.0166113
568.224	0.0166454
568.302	0.0166264
568.380	0.0166880
568.458	0.0165874
568.536	0.0165214
568.614	0.0166808
568.692	0.0167385
568.771	0.0166716
568.849	0.0167257
568.927	0.0166573
569.005	0.0167123
569.083	0.0167431
569.161	0.0166871
569.239	0.0166467
569.317	0.0165685
569.396	0.0166656
569.474	0.0166693
569.552	0.0166486
569.630	0.0167622
569.708	0.0166022
569.786	0.0167142
569.864	0.0168094
569.942	0.0165860
570.021	0.0165985
570.099	0.0166766
570.177	0.0166206
570.255	0.0167139
570.333	0.0166587
570.411	0.0165572
570.489	0.0165951
570.567	0.0167477
570.646	0.0166579
570.724	0.0166546
570.802	0.0166355
570.880	0.0166455
570.958	0.0164780
571.036	0.0165788
571.114	0.0167661
571.192	0.0163426
571.271	0.0166167
571.349	0.0166553
571.427	0.0166316
571.505	0.0166276
571.583	0.0165354
571.661	0.0166446
571.739	0.0167490
571.817	0.0165466
571.896	0.0166714
571.974	0.0166032
572.052	0.0165482
572.130	0.0164891
572.208	0.0166125
572.286	0.0166869
572.364	0.0166911
572.442	0.0166315
572.521	0.0165238
572.599	0.0166636
572.677	0.0166108
572.755	0.0167343
572.833	0.0166995
572.911	0.0166651
572.989	0.0167006
573.067	0.0166710
573.146	0.0166592
573.224	0.0164648
573.302	0.0166718
573.380	0.0166449
573.458	0.0166222
573.536	0.0166822
573.614	0.0166145
573.692	0.0165784
573.771	0.0166743
573.849	0.0166880
573.927	0.0165651
574.005	0.0165511
574.083	0.0164639
574.161	0.0166228
574.239	0.0164764
574.317	0.0165839
574.396	0.0165247
574.474	0.0166690
574.552	0.0166523
574.630	0.0165427
574.708	0.0165385
574.786	0.0164922
574.864	0.0165210
574.942	0.0163839
575.021	0.0163834
575.099	0.0164584
575.177	0.0165961
575.255	0.0164194
575.333	0.0164400
575.411	0.0164332
575.489	0.0165905
575.567	0.0165249
575.646	0.0164685
575.724	0.0166035
575.802	0.0164557
575.880	0.0164874
575.958	0.0165697
576.036	0.0165166
576.114	0.0165635
576.192	0.0165514
576.271	0.0165478
576.349	0.0164884
576.427	0.0164757
576.505	0.0166263
576.583	0.0165582
576.661	0.0165744
576.739	0.0165133
576.817	0.0164655
576.896	0.0166246
576.974	0.0166151
577.052	0.0165635
577.130	0.0165259
577.208	0.0165714
577.286	0.0165379
577.364	0.0165950
577.442	0.0165160
577.521	0.0166121
577.599	0.0165527
577.677	0.0165153
577.755	0.0166066
577.833	0.0165381
577.911	0.0165794
577.989	0.0164251
578.067	0.0164317
578.146	0.0164928
578.224	0.0165462
578.302	0.0165937
578.380	0.0164487
578.458	0.0166615
578.536	0.0165352
578.614	0.0165591
578.692	0.0164813
578.771	0.0164383
578.849	0.0165012
578.927	0.0166809
579.005	0.0166602
579.083	0.0165572
579.161	0.0167021
579.239	0.0165795
579.317	0.0165115
579.396	0.0166225
579.474	0.0166589
579.552	0.0164529
579.630	0.0166261
579.708	0.0167352
579.786	0.0166698
579.864	0.0165620
579.942	0.0166824
580.021	0.0166355
580.099	0.0167250
580.177	0.0167194
580.255	0.0165524
580.333	0.0166137
580.411	0.0166654
580.489	0.0167168
580.567	0.0167068
580.646	0.0165623
580.724	0.0165901
580.802	0.0165700
580.880	0.0167477
580.958	0.0167212
581.036	0.0167438
581.114	0.0166662
581.192	0.0167104
581.271	0.0166089
581.349	0.0167204
581.427	0.0165888
581.505	0.0165215
581.583	0.0168983
581.661	0.0167714
581.739	0.0166793
581.817	0.0167388
581.896	0.0167904
581.974	0.0166919
582.052	0.0167834
582.130	0.0167470
582.208	0.0166895
582.286	0.0168036
582.364	0.0167680
582.442	0.0168034
582.521	0.0166888
582.599	0.0168498
582.677	0.0167954
582.755	0.0166712
582.833	0.0166835
582.911	0.0167685
582.989	0.0167168
583.067	0.0168356
583.146	0.0168749
583.224	0.0167072
583.302	0.0167606
583.380	0.0166396
583.458	0.0168913
583.536	0.0167845
583.614	0.0167217
583.692	0.0166609
583.771	0.0167746
583.849	0.0166615
583.927	0.0168253
584.005	0.0168906
584.083	0.0167563
584.161	0.0167316
584.239	0.0168917
584.317	0.0167873
584.396	0.0168677
584.474	0.0169055
584.552	0.0168444
584.630	0.0167812
584.708	0.0168690
584.786	0.0168179
584.864	0.0168501
584.942	0.0168295
585.021	0.0168674
585.099	0.0169126
585.177	0.0167978
585.255	0.0166663
585.333	0.0166867
585.411	0.0166769
585.489	0.0167880
585.567	0.0167731
585.646	0.0166911
585.724	0.0166499
585.802	0.0168621
585.880	0.0168909
585.958	0.0166327
586.036	0.0166682
586.114	0.0166744
586.192	0.0167415
586.271	0.0168806
586.349	0.0166895
586.427	0.0166924
586.505	0.0166675
586.583	0.0165768
586.661	0.0165121
586.739	0.0166924
586.817	0.0167374
586.896	0.0166985
586.974	0.0166365
587.052	0.0166840
587.130	0.0165926
587.208	0.0167335
587.286	0.0167756
587.364	0.0167558
587.442	0.0166236
587.521	0.0165360
587.599	0.0167281
587.677	0.0167000
587.755	0.0166492
587.833	0.0166932
587.911	0.0167288
587.989	0.0166724
588.067	0.0165824
588.146	0.0165765
588.224	0.0166454
588.302	0.0167216
588.380	0.0166566
588.458	0.0166854
588.536	0.0165582
588.614	0.0167418
588.692	0.0166785
588.771	0.0166414
588.849	0.0166356
588.927	0.0165611
589.005	0.0165719
589.083	0.0167352
589.161	0.0166021
589.239	0.0165781
589.317	0.0166939
589.396	0.0166720
589.474	0.0165408
589.552	0.0166191
589.630	0.0167799
589.708	0.0165342
589.786	0.0165736
589.864	0.0167104
589.942	0.0166414
590.021	0.0166195
590.099	0.0166121
590.177	0.0164562
590.255	0.0165939
590.333	0.0164828
590.411	0.0164583
590.489	0.0164325
590.567	0.0163823
590.646	0.0165556
590.724	0.0164384
590.802	0.0167158
590.880	0.0165585
590.958	0.0164491
591.036	0.0164921
591.114	0.0166257
591.192	0.0164184
591.271	0.0166125
591.349	0.0165342
591.427	0.0162881
591.505	0.0165179
591.583	0.0166145
591.661	0.0164005
591.739	0.0165015
591.817	0.0166179
591.896	0.0164386
591.974	0.0164544
592.052	0.0165131
592.130	0.0164716
592.208	0.0166249
592.286	0.0165710
592.364	0.0165293
592.442	0.0164521
592.521	0.0165272
592.599	0.0166553
592.677	0.0165469
592.755	0.0164394
592.833	0.0165633
592.911	0.0164443
592.989	0.0165046
593.067	0.0165244
593.146	0.0165444
593.224	0.0164554
593.302	0.0164739
593.380	0.0164964
593.458	0.0164900
593.536	0.0165468
593.614	0.0165873
593.692	0.0164983
593.771	0.0165588
593.849	0.0163892
593.927	0.0165302
594.005	0.0166537
594.083	0.0166357
594.161	0.0166925
594.239	0.0166995
594.317	0.0165942
594.396	0.0165938
594.474	0.0165308
594.552	0.0165200
594.630	0.0165228
594.708	0.0165366
594.786	0.0165849
594.864	0.0165150
594.942	0.0167154
595.021	0.0166029
595.099	0.0166614
595.177	0.0165051
595.255	0.0166172
595.333	0.0165298
595.411	0.0165855
595.489	0.0166034
595.567	0.0167252
595.646	0.0165045
595.724	0.0164494
595.802	0.0165919
595.880	0.0165766
595.958	0.0166620
596.036	0.0166596
596.114	0.0165308
596.192	0.0165808
596.271	0.0167216
596.349	0.0165472
596.427	0.0166711
596.505	0.0165604
596.583	0.0165873
596.661	0.0167238
596.739	0.0167394
596.817	0.0165170
596.896	0.0164261
596.974	0.0165794
597.052	0.0164748
597.130	0.0166910
597.208	0.0164175
597.286	0.0166101
597.364	0.0166135
597.442	0.0165929
597.521	0.0166177
597.599	0.0165229
597.677	0.0166219
597.755	0.0164915
597.833	0.0165421
597.911	0.0165353
597.989	0.0166180
598.067	0.0165598
598.146	0.0165134
598.224	0.0166498
598.302	0.0166207
598.380	0.0165067
598.458	0.0165190
598.536	0.0167245
598.614	0.0166127
598.692	0.0165617
598.771	0.0166845
598.849	0.0166743
598.927	0.0165675
599.005	0.0166112
599.083	0.0166598
599.161	0.0165955
599.239	0.0165337
599.317	0.0167018
599.396	0.0166664
599.474	0.0165536
599.552	0.0165700
599.630	0.0167231
599.708	0.0164870
599.786	0.0165843
599.864	0.0165941
599.942	0.0165044
600.021	0.0165244
600.099	0.0166110
600.177	0.0166986
600.255	0.0166435
600.333	0.0165908
600.411	0.0166123
600.489	0.0166151
600.567	0.0164579
600.646	0.0164887
600.724	0.0166743
600.802	0.0166433
600.880	0.0166924
600.958	0.0166637
601.036	0.0165884
601.114	0.0166430
601.192	0.0166608
601.271	0.0167000
601.349	0.0167333
601.427	0.0165954
601.505	0.0166170
601.583	0.0166232
601.661	0.0166702
601.739	0.0167041
601.817	0.0167773
601.896	0.0167130
601.974	0.0166515
602.052	0.0166093
602.130	0.0166907
602.208	0.0167020
602.286	0.0166862
602.364	0.0165852
602.442	0.0164966
602.521	0.0166305
602.599	0.0165686
602.677	0.0166000
602.755	0.0166209
602.833	0.0167624
602.911	0.0167045
602.989	0.0166325
603.067	0.0166737
603.146	0.0167480
603.224	0.0165761
603.302	0.0167106
603.380	0.0165276
603.458	0.0167362
603.536	0.0166989
603.614	0.0166541
603.692	0.0165206
603.771	0.0165002
603.849	0.0166959
603.927	0.0166575
604.005	0.0166671
604.083	0.0168384
604.161	0.0167146
604.239	0.0165438
604.317	0.0166013
604.396	0.0166260
604.474	0.0166169
604.552	0.0168591
604.630	0.0166669
604.708	0.0165821
604.786	0.0167236
604.864	0.0164610
604.942	0.0165725
605.021	0.0165885
605.099	0.0166898
605.177	0.0167831
605.255	0.0166729
605.333	0.0166415
605.411	0.0167169
605.489	0.0166164
605.567	0.0165826
605.646	0.0166335
605.724	0.0166090
605.802	0.0166402
605.880	0.0168292
605.958	0.0166429
606.036	0.0166223
606.114	0.0167339
606.192	0.0166235
606.271	0.0167422
606.349	0.0166219
606.427	0.0165700
606.505	0.0165986
606.583	0.0165534
606.661	0.0165824
606.739	0.0166912
606.817	0.0166512
606.896	0.0166363
606.974	0.0166383
607.052	0.0167300
607.130	0.0166009
607.208	0.0166322
607.286	0.0167495
607.364	0.0166328
607.442	0.0165220
607.521	0.0165538
607.599	0.0167371
607.677	0.0165988
607.755	0.0165609
607.833	0.0167471
607.911	0.0167575
607.989	0.0166254
608.067	0.0165718
608.146	0.0165923
608.224	0.0166035
608.302	0.0167005
608.380	0.0166636
608.458	0.0166278
608.536	0.0166918
608.614	0.0167460
608.692	0.0166749
608.771	0.0164915
608.849	0.0167637
608.927	0.0168429
609.005	0.0166604
609.083	0.0165565
609.161	0.0165900
609.239	0.0166886
609.317	0.0165013
609.396	0.0167614
609.474	0.0166708
609.552	0.0166631
609.630	0.0167110
609.708	0.0167188
609.786	0.0166515
609.864	0.0166273
609.942	0.0166985
610.021	0.0167390
610.099	0.0165607
610.177	0.0166288
610.255	0.0166499
610.333	0.0166524
610.411	0.0165989
610.489	0.0165784
610.567	0.0166624
610.646	0.0166586
610.724	0.0167722
610.802	0.0166909
610.880	0.0166032
610.958	0.0166598
611.036	0.0166494
611.114	0.0166434
611.192	0.0167899
611.271	0.0167403
611.349	0.0168502
611.427	0.0165878
611.505	0.0167430
611.583	0.0167178
611.661	0.0168034
611.739	0.0165987
611.817	0.0166483
611.896	0.0167147
611.974	0.0168171
612.052	0.0165961
612.130	0.0167175
612.208	0.0167342
612.286	0.0166719
612.364	0.0166326
612.442	0.0167425
612.521	0.0166088
612.599	0.0165498
612.677	0.0166365
612.755	0.0165559
612.833	0.0166096
612.911	0.0165938
612.989	0.0166927
613.067	0.0166760
613.146	0.0165757
613.224	0.0166438
613.302	0.0165859
613.380	0.0166164
613.458	0.0165943
613.536	0.0165257
613.614	0.0164581
613.692	0.0165446
613.771	0.0165700
613.849	0.0166813
613.927	0.0166453
614.005	0.0165033
614.083	0.0165369
614.161	0.0165456
614.239	0.0165434
614.317	0.0164847
614.396	0.0164355
614.474	0.0166121
614.552	0.0165224
614.630	0.0165423
614.708	0.0164960
614.786	0.0164499
614.864	0.0165150
614.942	0.0166530
615.021	0.0164957
615.099	0.0164623
615.177	0.0164602
615.255	0.0164357
615.333	0.0166428
615.411	0.0166861
615.489	0.0164999
615.567	0.0165761
615.646	0.0165788
615.724	0.0165070
615.802	0.0165076
615.880	0.0166220
615.958	0.0165584
616.036	0.0164791
616.114	0.0164474
616.192	0.0165029
616.271	0.0165841
616.349	0.0165793
616.427	0.0166308
616.505	0.0165546
616.583	0.0167383
616.661	0.0166151
616.739	0.0164991
616.817	0.0166129
616.896	0.0165842
616.974	0.0166930
617.052	0.0165965
617.130	0.0165151
617.208	0.0166491
617.286	0.0164298
617.364	0.0165694
617.442	0.0166351
617.521	0.0164552
617.599	0.0166608
617.677	0.0167379
617.755	0.0165646
617.833	0.0167183
617.911	0.0166696
617.989	0.0165832
618.067	0.0166831
618.146	0.0165818
618.224	0.0164809
618.302	0.0166850
618.380	0.0166030
618.458	0.0166591
618.536	0.0165959
618.614	0.0165907
618.692	0.0165695
618.771	0.0165874
618.849	0.0164999
618.927	0.0167178
619.005	0.0165954
619.083	0.0165765
619.161	0.0167044
619.239	0.0165901
619.317	0.0165720
619.396	0.0166132
619.474	0.0166184
619.552	0.0167188
619.630	0.0164560
619.708	0.0164911
619.786	0.0167284
619.864	0.0167465
619.942	0.0166012
620.021	0.0164823
620.099	0.0166192
620.177	0.0167531
620.255	0.0166454
620.333	0.0167588
620.411	0.0165878
620.489	0.0166624
620.567	0.0167680
620.646	0.0165817
620.724	0.0166814
620.802	0.0167128
620.880	0.0166869
620.958	0.0165368
621.036	0.0167001
621.114	0.0168279
621.192	0.0166159
621.271	0.0165020
621.349	0.0167222
621.427	0.0165661
621.505	0.0167062
621.583	0.0165881
621.661	0.0166347
621.739	0.0166872
621.817	0.0168076
621.896	0.0168266
621.974	0.0167669
622.052	0.0166677
622.130	0.0166547
622.208	0.0167324
622.286	0.0166218
622.364	0.0165750
622.442	0.0167261
622.521	0.0166702
622.599	0.0166599
622.677	0.0165066
622.755	0.0167158
622.833	0.0166006
622.911	0.0165453
622.989	0.0165434
623.067	0.0166043
623.146	0.0166899
623.224	0.0166257
623.302	0.0165230
623.380	0.0166463
623.458	0.0165736
623.536	0.0166437
623.614	0.0166268
623.692	0.0165768
623.771	0.0166235
623.849	0.0166660
623.927	0.0166964
624.005	0.0165877
624.083	0.0166975
624.161	0.0165861
624.239	0.0167287
624.317	0.0166908
624.396	0.0165231
624.474	0.0165341
624.552	0.0166433
624.630	0.0166431
624.708	0.0166343
624.786	0.0165908
624.864	0.0167076
624.942	0.0165982
625.021	0.0166328
625.099	0.0166669
625.177	0.0167191
625.255	0.0166040
625.333	0.0164973
625.411	0.0166041
625.489	0.0165331
625.567	0.0165246
625.646	0.0167256
625.724	0.0165411
625.802	0.0167217
625.880	0.0166850
625.958	0.0166035
626.036	0.0165411
626.114	0.0167359
626.192	0.0167214
626.271	0.0166205
626.349	0.0166357
626.427	0.0166389
626.505	0.0166702
626.583	0.0167292
626.661	0.0165458
626.739	0.0166636
626.817	0.0165585
626.896	0.0168167
626.974	0.0167376
627.052	0.0166872
627.130	0.0166577
627.208	0.0167162
627.286	0.0167883
627.364	0.0166790
627.442	0.0166139
627.521	0.0165840
627.599	0.0166270
627.677	0.0166108
627.755	0.0167834
627.833	0.0168495
627.911	0.0168491
627.989	0.0167138
628.067	0.0167027
628.146	0.0166315
628.224	0.0166232
628.302	0.0166880
628.380	0.0166137
628.458	0.0167290
628.536	0.0166799
628.614	0.0166362
628.692	0.0167388
628.771	0.0165977
628.849	0.0167088
628.927	0.0169051
629.005	0.0167410
629.083	0.0166776
629.161	0.0167327
629.239	0.0168536
629.317	0.0167944
629.396	0.0167146
629.474	0.0168149
629.552	0.0168678
629.630	0.0168532
629.708	0.0167809
629.786	0.0166772
629.864	0.0166981
629.942	0.0168062
630.021	0.0168079
630.099	0.0166522
630.177	0.0167797
630.255	0.0167274
630.333	0.0166684
630.411	0.0168183
630.489	0.0167766
630.567	0.0167770
630.646	0.0168586
630.724	0.0167561
630.802	0.0167147
630.880	0.0166328
630.958	0.0168420
631.036	0.0167141
631.114	0.0167577
631.192	0.0166782
631.271	0.0168644
631.349	0.0167690
631.427	0.0166058
631.505	0.0166692
631.583	0.0166670
631.661	0.0164280
631.739	0.0166769
631.817	0.0166689
631.896	0.0166374
631.974	0.0166798
632.052	0.0166317
632.130	0.0166597
632.208	0.0166889
632.286	0.0166234
632.364	0.0164373
632.442	0.0166379
632.521	0.0167455
632.599	0.0166068
632.677	0.0165783
632.755	0.0165214
632.833	0.0166614
632.911	0.0166142
632.989	0.0165439
633.067	0.0167070
633.146	0.0166378
633.224	0.0165222
633.302	0.0166080
633.380	0.0167239
633.458	0.0166680
633.536	0.0167355
633.614	0.0166586
633.692	0.0166225
633.771	0.0166616
633.849	0.0165905
633.927	0.0165871
634.005	0.0166223
634.083	0.0165747
634.161	0.0166702
634.239	0.0166517
634.317	0.0165906
634.396	0.0165526
634.474	0.0166251
634.552	0.0165589
634.630	0.0165102
634.708	0.0164926
634.786	0.0167300
634.864	0.0165698
634.942	0.0165585
635.021	0.0166125
635.099	0.0166891
635.177	0.0166314
635.255	0.0166570
635.333	0.0164009
635.411	0.0165688
635.489	0.0166109
635.567	0.0165971
635.646	0.0166365
635.724	0.0165527
635.802	0.0164771
635.880	0.0166840
635.958	0.0167767
636.036	0.0166115
636.114	0.0165182
636.192	0.0165643
636.271	0.0166244
636.349	0.0166025
636.427	0.0165591
636.505	0.0167548
636.583	0.0166154
636.661	0.0165623
636.739	0.0167381
636.817	0.0166238
636.896	0.0165839
636.974	0.0166189
637.052	0.0166563
637.130	0.0166862
637.208	0.0167058
637.286	0.0166225
637.364	0.0167353
637.442	0.0166412
637.521	0.0167160
637.599	0.0166885
637.677	0.0166543
637.755	0.0165698
637.833	0.0167108
637.911	0.0167262
637.989	0.0166425
638.067	0.0167506
638.146	0.0167448
638.224	0.0166616
638.302	0.0168196
638.380	0.0168166
638.458	0.0166025
638.536	0.0167914
638.614	0.0165486
638.692	0.0166908
638.771	0.0167741
638.849	0.0166658
638.927	0.0167760
639.005	0.0167598
639.083	0.0167495
639.161	0.0167153
639.239	0.0167799
639.317	0.0167603
639.396	0.0166983
639.474	0.0166383
639.552	0.0168858
639.630	0.0167548
639.708	0.0168227
639.786	0.0167353
639.864	0.0168138
639.942	0.0167593
640.021	0.0166802
640.099	0.0168624
640.177	0.0167227
640.255	0.0168077
640.333	0.0166862
640.411	0.0167053
640.489	0.0168043
640.567	0.0168350
640.646	0.0166875
640.724	0.0166883
640.802	0.0166353
640.880	0.0168681
640.958	0.0167471
641.036	0.0167143
641.114	0.0166992
641.192	0.0167118
641.271	0.0167581
641.349	0.0166222
641.427	0.0167134
641.505	0.0167693
641.583	0.0168325
641.661	0.0167182
641.739	0.0166677
641.817	0.0166544
641.896	0.0166673
641.974	0.0167202
642.052	0.0167830
642.130	0.0166870
642.208	0.0167902
642.286	0.0166559
642.364	0.0167677
642.442	0.0167008
642.521	0.0167094
642.599	0.0167288
642.677	0.0167200
642.755	0.0166207
642.833	0.0166378
642.911	0.0169016
642.989	0.0168158
643.067	0.0167391
643.146	0.0165795
643.224	0.0167067
643.302	0.0167426
643.380	0.0167335
643.458	0.0167245
643.536	0.0166257
643.614	0.0166019
643.692	0.0166691
643.771	0.0165969
643.849	0.0166232
643.927	0.0166454
644.005	0.0166441
644.083	0.0166102
644.161	0.0166534
644.239	0.0165873
644.317	0.0166136
644.396	0.0166373
644.474	0.0167374
644.552	0.0165809
644.630	0.0167727
644.708	0.0166042
644.786	0.0165599
644.864	0.0167013
644.942	0.0166658
645.021	0.0165286
645.099	0.0166728
645.177	0.0166296
645.255	0.0165703
645.333	0.0164847
645.411	0.0167516
645.489	0.0165584
645.567	0.0166390
645.646	0.0165878
645.724	0.0164906
645.802	0.0165878
645.880	0.0166098
645.958	0.0166301
646.036	0.0165355
646.114	0.0166416
646.192	0.0166694
646.271	0.0165469
646.349	0.0166298
646.427	0.0166324
646.505	0.0165230
646.583	0.0167540
646.661	0.0164911
646.739	0.0165728
646.817	0.0166655
646.896	0.0165051
646.974	0.0166180
647.052	0.0166630
647.130	0.0167289
647.208	0.0165565
647.286	0.0166000
647.364	0.0166158
647.442	0.0165811
647.521	0.0165985
647.599	0.0166367
647.677	0.0165620
647.755	0.0168117
647.833	0.0166741
647.911	0.0165556
647.989	0.0165559
648.067	0.0165890
648.146	0.0167114
648.224	0.0166884
648.302	0.0166532
648.380	0.0165518
648.458	0.0166135
648.536	0.0166114
648.614	0.0166899
648.692	0.0166338
648.771	0.0167375
648.849	0.0166784
648.927	0.0166377
649.005	0.0165806
649.083	0.0166789
649.161	0.0166417
649.239	0.0166983
649.317	0.0166065
649.396	0.0166893
649.474	0.0166505
649.552	0.0167510
649.630	0.0167355
649.708	0.0167825
649.786	0.0167209
649.864	0.0167778
649.942	0.0167301
650.021	0.0165620
650.099	0.0166734
650.177	0.0168043
650.255	0.0166650
650.333	0.0166954
650.411	0.0166543
650.489	0.0166759
650.567	0.0167610
650.646	0.0167188
650.724	0.0166449
650.802	0.0166547
650.880	0.0167648
650.958	0.0166372
651.036	0.0166450
651.114	0.0167323
651.192	0.0165807
651.271	0.0165453
651.349	0.0167513
651.427	0.0167368
651.505	0.0165919
651.583	0.0166210
651.661	0.0167690
651.739	0.0166968
651.817	0.0166074
651.896	0.0165314
651.974	0.0166325
652.052	0.0166484
652.130	0.0165472
652.208	0.0164945
652.286	0.0166215
652.364	0.0165662
652.442	0.0165224
652.521	0.0165994
652.599	0.0165082
652.677	0.0165925
652.755	0.0165041
652.833	0.0167358
652.911	0.0164825
652.989	0.0164748
653.067	0.0166871
653.146	0.0166805
653.224	0.0166712
653.302	0.0166312
653.380	0.0166323
653.458	0.0165114
653.536	0.0166072
653.614	0.0165719
653.692	0.0167139
653.771	0.0166063
653.849	0.0165376
653.927	0.0165099
654.005	0.0165536
654.083	0.0166392
654.161	0.0166479
654.239	0.0166420
654.317	0.0166451
654.396	0.0165706
654.474	0.0165964
654.552	0.0166261
654.630	0.0166267
654.708	0.0165165
654.786	0.0165456
654.864	0.0165347
654.942	0.0166420
655.021	0.0165411
655.099	0.0166239
655.177	0.0166246
655.255	0.0166352
655.333	0.0164929
655.411	0.0165166
655.489	0.0166505
655.567	0.0166055
655.646	0.0166055
655.724	0.0166473
655.802	0.0165060
655.880	0.0166573
655.958	0.0166602
656.036	0.0165791
656.114	0.0165514
656.192	0.0166898
656.271	0.0165610
656.349	0.0164594
656.427	0.0167055
656.505	0.0165676
656.583	0.0166238
656.661	0.0167369
656.739	0.0165451
656.817	0.0166194
656.896	0.0166509
656.974	0.0166142
657.052	0.0167325
657.130	0.0165421
657.208	0.0164655
657.286	0.0166747
657.364	0.0166234
657.442	0.0166188
657.521	0.0166785
657.599	0.0167030
657.677	0.0167213
657.755	0.0165417
657.833	0.0165245
657.911	0.0167100
657.989	0.0166677
658.067	0.0165726
658.146	0.0165260
658.224	0.0166881
658.302	0.0166930
658.380	0.0166180
658.458	0.0166472
658.536	0.0166996
658.614	0.0166775
658.692	0.0167341
658.771	0.0167738
658.849	0.0166885
658.927	0.0166503
659.005	0.0167995
659.083	0.0168658
659.161	0.0167058
659.239	0.0166089
659.317	0.0166142
659.396	0.0167617
659.474	0.0166884
659.552	0.0166248
659.630	0.0167060
659.708	0.0166150
659.786	0.0166515
659.864	0.0166557
659.942	0.0166158
660.021	0.0166158
660.099	0.0166175
660.177	0.0167548
660.255	0.0166759
660.333	0.0165711
660.411	0.0166411
660.489	0.0166209
660.567	0.0165918
660.646	0.0166251
660.724	0.0164952
660.802	0.0165639
660.880	0.0166606
660.958	0.0165810
661.036	0.0165353
661.114	0.0166187
661.192	0.0166158
661.271	0.0166788
661.349	0.0166979
661.427	0.0165944
661.505	0.0167297
661.583	0.0166444
661.661	0.0166621
661.739	0.0167232
661.817	0.0165829
661.896	0.0165264
661.974	0.0166475
662.052	0.0166101
662.130	0.0166618
662.208	0.0166457
662.286	0.0165404
662.364	0.0165357
662.442	0.0166373
662.521	0.0166002
662.599	0.0166743
662.677	0.0166381
662.755	0.0167178
662.833	0.0164713
662.911	0.0166803
662.989	0.0167358
663.067	0.0167315
663.146	0.0166512
663.224	0.0166693
663.302	0.0167012
663.380	0.0168224
663.458	0.0166352
663.536	0.0166853
663.614	0.0165733
663.692	0.0166574
663.771	0.0165918
663.849	0.0165913
663.927	0.0167290
664.005	0.0167342
664.083	0.0166017
664.161	0.0164706
664.239	0.0166866
664.317	0.0165213
664.396	0.0167842
664.474	0.0166639
664.552	0.0167039
664.630	0.0166097
664.708	0.0165560
664.786	0.0165686
664.864	0.0164674
664.942	0.0167535
665.021	0.0166843
665.099	0.0166772
665.177	0.0165317
665.255	0.0164993
665.333	0.0165597
665.411	0.0166913
665.489	0.0165792
665.567	0.0164970
665.646	0.0165780
665.724	0.0166303
665.802	0.0167483
665.880	0.0166743
665.958	0.0166251
666.036	0.0164349
666.114	0.0165614
666.192	0.0165231
666.271	0.0166079
666.349	0.0168163
666.427	0.0167131
666.505	0.0165250
666.583	0.0166690
666.661	0.0166189
666.739	0.0165412
666.817	0.0165376
666.896	0.0165223
666.974	0.0166325
667.052	0.0165002
667.130	0.0166187
667.208	0.0165646
667.286	0.0164722
667.364	0.0166444
667.442	0.0165771
667.521	0.0165315
667.599	0.0165166
667.677	0.0165872
667.755	0.0166983
667.833	0.0165993
667.911	0.0166205
667.989	0.0167506
668.067	0.0165553
668.146	0.0167508
668.224	0.0166467
668.302	0.0165056
668.380	0.0166969
668.458	0.0166216
668.536	0.0166922
668.614	0.0166003
668.692	0.0166204
668.771	0.0166664
668.849	0.0167510
668.927	0.0166817
669.005	0.0164856
669.083	0.0167208
669.161	0.0167892
669.239	0.0166768
669.317	0.0165939
669.396	0.0164333
669.474	0.0166396
669.552	0.0165392
669.630	0.0166328
669.708	0.0166110
669.786	0.0166382
669.864	0.0166934
669.942	0.0165224
670.021	0.0165603
670.099	0.0165758
670.177	0.0165442
670.255	0.0166777
670.333	0.0165405
670.411	0.0165692
670.489	0.0165696
670.567	0.0164662
670.646	0.0165829
670.724	0.0165347
670.802	0.0165268
670.880	0.0166000
670.958	0.0164715
671.036	0.0166061
671.114	0.0165967
671.192	0.0165741
671.271	0.0164876
671.349	0.0165771
671.427	0.0165370
671.505	0.0166397
671.583	0.0166479
671.661	0.0166376
671.739	0.0165326
671.817	0.0165501
671.896	0.0166373
671.974	0.0165654
672.052	0.0165020
672.130	0.0165543
672.208	0.0166337
672.286	0.0165920
672.364	0.0165167
672.442	0.0166852
672.521	0.0166452
672.599	0.0165244
672.677	0.0165079
672.755	0.0165181
672.833	0.0164799
672.911	0.0165410
672.989	0.0164496
673.067	0.0166055
673.146	0.0166019
673.224	0.0165775
673.302	0.0165033
673.380	0.0164355
673.458	0.0166237
673.536	0.0165457
673.614	0.0165415
673.692	0.0165037
673.771	0.0165611
673.849	0.0164823
673.927	0.0165478
674.005	0.0164714
674.083	0.0166706
674.161	0.0166183
674.239	0.0164680
674.317	0.0164983
674.396	0.0165276
674.474	0.0165367
674.552	0.0166217
674.630	0.0165598
674.708	0.0164909
674.786	0.0165642
674.864	0.0166843
674.942	0.0165634
675.021	0.0166212
675.099	0.0167336
675.177	0.0165182
675.255	0.0167780
675.333	0.0165561
675.411	0.0166553
675.489	0.0166328
675.567	0.0165635
675.646	0.0167276
675.724	0.0166917
675.802	0.0166943
675.880	0.0165636
675.958	0.0167161
676.036	0.0167004
676.114	0.0167035
676.192	0.0167318
676.271	0.0166309
676.349	0.0166103
676.427	0.0166435
676.505	0.0165812
676.583	0.0165509
676.661	0.0164803
676.739	0.0164832
676.817	0.0164349
676.896	0.0164784
676.974	0.0165821
677.052	0.0164850
677.130	0.0165533
677.208	0.0165009
677.286	0.0165134
677.364	0.0164288
677.442	0.0165072
677.521	0.0165590
677.599	0.0163544
677.677	0.0164364
677.755	0.0164692
677.833	0.0164134
677.911	0.0164138
677.989	0.0164897
678.067	0.0166433
678.146	0.0166100
678.224	0.0165480
678.302	0.0166200
678.380	0.0165535
678.458	0.0166022
678.536	0.0165438
678.614	0.0166945
678.692	0.0166235
678.771	0.0166547
678.849	0.0167705
678.927	0.0166573
679.005	0.0165645
679.083	0.0166296
679.161	0.0167948
679.239	0.0166798
679.317	0.0166824
679.396	0.0167270
679.474	0.0166887
679.552	0.0166259
679.630	0.0166866
679.708	0.0165901
679.786	0.0166929
679.864	0.0166456
679.942	0.0166640
680.021	0.0165029
680.099	0.0166728
680.177	0.0166458
680.255	0.0165430
680.333	0.0165641
680.411	0.0166528
680.489	0.0166660
680.567	0.0166220
680.646	0.0167299
680.724	0.0167424
680.802	0.0167724
680.880	0.0168306
680.958	0.0167159
681.036	0.0166403
681.114	0.0166125
681.192	0.0166148
681.271	0.0166831
681.349	0.0166935
681.427	0.0165662
681.505	0.0165855
681.583	0.0165045
681.661	0.0165282
681.739	0.0166148
681.817	0.0165758
681.896	0.0164928
681.974	0.0165075
682.052	0.0164268
682.130	0.0165475
682.208	0.0164790
682.286	0.0163482
682.364	0.0164100
682.442	0.0165000
682.521	0.0164522
682.599	0.0165774
682.677	0.0165218
682.755	0.0166787
682.833	0.0168132
682.911	0.0167667
682.989	0.0167876
683.067	0.0167374
683.146	0.0168188
683.224	0.0168391
683.302	0.0168723
683.380	0.0169100
683.458	0.0169964
683.536	0.0170205
683.614	0.0168183
683.692	0.0167549
683.771	0.0168925
683.849	0.0168322
683.927	0.0167441
684.005	0.0166492
684.083	0.0164861
684.161	0.0167509
684.239	0.0165385
684.317	0.0165532
684.396	0.0164822
684.474	0.0164228
684.552	0.0163984
684.630	0.0163564
684.708	0.0163998
684.786	0.0163793
684.864	0.0164672
684.942	0.0162550
685.021	0.0163655
685.099	0.0164266
685.177	0.0163381
685.255	0.0163512
685.333	0.0166496
685.411	0.0166532
685.489	0.0166534
685.567	0.0168188
685.646	0.0168038
685.724	0.0168255
685.802	0.0168394
685.880	0.0169743
685.958	0.0169837
686.036	0.0169271
686.114	0.0169285
686.192	0.0168896
686.271	0.0170352
686.349	0.0169968
686.427	0.0169056
686.505	0.0167977
686.583	0.0168739
686.661	0.0168811
686.739	0.0168251
686.817	0.0167450
686.896	0.0169030
686.974	0.0168291
687.052	0.0165878
687.130	0.0169299
687.208	0.0168650
687.286	0.0167559
687.364	0.0167985
687.442	0.0168696
687.521	0.0167712
687.599	0.0168033
687.677	0.0168891
687.755	0.0168639
687.833	0.0167643
687.911	0.0168097
687.989	0.0167171
688.067	0.0167471
688.146	0.0166750
688.224	0.0166649
688.302	0.0166906
688.380	0.0165334
688.458	0.0165368
688.536	0.0163869
688.614	0.0164436
688.692	0.0163338
688.771	0.0163395
688.849	0.0163716
688.927	0.0163156
689.005	0.0162784
689.083	0.0165299
689.161	0.0164180
689.239	0.0163596
689.317	0.0165470
689.396	0.0164774
689.474	0.0166665
689.552	0.0167466
689.630	0.0167493
689.708	0.0168080
689.786	0.0169047
689.864	0.0168991
689.942	0.0168918
690.021	0.0169344
690.099	0.0169267
690.177	0.0169540
690.255	0.0169569
690.333	0.0172202
690.411	0.0170835
690.489	0.0169377
690.567	0.0169020
690.646	0.0168572
690.724	0.0168552
690.802	0.0167577
690.880	0.0166682
690.958	0.0165312
691.036	0.0163987
691.114	0.0164885
691.192	0.0163973
691.271	0.0164832
691.349	0.0163777
691.427	0.0164061
691.505	0.0162843
691.583	0.0162758
691.661	0.0162166
691.739	0.0163119
691.817	0.0163999
691.896	0.0164932
691.974	0.0165878
692.052	0.0166806
692.130	0.0166430
692.208	0.0165264
692.286	0.0166069
692.364	0.0166720
692.442	0.0167789
692.521	0.0166943
692.599	0.0167644
692.677	0.0167754
692.755	0.0166767
692.833	0.0165440
692.911	0.0165406
692.989	0.0164848
693.067	0.0165929
693.146	0.0164480
693.224	0.0164413
693.302	0.0163274
693.380	0.0164753
693.458	0.0162740
693.536	0.0162731
693.614	0.0162457
693.692	0.0161773
693.771	0.0163420
693.849	0.0164204
693.927	0.0164513
694.005	0.0165646
694.083	0.0166679
694.161	0.0165665
694.239	0.0167311
694.317	0.0168205
694.396	0.0168489
694.474	0.0170516
694.552	0.0169028
694.630	0.0172061
694.708	0.0171934
694.786	0.0172223
694.864	0.0171953
694.942	0.0171400
695.021	0.0171267
695.099	0.0169782
695.177	0.0170082
695.255	0.0169448
695.333	0.0169121
695.411	0.0168016
695.489	0.0167011
695.567	0.0165923
695.646	0.0165749
695.724	0.0165707
695.802	0.0164779
695.880	0.0163544
695.958	0.0163368
696.036	0.0163598
696.114	0.0163632
696.192	0.0163227
696.271	0.0163734
696.349	0.0163327
696.427	0.0161889
696.505	0.0164275
696.583	0.0164191
696.661	0.0163020
696.739	0.0164927
696.817	0.0166096
696.896	0.0164863
696.974	0.0166312
697.052	0.0166801
697.130	0.0166207
697.208	0.0167824
697.286	0.0167923
697.364	0.0167637
697.442	0.0167221
697.521	0.0166855
697.599	0.0167090
697.677	0.0167255
697.755	0.0168058
697.833	0.0167252
697.911	0.0166267
697.989	0.0169176
698.067	0.0168163
698.146	0.0166711
698.224	0.0168293
698.302	0.0166414
698.380	0.0168842
698.458	0.0168441
698.536	0.0166484
698.614	0.0167071
698.692	0.0166143
698.771	0.0166447
698.849	0.0166241
698.927	0.0165860
699.005	0.0165556
699.083	0.0166065
699.161	0.0164727
699.239	0.0165627
699.317	0.0164820
699.396	0.0166438
699.474	0.0167415
699.552	0.0165987
699.630	0.0165720
699.708	0.0168119
699.786	0.0168269
699.864	0.0169671
699.942	0.0170704
700.021	0.0170963
700.099	0.0171439
700.177	0.0170992
700.255	0.0170120
700.333	0.0171158
700.411	0.0171003
700.489	0.0170900
700.567	0.0172034
700.646	0.0171354
700.724	0.0171067
700.802	0.0170892
700.880	0.0169281
700.958	0.0169416
701.036	0.0168988
701.114	0.0168047
701.192	0.0169360
701.271	0.0169129
701.349	0.0168872
701.427	0.0168805
701.505	0.0168563
701.583	0.0166843
701.661	0.0166510
701.739	0.0166505
701.817	0.0166055
701.896	0.0164651
701.974	0.0163530
702.052	0.0162640
702.130	0.0161980
702.208	0.0161115
702.286	0.0161639
702.364	0.0161819
702.442	0.0159247
702.521	0.0159177
702.599	0.0158633
702.677	0.0157351
702.755	0.0159401
702.833	0.0159627
702.911	0.0159658
702.989	0.0160223
703.067	0.0160973
703.146	0.0163191
703.224	0.0162078
703.302	0.0165014
703.380	0.0164162
703.458	0.0165794
703.536	0.0167822
703.614	0.0166837
703.692	0.0166328
703.771	0.0167519
703.849	0.0169559
703.927	0.0168592
704.005	0.0168935
704.083	0.0169083
704.161	0.0168537
704.239	0.0169087
704.317	0.0170034
704.396	0.0170422
704.474	0.0170715
704.552	0.0169471
704.630	0.0171241
704.708	0.0170909
704.786	0.0171098
704.864	0.0170770
704.942	0.0170233
705.021	0.0171907
705.099	0.0172169
705.177	0.0172105
705.255	0.0172430
705.333	0.0172658
705.411	0.0172099
705.489	0.0170284
705.567	0.0170120
705.646	0.0170850
705.724	0.0170126
705.802	0.0169473
705.880	0.0169382
705.958	0.0168378
706.036	0.0167477
706.114	0.0168367
706.192	0.0166293
706.271	0.0165719
706.349	0.0166821
706.427	0.0166851
706.505	0.0165883
706.583	0.0164972
706.661	0.0165778
706.739	0.0165321
706.817	0.0165020
706.896	0.0163936
706.974	0.0164996
707.052	0.0163078
707.130	0.0163862
707.208	0.0163808
707.286	0.0162310
707.364	0.0164971
707.442	0.0165091
707.521	0.0166443
707.599	0.0164966
707.677	0.0166010
707.755	0.0167072
707.833	0.0168484
707.911	0.0167661
707.989	0.0169631
708.067	0.0168802
708.146	0.0167794
708.224	0.0167589
708.302	0.0167980
708.380	0.0166529
708.458	0.0167588
708.536	0.0166624
708.614	0.0166139
708.692	0.0165370
708.771	0.0163881
708.849	0.0163492
708.927	0.0164353
709.005	0.0164433
709.083	0.0163959
709.161	0.0164008
709.239	0.0164906
709.317	0.0165057
709.396	0.0166393
709.474	0.0167380
709.552	0.0166492
709.630	0.0166340
709.708	0.0167390
709.786	0.0169108
709.864	0.0168086
709.942	0.0168483
710.021	0.0168961
710.099	0.0168436
710.177	0.0168463
710.255	0.0167868
710.333	0.0168038
710.411	0.0168958
710.489	0.0167838
710.567	0.0165842
710.646	0.0167268
710.724	0.0168665
710.802	0.0167493
710.880	0.0168550
710.958	0.0167674
711.036	0.0170205
711.114	0.0168988
711.192	0.0169054
711.271	0.0170485
711.349	0.0172166
711.427	0.0171336
711.505	0.0172409
711.583	0.0173838
711.661	0.0173865
711.739	0.0170972
711.817	0.0173068
711.896	0.0171142
711.974	0.0171481
712.052	0.0170120
712.130	0.0168856
712.208	0.0168536
712.286	0.0168094
712.364	0.0164855
712.442	0.0163373
712.521	0.0164758
712.599	0.0163838
712.677	0.0162637
712.755	0.0160992
712.833	0.0162869
712.911	0.0162189
712.989	0.0160691
713.067	0.0162745
713.146	0.0163171
713.224	0.0162705
713.302	0.0162535
713.380	0.0163848
713.458	0.0164211
713.536	0.0166457
713.614	0.0166589
713.692	0.0167624
713.771	0.0167462
713.849	0.0169566
713.927	0.0169993
714.005	0.0170206
714.083	0.0169878
714.161	0.0172768
714.239	0.0171039
714.317	0.0171355
714.396	0.0170697
714.474	0.0171061
714.552	0.0169658
714.630	0.0168016
714.708	0.0166808
714.786	0.0166274
714.864	0.0166214
714.942	0.0165829
715.021	0.0164190
715.099	0.0163399
715.177	0.0163321
715.255	0.0162291
715.333	0.0163190
715.411	0.0161583
715.489	0.0162280
715.567	0.0163251
715.646	0.0163165
715.724	0.0162479
715.802	0.0162834
715.880	0.0163135
715.958	0.0164467
716.036	0.0163609
716.114	0.0166285
716.192	0.0166258
716.271	0.0167312
716.349	0.0167567
716.427	0.0168263
716.505	0.0169198
716.583	0.0169215
716.661	0.0169755
716.739	0.0170972
716.817	0.0170518
716.896	0.0172257
716.974	0.0172292
717.052	0.0171228
717.130	0.0172408
717.208	0.0171964
717.286	0.0171478
717.364	0.0172318
717.442	0.0173327
717.521	0.0171340
717.599	0.0170865
717.677	0.0171415
717.755	0.0169866
717.833	0.0169830
717.911	0.0169971
717.989	0.0169182
718.067	0.0169061
718.146	0.0168857
718.224	0.0169529
718.302	0.0170163
718.380	0.0168183
718.458	0.0169840
718.536	0.0168036
718.614	0.0167966
718.692	0.0166856
718.771	0.0165838
718.849	0.0164421
718.927	0.0163748
719.005	0.0162917
719.083	0.0159357
719.161	0.0158071
719.239	0.0159138
719.317	0.0157980
719.396	0.0156670
719.474	0.0155936
719.552	0.0154215
719.630	0.0155287
719.708	0.0155525
719.786	0.0156081
719.864	0.0155410
719.942	0.0156550
720.021	0.0158561
720.099	0.0159605
720.177	0.0160247
720.255	0.0161209
720.333	0.0164393
720.411	0.0166020
720.489	0.0167613
720.567	0.0170042
720.646	0.0172697
720.724	0.0174841
720.802	0.0176111
720.880	0.0177998
720.958	0.0179454
721.036	0.0180587
721.114	0.0180476
721.192	0.0181977
721.271	0.0183123
721.349	0.0182630
721.427	0.0182604
721.505	0.0181271
721.583	0.0180889
721.661	0.0181474
721.739	0.0177088
721.817	0.0176231
721.896	0.0176054
721.974	0.0173314
722.052	0.0172148
722.130	0.0168594
722.208	0.0168309
722.286	0.0165983
722.364	0.0163657
722.442	0.0160997
722.521	0.0159108
722.599	0.0156783
722.677	0.0153787
722.755	0.0152287
722.833	0.0152224
722.911	0.0151864
722.989	0.0150311
723.067	0.0151352
723.146	0.0151395
723.224	0.0150864
723.302	0.0152005
723.380	0.0152112
723.458	0.0153590
723.536	0.0154000
723.614	0.0155087
723.692	0.0154876
723.771	0.0157841
723.849	0.0159681
723.927	0.0159930
724.005	0.0162147
724.083	0.0164095
724.161	0.0166812
724.239	0.0168075
724.317	0.0171158
724.396	0.0172932
724.474	0.0172937
724.552	0.0175243
724.630	0.0176485
724.708	0.0176053
724.786	0.0176672
724.864	0.0176672
724.942	0.0176808
725.021	0.0177026
725.099	0.0176548
725.177	0.0174915
725.255	0.0175121
725.333	0.0174915
725.411	0.0174566
725.489	0.0174395
725.567	0.0173124
725.646	0.0174502
725.724	0.0172404
725.802	0.0171753
725.880	0.0170354
725.958	0.0170933
726.036	0.0170638
726.114	0.0170290
726.192	0.0169189
726.271	0.0169592
726.349	0.0170303
726.427	0.0168930
726.505	0.0167504
726.583	0.0168272
726.661	0.0167095
726.739	0.0166997
726.817	0.0166563
726.896	0.0166217
726.974	0.0165868
727.052	0.0164725
727.130	0.0162818
727.208	0.0163474
727.286	0.0161923
727.364	0.0162104
727.442	0.0162264
727.521	0.0161201
727.599	0.0161755
727.677	0.0162192
727.755	0.0162872
727.833	0.0164436
727.911	0.0162517
727.989	0.0162937
728.067	0.0164216
728.146	0.0163704
728.224	0.0163155
728.302	0.0163064
728.380	0.0162829
728.458	0.0163788
728.536	0.0163825
728.614	0.0163642
728.692	0.0162048
728.771	0.0163530
728.849	0.0163673
728.927	0.0163049
729.005	0.0160772
729.083	0.0163529
729.161	0.0164502
729.239	0.0162590
729.317	0.0164170
729.396	0.0165871
729.474	0.0166508
729.552	0.0168302
729.630	0.0169395
729.708	0.0170004
729.786	0.0172247
729.864	0.0172803
729.942	0.0173229
730.021	0.0174347
730.099	0.0175307
730.177	0.0175163
730.255	0.0177462
730.333	0.0175522
730.411	0.0175671
730.489	0.0176018
730.567	0.0174861
730.646	0.0174406
730.724	0.0174503
730.802	0.0173138
730.880	0.0171912
730.958	0.0171453
731.036	0.0171497
731.114	0.0170152
731.192	0.0167252
731.271	0.0167957
731.349	0.0167032
731.427	0.0165572
731.505	0.0163884
731.583	0.0164459
731.661	0.0163858
731.739	0.0164124
731.817	0.0162406
731.896	0.0162305
731.974	0.0162244
732.052	0.0161670
732.130	0.0162415
732.208	0.0160673
732.286	0.0160571
732.364	0.0161932
732.442	0.0159501
732.521	0.0160184
732.599	0.0157849
732.677	0.0158360
732.755	0.0159753
732.833	0.0160291
732.911	0.0159896
732.989	0.0161094
733.067	0.0160987
733.146	0.0163108
733.224	0.0163054
733.302	0.0163806
733.380	0.0165182
733.458	0.0166553
733.536	0.0166199
733.614	0.0165686
733.692	0.0166783
733.771	0.0166611
733.849	0.0166663
733.927	0.0167122
734.005	0.0168376
734.083	0.0168665
734.161	0.0167906
734.239	0.0168336
734.317	0.0168810
734.396	0.0168777
734.474	0.0169725
734.552	0.0171398
734.630	0.0172275
734.708	0.0174129
734.786	0.0173788
734.864	0.0175366
734.942	0.0178761
735.021	0.0177975
735.099	0.0179868
735.177	0.0180848
735.255	0.0181564
735.333	0.0181714
735.411	0.0181474
735.489	0.0180520
735.567	0.0179425
735.646	0.0177451
735.724	0.0175309
735.802	0.0174033
735.880	0.0172669
735.958	0.0169505
736.036	0.0168103
736.114	0.0165797
736.192	0.0162917
736.271	0.0160936
736.349	0.0157238
736.427	0.0156771
736.505	0.0154103
736.583	0.0151044
736.661	0.0150422
736.739	0.0148531
736.817	0.0149719
736.896	0.0147952
736.974	0.0146757
737.052	0.0149150
737.130	0.0148236
737.208	0.0149036
737.286	0.0149590
737.364	0.0153275
737.442	0.0152572
737.521	0.0156413
737.599	0.0156983
737.677	0.0158447
737.755	0.0160260
737.833	0.0162439
737.911	0.0163686
737.989	0.0165080
738.067	0.0166901
738.146	0.0170950
738.224	0.0171941
738.302	0.0173666
738.380	0.0175093
738.458	0.0174918
738.536	0.0176844
738.614	0.0179863
738.692	0.0180162
738.771	0.0181425
738.849	0.0181498
738.927	0.0182025
739.005	0.0182144
739.083	0.0181445
739.161	0.0179466
739.239	0.0177489
739.317	0.0175953
739.396	0.0176257
739.474	0.0173104
739.552	0.0170274
739.630	0.0169668
739.708	0.0165119
739.786	0.0163207
739.864	0.0161575
739.942	0.0158526
740.021	0.0156853
740.099	0.0157039
740.177	0.0154910
740.255	0.0153561
740.333	0.0156245
740.411	0.0154671
740.489	0.0156267
740.567	0.0155712
740.646	0.0157143
740.724	0.0157851
740.802	0.0159479
740.880	0.0160760
740.958	0.0161626
741.036	0.0162062
741.114	0.0162850
741.192	0.0166556
741.271	0.0166758
741.349	0.0169080
741.427	0.0170069
741.505	0.0171418
741.583	0.0172566
741.661	0.0172324
741.739	0.0173806
741.817	0.0173970
741.896	0.0174277
741.974	0.0174542
742.052	0.0175027
742.130	0.0174667
742.208	0.0174805
742.286	0.0173544
742.364	0.0173096
742.442	0.0171401
742.521	0.0168779
742.599	0.0167960
742.677	0.0166564
742.755	0.0165085
742.833	0.0162988
742.911	0.0162818
742.989	0.0161977
743.067	0.0159946
743.146	0.0159888
743.224	0.0160226
743.302	0.0158148
743.380	0.0157009
743.458	0.0158784
743.536	0.0158176
743.614	0.0156829
743.692	0.0157977
743.771	0.0158318
743.849	0.0158384
743.927	0.0160507
744.005	0.0162456
744.083	0.0162418
744.161	0.0165144
744.239	0.0164738
744.317	0.0165646
744.396	0.0167322
744.474	0.0168156
744.552	0.0166552
744.630	0.0168867
744.708	0.0169130
744.786	0.0168161
744.864	0.0169704
744.942	0.0170659
745.021	0.0169637
745.099	0.0171073
745.177	0.0169870
745.255	0.0169304
745.333	0.0170163
745.411	0.0169547
745.489	0.0169288
745.567	0.0169605
745.646	0.0167920
745.724	0.0168538
745.802	0.0166259
745.880	0.0168786
745.958	0.0167156
746.036	0.0168874
746.114	0.0169667
746.192	0.0168082
746.271	0.0167666
746.349	0.0169851
746.427	0.0167875
746.505	0.0166978
746.583	0.0169449
746.661	0.0167869
746.739	0.0168028
746.817	0.0165997
746.896	0.0166351
746.974	0.0167488
747.052	0.0167381
747.130	0.0166884
747.208	0.0165923
747.286	0.0166789
747.364	0.0165561
747.442	0.0165266
747.521	0.0167006
747.599	0.0166449
747.677	0.0166565
747.755	0.0165308
747.833	0.0165522
747.911	0.0165228
747.989	0.0164799
748.067	0.0164566
748.146	0.0163738
748.224	0.0163110
748.302	0.0162722
748.380	0.0161387
748.458	0.0160566
748.536	0.0160258
748.614	0.0160113
748.692	0.0160077
748.771	0.0162093
748.849	0.0161377
748.927	0.0161914
749.005	0.0163507
749.083	0.0163518
749.161	0.0164698
749.239	0.0164171
749.317	0.0167207
749.396	0.0165446
749.474	0.0163928
749.552	0.0166359
749.630	0.0167178
749.708	0.0167479
749.786	0.0166876
749.864	0.0167782
749.942	0.0168754
750.021	0.0170111
750.099	0.0169981
750.177	0.0169834
750.255	0.0170369
750.333	0.0172492
750.411	0.0171937
750.489	0.0172868
750.567	0.0172372
750.646	0.0173167
750.724	0.0171960
750.802	0.0171346
750.880	0.0171319
750.958	0.0173175
751.036	0.0172171
751.114	0.0169402
751.192	0.0169419
751.271	0.0168748
751.349	0.0166498
751.427	0.0166087
751.505	0.0164462
751.583	0.0161539
751.661	0.0162650
751.739	0.0160800
751.817	0.0159975
751.896	0.0157841
751.974	0.0158139
752.052	0.0155995
752.130	0.0157175
752.208	0.0158460
752.286	0.0156041
752.364	0.0158453
752.442	0.0159344
752.521	0.0160658
752.599	0.0160122
752.677	0.0161644
752.755	0.0162593
752.833	0.0163547
752.911	0.0164876
752.989	0.0166522
753.067	0.0165794
753.146	0.0166656
753.224	0.0167861
753.302	0.0168768
753.380	0.0169804
753.458	0.0169485
753.536	0.0170218
753.614	0.0169762
753.692	0.0169028
753.771	0.0170577
753.849	0.0168496
753.927	0.0168561
754.005	0.0168340
754.083	0.0167209
754.161	0.0166075
754.239	0.0165770
754.317	0.0164681
754.396	0.0164874
754.474	0.0163091
754.552	0.0161420
754.630	0.0161063
754.708	0.0160511
754.786	0.0160977
754.864	0.0159466
754.942	0.0157796
755.021	0.0158141
755.099	0.0157823
755.177	0.0157295
755.255	0.0157999
755.333	0.0158247
755.411	0.0159762
755.489	0.0159548
755.567	0.0161652
755.646	0.0162569
755.724	0.0162936
755.802	0.0164617
755.880	0.0165209
755.958	0.0166552
756.036	0.0169535
756.114	0.0169991
756.192	0.0171478
756.271	0.0172046
756.349	0.0173718
756.427	0.0173994
756.505	0.0177116
756.583	0.0175968
756.661	0.0176801
756.739	0.0175776
756.817	0.0177329
756.896	0.0177612
756.974	0.0176313
757.052	0.0176100
757.130	0.0175224
757.208	0.0174593
757.286	0.0172979
757.364	0.0170786
757.442	0.0169208
757.521	0.0167918
757.599	0.0166591
757.677	0.0164899
757.755	0.0163715
757.833	0.0162350
757.911	0.0162155
757.989	0.0159093
758.067	0.0159084
758.146	0.0160278
758.224	0.0160255
758.302	0.0159796
758.380	0.0158305
758.458	0.0159620
758.536	0.0160459
758.614	0.0160238
758.692	0.0162431
758.771	0.0161695
758.849	0.0163811
758.927	0.0163498
759.005	0.0165516
759.083	0.0166873
759.161	0.0168527
759.239	0.0169293
759.317	0.0167794
759.396	0.0168547
759.474	0.0167478
759.552	0.0168242
759.630	0.0168483
759.708	0.0168424
759.786	0.0167912
759.864	0.0167281
759.942	0.0166495
760.021	0.0168176
760.099	0.0167388
760.177	0.0165887
760.255	0.0163825
760.333	0.0164712
760.411	0.0163873
760.489	0.0161895
760.567	0.0160999
760.646	0.0161175
760.724	0.0160062
760.802	0.0159950
760.880	0.0159526
760.958	0.0159508
761.036	0.0158982
761.114	0.0158735
761.192	0.0161474
761.271	0.0161330
761.349	0.0161848
761.427	0.0163949
761.505	0.0164902
761.583	0.0167752
761.661	0.0168510
761.739	0.0170171
761.817	0.0172607
761.896	0.0172557
761.974	0.0174320
762.052	0.0176670
762.130	0.0178133
762.208	0.0179525
762.286	0.0178555
762.364	0.0179034
762.442	0.0179500
762.521	0.0178741
762.599	0.0177441
762.677	0.0178183
762.755	0.0175094
762.833	0.0174664
762.911	0.0173153
762.989	0.0171766
763.067	0.0170339
763.146	0.0167869
763.224	0.0167307
763.302	0.0166064
763.380	0.0164454
763.458	0.0163011
763.536	0.0162319
763.614	0.0160644
763.692	0.0159486
763.771	0.0159064
763.849	0.0156578
763.927	0.0156473
764.005	0.0157001
764.083	0.0155491
764.161	0.0154269
764.239	0.0155109
764.317	0.0154302
764.396	0.0154920
764.474	0.0153799
764.552	0.0153457
764.630	0.0155318
764.708	0.0156246
764.786	0.0156602
764.864	0.0157327
764.942	0.0159113
765.021	0.0160065
765.099	0.0162135
765.177	0.0162354
765.255	0.0162707
765.333	0.0165012
765.411	0.0167642
765.489	0.0167582
765.567	0.0168558
765.646	0.0169691
765.724	0.0171099
765.802	0.0171101
765.880	0.0171691
765.958	0.0172994
766.036	0.0172909
766.114	0.0173484
766.192	0.0173110
766.271	0.0173295
766.349	0.0172804
766.427	0.0171039
766.505	0.0171843
766.583	0.0172562
766.661	0.0170708
766.739	0.0169952
766.817	0.0168500
766.896	0.0167690
766.974	0.0167856
767.052	0.0167141
767.130	0.0167561
767.208	0.0165987
767.286	0.0166551
767.364	0.0165971
767.442	0.0164501
767.521	0.0163931
767.599	0.0165389
767.677	0.0164582
767.755	0.0165311
767.833	0.0164712
767.911	0.0165919
767.989	0.0165746
768.067	0.0166051
768.146	0.0165234
768.224	0.0165168
768.302	0.0167588
768.380	0.0166972
768.458	0.0166280
768.536	0.0166749
768.614	0.0166824
768.692	0.0166045
768.771	0.0167065
768.849	0.0166033
768.927	0.0166262
769.005	0.0165272
769.083	0.0166687
769.161	0.0164832
769.239	0.0166666
769.317	0.0165718
769.396	0.0165376
769.474	0.0166625
769.552	0.0165473
769.630	0.0166696
769.708	0.0168195
769.786	0.0166232
769.864	0.0167144
769.942	0.0167075
770.021	0.0168237
770.099	0.0169585
770.177	0.0168562
770.255	0.0169112
770.333	0.0169799
770.411	0.0169609
770.489	0.0169247
770.567	0.0168488
770.646	0.0168936
770.724	0.0167598
770.802	0.0167465
770.880	0.0165846
770.958	0.0166853
771.036	0.0166277
771.114	0.0166140
771.192	0.0164377
771.271	0.0164281
771.349	0.0163047
771.427	0.0163123
771.505	0.0163996
771.583	0.0163924
771.661	0.0165405
771.739	0.0166575
771.817	0.0166232
771.896	0.0166891
771.974	0.0166831
772.052	0.0166211
772.130	0.0167531
772.208	0.0167903
772.286	0.0167886
772.364	0.0167849
772.442	0.0169296
772.521	0.0167926
772.599	0.0167447
772.677	0.0168906
772.755	0.0169493
772.833	0.0169251
772.911	0.0169048
772.989	0.0168896
773.067	0.0168870
773.146	0.0169909
773.224	0.0167495
773.302	0.0170621
773.380	0.0168954
773.458	0.0169908
773.536	0.0169386
773.614	0.0170364
773.692	0.0169718
773.771	0.0170319
773.849	0.0171185
773.927	0.0170529
774.005	0.0169816
774.083	0.0169762
774.161	0.0167615
774.239	0.0168391
774.317	0.0167561
774.396	0.0166731
774.474	0.0166367
774.552	0.0165520
774.630	0.0163939
774.708	0.0165174
774.786	0.0164065
774.864	0.0163441
774.942	0.0163163
775.021	0.0163917
775.099	0.0162635
775.177	0.0163781
775.255	0.0162190
775.333	0.0161762
775.411	0.0161393
775.489	0.0163812
775.567	0.0162546
775.646	0.0163505
775.724	0.0163795
775.802	0.0166777
775.880	0.0164922
775.958	0.0166157
776.036	0.0166244
776.114	0.0167400
776.192	0.0168771
776.271	0.0168586
776.349	0.0168156
776.427	0.0168621
776.505	0.0167734
776.583	0.0169033
776.661	0.0169431
776.739	0.0167004
776.817	0.0169105
776.896	0.0166487
776.974	0.0167118
777.052	0.0168091
777.130	0.0165220
777.208	0.0164835
777.286	0.0164900
777.364	0.0166765
777.442	0.0164695
777.521	0.0164337
777.599	0.0164896
777.677	0.0165740
777.755	0.0163554
777.833	0.0163896
777.911	0.0164062
777.989	0.0163782
778.067	0.0163416
778.146	0.0162327
778.224	0.0163293
778.302	0.0163985
778.380	0.0163092
778.458	0.0163329
778.536	0.0164127
778.614	0.0164101
778.692	0.0165733
778.771	0.0165795
778.849	0.0167239
778.927	0.0168105
779.005	0.0168114
779.083	0.0167648
779.161	0.0168900
779.239	0.0169968
779.317	0.0171338
779.396	0.0169566
779.474	0.0171317
779.552	0.0169312
779.630	0.0169584
779.708	0.0169432
779.786	0.0169890
779.864	0.0167432
779.942	0.0167344
780.021	0.0168102
780.099	0.0167049
780.177	0.0165199
780.255	0.0166826
780.333	0.0166451
780.411	0.0164240
780.489	0.0164606
780.567	0.0163364
780.646	0.0163640
780.724	0.0163959
780.802	0.0162760
780.880	0.0164183
780.958	0.0164529
781.036	0.0164088
781.114	0.0163438
781.192	0.0163725
781.271	0.0165086
781.349	0.0163665
781.427	0.0165458
781.505	0.0164314
781.583	0.0164922
781.661	0.0166264
781.739	0.0166019
781.817	0.0163842
781.896	0.0164580
781.974	0.0166303
782.052	0.0166389
782.130	0.0165549
782.208	0.0165810
782.286	0.0167310
782.364	0.0167286
782.442	0.0166659
782.521	0.0166646
782.599	0.0168514
782.677	0.0168176
782.755	0.0168689
782.833	0.0169449
782.911	0.0167493
782.989	0.0166822
783.067	0.0166763
783.146	0.0167798
783.224	0.0167001
783.302	0.0166398
783.380	0.0165971
783.458	0.0165505
783.536	0.0164014
783.614	0.0163741
783.692	0.0164108
783.771	0.0163575
783.849	0.0163122
783.927	0.0162743
784.005	0.0162229
784.083	0.0163794
784.161	0.0163270
784.239	0.0162374
784.317	0.0164004
784.396	0.0163837
784.474	0.0164807
784.552	0.0164828
784.630	0.0165890
784.708	0.0166940
784.786	0.0168484
784.864	0.0167959
784.942	0.0168249
785.021	0.0168695
785.099	0.0169495
785.177	0.0169567
785.255	0.0170569
785.333	0.0170005
785.411	0.0170883
785.489	0.0169804
785.567	0.0170527
785.646	0.0170313
785.724	0.0169650
785.802	0.0169843
785.880	0.0168060
785.958	0.0167363
786.036	0.0166782
786.114	0.0167570
786.192	0.0165519
786.271	0.0165282
786.349	0.0163963
786.427	0.0163347
786.505	0.0163536
786.583	0.0163017
786.661	0.0160934
786.739	0.0161140
786.817	0.0162133
786.896	0.0161488
786.974	0.0161864
787.052	0.0160538
787.130	0.0161795
787.208	0.0161668
787.286	0.0160796
787.364	0.0160922
787.442	0.0163029
787.521	0.0162537
787.599	0.0164120
787.677	0.0164579
787.755	0.0163742
787.833	0.0164222
787.911	0.0166182
787.989	0.0166126
788.067	0.0166434
788.146	0.0167790
788.224	0.0167515
788.302	0.0168829
788.380	0.0167635
788.458	0.0168019
788.536	0.0168809
788.614	0.0167776
788.692	0.0168201
788.771	0.0167419
788.849	0.0167130
788.927	0.0167202
789.005	0.0167440
789.083	0.0167989
789.161	0.0166523
789.239	0.0165434
789.317	0.0166323
789.396	0.0166956
789.474	0.0165237
789.552	0.0163287
789.630	0.0165592
789.708	0.0166212
789.786	0.0164474
789.864	0.0164181
789.942	0.0164096
790.021	0.0164178
790.099	0.0163772
790.177	0.0164991
790.255	0.0165137
790.333	0.0164169
790.411	0.0165054
790.489	0.0166086
790.567	0.0167601
790.646	0.0166872
790.724	0.0167040
790.802	0.0167824
790.880	0.0167616
790.958	0.0169762
791.036	0.0169394
791.114	0.0169547
791.192	0.0170215
791.271	0.0170244
791.349	0.0170663
791.427	0.0170588
791.505	0.0171375
791.583	0.0171152
791.661	0.0170650
791.739	0.0169984
791.817	0.0170615
791.896	0.0169869
791.974	0.0168600
792.052	0.0168041
792.130	0.0168365
792.208	0.0167577
792.286	0.0165646
792.364	0.0166664
792.442	0.0166089
792.521	0.0163791
792.599	0.0164358
792.677	0.0164956
792.755	0.0163699
792.833	0.0163383
792.911	0.0164059
792.989	0.0164172
793.067	0.0164840
793.146	0.0162764
793.224	0.0165772
793.302	0.0166163
793.380	0.0165891
793.458	0.0165170
793.536	0.0166396
793.614	0.0167845
793.692	0.0167896
793.771	0.0168615
793.849	0.0168134
793.927	0.0167727
794.005	0.0170033
794.083	0.0169412
794.161	0.0170089
794.239	0.0170062
794.317	0.0170066
794.396	0.0169405
794.474	0.0168820
794.552	0.0169347
794.630	0.0168481
794.708	0.0168307
794.786	0.0167748
794.864	0.0167974
794.942	0.0166492
795.021	0.0167263
795.099	0.0166611
795.177	0.0166589
795.255	0.0166242
795.333	0.0165792
795.411	0.0165778
795.489	0.0167200
795.567	0.0167227
795.646	0.0166846
795.724	0.0166376
795.802	0.0167754
795.880	0.0167583
795.958	0.0168806
796.036	0.0167421
796.114	0.0166785
796.192	0.0168065
796.271	0.0167524
796.349	0.0168054
796.427	0.0166463
796.505	0.0167944
796.583	0.0170030
796.661	0.0168508
796.739	0.0169273
796.817	0.0168689
796.896	0.0170042
796.974	0.0170068
797.052	0.0170071
797.130	0.0170611
797.208	0.0170467
797.286	0.0171381
797.364	0.0171449
797.442	0.0170715
797.521	0.0170765
797.599	0.0170080
797.677	0.0169202
797.755	0.0169822
797.833	0.0167887
797.911	0.0168170
797.989	0.0168319
798.067	0.0166676
798.146	0.0167186
798.224	0.0167272
798.302	0.0165146
798.380	0.0165588
798.458	0.0165115
798.536	0.0166275
798.614	0.0163760
798.692	0.0163670
798.771	0.0162711
798.849	0.0162734
798.927	0.0162200
799.005	0.0162997
799.083	0.0163313
799.161	0.0163563
799.239	0.0163550
799.317	0.0164041
799.396	0.0165051
799.474	0.0165029
799.552	0.0165090
799.630	0.0164819
799.708	0.0165038
799.786	0.0167886
799.864	0.0166943
799.942	0.0166338
800.021	0.0167574
800.099	0.0167866
800.177	0.0166563
800.255	0.0168255
800.333	0.0167089
800.411	0.0166470
800.489	0.0166891
800.567	0.0166971
800.646	0.0168447
800.724	0.0168919
800.802	0.0168147
800.880	0.0167622
800.958	0.0167540
801.036	0.0166570
801.114	0.0165885
801.192	0.0164362
801.271	0.0167114
801.349	0.0166515
801.427	0.0164320
801.505	0.0164944
801.583	0.0164426
801.661	0.0163776
801.739	0.0164748
801.817	0.0163451
801.896	0.0163998
801.974	0.0163977
802.052	0.0164150
802.130	0.0163206
802.208	0.0162859
802.286	0.0163499
802.364	0.0164785
802.442	0.0164836
802.521	0.0165010
802.599	0.0166385
802.677	0.0167051
802.755	0.0166487
802.833	0.0166855
802.911	0.0167428
802.989	0.0168265
803.067	0.0168185
803.146	0.0167899
803.224	0.0167535
803.302	0.0169246
803.380	0.0167811
803.458	0.0167996
803.536	0.0168990
803.614	0.0168163
803.692	0.0168188
803.771	0.0168716
803.849	0.0167342
803.927	0.0168205
804.005	0.0167171
804.083	0.0166882
804.161	0.0165759
804.239	0.0166682
804.317	0.0166495
804.396	0.0165570
804.474	0.0165182
804.552	0.0164147
804.630	0.0165283
804.708	0.0164576
804.786	0.0164797
804.864	0.0163779
804.942	0.0163983
805.021	0.0163722
805.099	0.0164378
805.177	0.0163925
805.255	0.0164018
805.333	0.0163992
805.411	0.0164146
805.489	0.0164584
805.567	0.0165298
805.646	0.0166807
805.724	0.0165096
805.802	0.0166409
805.880	0.0166920
805.958	0.0167245
806.036	0.0166478
806.114	0.0167405
806.192	0.0167886
806.271	0.0168987
806.349	0.0169814
806.427	0.0166772
806.505	0.0168771
806.583	0.0168391
806.661	0.0167335
806.739	0.0169786
806.817	0.0167686
806.896	0.0166575
806.974	0.0166781
807.052	0.0167774
807.130	0.0168302
807.208	0.0166512
807.286	0.0166241
807.364	0.0166708
807.442	0.0165834
807.521	0.0165627
807.599	0.0165047
807.677	0.0163955
807.755	0.0164538
807.833	0.0165366
807.911	0.0167000
807.989	0.0165340
808.067	0.0164975
808.146	0.0164962
808.224	0.0166043
808.302	0.0164885
808.380	0.0165229
808.458	0.0163947
808.536	0.0165295
808.614	0.0165739
808.692	0.0164176
808.771	0.0164745
808.849	0.0166244
808.927	0.0167142
809.005	0.0166459
809.083	0.0166857
809.161	0.0165791
809.239	0.0166088
809.317	0.0164561
809.396	0.0165398
809.474	0.0167059
809.552	0.0166926
809.630	0.0165015
809.708	0.0165984
809.786	0.0166724
809.864	0.0164264
809.942	0.0166677
810.021	0.0166818
810.099	0.0165756
810.177	0.0166042
810.255	0.0164842
810.333	0.0166040
810.411	0.0165934
810.489	0.0165989
810.567	0.0166410
810.646	0.0166227
810.724	0.0167390
810.802	0.0168008
810.880	0.0167828
810.958	0.0168388
811.036	0.0168785
811.114	0.0168250
811.192	0.0168163
811.271	0.0169502
811.349	0.0169226
811.427	0.0168331
811.505	0.0170396
811.583	0.0168512
811.661	0.0169476
811.739	0.0169704
811.817	0.0168427
811.896	0.0168867
811.974	0.0168138
812.052	0.0167393
812.130	0.0166582
812.208	0.0166764
812.286	0.0167583
812.364	0.0165052
812.442	0.0165141
812.521	0.0165746
812.599	0.0165761
812.677	0.0163976
812.755	0.0163609
812.833	0.0165087
812.911	0.0164654
812.989	0.0163287
813.067	0.0162746
813.146	0.0164307
813.224	0.0163820
813.302	0.0163946
813.380	0.0165601
813.458	0.0163898
813.536	0.0163884
813.614	0.0164082
813.692	0.0164460
813.771	0.0165511
813.849	0.0164841
813.927	0.0166328
814.005	0.0166849
814.083	0.0165601
814.161	0.0166681
814.239	0.0167402
814.317	0.0167368
814.396	0.0167426
814.474	0.0169136
814.552	0.0168655
814.630	0.0170375
814.708	0.0171518
814.786	0.0171326
814.864	0.0170950
814.942	0.0171838
815.021	0.0173485
815.099	0.0172369
815.177	0.0171423
815.255	0.0172180
815.333	0.0171951
815.411	0.0170905
815.489	0.0170675
815.567	0.0170332
815.646	0.0169488
815.724	0.0166460
815.802	0.0165908
815.880	0.0166136
815.958	0.0164822
816.036	0.0162569
816.114	0.0163287
816.192	0.0161915
816.271	0.0162046
816.349	0.0162170
816.427	0.0161982
816.505	0.0162833
816.583	0.0161763
816.661	0.0162050
816.739	0.0162835
816.817	0.0162727
816.896	0.0161221
816.974	0.0162762
817.052	0.0163255
817.130	0.0163287
817.208	0.0164507
817.286	0.0163197
817.364	0.0165363
817.442	0.0166000
817.521	0.0164903
817.599	0.0166187
817.677	0.0167384
817.755	0.0168070
817.833	0.0168167
817.911	0.0169095
817.989	0.0169875
818.067	0.0170802
818.146	0.0172014
818.224	0.0171277
818.302	0.0172520
818.380	0.0172713
818.458	0.0171390
818.536	0.0171579
818.614	0.0172459
818.692	0.0171638
818.771	0.0170640
818.849	0.0169375
818.927	0.0168822
819.005	0.0168069
819.083	0.0168851
819.161	0.0167805
819.239	0.0165749
819.317	0.0164684
819.396	0.0164915
819.474	0.0165654
819.552	0.0163644
819.630	0.0162819
819.708	0.0162927
819.786	0.0163956
819.864	0.0163159
819.942	0.0161728
820.021	0.0161074
820.099	0.0161082
820.177	0.0160152
820.255	0.0162533
820.333	0.0161427
820.411	0.0162553
820.489	0.0163338
820.567	0.0163437
820.646	0.0164831
820.724	0.0165285
820.802	0.0165318
820.880	0.0166174
820.958	0.0166291
821.036	0.0165858
821.114	0.0166199
821.192	0.0166425
821.271	0.0166868
821.349	0.0168456
821.427	0.0170114
821.505	0.0168275
821.583	0.0166604
821.661	0.0168352
821.739	0.0167455
821.817	0.0168399
821.896	0.0167652
821.974	0.0167766
822.052	0.0168105
822.130	0.0167640
822.208	0.0168594
822.286	0.0167718
822.364	0.0167139
822.442	0.0167323
822.521	0.0168137
822.599	0.0168037
822.677	0.0168484
822.755	0.0167107
822.833	0.0166463
822.911	0.0168297
822.989	0.0167009
823.067	0.0168581
823.146	0.0167586
823.224	0.0167767
823.302	0.0166732
823.380	0.0165500
823.458	0.0166138
823.536	0.0166206
823.614	0.0165071
823.692	0.0163821
823.771	0.0167069
823.849	0.0164718
823.927	0.0165530
824.005	0.0164533
824.083	0.0165443
824.161	0.0164578
824.239	0.0164329
824.317	0.0165602
824.396	0.0163662
824.474	0.0165347
824.552	0.0164873
824.630	0.0163874
824.708	0.0164265
824.786	0.0165117
824.864	0.0164028
824.942	0.0164053
825.021	0.0163775
825.099	0.0162152
825.177	0.0164517
825.255	0.0163647
825.333	0.0165427
825.411	0.0165583
825.489	0.0165369
825.567	0.0165308
825.646	0.0164812
825.724	0.0164926
825.802	0.0166226
825.880	0.0167004
825.958	0.0165152
826.036	0.0166032
826.114	0.0166973
826.192	0.0168015
826.271	0.0167786
826.349	0.0168398
826.427	0.0167196
826.505	0.0169044
826.583	0.0168654
826.661	0.0169151
826.739	0.0169817
826.817	0.0170474
826.896	0.0171757
826.974	0.0169554
827.052	0.0170608
827.130	0.0169440
827.208	0.0169804
827.286	0.0170956
827.364	0.0170191
827.442	0.0170254
827.521	0.0169368
827.599	0.0168221
827.677	0.0169353
827.755	0.0168819
827.833	0.0169920
827.911	0.0168420
827.989	0.0167972
828.067	0.0168411
828.146	0.0167387
828.224	0.0167394
828.302	0.0167471
828.380	0.0166427
828.458	0.0166335
828.536	0.0165498
828.614	0.0165950
828.692	0.0166600
828.771	0.0165766
828.849	0.0164742
828.927	0.0164491
829.005	0.0165426
829.083	0.0164941
829.161	0.0164466
829.239	0.0165231
829.317	0.0165434
829.396	0.0165971
829.474	0.0165355
829.552	0.0166990
829.630	0.0167475
829.708	0.0167168
829.786	0.0165541
829.864	0.0167139
829.942	0.0168552
830.021	0.0168539
830.099	0.0168185
830.177	0.0166538
830.255	0.0168619
830.333	0.0167258
830.411	0.0166393
830.489	0.0167395
830.567	0.0166419
830.646	0.0167996
830.724	0.0168324
830.802	0.0167281
830.880	0.0166930
830.958	0.0167596
831.036	0.0168544
831.114	0.0166399
831.192	0.0165826
831.271	0.0165397
831.349	0.0166217
831.427	0.0167089
831.505	0.0166711
831.583	0.0166776
831.661	0.0166100
831.739	0.0166456
831.817	0.0167151
831.896	0.0167437
831.974	0.0167886
832.052	0.0166863
832.130	0.0167725
832.208	0.0169122
832.286	0.0167397
832.364	0.0167437
832.442	0.0168575
832.521	0.0169445
832.599	0.0168654
832.677	0.0168126
832.755	0.0168285
832.833	0.0169295
832.911	0.0168760
832.989	0.0166772
833.067	0.0167752
833.146	0.0166466
833.224	0.0165186
833.302	0.0167072
833.380	0.0166084
833.458	0.0165456
833.536	0.0165723
833.614	0.0164323
833.692	0.0164191
833.771	0.0165517
833.849	0.0165224
833.927	0.0164139
834.005	0.0163790
834.083	0.0164023
834.161	0.0164947
834.239	0.0165539
834.317	0.0163294
834.396	0.0165337
834.474	0.0165372
834.552	0.0164700
834.630	0.0165225
834.708	0.0165210
834.786	0.0165672
834.864	0.0166512
834.942	0.0167200
835.021	0.0166746
835.099	0.0167185
835.177	0.0167324
835.255	0.0167501
835.333	0.0167844
835.411	0.0167538
835.489	0.0169457
835.567	0.0169382
835.646	0.0168587
835.724	0.0169871
835.802	0.0169381
835.880	0.0170426
835.958	0.0169545
836.036	0.0167584
836.114	0.0169701
836.192	0.0169746
836.271	0.0169106
836.349	0.0168513
836.427	0.0169923
836.505	0.0169064
836.583	0.0168266
836.661	0.0168497
836.739	0.0168307
836.817	0.0167199
836.896	0.0168401
836.974	0.0167213
837.052	0.0165159
837.130	0.0165620
837.208	0.0165462
837.286	0.0165009
837.364	0.0164592
837.442	0.0164265
837.521	0.0163071
837.599	0.0163872
837.677	0.0164098
837.755	0.0163945
837.833	0.0164001
837.911	0.0162932
837.989	0.0164934
838.067	0.0165520
838.146	0.0164948
838.224	0.0164958
838.302	0.0165198
838.380	0.0166902
838.458	0.0167632
838.536	0.0164713
838.614	0.0166396
838.692	0.0167472
838.771	0.0166325
838.849	0.0166895
838.927	0.0167077
839.005	0.0167088
839.083	0.0166547
839.161	0.0166747
839.239	0.0168115
839.317	0.0167181
839.396	0.0167567
839.474	0.0167848
839.552	0.0168208
839.630	0.0168654
839.708	0.0169568
839.786	0.0168123
839.864	0.0168716
839.942	0.0167582
840.021	0.0168138
840.099	0.0168536
840.177	0.0167824
840.255	0.0167994
840.333	0.0168861
840.411	0.0167406
840.489	0.0166991
840.567	0.0165715
840.646	0.0165775
840.724	0.0166526
840.802	0.0166029
840.880	0.0165763
840.958	0.0165573
841.036	0.0167551
841.114	0.0165855
841.192	0.0165893
841.271	0.0166867
841.349	0.0167127
841.427	0.0167732
841.505	0.0169071
841.583	0.0168844
841.661	0.0168466
841.739	0.0168233
841.817	0.0168977
841.896	0.0168236
841.974	0.0167993
842.052	0.0167255
842.130	0.0168185
842.208	0.0168320
842.286	0.0167280
842.364	0.0168140
842.442	0.0167859
842.521	0.0167484
842.599	0.0168542
842.677	0.0166259
842.755	0.0166571
842.833	0.0166837
842.911	0.0167642
842.989	0.0167101
843.067	0.0167914
843.146	0.0167146
843.224	0.0166616
843.302	0.0167845
843.380	0.0166058
843.458	0.0166324
843.536	0.0166566
843.614	0.0165539
843.692	0.0166245
843.771	0.0166219
843.849	0.0164515
843.927	0.0166862
844.005	0.0166794
844.083	0.0165919
844.161	0.0165469
844.239	0.0165630
844.317	0.0164674
844.396	0.0164838
844.474	0.0164073
844.552	0.0163776
844.630	0.0164547
844.708	0.0163660
844.786	0.0163716
844.864	0.0163996
844.942	0.0163501
845.021	0.0162295
845.099	0.0163163
845.177	0.0163689
845.255	0.0163486
845.333	0.0163679
845.411	0.0163567
845.489	0.0162891
845.567	0.0162412
845.646	0.0162665
845.724	0.0162243
845.802	0.0162473
845.880	0.0161123
845.958	0.0163721
846.036	0.0162252
846.114	0.0162595
846.192	0.0163207
846.271	0.0163230
846.349	0.0163523
846.427	0.0163454
846.505	0.0165130
846.583	0.0165288
846.661	0.0165278
846.739	0.0164884
846.817	0.0166140
846.896	0.0166177
846.974	0.0167225
847.052	0.0166708
847.130	0.0166553
847.208	0.0166792
847.286	0.0167448
847.364	0.0167413
847.442	0.0166500
847.521	0.0167432
847.599	0.0166821
847.677	0.0166813
847.755	0.0168271
847.833	0.0168154
847.911	0.0167646
847.989	0.0167871
848.067	0.0166982
848.146	0.0167693
848.224	0.0167264
848.302	0.0167989
848.380	0.0167214
848.458	0.0167509
848.536	0.0168027
848.614	0.0167329
848.692	0.0167602
848.771	0.0167994
848.849	0.0168726
848.927	0.0167374
849.005	0.0167159
849.083	0.0166620
849.161	0.0167550
849.239	0.0165294
849.317	0.0166512
849.396	0.0167094
849.474	0.0166041
849.552	0.0164850
849.630	0.0164190
849.708	0.0165183
849.786	0.0165766
849.864	0.0165906
849.942	0.0164876
850.021	0.0166202
850.099	0.0164886
850.177	0.0166146
850.255	0.0163614
850.333	0.0165086
850.411	0.0166989
850.489	0.0165797
850.567	0.0165867
850.646	0.0167808
850.724	0.0167585
850.802	0.0166230
850.880	0.0166775
850.958	0.0168270
851.036	0.0168114
851.114	0.0168360
851.192	0.0168511
851.271	0.0167524
851.349	0.0166138
851.427	0.0168078
851.505	0.0168226
851.583	0.0166538
851.661	0.0168358
851.739	0.0168327
851.817	0.0167447
851.896	0.0167537
851.974	0.0167314
852.052	0.0166944
852.130	0.0166483
852.208	0.0165771
852.286	0.0166192
852.364	0.0166362
852.442	0.0167957
852.521	0.0166795
852.599	0.0165536
852.677	0.0166323
852.755	0.0166808
852.833	0.0165449
852.911	0.0165332
852.989	0.0165420
853.067	0.0164893
853.146	0.0165981
853.224	0.0166289
853.302	0.0165822
853.380	0.0166340
853.458	0.0168610
853.536	0.0166278
853.614	0.0167196
853.692	0.0170155
853.771	0.0169234
853.849	0.0168633
853.927	0.0168716
854.005	0.0170176
854.083	0.0168496
854.161	0.0169540
854.239	0.0170000
854.317	0.0168206
854.396	0.0169563
854.474	0.0169025
854.552	0.0167927
854.630	0.0168910
854.708	0.0167123
854.786	0.0166501
854.864	0.0167187
854.942	0.0166305
855.021	0.0165587
855.099	0.0164278
855.177	0.0164410
855.255	0.0164618
855.333	0.0163727
855.411	0.0163733
855.489	0.0163763
855.567	0.0164428
855.646	0.0164242
855.724	0.0164635
855.802	0.0164574
855.880	0.0166711
855.958	0.0164701
856.036	0.0165350
856.114	0.0165938
856.192	0.0165176
856.271	0.0166068
856.349	0.0167075
856.427	0.0167467
856.505	0.0167872
856.583	0.0168105
856.661	0.0168517
856.739	0.0167837
856.817	0.0167577
856.896	0.0167958
856.974	0.0167583
857.052	0.0167368
857.130	0.0167689
857.208	0.0167728
857.286	0.0167211
857.364	0.0166928
857.442	0.0167884
857.521	0.0167756
857.599	0.0166451
857.677	0.0167825
857.755	0.0166192
857.833	0.0166364
857.911	0.0168087
857.989	0.0168696
858.067	0.0167546
858.146	0.0166706
858.224	0.0166821
858.302	0.0167229
858.380	0.0167186
858.458	0.0167033
858.536	0.0167844
858.614	0.0166921
858.692	0.0167902
858.771	0.0167371
858.849	0.0167147
858.927	0.0165472
859.005	0.0167410
859.083	0.0168001
859.161	0.0167617
859.239	0.0167223
859.317	0.0166653
859.396	0.0165411
859.474	0.0166315
859.552	0.0168742
859.630	0.0168039
859.708	0.0168793
859.786	0.0166406
859.864	0.0167287
859.942	0.0166622
860.021	0.0166569
860.099	0.0166393
860.177	0.0166484
860.255	0.0166690
860.333	0.0165899
860.411	0.0166074
860.489	0.0165142
860.567	0.0165226
860.646	0.0165465
860.724	0.0164907
860.802	0.0165646
860.880	0.0164912
860.958	0.0163631
861.036	0.0166038
861.114	0.0165006
861.192	0.0164417
861.271	0.0165231
861.349	0.0165858
861.427	0.0165591
861.505	0.0164182
861.583	0.0164728
861.661	0.0165464
861.739	0.0164635
861.817	0.0165879
861.896	0.0165444
861.974	0.0165500
862.052	0.0164827
862.130	0.0165128
862.208	0.0165709
862.286	0.0165570
862.364	0.0166919
862.442	0.0165021
862.521	0.0167395
862.599	0.0164413
862.677	0.0165526
862.755	0.0166001
862.833	0.0166032
862.911	0.0166185
862.989	0.0166316
863.067	0.0167094
863.146	0.0167170
863.224	0.0167645
863.302	0.0167976
863.380	0.0167430
863.458	0.0167974
863.536	0.0167210
863.614	0.0168095
863.692	0.0168101
863.771	0.0167673
863.849	0.0167389
863.927	0.0168034
864.005	0.0167928
864.083	0.0166238
864.161	0.0167995
864.239	0.0167690
864.317	0.0167596
864.396	0.0168245
864.474	0.0167558
864.552	0.0166373
864.630	0.0166538
864.708	0.0166557
864.786	0.0165466
864.864	0.0166917
864.942	0.0164556
865.021	0.0165171
865.099	0.0165372
865.177	0.0165292
865.255	0.0165452
865.333	0.0166343
865.411	0.0165522
865.489	0.0164481
865.567	0.0164460
865.646	0.0165710
865.724	0.0164878
865.802	0.0165402
865.880	0.0165098
865.958	0.0166010
866.036	0.0165305
866.114	0.0165609
866.192	0.0164699
866.271	0.0164889
866.349	0.0167041
866.427	0.0165484
866.505	0.0166072
866.583	0.0166073
866.661	0.0165737
866.739	0.0164644
866.817	0.0165767
866.896	0.0166413
866.974	0.0165462
867.052	0.0166072
867.130	0.0167268
867.208	0.0165118
867.286	0.0166977
867.364	0.0165295
867.442	0.0165580
867.521	0.0166428
867.599	0.0164996
867.677	0.0164585
867.755	0.0165578
867.833	0.0166013
867.911	0.0165612
867.989	0.0164455
868.067	0.0163879
868.146	0.0164388
868.224	0.0164290
868.302	0.0163987
868.380	0.0164848
868.458	0.0164571
868.536	0.0164905
868.614	0.0164126
868.692	0.0165162
868.771	0.0165694
868.849	0.0165130
868.927	0.0166830
869.005	0.0165755
869.083	0.0165778
869.161	0.0167822
869.239	0.0167381
869.317	0.0166976
869.396	0.0166608
869.474	0.0168438
869.552	0.0166809
869.630	0.0166711
869.708	0.0168331
869.786	0.0167800
869.864	0.0168345
869.942	0.0167790
