06/03/2022	16:03:17	Ver.	4.1	UNKNOWN
Optical Delay	550.020508	Delta X		0.078125	Sweeps	1	Scan Rate	0/0
Coordinates	Axis 1	NaN	Axis 2	NaN	Axis 3	NaN	Axis 4	NaN	Axis 5	NaN	Axis 6	0.000000
TX Power	0.000000	RX Power	0.000000

550.021	0.0164495
550.099	0.0164548
550.177	0.0165437
550.255	0.0164772
550.333	0.0163257
550.411	0.0164976
550.489	0.0166578
550.567	0.0165059
550.646	0.0164622
550.724	0.0165749
550.802	0.0165406
550.880	0.0165359
550.958	0.0166460
551.036	0.0164336
551.114	0.0166035
551.192	0.0166302
551.271	0.0164969
551.349	0.0165991
551.427	0.0165882
551.505	0.0165106
551.583	0.0165969
551.661	0.0165852
551.739	0.0166724
551.817	0.0166296
551.896	0.0165758
551.974	0.0166075
552.052	0.0165884
552.130	0.0165191
552.208	0.0165945
552.286	0.0166085
552.364	0.0165092
552.442	0.0165649
552.521	0.0166189
552.599	0.0165484
552.677	0.0165889
552.755	0.0166637
552.833	0.0166714
552.911	0.0165489
552.989	0.0165347
553.067	0.0167096
553.146	0.0166459
553.224	0.0166551
553.302	0.0167395
553.380	0.0166348
553.458	0.0165099
553.536	0.0166586
553.614	0.0165295
553.692	0.0166471
553.771	0.0165948
553.849	0.0167239
553.927	0.0166089
554.005	0.0165322
554.083	0.0166169
554.161	0.0165461
554.239	0.0166776
554.317	0.0167716
554.396	0.0167023
554.474	0.0166411
554.552	0.0165990
554.630	0.0165753
554.708	0.0166322
554.786	0.0165667
554.864	0.0165685
554.942	0.0165976
555.021	0.0167255
555.099	0.0164930
555.177	0.0166373
555.255	0.0166726
555.333	0.0165221
555.411	0.0166367
555.489	0.0166579
555.567	0.0165517
555.646	0.0167403
555.724	0.0166821
555.802	0.0165992
555.880	0.0165966
555.958	0.0166403
556.036	0.0166542
556.114	0.0165395
556.192	0.0166882
556.271	0.0166966
556.349	0.0165948
556.427	0.0165504
556.505	0.0165115
556.583	0.0165666
556.661	0.0166059
556.739	0.0167077
556.817	0.0164391
556.896	0.0165491
556.974	0.0166516
557.052	0.0165644
557.130	0.0166305
557.208	0.0166713
557.286	0.0166444
557.364	0.0165222
557.442	0.0164614
557.521	0.0165614
557.599	0.0165613
557.677	0.0166520
557.755	0.0165772
557.833	0.0166821
557.911	0.0166474
557.989	0.0165636
558.067	0.0167609
558.146	0.0165862
558.224	0.0166720
558.302	0.0166223
558.380	0.0166065
558.458	0.0163984
558.536	0.0166187
558.614	0.0165266
558.692	0.0164065
558.771	0.0166033
558.849	0.0165625
558.927	0.0166933
559.005	0.0166150
559.083	0.0166770
559.161	0.0165672
559.239	0.0165527
559.317	0.0165582
559.396	0.0165636
559.474	0.0166086
559.552	0.0166413
559.630	0.0165907
559.708	0.0164614
559.786	0.0165506
559.864	0.0164803
559.942	0.0165128
560.021	0.0167936
560.099	0.0167677
560.177	0.0165417
560.255	0.0166274
560.333	0.0167427
560.411	0.0165991
560.489	0.0168205
560.567	0.0166047
560.646	0.0166879
560.724	0.0165295
560.802	0.0165771
560.880	0.0166727
560.958	0.0167068
561.036	0.0166177
561.114	0.0166837
561.192	0.0166128
561.271	0.0165903
561.349	0.0166336
561.427	0.0165253
561.505	0.0166835
561.583	0.0167551
561.661	0.0166498
561.739	0.0167188
561.817	0.0167640
561.896	0.0165598
561.974	0.0165916
562.052	0.0165921
562.130	0.0166766
562.208	0.0165742
562.286	0.0166870
562.364	0.0167254
562.442	0.0165720
562.521	0.0165755
562.599	0.0166885
562.677	0.0165054
562.755	0.0165379
562.833	0.0165751
562.911	0.0166412
562.989	0.0167200
563.067	0.0165287
563.146	0.0165751
563.224	0.0166122
563.302	0.0167105
563.380	0.0166124
563.458	0.0163837
563.536	0.0165540
563.614	0.0165929
563.692	0.0165215
563.771	0.0166593
563.849	0.0166338
563.927	0.0166470
564.005	0.0166068
564.083	0.0165218
564.161	0.0166182
564.239	0.0165187
564.317	0.0164963
564.396	0.0166241
564.474	0.0166302
564.552	0.0166260
564.630	0.0165169
564.708	0.0165371
564.786	0.0166703
564.864	0.0166238
564.942	0.0166122
565.021	0.0165639
565.099	0.0165746
565.177	0.0165366
565.255	0.0165956
565.333	0.0165550
565.411	0.0166084
565.489	0.0165631
565.567	0.0165894
565.646	0.0166283
565.724	0.0166203
565.802	0.0165403
565.880	0.0165115
565.958	0.0166738
566.036	0.0163928
566.114	0.0165667
566.192	0.0165559
566.271	0.0166759
566.349	0.0164494
566.427	0.0166325
566.505	0.0165887
566.583	0.0165343
566.661	0.0165170
566.739	0.0166724
566.817	0.0166235
566.896	0.0165533
566.974	0.0166216
567.052	0.0165508
567.130	0.0166348
567.208	0.0166656
567.286	0.0165950
567.364	0.0165399
567.442	0.0163841
567.521	0.0166253
567.599	0.0164723
567.677	0.0165709
567.755	0.0166840
567.833	0.0164613
567.911	0.0164438
567.989	0.0165301
568.067	0.0165166
568.146	0.0165234
568.224	0.0165849
568.302	0.0165396
568.380	0.0165942
568.458	0.0164980
568.536	0.0165933
568.614	0.0164964
568.692	0.0165495
568.771	0.0165712
568.849	0.0166294
568.927	0.0166000
569.005	0.0165977
569.083	0.0165506
569.161	0.0166289
569.239	0.0165848
569.317	0.0165165
569.396	0.0165437
569.474	0.0165311
569.552	0.0166208
569.630	0.0165717
569.708	0.0164379
569.786	0.0164440
569.864	0.0165131
569.942	0.0165224
570.021	0.0165028
570.099	0.0166204
570.177	0.0165376
570.255	0.0164545
570.333	0.0164430
570.411	0.0162984
570.489	0.0165342
570.567	0.0163824
570.646	0.0164954
570.724	0.0164616
570.802	0.0166177
570.880	0.0164278
570.958	0.0164036
571.036	0.0163268
571.114	0.0164647
571.192	0.0164063
571.271	0.0163676
571.349	0.0164076
571.427	0.0164723
571.505	0.0163146
571.583	0.0163952
571.661	0.0164407
571.739	0.0164265
571.817	0.0163983
571.896	0.0164825
571.974	0.0163848
572.052	0.0163670
572.130	0.0164613
572.208	0.0164616
572.286	0.0164620
572.364	0.0165252
572.442	0.0164960
572.521	0.0164098
572.599	0.0164264
572.677	0.0165685
572.755	0.0165697
572.833	0.0164545
572.911	0.0164902
572.989	0.0165305
573.067	0.0165118
573.146	0.0164882
573.224	0.0165810
573.302	0.0165273
573.380	0.0165215
573.458	0.0166570
573.536	0.0163944
573.614	0.0163767
573.692	0.0166340
573.771	0.0166169
573.849	0.0166099
573.927	0.0165533
574.005	0.0165501
574.083	0.0165885
574.161	0.0165761
574.239	0.0164903
574.317	0.0164455
574.396	0.0165833
574.474	0.0164321
574.552	0.0164353
574.630	0.0165024
574.708	0.0164389
574.786	0.0163569
574.864	0.0164113
574.942	0.0163221
575.021	0.0164287
575.099	0.0163920
575.177	0.0164227
575.255	0.0165260
575.333	0.0165451
575.411	0.0163667
575.489	0.0165226
575.567	0.0165155
575.646	0.0165013
575.724	0.0164982
575.802	0.0164774
575.880	0.0166854
575.958	0.0164982
576.036	0.0164568
576.114	0.0164743
576.192	0.0165730
576.271	0.0165688
576.349	0.0165396
576.427	0.0165843
576.505	0.0165084
576.583	0.0165223
576.661	0.0165897
576.739	0.0167018
576.817	0.0166171
576.896	0.0165612
576.974	0.0165495
577.052	0.0164272
577.130	0.0165618
577.208	0.0166759
577.286	0.0165579
577.364	0.0164742
577.442	0.0165190
577.521	0.0165461
577.599	0.0165578
577.677	0.0166365
577.755	0.0167548
577.833	0.0166410
577.911	0.0165955
577.989	0.0165644
578.067	0.0166047
578.146	0.0166041
578.224	0.0166837
578.302	0.0165391
578.380	0.0166149
578.458	0.0167995
578.536	0.0166388
578.614	0.0165105
578.692	0.0165804
578.771	0.0166110
578.849	0.0166141
578.927	0.0166122
579.005	0.0166761
579.083	0.0166304
579.161	0.0165638
579.239	0.0166469
579.317	0.0166282
579.396	0.0167463
579.474	0.0167723
579.552	0.0166927
579.630	0.0167673
579.708	0.0167199
579.786	0.0166954
579.864	0.0167001
579.942	0.0166569
580.021	0.0166224
580.099	0.0166148
580.177	0.0166774
580.255	0.0166690
580.333	0.0167197
580.411	0.0166373
580.489	0.0166206
580.567	0.0166444
580.646	0.0166854
580.724	0.0168896
580.802	0.0167912
580.880	0.0166674
580.958	0.0167779
581.036	0.0167253
581.114	0.0167933
581.192	0.0167119
581.271	0.0166763
581.349	0.0166872
581.427	0.0165586
581.505	0.0167479
581.583	0.0167497
581.661	0.0166374
581.739	0.0166663
581.817	0.0167033
581.896	0.0166934
581.974	0.0165606
582.052	0.0165261
582.130	0.0167518
582.208	0.0166211
582.286	0.0166978
582.364	0.0165946
582.442	0.0165707
582.521	0.0164442
582.599	0.0165666
582.677	0.0166370
582.755	0.0165195
582.833	0.0165727
582.911	0.0167055
582.989	0.0166710
583.067	0.0167266
583.146	0.0165914
583.224	0.0166808
583.302	0.0166149
583.380	0.0165205
583.458	0.0165504
583.536	0.0166346
583.614	0.0165439
583.692	0.0168161
583.771	0.0168609
583.849	0.0167346
583.927	0.0166157
584.005	0.0166582
584.083	0.0166047
584.161	0.0166280
584.239	0.0167209
584.317	0.0166377
584.396	0.0167133
584.474	0.0167249
584.552	0.0166141
584.630	0.0165967
584.708	0.0165369
584.786	0.0166743
584.864	0.0166977
584.942	0.0166473
585.021	0.0165519
585.099	0.0168142
585.177	0.0165385
585.255	0.0165219
585.333	0.0164994
585.411	0.0166792
585.489	0.0164328
585.567	0.0165147
585.646	0.0166109
585.724	0.0165301
585.802	0.0165950
585.880	0.0164748
585.958	0.0164539
586.036	0.0165636
586.114	0.0165133
586.192	0.0164181
586.271	0.0166077
586.349	0.0164753
586.427	0.0165834
586.505	0.0164785
586.583	0.0165388
586.661	0.0165148
586.739	0.0164765
586.817	0.0163813
586.896	0.0165337
586.974	0.0164581
587.052	0.0165093
587.130	0.0163656
587.208	0.0163704
587.286	0.0165165
587.364	0.0164451
587.442	0.0163603
587.521	0.0163935
587.599	0.0162212
587.677	0.0164186
587.755	0.0165079
587.833	0.0164156
587.911	0.0163989
587.989	0.0164198
588.067	0.0164685
588.146	0.0165295
588.224	0.0164864
588.302	0.0163471
588.380	0.0163144
588.458	0.0164134
588.536	0.0164466
588.614	0.0163401
588.692	0.0163892
588.771	0.0163522
588.849	0.0163442
588.927	0.0164183
589.005	0.0164874
589.083	0.0165806
589.161	0.0164530
589.239	0.0164082
589.317	0.0164771
589.396	0.0164495
589.474	0.0163655
589.552	0.0164592
589.630	0.0165421
589.708	0.0165600
589.786	0.0164663
589.864	0.0164249
589.942	0.0164374
590.021	0.0164966
590.099	0.0165934
590.177	0.0165308
590.255	0.0164899
590.333	0.0164957
590.411	0.0164539
590.489	0.0164682
590.567	0.0165490
590.646	0.0166206
590.724	0.0166244
590.802	0.0164732
590.880	0.0163999
590.958	0.0165514
591.036	0.0165775
591.114	0.0166451
591.192	0.0165199
591.271	0.0165611
591.349	0.0165536
591.427	0.0165277
591.505	0.0165350
591.583	0.0165048
591.661	0.0164837
591.739	0.0165595
591.817	0.0164287
591.896	0.0165790
591.974	0.0166372
592.052	0.0165602
592.130	0.0165163
592.208	0.0165207
592.286	0.0164215
592.364	0.0163915
592.442	0.0165512
592.521	0.0166209
592.599	0.0164262
592.677	0.0165997
592.755	0.0165193
592.833	0.0165256
592.911	0.0166224
592.989	0.0164684
593.067	0.0165057
593.146	0.0164274
593.224	0.0164429
593.302	0.0163477
593.380	0.0165436
593.458	0.0164794
593.536	0.0165504
593.614	0.0164388
593.692	0.0163821
593.771	0.0164902
593.849	0.0164429
593.927	0.0163962
594.005	0.0163700
594.083	0.0163836
594.161	0.0164396
594.239	0.0164303
594.317	0.0164690
594.396	0.0163873
594.474	0.0165342
594.552	0.0163969
594.630	0.0163434
594.708	0.0164447
594.786	0.0164808
594.864	0.0164680
594.942	0.0163405
595.021	0.0163889
595.099	0.0164783
595.177	0.0164777
595.255	0.0165150
595.333	0.0164555
595.411	0.0165148
595.489	0.0164107
595.567	0.0163678
595.646	0.0165059
595.724	0.0164594
595.802	0.0165298
595.880	0.0163636
595.958	0.0163870
596.036	0.0164193
596.114	0.0165239
596.192	0.0165313
596.271	0.0164141
596.349	0.0164581
596.427	0.0164579
596.505	0.0164200
596.583	0.0164100
596.661	0.0165475
596.739	0.0166158
596.817	0.0166661
596.896	0.0165540
596.974	0.0165529
597.052	0.0166187
597.130	0.0165604
597.208	0.0163558
597.286	0.0164962
597.364	0.0165325
597.442	0.0166117
597.521	0.0165047
597.599	0.0164140
597.677	0.0164528
597.755	0.0166464
597.833	0.0166287
597.911	0.0165637
597.989	0.0165181
598.067	0.0165275
598.146	0.0164360
598.224	0.0165819
598.302	0.0166011
598.380	0.0165804
598.458	0.0165620
598.536	0.0165552
598.614	0.0165885
598.692	0.0165580
598.771	0.0165841
598.849	0.0165160
598.927	0.0165769
599.005	0.0166733
599.083	0.0165256
599.161	0.0164493
599.239	0.0167257
599.317	0.0167101
599.396	0.0166410
599.474	0.0165413
599.552	0.0166118
599.630	0.0165887
599.708	0.0164828
599.786	0.0165376
599.864	0.0167827
599.942	0.0166446
600.021	0.0166225
600.099	0.0164913
600.177	0.0166042
600.255	0.0165824
600.333	0.0165884
600.411	0.0165524
600.489	0.0165034
600.567	0.0168219
600.646	0.0166159
600.724	0.0165926
600.802	0.0166406
600.880	0.0164920
600.958	0.0166202
601.036	0.0166021
601.114	0.0165518
601.192	0.0165762
601.271	0.0166046
601.349	0.0165641
601.427	0.0166615
601.505	0.0165318
601.583	0.0166893
601.661	0.0165907
601.739	0.0166110
601.817	0.0166142
601.896	0.0165594
601.974	0.0166415
602.052	0.0166343
602.130	0.0165929
602.208	0.0165898
602.286	0.0165292
602.364	0.0165215
602.442	0.0165764
602.521	0.0166576
602.599	0.0164917
602.677	0.0164141
602.755	0.0165666
602.833	0.0166488
602.911	0.0165552
602.989	0.0165101
603.067	0.0165394
603.146	0.0167057
603.224	0.0165860
603.302	0.0165395
603.380	0.0166154
603.458	0.0166622
603.536	0.0165502
603.614	0.0164934
603.692	0.0166804
603.771	0.0164806
603.849	0.0165197
603.927	0.0166003
604.005	0.0165013
604.083	0.0165728
604.161	0.0163987
604.239	0.0165913
604.317	0.0164994
604.396	0.0164528
604.474	0.0164502
604.552	0.0166112
604.630	0.0165052
604.708	0.0165481
604.786	0.0166311
604.864	0.0165439
604.942	0.0164904
605.021	0.0165831
605.099	0.0164111
605.177	0.0166003
605.255	0.0164388
605.333	0.0165338
605.411	0.0165047
605.489	0.0164805
605.567	0.0165598
605.646	0.0165031
605.724	0.0164624
605.802	0.0165096
605.880	0.0164223
605.958	0.0164902
606.036	0.0164529
606.114	0.0165897
606.192	0.0166159
606.271	0.0165562
606.349	0.0165108
606.427	0.0164597
606.505	0.0165773
606.583	0.0165134
606.661	0.0167234
606.739	0.0165128
606.817	0.0165562
606.896	0.0165150
606.974	0.0165675
607.052	0.0166509
607.130	0.0165405
607.208	0.0166505
607.286	0.0166376
607.364	0.0164550
607.442	0.0164616
607.521	0.0164492
607.599	0.0165270
607.677	0.0166255
607.755	0.0165325
607.833	0.0163110
607.911	0.0164872
607.989	0.0166327
608.067	0.0166311
608.146	0.0163684
608.224	0.0165158
608.302	0.0166648
608.380	0.0166070
608.458	0.0165407
608.536	0.0164693
608.614	0.0165137
608.692	0.0165939
608.771	0.0165748
608.849	0.0165762
608.927	0.0165412
609.005	0.0164646
609.083	0.0165405
609.161	0.0165937
609.239	0.0166634
609.317	0.0164491
609.396	0.0164640
609.474	0.0165752
609.552	0.0165108
609.630	0.0165365
609.708	0.0167115
609.786	0.0165306
609.864	0.0163607
609.942	0.0165461
610.021	0.0164973
610.099	0.0163992
610.177	0.0165816
610.255	0.0165263
610.333	0.0165209
610.411	0.0164853
610.489	0.0164721
610.567	0.0165058
610.646	0.0165198
610.724	0.0163675
610.802	0.0164918
610.880	0.0165960
610.958	0.0165569
611.036	0.0164786
611.114	0.0165080
611.192	0.0164693
611.271	0.0163441
611.349	0.0164909
611.427	0.0165007
611.505	0.0164669
611.583	0.0164703
611.661	0.0165176
611.739	0.0165288
611.817	0.0165044
611.896	0.0164359
611.974	0.0164725
612.052	0.0165476
612.130	0.0165197
612.208	0.0164767
612.286	0.0164758
612.364	0.0164557
612.442	0.0164845
612.521	0.0164037
612.599	0.0165148
612.677	0.0164278
612.755	0.0164386
612.833	0.0164536
612.911	0.0165646
612.989	0.0164835
613.067	0.0165052
613.146	0.0165636
613.224	0.0165759
613.302	0.0164666
613.380	0.0165885
613.458	0.0164574
613.536	0.0164543
613.614	0.0163231
613.692	0.0163924
613.771	0.0165598
613.849	0.0164425
613.927	0.0165408
614.005	0.0165188
614.083	0.0164960
614.161	0.0163464
614.239	0.0165158
614.317	0.0164506
614.396	0.0164338
614.474	0.0165204
614.552	0.0163396
614.630	0.0165471
614.708	0.0165878
614.786	0.0165832
614.864	0.0165553
614.942	0.0164757
615.021	0.0164568
615.099	0.0165052
615.177	0.0165049
615.255	0.0166322
615.333	0.0165843
615.411	0.0164673
615.489	0.0164016
615.567	0.0165333
615.646	0.0167252
615.724	0.0165790
615.802	0.0163781
615.880	0.0164403
615.958	0.0163203
616.036	0.0165624
616.114	0.0164294
616.192	0.0167065
616.271	0.0166778
616.349	0.0165002
616.427	0.0163969
616.505	0.0164875
616.583	0.0166716
616.661	0.0166111
616.739	0.0165978
616.817	0.0165951
616.896	0.0164556
616.974	0.0165577
617.052	0.0165194
617.130	0.0166043
617.208	0.0166150
617.286	0.0166818
617.364	0.0164498
617.442	0.0164835
617.521	0.0165944
617.599	0.0166238
617.677	0.0166563
617.755	0.0164928
617.833	0.0164957
617.911	0.0166027
617.989	0.0164917
618.067	0.0165945
618.146	0.0164836
618.224	0.0164693
618.302	0.0166422
618.380	0.0166004
618.458	0.0166161
618.536	0.0166174
618.614	0.0164760
618.692	0.0165558
618.771	0.0165493
618.849	0.0165970
618.927	0.0165540
619.005	0.0165986
619.083	0.0166556
619.161	0.0166023
619.239	0.0165617
619.317	0.0165147
619.396	0.0166953
619.474	0.0165299
619.552	0.0165649
619.630	0.0165620
619.708	0.0166461
619.786	0.0166589
619.864	0.0165571
619.942	0.0165372
620.021	0.0166080
620.099	0.0165081
620.177	0.0164787
620.255	0.0165656
620.333	0.0166753
620.411	0.0165781
620.489	0.0164678
620.567	0.0166795
620.646	0.0165633
620.724	0.0166387
620.802	0.0164642
620.880	0.0165784
620.958	0.0165565
621.036	0.0166904
621.114	0.0164968
621.192	0.0165318
621.271	0.0164014
621.349	0.0164472
621.427	0.0166185
621.505	0.0165440
621.583	0.0166351
621.661	0.0165743
621.739	0.0163606
621.817	0.0163985
621.896	0.0166283
621.974	0.0166664
622.052	0.0165847
622.130	0.0164851
622.208	0.0166381
622.286	0.0165639
622.364	0.0163860
622.442	0.0165900
622.521	0.0165649
622.599	0.0164735
622.677	0.0166296
622.755	0.0166029
622.833	0.0164268
622.911	0.0166588
622.989	0.0165321
623.067	0.0165302
623.146	0.0164521
623.224	0.0166781
623.302	0.0165620
623.380	0.0166753
623.458	0.0166229
623.536	0.0165852
623.614	0.0163962
623.692	0.0166369
623.771	0.0167392
623.849	0.0166306
623.927	0.0165822
624.005	0.0167205
624.083	0.0166278
624.161	0.0166004
624.239	0.0166276
624.317	0.0165881
624.396	0.0167140
624.474	0.0166666
624.552	0.0166048
624.630	0.0166155
624.708	0.0164807
624.786	0.0165791
624.864	0.0166725
624.942	0.0167648
625.021	0.0166788
625.099	0.0164868
625.177	0.0165070
625.255	0.0165084
625.333	0.0167651
625.411	0.0165829
625.489	0.0167085
625.567	0.0165314
625.646	0.0164867
625.724	0.0165654
625.802	0.0166328
625.880	0.0166291
625.958	0.0166543
626.036	0.0165459
626.114	0.0165556
626.192	0.0165994
626.271	0.0164660
626.349	0.0165403
626.427	0.0168490
626.505	0.0166203
626.583	0.0166329
626.661	0.0166220
626.739	0.0164851
626.817	0.0165591
626.896	0.0164848
626.974	0.0165572
627.052	0.0164298
627.130	0.0165641
627.208	0.0165481
627.286	0.0164432
627.364	0.0166218
627.442	0.0166293
627.521	0.0165805
627.599	0.0164375
627.677	0.0164319
627.755	0.0164539
627.833	0.0166225
627.911	0.0164612
627.989	0.0163883
628.067	0.0164551
628.146	0.0163970
628.224	0.0165623
628.302	0.0165024
628.380	0.0164908
628.458	0.0165350
628.536	0.0164474
628.614	0.0163313
628.692	0.0163740
628.771	0.0165929
628.849	0.0165146
628.927	0.0164893
629.005	0.0165340
629.083	0.0165620
629.161	0.0166231
629.239	0.0165400
629.317	0.0164493
629.396	0.0164950
629.474	0.0164980
629.552	0.0164912
629.630	0.0165996
629.708	0.0164989
629.786	0.0164538
629.864	0.0165401
629.942	0.0166154
630.021	0.0163513
630.099	0.0164785
630.177	0.0164101
630.255	0.0164973
630.333	0.0165919
630.411	0.0165179
630.489	0.0165713
630.567	0.0164283
630.646	0.0164858
630.724	0.0165382
630.802	0.0165986
630.880	0.0165160
630.958	0.0165158
631.036	0.0164326
631.114	0.0164986
631.192	0.0164902
631.271	0.0165580
631.349	0.0165405
631.427	0.0166059
631.505	0.0165179
631.583	0.0164841
631.661	0.0163788
631.739	0.0165413
631.817	0.0165411
631.896	0.0166008
631.974	0.0165746
632.052	0.0165123
632.130	0.0164347
632.208	0.0165520
632.286	0.0166548
632.364	0.0165010
632.442	0.0165639
632.521	0.0166181
632.599	0.0166529
632.677	0.0166727
632.755	0.0166222
632.833	0.0166199
632.911	0.0165493
632.989	0.0166574
633.067	0.0167243
633.146	0.0165372
633.224	0.0165963
633.302	0.0165641
633.380	0.0166270
633.458	0.0165961
633.536	0.0167858
633.614	0.0166376
633.692	0.0166242
633.771	0.0167453
633.849	0.0166537
633.927	0.0166737
634.005	0.0166777
634.083	0.0165540
634.161	0.0165903
634.239	0.0166991
634.317	0.0166606
634.396	0.0167170
634.474	0.0166345
634.552	0.0164124
634.630	0.0165724
634.708	0.0166228
634.786	0.0166856
634.864	0.0165207
634.942	0.0165608
635.021	0.0166206
635.099	0.0165408
635.177	0.0165279
635.255	0.0164826
635.333	0.0164973
635.411	0.0164629
635.489	0.0164774
635.567	0.0166471
635.646	0.0165934
635.724	0.0165143
635.802	0.0165713
635.880	0.0165124
635.958	0.0164925
636.036	0.0165098
636.114	0.0166280
636.192	0.0165960
636.271	0.0166462
636.349	0.0165774
636.427	0.0165571
636.505	0.0165756
636.583	0.0164944
636.661	0.0165330
636.739	0.0167088
636.817	0.0167191
636.896	0.0164663
636.974	0.0165806
637.052	0.0166837
637.130	0.0166403
637.208	0.0165112
637.286	0.0165504
637.364	0.0166556
637.442	0.0166064
637.521	0.0166506
637.599	0.0167506
637.677	0.0166531
637.755	0.0167866
637.833	0.0165043
637.911	0.0167230
637.989	0.0164883
638.067	0.0165301
638.146	0.0166022
638.224	0.0166138
638.302	0.0165362
638.380	0.0165033
638.458	0.0165414
638.536	0.0165681
638.614	0.0165723
638.692	0.0164871
638.771	0.0165113
638.849	0.0164380
638.927	0.0164882
639.005	0.0166211
639.083	0.0167158
639.161	0.0164481
639.239	0.0164872
639.317	0.0164419
639.396	0.0165625
639.474	0.0164948
639.552	0.0164350
639.630	0.0165099
639.708	0.0164587
639.786	0.0164578
639.864	0.0165766
639.942	0.0165932
640.021	0.0166212
640.099	0.0164797
640.177	0.0164493
640.255	0.0165888
640.333	0.0165729
640.411	0.0164267
640.489	0.0164761
640.567	0.0166833
640.646	0.0165588
640.724	0.0165849
640.802	0.0165314
640.880	0.0166215
640.958	0.0165488
641.036	0.0165739
641.114	0.0167410
641.192	0.0166287
641.271	0.0165286
641.349	0.0165545
641.427	0.0164052
641.505	0.0165154
641.583	0.0164315
641.661	0.0166417
641.739	0.0166560
641.817	0.0164484
641.896	0.0165789
641.974	0.0165150
642.052	0.0164353
642.130	0.0165424
642.208	0.0165569
642.286	0.0165694
642.364	0.0165967
642.442	0.0164228
642.521	0.0164245
642.599	0.0165633
642.677	0.0165622
642.755	0.0166319
642.833	0.0165806
642.911	0.0164692
642.989	0.0163451
643.067	0.0165163
643.146	0.0164870
643.224	0.0166218
643.302	0.0164243
643.380	0.0163879
643.458	0.0165979
643.536	0.0163974
643.614	0.0165007
643.692	0.0165898
643.771	0.0164604
643.849	0.0164378
643.927	0.0165097
644.005	0.0165302
644.083	0.0165266
644.161	0.0166636
644.239	0.0164410
644.317	0.0163967
644.396	0.0164975
644.474	0.0165231
644.552	0.0165143
644.630	0.0164687
644.708	0.0166386
644.786	0.0165868
644.864	0.0164734
644.942	0.0165837
645.021	0.0165405
645.099	0.0165809
645.177	0.0165734
645.255	0.0165697
645.333	0.0165539
645.411	0.0166271
645.489	0.0165749
645.567	0.0166226
645.646	0.0165341
645.724	0.0165608
645.802	0.0165858
645.880	0.0165424
645.958	0.0166019
646.036	0.0167076
646.114	0.0166228
646.192	0.0166245
646.271	0.0166228
646.349	0.0165584
646.427	0.0165289
646.505	0.0164604
646.583	0.0165043
646.661	0.0165094
646.739	0.0165630
646.817	0.0166888
646.896	0.0164814
646.974	0.0165782
647.052	0.0164624
647.130	0.0165713
647.208	0.0165191
647.286	0.0166116
647.364	0.0165821
647.442	0.0165004
647.521	0.0164398
647.599	0.0164081
647.677	0.0166242
647.755	0.0164304
647.833	0.0165459
647.911	0.0166413
647.989	0.0166055
648.067	0.0165215
648.146	0.0164997
648.224	0.0165363
648.302	0.0165646
648.380	0.0165253
648.458	0.0165114
648.536	0.0166779
648.614	0.0165998
648.692	0.0167671
648.771	0.0165367
648.849	0.0165144
648.927	0.0165952
649.005	0.0166747
649.083	0.0165886
649.161	0.0163545
649.239	0.0165307
649.317	0.0165136
649.396	0.0166207
649.474	0.0165651
649.552	0.0164938
649.630	0.0164430
649.708	0.0163915
649.786	0.0165201
649.864	0.0165910
649.942	0.0164285
650.021	0.0165295
650.099	0.0165621
650.177	0.0164697
650.255	0.0164887
650.333	0.0164021
650.411	0.0165164
650.489	0.0164765
650.567	0.0165304
650.646	0.0164758
650.724	0.0164861
650.802	0.0164919
650.880	0.0164332
650.958	0.0165659
651.036	0.0163966
651.114	0.0164866
651.192	0.0164506
651.271	0.0165908
651.349	0.0164230
651.427	0.0165903
651.505	0.0165060
651.583	0.0165137
651.661	0.0164519
651.739	0.0164122
651.817	0.0164667
651.896	0.0164220
651.974	0.0166497
652.052	0.0165414
652.130	0.0165639
652.208	0.0165089
652.286	0.0165526
652.364	0.0165425
652.442	0.0165345
652.521	0.0165347
652.599	0.0165460
652.677	0.0165381
652.755	0.0164750
652.833	0.0165340
652.911	0.0164816
652.989	0.0164322
653.067	0.0165228
653.146	0.0165594
653.224	0.0164524
653.302	0.0164448
653.380	0.0163390
653.458	0.0164481
653.536	0.0163754
653.614	0.0165357
653.692	0.0164303
653.771	0.0164552
653.849	0.0164171
653.927	0.0165646
654.005	0.0165929
654.083	0.0164470
654.161	0.0164775
654.239	0.0165504
654.317	0.0163752
654.396	0.0163205
654.474	0.0164800
654.552	0.0165023
654.630	0.0164651
654.708	0.0164021
654.786	0.0163194
654.864	0.0166682
654.942	0.0165102
655.021	0.0164449
655.099	0.0165419
655.177	0.0165510
655.255	0.0165622
655.333	0.0165260
655.411	0.0163731
655.489	0.0164244
655.567	0.0165577
655.646	0.0164950
655.724	0.0165030
655.802	0.0165873
655.880	0.0164823
655.958	0.0166108
656.036	0.0166190
656.114	0.0165737
656.192	0.0165217
656.271	0.0164889
656.349	0.0164512
656.427	0.0166444
656.505	0.0166415
656.583	0.0166336
656.661	0.0166692
656.739	0.0164967
656.817	0.0166285
656.896	0.0166895
656.974	0.0164930
657.052	0.0165784
657.130	0.0165341
657.208	0.0165896
657.286	0.0164693
657.364	0.0165082
657.442	0.0165459
657.521	0.0165660
657.599	0.0165031
657.677	0.0165669
657.755	0.0166212
657.833	0.0165376
657.911	0.0166624
657.989	0.0165140
658.067	0.0164347
658.146	0.0165526
658.224	0.0165466
658.302	0.0165839
658.380	0.0165916
658.458	0.0164911
658.536	0.0166057
658.614	0.0166164
658.692	0.0164828
658.771	0.0164497
658.849	0.0165192
658.927	0.0165305
659.005	0.0166406
659.083	0.0164500
659.161	0.0165736
659.239	0.0165176
659.317	0.0165079
659.396	0.0166077
659.474	0.0164787
659.552	0.0165085
659.630	0.0164774
659.708	0.0165417
659.786	0.0165697
659.864	0.0167296
659.942	0.0165005
660.021	0.0164909
660.099	0.0165231
660.177	0.0165268
660.255	0.0164721
660.333	0.0164787
660.411	0.0165878
660.489	0.0166987
660.567	0.0166370
660.646	0.0164260
660.724	0.0165851
660.802	0.0165222
660.880	0.0164528
660.958	0.0164059
661.036	0.0165249
661.114	0.0165631
661.192	0.0164843
661.271	0.0164037
661.349	0.0165433
661.427	0.0163636
661.505	0.0162850
661.583	0.0164363
661.661	0.0165742
661.739	0.0165051
661.817	0.0163129
661.896	0.0164123
661.974	0.0165175
662.052	0.0164690
662.130	0.0164854
662.208	0.0165143
662.286	0.0164667
662.364	0.0164955
662.442	0.0164709
662.521	0.0164858
662.599	0.0163348
662.677	0.0163526
662.755	0.0163950
662.833	0.0165391
662.911	0.0165007
662.989	0.0164386
663.067	0.0164579
663.146	0.0165113
663.224	0.0164665
663.302	0.0164687
663.380	0.0164940
663.458	0.0164888
663.536	0.0165454
663.614	0.0163347
663.692	0.0164038
663.771	0.0165173
663.849	0.0165340
663.927	0.0166520
664.005	0.0165726
664.083	0.0163496
664.161	0.0164094
664.239	0.0164250
664.317	0.0163786
664.396	0.0165572
664.474	0.0166193
664.552	0.0164809
664.630	0.0165289
664.708	0.0164127
664.786	0.0165691
664.864	0.0165070
664.942	0.0165804
665.021	0.0164987
665.099	0.0164869
665.177	0.0165045
665.255	0.0165203
665.333	0.0165170
665.411	0.0164835
665.489	0.0165864
665.567	0.0165532
665.646	0.0164266
665.724	0.0166615
665.802	0.0165540
665.880	0.0164966
665.958	0.0165263
666.036	0.0166965
666.114	0.0165886
666.192	0.0165817
666.271	0.0164641
666.349	0.0165692
666.427	0.0165669
666.505	0.0164512
666.583	0.0165382
666.661	0.0164891
666.739	0.0166003
666.817	0.0164552
666.896	0.0165348
666.974	0.0165446
667.052	0.0164185
667.130	0.0164285
667.208	0.0164447
667.286	0.0166138
667.364	0.0167290
667.442	0.0164665
667.521	0.0165804
667.599	0.0166074
667.677	0.0165423
667.755	0.0165073
667.833	0.0166608
667.911	0.0165286
667.989	0.0166103
668.067	0.0165660
668.146	0.0164561
668.224	0.0164353
668.302	0.0164331
668.380	0.0165803
668.458	0.0165836
668.536	0.0164547
668.614	0.0164104
668.692	0.0164673
668.771	0.0164524
668.849	0.0164293
668.927	0.0165369
669.005	0.0165922
669.083	0.0165317
669.161	0.0165250
669.239	0.0164883
669.317	0.0164590
669.396	0.0164156
669.474	0.0164178
669.552	0.0164416
669.630	0.0164142
669.708	0.0164587
669.786	0.0164591
669.864	0.0164233
669.942	0.0162986
670.021	0.0163414
670.099	0.0164916
670.177	0.0165110
670.255	0.0164608
670.333	0.0165157
670.411	0.0164764
670.489	0.0163552
670.567	0.0165092
670.646	0.0165235
670.724	0.0165167
670.802	0.0164778
670.880	0.0164856
670.958	0.0164803
671.036	0.0165577
671.114	0.0164965
671.192	0.0166158
671.271	0.0165119
671.349	0.0164822
671.427	0.0164601
671.505	0.0165036
671.583	0.0166265
671.661	0.0166191
671.739	0.0165736
671.817	0.0164267
671.896	0.0163471
671.974	0.0164835
672.052	0.0165494
672.130	0.0165073
672.208	0.0163981
672.286	0.0164278
672.364	0.0164223
672.442	0.0162988
672.521	0.0163730
672.599	0.0165173
672.677	0.0163869
672.755	0.0164138
672.833	0.0164177
672.911	0.0163282
672.989	0.0162862
673.067	0.0164036
673.146	0.0164327
673.224	0.0163836
673.302	0.0164276
673.380	0.0164426
673.458	0.0163020
673.536	0.0163755
673.614	0.0163763
673.692	0.0164456
673.771	0.0162576
673.849	0.0164709
673.927	0.0164599
674.005	0.0165156
674.083	0.0164903
674.161	0.0166103
674.239	0.0164600
674.317	0.0164317
674.396	0.0164597
674.474	0.0166090
674.552	0.0164047
674.630	0.0163397
674.708	0.0165399
674.786	0.0165395
674.864	0.0166119
674.942	0.0165639
675.021	0.0165253
675.099	0.0164700
675.177	0.0165736
675.255	0.0165878
675.333	0.0166113
675.411	0.0166167
675.489	0.0166476
675.567	0.0165391
675.646	0.0165207
675.724	0.0164355
675.802	0.0164883
675.880	0.0165634
675.958	0.0165113
676.036	0.0166102
676.114	0.0163569
676.192	0.0164525
676.271	0.0164059
676.349	0.0163046
676.427	0.0163935
676.505	0.0164760
676.583	0.0162741
676.661	0.0163683
676.739	0.0163001
676.817	0.0162088
676.896	0.0163853
676.974	0.0162917
677.052	0.0165064
677.130	0.0164028
677.208	0.0163824
677.286	0.0163814
677.364	0.0164137
677.442	0.0163290
677.521	0.0163454
677.599	0.0164822
677.677	0.0165202
677.755	0.0163443
677.833	0.0163680
677.911	0.0165247
677.989	0.0164537
678.067	0.0165726
678.146	0.0164659
678.224	0.0165240
678.302	0.0165954
678.380	0.0165037
678.458	0.0165538
678.536	0.0166380
678.614	0.0165291
678.692	0.0164758
678.771	0.0166372
678.849	0.0165987
678.927	0.0165849
679.005	0.0166817
679.083	0.0165103
679.161	0.0165591
679.239	0.0165415
679.317	0.0163116
679.396	0.0163029
679.474	0.0162861
679.552	0.0166156
679.630	0.0165732
679.708	0.0165023
679.786	0.0165185
679.864	0.0165845
679.942	0.0165342
680.021	0.0164863
680.099	0.0164934
680.177	0.0166500
680.255	0.0165269
680.333	0.0166593
680.411	0.0166040
680.489	0.0165655
680.567	0.0166533
680.646	0.0165636
680.724	0.0164834
680.802	0.0165123
680.880	0.0164280
680.958	0.0164495
681.036	0.0163343
681.114	0.0163911
681.192	0.0164263
681.271	0.0164590
681.349	0.0164336
681.427	0.0163293
681.505	0.0165660
681.583	0.0164858
681.661	0.0163724
681.739	0.0163391
681.817	0.0163946
681.896	0.0163577
681.974	0.0165665
682.052	0.0164700
682.130	0.0165434
682.208	0.0165733
682.286	0.0166266
682.364	0.0166766
682.442	0.0167320
682.521	0.0168140
682.599	0.0166567
682.677	0.0169472
682.755	0.0167871
682.833	0.0169565
682.911	0.0169813
682.989	0.0168235
683.067	0.0169256
683.146	0.0168239
683.224	0.0168764
683.302	0.0168475
683.380	0.0167770
683.458	0.0166330
683.536	0.0167303
683.614	0.0166142
683.692	0.0164226
683.771	0.0164730
683.849	0.0165064
683.927	0.0163857
684.005	0.0163869
684.083	0.0162345
684.161	0.0163356
684.239	0.0162708
684.317	0.0161285
684.396	0.0162218
684.474	0.0163792
684.552	0.0163197
684.630	0.0163498
684.708	0.0164644
684.786	0.0163136
684.864	0.0164876
684.942	0.0164885
685.021	0.0165852
685.099	0.0166270
685.177	0.0166248
685.255	0.0166983
685.333	0.0166829
685.411	0.0167607
685.489	0.0167271
685.567	0.0167284
685.646	0.0167807
685.724	0.0165471
685.802	0.0167503
685.880	0.0166042
685.958	0.0167350
686.036	0.0167034
686.114	0.0165665
686.192	0.0167401
686.271	0.0166000
686.349	0.0166399
686.427	0.0165199
686.505	0.0164945
686.583	0.0166340
686.661	0.0166725
686.739	0.0164496
686.817	0.0166055
686.896	0.0165732
686.974	0.0165820
687.052	0.0166331
687.130	0.0166299
687.208	0.0166947
687.286	0.0166136
687.364	0.0166336
687.442	0.0165319
687.521	0.0166209
687.599	0.0164591
687.677	0.0164368
687.755	0.0164529
687.833	0.0163826
687.911	0.0163055
687.989	0.0162842
688.067	0.0162588
688.146	0.0162903
688.224	0.0161549
688.302	0.0161415
688.380	0.0160439
688.458	0.0161909
688.536	0.0162838
688.614	0.0162342
688.692	0.0161668
688.771	0.0163618
688.849	0.0163403
688.927	0.0164123
689.005	0.0164389
689.083	0.0164948
689.161	0.0166621
689.239	0.0167030
689.317	0.0168295
689.396	0.0169971
689.474	0.0167894
689.552	0.0169035
689.630	0.0169782
689.708	0.0169970
689.786	0.0168374
689.864	0.0168103
689.942	0.0169527
690.021	0.0168186
690.099	0.0168056
690.177	0.0167650
690.255	0.0167894
690.333	0.0167584
690.411	0.0165852
690.489	0.0165025
690.567	0.0165292
690.646	0.0164102
690.724	0.0164347
690.802	0.0165063
690.880	0.0163887
690.958	0.0163118
691.036	0.0162581
691.114	0.0163270
691.192	0.0163667
691.271	0.0164863
691.349	0.0162620
691.427	0.0165545
691.505	0.0163803
691.583	0.0164841
691.661	0.0166293
691.739	0.0165434
691.817	0.0168317
691.896	0.0167898
691.974	0.0166959
692.052	0.0168683
692.130	0.0168788
692.208	0.0168085
692.286	0.0167608
692.364	0.0167823
692.442	0.0165409
692.521	0.0165379
692.599	0.0164891
692.677	0.0163538
692.755	0.0163598
692.833	0.0162979
692.911	0.0163538
692.989	0.0163550
693.067	0.0161545
693.146	0.0162718
693.224	0.0163244
693.302	0.0162038
693.380	0.0163508
693.458	0.0162465
693.536	0.0163380
693.614	0.0164950
693.692	0.0165468
693.771	0.0166556
693.849	0.0166886
693.927	0.0167207
694.005	0.0168531
694.083	0.0169457
694.161	0.0170777
694.239	0.0170363
694.317	0.0170128
694.396	0.0171557
694.474	0.0172484
694.552	0.0171207
694.630	0.0169974
694.708	0.0169012
694.786	0.0169040
694.864	0.0169766
694.942	0.0168803
695.021	0.0166451
695.099	0.0166582
695.177	0.0165649
695.255	0.0164676
695.333	0.0164489
695.411	0.0163179
695.489	0.0162901
695.567	0.0163033
695.646	0.0161969
695.724	0.0162222
695.802	0.0162815
695.880	0.0161213
695.958	0.0161521
696.036	0.0162278
696.114	0.0161578
696.192	0.0162888
696.271	0.0164496
696.349	0.0163541
696.427	0.0164127
696.505	0.0164305
696.583	0.0163423
696.661	0.0163173
696.739	0.0165414
696.817	0.0166844
696.896	0.0164742
696.974	0.0166965
697.052	0.0167002
697.130	0.0166158
697.208	0.0166730
697.286	0.0167228
697.364	0.0167237
697.442	0.0167406
697.521	0.0166298
697.599	0.0167305
697.677	0.0167473
697.755	0.0166808
697.833	0.0167638
697.911	0.0166886
697.989	0.0167037
698.067	0.0165672
698.146	0.0165820
698.224	0.0165668
698.302	0.0165028
698.380	0.0165187
698.458	0.0164162
698.536	0.0163820
698.614	0.0163839
698.692	0.0161980
698.771	0.0161964
698.849	0.0163276
698.927	0.0162975
699.005	0.0164431
699.083	0.0165090
699.161	0.0165031
699.239	0.0164847
699.317	0.0166655
699.396	0.0167544
699.474	0.0167451
699.552	0.0168510
699.630	0.0170568
699.708	0.0170841
699.786	0.0170387
699.864	0.0170571
699.942	0.0171452
700.021	0.0172177
700.099	0.0171619
700.177	0.0168892
700.255	0.0169892
700.333	0.0169908
700.411	0.0168606
700.489	0.0169447
700.567	0.0169498
700.646	0.0166488
700.724	0.0167319
700.802	0.0168049
700.880	0.0167395
700.958	0.0167376
701.036	0.0166849
701.114	0.0166221
701.192	0.0168605
701.271	0.0167256
701.349	0.0165694
701.427	0.0165133
701.505	0.0165459
701.583	0.0165833
701.661	0.0164341
701.739	0.0163441
701.817	0.0163403
701.896	0.0161903
701.974	0.0159696
702.052	0.0159956
702.130	0.0159241
702.208	0.0158823
702.286	0.0160256
702.364	0.0159756
702.442	0.0158566
702.521	0.0160133
702.599	0.0161963
702.677	0.0161045
702.755	0.0161760
702.833	0.0164967
702.911	0.0163157
702.989	0.0164060
703.067	0.0167030
703.146	0.0167796
703.224	0.0168600
703.302	0.0169810
703.380	0.0169008
703.458	0.0169930
703.536	0.0171204
703.614	0.0171505
703.692	0.0171478
703.771	0.0171189
703.849	0.0171428
703.927	0.0171641
704.005	0.0170149
704.083	0.0170575
704.161	0.0169981
704.239	0.0170684
704.317	0.0171284
704.396	0.0170020
704.474	0.0170377
704.552	0.0169772
704.630	0.0170763
704.708	0.0170672
704.786	0.0171455
704.864	0.0169254
704.942	0.0170422
705.021	0.0169473
705.099	0.0168833
705.177	0.0169322
705.255	0.0169527
705.333	0.0167677
705.411	0.0167254
705.489	0.0167753
705.567	0.0168173
705.646	0.0166879
705.724	0.0165956
705.802	0.0166476
705.880	0.0164874
705.958	0.0166399
706.036	0.0166143
706.114	0.0165392
706.192	0.0165426
706.271	0.0165294
706.349	0.0164153
706.427	0.0163339
706.505	0.0163490
706.583	0.0165116
706.661	0.0163474
706.739	0.0162886
706.817	0.0161475
706.896	0.0163280
706.974	0.0162205
707.052	0.0162466
707.130	0.0163013
707.208	0.0162877
707.286	0.0162939
707.364	0.0163997
707.442	0.0165000
707.521	0.0165044
707.599	0.0165376
707.677	0.0165655
707.755	0.0166799
707.833	0.0167007
707.911	0.0167074
707.989	0.0167884
708.067	0.0167374
708.146	0.0166483
708.224	0.0165102
708.302	0.0165248
708.380	0.0163992
708.458	0.0163396
708.536	0.0163736
708.614	0.0162655
708.692	0.0163531
708.771	0.0163364
708.849	0.0161905
708.927	0.0162254
709.005	0.0164708
709.083	0.0165758
709.161	0.0165742
709.239	0.0167071
709.317	0.0166966
709.396	0.0167488
709.474	0.0167671
709.552	0.0170002
709.630	0.0170095
709.708	0.0169776
709.786	0.0169411
709.864	0.0168066
709.942	0.0166936
710.021	0.0167477
710.099	0.0167607
710.177	0.0166592
710.255	0.0165955
710.333	0.0166650
710.411	0.0164943
710.489	0.0165112
710.567	0.0165701
710.646	0.0166203
710.724	0.0168091
710.802	0.0166829
710.880	0.0166967
710.958	0.0168351
711.036	0.0170846
711.114	0.0170387
711.192	0.0171468
711.271	0.0170351
711.349	0.0171168
711.427	0.0171297
711.505	0.0171872
711.583	0.0172894
711.661	0.0170844
711.739	0.0170599
711.817	0.0171171
711.896	0.0168640
711.974	0.0168160
712.052	0.0167545
712.130	0.0167360
712.208	0.0164458
712.286	0.0162727
712.364	0.0161066
712.442	0.0161208
712.521	0.0162792
712.599	0.0160596
712.677	0.0158231
712.755	0.0159434
712.833	0.0160261
712.911	0.0161385
712.989	0.0160442
713.067	0.0160439
713.146	0.0163348
713.224	0.0162109
713.302	0.0163087
713.380	0.0163963
713.458	0.0165511
713.536	0.0166834
713.614	0.0166488
713.692	0.0169425
713.771	0.0169248
713.849	0.0168423
713.927	0.0170177
714.005	0.0171356
714.083	0.0170375
714.161	0.0171268
714.239	0.0169102
714.317	0.0170385
714.396	0.0168675
714.474	0.0167638
714.552	0.0167525
714.630	0.0166868
714.708	0.0165933
714.786	0.0164284
714.864	0.0164039
714.942	0.0161852
715.021	0.0161334
715.099	0.0159659
715.177	0.0160752
715.255	0.0159342
715.333	0.0158669
715.411	0.0158882
715.489	0.0159833
715.567	0.0160155
715.646	0.0159957
715.724	0.0161916
715.802	0.0162056
715.880	0.0161739
715.958	0.0162997
716.036	0.0163371
716.114	0.0164554
716.192	0.0166595
716.271	0.0168087
716.349	0.0166820
716.427	0.0168125
716.505	0.0169001
716.583	0.0170212
716.661	0.0171528
716.739	0.0172773
716.817	0.0171747
716.896	0.0171106
716.974	0.0172964
717.052	0.0170350
717.130	0.0170559
717.208	0.0172003
717.286	0.0172319
717.364	0.0171690
717.442	0.0169747
717.521	0.0169420
717.599	0.0169970
717.677	0.0167111
717.755	0.0166927
717.833	0.0166892
717.911	0.0166609
717.989	0.0165070
718.067	0.0165480
718.146	0.0164817
718.224	0.0164188
718.302	0.0163167
718.380	0.0164098
718.458	0.0163058
718.536	0.0162754
718.614	0.0162781
718.692	0.0161221
718.771	0.0161605
718.849	0.0159726
718.927	0.0159574
719.005	0.0158581
719.083	0.0157491
719.161	0.0156311
719.239	0.0155342
719.317	0.0156026
719.396	0.0155194
719.474	0.0154616
719.552	0.0154491
719.630	0.0154310
719.708	0.0154829
719.786	0.0157285
719.864	0.0157732
719.942	0.0159277
720.021	0.0160533
720.099	0.0163563
720.177	0.0164401
720.255	0.0165598
720.333	0.0166642
720.411	0.0169724
720.489	0.0171400
720.567	0.0172809
720.646	0.0174351
720.724	0.0176344
720.802	0.0176419
720.880	0.0177824
720.958	0.0179816
721.036	0.0179953
721.114	0.0178658
721.192	0.0180035
721.271	0.0178995
721.349	0.0179468
721.427	0.0179374
721.505	0.0177765
721.583	0.0176334
721.661	0.0174904
721.739	0.0173489
721.817	0.0171024
721.896	0.0169583
721.974	0.0168444
722.052	0.0163992
722.130	0.0163561
722.208	0.0162238
722.286	0.0160028
722.364	0.0156812
722.442	0.0157502
722.521	0.0154613
722.599	0.0153288
722.677	0.0152692
722.755	0.0152223
722.833	0.0152192
722.911	0.0150391
722.989	0.0151320
723.067	0.0151393
723.146	0.0152040
723.224	0.0153014
723.302	0.0154357
723.380	0.0154626
723.458	0.0155676
723.536	0.0157647
723.614	0.0159104
723.692	0.0160623
723.771	0.0161214
723.849	0.0161078
723.927	0.0162375
724.005	0.0166223
724.083	0.0167796
724.161	0.0168863
724.239	0.0170638
724.317	0.0171265
724.396	0.0172656
724.474	0.0173397
724.552	0.0172437
724.630	0.0172570
724.708	0.0175971
724.786	0.0175208
724.864	0.0175052
724.942	0.0174557
725.021	0.0174497
725.099	0.0173800
725.177	0.0174857
725.255	0.0173783
725.333	0.0173570
725.411	0.0173486
725.489	0.0172003
725.567	0.0171376
725.646	0.0171133
725.724	0.0171101
725.802	0.0169979
725.880	0.0169920
725.958	0.0169624
726.036	0.0168271
726.114	0.0169683
726.192	0.0168356
726.271	0.0168577
726.349	0.0167108
726.427	0.0166654
726.505	0.0168011
726.583	0.0166428
726.661	0.0167402
726.739	0.0165635
726.817	0.0164494
726.896	0.0162627
726.974	0.0162766
727.052	0.0161983
727.130	0.0161820
727.208	0.0161067
727.286	0.0160642
727.364	0.0158866
727.442	0.0159305
727.521	0.0158813
727.599	0.0159762
727.677	0.0159124
727.755	0.0160387
727.833	0.0160043
727.911	0.0161221
727.989	0.0160383
728.067	0.0160535
728.146	0.0161675
728.224	0.0161492
728.302	0.0160363
728.380	0.0160744
728.458	0.0161697
728.536	0.0160207
728.614	0.0159677
728.692	0.0160329
728.771	0.0160020
728.849	0.0161483
728.927	0.0162189
729.005	0.0162061
729.083	0.0161086
729.161	0.0163702
729.239	0.0165475
729.317	0.0164971
729.396	0.0167229
729.474	0.0168166
729.552	0.0170017
729.630	0.0169895
729.708	0.0171551
729.786	0.0172684
729.864	0.0173748
729.942	0.0174145
730.021	0.0173872
730.099	0.0174795
730.177	0.0174911
730.255	0.0175600
730.333	0.0173809
730.411	0.0174987
730.489	0.0174388
730.567	0.0172852
730.646	0.0172733
730.724	0.0172316
730.802	0.0171217
730.880	0.0170569
730.958	0.0169526
731.036	0.0167447
731.114	0.0167426
731.192	0.0165439
731.271	0.0164085
731.349	0.0163360
731.427	0.0162701
731.505	0.0161863
731.583	0.0162189
731.661	0.0160534
731.739	0.0160462
731.817	0.0158717
731.896	0.0160017
731.974	0.0159615
732.052	0.0158159
732.130	0.0158237
732.208	0.0158534
732.286	0.0158910
732.364	0.0159029
732.442	0.0159882
732.521	0.0158749
732.599	0.0158698
732.677	0.0159327
732.755	0.0159459
732.833	0.0159085
732.911	0.0159470
732.989	0.0159050
733.067	0.0160786
733.146	0.0161018
733.224	0.0161496
733.302	0.0162087
733.380	0.0163070
733.458	0.0163967
733.536	0.0163232
733.614	0.0164748
733.692	0.0164745
733.771	0.0164668
733.849	0.0165241
733.927	0.0167006
734.005	0.0166879
734.083	0.0166935
734.161	0.0168429
734.239	0.0168549
734.317	0.0167802
734.396	0.0170000
734.474	0.0172525
734.552	0.0171943
734.630	0.0174209
734.708	0.0175899
734.786	0.0176725
734.864	0.0178125
734.942	0.0179055
735.021	0.0180505
735.099	0.0180629
735.177	0.0180582
735.255	0.0179599
735.333	0.0179866
735.411	0.0177807
735.489	0.0176311
735.567	0.0176268
735.646	0.0173560
735.724	0.0170223
735.802	0.0169678
735.880	0.0166448
735.958	0.0164265
736.036	0.0160563
736.114	0.0159045
736.192	0.0157902
736.271	0.0154047
736.349	0.0154629
736.427	0.0152405
736.505	0.0152546
736.583	0.0149399
736.661	0.0148071
736.739	0.0149445
736.817	0.0148074
736.896	0.0147671
736.974	0.0148361
737.052	0.0149155
737.130	0.0150507
737.208	0.0150022
737.286	0.0152678
737.364	0.0155758
737.442	0.0157026
737.521	0.0157955
737.599	0.0160126
737.677	0.0161048
737.755	0.0163115
737.833	0.0164626
737.911	0.0166292
737.989	0.0168130
738.067	0.0169669
738.146	0.0171433
738.224	0.0173522
738.302	0.0174857
738.380	0.0174815
738.458	0.0175549
738.536	0.0178656
738.614	0.0179887
738.692	0.0179424
738.771	0.0180315
738.849	0.0179386
738.927	0.0178875
739.005	0.0179185
739.083	0.0177190
739.161	0.0176624
739.239	0.0173951
739.317	0.0171564
739.396	0.0169729
739.474	0.0167974
739.552	0.0164998
739.630	0.0162872
739.708	0.0160197
739.786	0.0158353
739.864	0.0155908
739.942	0.0155734
740.021	0.0154634
740.099	0.0154254
740.177	0.0156116
740.255	0.0156307
740.333	0.0155058
740.411	0.0156647
740.489	0.0158642
740.567	0.0158972
740.646	0.0159751
740.724	0.0160846
740.802	0.0164576
740.880	0.0164462
740.958	0.0164632
741.036	0.0166156
741.114	0.0167207
741.192	0.0167926
741.271	0.0169853
741.349	0.0171297
741.427	0.0170388
741.505	0.0171317
741.583	0.0171832
741.661	0.0171732
741.739	0.0171833
741.817	0.0172380
741.896	0.0171840
741.974	0.0171248
742.052	0.0170682
742.130	0.0169318
742.208	0.0167477
742.286	0.0166698
742.364	0.0165907
742.442	0.0163972
742.521	0.0163054
742.599	0.0162634
742.677	0.0162253
742.755	0.0159434
742.833	0.0158477
742.911	0.0159290
742.989	0.0159181
743.067	0.0158285
743.146	0.0158003
743.224	0.0157783
743.302	0.0158665
743.380	0.0158916
743.458	0.0159095
743.536	0.0160651
743.614	0.0160500
743.692	0.0160550
743.771	0.0163477
743.849	0.0164018
743.927	0.0163580
744.005	0.0165166
744.083	0.0166077
744.161	0.0165432
744.239	0.0168480
744.317	0.0168645
744.396	0.0169070
744.474	0.0170045
744.552	0.0168530
744.630	0.0168764
744.708	0.0170235
744.786	0.0170519
744.864	0.0168562
744.942	0.0167205
745.021	0.0166734
745.099	0.0166754
745.177	0.0166388
745.255	0.0166102
745.333	0.0164970
745.411	0.0163914
745.489	0.0164378
745.567	0.0163660
745.646	0.0161723
745.724	0.0163376
745.802	0.0164223
745.880	0.0165646
745.958	0.0164337
746.036	0.0165107
746.114	0.0166479
746.192	0.0167370
746.271	0.0166799
746.349	0.0167900
746.427	0.0168429
746.505	0.0169621
746.583	0.0170676
746.661	0.0168289
746.739	0.0168654
746.817	0.0168362
746.896	0.0168482
746.974	0.0168577
747.052	0.0168114
747.130	0.0167452
747.208	0.0165890
747.286	0.0165738
747.364	0.0166209
747.442	0.0166159
747.521	0.0165392
747.599	0.0164841
747.677	0.0163554
747.755	0.0162140
747.833	0.0162660
747.911	0.0161662
747.989	0.0161721
748.067	0.0161742
748.146	0.0160435
748.224	0.0160304
748.302	0.0159226
748.380	0.0159681
748.458	0.0160693
748.536	0.0159000
748.614	0.0158667
748.692	0.0159290
748.771	0.0159247
748.849	0.0160139
748.927	0.0159947
749.005	0.0159822
749.083	0.0160751
749.161	0.0161795
749.239	0.0162846
749.317	0.0162875
749.396	0.0164107
749.474	0.0165111
749.552	0.0164087
749.630	0.0165424
749.708	0.0165755
749.786	0.0166763
749.864	0.0166482
749.942	0.0167188
750.021	0.0167323
750.099	0.0167664
750.177	0.0169392
750.255	0.0168744
750.333	0.0169001
750.411	0.0170609
750.489	0.0169656
750.567	0.0171101
750.646	0.0170824
750.724	0.0170852
750.802	0.0170970
750.880	0.0170324
750.958	0.0169231
751.036	0.0169817
751.114	0.0169743
751.192	0.0169611
751.271	0.0165769
751.349	0.0166499
751.427	0.0165722
751.505	0.0164577
751.583	0.0164812
751.661	0.0163174
751.739	0.0160261
751.817	0.0160649
751.896	0.0159591
751.974	0.0157876
752.052	0.0158472
752.130	0.0157484
752.208	0.0158432
752.286	0.0158987
752.364	0.0160015
752.442	0.0159242
752.521	0.0160638
752.599	0.0162676
752.677	0.0162558
752.755	0.0163478
752.833	0.0163223
752.911	0.0165215
752.989	0.0166656
753.067	0.0167149
753.146	0.0167163
753.224	0.0167513
753.302	0.0168660
753.380	0.0168230
753.458	0.0169025
753.536	0.0167210
753.614	0.0169096
753.692	0.0169501
753.771	0.0168602
753.849	0.0168501
753.927	0.0168731
754.005	0.0168803
754.083	0.0167835
754.161	0.0167352
754.239	0.0166019
754.317	0.0164737
754.396	0.0165047
754.474	0.0162821
754.552	0.0163255
754.630	0.0163168
754.708	0.0162094
754.786	0.0161343
754.864	0.0160514
754.942	0.0159496
755.021	0.0160628
755.099	0.0161283
755.177	0.0159452
755.255	0.0159170
755.333	0.0160509
755.411	0.0162170
755.489	0.0160972
755.567	0.0162920
755.646	0.0164107
755.724	0.0164945
755.802	0.0166135
755.880	0.0167433
755.958	0.0169271
756.036	0.0169264
756.114	0.0169602
756.192	0.0171836
756.271	0.0172578
756.349	0.0171987
756.427	0.0172666
756.505	0.0173496
756.583	0.0173768
756.661	0.0172300
756.739	0.0173266
756.817	0.0173402
756.896	0.0173888
756.974	0.0172697
757.052	0.0172066
757.130	0.0171612
757.208	0.0169762
757.286	0.0168383
757.364	0.0167175
757.442	0.0166004
757.521	0.0165012
757.599	0.0163505
757.677	0.0162771
757.755	0.0160141
757.833	0.0159995
757.911	0.0160284
757.989	0.0157598
758.067	0.0158085
758.146	0.0159476
758.224	0.0158104
758.302	0.0159189
758.380	0.0159338
758.458	0.0158730
758.536	0.0160773
758.614	0.0162645
758.692	0.0162496
758.771	0.0162920
758.849	0.0165007
758.927	0.0165520
759.005	0.0168124
759.083	0.0168112
759.161	0.0168230
759.239	0.0169260
759.317	0.0169376
759.396	0.0170155
759.474	0.0169202
759.552	0.0168905
759.630	0.0167750
759.708	0.0167519
759.786	0.0166107
759.864	0.0164970
759.942	0.0163528
760.021	0.0161790
760.099	0.0160633
760.177	0.0161224
760.255	0.0160310
760.333	0.0159249
760.411	0.0158344
760.489	0.0156719
760.567	0.0157197
760.646	0.0157066
760.724	0.0158482
760.802	0.0157967
760.880	0.0158753
760.958	0.0159951
761.036	0.0159013
761.114	0.0161584
761.192	0.0162315
761.271	0.0163842
761.349	0.0165770
761.427	0.0166541
761.505	0.0167605
761.583	0.0168806
761.661	0.0170933
761.739	0.0172807
761.817	0.0173831
761.896	0.0174711
761.974	0.0175911
762.052	0.0174366
762.130	0.0176353
762.208	0.0177453
762.286	0.0177421
762.364	0.0177444
762.442	0.0177159
762.521	0.0177610
762.599	0.0176980
762.677	0.0174246
762.755	0.0172929
762.833	0.0173965
762.911	0.0172774
762.989	0.0170289
763.067	0.0168941
763.146	0.0168316
763.224	0.0166553
763.302	0.0163673
763.380	0.0162267
763.458	0.0159887
763.536	0.0160987
763.614	0.0158840
763.692	0.0158500
763.771	0.0157240
763.849	0.0156512
763.927	0.0156539
764.005	0.0156087
764.083	0.0155531
764.161	0.0155040
764.239	0.0155656
764.317	0.0155828
764.396	0.0157768
764.474	0.0159010
764.552	0.0158120
764.630	0.0159548
764.708	0.0158075
764.786	0.0160391
764.864	0.0160913
764.942	0.0161722
765.021	0.0159406
765.099	0.0163683
765.177	0.0163889
765.255	0.0163918
765.333	0.0165415
765.411	0.0167254
765.489	0.0167948
765.567	0.0169389
765.646	0.0170090
765.724	0.0170040
765.802	0.0171358
765.880	0.0171062
765.958	0.0169711
766.036	0.0171644
766.114	0.0172966
766.192	0.0171671
766.271	0.0170563
766.349	0.0171057
766.427	0.0171292
766.505	0.0170264
766.583	0.0169015
766.661	0.0169164
766.739	0.0169167
766.817	0.0168847
766.896	0.0168053
766.974	0.0166006
767.052	0.0166980
767.130	0.0167648
767.208	0.0166066
767.286	0.0168301
767.364	0.0167249
767.442	0.0168157
767.521	0.0167297
767.599	0.0167779
767.677	0.0166572
767.755	0.0167783
767.833	0.0168074
767.911	0.0168385
767.989	0.0168330
768.067	0.0167800
768.146	0.0168055
768.224	0.0167915
768.302	0.0167544
768.380	0.0165723
768.458	0.0167366
768.536	0.0167359
768.614	0.0166975
768.692	0.0167249
768.771	0.0164621
768.849	0.0164905
768.927	0.0164799
769.005	0.0166196
769.083	0.0165594
769.161	0.0165482
769.239	0.0164565
769.317	0.0164817
769.396	0.0163973
769.474	0.0164430
769.552	0.0165435
769.630	0.0165792
769.708	0.0166454
769.786	0.0166691
769.864	0.0166842
769.942	0.0167760
770.021	0.0167826
770.099	0.0167857
770.177	0.0168026
770.255	0.0168556
770.333	0.0167746
770.411	0.0167766
770.489	0.0168044
770.567	0.0166872
770.646	0.0167306
770.724	0.0166808
770.802	0.0165205
770.880	0.0163479
770.958	0.0162892
771.036	0.0162959
771.114	0.0162863
771.192	0.0164263
771.271	0.0161866
771.349	0.0161646
771.427	0.0163566
771.505	0.0164735
771.583	0.0162733
771.661	0.0164887
771.739	0.0164459
771.817	0.0164647
771.896	0.0164687
771.974	0.0165999
772.052	0.0166198
772.130	0.0168001
772.208	0.0167489
772.286	0.0167560
772.364	0.0166823
772.442	0.0167181
772.521	0.0166350
772.599	0.0167968
772.677	0.0167867
772.755	0.0167625
772.833	0.0167943
772.911	0.0167945
772.989	0.0168150
773.067	0.0168592
773.146	0.0168073
773.224	0.0167755
773.302	0.0169139
773.380	0.0167480
773.458	0.0168958
773.536	0.0168443
773.614	0.0168157
773.692	0.0167954
773.771	0.0168624
773.849	0.0167929
773.927	0.0166372
774.005	0.0165744
774.083	0.0166236
774.161	0.0166357
774.239	0.0164711
774.317	0.0163165
774.396	0.0163820
774.474	0.0163001
774.552	0.0163048
774.630	0.0163405
774.708	0.0162022
774.786	0.0164113
774.864	0.0162932
774.942	0.0162448
775.021	0.0162180
775.099	0.0162119
775.177	0.0162538
775.255	0.0162279
775.333	0.0164021
775.411	0.0164693
775.489	0.0163887
775.567	0.0164360
775.646	0.0165617
775.724	0.0164288
775.802	0.0166093
775.880	0.0166418
775.958	0.0167394
776.036	0.0166328
776.114	0.0167604
776.192	0.0167457
776.271	0.0168232
776.349	0.0168488
776.427	0.0167395
776.505	0.0167561
776.583	0.0166811
776.661	0.0168266
776.739	0.0165990
776.817	0.0166129
776.896	0.0165260
776.974	0.0164169
777.052	0.0164664
777.130	0.0163667
777.208	0.0162977
777.286	0.0161298
777.364	0.0162847
777.442	0.0161187
777.521	0.0159766
777.599	0.0160568
777.677	0.0161731
777.755	0.0161745
777.833	0.0161623
777.911	0.0161967
777.989	0.0163772
778.067	0.0161754
778.146	0.0163221
778.224	0.0163962
778.302	0.0164453
778.380	0.0164278
778.458	0.0165636
778.536	0.0166000
778.614	0.0163527
778.692	0.0167152
778.771	0.0167464
778.849	0.0166898
778.927	0.0168458
779.005	0.0167556
779.083	0.0167585
779.161	0.0168938
779.239	0.0168848
779.317	0.0167570
779.396	0.0168389
779.474	0.0167891
779.552	0.0168582
779.630	0.0168138
779.708	0.0168751
779.786	0.0167715
779.864	0.0166599
779.942	0.0166161
780.021	0.0166912
780.099	0.0167399
780.177	0.0165640
780.255	0.0165822
780.333	0.0164412
780.411	0.0165473
780.489	0.0165376
780.567	0.0165909
780.646	0.0164803
780.724	0.0164457
780.802	0.0164069
780.880	0.0163261
780.958	0.0163427
781.036	0.0163756
781.114	0.0162624
781.192	0.0162911
781.271	0.0162637
781.349	0.0162707
781.427	0.0163603
781.505	0.0164272
781.583	0.0164146
781.661	0.0164848
781.739	0.0164407
781.817	0.0165405
781.896	0.0166555
781.974	0.0167314
782.052	0.0167668
782.130	0.0167850
782.208	0.0167368
782.286	0.0169221
782.364	0.0167818
782.442	0.0168446
782.521	0.0169043
782.599	0.0168373
782.677	0.0168170
782.755	0.0168226
782.833	0.0168102
782.911	0.0167300
782.989	0.0166227
783.067	0.0166021
783.146	0.0164551
783.224	0.0164453
783.302	0.0163636
783.380	0.0161283
783.458	0.0162320
783.536	0.0162226
783.614	0.0160101
783.692	0.0160405
783.771	0.0160976
783.849	0.0159744
783.927	0.0160361
784.005	0.0160649
784.083	0.0161599
784.161	0.0161159
784.239	0.0161592
784.317	0.0160789
784.396	0.0161671
784.474	0.0163873
784.552	0.0164604
784.630	0.0167112
784.708	0.0167236
784.786	0.0166127
784.864	0.0167619
784.942	0.0167703
785.021	0.0167561
785.099	0.0170122
785.177	0.0168653
785.255	0.0168978
785.333	0.0169176
785.411	0.0167612
785.489	0.0169137
785.567	0.0168808
785.646	0.0167741
785.724	0.0169302
785.802	0.0167530
785.880	0.0167702
785.958	0.0167675
786.036	0.0166565
786.114	0.0166969
786.192	0.0166444
786.271	0.0165215
786.349	0.0164674
786.427	0.0164084
786.505	0.0164758
786.583	0.0163040
786.661	0.0162141
786.739	0.0161356
786.817	0.0162234
786.896	0.0162403
786.974	0.0162245
787.052	0.0163577
787.130	0.0163091
787.208	0.0163963
787.286	0.0162157
787.364	0.0163568
787.442	0.0164439
787.521	0.0164291
787.599	0.0166437
787.677	0.0166003
787.755	0.0166636
787.833	0.0166702
787.911	0.0167239
787.989	0.0168991
788.067	0.0168341
788.146	0.0169533
788.224	0.0169229
788.302	0.0169210
788.380	0.0169447
788.458	0.0169444
788.536	0.0169453
788.614	0.0169331
788.692	0.0168049
788.771	0.0169477
788.849	0.0168850
788.927	0.0167838
789.005	0.0167672
789.083	0.0167866
789.161	0.0165739
789.239	0.0165858
789.317	0.0165077
789.396	0.0166431
789.474	0.0165691
789.552	0.0164717
789.630	0.0165943
789.708	0.0165060
789.786	0.0165026
789.864	0.0165189
789.942	0.0164638
790.021	0.0165251
790.099	0.0167032
790.177	0.0167606
790.255	0.0166806
790.333	0.0167903
790.411	0.0167276
790.489	0.0167408
790.567	0.0167789
790.646	0.0168775
790.724	0.0168735
790.802	0.0169848
790.880	0.0169949
790.958	0.0169576
791.036	0.0169653
791.114	0.0171157
791.192	0.0171964
791.271	0.0172183
791.349	0.0171684
791.427	0.0170753
791.505	0.0172186
791.583	0.0170179
791.661	0.0170141
791.739	0.0170749
791.817	0.0170264
791.896	0.0170179
791.974	0.0168098
792.052	0.0168816
792.130	0.0168664
792.208	0.0167245
792.286	0.0165150
792.364	0.0164663
792.442	0.0164464
792.521	0.0163095
792.599	0.0162855
792.677	0.0162808
792.755	0.0162444
792.833	0.0161174
792.911	0.0161800
792.989	0.0161708
793.067	0.0161342
793.146	0.0161691
793.224	0.0164128
793.302	0.0162897
793.380	0.0164347
793.458	0.0164945
793.536	0.0166645
793.614	0.0167865
793.692	0.0166605
793.771	0.0167871
793.849	0.0169485
793.927	0.0169830
794.005	0.0168960
794.083	0.0170631
794.161	0.0170570
794.239	0.0170502
794.317	0.0169682
794.396	0.0169951
794.474	0.0168742
794.552	0.0166189
794.630	0.0168195
794.708	0.0167381
794.786	0.0167917
794.864	0.0166464
794.942	0.0165398
795.021	0.0165176
795.099	0.0164979
795.177	0.0164105
795.255	0.0164886
795.333	0.0164330
795.411	0.0164251
795.489	0.0164887
795.567	0.0164854
795.646	0.0163236
795.724	0.0165536
795.802	0.0164311
795.880	0.0165366
795.958	0.0164293
796.036	0.0166422
796.114	0.0167632
796.192	0.0166735
796.271	0.0166142
796.349	0.0167984
796.427	0.0166168
796.505	0.0166577
796.583	0.0166096
796.661	0.0166368
796.739	0.0166682
796.817	0.0166804
796.896	0.0167815
796.974	0.0166644
797.052	0.0166249
797.130	0.0167068
797.208	0.0166343
797.286	0.0166375
797.364	0.0167313
797.442	0.0167381
797.521	0.0165511
797.599	0.0166484
797.677	0.0166065
797.755	0.0164941
797.833	0.0165553
797.911	0.0166049
797.989	0.0165718
798.067	0.0164692
798.146	0.0163509
798.224	0.0163850
798.302	0.0163613
798.380	0.0161765
798.458	0.0163661
798.536	0.0162208
798.614	0.0160871
798.692	0.0162706
798.771	0.0161496
798.849	0.0162253
798.927	0.0163061
799.005	0.0163727
799.083	0.0163321
799.161	0.0163654
799.239	0.0164049
799.317	0.0165091
799.396	0.0165294
799.474	0.0165565
799.552	0.0166509
799.630	0.0166406
799.708	0.0165956
799.786	0.0166592
799.864	0.0168315
799.942	0.0169337
800.021	0.0169167
800.099	0.0167906
800.177	0.0167325
800.255	0.0167417
800.333	0.0167719
800.411	0.0167413
800.489	0.0167644
800.567	0.0166550
800.646	0.0166681
800.724	0.0166653
800.802	0.0165414
800.880	0.0167795
800.958	0.0166284
801.036	0.0166438
801.114	0.0164258
801.192	0.0165848
801.271	0.0164806
801.349	0.0165224
801.427	0.0164211
801.505	0.0163994
801.583	0.0165022
801.661	0.0164737
801.739	0.0164174
801.817	0.0164328
801.896	0.0164849
801.974	0.0165011
802.052	0.0164658
802.130	0.0164220
802.208	0.0165163
802.286	0.0165511
802.364	0.0165511
802.442	0.0166407
802.521	0.0166236
802.599	0.0167768
802.677	0.0167357
802.755	0.0166741
802.833	0.0168321
802.911	0.0167226
802.989	0.0167902
803.067	0.0168773
803.146	0.0168260
803.224	0.0168270
803.302	0.0167236
803.380	0.0167982
803.458	0.0168063
803.536	0.0168369
803.614	0.0168731
803.692	0.0167673
803.771	0.0168362
803.849	0.0166994
803.927	0.0166602
804.005	0.0166875
804.083	0.0166270
804.161	0.0165747
804.239	0.0165023
804.317	0.0164838
804.396	0.0164291
804.474	0.0163714
804.552	0.0164013
804.630	0.0164168
804.708	0.0164388
804.786	0.0164218
804.864	0.0162515
804.942	0.0163056
805.021	0.0163133
805.099	0.0163235
805.177	0.0163341
805.255	0.0163631
805.333	0.0164058
805.411	0.0164912
805.489	0.0163741
805.567	0.0163913
805.646	0.0164308
805.724	0.0165018
805.802	0.0164832
805.880	0.0165524
805.958	0.0165072
806.036	0.0166605
806.114	0.0166952
806.192	0.0167186
806.271	0.0167673
806.349	0.0167485
806.427	0.0169659
806.505	0.0168101
806.583	0.0167534
806.661	0.0168066
806.739	0.0168468
806.817	0.0168362
806.896	0.0167169
806.974	0.0166704
807.052	0.0167721
807.130	0.0166059
807.208	0.0165637
807.286	0.0164956
807.364	0.0165646
807.442	0.0165034
807.521	0.0164204
807.599	0.0163566
807.677	0.0164913
807.755	0.0165604
807.833	0.0164429
807.911	0.0164401
807.989	0.0164803
808.067	0.0164532
808.146	0.0164632
808.224	0.0164066
808.302	0.0165459
808.380	0.0164774
808.458	0.0165748
808.536	0.0165633
808.614	0.0163733
808.692	0.0165577
808.771	0.0163393
808.849	0.0164388
808.927	0.0164906
809.005	0.0166396
809.083	0.0165936
809.161	0.0165340
809.239	0.0165620
809.317	0.0166273
809.396	0.0165300
809.474	0.0166467
809.552	0.0166432
809.630	0.0165978
809.708	0.0165531
809.786	0.0165804
809.864	0.0166462
809.942	0.0166273
810.021	0.0166891
810.099	0.0165363
810.177	0.0166975
810.255	0.0166405
810.333	0.0165831
810.411	0.0167863
810.489	0.0166659
810.567	0.0166787
810.646	0.0168073
810.724	0.0167609
810.802	0.0167412
810.880	0.0165907
810.958	0.0166523
811.036	0.0168040
811.114	0.0167701
811.192	0.0167314
811.271	0.0166820
811.349	0.0165053
811.427	0.0166945
811.505	0.0165791
811.583	0.0166824
811.661	0.0166678
811.739	0.0166568
811.817	0.0165739
811.896	0.0165553
811.974	0.0164584
812.052	0.0165402
812.130	0.0167043
812.208	0.0164850
812.286	0.0165448
812.364	0.0165952
812.442	0.0165074
812.521	0.0165034
812.599	0.0164816
812.677	0.0165533
812.755	0.0164493
812.833	0.0164326
812.911	0.0165561
812.989	0.0164110
813.067	0.0164559
813.146	0.0165098
813.224	0.0164886
813.302	0.0165030
813.380	0.0164608
813.458	0.0163745
813.536	0.0166033
813.614	0.0166823
813.692	0.0166696
813.771	0.0166728
813.849	0.0165785
813.927	0.0166773
814.005	0.0165916
814.083	0.0166805
814.161	0.0167639
814.239	0.0168433
814.317	0.0167676
814.396	0.0170368
814.474	0.0168999
814.552	0.0168443
814.630	0.0170621
814.708	0.0171459
814.786	0.0170019
814.864	0.0171223
814.942	0.0171066
815.021	0.0171233
815.099	0.0171306
815.177	0.0168111
815.255	0.0168998
815.333	0.0168501
815.411	0.0168861
815.489	0.0165789
815.567	0.0167683
815.646	0.0164982
815.724	0.0166390
815.802	0.0164772
815.880	0.0163077
815.958	0.0162720
816.036	0.0160741
816.114	0.0161124
816.192	0.0161339
816.271	0.0161129
816.349	0.0160754
816.427	0.0161165
816.505	0.0161211
816.583	0.0159684
816.661	0.0159487
816.739	0.0161298
816.817	0.0160133
816.896	0.0162585
816.974	0.0159178
817.052	0.0162803
817.130	0.0161934
817.208	0.0163448
817.286	0.0162832
817.364	0.0165435
817.442	0.0165359
817.521	0.0166840
817.599	0.0166882
817.677	0.0167244
817.755	0.0167776
817.833	0.0169236
817.911	0.0170079
817.989	0.0169875
818.067	0.0169897
818.146	0.0169327
818.224	0.0170905
818.302	0.0169726
818.380	0.0170306
818.458	0.0170201
818.536	0.0169428
818.614	0.0167903
818.692	0.0168230
818.771	0.0167056
818.849	0.0167855
818.927	0.0164475
819.005	0.0164454
819.083	0.0163390
819.161	0.0164384
819.239	0.0164658
819.317	0.0162201
819.396	0.0160819
819.474	0.0162856
819.552	0.0161765
819.630	0.0160165
819.708	0.0161266
819.786	0.0161896
819.864	0.0161632
819.942	0.0162016
820.021	0.0161631
820.099	0.0162073
820.177	0.0161395
820.255	0.0163239
820.333	0.0163518
820.411	0.0165015
820.489	0.0163795
820.567	0.0164722
820.646	0.0165308
820.724	0.0165379
820.802	0.0166102
820.880	0.0168117
820.958	0.0167091
821.036	0.0167381
821.114	0.0169596
821.192	0.0168242
821.271	0.0168872
821.349	0.0168900
821.427	0.0170114
821.505	0.0169122
821.583	0.0167615
821.661	0.0167484
821.739	0.0170008
821.817	0.0168764
821.896	0.0168923
821.974	0.0168830
822.052	0.0167432
822.130	0.0167032
822.208	0.0169273
822.286	0.0168407
822.364	0.0168088
822.442	0.0167740
822.521	0.0169102
822.599	0.0168264
822.677	0.0168428
822.755	0.0166830
822.833	0.0166140
822.911	0.0167293
822.989	0.0168052
823.067	0.0166102
823.146	0.0166649
823.224	0.0164851
823.302	0.0165343
823.380	0.0166721
823.458	0.0165522
823.536	0.0165792
823.614	0.0166091
823.692	0.0164635
823.771	0.0165508
823.849	0.0164684
823.927	0.0164888
824.005	0.0164400
824.083	0.0164562
824.161	0.0162392
824.239	0.0163807
824.317	0.0162094
824.396	0.0163786
824.474	0.0165165
824.552	0.0162411
824.630	0.0162787
824.708	0.0162708
824.786	0.0162961
824.864	0.0162849
824.942	0.0163557
825.021	0.0164097
825.099	0.0164510
825.177	0.0163934
825.255	0.0164260
825.333	0.0163408
825.411	0.0163508
825.489	0.0163876
825.567	0.0164873
825.646	0.0165370
825.724	0.0165228
825.802	0.0165657
825.880	0.0165994
825.958	0.0166319
826.036	0.0166430
826.114	0.0167221
826.192	0.0166730
826.271	0.0166239
826.349	0.0167453
826.427	0.0169647
826.505	0.0167427
826.583	0.0168430
826.661	0.0169851
826.739	0.0169448
826.817	0.0170095
826.896	0.0170938
826.974	0.0168724
827.052	0.0169310
827.130	0.0169971
827.208	0.0169218
827.286	0.0169757
827.364	0.0169747
827.442	0.0169781
827.521	0.0169821
827.599	0.0168361
827.677	0.0169217
827.755	0.0169827
827.833	0.0169008
827.911	0.0168309
827.989	0.0167198
828.067	0.0168151
828.146	0.0166873
828.224	0.0165778
828.302	0.0165408
828.380	0.0165881
828.458	0.0165330
828.536	0.0163884
828.614	0.0163524
828.692	0.0164523
828.771	0.0162524
828.849	0.0163798
828.927	0.0164751
829.005	0.0162837
829.083	0.0164302
829.161	0.0163660
829.239	0.0164381
829.317	0.0164866
829.396	0.0164231
829.474	0.0165192
829.552	0.0165425
829.630	0.0164054
829.708	0.0165188
829.786	0.0165859
829.864	0.0164297
829.942	0.0164304
830.021	0.0164904
830.099	0.0165428
830.177	0.0165360
830.255	0.0165723
830.333	0.0163537
830.411	0.0163403
830.489	0.0165942
830.567	0.0164459
830.646	0.0165053
830.724	0.0165343
830.802	0.0165490
830.880	0.0163589
830.958	0.0166098
831.036	0.0165638
831.114	0.0164085
831.192	0.0166615
831.271	0.0165788
831.349	0.0164922
831.427	0.0165949
831.505	0.0164769
831.583	0.0163987
831.661	0.0165916
831.739	0.0164957
831.817	0.0165244
831.896	0.0165516
831.974	0.0166149
832.052	0.0165426
832.130	0.0165128
832.208	0.0166018
832.286	0.0167982
832.364	0.0166419
832.442	0.0165368
832.521	0.0163931
832.599	0.0165064
832.677	0.0165286
832.755	0.0164174
832.833	0.0163967
832.911	0.0166022
832.989	0.0163993
833.067	0.0163617
833.146	0.0164693
833.224	0.0165508
833.302	0.0164405
833.380	0.0164109
833.458	0.0164584
833.536	0.0163424
833.614	0.0164818
833.692	0.0163870
833.771	0.0163496
833.849	0.0162690
833.927	0.0162134
834.005	0.0164269
834.083	0.0163660
834.161	0.0164230
834.239	0.0164999
834.317	0.0165621
834.396	0.0165368
834.474	0.0164706
834.552	0.0166166
834.630	0.0166449
834.708	0.0165539
834.786	0.0165665
834.864	0.0167879
834.942	0.0168435
835.021	0.0169215
835.099	0.0169028
835.177	0.0169352
835.255	0.0168912
835.333	0.0168423
835.411	0.0170489
835.489	0.0170522
835.567	0.0168562
835.646	0.0169708
835.724	0.0169110
835.802	0.0169429
835.880	0.0170400
835.958	0.0169891
836.036	0.0168323
836.114	0.0168458
836.192	0.0169440
836.271	0.0169492
836.349	0.0168048
836.427	0.0168190
836.505	0.0168222
836.583	0.0167823
836.661	0.0169069
836.739	0.0167690
836.817	0.0168369
836.896	0.0167198
836.974	0.0166401
837.052	0.0166197
837.130	0.0165313
837.208	0.0164080
837.286	0.0164059
837.364	0.0163054
837.442	0.0163935
837.521	0.0163906
837.599	0.0163045
837.677	0.0163377
837.755	0.0162888
837.833	0.0162700
837.911	0.0163316
837.989	0.0163062
838.067	0.0163399
838.146	0.0163155
838.224	0.0163320
838.302	0.0162645
838.380	0.0165105
838.458	0.0164082
838.536	0.0164391
838.614	0.0165404
838.692	0.0164748
838.771	0.0166410
838.849	0.0166343
838.927	0.0166564
839.005	0.0168255
839.083	0.0166325
839.161	0.0165927
839.239	0.0167368
839.317	0.0168529
839.396	0.0166765
839.474	0.0167212
839.552	0.0168129
839.630	0.0168401
839.708	0.0167498
839.786	0.0166999
839.864	0.0166383
839.942	0.0165103
840.021	0.0165102
840.099	0.0164586
840.177	0.0163781
840.255	0.0164256
840.333	0.0163349
840.411	0.0163897
840.489	0.0163710
840.567	0.0163181
840.646	0.0162716
840.724	0.0164395
840.802	0.0164113
840.880	0.0163931
840.958	0.0164114
841.036	0.0164187
841.114	0.0164195
841.192	0.0164420
841.271	0.0163827
841.349	0.0164566
841.427	0.0165498
841.505	0.0165211
841.583	0.0165578
841.661	0.0165984
841.739	0.0165621
841.817	0.0165058
841.896	0.0167162
841.974	0.0166037
842.052	0.0167704
842.130	0.0168366
842.208	0.0166497
842.286	0.0167329
842.364	0.0166103
842.442	0.0166297
842.521	0.0168477
842.599	0.0166306
842.677	0.0167366
842.755	0.0165625
842.833	0.0166335
842.911	0.0166130
842.989	0.0165772
843.067	0.0166224
843.146	0.0166109
843.224	0.0165606
843.302	0.0165591
843.380	0.0164186
843.458	0.0165267
843.536	0.0166086
843.614	0.0165033
843.692	0.0165387
843.771	0.0166762
843.849	0.0166938
843.927	0.0166708
844.005	0.0166465
844.083	0.0164774
844.161	0.0164437
844.239	0.0164688
844.317	0.0165479
844.396	0.0163953
844.474	0.0164350
844.552	0.0163819
844.630	0.0162452
844.708	0.0163662
844.786	0.0163606
844.864	0.0163074
844.942	0.0163925
845.021	0.0163347
845.099	0.0163140
845.177	0.0163535
845.255	0.0162843
845.333	0.0164616
845.411	0.0163519
845.489	0.0162630
845.567	0.0163253
845.646	0.0163069
845.724	0.0163139
845.802	0.0162263
845.880	0.0164182
845.958	0.0164482
846.036	0.0163371
846.114	0.0163921
846.192	0.0164452
846.271	0.0164024
846.349	0.0163839
846.427	0.0163589
846.505	0.0166334
846.583	0.0165107
846.661	0.0165607
846.739	0.0166143
846.817	0.0167310
846.896	0.0165904
846.974	0.0166736
847.052	0.0167571
847.130	0.0166727
847.208	0.0167657
847.286	0.0166915
847.364	0.0168359
847.442	0.0166629
847.521	0.0167178
847.599	0.0167371
847.677	0.0167381
847.755	0.0167812
847.833	0.0168138
847.911	0.0168729
847.989	0.0167734
848.067	0.0167426
848.146	0.0169308
848.224	0.0168760
848.302	0.0168009
848.380	0.0168932
848.458	0.0168245
848.536	0.0167283
848.614	0.0167323
848.692	0.0167641
848.771	0.0168568
848.849	0.0167224
848.927	0.0166698
849.005	0.0166171
849.083	0.0166333
849.161	0.0165652
849.239	0.0165003
849.317	0.0166116
849.396	0.0166693
849.474	0.0164800
849.552	0.0164499
849.630	0.0166146
849.708	0.0165247
849.786	0.0165897
849.864	0.0165395
849.942	0.0164465
850.021	0.0165852
850.099	0.0165057
850.177	0.0165201
850.255	0.0165862
850.333	0.0165649
850.411	0.0165987
850.489	0.0164780
850.567	0.0166391
850.646	0.0167001
850.724	0.0165810
850.802	0.0164649
850.880	0.0166861
850.958	0.0166778
851.036	0.0166905
851.114	0.0166405
851.192	0.0165298
851.271	0.0166598
851.349	0.0166152
851.427	0.0164671
851.505	0.0166323
851.583	0.0166827
851.661	0.0165652
851.739	0.0164994
851.817	0.0165875
851.896	0.0164046
851.974	0.0164716
852.052	0.0166021
852.130	0.0163487
852.208	0.0163878
852.286	0.0164258
852.364	0.0164389
852.442	0.0163338
852.521	0.0162506
852.599	0.0164261
852.677	0.0164710
852.755	0.0165739
852.833	0.0165791
852.911	0.0164733
852.989	0.0165259
853.067	0.0165777
853.146	0.0166841
853.224	0.0166002
853.302	0.0165793
853.380	0.0166949
853.458	0.0166066
853.536	0.0166955
853.614	0.0167412
853.692	0.0166662
853.771	0.0167115
853.849	0.0167975
853.927	0.0166954
854.005	0.0167054
854.083	0.0167587
854.161	0.0166812
854.239	0.0167252
854.317	0.0167639
854.396	0.0165358
854.474	0.0165062
854.552	0.0164889
854.630	0.0164875
854.708	0.0163599
854.786	0.0166178
854.864	0.0164614
854.942	0.0162216
855.021	0.0164124
855.099	0.0164345
855.177	0.0164854
855.255	0.0164739
855.333	0.0164442
855.411	0.0162707
855.489	0.0163728
855.567	0.0165022
855.646	0.0164649
855.724	0.0165471
855.802	0.0164999
855.880	0.0164132
855.958	0.0164731
856.036	0.0164907
856.114	0.0164479
856.192	0.0164910
856.271	0.0165514
856.349	0.0164048
856.427	0.0165099
856.505	0.0166023
856.583	0.0164822
856.661	0.0165575
856.739	0.0164995
856.817	0.0165416
856.896	0.0164897
856.974	0.0165759
857.052	0.0166005
857.130	0.0164824
857.208	0.0165665
857.286	0.0165017
857.364	0.0165997
857.442	0.0164404
857.521	0.0165443
857.599	0.0166396
857.677	0.0165378
857.755	0.0166763
857.833	0.0165708
857.911	0.0165172
857.989	0.0164886
858.067	0.0164703
858.146	0.0165660
858.224	0.0166018
858.302	0.0166483
858.380	0.0164982
858.458	0.0163972
858.536	0.0165425
858.614	0.0167189
858.692	0.0165141
858.771	0.0165238
858.849	0.0163811
858.927	0.0165123
859.005	0.0166016
859.083	0.0165237
859.161	0.0165062
859.239	0.0165096
859.317	0.0165060
859.396	0.0164521
859.474	0.0165208
859.552	0.0165541
859.630	0.0166022
859.708	0.0164549
859.786	0.0164893
859.864	0.0165904
859.942	0.0166644
860.021	0.0164268
860.099	0.0164342
860.177	0.0164056
860.255	0.0165237
860.333	0.0165338
860.411	0.0165742
860.489	0.0164682
860.567	0.0164772
860.646	0.0165842
860.724	0.0163700
860.802	0.0164642
860.880	0.0164461
860.958	0.0165282
861.036	0.0166239
861.114	0.0164571
861.192	0.0164716
861.271	0.0164966
861.349	0.0165133
861.427	0.0163379
861.505	0.0165392
861.583	0.0165118
861.661	0.0164530
861.739	0.0165955
861.817	0.0164234
861.896	0.0164941
861.974	0.0165061
862.052	0.0167147
862.130	0.0165022
862.208	0.0166659
862.286	0.0165245
862.364	0.0164935
862.442	0.0165952
862.521	0.0164919
862.599	0.0165048
862.677	0.0166588
862.755	0.0167005
862.833	0.0165929
862.911	0.0167128
862.989	0.0167178
863.067	0.0167052
863.146	0.0167491
863.224	0.0166895
863.302	0.0167574
863.380	0.0167503
863.458	0.0167648
863.536	0.0166980
863.614	0.0167322
863.692	0.0167606
863.771	0.0168416
863.849	0.0166735
863.927	0.0166866
864.005	0.0166637
864.083	0.0165461
864.161	0.0166939
864.239	0.0166130
864.317	0.0165073
864.396	0.0165975
864.474	0.0166702
864.552	0.0164711
864.630	0.0165276
864.708	0.0165057
864.786	0.0165394
864.864	0.0164460
864.942	0.0165051
865.021	0.0164391
865.099	0.0164937
865.177	0.0163644
865.255	0.0164610
865.333	0.0164429
865.411	0.0163879
865.489	0.0165678
865.567	0.0165302
865.646	0.0163181
865.724	0.0164707
865.802	0.0165159
865.880	0.0165223
865.958	0.0165746
866.036	0.0164663
866.114	0.0165546
866.192	0.0164876
866.271	0.0165017
866.349	0.0165038
866.427	0.0163819
866.505	0.0165498
866.583	0.0165581
866.661	0.0164722
866.739	0.0164284
866.817	0.0164591
866.896	0.0163616
866.974	0.0164787
867.052	0.0165279
867.130	0.0165556
867.208	0.0165923
867.286	0.0164603
867.364	0.0167606
867.442	0.0164734
867.521	0.0164282
867.599	0.0164340
867.677	0.0165453
867.755	0.0165256
867.833	0.0165941
867.911	0.0164325
867.989	0.0164222
868.067	0.0164970
868.146	0.0163780
868.224	0.0164806
868.302	0.0165437
868.380	0.0165734
868.458	0.0166511
868.536	0.0165079
868.614	0.0165434
868.692	0.0165505
868.771	0.0165985
868.849	0.0166074
868.927	0.0167222
869.005	0.0165984
869.083	0.0167693
869.161	0.0166920
869.239	0.0166695
869.317	0.0168018
869.396	0.0167677
869.474	0.0166737
869.552	0.0167732
869.630	0.0167091
869.708	0.0166030
869.786	0.0165967
869.864	0.0166817
869.942	0.0167403
