06/03/2022	16:04:27	Ver.	4.1	UNKNOWN
Optical Delay	569.994326	Delta X		0.078125	Sweeps	1	Scan Rate	0/0
Coordinates	Axis 1	NaN	Axis 2	NaN	Axis 3	NaN	Axis 4	NaN	Axis 5	NaN	Axis 6	0.000000
TX Power	0.000000	RX Power	0.000000

569.994	0.0166302
570.072	0.0167324
570.151	0.0166940
570.229	0.0166234
570.307	0.0167142
570.385	0.0166406
570.463	0.0165915
570.541	0.0167081
570.619	0.0167638
570.697	0.0166389
570.776	0.0165797
570.854	0.0166785
570.932	0.0167005
571.010	0.0166741
571.088	0.0165617
571.166	0.0166104
571.244	0.0166969
571.322	0.0166772
571.401	0.0165971
571.479	0.0165884
571.557	0.0167464
571.635	0.0165522
571.713	0.0166236
571.791	0.0167276
571.869	0.0166538
571.947	0.0166629
572.026	0.0166446
572.104	0.0167190
572.182	0.0167268
572.260	0.0166125
572.338	0.0165756
572.416	0.0165215
572.494	0.0167059
572.572	0.0165929
572.651	0.0165318
572.729	0.0166383
572.807	0.0166624
572.885	0.0167159
572.963	0.0166016
573.041	0.0164905
573.119	0.0165205
573.197	0.0165405
573.276	0.0166571
573.354	0.0166185
573.432	0.0167580
573.510	0.0165536
573.588	0.0165241
573.666	0.0166923
573.744	0.0166334
573.822	0.0166223
573.901	0.0166521
573.979	0.0166959
574.057	0.0165104
574.135	0.0164784
574.213	0.0167173
574.291	0.0167344
574.369	0.0164904
574.447	0.0165646
574.526	0.0165581
574.604	0.0165497
574.682	0.0164670
574.760	0.0166599
574.838	0.0164358
574.916	0.0166233
574.994	0.0166125
575.072	0.0166214
575.151	0.0165435
575.229	0.0166224
575.307	0.0166721
575.385	0.0165244
575.463	0.0165419
575.541	0.0165264
575.619	0.0165573
575.697	0.0164691
575.776	0.0165381
575.854	0.0164989
575.932	0.0163657
576.010	0.0165961
576.088	0.0165909
576.166	0.0164254
576.244	0.0164319
576.322	0.0165055
576.401	0.0164629
576.479	0.0165396
576.557	0.0164091
576.635	0.0165656
576.713	0.0164478
576.791	0.0165047
576.869	0.0165891
576.947	0.0164767
577.026	0.0164404
577.104	0.0164778
577.182	0.0164288
577.260	0.0165236
577.338	0.0166685
577.416	0.0165311
577.494	0.0164414
577.572	0.0166362
577.651	0.0165650
577.729	0.0163816
577.807	0.0165123
577.885	0.0166914
577.963	0.0166356
578.041	0.0165301
578.119	0.0166676
578.197	0.0165407
578.276	0.0165863
578.354	0.0164762
578.432	0.0165857
578.510	0.0166616
578.588	0.0167014
578.666	0.0165993
578.744	0.0166239
578.822	0.0166825
578.901	0.0165516
578.979	0.0165593
579.057	0.0166995
579.135	0.0166547
579.213	0.0166324
579.291	0.0166364
579.369	0.0166426
579.447	0.0165444
579.526	0.0166566
579.604	0.0165430
579.682	0.0166163
579.760	0.0166185
579.838	0.0166383
579.916	0.0165724
579.994	0.0166000
580.072	0.0165994
580.151	0.0165089
580.229	0.0164397
580.307	0.0165985
580.385	0.0166450
580.463	0.0166499
580.541	0.0165517
580.619	0.0166192
580.697	0.0165974
580.776	0.0166005
580.854	0.0167218
580.932	0.0165491
581.010	0.0165517
581.088	0.0166061
581.166	0.0166897
581.244	0.0165771
581.322	0.0166244
581.401	0.0168078
581.479	0.0165827
581.557	0.0164650
581.635	0.0166026
581.713	0.0166354
581.791	0.0165308
581.869	0.0165948
581.947	0.0165639
582.026	0.0165422
582.104	0.0165696
582.182	0.0163768
582.260	0.0166364
582.338	0.0164426
582.416	0.0165472
582.494	0.0166446
582.572	0.0167068
582.651	0.0166136
582.729	0.0165169
582.807	0.0166162
582.885	0.0165863
582.963	0.0164214
583.041	0.0165015
583.119	0.0166386
583.197	0.0166460
583.276	0.0166547
583.354	0.0165189
583.432	0.0165707
583.510	0.0167532
583.588	0.0165400
583.666	0.0165532
583.744	0.0165742
583.822	0.0165578
583.901	0.0165901
583.979	0.0164622
584.057	0.0164597
584.135	0.0164348
584.213	0.0165298
584.291	0.0165729
584.369	0.0166300
584.447	0.0164571
584.526	0.0164814
584.604	0.0164972
584.682	0.0165540
584.760	0.0166197
584.838	0.0162778
584.916	0.0164044
584.994	0.0164592
585.072	0.0165547
585.151	0.0166383
585.229	0.0165015
585.307	0.0164205
585.385	0.0163406
585.463	0.0165681
585.541	0.0165303
585.619	0.0164398
585.697	0.0165328
585.776	0.0164555
585.854	0.0164693
585.932	0.0163719
586.010	0.0164830
586.088	0.0164777
586.166	0.0164700
586.244	0.0164119
586.322	0.0164273
586.401	0.0163667
586.479	0.0165342
586.557	0.0164529
586.635	0.0163934
586.713	0.0165291
586.791	0.0163825
586.869	0.0163610
586.947	0.0164201
587.026	0.0165048
587.104	0.0165199
587.182	0.0164403
587.260	0.0164625
587.338	0.0165855
587.416	0.0165181
587.494	0.0163232
587.572	0.0164550
587.651	0.0165188
587.729	0.0166143
587.807	0.0164442
587.885	0.0164194
587.963	0.0165541
588.041	0.0164900
588.119	0.0164989
588.197	0.0165255
588.276	0.0165641
588.354	0.0165703
588.432	0.0164828
588.510	0.0165127
588.588	0.0166710
588.666	0.0166663
588.744	0.0164747
588.822	0.0165250
588.901	0.0166348
588.979	0.0163729
589.057	0.0166129
589.135	0.0165509
589.213	0.0165078
589.291	0.0165680
589.369	0.0166660
589.447	0.0166424
589.526	0.0166084
589.604	0.0166122
589.682	0.0165720
589.760	0.0166720
589.838	0.0167738
589.916	0.0167411
589.994	0.0166023
590.072	0.0165755
590.151	0.0166799
590.229	0.0167128
590.307	0.0164693
590.385	0.0165034
590.463	0.0167216
590.541	0.0167322
590.619	0.0166910
590.697	0.0166891
590.776	0.0166423
590.854	0.0167760
590.932	0.0167162
591.010	0.0166530
591.088	0.0168137
591.166	0.0167614
591.244	0.0166946
591.322	0.0166676
591.401	0.0167326
591.479	0.0167081
591.557	0.0168631
591.635	0.0166901
591.713	0.0166089
591.791	0.0166676
591.869	0.0167937
591.947	0.0166871
592.026	0.0167331
592.104	0.0167899
592.182	0.0167197
592.260	0.0166239
592.338	0.0166949
592.416	0.0167803
592.494	0.0167754
592.572	0.0167029
592.651	0.0167231
592.729	0.0166206
592.807	0.0166776
592.885	0.0167037
592.963	0.0166789
593.041	0.0167007
593.119	0.0165595
593.197	0.0165205
593.276	0.0166443
593.354	0.0167065
593.432	0.0165434
593.510	0.0165582
593.588	0.0165742
593.666	0.0164890
593.744	0.0165923
593.822	0.0165685
593.901	0.0167027
593.979	0.0166422
594.057	0.0165672
594.135	0.0166524
594.213	0.0166190
594.291	0.0164957
594.369	0.0165713
594.447	0.0166115
594.526	0.0165792
594.604	0.0166219
594.682	0.0166183
594.760	0.0165501
594.838	0.0165343
594.916	0.0165321
594.994	0.0166329
595.072	0.0166418
595.151	0.0165437
595.229	0.0164464
595.307	0.0165349
595.385	0.0165709
595.463	0.0166847
595.541	0.0165249
595.619	0.0165469
595.697	0.0165437
595.776	0.0164862
595.854	0.0165010
595.932	0.0164955
596.010	0.0165852
596.088	0.0166145
596.166	0.0165509
596.244	0.0166843
596.322	0.0166108
596.401	0.0164103
596.479	0.0165833
596.557	0.0165408
596.635	0.0166058
596.713	0.0165890
596.791	0.0164739
596.869	0.0163741
596.947	0.0165553
597.026	0.0165581
597.104	0.0165371
597.182	0.0166125
597.260	0.0166203
597.338	0.0164403
597.416	0.0165005
597.494	0.0164739
597.572	0.0164574
597.651	0.0166038
597.729	0.0166331
597.807	0.0165479
597.885	0.0165302
597.963	0.0164612
598.041	0.0165105
598.119	0.0165865
598.197	0.0165147
598.276	0.0164695
598.354	0.0165381
598.432	0.0165164
598.510	0.0165349
598.588	0.0165450
598.666	0.0165929
598.744	0.0166040
598.822	0.0164677
598.901	0.0166056
598.979	0.0164285
599.057	0.0165884
599.135	0.0164883
599.213	0.0164922
599.291	0.0165919
599.369	0.0164832
599.447	0.0166742
599.526	0.0166090
599.604	0.0164230
599.682	0.0166254
599.760	0.0166964
599.838	0.0164652
599.916	0.0166247
599.994	0.0166808
600.072	0.0167874
600.151	0.0166633
600.229	0.0165110
600.307	0.0165837
600.385	0.0165132
600.463	0.0166193
600.541	0.0166962
600.619	0.0164997
600.697	0.0167432
600.776	0.0167477
600.854	0.0165583
600.932	0.0167075
601.010	0.0168635
601.088	0.0167296
601.166	0.0166699
601.244	0.0165295
601.322	0.0166185
601.401	0.0167014
601.479	0.0166767
601.557	0.0167610
601.635	0.0166402
601.713	0.0168102
601.791	0.0166554
601.869	0.0167509
601.947	0.0166913
602.026	0.0167325
602.104	0.0166875
602.182	0.0166965
602.260	0.0167058
602.338	0.0166432
602.416	0.0167383
602.494	0.0167395
602.572	0.0165671
602.651	0.0167126
602.729	0.0166692
602.807	0.0165589
602.885	0.0167882
602.963	0.0165637
603.041	0.0165143
603.119	0.0165348
603.197	0.0166496
603.276	0.0166461
603.354	0.0165471
603.432	0.0166972
603.510	0.0166292
603.588	0.0166593
603.666	0.0166323
603.744	0.0167487
603.822	0.0165941
603.901	0.0165755
603.979	0.0166673
604.057	0.0167222
604.135	0.0166106
604.213	0.0166183
604.291	0.0165984
604.369	0.0165114
604.447	0.0165928
604.526	0.0167144
604.604	0.0166034
604.682	0.0165515
604.760	0.0166841
604.838	0.0166028
604.916	0.0166795
604.994	0.0166402
605.072	0.0167111
605.151	0.0166863
605.229	0.0166215
605.307	0.0166726
605.385	0.0164532
605.463	0.0166485
605.541	0.0167014
605.619	0.0165461
605.697	0.0165948
605.776	0.0166309
605.854	0.0166518
605.932	0.0166167
606.010	0.0167101
606.088	0.0165260
606.166	0.0166773
606.244	0.0166206
606.322	0.0166240
606.401	0.0166386
606.479	0.0166242
606.557	0.0165525
606.635	0.0165975
606.713	0.0167527
606.791	0.0168391
606.869	0.0167309
606.947	0.0164378
607.026	0.0165415
607.104	0.0165725
607.182	0.0165935
607.260	0.0167181
607.338	0.0167615
607.416	0.0167727
607.494	0.0166073
607.572	0.0165529
607.651	0.0165842
607.729	0.0167202
607.807	0.0167924
607.885	0.0166228
607.963	0.0166322
608.041	0.0165726
608.119	0.0167474
608.197	0.0166435
608.276	0.0166423
608.354	0.0166874
608.432	0.0164677
608.510	0.0167428
608.588	0.0166859
608.666	0.0166151
608.744	0.0165704
608.822	0.0167640
608.901	0.0167196
608.979	0.0165743
609.057	0.0165936
609.135	0.0166529
609.213	0.0165995
609.291	0.0166603
609.369	0.0165554
609.447	0.0166548
609.526	0.0166895
609.604	0.0166628
609.682	0.0166235
609.760	0.0167182
609.838	0.0166763
609.916	0.0166013
609.994	0.0167366
610.072	0.0166949
610.151	0.0166705
610.229	0.0166292
610.307	0.0166321
610.385	0.0167623
610.463	0.0166743
610.541	0.0166837
610.619	0.0165720
610.697	0.0166907
610.776	0.0166199
610.854	0.0167473
610.932	0.0166173
611.010	0.0166538
611.088	0.0166819
611.166	0.0166582
611.244	0.0166444
611.322	0.0166014
611.401	0.0167237
611.479	0.0166402
611.557	0.0166116
611.635	0.0167863
611.713	0.0166729
611.791	0.0166589
611.869	0.0166656
611.947	0.0166068
612.026	0.0166966
612.104	0.0167304
612.182	0.0167475
612.260	0.0165601
612.338	0.0165418
612.416	0.0165836
612.494	0.0167593
612.572	0.0166688
612.651	0.0165826
612.729	0.0165499
612.807	0.0167074
612.885	0.0165856
612.963	0.0165928
613.041	0.0167257
613.119	0.0167382
613.197	0.0166366
613.276	0.0166578
613.354	0.0165873
613.432	0.0167255
613.510	0.0167298
613.588	0.0166813
613.666	0.0167681
613.744	0.0166610
613.822	0.0165166
613.901	0.0165295
613.979	0.0164642
614.057	0.0167155
614.135	0.0166164
614.213	0.0167849
614.291	0.0166365
614.369	0.0166919
614.447	0.0165861
614.526	0.0165858
614.604	0.0166238
614.682	0.0164980
614.760	0.0166019
614.838	0.0166959
614.916	0.0165458
614.994	0.0165889
615.072	0.0165763
615.151	0.0165997
615.229	0.0165653
615.307	0.0165800
615.385	0.0166402
615.463	0.0164169
615.541	0.0164299
615.619	0.0166328
615.697	0.0165141
615.776	0.0166103
615.854	0.0166468
615.932	0.0167087
616.010	0.0165681
616.088	0.0165517
616.166	0.0165556
616.244	0.0165229
616.322	0.0164823
616.401	0.0166589
616.479	0.0164937
616.557	0.0165047
616.635	0.0165121
616.713	0.0166041
616.791	0.0166541
616.869	0.0165305
616.947	0.0165140
617.026	0.0166488
617.104	0.0166343
617.182	0.0165244
617.260	0.0165991
617.338	0.0165644
617.416	0.0165784
617.494	0.0166088
617.572	0.0167655
617.651	0.0166291
617.729	0.0165536
617.807	0.0165676
617.885	0.0166237
617.963	0.0165168
618.041	0.0165745
618.119	0.0165523
618.197	0.0166360
618.276	0.0166091
618.354	0.0166586
618.432	0.0166980
618.510	0.0165115
618.588	0.0165341
618.666	0.0167069
618.744	0.0166244
618.822	0.0165732
618.901	0.0164626
618.979	0.0165887
619.057	0.0167397
619.135	0.0166121
619.213	0.0166039
619.291	0.0165843
619.369	0.0166658
619.447	0.0165943
619.526	0.0167458
619.604	0.0167171
619.682	0.0165790
619.760	0.0167244
619.838	0.0166814
619.916	0.0167162
619.994	0.0166840
620.072	0.0166852
620.151	0.0164434
620.229	0.0166553
620.307	0.0165718
620.385	0.0166069
620.463	0.0168591
620.541	0.0166006
620.619	0.0165955
620.697	0.0165661
620.776	0.0165906
620.854	0.0165694
620.932	0.0166560
621.010	0.0167467
621.088	0.0166259
621.166	0.0167251
621.244	0.0167613
621.322	0.0167058
621.401	0.0167336
621.479	0.0166785
621.557	0.0165669
621.635	0.0164977
621.713	0.0167010
621.791	0.0166670
621.869	0.0166490
621.947	0.0167586
622.026	0.0168475
622.104	0.0166726
622.182	0.0165368
622.260	0.0166896
622.338	0.0166694
622.416	0.0166919
622.494	0.0166281
622.572	0.0166673
622.651	0.0167024
622.729	0.0167076
622.807	0.0166327
622.885	0.0166200
622.963	0.0167876
623.041	0.0167982
623.119	0.0166026
623.197	0.0167368
623.276	0.0167653
623.354	0.0167544
623.432	0.0166515
623.510	0.0166874
623.588	0.0167156
623.666	0.0166978
623.744	0.0166740
623.822	0.0166292
623.901	0.0168357
623.979	0.0167142
624.057	0.0165643
624.135	0.0167715
624.213	0.0166325
624.291	0.0166778
624.369	0.0165931
624.447	0.0167181
624.526	0.0165306
624.604	0.0166630
624.682	0.0167004
624.760	0.0166993
624.838	0.0165842
624.916	0.0165024
624.994	0.0166030
625.072	0.0166394
625.151	0.0166527
625.229	0.0167711
625.307	0.0166535
625.385	0.0166093
625.463	0.0165892
625.541	0.0166921
625.619	0.0167124
625.697	0.0166755
625.776	0.0165913
625.854	0.0165025
625.932	0.0165150
626.010	0.0167069
626.088	0.0167776
626.166	0.0166197
626.244	0.0167333
626.322	0.0166428
626.401	0.0166903
626.479	0.0167463
626.557	0.0166093
626.635	0.0167508
626.713	0.0166629
626.791	0.0166493
626.869	0.0167782
626.947	0.0167182
627.026	0.0165948
627.104	0.0167103
627.182	0.0166959
627.260	0.0166943
627.338	0.0165257
627.416	0.0166619
627.494	0.0165907
627.572	0.0165993
627.651	0.0167075
627.729	0.0166894
627.807	0.0166226
627.885	0.0166696
627.963	0.0166033
628.041	0.0166805
628.119	0.0167157
628.197	0.0167003
628.276	0.0166542
628.354	0.0166544
628.432	0.0166110
628.510	0.0166409
628.588	0.0166575
628.666	0.0165775
628.744	0.0167290
628.822	0.0166658
628.901	0.0166806
628.979	0.0166948
629.057	0.0165872
629.135	0.0167207
629.213	0.0166087
629.291	0.0168075
629.369	0.0168044
629.447	0.0168096
629.526	0.0166508
629.604	0.0166039
629.682	0.0167059
629.760	0.0166264
629.838	0.0166667
629.916	0.0167578
629.994	0.0167524
630.072	0.0166412
630.151	0.0166293
630.229	0.0165893
630.307	0.0166454
630.385	0.0167126
630.463	0.0168409
630.541	0.0167780
630.619	0.0166922
630.697	0.0165860
630.776	0.0166719
630.854	0.0166227
630.932	0.0165728
631.010	0.0166279
631.088	0.0167659
631.166	0.0166186
631.244	0.0166315
631.322	0.0167342
631.401	0.0165880
631.479	0.0166222
631.557	0.0167506
631.635	0.0166530
631.713	0.0166897
631.791	0.0166639
631.869	0.0166509
631.947	0.0168489
632.026	0.0167368
632.104	0.0165730
632.182	0.0166329
632.260	0.0167332
632.338	0.0167445
632.416	0.0166338
632.494	0.0167036
632.572	0.0167374
632.651	0.0166285
632.729	0.0167014
632.807	0.0166402
632.885	0.0166483
632.963	0.0165893
633.041	0.0167892
633.119	0.0166850
633.197	0.0167038
633.276	0.0166842
633.354	0.0167303
633.432	0.0167362
633.510	0.0165022
633.588	0.0166100
633.666	0.0167093
633.744	0.0166434
633.822	0.0165923
633.901	0.0165186
633.979	0.0166087
634.057	0.0166882
634.135	0.0167291
634.213	0.0165905
634.291	0.0166054
634.369	0.0167256
634.447	0.0166925
634.526	0.0167012
634.604	0.0166455
634.682	0.0167085
634.760	0.0166989
634.838	0.0165963
634.916	0.0166691
634.994	0.0165043
635.072	0.0164991
635.151	0.0166155
635.229	0.0166942
635.307	0.0166609
635.385	0.0166933
635.463	0.0167059
635.541	0.0166816
635.619	0.0164197
635.697	0.0166468
635.776	0.0167085
635.854	0.0165499
635.932	0.0165450
636.010	0.0165216
636.088	0.0165181
636.166	0.0165748
636.244	0.0165212
636.322	0.0165918
636.401	0.0164919
636.479	0.0164973
636.557	0.0166246
636.635	0.0164328
636.713	0.0165618
636.791	0.0165491
636.869	0.0165810
636.947	0.0165856
637.026	0.0164495
637.104	0.0165211
637.182	0.0165455
637.260	0.0164273
637.338	0.0165938
637.416	0.0165997
637.494	0.0167511
637.572	0.0165470
637.651	0.0166298
637.729	0.0165590
637.807	0.0165041
637.885	0.0167103
637.963	0.0165789
638.041	0.0165871
638.119	0.0165530
638.197	0.0165017
638.276	0.0164817
638.354	0.0166205
638.432	0.0166116
638.510	0.0166376
638.588	0.0165825
638.666	0.0166606
638.744	0.0166386
638.822	0.0166869
638.901	0.0165258
638.979	0.0165511
639.057	0.0165292
639.135	0.0164807
639.213	0.0165486
639.291	0.0165692
639.369	0.0164706
639.447	0.0164120
639.526	0.0166214
639.604	0.0165947
639.682	0.0166100
639.760	0.0164449
639.838	0.0165381
639.916	0.0162812
639.994	0.0166387
640.072	0.0165917
640.151	0.0166227
640.229	0.0165469
640.307	0.0165279
640.385	0.0165627
640.463	0.0165778
640.541	0.0164771
640.619	0.0164933
640.697	0.0164643
640.776	0.0165495
640.854	0.0165574
640.932	0.0165750
641.010	0.0165228
641.088	0.0166036
641.166	0.0165856
641.244	0.0164951
641.322	0.0164582
641.401	0.0165895
641.479	0.0165617
641.557	0.0166838
641.635	0.0165366
641.713	0.0164160
641.791	0.0166359
641.869	0.0166605
641.947	0.0165273
642.026	0.0167561
642.104	0.0166339
642.182	0.0164844
642.260	0.0163993
642.338	0.0165340
642.416	0.0165678
642.494	0.0166434
642.572	0.0165487
642.651	0.0164962
642.729	0.0164900
642.807	0.0164236
642.885	0.0164941
642.963	0.0164731
643.041	0.0165017
643.119	0.0165612
643.197	0.0166029
643.276	0.0165037
643.354	0.0165794
643.432	0.0164217
643.510	0.0165993
643.588	0.0165319
643.666	0.0164719
643.744	0.0165907
643.822	0.0165302
643.901	0.0164099
643.979	0.0165768
644.057	0.0164977
644.135	0.0164590
644.213	0.0165463
644.291	0.0165993
644.369	0.0163881
644.447	0.0164675
644.526	0.0165389
644.604	0.0164957
644.682	0.0164851
644.760	0.0164870
644.838	0.0166822
644.916	0.0165827
644.994	0.0165248
645.072	0.0164678
645.151	0.0165444
645.229	0.0165861
645.307	0.0164921
645.385	0.0165590
645.463	0.0165213
645.541	0.0165945
645.619	0.0165623
645.697	0.0165225
645.776	0.0166760
645.854	0.0165978
645.932	0.0165877
646.010	0.0165929
646.088	0.0165418
646.166	0.0166473
646.244	0.0165665
646.322	0.0166335
646.401	0.0165284
646.479	0.0166352
646.557	0.0165322
646.635	0.0166456
646.713	0.0165232
646.791	0.0165284
646.869	0.0166367
646.947	0.0165912
647.026	0.0165376
647.104	0.0165726
647.182	0.0166833
647.260	0.0166869
647.338	0.0165733
647.416	0.0165829
647.494	0.0167065
647.572	0.0165575
647.651	0.0165893
647.729	0.0167307
647.807	0.0166364
647.885	0.0164892
647.963	0.0165964
648.041	0.0167101
648.119	0.0165469
648.197	0.0165762
648.276	0.0165984
648.354	0.0165054
648.432	0.0164973
648.510	0.0166766
648.588	0.0165188
648.666	0.0165976
648.744	0.0165696
648.822	0.0166331
648.901	0.0165446
648.979	0.0166141
649.057	0.0166662
649.135	0.0165054
649.213	0.0165149
649.291	0.0165302
649.369	0.0166108
649.447	0.0166125
649.526	0.0164272
649.604	0.0165440
649.682	0.0165866
649.760	0.0166470
649.838	0.0166499
649.916	0.0165981
649.994	0.0165852
650.072	0.0165234
650.151	0.0165105
650.229	0.0165233
650.307	0.0165553
650.385	0.0166372
650.463	0.0164698
650.541	0.0165926
650.619	0.0165437
650.697	0.0164563
650.776	0.0164225
650.854	0.0165350
650.932	0.0165906
651.010	0.0165577
651.088	0.0167080
651.166	0.0165828
651.244	0.0165455
651.322	0.0167519
651.401	0.0166723
651.479	0.0165330
651.557	0.0165497
651.635	0.0165387
651.713	0.0165668
651.791	0.0165730
651.869	0.0165953
651.947	0.0165103
652.026	0.0165921
652.104	0.0166158
652.182	0.0167673
652.260	0.0165890
652.338	0.0164936
652.416	0.0167221
652.494	0.0166286
652.572	0.0167142
652.651	0.0166698
652.729	0.0166299
652.807	0.0166156
652.885	0.0166602
652.963	0.0166633
653.041	0.0165638
653.119	0.0165451
653.197	0.0165349
653.276	0.0166282
653.354	0.0167029
653.432	0.0165851
653.510	0.0164886
653.588	0.0166050
653.666	0.0166036
653.744	0.0167160
653.822	0.0165408
653.901	0.0165917
653.979	0.0166228
654.057	0.0167441
654.135	0.0165710
654.213	0.0165495
654.291	0.0166534
654.369	0.0165618
654.447	0.0165570
654.526	0.0165944
654.604	0.0165720
654.682	0.0164944
654.760	0.0166151
654.838	0.0166600
654.916	0.0165384
654.994	0.0166101
655.072	0.0166038
655.151	0.0165234
655.229	0.0165719
655.307	0.0166928
655.385	0.0165874
655.463	0.0165990
655.541	0.0166335
655.619	0.0165878
655.697	0.0166570
655.776	0.0166724
655.854	0.0167496
655.932	0.0167413
656.010	0.0166205
656.088	0.0167271
656.166	0.0166090
656.244	0.0166865
656.322	0.0166058
656.401	0.0166391
656.479	0.0165746
656.557	0.0166091
656.635	0.0165911
656.713	0.0165517
656.791	0.0165885
656.869	0.0166596
656.947	0.0165997
657.026	0.0165743
657.104	0.0166586
657.182	0.0166463
657.260	0.0164603
657.338	0.0166660
657.416	0.0166135
657.494	0.0166176
657.572	0.0165077
657.651	0.0165742
657.729	0.0167213
657.807	0.0165993
657.885	0.0165398
657.963	0.0165691
658.041	0.0165977
658.119	0.0164449
658.197	0.0165579
658.276	0.0166172
658.354	0.0164976
658.432	0.0165877
658.510	0.0165974
658.588	0.0165254
658.666	0.0167333
658.744	0.0166502
658.822	0.0165015
658.901	0.0166031
658.979	0.0167048
659.057	0.0166754
659.135	0.0165699
659.213	0.0165472
659.291	0.0164912
659.369	0.0165495
659.447	0.0166119
659.526	0.0166150
659.604	0.0165682
659.682	0.0166248
659.760	0.0164283
659.838	0.0165079
659.916	0.0165176
659.994	0.0166013
660.072	0.0165192
660.151	0.0165910
660.229	0.0164507
660.307	0.0164101
660.385	0.0164160
660.463	0.0164108
660.541	0.0165632
660.619	0.0166217
660.697	0.0164711
660.776	0.0164747
660.854	0.0164463
660.932	0.0164511
661.010	0.0165376
661.088	0.0163812
661.166	0.0163341
661.244	0.0165376
661.322	0.0165423
661.401	0.0163940
661.479	0.0165784
661.557	0.0164685
661.635	0.0164784
661.713	0.0164840
661.791	0.0164013
661.869	0.0164614
661.947	0.0162820
662.026	0.0164995
662.104	0.0164972
662.182	0.0164456
662.260	0.0163939
662.338	0.0163380
662.416	0.0164326
662.494	0.0162486
662.572	0.0164748
662.651	0.0163999
662.729	0.0165308
662.807	0.0164582
662.885	0.0163236
662.963	0.0163935
663.041	0.0163125
663.119	0.0163532
663.197	0.0164919
663.276	0.0164420
663.354	0.0163543
663.432	0.0163232
663.510	0.0162957
663.588	0.0164031
663.666	0.0163903
663.744	0.0165614
663.822	0.0163921
663.901	0.0164671
663.979	0.0164980
664.057	0.0165278
664.135	0.0164040
664.213	0.0164143
664.291	0.0164680
664.369	0.0165275
664.447	0.0165525
664.526	0.0164907
664.604	0.0163383
664.682	0.0164717
664.760	0.0163426
664.838	0.0164896
664.916	0.0164678
664.994	0.0164011
665.072	0.0164706
665.151	0.0164549
665.229	0.0164756
665.307	0.0165647
665.385	0.0164960
665.463	0.0165044
665.541	0.0165274
665.619	0.0164165
665.697	0.0164812
665.776	0.0164269
665.854	0.0165802
665.932	0.0164641
666.010	0.0164684
666.088	0.0165240
666.166	0.0165898
666.244	0.0164393
666.322	0.0164337
666.401	0.0165166
666.479	0.0164527
666.557	0.0166248
666.635	0.0164917
666.713	0.0164685
666.791	0.0164321
666.869	0.0163681
666.947	0.0163528
667.026	0.0166330
667.104	0.0165035
667.182	0.0166081
667.260	0.0165482
667.338	0.0165709
667.416	0.0166103
667.494	0.0164361
667.572	0.0164680
667.651	0.0166862
667.729	0.0166463
667.807	0.0164977
667.885	0.0166268
667.963	0.0165884
668.041	0.0165847
668.119	0.0164898
668.197	0.0164900
668.276	0.0165210
668.354	0.0165380
668.432	0.0165644
668.510	0.0165315
668.588	0.0165349
668.666	0.0164764
668.744	0.0165229
668.822	0.0165194
668.901	0.0165540
668.979	0.0165771
669.057	0.0166021
669.135	0.0166908
669.213	0.0166726
669.291	0.0166705
669.369	0.0165220
669.447	0.0168265
669.526	0.0166924
669.604	0.0165312
669.682	0.0165553
669.760	0.0167157
669.838	0.0166872
669.916	0.0166051
669.994	0.0166183
670.072	0.0166219
670.151	0.0166702
670.229	0.0167025
670.307	0.0167745
670.385	0.0166121
670.463	0.0166562
670.541	0.0166814
670.619	0.0167886
670.697	0.0166931
670.776	0.0166515
670.854	0.0166431
670.932	0.0165451
671.010	0.0166772
671.088	0.0166901
671.166	0.0166190
671.244	0.0167068
671.322	0.0165898
671.401	0.0165347
671.479	0.0166123
671.557	0.0167116
671.635	0.0165782
671.713	0.0166466
671.791	0.0166599
671.869	0.0165353
671.947	0.0166833
672.026	0.0166372
672.104	0.0165806
672.182	0.0166199
672.260	0.0166042
672.338	0.0165524
672.416	0.0165936
672.494	0.0164874
672.572	0.0165639
672.651	0.0166389
672.729	0.0165990
672.807	0.0166178
672.885	0.0165268
672.963	0.0166563
673.041	0.0165011
673.119	0.0164969
673.197	0.0165238
673.276	0.0166172
673.354	0.0165409
673.432	0.0165730
673.510	0.0166070
673.588	0.0166175
673.666	0.0166885
673.744	0.0165108
673.822	0.0165905
673.901	0.0165960
673.979	0.0166546
674.057	0.0166959
674.135	0.0166119
674.213	0.0166042
674.291	0.0166468
674.369	0.0166272
674.447	0.0166290
674.526	0.0166080
674.604	0.0166541
674.682	0.0166177
674.760	0.0164716
674.838	0.0165015
674.916	0.0166309
674.994	0.0165778
675.072	0.0163776
675.151	0.0164063
675.229	0.0165459
675.307	0.0163657
675.385	0.0164883
675.463	0.0164030
675.541	0.0164759
675.619	0.0165085
675.697	0.0164819
675.776	0.0166128
675.854	0.0165669
675.932	0.0166247
676.010	0.0165104
676.088	0.0165138
676.166	0.0166910
676.244	0.0166146
676.322	0.0165922
676.401	0.0166564
676.479	0.0166687
676.557	0.0167297
676.635	0.0165554
676.713	0.0166156
676.791	0.0167605
676.869	0.0167732
676.947	0.0166096
677.026	0.0166616
677.104	0.0166567
677.182	0.0167486
677.260	0.0165069
677.338	0.0166914
677.416	0.0167088
677.494	0.0166410
677.572	0.0166309
677.651	0.0166441
677.729	0.0165093
677.807	0.0164047
677.885	0.0165820
677.963	0.0165280
678.041	0.0165248
678.119	0.0164745
678.197	0.0164318
678.276	0.0165027
678.354	0.0166806
678.432	0.0165587
678.510	0.0166170
678.588	0.0166260
678.666	0.0164868
678.744	0.0164285
678.822	0.0165434
678.901	0.0166898
678.979	0.0166836
679.057	0.0166071
679.135	0.0165005
679.213	0.0167189
679.291	0.0165001
679.369	0.0165546
679.447	0.0165151
679.526	0.0165359
679.604	0.0165271
679.682	0.0164885
679.760	0.0164787
679.838	0.0165189
679.916	0.0164387
679.994	0.0164574
680.072	0.0167369
680.151	0.0164234
680.229	0.0166105
680.307	0.0165388
680.385	0.0165399
680.463	0.0166897
680.541	0.0165411
680.619	0.0166859
680.697	0.0166608
680.776	0.0165868
680.854	0.0166111
680.932	0.0166186
681.010	0.0166677
681.088	0.0166280
681.166	0.0168118
681.244	0.0167402
681.322	0.0168089
681.401	0.0168074
681.479	0.0167232
681.557	0.0168105
681.635	0.0166109
681.713	0.0167341
681.791	0.0167471
681.869	0.0167593
681.947	0.0167181
682.026	0.0167109
682.104	0.0166827
682.182	0.0166573
682.260	0.0165585
682.338	0.0164897
682.416	0.0164995
682.494	0.0164579
682.572	0.0164919
682.651	0.0163677
682.729	0.0163425
682.807	0.0164658
682.885	0.0164465
682.963	0.0164305
683.041	0.0164854
683.119	0.0164907
683.197	0.0164817
683.276	0.0164084
683.354	0.0165769
683.432	0.0164875
683.510	0.0165182
683.588	0.0165990
683.666	0.0164623
683.744	0.0166004
683.822	0.0167348
683.901	0.0167596
683.979	0.0167625
684.057	0.0167503
684.135	0.0167039
684.213	0.0168243
684.291	0.0168062
684.369	0.0167323
684.447	0.0166440
684.526	0.0165831
684.604	0.0166106
684.682	0.0166639
684.760	0.0166080
684.838	0.0167073
684.916	0.0165176
684.994	0.0165478
685.072	0.0165797
685.151	0.0164801
685.229	0.0167188
685.307	0.0165128
685.385	0.0164893
685.463	0.0164683
685.541	0.0166123
685.619	0.0165653
685.697	0.0165566
685.776	0.0166460
685.854	0.0167986
685.932	0.0166093
686.010	0.0165874
686.088	0.0166417
686.166	0.0166452
686.244	0.0167776
686.322	0.0165165
686.401	0.0164699
686.479	0.0166550
686.557	0.0165263
686.635	0.0163808
686.713	0.0164236
686.791	0.0164289
686.869	0.0162915
686.947	0.0163042
687.026	0.0162064
687.104	0.0163515
687.182	0.0161289
687.260	0.0164149
687.338	0.0164113
687.416	0.0162987
687.494	0.0163147
687.572	0.0163305
687.651	0.0166158
687.729	0.0165933
687.807	0.0164493
687.885	0.0166098
687.963	0.0166787
688.041	0.0166676
688.119	0.0167838
688.197	0.0168181
688.276	0.0168364
688.354	0.0169081
688.432	0.0168538
688.510	0.0170002
688.588	0.0169289
688.666	0.0169064
688.744	0.0170020
688.822	0.0170778
688.901	0.0169202
688.979	0.0170188
689.057	0.0169395
689.135	0.0169366
689.213	0.0169489
689.291	0.0169711
689.369	0.0168417
689.447	0.0167892
689.526	0.0166844
689.604	0.0167132
689.682	0.0167007
689.760	0.0165708
689.838	0.0164919
689.916	0.0165142
689.994	0.0164085
690.072	0.0164783
690.151	0.0164443
690.229	0.0165339
690.307	0.0163771
690.385	0.0165014
690.463	0.0165286
690.541	0.0166140
690.619	0.0167177
690.697	0.0168308
690.776	0.0166658
690.854	0.0168079
690.932	0.0169258
691.010	0.0166290
691.088	0.0168153
691.166	0.0166556
691.244	0.0167870
691.322	0.0166712
691.401	0.0167812
691.479	0.0166749
691.557	0.0165651
691.635	0.0166508
691.713	0.0166500
691.791	0.0166629
691.869	0.0164726
691.947	0.0165741
692.026	0.0163966
692.104	0.0165145
692.182	0.0164796
692.260	0.0164901
692.338	0.0165659
692.416	0.0166651
692.494	0.0166949
692.572	0.0166501
692.651	0.0167566
692.729	0.0169293
692.807	0.0168353
692.885	0.0167512
692.963	0.0170526
693.041	0.0170677
693.119	0.0169356
693.197	0.0171815
693.276	0.0171783
693.354	0.0172186
693.432	0.0172707
693.510	0.0170861
693.588	0.0170840
693.666	0.0172405
693.744	0.0170036
693.822	0.0170676
693.901	0.0169578
693.979	0.0168741
694.057	0.0167767
694.135	0.0166722
694.213	0.0168046
694.291	0.0165547
694.369	0.0164755
694.447	0.0163588
694.526	0.0163637
694.604	0.0161584
694.682	0.0161418
694.760	0.0161324
694.838	0.0163225
694.916	0.0162428
694.994	0.0161754
695.072	0.0160943
695.151	0.0162827
695.229	0.0161847
695.307	0.0163623
695.385	0.0165167
695.463	0.0166688
695.541	0.0166199
695.619	0.0166116
695.697	0.0166416
695.776	0.0167661
695.854	0.0167831
695.932	0.0169431
696.010	0.0167833
696.088	0.0168282
696.166	0.0169132
696.244	0.0168852
696.322	0.0169009
696.401	0.0169492
696.479	0.0166862
696.557	0.0167560
696.635	0.0168411
696.713	0.0168700
696.791	0.0168358
696.869	0.0167628
696.947	0.0167107
697.026	0.0165882
697.104	0.0166077
697.182	0.0165923
697.260	0.0166708
697.338	0.0165963
697.416	0.0165143
697.494	0.0164448
697.572	0.0164310
697.651	0.0165370
697.729	0.0164915
697.807	0.0163708
697.885	0.0164627
697.963	0.0163783
698.041	0.0163456
698.119	0.0164916
698.197	0.0165612
698.276	0.0165575
698.354	0.0165794
698.432	0.0167858
698.510	0.0168966
698.588	0.0167822
698.666	0.0168868
698.744	0.0171705
698.822	0.0171846
698.901	0.0172021
698.979	0.0172189
699.057	0.0172607
699.135	0.0172456
699.213	0.0173701
699.291	0.0172303
699.369	0.0171149
699.447	0.0169454
699.526	0.0169027
699.604	0.0168494
699.682	0.0166895
699.760	0.0166270
699.838	0.0167524
699.916	0.0165142
699.994	0.0165472
700.072	0.0164233
700.151	0.0163393
700.229	0.0164330
700.307	0.0163583
700.385	0.0163691
700.463	0.0163331
700.541	0.0164625
700.619	0.0164251
700.697	0.0163535
700.776	0.0163320
700.854	0.0164141
700.932	0.0165559
701.010	0.0163823
701.088	0.0163391
701.166	0.0162840
701.244	0.0162006
701.322	0.0161823
701.401	0.0161366
701.479	0.0161459
701.557	0.0160083
701.635	0.0160480
701.713	0.0159245
701.791	0.0159777
701.869	0.0160107
701.947	0.0161314
702.026	0.0163084
702.104	0.0163152
702.182	0.0164651
702.260	0.0164941
702.338	0.0166944
702.416	0.0168729
702.494	0.0169657
702.572	0.0170695
702.651	0.0171318
702.729	0.0173082
702.807	0.0172250
702.885	0.0173474
702.963	0.0174249
703.041	0.0174358
703.119	0.0173164
703.197	0.0172962
703.276	0.0172527
703.354	0.0172086
703.432	0.0172039
703.510	0.0171094
703.588	0.0170178
703.666	0.0170442
703.744	0.0169226
703.822	0.0169656
703.901	0.0167622
703.979	0.0167183
704.057	0.0165909
704.135	0.0165415
704.213	0.0165536
704.291	0.0164341
704.369	0.0165290
704.447	0.0166124
704.526	0.0165557
704.604	0.0164394
704.682	0.0163454
704.760	0.0164469
704.838	0.0166454
704.916	0.0165633
704.994	0.0165945
705.072	0.0165476
705.151	0.0165388
705.229	0.0166981
705.307	0.0165489
705.385	0.0166077
705.463	0.0166525
705.541	0.0165664
705.619	0.0166269
705.697	0.0165170
705.776	0.0163977
705.854	0.0165385
705.932	0.0162774
706.010	0.0162584
706.088	0.0163002
706.166	0.0161029
706.244	0.0160641
706.322	0.0160378
706.401	0.0160358
706.479	0.0158603
706.557	0.0158667
706.635	0.0158586
706.713	0.0158353
706.791	0.0158481
706.869	0.0159341
706.947	0.0159914
707.026	0.0160078
707.104	0.0161993
707.182	0.0161954
707.260	0.0162862
707.338	0.0164342
707.416	0.0166422
707.494	0.0167674
707.572	0.0169197
707.651	0.0167914
707.729	0.0168143
707.807	0.0169495
707.885	0.0169070
707.963	0.0168784
708.041	0.0167291
708.119	0.0168167
708.197	0.0168826
708.276	0.0168663
708.354	0.0167992
708.432	0.0166802
708.510	0.0168356
708.588	0.0168649
708.666	0.0168470
708.744	0.0169655
708.822	0.0168885
708.901	0.0170581
708.979	0.0171121
709.057	0.0170866
709.135	0.0171303
709.213	0.0171094
709.291	0.0171419
709.369	0.0171460
709.447	0.0169740
709.526	0.0170324
709.604	0.0168192
709.682	0.0167696
709.760	0.0166528
709.838	0.0166439
709.916	0.0163739
709.994	0.0163603
710.072	0.0162414
710.151	0.0161490
710.229	0.0161091
710.307	0.0162611
710.385	0.0161069
710.463	0.0160361
710.541	0.0163156
710.619	0.0162002
710.697	0.0163947
710.776	0.0165144
710.854	0.0166551
710.932	0.0168184
711.010	0.0166076
711.088	0.0167928
711.166	0.0169628
711.244	0.0169337
711.322	0.0170433
711.401	0.0169727
711.479	0.0169983
711.557	0.0169982
711.635	0.0169565
711.713	0.0169141
711.791	0.0167537
711.869	0.0167430
711.947	0.0165587
712.026	0.0164187
712.104	0.0164840
712.182	0.0163332
712.260	0.0159733
712.338	0.0160104
712.416	0.0159380
712.494	0.0159503
712.572	0.0157597
712.651	0.0160139
712.729	0.0158776
712.807	0.0158627
712.885	0.0160849
712.963	0.0160521
713.041	0.0162697
713.119	0.0162943
713.197	0.0164312
713.276	0.0165858
713.354	0.0165992
713.432	0.0167679
713.510	0.0169531
713.588	0.0169390
713.666	0.0169370
713.744	0.0170631
713.822	0.0171093
713.901	0.0172511
713.979	0.0171606
714.057	0.0170658
714.135	0.0169896
714.213	0.0170030
714.291	0.0170560
714.369	0.0168815
714.447	0.0166300
714.526	0.0165697
714.604	0.0165896
714.682	0.0165291
714.760	0.0162376
714.838	0.0161040
714.916	0.0162355
714.994	0.0161792
715.072	0.0160676
715.151	0.0161665
715.229	0.0161211
715.307	0.0162511
715.385	0.0162863
715.463	0.0163330
715.541	0.0163944
715.619	0.0164774
715.697	0.0165147
715.776	0.0166279
715.854	0.0167621
715.932	0.0169260
716.010	0.0170553
716.088	0.0169404
716.166	0.0171617
716.244	0.0173341
716.322	0.0173960
716.401	0.0173957
716.479	0.0173811
716.557	0.0175134
716.635	0.0173911
716.713	0.0173901
716.791	0.0173069
716.869	0.0172629
716.947	0.0171358
717.026	0.0169654
717.104	0.0169345
717.182	0.0168266
717.260	0.0167524
717.338	0.0166025
717.416	0.0165282
717.494	0.0164295
717.572	0.0163489
717.651	0.0161557
717.729	0.0160522
717.807	0.0161314
717.885	0.0161147
717.963	0.0160987
718.041	0.0160973
718.119	0.0160667
718.197	0.0161678
718.276	0.0162734
718.354	0.0162283
718.432	0.0162869
718.510	0.0163126
718.588	0.0163502
718.666	0.0163181
718.744	0.0164225
718.822	0.0163664
718.901	0.0163603
718.979	0.0162475
719.057	0.0161527
719.135	0.0162371
719.213	0.0163524
719.291	0.0161606
719.369	0.0161430
719.447	0.0163342
719.526	0.0162586
719.604	0.0163464
719.682	0.0164411
719.760	0.0164402
719.838	0.0164084
719.916	0.0164976
719.994	0.0165908
720.072	0.0166260
720.151	0.0166879
720.229	0.0167885
720.307	0.0170103
720.385	0.0170291
720.463	0.0171290
720.541	0.0172468
720.619	0.0172757
720.697	0.0175332
720.776	0.0174273
720.854	0.0174767
720.932	0.0173985
721.010	0.0175172
721.088	0.0175669
721.166	0.0174741
721.244	0.0173151
721.322	0.0172258
721.401	0.0173181
721.479	0.0171212
721.557	0.0170000
721.635	0.0168907
721.713	0.0168045
721.791	0.0166526
721.869	0.0166788
721.947	0.0163656
722.026	0.0162933
722.104	0.0161856
722.182	0.0162940
722.260	0.0161386
722.338	0.0159228
722.416	0.0160191
722.494	0.0159109
722.572	0.0160162
722.651	0.0157879
722.729	0.0156127
722.807	0.0156799
722.885	0.0157829
722.963	0.0157734
723.041	0.0157643
723.119	0.0158050
723.197	0.0158604
723.276	0.0157603
723.354	0.0158114
723.432	0.0161010
723.510	0.0160222
723.588	0.0160591
723.666	0.0162119
723.744	0.0162522
723.822	0.0163113
723.901	0.0164104
723.979	0.0166241
724.057	0.0165776
724.135	0.0165947
724.213	0.0166931
724.291	0.0168225
724.369	0.0170323
724.447	0.0170271
724.526	0.0170127
724.604	0.0172324
724.682	0.0171704
724.760	0.0174559
724.838	0.0173725
724.916	0.0175117
724.994	0.0173929
725.072	0.0176421
725.151	0.0175668
725.229	0.0176105
725.307	0.0176365
725.385	0.0175311
725.463	0.0176022
725.541	0.0174837
725.619	0.0174353
725.697	0.0173345
725.776	0.0173127
725.854	0.0172250
725.932	0.0171088
726.010	0.0169334
726.088	0.0169801
726.166	0.0168714
726.244	0.0166557
726.322	0.0166466
726.401	0.0163809
726.479	0.0163686
726.557	0.0159724
726.635	0.0159857
726.713	0.0159845
726.791	0.0159942
726.869	0.0156236
726.947	0.0157779
727.026	0.0156566
727.104	0.0155908
727.182	0.0156172
727.260	0.0156528
727.338	0.0157130
727.416	0.0157615
727.494	0.0157346
727.572	0.0156403
727.651	0.0156589
727.729	0.0157330
727.807	0.0157623
727.885	0.0158899
727.963	0.0159504
728.041	0.0159467
728.119	0.0159830
728.197	0.0161248
728.276	0.0161591
728.354	0.0160585
728.432	0.0162441
728.510	0.0163146
728.588	0.0162636
728.666	0.0162968
728.744	0.0162949
728.822	0.0163403
728.901	0.0166957
728.979	0.0166365
729.057	0.0167239
729.135	0.0166949
729.213	0.0168993
729.291	0.0170545
729.369	0.0172864
729.447	0.0172454
729.526	0.0174285
729.604	0.0175923
729.682	0.0175431
729.760	0.0176433
729.838	0.0176187
729.916	0.0174819
729.994	0.0176522
730.072	0.0175597
730.151	0.0175340
730.229	0.0173699
730.307	0.0175698
730.385	0.0173048
730.463	0.0170130
730.541	0.0171358
730.619	0.0169531
730.697	0.0167556
730.776	0.0167156
730.854	0.0165224
730.932	0.0163847
731.010	0.0162350
731.088	0.0160573
731.166	0.0158789
731.244	0.0159260
731.322	0.0159414
731.401	0.0158053
731.479	0.0156488
731.557	0.0157241
731.635	0.0157514
731.713	0.0158833
731.791	0.0157655
731.869	0.0158753
731.947	0.0160468
732.026	0.0158878
732.104	0.0160899
732.182	0.0161241
732.260	0.0162126
732.338	0.0161627
732.416	0.0162331
732.494	0.0161863
732.572	0.0162739
732.651	0.0164558
732.729	0.0162961
732.807	0.0162490
732.885	0.0163055
732.963	0.0164695
733.041	0.0162450
733.119	0.0162849
733.197	0.0163579
733.276	0.0161911
733.354	0.0160972
733.432	0.0159441
733.510	0.0160439
733.588	0.0161880
733.666	0.0160483
733.744	0.0162053
733.822	0.0161738
733.901	0.0162308
733.979	0.0162542
734.057	0.0164352
734.135	0.0164969
734.213	0.0167773
734.291	0.0168603
734.369	0.0169803
734.447	0.0170438
734.526	0.0171695
734.604	0.0172431
734.682	0.0172311
734.760	0.0176140
734.838	0.0175222
734.916	0.0176147
734.994	0.0176899
735.072	0.0177517
735.151	0.0177157
735.229	0.0177509
735.307	0.0176881
735.385	0.0175511
735.463	0.0174685
735.541	0.0171714
735.619	0.0170091
735.697	0.0169180
735.776	0.0167682
735.854	0.0165325
735.932	0.0164690
736.010	0.0162167
736.088	0.0159824
736.166	0.0158863
736.244	0.0157320
736.322	0.0156409
736.401	0.0156980
736.479	0.0155806
736.557	0.0155229
736.635	0.0155045
736.713	0.0156607
736.791	0.0155903
736.869	0.0155340
736.947	0.0155402
737.026	0.0157438
737.104	0.0156658
737.182	0.0158325
737.260	0.0158184
737.338	0.0158562
737.416	0.0159016
737.494	0.0160239
737.572	0.0159724
737.651	0.0159571
737.729	0.0159474
737.807	0.0159395
737.885	0.0159760
737.963	0.0160073
738.041	0.0162370
738.119	0.0160741
738.197	0.0162125
738.276	0.0163803
738.354	0.0166110
738.432	0.0165868
738.510	0.0166748
738.588	0.0168945
738.666	0.0170230
738.744	0.0169598
738.822	0.0171098
738.901	0.0171590
738.979	0.0172842
739.057	0.0174222
739.135	0.0173169
739.213	0.0175817
739.291	0.0174830
739.369	0.0175458
739.447	0.0175863
739.526	0.0176356
739.604	0.0175612
739.682	0.0174422
739.760	0.0174332
739.838	0.0173943
739.916	0.0172988
739.994	0.0170602
740.072	0.0169697
740.151	0.0169698
740.229	0.0168917
740.307	0.0168360
740.385	0.0166535
740.463	0.0164119
740.541	0.0164185
740.619	0.0162543
740.697	0.0162393
740.776	0.0162819
740.854	0.0161474
740.932	0.0160159
741.010	0.0159656
741.088	0.0160655
741.166	0.0161392
741.244	0.0159557
741.322	0.0159488
741.401	0.0159644
741.479	0.0158856
741.557	0.0161083
741.635	0.0159988
741.713	0.0160197
741.791	0.0160016
741.869	0.0161681
741.947	0.0160831
742.026	0.0163037
742.104	0.0160763
742.182	0.0162518
742.260	0.0161655
742.338	0.0160725
742.416	0.0159637
742.494	0.0162399
742.572	0.0161369
742.651	0.0159412
742.729	0.0161189
742.807	0.0160162
742.885	0.0160649
742.963	0.0162823
743.041	0.0164969
743.119	0.0164584
743.197	0.0164349
743.276	0.0167455
743.354	0.0169093
743.432	0.0168562
743.510	0.0169815
743.588	0.0170004
743.666	0.0170214
743.744	0.0170526
743.822	0.0170387
743.901	0.0169284
743.979	0.0170255
744.057	0.0170911
744.135	0.0170119
744.213	0.0170950
744.291	0.0170147
744.369	0.0169880
744.447	0.0170200
744.526	0.0169846
744.604	0.0168288
744.682	0.0168724
744.760	0.0165978
744.838	0.0166267
744.916	0.0166428
744.994	0.0164589
745.072	0.0165359
745.151	0.0163360
745.229	0.0161684
745.307	0.0160440
745.385	0.0160706
745.463	0.0158768
745.541	0.0160313
745.619	0.0158971
745.697	0.0158981
745.776	0.0159688
745.854	0.0159134
745.932	0.0161179
746.010	0.0161314
746.088	0.0160537
746.166	0.0163416
746.244	0.0164323
746.322	0.0164079
746.401	0.0165076
746.479	0.0165868
746.557	0.0166465
746.635	0.0168240
746.713	0.0169994
746.791	0.0168963
746.869	0.0169714
746.947	0.0171640
747.026	0.0170963
747.104	0.0170575
747.182	0.0171191
747.260	0.0173156
747.338	0.0172940
747.416	0.0174616
747.494	0.0172299
747.572	0.0172415
747.651	0.0171872
747.729	0.0171577
747.807	0.0172274
747.885	0.0170570
747.963	0.0169958
748.041	0.0167937
748.119	0.0167078
748.197	0.0164735
748.276	0.0162786
748.354	0.0160757
748.432	0.0159548
748.510	0.0157368
748.588	0.0156280
748.666	0.0157426
748.744	0.0155573
748.822	0.0154430
748.901	0.0155539
748.979	0.0154514
749.057	0.0155458
749.135	0.0158096
749.213	0.0157684
749.291	0.0159733
749.369	0.0162077
749.447	0.0163511
749.526	0.0164504
749.604	0.0165426
749.682	0.0167588
749.760	0.0168156
749.838	0.0168449
749.916	0.0170707
749.994	0.0170738
750.072	0.0170934
750.151	0.0171875
750.229	0.0171178
750.307	0.0171420
750.385	0.0172326
750.463	0.0173591
750.541	0.0173215
750.619	0.0172037
750.697	0.0171764
750.776	0.0173183
750.854	0.0171326
750.932	0.0171725
751.010	0.0170821
751.088	0.0169316
751.166	0.0168182
751.244	0.0169742
751.322	0.0169006
751.401	0.0167388
751.479	0.0166801
751.557	0.0165440
751.635	0.0164414
751.713	0.0163690
751.791	0.0164639
751.869	0.0163771
751.947	0.0163840
752.026	0.0163615
752.104	0.0163852
752.182	0.0164259
752.260	0.0162869
752.338	0.0163474
752.416	0.0162857
752.494	0.0161983
752.572	0.0162782
752.651	0.0163256
752.729	0.0162716
752.807	0.0164140
752.885	0.0163004
752.963	0.0163726
753.041	0.0165199
753.119	0.0163436
753.197	0.0163303
753.276	0.0164587
753.354	0.0164638
753.432	0.0166460
753.510	0.0165983
753.588	0.0165874
753.666	0.0164884
753.744	0.0164920
753.822	0.0165266
753.901	0.0163986
753.979	0.0164133
754.057	0.0165948
754.135	0.0164174
754.213	0.0164268
754.291	0.0166272
754.369	0.0164450
754.447	0.0164954
754.526	0.0165361
754.604	0.0166221
754.682	0.0165811
754.760	0.0166637
754.838	0.0165566
754.916	0.0166009
754.994	0.0165190
755.072	0.0166775
755.151	0.0164754
755.229	0.0164059
755.307	0.0164470
755.385	0.0164070
755.463	0.0164149
755.541	0.0163280
755.619	0.0163390
755.697	0.0163590
755.776	0.0164255
755.854	0.0164494
755.932	0.0163713
756.010	0.0162260
756.088	0.0163614
756.166	0.0164287
756.244	0.0165623
756.322	0.0166905
756.401	0.0167319
756.479	0.0167126
756.557	0.0169701
756.635	0.0169670
756.713	0.0170221
756.791	0.0171593
756.869	0.0171013
756.947	0.0170943
757.026	0.0171395
757.104	0.0172832
757.182	0.0171820
757.260	0.0170190
757.338	0.0170404
757.416	0.0168732
757.494	0.0167339
757.572	0.0166166
757.651	0.0166204
757.729	0.0166034
757.807	0.0163028
757.885	0.0162666
757.963	0.0161015
758.041	0.0160837
758.119	0.0160634
758.197	0.0159840
758.276	0.0158791
758.354	0.0160012
758.432	0.0159410
758.510	0.0159548
758.588	0.0159868
758.666	0.0160757
758.744	0.0159781
758.822	0.0162428
758.901	0.0162444
758.979	0.0164227
759.057	0.0164277
759.135	0.0164029
759.213	0.0165621
759.291	0.0166725
759.369	0.0166367
759.447	0.0168087
759.526	0.0167854
759.604	0.0168044
759.682	0.0166182
759.760	0.0167574
759.838	0.0168160
759.916	0.0166979
759.994	0.0167542
760.072	0.0165033
760.151	0.0166629
760.229	0.0165172
760.307	0.0164278
760.385	0.0164773
760.463	0.0165480
760.541	0.0164714
760.619	0.0164356
760.697	0.0165110
760.776	0.0163125
760.854	0.0164127
760.932	0.0164053
761.010	0.0165276
761.088	0.0165843
761.166	0.0166157
761.244	0.0167322
761.322	0.0167882
761.401	0.0166612
761.479	0.0167172
761.557	0.0168629
761.635	0.0169216
761.713	0.0169857
761.791	0.0170563
761.869	0.0170543
761.947	0.0169692
762.026	0.0170374
762.104	0.0170975
762.182	0.0171281
762.260	0.0172215
762.338	0.0173421
762.416	0.0171052
762.494	0.0171844
762.572	0.0170179
762.651	0.0172352
762.729	0.0170972
762.807	0.0171352
762.885	0.0171125
762.963	0.0170256
763.041	0.0169534
763.119	0.0168833
763.197	0.0168250
763.276	0.0165953
763.354	0.0166388
763.432	0.0165176
763.510	0.0163452
763.588	0.0163702
763.666	0.0162947
763.744	0.0161128
763.822	0.0160190
763.901	0.0160609
763.979	0.0160637
764.057	0.0158724
764.135	0.0160203
764.213	0.0160390
764.291	0.0160296
764.369	0.0160101
764.447	0.0160209
764.526	0.0161275
764.604	0.0160966
764.682	0.0161589
764.760	0.0162431
764.838	0.0162337
764.916	0.0163921
764.994	0.0165122
765.072	0.0163530
765.151	0.0164653
765.229	0.0165139
765.307	0.0164999
765.385	0.0165343
765.463	0.0166429
765.541	0.0165791
765.619	0.0167091
765.697	0.0165639
765.776	0.0165432
765.854	0.0165021
765.932	0.0165136
766.010	0.0164644
766.088	0.0165339
766.166	0.0165588
766.244	0.0165570
766.322	0.0164953
766.401	0.0166348
766.479	0.0166624
766.557	0.0164807
766.635	0.0165376
766.713	0.0165553
766.791	0.0165948
766.869	0.0166589
766.947	0.0166989
767.026	0.0167688
767.104	0.0167995
767.182	0.0168853
767.260	0.0168542
767.338	0.0169280
767.416	0.0169491
767.494	0.0169977
767.572	0.0169979
767.651	0.0171120
767.729	0.0171390
767.807	0.0170013
767.885	0.0169437
767.963	0.0169745
768.041	0.0169479
768.119	0.0169440
768.197	0.0168468
768.276	0.0168486
768.354	0.0169301
768.432	0.0167483
768.510	0.0166967
768.588	0.0166393
768.666	0.0166427
768.744	0.0167551
768.822	0.0167500
768.901	0.0165504
768.979	0.0166515
769.057	0.0166187
769.135	0.0166289
769.213	0.0166202
769.291	0.0166844
769.369	0.0165976
769.447	0.0167298
769.526	0.0167230
769.604	0.0166942
769.682	0.0165714
769.760	0.0166167
769.838	0.0164948
769.916	0.0167054
769.994	0.0166371
770.072	0.0163847
770.151	0.0164066
770.229	0.0166010
770.307	0.0163110
770.385	0.0163559
770.463	0.0162589
770.541	0.0164045
770.619	0.0163504
770.697	0.0162922
770.776	0.0162161
770.854	0.0162447
770.932	0.0163075
771.010	0.0163499
771.088	0.0163890
771.166	0.0164333
771.244	0.0166487
771.322	0.0167973
771.401	0.0166530
771.479	0.0166791
771.557	0.0166489
771.635	0.0167020
771.713	0.0166579
771.791	0.0167503
771.869	0.0167833
771.947	0.0167887
772.026	0.0166395
772.104	0.0167849
772.182	0.0167722
772.260	0.0166727
772.338	0.0166309
772.416	0.0167326
772.494	0.0167329
772.572	0.0167116
772.651	0.0166739
772.729	0.0167946
772.807	0.0166885
772.885	0.0166454
772.963	0.0168001
773.041	0.0167259
773.119	0.0168529
773.197	0.0168999
773.276	0.0168622
773.354	0.0167926
773.432	0.0168511
773.510	0.0169202
773.588	0.0167696
773.666	0.0168053
773.744	0.0168825
773.822	0.0169306
773.901	0.0168555
773.979	0.0166636
774.057	0.0167341
774.135	0.0166712
774.213	0.0166772
774.291	0.0165118
774.369	0.0165501
774.447	0.0166434
774.526	0.0163577
774.604	0.0163736
774.682	0.0164235
774.760	0.0165022
774.838	0.0165347
774.916	0.0165270
774.994	0.0165687
775.072	0.0165607
775.151	0.0165089
775.229	0.0166989
775.307	0.0167945
775.385	0.0168170
775.463	0.0167293
775.541	0.0168063
775.619	0.0169501
775.697	0.0168032
775.776	0.0168390
775.854	0.0168204
775.932	0.0168001
776.010	0.0167464
776.088	0.0169241
776.166	0.0168092
776.244	0.0168311
776.322	0.0166096
776.401	0.0166051
776.479	0.0165653
776.557	0.0164550
776.635	0.0164717
776.713	0.0163172
776.791	0.0163504
776.869	0.0162376
776.947	0.0161945
777.026	0.0162643
777.104	0.0163209
777.182	0.0161110
777.260	0.0161624
777.338	0.0162346
777.416	0.0160848
777.494	0.0162127
777.572	0.0162227
777.651	0.0161909
777.729	0.0163219
777.807	0.0163340
777.885	0.0163492
777.963	0.0164738
778.041	0.0165408
778.119	0.0166675
778.197	0.0166237
778.276	0.0167216
778.354	0.0169170
778.432	0.0168858
778.510	0.0169712
778.588	0.0169628
778.666	0.0170651
778.744	0.0171171
778.822	0.0171293
778.901	0.0170913
778.979	0.0173144
779.057	0.0171278
779.135	0.0171238
779.213	0.0171771
779.291	0.0171030
779.369	0.0168578
779.447	0.0169090
779.526	0.0168201
779.604	0.0169254
779.682	0.0166278
779.760	0.0165972
779.838	0.0166337
779.916	0.0164199
779.994	0.0164429
780.072	0.0162954
780.151	0.0163615
780.229	0.0162858
780.307	0.0161037
780.385	0.0159768
780.463	0.0161687
780.541	0.0160114
780.619	0.0160695
780.697	0.0162030
780.776	0.0160754
780.854	0.0162237
780.932	0.0162600
781.010	0.0162247
781.088	0.0164209
781.166	0.0163370
781.244	0.0163217
781.322	0.0166219
781.401	0.0166835
781.479	0.0165612
781.557	0.0168215
781.635	0.0168253
781.713	0.0169553
781.791	0.0168958
781.869	0.0170864
781.947	0.0170902
782.026	0.0171693
782.104	0.0170296
782.182	0.0171349
782.260	0.0172092
782.338	0.0172388
782.416	0.0171323
782.494	0.0171442
782.572	0.0171758
782.651	0.0171812
782.729	0.0170353
782.807	0.0168954
782.885	0.0167782
782.963	0.0167650
783.041	0.0167639
783.119	0.0166340
783.197	0.0164167
783.276	0.0163981
783.354	0.0164510
783.432	0.0162217
783.510	0.0160484
783.588	0.0160685
783.666	0.0159542
783.744	0.0159518
783.822	0.0160451
783.901	0.0162504
783.979	0.0162453
784.057	0.0161578
784.135	0.0162338
784.213	0.0161858
784.291	0.0164326
784.369	0.0164355
784.447	0.0163448
784.526	0.0163872
784.604	0.0167265
784.682	0.0167270
784.760	0.0166935
784.838	0.0166930
784.916	0.0167816
784.994	0.0167682
785.072	0.0169742
785.151	0.0169599
785.229	0.0169470
785.307	0.0170020
785.385	0.0170491
785.463	0.0170754
785.541	0.0171204
785.619	0.0169672
785.697	0.0170469
785.776	0.0169045
785.854	0.0169227
785.932	0.0167621
786.010	0.0168034
786.088	0.0165343
786.166	0.0165960
786.244	0.0167394
786.322	0.0165254
786.401	0.0165635
786.479	0.0164332
786.557	0.0165601
786.635	0.0166164
786.713	0.0166087
786.791	0.0166358
786.869	0.0165041
786.947	0.0164523
787.026	0.0165708
787.104	0.0165476
787.182	0.0166534
787.260	0.0164780
787.338	0.0164398
787.416	0.0166142
787.494	0.0166380
787.572	0.0165913
787.651	0.0166547
787.729	0.0166364
787.807	0.0165721
787.885	0.0166563
787.963	0.0167403
788.041	0.0166460
788.119	0.0166957
788.197	0.0166002
788.276	0.0167219
788.354	0.0167406
788.432	0.0167689
788.510	0.0167077
788.588	0.0166814
788.666	0.0166816
788.744	0.0166376
788.822	0.0166344
788.901	0.0166535
788.979	0.0167213
789.057	0.0165999
789.135	0.0166472
789.213	0.0165733
789.291	0.0164539
789.369	0.0164777
789.447	0.0164642
789.526	0.0163491
789.604	0.0164556
789.682	0.0164011
789.760	0.0164008
789.838	0.0165204
789.916	0.0164518
789.994	0.0163307
790.072	0.0164599
790.151	0.0163425
790.229	0.0165076
790.307	0.0165997
790.385	0.0165562
790.463	0.0165759
790.541	0.0166991
790.619	0.0167207
790.697	0.0167836
790.776	0.0169389
790.854	0.0167427
790.932	0.0167842
791.010	0.0168777
791.088	0.0168633
791.166	0.0171049
791.244	0.0169804
791.322	0.0169117
791.401	0.0169676
791.479	0.0168913
791.557	0.0167102
791.635	0.0168656
791.713	0.0167640
791.791	0.0166422
791.869	0.0166402
791.947	0.0166780
792.026	0.0164828
792.104	0.0165383
792.182	0.0166006
792.260	0.0164792
792.338	0.0164388
792.416	0.0164456
792.494	0.0164909
792.572	0.0165577
792.651	0.0164990
792.729	0.0164539
792.807	0.0164217
792.885	0.0164154
792.963	0.0164188
793.041	0.0164583
793.119	0.0165346
793.197	0.0165503
793.276	0.0164561
793.354	0.0163631
793.432	0.0164790
793.510	0.0165252
793.588	0.0166090
793.666	0.0165733
793.744	0.0165981
793.822	0.0166656
793.901	0.0166015
793.979	0.0166754
794.057	0.0166766
794.135	0.0168753
794.213	0.0167560
794.291	0.0166476
794.369	0.0168552
794.447	0.0167876
794.526	0.0167272
794.604	0.0167881
794.682	0.0168214
794.760	0.0166347
794.838	0.0166081
794.916	0.0167092
794.994	0.0167647
795.072	0.0167405
795.151	0.0165606
795.229	0.0164782
795.307	0.0164901
795.385	0.0165277
795.463	0.0166079
795.541	0.0165273
795.619	0.0165285
795.697	0.0164812
795.776	0.0164441
795.854	0.0164795
795.932	0.0164278
796.010	0.0164623
796.088	0.0166012
796.166	0.0165276
796.244	0.0164478
796.322	0.0164764
796.401	0.0164382
796.479	0.0165984
796.557	0.0166237
796.635	0.0166388
796.713	0.0167864
796.791	0.0166538
796.869	0.0166214
796.947	0.0167282
797.026	0.0165806
797.104	0.0166296
797.182	0.0164974
797.260	0.0166448
797.338	0.0164648
797.416	0.0166535
797.494	0.0163781
797.572	0.0163607
797.651	0.0165507
797.729	0.0164851
797.807	0.0164285
797.885	0.0164774
797.963	0.0163984
798.041	0.0162954
798.119	0.0164011
798.197	0.0164386
798.276	0.0162612
798.354	0.0163988
798.432	0.0163946
798.510	0.0163187
798.588	0.0162975
798.666	0.0164330
798.744	0.0164843
798.822	0.0164552
798.901	0.0164808
798.979	0.0163952
799.057	0.0164410
799.135	0.0166214
799.213	0.0165264
799.291	0.0164493
799.369	0.0165611
799.447	0.0166212
799.526	0.0167167
799.604	0.0165173
799.682	0.0164039
799.760	0.0166944
799.838	0.0166624
799.916	0.0165897
799.994	0.0166212
800.072	0.0166404
800.151	0.0166837
800.229	0.0167129
800.307	0.0167838
800.385	0.0167674
800.463	0.0167730
800.541	0.0167104
800.619	0.0166835
800.697	0.0167316
800.776	0.0166262
800.854	0.0166017
800.932	0.0165712
801.010	0.0166109
801.088	0.0164633
801.166	0.0163923
801.244	0.0164730
801.322	0.0164685
801.401	0.0163900
801.479	0.0163068
801.557	0.0162534
801.635	0.0163966
801.713	0.0163667
801.791	0.0164938
801.869	0.0163951
801.947	0.0163539
802.026	0.0163438
802.104	0.0165041
802.182	0.0166985
802.260	0.0165778
802.338	0.0165276
802.416	0.0167184
802.494	0.0167535
802.572	0.0168293
802.651	0.0167226
802.729	0.0166915
802.807	0.0168107
802.885	0.0168429
802.963	0.0169180
803.041	0.0169263
803.119	0.0169308
803.197	0.0168625
803.276	0.0168509
803.354	0.0166928
803.432	0.0167626
803.510	0.0167831
803.588	0.0166462
803.666	0.0167266
803.744	0.0164290
803.822	0.0166285
803.901	0.0167093
803.979	0.0165289
804.057	0.0165414
804.135	0.0165073
804.213	0.0163219
804.291	0.0163921
804.369	0.0165371
804.447	0.0165025
804.526	0.0163717
804.604	0.0163535
804.682	0.0164233
804.760	0.0164059
804.838	0.0164161
804.916	0.0164735
804.994	0.0164027
805.072	0.0164214
805.151	0.0164085
805.229	0.0165462
805.307	0.0165623
805.385	0.0165892
805.463	0.0165959
805.541	0.0166050
805.619	0.0166914
805.697	0.0166371
805.776	0.0166827
805.854	0.0168114
805.932	0.0169576
806.010	0.0168212
806.088	0.0167783
806.166	0.0168465
806.244	0.0168927
806.322	0.0168970
806.401	0.0169801
806.479	0.0168329
806.557	0.0168606
806.635	0.0167178
806.713	0.0168536
806.791	0.0167887
806.869	0.0168347
806.947	0.0167637
807.026	0.0165996
807.104	0.0167076
807.182	0.0166519
807.260	0.0166328
807.338	0.0166137
807.416	0.0165068
807.494	0.0164454
807.572	0.0165444
807.651	0.0165462
807.729	0.0165961
807.807	0.0164983
807.885	0.0164485
807.963	0.0165176
808.041	0.0164089
808.119	0.0165669
808.197	0.0165172
808.276	0.0166622
808.354	0.0166151
808.432	0.0166289
808.510	0.0166360
808.588	0.0166753
808.666	0.0168030
808.744	0.0167905
808.822	0.0169186
808.901	0.0168380
808.979	0.0168118
809.057	0.0168700
809.135	0.0167721
809.213	0.0168955
809.291	0.0169353
809.369	0.0167686
809.447	0.0168774
809.526	0.0167811
809.604	0.0167242
809.682	0.0168229
809.760	0.0167472
809.838	0.0168314
809.916	0.0167065
809.994	0.0166910
810.072	0.0168416
810.151	0.0167101
810.229	0.0167173
810.307	0.0166033
810.385	0.0167455
810.463	0.0166982
810.541	0.0165788
810.619	0.0165213
810.697	0.0165385
810.776	0.0165292
810.854	0.0165470
810.932	0.0165498
811.010	0.0165411
811.088	0.0165253
811.166	0.0165822
811.244	0.0164140
811.322	0.0164526
811.401	0.0165170
811.479	0.0164826
811.557	0.0164935
811.635	0.0166518
811.713	0.0165489
811.791	0.0165361
811.869	0.0165400
811.947	0.0165308
812.026	0.0165359
812.104	0.0164154
812.182	0.0164559
812.260	0.0165965
812.338	0.0164539
812.416	0.0165154
812.494	0.0166080
812.572	0.0165237
812.651	0.0165090
812.729	0.0167441
812.807	0.0165739
812.885	0.0164483
812.963	0.0166992
813.041	0.0166807
813.119	0.0166721
813.197	0.0165148
813.276	0.0164531
813.354	0.0166296
813.432	0.0166171
813.510	0.0166376
813.588	0.0165250
813.666	0.0165045
813.744	0.0166328
813.822	0.0164804
813.901	0.0165823
813.979	0.0165303
814.057	0.0165297
814.135	0.0166947
814.213	0.0168269
814.291	0.0165641
814.369	0.0166489
814.447	0.0166451
814.526	0.0167730
814.604	0.0167231
814.682	0.0165793
814.760	0.0166035
814.838	0.0166478
814.916	0.0167815
814.994	0.0166068
815.072	0.0166555
815.151	0.0164980
815.229	0.0166301
815.307	0.0164553
815.385	0.0164880
815.463	0.0164548
815.541	0.0164909
815.619	0.0165127
815.697	0.0163545
815.776	0.0163914
815.854	0.0163158
815.932	0.0163370
816.010	0.0162202
816.088	0.0163055
816.166	0.0163033
816.244	0.0163433
816.322	0.0162412
816.401	0.0163036
816.479	0.0163242
816.557	0.0164353
816.635	0.0164221
816.713	0.0166096
816.791	0.0166002
816.869	0.0165812
816.947	0.0166215
817.026	0.0165777
817.104	0.0166631
817.182	0.0167612
817.260	0.0166850
817.338	0.0166933
817.416	0.0168488
817.494	0.0167270
817.572	0.0167785
817.651	0.0168111
817.729	0.0168653
817.807	0.0166348
817.885	0.0167734
817.963	0.0167128
818.041	0.0167635
818.119	0.0166087
818.197	0.0168710
818.276	0.0167779
818.354	0.0166554
818.432	0.0165874
818.510	0.0165092
818.588	0.0166618
818.666	0.0167249
818.744	0.0166128
818.822	0.0166206
818.901	0.0164771
818.979	0.0164646
819.057	0.0164313
819.135	0.0164516
819.213	0.0164565
819.291	0.0163380
819.369	0.0163752
819.447	0.0164074
819.526	0.0163116
819.604	0.0163773
819.682	0.0162821
819.760	0.0164119
819.838	0.0163531
819.916	0.0164245
819.994	0.0164957
820.072	0.0163385
820.151	0.0164031
820.229	0.0164082
820.307	0.0165282
820.385	0.0165337
820.463	0.0166727
820.541	0.0165760
820.619	0.0166283
820.697	0.0165549
820.776	0.0166506
820.854	0.0168382
820.932	0.0168407
821.010	0.0166463
821.088	0.0167728
821.166	0.0168124
821.244	0.0166993
821.322	0.0166460
821.401	0.0166448
821.479	0.0166373
821.557	0.0166955
821.635	0.0167996
821.713	0.0165284
821.791	0.0166106
821.869	0.0167330
821.947	0.0166232
822.026	0.0167039
822.104	0.0165812
822.182	0.0165336
822.260	0.0166901
822.338	0.0166447
822.416	0.0166389
822.494	0.0166375
822.572	0.0165459
822.651	0.0165580
822.729	0.0164998
822.807	0.0167511
822.885	0.0166224
822.963	0.0164892
823.041	0.0165365
823.119	0.0165202
823.197	0.0166019
823.276	0.0163721
823.354	0.0164954
823.432	0.0164662
823.510	0.0163864
823.588	0.0165002
823.666	0.0165423
823.744	0.0164365
823.822	0.0165072
823.901	0.0163641
823.979	0.0165116
824.057	0.0165971
824.135	0.0165134
824.213	0.0163941
824.291	0.0165186
824.369	0.0166068
824.447	0.0166621
824.526	0.0165821
824.604	0.0163669
824.682	0.0165088
824.760	0.0165189
824.838	0.0164064
824.916	0.0163946
824.994	0.0164363
825.072	0.0163840
825.151	0.0165620
825.229	0.0163847
825.307	0.0163878
825.385	0.0162473
825.463	0.0164522
825.541	0.0163599
825.619	0.0165300
825.697	0.0167440
825.776	0.0166492
825.854	0.0166599
825.932	0.0166401
826.010	0.0166914
826.088	0.0167830
826.166	0.0167410
826.244	0.0166971
826.322	0.0169344
826.401	0.0167223
826.479	0.0169794
826.557	0.0169234
826.635	0.0169412
826.713	0.0169366
826.791	0.0170012
826.869	0.0170152
826.947	0.0169048
827.026	0.0169792
827.104	0.0169088
827.182	0.0170793
827.260	0.0169972
827.338	0.0170293
827.416	0.0169533
827.494	0.0169188
827.572	0.0168912
827.651	0.0167953
827.729	0.0168661
827.807	0.0168492
827.885	0.0167574
827.963	0.0167219
828.041	0.0168076
828.119	0.0167189
828.197	0.0165544
828.276	0.0166077
828.354	0.0165173
828.432	0.0167977
828.510	0.0166737
828.588	0.0164822
828.666	0.0164108
828.744	0.0162990
828.822	0.0165109
828.901	0.0164464
828.979	0.0164203
829.057	0.0163501
829.135	0.0163535
829.213	0.0162966
829.291	0.0164384
829.369	0.0164545
829.447	0.0163123
829.526	0.0163727
829.604	0.0163809
829.682	0.0165528
829.760	0.0167241
829.838	0.0165498
829.916	0.0166634
829.994	0.0164772
830.072	0.0165047
830.151	0.0167915
830.229	0.0167223
830.307	0.0166236
830.385	0.0167499
830.463	0.0167738
830.541	0.0168016
830.619	0.0168232
830.697	0.0168161
830.776	0.0167945
830.854	0.0168943
830.932	0.0167707
831.010	0.0170110
831.088	0.0167248
831.166	0.0168558
831.244	0.0168912
831.322	0.0168806
831.401	0.0168507
831.479	0.0168896
831.557	0.0168255
831.635	0.0168139
831.713	0.0169312
831.791	0.0169519
831.869	0.0168176
831.947	0.0167767
832.026	0.0167242
832.104	0.0168598
832.182	0.0167970
832.260	0.0168736
832.338	0.0167907
832.416	0.0166106
832.494	0.0167659
832.572	0.0166868
832.651	0.0166406
832.729	0.0164814
832.807	0.0164943
832.885	0.0166416
832.963	0.0164419
833.041	0.0164613
833.119	0.0165788
833.197	0.0165887
833.276	0.0165601
833.354	0.0164432
833.432	0.0164367
833.510	0.0163541
833.588	0.0164583
833.666	0.0163596
833.744	0.0163099
833.822	0.0163817
833.901	0.0163586
833.979	0.0164306
834.057	0.0163708
834.135	0.0163390
834.213	0.0163184
834.291	0.0164301
834.369	0.0162567
834.447	0.0163678
834.526	0.0164380
834.604	0.0163834
834.682	0.0163148
834.760	0.0164131
834.838	0.0164229
834.916	0.0164709
834.994	0.0166673
835.072	0.0165247
835.151	0.0165672
835.229	0.0165810
835.307	0.0167050
835.385	0.0167104
835.463	0.0168033
835.541	0.0168452
835.619	0.0168971
835.697	0.0169006
835.776	0.0169075
835.854	0.0169769
835.932	0.0167791
836.010	0.0169246
836.088	0.0168954
836.166	0.0168552
836.244	0.0168369
836.322	0.0168014
836.401	0.0168368
836.479	0.0167800
836.557	0.0166461
836.635	0.0167049
836.713	0.0166069
836.791	0.0165016
836.869	0.0163876
836.947	0.0165079
837.026	0.0164163
837.104	0.0164518
837.182	0.0162574
837.260	0.0163523
837.338	0.0163969
837.416	0.0162475
837.494	0.0162561
837.572	0.0161939
837.651	0.0161994
837.729	0.0161551
837.807	0.0162335
837.885	0.0161576
837.963	0.0162466
838.041	0.0162965
838.119	0.0163573
838.197	0.0163670
838.276	0.0162738
838.354	0.0163333
838.432	0.0164021
838.510	0.0163734
838.588	0.0163771
838.666	0.0164828
838.744	0.0165810
838.822	0.0164280
838.901	0.0164605
838.979	0.0164938
839.057	0.0166992
839.135	0.0166707
839.213	0.0166613
839.291	0.0166450
839.369	0.0166125
839.447	0.0166895
839.526	0.0166329
839.604	0.0167377
839.682	0.0166776
839.760	0.0167111
839.838	0.0167212
839.916	0.0166785
839.994	0.0164851
840.072	0.0166585
840.151	0.0165955
840.229	0.0165758
840.307	0.0167188
840.385	0.0167228
840.463	0.0166013
840.541	0.0166039
840.619	0.0165540
840.697	0.0165839
840.776	0.0165868
840.854	0.0164341
840.932	0.0166277
841.010	0.0165380
841.088	0.0164880
841.166	0.0167267
841.244	0.0165821
841.322	0.0167165
841.401	0.0165961
841.479	0.0166773
841.557	0.0167160
841.635	0.0166740
841.713	0.0165547
841.791	0.0166512
841.869	0.0166241
841.947	0.0166479
842.026	0.0166572
842.104	0.0166854
842.182	0.0166805
842.260	0.0167934
842.338	0.0166870
842.416	0.0166991
842.494	0.0165141
842.572	0.0166892
842.651	0.0166348
842.729	0.0165639
842.807	0.0166843
842.885	0.0165354
842.963	0.0165542
843.041	0.0165832
843.119	0.0166477
843.197	0.0166338
843.276	0.0165966
843.354	0.0166251
843.432	0.0164849
843.510	0.0165074
843.588	0.0165322
843.666	0.0166067
843.744	0.0164893
843.822	0.0164688
843.901	0.0164103
843.979	0.0163149
844.057	0.0164877
844.135	0.0164056
844.213	0.0164596
844.291	0.0163850
844.369	0.0164416
844.447	0.0163193
844.526	0.0163803
844.604	0.0164417
844.682	0.0164071
844.760	0.0163865
844.838	0.0164428
844.916	0.0164211
844.994	0.0164358
845.072	0.0164597
845.151	0.0164805
845.229	0.0165018
845.307	0.0165479
845.385	0.0164960
845.463	0.0163489
845.541	0.0165257
845.619	0.0165643
845.697	0.0164910
845.776	0.0165131
845.854	0.0165929
845.932	0.0163731
846.010	0.0166758
846.088	0.0166050
846.166	0.0165236
846.244	0.0165121
846.322	0.0164730
846.401	0.0164523
846.479	0.0163353
846.557	0.0163763
846.635	0.0165578
846.713	0.0165791
846.791	0.0165411
846.869	0.0165977
846.947	0.0165423
847.026	0.0166140
847.104	0.0166295
847.182	0.0166875
847.260	0.0166892
847.338	0.0166976
847.416	0.0168152
847.494	0.0167893
847.572	0.0168835
847.651	0.0169583
847.729	0.0167933
847.807	0.0168745
847.885	0.0169120
847.963	0.0169227
848.041	0.0169112
848.119	0.0169410
848.197	0.0168217
848.276	0.0168799
848.354	0.0169212
848.432	0.0168556
848.510	0.0169460
848.588	0.0167243
848.666	0.0166787
848.744	0.0168748
848.822	0.0169099
848.901	0.0167352
848.979	0.0165822
849.057	0.0165907
849.135	0.0166084
849.213	0.0166580
849.291	0.0165918
849.369	0.0165282
849.447	0.0163948
849.526	0.0164812
849.604	0.0164084
849.682	0.0163469
849.760	0.0164227
849.838	0.0165019
849.916	0.0162938
849.994	0.0162155
850.072	0.0164614
850.151	0.0164193
850.229	0.0163586
850.307	0.0162694
850.385	0.0164555
850.463	0.0164440
850.541	0.0164441
850.619	0.0165088
850.697	0.0163652
850.776	0.0165645
850.854	0.0164484
850.932	0.0165359
851.010	0.0165452
851.088	0.0164800
851.166	0.0165577
851.244	0.0166573
851.322	0.0165886
851.401	0.0166604
851.479	0.0165845
851.557	0.0166120
851.635	0.0166638
851.713	0.0166061
851.791	0.0166151
851.869	0.0167324
851.947	0.0166378
852.026	0.0165993
852.104	0.0168044
852.182	0.0167616
852.260	0.0167938
852.338	0.0166517
852.416	0.0167876
852.494	0.0168322
852.572	0.0167623
852.651	0.0167854
852.729	0.0166380
852.807	0.0167407
852.885	0.0166796
852.963	0.0167198
853.041	0.0167828
853.119	0.0167374
853.197	0.0166410
853.276	0.0166771
853.354	0.0165355
853.432	0.0166790
853.510	0.0167377
853.588	0.0166705
853.666	0.0166394
853.744	0.0166121
853.822	0.0165939
853.901	0.0167008
853.979	0.0165837
854.057	0.0166187
854.135	0.0166530
854.213	0.0166625
854.291	0.0165887
854.369	0.0166068
854.447	0.0166512
854.526	0.0165925
854.604	0.0166890
854.682	0.0167113
854.760	0.0165968
854.838	0.0164980
854.916	0.0166440
854.994	0.0165952
855.072	0.0164851
855.151	0.0163694
855.229	0.0165457
855.307	0.0164394
855.385	0.0164862
855.463	0.0165015
855.541	0.0163995
855.619	0.0164548
855.697	0.0164978
855.776	0.0164780
855.854	0.0165131
855.932	0.0164289
856.010	0.0165125
856.088	0.0164773
856.166	0.0165405
856.244	0.0164053
856.322	0.0166352
856.401	0.0165170
856.479	0.0165655
856.557	0.0166327
856.635	0.0166724
856.713	0.0165369
856.791	0.0166240
856.869	0.0164899
856.947	0.0164756
857.026	0.0165312
857.104	0.0165570
857.182	0.0165698
857.260	0.0164982
857.338	0.0166412
857.416	0.0165520
857.494	0.0166179
857.572	0.0165664
857.651	0.0164088
857.729	0.0165419
857.807	0.0165209
857.885	0.0165745
857.963	0.0164814
858.041	0.0166129
858.119	0.0164647
858.197	0.0165459
858.276	0.0163805
858.354	0.0165819
858.432	0.0165011
858.510	0.0164514
858.588	0.0163584
858.666	0.0164602
858.744	0.0164158
858.822	0.0164535
858.901	0.0164828
858.979	0.0163835
859.057	0.0164525
859.135	0.0165727
859.213	0.0165598
859.291	0.0165079
859.369	0.0165704
859.447	0.0165746
859.526	0.0164878
859.604	0.0165732
859.682	0.0166650
859.760	0.0166528
859.838	0.0166090
859.916	0.0165852
859.994	0.0167529
860.072	0.0167078
860.151	0.0166267
860.229	0.0166402
860.307	0.0165582
860.385	0.0167366
860.463	0.0165883
860.541	0.0165958
860.619	0.0165974
860.697	0.0165260
860.776	0.0166312
860.854	0.0164494
860.932	0.0165259
861.010	0.0164496
861.088	0.0164752
861.166	0.0165180
861.244	0.0163541
861.322	0.0165391
861.401	0.0165492
861.479	0.0164037
861.557	0.0164475
861.635	0.0164237
861.713	0.0163264
861.791	0.0164246
861.869	0.0164029
861.947	0.0164932
862.026	0.0164336
862.104	0.0166085
862.182	0.0166856
862.260	0.0166704
862.338	0.0166415
862.416	0.0166722
862.494	0.0166174
862.572	0.0165594
862.651	0.0166407
862.729	0.0168359
862.807	0.0165250
862.885	0.0165836
862.963	0.0166396
863.041	0.0168038
863.119	0.0166145
863.197	0.0166846
863.276	0.0165508
863.354	0.0165747
863.432	0.0166604
863.510	0.0166183
863.588	0.0165007
863.666	0.0165397
863.744	0.0166112
863.822	0.0166758
863.901	0.0165245
863.979	0.0167742
864.057	0.0167336
864.135	0.0166268
864.213	0.0166234
864.291	0.0166621
864.369	0.0165850
864.447	0.0166262
864.526	0.0165369
864.604	0.0165437
864.682	0.0166007
864.760	0.0165238
864.838	0.0166492
864.916	0.0164789
864.994	0.0164916
865.072	0.0165195
865.151	0.0164385
865.229	0.0166226
865.307	0.0165891
865.385	0.0165068
865.463	0.0165427
865.541	0.0166073
865.619	0.0165205
865.697	0.0166089
865.776	0.0165342
865.854	0.0166515
865.932	0.0166251
866.010	0.0166742
866.088	0.0167348
866.166	0.0167225
866.244	0.0165633
866.322	0.0166659
866.401	0.0168416
866.479	0.0168206
866.557	0.0168703
866.635	0.0166410
866.713	0.0167581
866.791	0.0167338
866.869	0.0166600
866.947	0.0168266
867.026	0.0167199
867.104	0.0165827
867.182	0.0167320
867.260	0.0166438
867.338	0.0166873
867.416	0.0167110
867.494	0.0166579
867.572	0.0167113
867.651	0.0165356
867.729	0.0166251
867.807	0.0166512
867.885	0.0166604
867.963	0.0165579
868.041	0.0165791
868.119	0.0166283
868.197	0.0165286
868.276	0.0165810
868.354	0.0167221
868.432	0.0166161
868.510	0.0166720
868.588	0.0167492
868.666	0.0165958
868.744	0.0167177
868.822	0.0167570
868.901	0.0166669
868.979	0.0168059
869.057	0.0166557
869.135	0.0166854
869.213	0.0167914
869.291	0.0168319
869.369	0.0167422
869.447	0.0169609
869.526	0.0169359
869.604	0.0169926
869.682	0.0169406
869.760	0.0168307
869.838	0.0167818
869.916	0.0168366
869.994	0.0168448
870.072	0.0169373
870.151	0.0168611
870.229	0.0168104
870.307	0.0170018
870.385	0.0168111
870.463	0.0168225
870.541	0.0167172
870.619	0.0167054
870.697	0.0168372
870.776	0.0166756
870.854	0.0167262
870.932	0.0167833
871.010	0.0166269
871.088	0.0166750
871.166	0.0166799
871.244	0.0165987
871.322	0.0166125
871.401	0.0166327
871.479	0.0166071
871.557	0.0166241
871.635	0.0164951
871.713	0.0165572
871.791	0.0165144
871.869	0.0164780
871.947	0.0165771
872.026	0.0165002
872.104	0.0165981
872.182	0.0165533
872.260	0.0165303
872.338	0.0165211
872.416	0.0164987
872.494	0.0166599
872.572	0.0166157
872.651	0.0163164
872.729	0.0166131
872.807	0.0165405
872.885	0.0165861
872.963	0.0166847
873.041	0.0165144
873.119	0.0164973
873.197	0.0166354
873.276	0.0164565
873.354	0.0165048
873.432	0.0167374
873.510	0.0164789
873.588	0.0165676
873.666	0.0164700
873.744	0.0165033
873.822	0.0164858
873.901	0.0163761
873.979	0.0164107
874.057	0.0163942
874.135	0.0163717
874.213	0.0163675
874.291	0.0164733
874.369	0.0164141
874.447	0.0165647
874.526	0.0165067
874.604	0.0166527
874.682	0.0164294
874.760	0.0164338
874.838	0.0165261
874.916	0.0165545
874.994	0.0167017
875.072	0.0166557
875.151	0.0164046
875.229	0.0166013
875.307	0.0166010
875.385	0.0166697
875.463	0.0166901
875.541	0.0167162
875.619	0.0167257
875.697	0.0165217
875.776	0.0166987
875.854	0.0166651
875.932	0.0167953
876.010	0.0166898
876.088	0.0165945
876.166	0.0165520
876.244	0.0166219
876.322	0.0166456
876.401	0.0166142
876.479	0.0166544
876.557	0.0164445
876.635	0.0165054
876.713	0.0164543
876.791	0.0165395
876.869	0.0164540
876.947	0.0164674
877.026	0.0164956
877.104	0.0165437
877.182	0.0165208
877.260	0.0165576
877.338	0.0165308
877.416	0.0165084
877.494	0.0165693
877.572	0.0165229
877.651	0.0164824
877.729	0.0164606
877.807	0.0165193
877.885	0.0166650
877.963	0.0165956
878.041	0.0166985
878.119	0.0167427
878.197	0.0165901
878.276	0.0165497
878.354	0.0167338
878.432	0.0167744
878.510	0.0167022
878.588	0.0167500
878.666	0.0169827
878.744	0.0168179
878.822	0.0167367
878.901	0.0168444
878.979	0.0168941
879.057	0.0167538
879.135	0.0168512
879.213	0.0168726
879.291	0.0166840
879.369	0.0167664
879.447	0.0167871
879.526	0.0166865
879.604	0.0165529
879.682	0.0167864
879.760	0.0165717
879.838	0.0166382
879.916	0.0164652
879.994	0.0165697
880.072	0.0165943
880.151	0.0166041
880.229	0.0165681
880.307	0.0164907
880.385	0.0165089
880.463	0.0164709
880.541	0.0164754
880.619	0.0165738
880.697	0.0166664
880.776	0.0165026
880.854	0.0165099
880.932	0.0164693
881.010	0.0164958
881.088	0.0165662
881.166	0.0165900
881.244	0.0165576
881.322	0.0165957
881.401	0.0166241
881.479	0.0166076
881.557	0.0165625
881.635	0.0165316
881.713	0.0166130
881.791	0.0165955
881.869	0.0167297
881.947	0.0166536
882.026	0.0167451
882.104	0.0166050
882.182	0.0166541
882.260	0.0166988
882.338	0.0166558
882.416	0.0167753
882.494	0.0166664
882.572	0.0165773
882.651	0.0166434
882.729	0.0167535
882.807	0.0166324
882.885	0.0167023
882.963	0.0166069
883.041	0.0166840
883.119	0.0167352
883.197	0.0165541
883.276	0.0166118
883.354	0.0165005
883.432	0.0166032
883.510	0.0167470
883.588	0.0165040
883.666	0.0166097
883.744	0.0167361
883.822	0.0164839
883.901	0.0165715
883.979	0.0166147
884.057	0.0167523
884.135	0.0167312
884.213	0.0166721
884.291	0.0166563
884.369	0.0167656
884.447	0.0167246
884.526	0.0167927
884.604	0.0166296
884.682	0.0168075
884.760	0.0167826
884.838	0.0168158
884.916	0.0167618
884.994	0.0168361
885.072	0.0168022
885.151	0.0166248
885.229	0.0167035
885.307	0.0167364
885.385	0.0167834
885.463	0.0167907
885.541	0.0168224
885.619	0.0166180
885.697	0.0166858
885.776	0.0166715
885.854	0.0166568
885.932	0.0165941
886.010	0.0166120
886.088	0.0164711
886.166	0.0166616
886.244	0.0166440
886.322	0.0166061
886.401	0.0165501
886.479	0.0165241
886.557	0.0165886
886.635	0.0166108
886.713	0.0165961
886.791	0.0166968
886.869	0.0166055
886.947	0.0164947
887.026	0.0165522
887.104	0.0165468
887.182	0.0166031
887.260	0.0166142
887.338	0.0165386
887.416	0.0167152
887.494	0.0166928
887.572	0.0165793
887.651	0.0167358
887.729	0.0165676
887.807	0.0166467
887.885	0.0166550
887.963	0.0167107
888.041	0.0167764
888.119	0.0166916
888.197	0.0167159
888.276	0.0167782
888.354	0.0167220
888.432	0.0167502
888.510	0.0168331
888.588	0.0168343
888.666	0.0167907
888.744	0.0166462
888.822	0.0167561
888.901	0.0167178
888.979	0.0167534
889.057	0.0167274
889.135	0.0166624
889.213	0.0166458
889.291	0.0166610
889.369	0.0166415
889.447	0.0166706
889.526	0.0166259
889.604	0.0164941
889.682	0.0167139
889.760	0.0168087
889.838	0.0167358
889.916	0.0164555
