06/03/2022	15:26:30	Ver.	4.1	UNKNOWN
Optical Delay	550.020508	Delta X		0.078125	Sweeps	1	Scan Rate	0/0
Coordinates	Axis 1	NaN	Axis 2	NaN	Axis 3	NaN	Axis 4	NaN	Axis 5	NaN	Axis 6	0.000000
TX Power	0.000000	RX Power	0.000000

550.021	0.0165778
550.099	0.0166930
550.177	0.0165804
550.255	0.0166492
550.333	0.0166170
550.411	0.0165680
550.489	0.0165875
550.567	0.0165764
550.646	0.0166489
550.724	0.0166235
550.802	0.0168262
550.880	0.0166766
550.958	0.0165270
551.036	0.0166058
551.114	0.0165743
551.192	0.0166578
551.271	0.0166629
551.349	0.0166989
551.427	0.0166128
551.505	0.0165297
551.583	0.0165081
551.661	0.0165920
551.739	0.0166807
551.817	0.0165356
551.896	0.0165189
551.974	0.0166386
552.052	0.0164930
552.130	0.0165346
552.208	0.0166082
552.286	0.0165249
552.364	0.0164713
552.442	0.0165540
552.521	0.0165614
552.599	0.0164749
552.677	0.0166414
552.755	0.0165551
552.833	0.0165803
552.911	0.0165731
552.989	0.0165886
553.067	0.0165653
553.146	0.0166399
553.224	0.0165788
553.302	0.0165514
553.380	0.0166432
553.458	0.0164338
553.536	0.0166271
553.614	0.0166044
553.692	0.0165617
553.771	0.0164012
553.849	0.0166090
553.927	0.0166953
554.005	0.0164764
554.083	0.0165263
554.161	0.0168396
554.239	0.0166451
554.317	0.0164349
554.396	0.0166155
554.474	0.0165656
554.552	0.0166729
554.630	0.0166685
554.708	0.0165257
554.786	0.0165734
554.864	0.0164111
554.942	0.0166040
555.021	0.0165312
555.099	0.0165917
555.177	0.0166410
555.255	0.0165861
555.333	0.0166402
555.411	0.0166418
555.489	0.0165694
555.567	0.0165410
555.646	0.0166158
555.724	0.0165784
555.802	0.0166790
555.880	0.0166568
555.958	0.0164760
556.036	0.0164381
556.114	0.0166208
556.192	0.0167510
556.271	0.0165414
556.349	0.0164990
556.427	0.0166296
556.505	0.0167032
556.583	0.0165738
556.661	0.0165903
556.739	0.0165322
556.817	0.0163959
556.896	0.0167356
556.974	0.0165619
557.052	0.0165591
557.130	0.0165652
557.208	0.0165482
557.286	0.0165138
557.364	0.0165831
557.442	0.0164467
557.521	0.0165317
557.599	0.0166516
557.677	0.0165554
557.755	0.0164738
557.833	0.0165859
557.911	0.0165764
557.989	0.0164417
558.067	0.0165488
558.146	0.0165411
558.224	0.0165742
558.302	0.0165441
558.380	0.0166769
558.458	0.0164851
558.536	0.0164117
558.614	0.0165622
558.692	0.0166267
558.771	0.0164584
558.849	0.0166344
558.927	0.0165201
559.005	0.0164764
559.083	0.0165446
559.161	0.0166117
559.239	0.0166428
559.317	0.0165891
559.396	0.0166146
559.474	0.0163818
559.552	0.0166382
559.630	0.0166244
559.708	0.0166505
559.786	0.0165625
559.864	0.0164948
559.942	0.0165149
560.021	0.0165920
560.099	0.0165634
560.177	0.0165446
560.255	0.0165696
560.333	0.0166180
560.411	0.0165704
560.489	0.0165450
560.567	0.0165968
560.646	0.0165717
560.724	0.0165268
560.802	0.0165601
560.880	0.0166316
560.958	0.0164828
561.036	0.0166576
561.114	0.0165170
561.192	0.0165693
561.271	0.0166664
561.349	0.0165632
561.427	0.0165174
561.505	0.0164702
561.583	0.0165714
561.661	0.0165894
561.739	0.0166473
561.817	0.0165405
561.896	0.0164937
561.974	0.0165690
562.052	0.0165377
562.130	0.0165999
562.208	0.0166205
562.286	0.0163894
562.364	0.0164920
562.442	0.0165351
562.521	0.0166228
562.599	0.0166985
562.677	0.0165721
562.755	0.0166563
562.833	0.0165007
562.911	0.0166778
562.989	0.0166196
563.067	0.0165872
563.146	0.0165123
563.224	0.0166367
563.302	0.0166794
563.380	0.0167717
563.458	0.0166219
563.536	0.0163915
563.614	0.0166740
563.692	0.0165880
563.771	0.0165512
563.849	0.0166132
563.927	0.0165105
564.005	0.0166592
564.083	0.0165639
564.161	0.0164797
564.239	0.0167289
564.317	0.0166921
564.396	0.0165185
564.474	0.0165436
564.552	0.0165824
564.630	0.0166562
564.708	0.0166319
564.786	0.0165792
564.864	0.0166129
564.942	0.0166492
565.021	0.0165343
565.099	0.0165661
565.177	0.0165471
565.255	0.0166095
565.333	0.0165592
565.411	0.0165560
565.489	0.0165935
565.567	0.0166601
565.646	0.0167020
565.724	0.0166293
565.802	0.0165553
565.880	0.0165459
565.958	0.0165359
566.036	0.0166002
566.114	0.0166612
566.192	0.0166543
566.271	0.0166557
566.349	0.0166244
566.427	0.0166870
566.505	0.0165125
566.583	0.0166237
566.661	0.0166753
566.739	0.0166722
566.817	0.0165355
566.896	0.0166288
566.974	0.0166528
567.052	0.0165306
567.130	0.0165804
567.208	0.0166215
567.286	0.0166033
567.364	0.0164902
567.442	0.0166782
567.521	0.0166487
567.599	0.0167270
567.677	0.0166900
567.755	0.0165656
567.833	0.0165049
567.911	0.0166581
567.989	0.0166906
568.067	0.0166115
568.146	0.0166023
568.224	0.0165825
568.302	0.0166816
568.380	0.0167291
568.458	0.0166752
568.536	0.0166310
568.614	0.0165716
568.692	0.0166549
568.771	0.0166988
568.849	0.0165125
568.927	0.0164551
569.005	0.0165899
569.083	0.0166094
569.161	0.0164977
569.239	0.0166360
569.317	0.0165228
569.396	0.0165025
569.474	0.0165890
569.552	0.0167610
569.630	0.0165042
569.708	0.0166679
569.786	0.0165121
569.864	0.0166373
569.942	0.0166522
570.021	0.0165896
570.099	0.0166216
570.177	0.0166540
570.255	0.0165607
570.333	0.0165700
570.411	0.0164966
570.489	0.0165823
570.567	0.0165290
570.646	0.0165482
570.724	0.0166103
570.802	0.0166003
570.880	0.0165002
570.958	0.0164945
571.036	0.0166344
571.114	0.0165578
571.192	0.0165514
571.271	0.0165057
571.349	0.0166981
571.427	0.0165186
571.505	0.0165269
571.583	0.0166786
571.661	0.0166044
571.739	0.0166007
571.817	0.0166187
571.896	0.0165154
571.974	0.0165280
572.052	0.0165735
572.130	0.0164970
572.208	0.0166261
572.286	0.0166455
572.364	0.0164822
572.442	0.0166107
572.521	0.0165904
572.599	0.0165759
572.677	0.0165901
572.755	0.0165519
572.833	0.0164434
572.911	0.0165031
572.989	0.0167367
573.067	0.0166528
573.146	0.0165844
573.224	0.0166586
573.302	0.0164667
573.380	0.0164860
573.458	0.0164289
573.536	0.0165411
573.614	0.0166308
573.692	0.0165911
573.771	0.0165427
573.849	0.0165923
573.927	0.0165870
574.005	0.0165747
574.083	0.0165829
574.161	0.0166463
574.239	0.0166090
574.317	0.0166469
574.396	0.0167444
574.474	0.0165269
574.552	0.0165923
574.630	0.0166402
574.708	0.0165529
574.786	0.0165731
574.864	0.0166265
574.942	0.0165327
575.021	0.0165508
575.099	0.0165614
575.177	0.0165487
575.255	0.0166439
575.333	0.0165280
575.411	0.0165910
575.489	0.0165611
575.567	0.0164621
575.646	0.0165302
575.724	0.0165580
575.802	0.0166516
575.880	0.0167190
575.958	0.0164501
576.036	0.0165488
576.114	0.0166229
576.192	0.0165280
576.271	0.0165955
576.349	0.0166005
576.427	0.0165468
576.505	0.0165860
576.583	0.0166171
576.661	0.0165417
576.739	0.0166087
576.817	0.0165669
576.896	0.0166008
576.974	0.0165541
577.052	0.0167097
577.130	0.0165581
577.208	0.0166272
577.286	0.0165491
577.364	0.0164507
577.442	0.0165359
577.521	0.0165865
577.599	0.0166098
577.677	0.0167241
577.755	0.0166219
577.833	0.0167056
577.911	0.0165722
577.989	0.0164669
578.067	0.0166147
578.146	0.0167203
578.224	0.0166442
578.302	0.0164933
578.380	0.0164246
578.458	0.0164500
578.536	0.0165446
578.614	0.0165033
578.692	0.0166290
578.771	0.0165562
578.849	0.0165649
578.927	0.0166587
579.005	0.0166994
579.083	0.0165649
579.161	0.0166569
579.239	0.0166270
579.317	0.0165704
579.396	0.0165404
579.474	0.0166042
579.552	0.0165439
579.630	0.0166268
579.708	0.0166196
579.786	0.0166866
579.864	0.0166422
579.942	0.0166752
580.021	0.0166647
580.099	0.0166138
580.177	0.0165862
580.255	0.0165990
580.333	0.0165280
580.411	0.0166043
580.489	0.0165225
580.567	0.0165615
580.646	0.0166365
580.724	0.0167397
580.802	0.0165791
580.880	0.0165686
580.958	0.0166470
581.036	0.0167545
581.114	0.0165266
581.192	0.0164842
581.271	0.0166345
581.349	0.0165906
581.427	0.0166496
581.505	0.0166505
581.583	0.0166282
581.661	0.0165107
581.739	0.0166328
581.817	0.0166335
581.896	0.0166177
581.974	0.0166559
582.052	0.0166145
582.130	0.0166391
582.208	0.0166252
582.286	0.0164941
582.364	0.0166807
582.442	0.0166083
582.521	0.0165919
582.599	0.0166138
582.677	0.0166222
582.755	0.0166506
582.833	0.0165306
582.911	0.0164651
582.989	0.0164657
583.067	0.0165701
583.146	0.0165828
583.224	0.0166138
583.302	0.0164799
583.380	0.0165693
583.458	0.0165726
583.536	0.0165871
583.614	0.0166635
583.692	0.0166491
583.771	0.0166717
583.849	0.0166053
583.927	0.0165047
584.005	0.0166098
584.083	0.0164474
584.161	0.0166119
584.239	0.0166117
584.317	0.0165856
584.396	0.0165932
584.474	0.0166722
584.552	0.0165887
584.630	0.0165328
584.708	0.0166682
584.786	0.0166424
584.864	0.0164229
584.942	0.0164841
585.021	0.0166771
585.099	0.0166064
585.177	0.0165104
585.255	0.0164827
585.333	0.0166802
585.411	0.0165460
585.489	0.0166332
585.567	0.0166814
585.646	0.0164822
585.724	0.0165432
585.802	0.0166444
585.880	0.0165926
585.958	0.0167330
586.036	0.0165956
586.114	0.0164921
586.192	0.0166315
586.271	0.0166631
586.349	0.0165080
586.427	0.0164929
586.505	0.0166307
586.583	0.0165559
586.661	0.0165977
586.739	0.0165770
586.817	0.0164245
586.896	0.0165311
586.974	0.0165084
587.052	0.0164552
587.130	0.0165284
587.208	0.0166654
587.286	0.0165617
587.364	0.0165546
587.442	0.0164385
587.521	0.0166660
587.599	0.0165205
587.677	0.0166076
587.755	0.0165368
587.833	0.0164463
587.911	0.0165774
587.989	0.0166409
588.067	0.0166013
588.146	0.0165353
588.224	0.0166899
588.302	0.0165409
588.380	0.0164487
588.458	0.0166493
588.536	0.0166353
588.614	0.0165932
588.692	0.0164967
588.771	0.0166001
588.849	0.0167649
588.927	0.0166788
589.005	0.0166749
589.083	0.0165947
589.161	0.0166035
589.239	0.0165659
589.317	0.0167017
589.396	0.0165639
589.474	0.0166311
589.552	0.0165841
589.630	0.0166940
589.708	0.0166191
589.786	0.0167150
589.864	0.0166127
589.942	0.0166161
590.021	0.0166204
590.099	0.0165524
590.177	0.0165022
590.255	0.0165838
590.333	0.0165773
590.411	0.0164835
590.489	0.0167021
590.567	0.0166255
590.646	0.0166204
590.724	0.0165730
590.802	0.0165408
590.880	0.0165188
590.958	0.0166186
591.036	0.0166095
591.114	0.0166443
591.192	0.0166813
591.271	0.0167300
591.349	0.0166498
591.427	0.0165482
591.505	0.0165004
591.583	0.0165590
591.661	0.0165193
591.739	0.0164780
591.817	0.0165480
591.896	0.0165650
591.974	0.0166344
592.052	0.0165359
592.130	0.0166061
592.208	0.0166397
592.286	0.0167869
592.364	0.0166368
592.442	0.0165054
592.521	0.0165120
592.599	0.0165579
592.677	0.0165955
592.755	0.0165330
592.833	0.0165291
592.911	0.0167113
592.989	0.0167405
593.067	0.0166477
593.146	0.0166351
593.224	0.0166276
593.302	0.0166783
593.380	0.0164993
593.458	0.0165205
593.536	0.0166129
593.614	0.0165833
593.692	0.0165877
593.771	0.0166124
593.849	0.0167063
593.927	0.0165611
594.005	0.0166557
594.083	0.0166154
594.161	0.0165348
594.239	0.0167577
594.317	0.0165574
594.396	0.0165424
594.474	0.0166881
594.552	0.0165370
594.630	0.0165723
594.708	0.0165355
594.786	0.0166470
594.864	0.0164655
594.942	0.0165763
595.021	0.0166531
595.099	0.0166670
595.177	0.0167039
595.255	0.0166724
595.333	0.0166163
595.411	0.0165039
595.489	0.0165840
595.567	0.0165221
595.646	0.0166006
595.724	0.0166827
595.802	0.0166109
595.880	0.0166518
595.958	0.0165944
596.036	0.0166570
596.114	0.0165842
596.192	0.0166178
596.271	0.0165749
596.349	0.0165604
596.427	0.0165466
596.505	0.0166154
596.583	0.0165062
596.661	0.0164896
596.739	0.0166534
596.817	0.0165549
596.896	0.0165720
596.974	0.0165997
597.052	0.0166939
597.130	0.0165195
597.208	0.0166769
597.286	0.0165757
597.364	0.0165408
597.442	0.0166096
597.521	0.0164461
597.599	0.0167404
597.677	0.0167548
597.755	0.0165474
597.833	0.0165666
597.911	0.0166119
597.989	0.0165612
598.067	0.0165095
598.146	0.0166124
598.224	0.0164708
598.302	0.0164572
598.380	0.0166950
598.458	0.0167093
598.536	0.0166125
598.614	0.0166640
598.692	0.0165221
598.771	0.0166084
598.849	0.0166266
598.927	0.0165543
599.005	0.0165643
599.083	0.0165527
599.161	0.0166222
599.239	0.0165819
599.317	0.0165241
599.396	0.0164857
599.474	0.0165199
599.552	0.0165598
599.630	0.0164056
599.708	0.0165261
599.786	0.0165543
599.864	0.0165312
599.942	0.0165740
600.021	0.0165014
600.099	0.0165918
600.177	0.0165302
600.255	0.0166130
600.333	0.0167093
600.411	0.0165591
600.489	0.0166624
600.567	0.0166050
600.646	0.0165971
600.724	0.0166011
600.802	0.0166176
600.880	0.0164977
600.958	0.0165236
601.036	0.0166358
601.114	0.0166650
601.192	0.0165868
601.271	0.0165785
601.349	0.0165232
601.427	0.0166042
601.505	0.0165396
601.583	0.0165455
601.661	0.0166337
601.739	0.0165926
601.817	0.0165627
601.896	0.0166177
601.974	0.0164437
602.052	0.0165550
602.130	0.0165228
602.208	0.0165602
602.286	0.0164145
602.364	0.0163602
602.442	0.0166692
602.521	0.0166918
602.599	0.0165217
602.677	0.0166293
602.755	0.0165283
602.833	0.0164887
602.911	0.0165011
602.989	0.0166431
603.067	0.0165190
603.146	0.0165219
603.224	0.0166264
603.302	0.0166257
603.380	0.0165204
603.458	0.0165396
603.536	0.0167135
603.614	0.0164764
603.692	0.0165502
603.771	0.0164744
603.849	0.0164608
603.927	0.0166360
604.005	0.0166128
604.083	0.0165890
604.161	0.0166244
604.239	0.0165314
604.317	0.0164171
604.396	0.0166193
604.474	0.0164970
604.552	0.0164880
604.630	0.0165290
604.708	0.0164315
604.786	0.0165384
604.864	0.0165445
604.942	0.0165947
605.021	0.0165877
605.099	0.0165424
605.177	0.0166328
605.255	0.0166424
605.333	0.0166010
605.411	0.0164105
605.489	0.0165512
605.567	0.0166870
605.646	0.0165949
605.724	0.0165654
605.802	0.0166288
605.880	0.0166096
605.958	0.0164890
606.036	0.0166288
606.114	0.0164198
606.192	0.0164948
606.271	0.0166226
606.349	0.0164527
606.427	0.0164623
606.505	0.0167567
606.583	0.0164590
606.661	0.0164418
606.739	0.0166625
606.817	0.0166230
606.896	0.0165361
606.974	0.0164610
607.052	0.0164654
607.130	0.0165676
607.208	0.0165767
607.286	0.0165745
607.364	0.0162778
607.442	0.0165919
607.521	0.0165996
607.599	0.0165764
607.677	0.0164343
607.755	0.0165807
607.833	0.0165606
607.911	0.0164518
607.989	0.0165337
608.067	0.0165784
608.146	0.0165755
608.224	0.0165474
608.302	0.0165049
608.380	0.0165353
608.458	0.0165041
608.536	0.0165668
608.614	0.0165674
608.692	0.0165446
608.771	0.0165625
608.849	0.0165343
608.927	0.0164680
609.005	0.0167193
609.083	0.0166658
609.161	0.0165762
609.239	0.0165316
609.317	0.0166270
609.396	0.0167269
609.474	0.0165603
609.552	0.0165153
609.630	0.0165679
609.708	0.0166412
609.786	0.0166525
609.864	0.0166706
609.942	0.0166505
610.021	0.0166147
610.099	0.0165508
610.177	0.0165794
610.255	0.0166323
610.333	0.0164900
610.411	0.0165215
610.489	0.0166005
610.567	0.0165805
610.646	0.0166640
610.724	0.0165099
610.802	0.0165773
610.880	0.0165565
610.958	0.0165076
611.036	0.0165144
611.114	0.0165773
611.192	0.0164912
611.271	0.0165653
611.349	0.0164807
611.427	0.0165785
611.505	0.0165071
611.583	0.0166216
611.661	0.0166514
611.739	0.0164679
611.817	0.0166283
611.896	0.0164801
611.974	0.0166756
612.052	0.0166317
612.130	0.0165060
612.208	0.0165640
612.286	0.0166592
612.364	0.0167247
612.442	0.0164898
612.521	0.0165691
612.599	0.0165222
612.677	0.0164373
612.755	0.0166503
612.833	0.0166376
612.911	0.0165707
612.989	0.0166245
613.067	0.0167153
613.146	0.0166352
613.224	0.0166075
613.302	0.0166512
613.380	0.0165379
613.458	0.0164262
613.536	0.0166465
613.614	0.0166294
613.692	0.0165408
613.771	0.0165434
613.849	0.0166039
613.927	0.0165064
614.005	0.0166868
614.083	0.0166404
614.161	0.0165726
614.239	0.0166559
614.317	0.0164894
614.396	0.0164779
614.474	0.0166640
614.552	0.0164055
614.630	0.0167056
614.708	0.0165717
614.786	0.0166209
614.864	0.0167288
614.942	0.0166202
615.021	0.0164893
615.099	0.0166037
615.177	0.0165240
615.255	0.0165868
615.333	0.0166050
615.411	0.0165608
615.489	0.0167059
615.567	0.0165484
615.646	0.0165150
615.724	0.0165491
615.802	0.0165461
615.880	0.0165489
615.958	0.0166724
616.036	0.0165365
616.114	0.0165402
616.192	0.0165504
616.271	0.0165570
616.349	0.0165691
616.427	0.0165377
616.505	0.0167024
616.583	0.0167119
616.661	0.0166706
616.739	0.0165749
616.817	0.0166138
616.896	0.0166355
616.974	0.0165683
617.052	0.0166640
617.130	0.0166142
617.208	0.0166123
617.286	0.0166740
617.364	0.0165997
617.442	0.0166054
617.521	0.0165373
617.599	0.0166734
617.677	0.0166068
617.755	0.0165369
617.833	0.0164687
617.911	0.0166689
617.989	0.0165356
618.067	0.0165066
618.146	0.0165038
618.224	0.0165900
618.302	0.0166821
618.380	0.0166665
618.458	0.0164393
618.536	0.0164366
618.614	0.0164973
618.692	0.0166161
618.771	0.0164627
618.849	0.0166113
618.927	0.0167827
619.005	0.0165559
619.083	0.0166183
619.161	0.0165255
619.239	0.0165154
619.317	0.0166105
619.396	0.0166691
619.474	0.0165958
619.552	0.0165834
619.630	0.0165520
619.708	0.0166212
619.786	0.0164708
619.864	0.0166582
619.942	0.0167059
620.021	0.0164477
620.099	0.0165923
620.177	0.0166824
620.255	0.0165871
620.333	0.0165487
620.411	0.0166224
620.489	0.0165506
620.567	0.0165911
620.646	0.0165617
620.724	0.0166148
620.802	0.0166505
620.880	0.0165898
620.958	0.0166943
621.036	0.0165739
621.114	0.0166376
621.192	0.0165171
621.271	0.0166545
621.349	0.0165936
621.427	0.0165325
621.505	0.0166498
621.583	0.0167023
621.661	0.0167030
621.739	0.0167303
621.817	0.0165760
621.896	0.0165935
621.974	0.0165694
622.052	0.0167494
622.130	0.0167612
622.208	0.0166776
622.286	0.0166570
622.364	0.0166275
622.442	0.0166786
622.521	0.0166292
622.599	0.0166165
622.677	0.0166699
622.755	0.0166198
622.833	0.0166116
622.911	0.0166149
622.989	0.0165842
623.067	0.0165811
623.146	0.0166253
623.224	0.0166746
623.302	0.0165656
623.380	0.0165624
623.458	0.0166845
623.536	0.0166501
623.614	0.0167464
623.692	0.0166331
623.771	0.0165216
623.849	0.0165327
623.927	0.0165498
624.005	0.0165972
624.083	0.0166775
624.161	0.0166446
624.239	0.0166229
624.317	0.0167309
624.396	0.0166019
624.474	0.0165820
624.552	0.0167323
624.630	0.0166580
624.708	0.0166295
624.786	0.0165983
624.864	0.0165131
624.942	0.0165521
625.021	0.0166388
625.099	0.0165736
625.177	0.0165243
625.255	0.0167072
625.333	0.0166640
625.411	0.0165551
625.489	0.0165924
625.567	0.0166096
625.646	0.0166353
625.724	0.0166092
625.802	0.0165790
625.880	0.0166276
625.958	0.0165139
626.036	0.0164799
626.114	0.0165464
626.192	0.0165325
626.271	0.0166183
626.349	0.0165009
626.427	0.0167168
626.505	0.0165818
626.583	0.0165060
626.661	0.0165483
626.739	0.0165083
626.817	0.0166077
626.896	0.0165195
626.974	0.0166196
627.052	0.0166586
627.130	0.0166165
627.208	0.0165571
627.286	0.0165975
627.364	0.0166972
627.442	0.0165453
627.521	0.0165363
627.599	0.0167250
627.677	0.0166663
627.755	0.0165218
627.833	0.0168290
627.911	0.0166242
627.989	0.0166438
628.067	0.0165813
628.146	0.0165847
628.224	0.0165702
628.302	0.0166221
628.380	0.0165708
628.458	0.0166180
628.536	0.0165991
628.614	0.0167460
628.692	0.0167023
628.771	0.0166202
628.849	0.0164896
628.927	0.0165240
629.005	0.0166587
629.083	0.0165579
629.161	0.0164799
629.239	0.0165514
629.317	0.0164467
629.396	0.0165886
629.474	0.0165607
629.552	0.0164693
629.630	0.0166406
629.708	0.0166540
629.786	0.0165499
629.864	0.0165837
629.942	0.0165291
630.021	0.0167629
630.099	0.0166103
630.177	0.0165251
630.255	0.0165673
630.333	0.0166226
630.411	0.0166227
630.489	0.0164900
630.567	0.0165617
630.646	0.0165696
630.724	0.0166101
630.802	0.0166702
630.880	0.0167455
630.958	0.0165980
631.036	0.0165495
631.114	0.0165879
631.192	0.0165475
631.271	0.0165768
631.349	0.0165310
631.427	0.0166153
631.505	0.0166235
631.583	0.0166266
631.661	0.0166359
631.739	0.0165697
631.817	0.0166070
631.896	0.0165843
631.974	0.0166386
632.052	0.0166039
632.130	0.0166485
632.208	0.0166039
632.286	0.0166189
632.364	0.0165661
632.442	0.0164508
632.521	0.0165418
632.599	0.0166166
632.677	0.0167016
632.755	0.0164834
632.833	0.0166007
632.911	0.0166698
632.989	0.0165008
633.067	0.0166607
633.146	0.0166161
633.224	0.0165305
633.302	0.0165887
633.380	0.0166589
633.458	0.0165814
633.536	0.0165002
633.614	0.0164909
633.692	0.0166517
633.771	0.0165703
633.849	0.0165176
633.927	0.0165278
634.005	0.0166541
634.083	0.0166376
634.161	0.0165511
634.239	0.0166386
634.317	0.0167087
634.396	0.0165525
634.474	0.0164911
634.552	0.0165681
634.630	0.0165544
634.708	0.0165871
634.786	0.0166571
634.864	0.0166032
634.942	0.0165295
635.021	0.0166155
635.099	0.0165350
635.177	0.0166070
635.255	0.0166198
635.333	0.0165351
635.411	0.0166334
635.489	0.0166289
635.567	0.0166029
635.646	0.0165660
635.724	0.0166352
635.802	0.0166899
635.880	0.0164581
635.958	0.0164716
636.036	0.0164861
636.114	0.0164856
636.192	0.0166770
636.271	0.0166287
636.349	0.0165459
636.427	0.0165327
636.505	0.0166557
636.583	0.0165447
636.661	0.0166276
636.739	0.0165974
636.817	0.0166032
636.896	0.0165250
636.974	0.0165014
637.052	0.0166233
637.130	0.0165854
637.208	0.0165746
637.286	0.0167039
637.364	0.0164722
637.442	0.0165447
637.521	0.0165768
637.599	0.0166380
637.677	0.0165276
637.755	0.0165843
637.833	0.0166103
637.911	0.0164413
637.989	0.0166312
638.067	0.0166045
638.146	0.0164185
638.224	0.0164854
638.302	0.0166815
638.380	0.0166113
638.458	0.0165595
638.536	0.0165536
638.614	0.0167003
638.692	0.0165932
638.771	0.0166147
638.849	0.0165733
638.927	0.0165064
639.005	0.0164825
639.083	0.0167049
639.161	0.0166602
639.239	0.0166479
639.317	0.0166767
639.396	0.0165063
639.474	0.0166296
639.552	0.0165137
639.630	0.0165806
639.708	0.0165717
639.786	0.0166711
639.864	0.0165801
639.942	0.0165005
640.021	0.0166197
640.099	0.0167149
640.177	0.0165880
640.255	0.0166927
640.333	0.0165296
640.411	0.0164674
640.489	0.0164873
640.567	0.0165760
640.646	0.0165669
640.724	0.0166190
640.802	0.0165671
640.880	0.0167592
640.958	0.0167040
641.036	0.0164800
641.114	0.0164371
641.192	0.0166695
641.271	0.0166703
641.349	0.0165388
641.427	0.0165523
641.505	0.0166178
641.583	0.0166127
641.661	0.0165366
641.739	0.0165160
641.817	0.0166311
641.896	0.0163300
641.974	0.0166294
642.052	0.0164812
642.130	0.0165860
642.208	0.0166131
642.286	0.0164625
642.364	0.0165550
642.442	0.0165594
642.521	0.0166520
642.599	0.0165937
642.677	0.0164387
642.755	0.0165167
642.833	0.0166395
642.911	0.0166322
642.989	0.0166602
643.067	0.0165846
643.146	0.0164946
643.224	0.0167340
643.302	0.0165158
643.380	0.0165997
643.458	0.0165584
643.536	0.0165753
643.614	0.0166690
643.692	0.0166112
643.771	0.0166772
643.849	0.0165558
643.927	0.0166122
644.005	0.0167204
644.083	0.0165903
644.161	0.0165730
644.239	0.0167070
644.317	0.0165086
644.396	0.0166873
644.474	0.0167651
644.552	0.0166219
644.630	0.0165546
644.708	0.0166003
644.786	0.0165853
644.864	0.0167036
644.942	0.0167023
645.021	0.0165828
645.099	0.0167075
645.177	0.0165969
645.255	0.0165236
645.333	0.0165746
645.411	0.0165730
645.489	0.0166078
645.567	0.0164405
645.646	0.0166232
645.724	0.0166007
645.802	0.0165222
645.880	0.0166283
645.958	0.0165812
646.036	0.0165754
646.114	0.0164607
646.192	0.0167222
646.271	0.0167770
646.349	0.0166015
646.427	0.0165903
646.505	0.0166701
646.583	0.0167050
646.661	0.0166589
646.739	0.0165589
646.817	0.0164673
646.896	0.0166819
646.974	0.0166464
647.052	0.0165505
647.130	0.0165056
647.208	0.0164690
647.286	0.0164837
647.364	0.0166418
647.442	0.0166037
647.521	0.0164696
647.599	0.0166180
647.677	0.0167177
647.755	0.0166560
647.833	0.0165749
647.911	0.0165643
647.989	0.0166435
648.067	0.0164994
648.146	0.0165306
648.224	0.0166247
648.302	0.0165218
648.380	0.0165675
648.458	0.0165763
648.536	0.0164425
648.614	0.0166081
648.692	0.0166132
648.771	0.0165302
648.849	0.0166042
648.927	0.0166499
649.005	0.0165115
649.083	0.0164707
649.161	0.0166474
649.239	0.0166801
649.317	0.0166066
649.396	0.0166509
649.474	0.0165445
649.552	0.0166202
649.630	0.0166199
649.708	0.0165309
649.786	0.0166951
649.864	0.0166702
649.942	0.0165543
650.021	0.0166335
650.099	0.0165486
650.177	0.0166433
650.255	0.0165193
650.333	0.0165870
650.411	0.0166470
650.489	0.0166132
650.567	0.0164739
650.646	0.0165831
650.724	0.0167448
650.802	0.0165809
650.880	0.0164551
650.958	0.0165988
651.036	0.0166244
651.114	0.0166710
651.192	0.0165714
651.271	0.0165447
651.349	0.0165691
651.427	0.0164964
651.505	0.0165955
651.583	0.0167182
651.661	0.0166128
651.739	0.0165927
651.817	0.0166124
651.896	0.0165607
651.974	0.0165257
652.052	0.0165903
652.130	0.0165829
652.208	0.0164622
652.286	0.0165614
652.364	0.0165692
652.442	0.0166432
652.521	0.0165656
652.599	0.0165442
652.677	0.0165981
652.755	0.0165450
652.833	0.0165827
652.911	0.0165346
652.989	0.0164603
653.067	0.0166643
653.146	0.0165874
653.224	0.0165053
653.302	0.0165004
653.380	0.0166700
653.458	0.0166168
653.536	0.0166050
653.614	0.0165722
653.692	0.0166166
653.771	0.0165118
653.849	0.0165887
653.927	0.0165678
654.005	0.0165395
654.083	0.0165295
654.161	0.0166196
654.239	0.0166143
654.317	0.0165411
654.396	0.0165748
654.474	0.0165863
654.552	0.0165619
654.630	0.0165495
654.708	0.0166406
654.786	0.0165275
654.864	0.0165414
654.942	0.0165009
655.021	0.0165298
655.099	0.0166041
655.177	0.0164544
655.255	0.0166367
655.333	0.0167455
655.411	0.0166692
655.489	0.0165805
655.567	0.0164864
655.646	0.0166027
655.724	0.0165388
655.802	0.0165804
655.880	0.0166261
655.958	0.0167265
656.036	0.0164610
656.114	0.0164816
656.192	0.0165445
656.271	0.0166621
656.349	0.0165163
656.427	0.0164992
656.505	0.0168218
656.583	0.0165788
656.661	0.0165640
656.739	0.0167945
656.817	0.0165627
656.896	0.0164523
656.974	0.0166402
657.052	0.0165977
657.130	0.0165362
657.208	0.0166827
657.286	0.0166360
657.364	0.0167246
657.442	0.0165684
657.521	0.0164693
657.599	0.0164685
657.677	0.0164397
657.755	0.0166965
657.833	0.0167234
657.911	0.0166145
657.989	0.0166250
658.067	0.0165838
658.146	0.0165582
658.224	0.0165611
658.302	0.0165774
658.380	0.0166082
658.458	0.0165931
658.536	0.0166511
658.614	0.0167092
658.692	0.0165946
658.771	0.0166016
658.849	0.0166219
658.927	0.0166984
659.005	0.0165590
659.083	0.0165329
659.161	0.0164919
659.239	0.0164803
659.317	0.0164958
659.396	0.0166536
659.474	0.0168359
659.552	0.0166431
659.630	0.0165961
659.708	0.0165753
659.786	0.0166834
659.864	0.0166608
659.942	0.0165914
660.021	0.0166026
660.099	0.0166995
660.177	0.0166064
660.255	0.0166496
660.333	0.0165601
660.411	0.0166097
660.489	0.0165564
660.567	0.0164119
660.646	0.0165651
660.724	0.0166182
660.802	0.0165702
660.880	0.0165189
660.958	0.0165424
661.036	0.0164760
661.114	0.0166516
661.192	0.0167023
661.271	0.0166582
661.349	0.0165505
661.427	0.0166011
661.505	0.0165711
661.583	0.0165302
661.661	0.0165660
661.739	0.0165521
661.817	0.0167267
661.896	0.0166494
661.974	0.0165121
662.052	0.0166149
662.130	0.0166639
662.208	0.0165986
662.286	0.0165133
662.364	0.0165514
662.442	0.0165563
662.521	0.0166547
662.599	0.0166009
662.677	0.0164963
662.755	0.0165372
662.833	0.0165580
662.911	0.0165329
662.989	0.0166529
663.067	0.0166002
663.146	0.0165633
663.224	0.0165556
663.302	0.0166847
663.380	0.0165813
663.458	0.0166583
663.536	0.0165636
663.614	0.0165846
663.692	0.0165985
663.771	0.0164777
663.849	0.0164859
663.927	0.0165251
664.005	0.0167456
664.083	0.0166412
664.161	0.0164358
664.239	0.0165952
664.317	0.0165863
664.396	0.0164289
664.474	0.0165931
664.552	0.0167013
664.630	0.0165055
664.708	0.0166221
664.786	0.0164622
664.864	0.0164967
664.942	0.0167238
665.021	0.0166048
665.099	0.0164553
665.177	0.0164860
665.255	0.0165308
665.333	0.0165063
665.411	0.0165250
665.489	0.0166833
665.567	0.0166489
665.646	0.0165223
665.724	0.0165530
665.802	0.0164604
665.880	0.0165291
665.958	0.0165514
666.036	0.0163778
666.114	0.0164695
666.192	0.0164533
666.271	0.0166078
666.349	0.0166202
666.427	0.0165832
666.505	0.0165105
666.583	0.0165672
666.661	0.0165769
666.739	0.0165786
666.817	0.0166399
666.896	0.0165415
666.974	0.0166595
667.052	0.0165240
667.130	0.0165746
667.208	0.0166401
667.286	0.0165198
667.364	0.0166735
667.442	0.0165846
667.521	0.0165570
667.599	0.0165405
667.677	0.0166268
667.755	0.0165150
667.833	0.0164747
667.911	0.0165107
667.989	0.0165553
668.067	0.0165418
668.146	0.0165984
668.224	0.0165644
668.302	0.0164960
668.380	0.0165559
668.458	0.0165919
668.536	0.0166525
668.614	0.0166291
668.692	0.0165151
668.771	0.0165025
668.849	0.0165922
668.927	0.0165791
669.005	0.0165057
669.083	0.0166290
669.161	0.0165804
669.239	0.0165754
669.317	0.0165569
669.396	0.0164802
669.474	0.0165360
669.552	0.0165333
669.630	0.0166435
669.708	0.0165565
669.786	0.0165087
669.864	0.0165073
669.942	0.0166386
670.021	0.0165819
670.099	0.0165266
670.177	0.0165742
670.255	0.0166150
670.333	0.0165598
670.411	0.0166962
670.489	0.0166556
670.567	0.0165890
670.646	0.0165488
670.724	0.0165226
670.802	0.0165345
670.880	0.0166974
670.958	0.0166758
671.036	0.0165682
671.114	0.0166307
671.192	0.0166009
671.271	0.0164671
671.349	0.0166614
671.427	0.0166270
671.505	0.0165451
671.583	0.0165852
671.661	0.0166511
671.739	0.0165779
671.817	0.0165250
671.896	0.0166157
671.974	0.0165433
672.052	0.0166078
672.130	0.0165817
672.208	0.0166125
672.286	0.0166187
672.364	0.0165288
672.442	0.0165597
672.521	0.0165080
672.599	0.0165117
672.677	0.0164530
672.755	0.0165792
672.833	0.0165872
672.911	0.0164858
672.989	0.0165156
673.067	0.0166523
673.146	0.0166148
673.224	0.0166527
673.302	0.0166160
673.380	0.0165066
673.458	0.0164387
673.536	0.0166058
673.614	0.0164807
673.692	0.0166126
673.771	0.0165981
673.849	0.0166434
673.927	0.0166941
674.005	0.0166483
674.083	0.0166276
674.161	0.0166168
674.239	0.0166375
674.317	0.0166402
674.396	0.0165150
674.474	0.0165395
674.552	0.0164804
674.630	0.0165864
674.708	0.0165811
674.786	0.0167123
674.864	0.0165377
674.942	0.0165729
675.021	0.0166351
675.099	0.0165416
675.177	0.0165962
675.255	0.0166005
675.333	0.0165399
675.411	0.0164003
675.489	0.0165268
675.567	0.0164883
675.646	0.0165936
675.724	0.0166505
675.802	0.0165504
675.880	0.0166566
675.958	0.0166990
676.036	0.0165907
676.114	0.0164636
676.192	0.0165524
676.271	0.0167369
676.349	0.0165732
676.427	0.0165315
676.505	0.0165093
676.583	0.0166189
676.661	0.0165846
676.739	0.0166105
676.817	0.0166364
676.896	0.0166265
676.974	0.0164113
677.052	0.0164931
677.130	0.0166380
677.208	0.0166049
677.286	0.0165240
677.364	0.0165764
677.442	0.0166595
677.521	0.0166599
677.599	0.0165868
677.677	0.0165025
677.755	0.0165483
677.833	0.0166280
677.911	0.0166549
677.989	0.0164728
678.067	0.0165726
678.146	0.0165277
678.224	0.0166086
678.302	0.0164495
678.380	0.0166109
678.458	0.0165498
678.536	0.0167249
678.614	0.0165318
678.692	0.0164944
678.771	0.0166151
678.849	0.0164795
678.927	0.0164857
679.005	0.0165664
679.083	0.0165384
679.161	0.0166322
679.239	0.0165400
679.317	0.0164930
679.396	0.0165653
679.474	0.0164062
679.552	0.0164919
679.630	0.0164758
679.708	0.0164710
679.786	0.0165477
679.864	0.0166490
679.942	0.0165134
680.021	0.0164953
680.099	0.0165417
680.177	0.0166165
680.255	0.0166917
680.333	0.0166126
680.411	0.0166299
680.489	0.0165340
680.567	0.0165482
680.646	0.0164944
680.724	0.0166196
680.802	0.0164704
680.880	0.0164272
680.958	0.0164706
681.036	0.0165157
681.114	0.0165392
681.192	0.0164169
681.271	0.0166065
681.349	0.0166334
681.427	0.0165085
681.505	0.0164268
681.583	0.0164659
681.661	0.0164549
681.739	0.0165879
681.817	0.0165246
681.896	0.0165958
681.974	0.0165093
682.052	0.0165023
682.130	0.0164925
682.208	0.0164335
682.286	0.0164671
682.364	0.0164735
682.442	0.0164256
682.521	0.0166084
682.599	0.0165691
682.677	0.0164813
682.755	0.0165534
682.833	0.0165283
682.911	0.0164886
682.989	0.0165845
683.067	0.0165591
683.146	0.0165189
683.224	0.0166850
683.302	0.0165823
683.380	0.0165034
683.458	0.0165882
683.536	0.0165639
683.614	0.0165066
683.692	0.0165534
683.771	0.0165318
683.849	0.0166560
683.927	0.0165835
684.005	0.0165305
684.083	0.0166772
684.161	0.0166843
684.239	0.0166885
684.317	0.0165257
684.396	0.0164964
684.474	0.0166826
684.552	0.0166210
684.630	0.0164422
684.708	0.0166959
684.786	0.0165854
684.864	0.0165673
684.942	0.0166518
685.021	0.0167131
685.099	0.0165732
685.177	0.0165714
685.255	0.0165421
685.333	0.0166302
685.411	0.0165789
685.489	0.0166355
685.567	0.0166135
685.646	0.0166730
685.724	0.0167433
685.802	0.0166433
685.880	0.0166753
685.958	0.0165487
686.036	0.0166718
686.114	0.0167138
686.192	0.0166874
686.271	0.0168082
686.349	0.0166743
686.427	0.0166535
686.505	0.0167135
686.583	0.0166464
686.661	0.0166949
686.739	0.0167632
686.817	0.0168162
686.896	0.0167053
686.974	0.0166677
687.052	0.0166787
687.130	0.0165944
687.208	0.0167363
687.286	0.0168386
687.364	0.0166499
687.442	0.0166012
687.521	0.0166429
687.599	0.0167159
687.677	0.0166931
687.755	0.0166274
687.833	0.0166663
687.911	0.0166478
687.989	0.0166496
688.067	0.0165923
688.146	0.0167078
688.224	0.0165712
688.302	0.0166933
688.380	0.0166100
688.458	0.0166972
688.536	0.0167856
688.614	0.0166670
688.692	0.0166120
688.771	0.0166743
688.849	0.0166642
688.927	0.0167004
689.005	0.0166280
689.083	0.0165967
689.161	0.0166265
689.239	0.0166451
689.317	0.0165548
689.396	0.0167099
689.474	0.0165700
689.552	0.0165752
689.630	0.0165706
689.708	0.0166817
689.786	0.0166343
689.864	0.0165313
689.942	0.0166149
690.021	0.0166831
690.099	0.0166435
690.177	0.0165735
690.255	0.0167399
690.333	0.0166740
690.411	0.0165914
690.489	0.0166020
690.567	0.0165506
690.646	0.0165668
690.724	0.0167014
690.802	0.0166808
690.880	0.0165484
690.958	0.0165808
691.036	0.0165302
691.114	0.0167102
691.192	0.0166158
691.271	0.0164748
691.349	0.0166302
691.427	0.0165202
691.505	0.0166395
691.583	0.0166590
691.661	0.0166489
691.739	0.0166225
691.817	0.0165829
691.896	0.0166028
691.974	0.0166875
692.052	0.0166989
692.130	0.0166191
692.208	0.0165668
692.286	0.0165716
692.364	0.0166657
692.442	0.0165197
692.521	0.0166408
692.599	0.0164401
692.677	0.0164668
692.755	0.0164857
692.833	0.0165381
692.911	0.0164748
692.989	0.0165005
693.067	0.0164121
693.146	0.0167268
693.224	0.0165616
693.302	0.0164845
693.380	0.0164491
693.458	0.0165376
693.536	0.0164902
693.614	0.0163211
693.692	0.0166463
693.771	0.0165825
693.849	0.0164141
693.927	0.0165981
694.005	0.0165233
694.083	0.0163651
694.161	0.0165417
694.239	0.0166611
694.317	0.0165240
694.396	0.0165689
694.474	0.0166711
694.552	0.0165318
694.630	0.0166354
694.708	0.0166434
694.786	0.0166122
694.864	0.0164698
694.942	0.0164920
695.021	0.0164863
695.099	0.0164787
695.177	0.0166537
695.255	0.0164875
695.333	0.0165584
695.411	0.0166020
695.489	0.0165811
695.567	0.0165646
695.646	0.0165775
695.724	0.0165825
695.802	0.0166096
695.880	0.0165844
695.958	0.0166431
696.036	0.0166436
696.114	0.0166269
696.192	0.0164474
696.271	0.0165514
696.349	0.0165629
696.427	0.0165855
696.505	0.0166615
696.583	0.0165210
696.661	0.0166977
696.739	0.0166660
696.817	0.0165588
696.896	0.0164648
696.974	0.0165835
697.052	0.0165955
697.130	0.0166737
697.208	0.0166740
697.286	0.0165245
697.364	0.0166117
697.442	0.0162399
697.521	0.0161797
697.599	0.0162128
697.677	0.0160862
697.755	0.0161056
697.833	0.0162964
697.911	0.0164022
697.989	0.0166845
698.067	0.0169150
698.146	0.0171339
698.224	0.0173141
698.302	0.0176488
698.380	0.0177837
698.458	0.0177935
698.536	0.0178138
698.614	0.0174518
698.692	0.0172157
698.771	0.0168221
698.849	0.0162698
698.927	0.0158315
699.005	0.0151572
699.083	0.0147144
699.161	0.0143600
699.239	0.0143863
699.317	0.0146037
699.396	0.0148068
699.474	0.0153197
699.552	0.0160297
699.630	0.0165552
699.708	0.0172219
699.786	0.0180723
699.864	0.0186333
699.942	0.0191378
700.021	0.0194286
700.099	0.0194711
700.177	0.0193884
700.255	0.0192863
700.333	0.0186887
700.411	0.0181631
700.489	0.0174124
700.567	0.0165770
700.646	0.0159210
700.724	0.0152382
700.802	0.0147188
700.880	0.0142827
700.958	0.0139333
701.036	0.0139099
701.114	0.0140634
701.192	0.0143654
701.271	0.0148882
701.349	0.0153401
701.427	0.0160910
701.505	0.0168682
701.583	0.0174052
701.661	0.0180724
701.739	0.0184443
701.817	0.0189277
701.896	0.0190172
701.974	0.0189201
702.052	0.0187765
702.130	0.0183773
702.208	0.0178394
702.286	0.0172129
702.364	0.0165949
702.442	0.0160941
702.521	0.0155664
702.599	0.0152431
702.677	0.0149406
702.755	0.0147455
702.833	0.0147585
702.911	0.0147117
702.989	0.0150976
703.067	0.0150502
703.146	0.0152750
703.224	0.0157014
703.302	0.0161392
703.380	0.0163338
703.458	0.0164997
703.536	0.0167977
703.614	0.0170519
703.692	0.0172044
703.771	0.0174435
703.849	0.0173670
703.927	0.0175075
704.005	0.0176111
704.083	0.0176559
704.161	0.0176713
704.239	0.0175636
704.317	0.0173948
704.396	0.0172723
704.474	0.0170947
704.552	0.0169759
704.630	0.0166340
704.708	0.0166460
704.786	0.0164883
704.864	0.0163057
704.942	0.0161149
705.021	0.0162302
705.099	0.0162737
705.177	0.0162637
705.255	0.0163227
705.333	0.0164584
705.411	0.0163002
705.489	0.0163177
705.567	0.0162127
705.646	0.0162329
705.724	0.0161603
705.802	0.0161736
705.880	0.0161299
705.958	0.0158904
706.036	0.0159440
706.114	0.0157238
706.192	0.0156224
706.271	0.0155674
706.349	0.0157641
706.427	0.0155791
706.505	0.0156668
706.583	0.0157874
706.661	0.0157961
706.739	0.0160452
706.817	0.0160190
706.896	0.0162361
706.974	0.0165119
707.052	0.0166985
707.130	0.0168869
707.208	0.0171756
707.286	0.0174355
707.364	0.0175816
707.442	0.0178578
707.521	0.0180486
707.599	0.0181212
707.677	0.0181326
707.755	0.0180909
707.833	0.0182915
707.911	0.0181836
707.989	0.0179573
708.067	0.0178980
708.146	0.0178556
708.224	0.0176757
708.302	0.0172588
708.380	0.0170224
708.458	0.0167255
708.536	0.0164419
708.614	0.0161168
708.692	0.0156926
708.771	0.0155329
708.849	0.0151591
708.927	0.0150214
709.005	0.0150339
709.083	0.0149683
709.161	0.0147712
709.239	0.0148439
709.317	0.0150594
709.396	0.0151742
709.474	0.0154916
709.552	0.0157011
709.630	0.0159605
709.708	0.0162200
709.786	0.0163982
709.864	0.0166620
709.942	0.0168599
710.021	0.0169865
710.099	0.0171494
710.177	0.0173178
710.255	0.0173732
710.333	0.0172718
710.411	0.0171922
710.489	0.0171819
710.567	0.0169805
710.646	0.0169594
710.724	0.0167596
710.802	0.0165492
710.880	0.0164097
710.958	0.0161509
711.036	0.0161546
711.114	0.0161234
711.192	0.0161539
711.271	0.0162251
711.349	0.0164036
711.427	0.0165101
711.505	0.0167442
711.583	0.0171230
711.661	0.0172626
711.739	0.0177278
711.817	0.0178204
711.896	0.0178530
711.974	0.0179755
712.052	0.0180593
712.130	0.0179578
712.208	0.0180384
712.286	0.0176891
712.364	0.0175454
712.442	0.0173612
712.521	0.0170248
712.599	0.0166920
712.677	0.0161580
712.755	0.0161300
712.833	0.0158807
712.911	0.0156400
712.989	0.0153239
713.067	0.0153596
713.146	0.0151013
713.224	0.0151753
713.302	0.0152734
713.380	0.0153045
713.458	0.0156349
713.536	0.0157520
713.614	0.0160197
713.692	0.0162273
713.771	0.0165131
713.849	0.0166489
713.927	0.0167140
714.005	0.0169406
714.083	0.0171236
714.161	0.0171673
714.239	0.0172325
714.317	0.0174761
714.396	0.0173019
714.474	0.0172842
714.552	0.0172480
714.630	0.0173699
714.708	0.0172519
714.786	0.0173235
714.864	0.0172454
714.942	0.0172531
715.021	0.0172070
715.099	0.0172159
715.177	0.0172462
715.255	0.0172236
715.333	0.0172400
715.411	0.0170561
715.489	0.0169411
715.567	0.0169523
715.646	0.0167397
715.724	0.0165273
715.802	0.0166212
715.880	0.0163570
715.958	0.0160919
716.036	0.0159914
716.114	0.0158530
716.192	0.0158271
716.271	0.0157691
716.349	0.0156295
716.427	0.0157975
716.505	0.0158884
716.583	0.0159277
716.661	0.0158865
716.739	0.0159130
716.817	0.0160156
716.896	0.0159912
716.974	0.0160352
717.052	0.0162572
717.130	0.0161934
717.208	0.0163580
717.286	0.0164027
717.364	0.0166297
717.442	0.0164787
717.521	0.0165607
717.599	0.0166681
717.677	0.0166911
717.755	0.0166076
717.833	0.0167379
717.911	0.0167731
717.989	0.0167021
718.067	0.0168111
718.146	0.0167873
718.224	0.0167902
718.302	0.0166636
718.380	0.0168446
718.458	0.0167680
718.536	0.0169595
718.614	0.0170388
718.692	0.0171616
718.771	0.0171962
718.849	0.0171635
718.927	0.0173066
719.005	0.0172414
719.083	0.0170561
719.161	0.0170019
719.239	0.0169134
719.317	0.0167626
719.396	0.0165846
719.474	0.0164525
719.552	0.0161433
719.630	0.0159399
719.708	0.0159592
719.786	0.0160078
719.864	0.0159026
719.942	0.0160992
720.021	0.0160040
720.099	0.0159477
720.177	0.0162147
720.255	0.0162869
720.333	0.0163721
720.411	0.0164867
720.489	0.0166912
720.567	0.0167099
720.646	0.0166607
720.724	0.0167558
720.802	0.0167287
720.880	0.0167740
720.958	0.0165761
721.036	0.0166080
721.114	0.0163649
721.192	0.0164429
721.271	0.0164846
721.349	0.0162153
721.427	0.0162219
721.505	0.0163506
721.583	0.0161543
721.661	0.0162204
721.739	0.0161771
721.817	0.0161394
721.896	0.0162643
721.974	0.0161963
722.052	0.0163017
722.130	0.0162979
722.208	0.0164415
722.286	0.0164735
722.364	0.0166258
722.442	0.0165234
722.521	0.0166835
722.599	0.0169244
722.677	0.0167796
722.755	0.0169193
722.833	0.0169476
722.911	0.0168041
722.989	0.0168124
723.067	0.0168076
723.146	0.0168067
723.224	0.0166855
723.302	0.0166850
723.380	0.0165206
723.458	0.0164113
723.536	0.0163058
723.614	0.0164983
723.692	0.0164390
723.771	0.0164764
723.849	0.0165197
723.927	0.0168030
724.005	0.0167235
724.083	0.0168675
724.161	0.0171026
724.239	0.0173425
724.317	0.0173763
724.396	0.0175975
724.474	0.0176778
724.552	0.0176031
724.630	0.0177524
724.708	0.0176127
724.786	0.0175571
724.864	0.0173924
724.942	0.0171258
725.021	0.0168858
725.099	0.0167609
725.177	0.0165571
725.255	0.0164368
725.333	0.0162663
725.411	0.0161185
725.489	0.0162572
725.567	0.0160683
725.646	0.0160429
725.724	0.0161568
725.802	0.0161916
725.880	0.0163672
725.958	0.0164085
726.036	0.0164536
726.114	0.0163280
726.192	0.0163627
726.271	0.0164696
726.349	0.0164617
726.427	0.0164134
726.505	0.0164331
726.583	0.0163685
726.661	0.0161260
726.739	0.0160633
726.817	0.0161021
726.896	0.0159985
726.974	0.0158573
727.052	0.0157717
727.130	0.0159651
727.208	0.0160097
727.286	0.0160532
727.364	0.0159824
727.442	0.0162128
727.521	0.0163594
727.599	0.0164908
727.677	0.0165063
727.755	0.0165847
727.833	0.0165577
727.911	0.0167591
727.989	0.0169241
728.067	0.0169028
728.146	0.0167775
728.224	0.0167391
728.302	0.0168171
728.380	0.0169284
728.458	0.0169080
728.536	0.0168892
728.614	0.0166743
728.692	0.0167426
728.771	0.0166837
728.849	0.0167611
728.927	0.0167722
729.005	0.0169044
729.083	0.0168827
729.161	0.0167912
729.239	0.0168858
729.317	0.0169297
729.396	0.0170376
729.474	0.0171303
729.552	0.0169558
729.630	0.0169846
729.708	0.0168779
729.786	0.0167517
729.864	0.0167707
729.942	0.0166547
730.021	0.0165405
730.099	0.0164571
730.177	0.0165296
730.255	0.0164298
730.333	0.0163309
730.411	0.0161162
730.489	0.0162082
730.567	0.0162154
730.646	0.0162437
730.724	0.0163068
730.802	0.0162453
730.880	0.0164951
730.958	0.0163918
731.036	0.0164384
731.114	0.0165823
731.192	0.0165019
731.271	0.0165803
731.349	0.0165670
731.427	0.0164919
731.505	0.0167243
731.583	0.0166213
731.661	0.0166200
731.739	0.0165606
731.817	0.0164811
731.896	0.0165475
731.974	0.0166421
732.052	0.0164663
732.130	0.0164307
732.208	0.0163589
732.286	0.0163911
732.364	0.0164948
732.442	0.0163947
732.521	0.0163698
732.599	0.0163019
732.677	0.0164827
732.755	0.0165148
732.833	0.0165351
732.911	0.0163718
732.989	0.0165654
733.067	0.0166272
733.146	0.0165824
733.224	0.0166123
733.302	0.0166599
733.380	0.0167284
733.458	0.0167467
733.536	0.0166277
733.614	0.0166918
733.692	0.0167678
733.771	0.0166220
733.849	0.0166979
733.927	0.0166584
734.005	0.0167484
734.083	0.0167895
734.161	0.0167116
734.239	0.0167585
734.317	0.0167758
734.396	0.0166091
734.474	0.0167520
734.552	0.0167432
734.630	0.0168048
734.708	0.0168714
734.786	0.0168468
734.864	0.0168873
734.942	0.0170212
735.021	0.0170229
735.099	0.0169613
735.177	0.0170747
735.255	0.0170789
735.333	0.0171449
735.411	0.0169476
735.489	0.0169679
735.567	0.0171603
735.646	0.0167905
735.724	0.0167265
735.802	0.0165857
735.880	0.0164608
735.958	0.0164449
736.036	0.0162783
736.114	0.0162937
736.192	0.0160870
736.271	0.0161333
736.349	0.0161436
736.427	0.0160405
736.505	0.0162045
736.583	0.0161893
736.661	0.0162466
736.739	0.0163624
736.817	0.0163043
736.896	0.0162682
736.974	0.0164982
737.052	0.0164014
737.130	0.0164577
737.208	0.0165417
737.286	0.0165005
737.364	0.0166192
737.442	0.0165059
737.521	0.0164945
737.599	0.0164304
737.677	0.0164545
737.755	0.0165009
737.833	0.0164689
737.911	0.0164381
737.989	0.0164176
738.067	0.0164449
738.146	0.0165533
738.224	0.0167290
738.302	0.0168674
738.380	0.0168182
738.458	0.0167914
738.536	0.0167397
738.614	0.0168647
738.692	0.0169307
738.771	0.0168816
738.849	0.0169658
738.927	0.0167975
739.005	0.0167858
739.083	0.0168103
739.161	0.0168546
739.239	0.0167529
739.317	0.0167840
739.396	0.0167612
739.474	0.0168221
739.552	0.0165994
739.630	0.0167643
739.708	0.0167289
739.786	0.0168566
739.864	0.0167754
739.942	0.0168774
740.021	0.0168964
740.099	0.0168452
740.177	0.0168189
740.255	0.0168126
740.333	0.0167712
740.411	0.0166241
740.489	0.0166518
740.567	0.0167025
740.646	0.0167004
740.724	0.0165439
740.802	0.0164248
740.880	0.0163092
740.958	0.0162749
741.036	0.0163485
741.114	0.0164537
741.192	0.0162035
741.271	0.0162642
741.349	0.0164153
741.427	0.0163273
741.505	0.0163810
741.583	0.0164356
741.661	0.0165115
741.739	0.0165693
741.817	0.0165865
741.896	0.0166653
741.974	0.0166973
742.052	0.0167127
742.130	0.0165538
742.208	0.0166267
742.286	0.0166080
742.364	0.0165900
742.442	0.0164686
742.521	0.0164048
742.599	0.0163736
742.677	0.0165243
742.755	0.0164060
742.833	0.0163867
742.911	0.0162929
742.989	0.0163895
743.067	0.0165191
743.146	0.0165853
743.224	0.0166315
743.302	0.0167207
743.380	0.0166453
743.458	0.0167070
743.536	0.0166937
743.614	0.0167290
743.692	0.0166551
743.771	0.0166553
743.849	0.0166646
743.927	0.0165427
744.005	0.0165392
744.083	0.0166010
744.161	0.0164848
744.239	0.0164502
744.317	0.0164333
744.396	0.0163838
744.474	0.0163747
744.552	0.0164571
744.630	0.0165801
744.708	0.0165172
744.786	0.0165067
744.864	0.0165178
744.942	0.0165903
745.021	0.0165978
745.099	0.0167045
745.177	0.0166835
745.255	0.0166412
745.333	0.0165816
745.411	0.0166397
745.489	0.0166740
745.567	0.0166952
745.646	0.0168585
745.724	0.0167400
745.802	0.0168253
745.880	0.0167293
745.958	0.0165302
746.036	0.0166076
746.114	0.0165266
746.192	0.0165674
746.271	0.0164999
746.349	0.0164365
746.427	0.0164648
746.505	0.0163327
746.583	0.0163383
746.661	0.0163616
746.739	0.0163041
746.817	0.0164130
746.896	0.0164960
746.974	0.0163886
747.052	0.0164787
747.130	0.0167319
747.208	0.0166404
747.286	0.0167830
747.364	0.0167153
747.442	0.0168150
747.521	0.0169296
747.599	0.0170505
747.677	0.0170658
747.755	0.0169794
747.833	0.0169125
747.911	0.0169547
747.989	0.0167955
748.067	0.0167748
748.146	0.0167644
748.224	0.0165913
748.302	0.0164986
748.380	0.0164391
748.458	0.0162811
748.536	0.0162582
748.614	0.0160239
748.692	0.0159085
748.771	0.0160622
748.849	0.0159032
748.927	0.0159168
749.005	0.0158892
749.083	0.0159005
749.161	0.0159593
749.239	0.0159795
749.317	0.0160120
749.396	0.0160439
749.474	0.0161417
749.552	0.0161661
749.630	0.0163493
749.708	0.0163834
749.786	0.0164857
749.864	0.0165108
749.942	0.0165107
750.021	0.0166124
750.099	0.0165678
750.177	0.0167073
750.255	0.0167917
750.333	0.0167438
750.411	0.0166126
750.489	0.0167423
750.567	0.0168613
750.646	0.0167516
750.724	0.0168347
750.802	0.0167483
750.880	0.0168497
750.958	0.0167461
751.036	0.0168452
751.114	0.0167398
751.192	0.0169539
751.271	0.0167757
751.349	0.0166804
751.427	0.0167657
751.505	0.0168867
751.583	0.0167836
751.661	0.0167463
751.739	0.0167199
751.817	0.0166145
751.896	0.0165912
751.974	0.0165369
752.052	0.0166020
752.130	0.0164716
752.208	0.0164455
752.286	0.0163912
752.364	0.0164975
752.442	0.0164696
752.521	0.0164974
752.599	0.0163250
752.677	0.0164243
752.755	0.0161734
752.833	0.0162164
752.911	0.0163747
752.989	0.0162025
753.067	0.0161254
753.146	0.0161642
753.224	0.0162163
753.302	0.0163258
753.380	0.0164787
753.458	0.0163655
753.536	0.0164515
753.614	0.0166766
753.692	0.0166052
753.771	0.0167631
753.849	0.0167003
753.927	0.0168482
754.005	0.0168484
754.083	0.0169643
754.161	0.0170197
754.239	0.0168317
754.317	0.0167820
754.396	0.0169366
754.474	0.0168566
754.552	0.0167912
754.630	0.0166718
754.708	0.0165957
754.786	0.0166338
754.864	0.0165626
754.942	0.0164795
755.021	0.0165849
755.099	0.0163098
755.177	0.0165152
755.255	0.0165562
755.333	0.0164791
755.411	0.0163810
755.489	0.0164306
755.567	0.0165827
755.646	0.0165587
755.724	0.0165407
755.802	0.0165816
755.880	0.0164949
755.958	0.0166640
756.036	0.0166063
756.114	0.0167970
756.192	0.0165551
756.271	0.0165215
756.349	0.0165560
756.427	0.0165640
756.505	0.0165050
756.583	0.0167330
756.661	0.0165491
756.739	0.0165610
756.817	0.0164767
756.896	0.0165628
756.974	0.0163624
757.052	0.0163441
757.130	0.0164291
757.208	0.0163960
757.286	0.0165104
757.364	0.0163974
757.442	0.0165346
757.521	0.0163850
757.599	0.0164318
757.677	0.0164632
757.755	0.0166399
757.833	0.0166866
757.911	0.0164934
757.989	0.0165606
758.067	0.0168204
758.146	0.0168720
758.224	0.0165628
758.302	0.0167587
758.380	0.0166553
758.458	0.0167134
758.536	0.0167207
758.614	0.0167292
758.692	0.0166678
758.771	0.0166496
758.849	0.0165341
758.927	0.0162818
759.005	0.0163495
759.083	0.0163648
759.161	0.0164452
759.239	0.0163023
759.317	0.0162103
759.396	0.0161111
759.474	0.0161028
759.552	0.0163293
759.630	0.0163015
759.708	0.0163219
759.786	0.0163877
759.864	0.0162804
759.942	0.0163055
760.021	0.0165502
760.099	0.0166640
760.177	0.0165508
760.255	0.0167716
760.333	0.0169361
760.411	0.0170247
760.489	0.0169236
760.567	0.0167813
760.646	0.0168758
760.724	0.0168336
760.802	0.0168081
760.880	0.0169456
760.958	0.0167569
761.036	0.0167345
761.114	0.0167551
761.192	0.0167638
761.271	0.0167991
761.349	0.0167442
761.427	0.0166344
761.505	0.0165142
761.583	0.0165479
761.661	0.0165916
761.739	0.0165635
761.817	0.0166190
761.896	0.0165328
761.974	0.0164207
762.052	0.0165109
762.130	0.0164314
762.208	0.0164884
762.286	0.0165417
762.364	0.0164788
762.442	0.0164182
762.521	0.0164311
762.599	0.0165738
762.677	0.0164943
762.755	0.0165071
762.833	0.0164084
762.911	0.0164750
762.989	0.0164953
763.067	0.0166062
763.146	0.0164674
763.224	0.0165350
763.302	0.0166399
763.380	0.0166642
763.458	0.0166808
763.536	0.0168111
763.614	0.0167649
763.692	0.0168192
763.771	0.0167776
763.849	0.0168796
763.927	0.0168204
764.005	0.0169664
764.083	0.0168877
764.161	0.0168679
764.239	0.0168725
764.317	0.0169029
764.396	0.0169452
764.474	0.0168230
764.552	0.0169024
764.630	0.0166452
764.708	0.0167065
764.786	0.0166075
764.864	0.0165517
764.942	0.0165653
765.021	0.0164405
765.099	0.0165665
765.177	0.0164230
765.255	0.0163928
765.333	0.0164851
765.411	0.0164028
765.489	0.0162696
765.567	0.0163752
765.646	0.0163319
765.724	0.0162805
765.802	0.0163672
765.880	0.0164207
765.958	0.0163274
766.036	0.0163649
766.114	0.0162901
766.192	0.0163304
766.271	0.0164545
766.349	0.0164945
766.427	0.0164371
766.505	0.0163963
766.583	0.0164178
766.661	0.0166882
766.739	0.0165231
766.817	0.0165230
766.896	0.0165398
766.974	0.0166451
767.052	0.0166593
767.130	0.0165927
767.208	0.0166232
767.286	0.0166769
767.364	0.0166672
767.442	0.0166586
767.521	0.0166687
767.599	0.0168332
767.677	0.0167280
767.755	0.0164255
767.833	0.0166769
767.911	0.0167448
767.989	0.0165704
768.067	0.0164747
768.146	0.0165814
768.224	0.0165100
768.302	0.0164734
768.380	0.0165329
768.458	0.0166573
768.536	0.0166812
768.614	0.0165999
768.692	0.0164700
768.771	0.0164301
768.849	0.0163308
768.927	0.0166096
769.005	0.0166323
769.083	0.0163931
769.161	0.0163866
769.239	0.0163834
769.317	0.0164586
769.396	0.0164505
769.474	0.0165887
769.552	0.0164789
769.630	0.0165932
769.708	0.0165101
769.786	0.0165646
769.864	0.0165292
769.942	0.0164761
770.021	0.0165710
770.099	0.0165862
770.177	0.0167589
770.255	0.0167672
770.333	0.0167487
770.411	0.0168062
770.489	0.0167654
770.567	0.0168221
770.646	0.0167827
770.724	0.0167350
770.802	0.0165961
770.880	0.0167773
770.958	0.0166216
771.036	0.0166137
771.114	0.0166634
771.192	0.0166386
771.271	0.0165659
771.349	0.0164703
771.427	0.0163039
771.505	0.0163631
771.583	0.0165199
771.661	0.0163209
771.739	0.0163107
771.817	0.0162807
771.896	0.0162798
771.974	0.0162434
772.052	0.0162410
772.130	0.0163376
772.208	0.0163725
772.286	0.0162725
772.364	0.0164538
772.442	0.0165664
772.521	0.0166097
772.599	0.0165526
772.677	0.0166979
772.755	0.0168350
772.833	0.0167068
772.911	0.0166740
772.989	0.0165714
773.067	0.0167789
773.146	0.0167657
773.224	0.0165778
773.302	0.0166528
773.380	0.0166734
773.458	0.0165757
773.536	0.0166417
773.614	0.0164804
773.692	0.0165607
773.771	0.0165269
773.849	0.0166480
773.927	0.0164857
774.005	0.0165494
774.083	0.0164948
774.161	0.0166556
774.239	0.0164367
774.317	0.0165517
774.396	0.0164899
774.474	0.0165288
774.552	0.0164294
774.630	0.0164009
774.708	0.0164577
774.786	0.0163610
774.864	0.0162135
774.942	0.0163907
775.021	0.0163652
775.099	0.0164317
775.177	0.0164710
775.255	0.0164837
775.333	0.0163634
775.411	0.0165054
775.489	0.0166358
775.567	0.0165681
775.646	0.0166512
775.724	0.0165746
775.802	0.0167191
775.880	0.0166960
775.958	0.0166287
776.036	0.0166228
776.114	0.0167042
776.192	0.0166409
776.271	0.0166843
776.349	0.0165694
776.427	0.0167387
776.505	0.0168104
776.583	0.0166437
776.661	0.0167064
776.739	0.0167650
776.817	0.0167249
776.896	0.0167141
776.974	0.0167271
777.052	0.0167089
777.130	0.0167717
777.208	0.0167469
777.286	0.0166990
777.364	0.0167684
777.442	0.0167146
777.521	0.0166890
777.599	0.0165723
777.677	0.0165919
777.755	0.0165943
777.833	0.0165890
777.911	0.0163631
777.989	0.0164133
778.067	0.0163731
778.146	0.0163522
778.224	0.0162946
778.302	0.0163651
778.380	0.0163723
778.458	0.0163840
778.536	0.0162670
778.614	0.0163930
778.692	0.0162906
778.771	0.0164648
778.849	0.0165044
778.927	0.0165057
779.005	0.0165633
779.083	0.0165369
779.161	0.0168799
779.239	0.0167478
779.317	0.0166714
779.396	0.0167197
779.474	0.0167236
779.552	0.0167622
779.630	0.0167214
779.708	0.0165861
779.786	0.0166275
779.864	0.0166250
779.942	0.0165765
780.021	0.0165211
780.099	0.0166883
780.177	0.0166410
780.255	0.0165376
780.333	0.0165263
780.411	0.0165540
780.489	0.0164830
780.567	0.0165825
780.646	0.0165844
780.724	0.0166966
780.802	0.0165555
780.880	0.0166164
780.958	0.0165342
781.036	0.0167265
781.114	0.0167532
781.192	0.0165900
781.271	0.0165260
781.349	0.0165360
781.427	0.0165255
781.505	0.0166029
781.583	0.0166220
781.661	0.0164643
781.739	0.0165031
781.817	0.0165792
781.896	0.0165715
781.974	0.0163621
782.052	0.0164429
782.130	0.0164230
782.208	0.0163930
782.286	0.0163539
782.364	0.0163921
782.442	0.0165572
782.521	0.0164085
782.599	0.0164938
782.677	0.0164943
782.755	0.0163715
782.833	0.0164037
782.911	0.0164077
782.989	0.0165111
783.067	0.0164345
783.146	0.0164552
783.224	0.0166003
783.302	0.0163802
783.380	0.0164869
783.458	0.0165838
783.536	0.0165200
783.614	0.0166010
783.692	0.0167202
783.771	0.0166698
783.849	0.0167924
783.927	0.0167562
784.005	0.0166983
784.083	0.0168414
784.161	0.0169631
784.239	0.0169232
784.317	0.0167939
784.396	0.0167216
784.474	0.0169362
784.552	0.0168293
784.630	0.0167029
784.708	0.0168584
784.786	0.0166856
784.864	0.0165781
784.942	0.0164246
785.021	0.0165244
785.099	0.0164797
785.177	0.0164095
785.255	0.0164434
785.333	0.0163685
785.411	0.0163321
785.489	0.0163300
785.567	0.0162600
785.646	0.0163908
785.724	0.0164846
785.802	0.0165018
785.880	0.0164677
785.958	0.0165185
786.036	0.0167101
786.114	0.0165619
786.192	0.0168441
786.271	0.0168460
786.349	0.0168081
786.427	0.0167084
786.505	0.0168673
786.583	0.0168394
786.661	0.0167891
786.739	0.0168863
786.817	0.0169807
786.896	0.0168716
786.974	0.0167632
787.052	0.0168520
787.130	0.0167814
787.208	0.0167576
787.286	0.0167497
787.364	0.0164732
787.442	0.0165028
787.521	0.0164817
787.599	0.0164803
787.677	0.0165747
787.755	0.0164352
787.833	0.0164738
787.911	0.0164236
787.989	0.0164479
788.067	0.0164084
788.146	0.0165305
788.224	0.0165244
788.302	0.0163377
788.380	0.0164417
788.458	0.0165601
788.536	0.0165444
788.614	0.0164733
788.692	0.0164929
788.771	0.0163305
788.849	0.0164660
788.927	0.0165272
789.005	0.0164018
789.083	0.0165629
789.161	0.0163948
789.239	0.0164519
789.317	0.0164263
789.396	0.0166243
789.474	0.0164432
789.552	0.0165224
789.630	0.0166113
789.708	0.0164619
789.786	0.0167307
789.864	0.0165858
789.942	0.0167018
790.021	0.0167159
790.099	0.0166338
790.177	0.0166496
790.255	0.0167415
790.333	0.0166795
790.411	0.0167210
790.489	0.0168002
790.567	0.0166586
790.646	0.0166152
790.724	0.0166420
790.802	0.0167052
790.880	0.0166604
790.958	0.0166243
791.036	0.0167426
791.114	0.0167783
791.192	0.0167495
791.271	0.0167329
791.349	0.0166916
791.427	0.0166901
791.505	0.0165888
791.583	0.0167101
791.661	0.0166991
791.739	0.0166638
791.817	0.0165139
791.896	0.0166051
791.974	0.0165012
792.052	0.0166322
792.130	0.0166100
792.208	0.0166163
792.286	0.0165437
792.364	0.0165731
792.442	0.0165549
792.521	0.0165842
792.599	0.0164543
792.677	0.0164606
792.755	0.0164333
792.833	0.0164751
792.911	0.0164145
792.989	0.0163503
793.067	0.0164505
793.146	0.0165597
793.224	0.0164351
793.302	0.0165288
793.380	0.0165176
793.458	0.0165307
793.536	0.0163463
793.614	0.0164588
793.692	0.0165467
793.771	0.0165749
793.849	0.0164783
793.927	0.0166542
794.005	0.0165022
794.083	0.0165067
794.161	0.0165621
794.239	0.0165347
794.317	0.0165218
794.396	0.0166120
794.474	0.0166382
794.552	0.0167110
794.630	0.0166703
794.708	0.0167136
794.786	0.0166545
794.864	0.0166577
794.942	0.0166989
795.021	0.0168638
795.099	0.0167701
795.177	0.0166940
795.255	0.0167072
795.333	0.0167655
795.411	0.0165752
795.489	0.0165652
795.567	0.0166935
795.646	0.0166038
795.724	0.0163927
795.802	0.0164813
795.880	0.0165385
795.958	0.0164619
796.036	0.0163718
796.114	0.0164062
796.192	0.0165292
796.271	0.0166611
796.349	0.0164638
796.427	0.0164983
796.505	0.0166549
796.583	0.0165549
796.661	0.0165234
796.739	0.0164926
796.817	0.0164638
796.896	0.0165763
796.974	0.0165701
797.052	0.0167193
797.130	0.0167015
797.208	0.0166686
797.286	0.0166000
797.364	0.0167786
797.442	0.0166554
797.521	0.0166035
797.599	0.0166585
797.677	0.0168124
797.755	0.0167442
797.833	0.0166796
797.911	0.0167696
797.989	0.0166824
798.067	0.0167719
798.146	0.0166496
798.224	0.0166947
798.302	0.0167385
798.380	0.0166728
798.458	0.0165469
798.536	0.0166664
798.614	0.0165590
798.692	0.0165415
798.771	0.0164196
798.849	0.0164256
798.927	0.0166203
799.005	0.0163993
799.083	0.0164978
799.161	0.0165723
799.239	0.0164986
799.317	0.0166097
799.396	0.0165211
799.474	0.0166219
799.552	0.0165231
799.630	0.0165437
799.708	0.0164984
799.786	0.0165134
799.864	0.0166320
799.942	0.0165487
800.021	0.0166379
800.099	0.0165109
800.177	0.0164403
800.255	0.0164519
800.333	0.0166396
800.411	0.0165571
800.489	0.0166173
800.567	0.0166135
800.646	0.0166637
800.724	0.0167219
800.802	0.0166798
800.880	0.0166217
800.958	0.0166609
801.036	0.0166223
801.114	0.0165977
801.192	0.0168926
801.271	0.0165944
801.349	0.0164967
801.427	0.0166006
801.505	0.0166284
801.583	0.0165777
801.661	0.0166582
801.739	0.0166000
801.817	0.0166087
801.896	0.0164828
801.974	0.0164899
802.052	0.0165362
802.130	0.0164912
802.208	0.0164175
802.286	0.0163708
802.364	0.0162071
802.442	0.0163573
802.521	0.0162000
802.599	0.0162474
802.677	0.0161169
802.755	0.0161801
802.833	0.0161442
802.911	0.0162127
802.989	0.0162360
803.067	0.0162668
803.146	0.0163264
803.224	0.0163875
803.302	0.0165512
803.380	0.0165459
803.458	0.0163585
803.536	0.0165559
803.614	0.0166824
803.692	0.0166328
803.771	0.0166267
803.849	0.0167953
803.927	0.0167930
804.005	0.0167628
804.083	0.0167708
804.161	0.0165880
804.239	0.0168299
804.317	0.0167225
804.396	0.0167461
804.474	0.0167837
804.552	0.0166088
804.630	0.0165038
804.708	0.0165549
804.786	0.0166596
804.864	0.0165656
804.942	0.0165556
805.021	0.0164732
805.099	0.0164986
805.177	0.0165023
805.255	0.0165081
805.333	0.0165503
805.411	0.0165079
805.489	0.0166678
805.567	0.0165297
805.646	0.0166486
805.724	0.0166566
805.802	0.0168982
805.880	0.0165211
805.958	0.0167206
806.036	0.0166969
806.114	0.0167881
806.192	0.0167059
806.271	0.0165896
806.349	0.0165581
806.427	0.0166178
806.505	0.0164333
806.583	0.0164409
806.661	0.0165156
806.739	0.0164257
806.817	0.0163388
806.896	0.0162276
806.974	0.0161661
807.052	0.0163470
807.130	0.0163275
807.208	0.0162283
807.286	0.0164068
807.364	0.0164122
807.442	0.0163914
807.521	0.0164492
807.599	0.0164605
807.677	0.0165273
807.755	0.0166280
807.833	0.0166678
807.911	0.0166302
807.989	0.0167339
808.067	0.0167140
808.146	0.0167065
808.224	0.0168256
808.302	0.0168415
808.380	0.0167830
808.458	0.0167139
808.536	0.0167938
808.614	0.0166792
808.692	0.0167278
808.771	0.0168949
808.849	0.0167794
808.927	0.0167911
809.005	0.0165711
809.083	0.0165576
809.161	0.0165703
809.239	0.0166273
809.317	0.0167178
809.396	0.0165666
809.474	0.0166698
809.552	0.0165110
809.630	0.0166273
809.708	0.0166782
809.786	0.0166553
809.864	0.0166601
809.942	0.0165887
810.021	0.0167540
810.099	0.0166558
810.177	0.0165862
810.255	0.0166327
810.333	0.0164725
810.411	0.0166296
810.489	0.0164787
810.567	0.0164384
810.646	0.0164829
810.724	0.0164456
810.802	0.0164212
810.880	0.0164664
810.958	0.0163629
811.036	0.0162943
811.114	0.0164107
811.192	0.0162469
811.271	0.0163776
811.349	0.0164066
811.427	0.0164305
811.505	0.0163773
811.583	0.0164191
811.661	0.0166093
811.739	0.0166010
811.817	0.0163532
811.896	0.0163950
811.974	0.0165206
812.052	0.0166820
812.130	0.0166914
812.208	0.0167165
812.286	0.0167006
812.364	0.0167610
812.442	0.0167120
812.521	0.0165683
812.599	0.0165948
812.677	0.0165651
812.755	0.0164960
812.833	0.0165989
812.911	0.0166300
812.989	0.0166829
813.067	0.0165391
813.146	0.0163758
813.224	0.0165157
813.302	0.0164185
813.380	0.0165285
813.458	0.0165141
813.536	0.0166988
813.614	0.0165365
813.692	0.0164565
813.771	0.0166167
813.849	0.0163913
813.927	0.0163693
814.005	0.0165523
814.083	0.0166992
814.161	0.0164264
814.239	0.0164912
814.317	0.0166180
814.396	0.0165898
814.474	0.0163733
814.552	0.0165792
814.630	0.0164958
814.708	0.0164891
814.786	0.0166498
814.864	0.0166696
814.942	0.0166302
815.021	0.0167696
815.099	0.0168001
815.177	0.0166121
815.255	0.0164748
815.333	0.0166076
815.411	0.0167360
815.489	0.0166547
815.567	0.0166142
815.646	0.0164938
815.724	0.0166127
815.802	0.0167107
815.880	0.0167502
815.958	0.0164781
816.036	0.0165972
816.114	0.0167328
816.192	0.0166840
816.271	0.0165527
816.349	0.0166262
816.427	0.0165532
816.505	0.0166006
816.583	0.0166842
816.661	0.0166078
816.739	0.0166280
816.817	0.0166904
816.896	0.0165914
816.974	0.0167329
817.052	0.0165871
817.130	0.0167070
817.208	0.0165836
817.286	0.0165496
817.364	0.0165282
817.442	0.0166727
817.521	0.0166454
817.599	0.0163881
817.677	0.0164818
817.755	0.0166937
817.833	0.0165860
817.911	0.0164607
817.989	0.0165332
818.067	0.0165449
818.146	0.0165505
818.224	0.0165499
818.302	0.0164333
818.380	0.0164619
818.458	0.0163815
818.536	0.0166011
818.614	0.0165794
818.692	0.0164198
818.771	0.0164687
818.849	0.0165891
818.927	0.0166816
819.005	0.0166588
819.083	0.0167873
819.161	0.0167737
819.239	0.0167289
819.317	0.0168253
819.396	0.0167996
819.474	0.0166757
819.552	0.0166553
819.630	0.0165726
819.708	0.0166152
819.786	0.0166388
819.864	0.0165015
819.942	0.0164485
820.021	0.0166016
820.099	0.0164033
820.177	0.0163908
820.255	0.0164184
820.333	0.0165699
820.411	0.0163379
820.489	0.0163504
820.567	0.0167747
820.646	0.0166762
820.724	0.0165228
820.802	0.0164380
820.880	0.0166451
820.958	0.0166758
821.036	0.0167699
821.114	0.0167192
821.192	0.0167268
821.271	0.0167417
821.349	0.0166902
821.427	0.0166949
821.505	0.0168956
821.583	0.0166595
821.661	0.0166712
821.739	0.0168829
821.817	0.0167633
821.896	0.0167374
821.974	0.0167223
822.052	0.0168899
822.130	0.0166453
822.208	0.0165517
822.286	0.0168032
822.364	0.0164938
822.442	0.0166202
822.521	0.0166238
822.599	0.0165340
822.677	0.0165216
822.755	0.0165739
822.833	0.0164229
822.911	0.0164067
822.989	0.0164873
823.067	0.0163770
823.146	0.0163892
823.224	0.0164543
823.302	0.0164169
823.380	0.0163235
823.458	0.0164692
823.536	0.0165899
823.614	0.0166550
823.692	0.0164516
823.771	0.0164983
823.849	0.0165554
823.927	0.0165887
824.005	0.0164954
824.083	0.0166783
824.161	0.0165987
824.239	0.0165398
824.317	0.0165961
824.396	0.0164995
824.474	0.0167487
824.552	0.0166251
824.630	0.0165899
824.708	0.0166285
824.786	0.0166247
824.864	0.0165591
824.942	0.0166525
825.021	0.0166154
825.099	0.0166167
825.177	0.0165926
825.255	0.0165024
825.333	0.0165805
825.411	0.0165290
825.489	0.0166079
825.567	0.0167217
825.646	0.0165783
825.724	0.0165836
825.802	0.0165975
825.880	0.0166198
825.958	0.0166228
826.036	0.0165237
826.114	0.0165994
826.192	0.0167036
826.271	0.0165945
826.349	0.0166981
826.427	0.0166279
826.505	0.0164455
826.583	0.0165330
826.661	0.0165112
826.739	0.0165271
826.817	0.0165258
826.896	0.0166171
826.974	0.0166843
827.052	0.0166006
827.130	0.0166592
827.208	0.0166925
827.286	0.0166313
827.364	0.0166222
827.442	0.0166544
827.521	0.0165340
827.599	0.0165414
827.677	0.0165905
827.755	0.0165991
827.833	0.0164970
827.911	0.0164836
827.989	0.0163987
828.067	0.0164887
828.146	0.0162826
828.224	0.0164012
828.302	0.0163139
828.380	0.0163466
828.458	0.0164167
828.536	0.0163748
828.614	0.0162699
828.692	0.0161591
828.771	0.0163741
828.849	0.0164359
828.927	0.0163940
829.005	0.0162566
829.083	0.0164661
829.161	0.0163156
829.239	0.0164715
829.317	0.0164083
829.396	0.0164774
829.474	0.0165504
829.552	0.0166319
829.630	0.0167085
829.708	0.0165347
829.786	0.0165266
829.864	0.0167404
829.942	0.0167471
830.021	0.0168172
830.099	0.0169160
830.177	0.0167632
830.255	0.0168553
830.333	0.0168286
830.411	0.0168507
830.489	0.0168679
830.567	0.0170411
830.646	0.0167771
830.724	0.0167429
830.802	0.0167496
830.880	0.0168714
830.958	0.0166277
831.036	0.0165706
831.114	0.0166076
831.192	0.0165259
831.271	0.0165617
831.349	0.0164238
831.427	0.0164185
831.505	0.0163676
831.583	0.0164921
831.661	0.0163796
831.739	0.0163760
831.817	0.0165527
831.896	0.0164691
831.974	0.0163583
832.052	0.0164307
832.130	0.0165134
832.208	0.0164430
832.286	0.0165075
832.364	0.0165864
832.442	0.0166923
832.521	0.0166856
832.599	0.0167397
832.677	0.0168098
832.755	0.0167472
832.833	0.0167430
832.911	0.0166732
832.989	0.0167747
833.067	0.0169348
833.146	0.0166962
833.224	0.0166215
833.302	0.0168269
833.380	0.0167151
833.458	0.0165698
833.536	0.0165347
833.614	0.0165540
833.692	0.0164906
833.771	0.0164949
833.849	0.0165160
833.927	0.0164406
834.005	0.0164458
834.083	0.0164400
834.161	0.0163304
834.239	0.0163867
834.317	0.0164501
834.396	0.0164936
834.474	0.0164371
834.552	0.0165625
834.630	0.0166447
834.708	0.0166065
834.786	0.0164129
834.864	0.0166814
834.942	0.0166370
835.021	0.0165611
835.099	0.0164800
835.177	0.0165496
835.255	0.0164333
835.333	0.0165662
835.411	0.0165170
835.489	0.0164890
835.567	0.0163571
835.646	0.0164635
835.724	0.0165897
835.802	0.0165129
835.880	0.0166501
835.958	0.0165361
836.036	0.0164459
836.114	0.0165092
836.192	0.0165602
836.271	0.0166291
836.349	0.0165792
836.427	0.0166212
836.505	0.0167556
836.583	0.0165620
836.661	0.0166004
836.739	0.0166480
836.817	0.0166099
836.896	0.0166934
836.974	0.0167140
837.052	0.0167546
837.130	0.0168050
837.208	0.0166357
837.286	0.0166456
837.364	0.0166740
837.442	0.0167579
837.521	0.0167180
837.599	0.0166911
837.677	0.0166595
837.755	0.0167441
837.833	0.0165735
837.911	0.0167213
837.989	0.0167275
838.067	0.0166851
838.146	0.0167654
838.224	0.0166257
838.302	0.0166739
838.380	0.0165896
838.458	0.0164605
838.536	0.0166094
838.614	0.0165347
838.692	0.0164654
838.771	0.0164813
838.849	0.0163049
838.927	0.0164670
839.005	0.0163266
839.083	0.0163826
839.161	0.0163969
839.239	0.0164668
839.317	0.0163664
839.396	0.0164550
839.474	0.0163465
839.552	0.0164994
839.630	0.0164555
839.708	0.0164056
839.786	0.0165807
839.864	0.0164732
839.942	0.0164350
840.021	0.0165668
840.099	0.0165989
840.177	0.0166850
840.255	0.0164336
840.333	0.0165611
840.411	0.0165876
840.489	0.0165510
840.567	0.0166585
840.646	0.0166956
840.724	0.0167101
840.802	0.0166344
840.880	0.0168060
840.958	0.0168144
841.036	0.0166159
841.114	0.0167259
841.192	0.0166926
841.271	0.0166341
841.349	0.0166325
841.427	0.0166930
841.505	0.0166882
841.583	0.0166946
841.661	0.0165944
841.739	0.0165598
841.817	0.0165925
841.896	0.0165389
841.974	0.0166475
842.052	0.0165109
842.130	0.0167063
842.208	0.0166206
842.286	0.0166816
842.364	0.0166633
842.442	0.0165620
842.521	0.0165604
842.599	0.0166345
842.677	0.0165600
842.755	0.0166164
842.833	0.0165094
842.911	0.0165713
842.989	0.0165540
843.067	0.0166734
843.146	0.0166199
843.224	0.0165406
843.302	0.0164873
843.380	0.0166050
843.458	0.0165753
843.536	0.0165118
843.614	0.0166206
843.692	0.0166096
843.771	0.0165764
843.849	0.0167617
843.927	0.0165327
844.005	0.0164529
844.083	0.0166640
844.161	0.0167344
844.239	0.0167030
844.317	0.0167621
844.396	0.0166536
844.474	0.0165639
844.552	0.0167117
844.630	0.0167194
844.708	0.0166062
844.786	0.0165234
844.864	0.0165530
844.942	0.0165549
845.021	0.0166518
845.099	0.0165643
845.177	0.0164521
845.255	0.0165960
845.333	0.0165891
845.411	0.0164951
845.489	0.0164885
845.567	0.0164697
845.646	0.0166031
845.724	0.0164853
845.802	0.0166720
845.880	0.0164723
845.958	0.0164521
846.036	0.0165894
846.114	0.0165063
846.192	0.0164631
846.271	0.0164480
846.349	0.0165350
846.427	0.0164090
846.505	0.0164964
846.583	0.0164092
846.661	0.0163593
846.739	0.0164395
846.817	0.0164848
846.896	0.0164462
846.974	0.0164784
847.052	0.0164941
847.130	0.0164766
847.208	0.0164886
847.286	0.0166285
847.364	0.0164828
847.442	0.0164712
847.521	0.0164324
847.599	0.0165971
847.677	0.0165311
847.755	0.0164078
847.833	0.0165263
847.911	0.0166459
847.989	0.0165105
848.067	0.0165440
848.146	0.0167158
848.224	0.0166463
848.302	0.0165630
848.380	0.0166516
848.458	0.0165896
848.536	0.0168410
848.614	0.0166888
848.692	0.0166315
848.771	0.0166879
848.849	0.0166411
848.927	0.0166744
849.005	0.0166313
849.083	0.0167357
849.161	0.0166234
849.239	0.0165115
849.317	0.0166862
849.396	0.0166561
849.474	0.0167445
849.552	0.0166835
849.630	0.0167240
849.708	0.0167605
849.786	0.0166711
849.864	0.0166957
849.942	0.0166814
850.021	0.0167317
850.099	0.0166498
850.177	0.0168245
850.255	0.0166211
850.333	0.0166353
850.411	0.0165633
850.489	0.0166472
850.567	0.0165135
850.646	0.0164831
850.724	0.0165430
850.802	0.0165736
850.880	0.0162753
850.958	0.0163819
851.036	0.0164245
851.114	0.0163699
851.192	0.0163981
851.271	0.0164040
851.349	0.0163779
851.427	0.0163708
851.505	0.0164747
851.583	0.0164378
851.661	0.0163468
851.739	0.0163713
851.817	0.0166009
851.896	0.0165533
851.974	0.0165419
852.052	0.0164735
852.130	0.0165614
852.208	0.0164934
852.286	0.0165620
852.364	0.0164870
852.442	0.0166032
852.521	0.0166173
852.599	0.0164529
852.677	0.0166483
852.755	0.0166010
852.833	0.0165562
852.911	0.0166188
852.989	0.0166283
853.067	0.0163442
853.146	0.0164727
853.224	0.0165565
853.302	0.0164899
853.380	0.0165269
853.458	0.0165149
853.536	0.0165333
853.614	0.0166917
853.692	0.0167026
853.771	0.0166330
853.849	0.0166050
853.927	0.0165513
854.005	0.0165896
854.083	0.0166760
854.161	0.0167456
854.239	0.0165922
854.317	0.0166007
854.396	0.0166912
854.474	0.0165869
854.552	0.0164153
854.630	0.0167158
854.708	0.0166051
854.786	0.0165248
854.864	0.0164023
854.942	0.0164414
855.021	0.0165327
855.099	0.0164571
855.177	0.0165502
855.255	0.0163875
855.333	0.0164679
855.411	0.0163630
855.489	0.0165346
855.567	0.0163905
855.646	0.0164456
855.724	0.0164873
855.802	0.0166373
855.880	0.0165531
855.958	0.0165559
856.036	0.0165282
856.114	0.0165301
856.192	0.0165462
856.271	0.0166527
856.349	0.0165759
856.427	0.0165100
856.505	0.0166370
856.583	0.0166651
856.661	0.0166919
856.739	0.0166467
856.817	0.0166176
856.896	0.0167102
856.974	0.0168983
857.052	0.0167123
857.130	0.0168282
857.208	0.0167998
857.286	0.0167702
857.364	0.0166228
857.442	0.0167886
857.521	0.0167456
857.599	0.0166587
857.677	0.0168768
857.755	0.0168154
857.833	0.0166594
857.911	0.0166649
857.989	0.0166238
858.067	0.0167761
858.146	0.0167357
858.224	0.0166859
858.302	0.0168095
858.380	0.0167388
858.458	0.0166143
858.536	0.0166248
858.614	0.0167722
858.692	0.0166388
858.771	0.0166653
858.849	0.0166750
858.927	0.0166036
859.005	0.0165671
859.083	0.0165948
859.161	0.0166934
859.239	0.0165127
859.317	0.0163497
859.396	0.0164343
859.474	0.0163948
859.552	0.0164954
859.630	0.0165549
859.708	0.0163800
859.786	0.0166315
859.864	0.0165444
859.942	0.0164211
860.021	0.0164987
860.099	0.0165009
860.177	0.0165004
860.255	0.0165176
860.333	0.0166055
860.411	0.0165986
860.489	0.0166367
860.567	0.0165392
860.646	0.0166382
860.724	0.0167056
860.802	0.0166418
860.880	0.0166842
860.958	0.0166120
861.036	0.0165914
861.114	0.0165379
861.192	0.0165359
861.271	0.0164881
861.349	0.0166595
861.427	0.0167397
861.505	0.0166257
861.583	0.0165991
861.661	0.0167053
861.739	0.0166972
861.817	0.0166859
861.896	0.0165863
861.974	0.0167570
862.052	0.0166715
862.130	0.0166916
862.208	0.0166502
862.286	0.0164824
862.364	0.0165976
862.442	0.0165710
862.521	0.0166245
862.599	0.0166046
862.677	0.0165179
862.755	0.0164481
862.833	0.0166978
862.911	0.0165506
862.989	0.0164601
863.067	0.0165129
863.146	0.0165066
863.224	0.0165041
863.302	0.0164997
863.380	0.0165469
863.458	0.0165535
863.536	0.0164244
863.614	0.0166243
863.692	0.0165972
863.771	0.0166152
863.849	0.0167361
863.927	0.0167053
864.005	0.0166259
864.083	0.0166837
864.161	0.0165837
864.239	0.0167286
864.317	0.0168530
864.396	0.0167285
864.474	0.0166888
864.552	0.0168355
864.630	0.0165424
864.708	0.0165085
864.786	0.0166039
864.864	0.0166038
864.942	0.0166212
865.021	0.0165289
865.099	0.0166490
865.177	0.0166382
865.255	0.0166733
865.333	0.0167001
865.411	0.0166155
865.489	0.0166251
865.567	0.0165240
865.646	0.0166590
865.724	0.0166842
865.802	0.0166411
865.880	0.0166867
865.958	0.0166602
866.036	0.0165599
866.114	0.0165875
866.192	0.0164112
866.271	0.0164632
866.349	0.0165166
866.427	0.0165015
866.505	0.0163322
866.583	0.0164790
866.661	0.0165965
866.739	0.0164036
866.817	0.0165283
866.896	0.0165347
866.974	0.0163866
867.052	0.0166209
867.130	0.0164639
867.208	0.0165049
867.286	0.0166529
867.364	0.0165996
867.442	0.0166043
867.521	0.0166335
867.599	0.0166686
867.677	0.0167035
867.755	0.0167923
867.833	0.0166725
867.911	0.0167030
867.989	0.0167238
868.067	0.0166988
868.146	0.0166115
868.224	0.0166608
868.302	0.0166833
868.380	0.0166278
868.458	0.0165144
868.536	0.0166463
868.614	0.0164703
868.692	0.0165514
868.771	0.0165244
868.849	0.0167291
868.927	0.0166543
869.005	0.0164607
869.083	0.0166268
869.161	0.0165037
869.239	0.0165839
869.317	0.0166368
869.396	0.0165721
869.474	0.0165597
869.552	0.0165199
869.630	0.0165007
869.708	0.0164658
869.786	0.0165438
869.864	0.0165148
869.942	0.0165363
