06/03/2022	16:08:57	Ver.	4.1	UNKNOWN
Optical Delay	569.994326	Delta X		0.078125	Sweeps	1	Scan Rate	0/0
Coordinates	Axis 1	NaN	Axis 2	NaN	Axis 3	NaN	Axis 4	NaN	Axis 5	NaN	Axis 6	0.000000
TX Power	0.000000	RX Power	0.000000

569.994	0.0164155
570.072	0.0164068
570.151	0.0164429
570.229	0.0163960
570.307	0.0163903
570.385	0.0165154
570.463	0.0164982
570.541	0.0164744
570.619	0.0164316
570.697	0.0164804
570.776	0.0164793
570.854	0.0165231
570.932	0.0164465
571.010	0.0163072
571.088	0.0164445
571.166	0.0164480
571.244	0.0164624
571.322	0.0163959
571.401	0.0164362
571.479	0.0165388
571.557	0.0165022
571.635	0.0165572
571.713	0.0164491
571.791	0.0164980
571.869	0.0164388
571.947	0.0164566
572.026	0.0166236
572.104	0.0164899
572.182	0.0165559
572.260	0.0165638
572.338	0.0164749
572.416	0.0165179
572.494	0.0164645
572.572	0.0164383
572.651	0.0163795
572.729	0.0166169
572.807	0.0165955
572.885	0.0163881
572.963	0.0164190
573.041	0.0164814
573.119	0.0165767
573.197	0.0165076
573.276	0.0164447
573.354	0.0165579
573.432	0.0164543
573.510	0.0163924
573.588	0.0164783
573.666	0.0163976
573.744	0.0164150
573.822	0.0164394
573.901	0.0165554
573.979	0.0164917
574.057	0.0163708
574.135	0.0164653
574.213	0.0163769
574.291	0.0163930
574.369	0.0165224
574.447	0.0165296
574.526	0.0165173
574.604	0.0163708
574.682	0.0165279
574.760	0.0165703
574.838	0.0164345
574.916	0.0163950
574.994	0.0164151
575.072	0.0166320
575.151	0.0163194
575.229	0.0164289
575.307	0.0163755
575.385	0.0164664
575.463	0.0164748
575.541	0.0162885
575.619	0.0164583
575.697	0.0163300
575.776	0.0163489
575.854	0.0165028
575.932	0.0164587
576.010	0.0164552
576.088	0.0164906
576.166	0.0163936
576.244	0.0163630
576.322	0.0163583
576.401	0.0163367
576.479	0.0164462
576.557	0.0164680
576.635	0.0164322
576.713	0.0163747
576.791	0.0163517
576.869	0.0163720
576.947	0.0164971
577.026	0.0164445
577.104	0.0163812
577.182	0.0162626
577.260	0.0163908
577.338	0.0163858
577.416	0.0165429
577.494	0.0164995
577.572	0.0163421
577.651	0.0163727
577.729	0.0163977
577.807	0.0164014
577.885	0.0166042
577.963	0.0165676
578.041	0.0164749
578.119	0.0163438
578.197	0.0166101
578.276	0.0165495
578.354	0.0163369
578.432	0.0164646
578.510	0.0164150
578.588	0.0166073
578.666	0.0165231
578.744	0.0164261
578.822	0.0164668
578.901	0.0165098
578.979	0.0164556
579.057	0.0165462
579.135	0.0165804
579.213	0.0165910
579.291	0.0166287
579.369	0.0166333
579.447	0.0165779
579.526	0.0165495
579.604	0.0166214
579.682	0.0165427
579.760	0.0165431
579.838	0.0164639
579.916	0.0165456
579.994	0.0167563
580.072	0.0164237
580.151	0.0166651
580.229	0.0165437
580.307	0.0165237
580.385	0.0166159
580.463	0.0165511
580.541	0.0165603
580.619	0.0165715
580.697	0.0165903
580.776	0.0165479
580.854	0.0167799
580.932	0.0165373
581.010	0.0164750
581.088	0.0165240
581.166	0.0166188
581.244	0.0165869
581.322	0.0165625
581.401	0.0164835
581.479	0.0165443
581.557	0.0166069
581.635	0.0164249
581.713	0.0165115
581.791	0.0165893
581.869	0.0164878
581.947	0.0165016
582.026	0.0165942
582.104	0.0164397
582.182	0.0165973
582.260	0.0165185
582.338	0.0165546
582.416	0.0165005
582.494	0.0165094
582.572	0.0165411
582.651	0.0165851
582.729	0.0165896
582.807	0.0165483
582.885	0.0165913
582.963	0.0164521
583.041	0.0165198
583.119	0.0164532
583.197	0.0164263
583.276	0.0164853
583.354	0.0166129
583.432	0.0166822
583.510	0.0165505
583.588	0.0164659
583.666	0.0164426
583.744	0.0164365
583.822	0.0164941
583.901	0.0164430
583.979	0.0164613
584.057	0.0164517
584.135	0.0163715
584.213	0.0164159
584.291	0.0163380
584.369	0.0163888
584.447	0.0164150
584.526	0.0164117
584.604	0.0164129
584.682	0.0163142
584.760	0.0163541
584.838	0.0163380
584.916	0.0164212
584.994	0.0164571
585.072	0.0163622
585.151	0.0163471
585.229	0.0163373
585.307	0.0163570
585.385	0.0162880
585.463	0.0165936
585.541	0.0164407
585.619	0.0163763
585.697	0.0163667
585.776	0.0164063
585.854	0.0163422
585.932	0.0165075
586.010	0.0164824
586.088	0.0162727
586.166	0.0165591
586.244	0.0164395
586.322	0.0164272
586.401	0.0164945
586.479	0.0164062
586.557	0.0164145
586.635	0.0164386
586.713	0.0165031
586.791	0.0163646
586.869	0.0163877
586.947	0.0164548
587.026	0.0165701
587.104	0.0164495
587.182	0.0164691
587.260	0.0163564
587.338	0.0164128
587.416	0.0163610
587.494	0.0163715
587.572	0.0163750
587.651	0.0164832
587.729	0.0164596
587.807	0.0164169
587.885	0.0163723
587.963	0.0163095
588.041	0.0163292
588.119	0.0164082
588.197	0.0163644
588.276	0.0164377
588.354	0.0164424
588.432	0.0164938
588.510	0.0163363
588.588	0.0163470
588.666	0.0166091
588.744	0.0163972
588.822	0.0164410
588.901	0.0164038
588.979	0.0164416
589.057	0.0164698
589.135	0.0166119
589.213	0.0165073
589.291	0.0163707
589.369	0.0165279
589.447	0.0164121
589.526	0.0164200
589.604	0.0164576
589.682	0.0164356
589.760	0.0164251
589.838	0.0164782
589.916	0.0164484
589.994	0.0164427
590.072	0.0164577
590.151	0.0163964
590.229	0.0163349
590.307	0.0163967
590.385	0.0164887
590.463	0.0163972
590.541	0.0163778
590.619	0.0163483
590.697	0.0165759
590.776	0.0165243
590.854	0.0164877
590.932	0.0165958
591.010	0.0164858
591.088	0.0163776
591.166	0.0163905
591.244	0.0163840
591.322	0.0166046
591.401	0.0165248
591.479	0.0165012
591.557	0.0164213
591.635	0.0163332
591.713	0.0163300
591.791	0.0164510
591.869	0.0164351
591.947	0.0163754
592.026	0.0164871
592.104	0.0164836
592.182	0.0164399
592.260	0.0163821
592.338	0.0164569
592.416	0.0163090
592.494	0.0163084
592.572	0.0164344
592.651	0.0162484
592.729	0.0163328
592.807	0.0164034
592.885	0.0164540
592.963	0.0164682
593.041	0.0164133
593.119	0.0164346
593.197	0.0162749
593.276	0.0163185
593.354	0.0164838
593.432	0.0163909
593.510	0.0163715
593.588	0.0164115
593.666	0.0164627
593.744	0.0164297
593.822	0.0163769
593.901	0.0163474
593.979	0.0163694
594.057	0.0164523
594.135	0.0163420
594.213	0.0164050
594.291	0.0163278
594.369	0.0164488
594.447	0.0163880
594.526	0.0163606
594.604	0.0162369
594.682	0.0164016
594.760	0.0164343
594.838	0.0165172
594.916	0.0162804
594.994	0.0162581
595.072	0.0161173
595.151	0.0164063
595.229	0.0162837
595.307	0.0163739
595.385	0.0163951
595.463	0.0164044
595.541	0.0164527
595.619	0.0164160
595.697	0.0163007
595.776	0.0163877
595.854	0.0163338
595.932	0.0163393
596.010	0.0164870
596.088	0.0163687
596.166	0.0163426
596.244	0.0163075
596.322	0.0162177
596.401	0.0162691
596.479	0.0164429
596.557	0.0164674
596.635	0.0162456
596.713	0.0163403
596.791	0.0164347
596.869	0.0163662
596.947	0.0164684
597.026	0.0164353
597.104	0.0162975
597.182	0.0163602
597.260	0.0163707
597.338	0.0164022
597.416	0.0165378
597.494	0.0163431
597.572	0.0165851
597.651	0.0163290
597.729	0.0162698
597.807	0.0163113
597.885	0.0163455
597.963	0.0164984
598.041	0.0163523
598.119	0.0164042
598.197	0.0164654
598.276	0.0164283
598.354	0.0163802
598.432	0.0165653
598.510	0.0165392
598.588	0.0164926
598.666	0.0164105
598.744	0.0163699
598.822	0.0164337
598.901	0.0165277
598.979	0.0165378
599.057	0.0165304
599.135	0.0164957
599.213	0.0165330
599.291	0.0165040
599.369	0.0165589
599.447	0.0164801
599.526	0.0165208
599.604	0.0165642
599.682	0.0163873
599.760	0.0164972
599.838	0.0165936
599.916	0.0165673
599.994	0.0165856
600.072	0.0164992
600.151	0.0165774
600.229	0.0165208
600.307	0.0165868
600.385	0.0166026
600.463	0.0164857
600.541	0.0164372
600.619	0.0165225
600.697	0.0165694
600.776	0.0165723
600.854	0.0165959
600.932	0.0165710
601.010	0.0165878
601.088	0.0164284
601.166	0.0164651
601.244	0.0164322
601.322	0.0165738
601.401	0.0165617
601.479	0.0164207
601.557	0.0165336
601.635	0.0165823
601.713	0.0165216
601.791	0.0163685
601.869	0.0164172
601.947	0.0166779
602.026	0.0164991
602.104	0.0163488
602.182	0.0165121
602.260	0.0165351
602.338	0.0164740
602.416	0.0164491
602.494	0.0164868
602.572	0.0164294
602.651	0.0165640
602.729	0.0165321
602.807	0.0164859
602.885	0.0163036
602.963	0.0162999
603.041	0.0165349
603.119	0.0165144
603.197	0.0165707
603.276	0.0164631
603.354	0.0163586
603.432	0.0164637
603.510	0.0164680
603.588	0.0165065
603.666	0.0165517
603.744	0.0163290
603.822	0.0164020
603.901	0.0163199
603.979	0.0163964
604.057	0.0163817
604.135	0.0164164
604.213	0.0164330
604.291	0.0163062
604.369	0.0163093
604.447	0.0163497
604.526	0.0164841
604.604	0.0163822
604.682	0.0164600
604.760	0.0163946
604.838	0.0163911
604.916	0.0162714
604.994	0.0164574
605.072	0.0163799
605.151	0.0164394
605.229	0.0163943
605.307	0.0163941
605.385	0.0164128
605.463	0.0164706
605.541	0.0163421
605.619	0.0163651
605.697	0.0164194
605.776	0.0164250
605.854	0.0163756
605.932	0.0164026
606.010	0.0163283
606.088	0.0163754
606.166	0.0163562
606.244	0.0164377
606.322	0.0164089
606.401	0.0164118
606.479	0.0164664
606.557	0.0163934
606.635	0.0162925
606.713	0.0163806
606.791	0.0165672
606.869	0.0164933
606.947	0.0164391
607.026	0.0165276
607.104	0.0164610
607.182	0.0165176
607.260	0.0165691
607.338	0.0165154
607.416	0.0163828
607.494	0.0166016
607.572	0.0164003
607.651	0.0163840
607.729	0.0164035
607.807	0.0165826
607.885	0.0164827
607.963	0.0165384
608.041	0.0164375
608.119	0.0164437
608.197	0.0164728
608.276	0.0166189
608.354	0.0163919
608.432	0.0164986
608.510	0.0165694
608.588	0.0164140
608.666	0.0164888
608.744	0.0166090
608.822	0.0165600
608.901	0.0165118
608.979	0.0165248
609.057	0.0165739
609.135	0.0165360
609.213	0.0163896
609.291	0.0165562
609.369	0.0164362
609.447	0.0164431
609.526	0.0163988
609.604	0.0164535
609.682	0.0166276
609.760	0.0164196
609.838	0.0164526
609.916	0.0163136
609.994	0.0163985
610.072	0.0164785
610.151	0.0165112
610.229	0.0164314
610.307	0.0164264
610.385	0.0164451
610.463	0.0163668
610.541	0.0165278
610.619	0.0164314
610.697	0.0163827
610.776	0.0164238
610.854	0.0163847
610.932	0.0164955
611.010	0.0164135
611.088	0.0163810
611.166	0.0163631
611.244	0.0163746
611.322	0.0163643
611.401	0.0164986
611.479	0.0163835
611.557	0.0164033
611.635	0.0162515
611.713	0.0163586
611.791	0.0164280
611.869	0.0162295
611.947	0.0163303
612.026	0.0164405
612.104	0.0162360
612.182	0.0162963
612.260	0.0162912
612.338	0.0162860
612.416	0.0163560
612.494	0.0163358
612.572	0.0162891
612.651	0.0163145
612.729	0.0163557
612.807	0.0164257
612.885	0.0162989
612.963	0.0162960
613.041	0.0163626
613.119	0.0163588
613.197	0.0164120
613.276	0.0164126
613.354	0.0164054
613.432	0.0163570
613.510	0.0163950
613.588	0.0162186
613.666	0.0163420
613.744	0.0163463
613.822	0.0163407
613.901	0.0162969
613.979	0.0161375
614.057	0.0163282
614.135	0.0162889
614.213	0.0163719
614.291	0.0163125
614.369	0.0161433
614.447	0.0162538
614.526	0.0162836
614.604	0.0162228
614.682	0.0162885
614.760	0.0162906
614.838	0.0164224
614.916	0.0162952
614.994	0.0163248
615.072	0.0163889
615.151	0.0164362
615.229	0.0163364
615.307	0.0163110
615.385	0.0164087
615.463	0.0162954
615.541	0.0163999
615.619	0.0162969
615.697	0.0162984
615.776	0.0163818
615.854	0.0163847
615.932	0.0164538
616.010	0.0163629
616.088	0.0162933
616.166	0.0162335
616.244	0.0165121
616.322	0.0163979
616.401	0.0163911
616.479	0.0162784
616.557	0.0164152
616.635	0.0163970
616.713	0.0163823
616.791	0.0163189
616.869	0.0165629
616.947	0.0164047
617.026	0.0163695
617.104	0.0164310
617.182	0.0165079
617.260	0.0164369
617.338	0.0164748
617.416	0.0163194
617.494	0.0162997
617.572	0.0165216
617.651	0.0163645
617.729	0.0164443
617.807	0.0166081
617.885	0.0165406
617.963	0.0163345
618.041	0.0163299
618.119	0.0164580
618.197	0.0164670
618.276	0.0164141
618.354	0.0165152
618.432	0.0163293
618.510	0.0163881
618.588	0.0165163
618.666	0.0163175
618.744	0.0166010
618.822	0.0165342
618.901	0.0164188
618.979	0.0163468
619.057	0.0164456
619.135	0.0163262
619.213	0.0165582
619.291	0.0163815
619.369	0.0163531
619.447	0.0164781
619.526	0.0162466
619.604	0.0163937
619.682	0.0163469
619.760	0.0164041
619.838	0.0165585
619.916	0.0164340
619.994	0.0164738
620.072	0.0165671
620.151	0.0164179
620.229	0.0164513
620.307	0.0164523
620.385	0.0164703
620.463	0.0165216
620.541	0.0165835
620.619	0.0165299
620.697	0.0165197
620.776	0.0164436
620.854	0.0165437
620.932	0.0163920
621.010	0.0163613
621.088	0.0164403
621.166	0.0164687
621.244	0.0164147
621.322	0.0164205
621.401	0.0164393
621.479	0.0165216
621.557	0.0165634
621.635	0.0164378
621.713	0.0165546
621.791	0.0166579
621.869	0.0164791
621.947	0.0164523
622.026	0.0165119
622.104	0.0164111
622.182	0.0164483
622.260	0.0166189
622.338	0.0163935
622.416	0.0165125
622.494	0.0165115
622.572	0.0164672
622.651	0.0165231
622.729	0.0164310
622.807	0.0164558
622.885	0.0165015
622.963	0.0164969
623.041	0.0165013
623.119	0.0163786
623.197	0.0163895
623.276	0.0165402
623.354	0.0164632
623.432	0.0165028
623.510	0.0164935
623.588	0.0165652
623.666	0.0164703
623.744	0.0164395
623.822	0.0165651
623.901	0.0164738
623.979	0.0164606
624.057	0.0164857
624.135	0.0164600
624.213	0.0164948
624.291	0.0164736
624.369	0.0162711
624.447	0.0163934
624.526	0.0165054
624.604	0.0164297
624.682	0.0165028
624.760	0.0164742
624.838	0.0163347
624.916	0.0164432
624.994	0.0163823
625.072	0.0164557
625.151	0.0163979
625.229	0.0164594
625.307	0.0163896
625.385	0.0163903
625.463	0.0162622
625.541	0.0164268
625.619	0.0164574
625.697	0.0164776
625.776	0.0164119
625.854	0.0166456
625.932	0.0164726
626.010	0.0163901
626.088	0.0163483
626.166	0.0162936
626.244	0.0163218
626.322	0.0163689
626.401	0.0166679
626.479	0.0165247
626.557	0.0162950
626.635	0.0163009
626.713	0.0163402
626.791	0.0163704
626.869	0.0163647
626.947	0.0164826
627.026	0.0165040
627.104	0.0164321
627.182	0.0161957
627.260	0.0164600
627.338	0.0163806
627.416	0.0162459
627.494	0.0164632
627.572	0.0163998
627.651	0.0164953
627.729	0.0163247
627.807	0.0163377
627.885	0.0163710
627.963	0.0163042
628.041	0.0163786
628.119	0.0164622
628.197	0.0165102
628.276	0.0164957
628.354	0.0163168
628.432	0.0164507
628.510	0.0163915
628.588	0.0164403
628.666	0.0163693
628.744	0.0164314
628.822	0.0165577
628.901	0.0164771
628.979	0.0164331
629.057	0.0164558
629.135	0.0162556
629.213	0.0164481
629.291	0.0163523
629.369	0.0163982
629.447	0.0164380
629.526	0.0164264
629.604	0.0164572
629.682	0.0164900
629.760	0.0166012
629.838	0.0162601
629.916	0.0163676
629.994	0.0164801
630.072	0.0165411
630.151	0.0165112
630.229	0.0164321
630.307	0.0164709
630.385	0.0164528
630.463	0.0165166
630.541	0.0163601
630.619	0.0165462
630.697	0.0164750
630.776	0.0163811
630.854	0.0163859
630.932	0.0164793
631.010	0.0164537
631.088	0.0163802
631.166	0.0165343
631.244	0.0165637
631.322	0.0164025
631.401	0.0164194
631.479	0.0165037
631.557	0.0165472
631.635	0.0166101
631.713	0.0165038
631.791	0.0166434
631.869	0.0164577
631.947	0.0164938
632.026	0.0164791
632.104	0.0165377
632.182	0.0165795
632.260	0.0164574
632.338	0.0164867
632.416	0.0164465
632.494	0.0164300
632.572	0.0165002
632.651	0.0164469
632.729	0.0165494
632.807	0.0165579
632.885	0.0166013
632.963	0.0164471
633.041	0.0164817
633.119	0.0165051
633.197	0.0165947
633.276	0.0164716
633.354	0.0165966
633.432	0.0164692
633.510	0.0165141
633.588	0.0164421
633.666	0.0164495
633.744	0.0164790
633.822	0.0165946
633.901	0.0165665
633.979	0.0163725
634.057	0.0165224
634.135	0.0164561
634.213	0.0166552
634.291	0.0165753
634.369	0.0164091
634.447	0.0164533
634.526	0.0164728
634.604	0.0164882
634.682	0.0164698
634.760	0.0165164
634.838	0.0165135
634.916	0.0164668
634.994	0.0165193
635.072	0.0164830
635.151	0.0165374
635.229	0.0163875
635.307	0.0163961
635.385	0.0162809
635.463	0.0164739
635.541	0.0163945
635.619	0.0163620
635.697	0.0164006
635.776	0.0163832
635.854	0.0163622
635.932	0.0163561
636.010	0.0163477
636.088	0.0164796
636.166	0.0163847
636.244	0.0163589
636.322	0.0164255
636.401	0.0163597
636.479	0.0165098
636.557	0.0163348
636.635	0.0163323
636.713	0.0162878
636.791	0.0163837
636.869	0.0164283
636.947	0.0163347
637.026	0.0163981
637.104	0.0163951
637.182	0.0164009
637.260	0.0163753
637.338	0.0163044
637.416	0.0163503
637.494	0.0162809
637.572	0.0165400
637.651	0.0163235
637.729	0.0162723
637.807	0.0163226
637.885	0.0162514
637.963	0.0162766
638.041	0.0163581
638.119	0.0162380
638.197	0.0163129
638.276	0.0163779
638.354	0.0162840
638.432	0.0163923
638.510	0.0164034
638.588	0.0162235
638.666	0.0162270
638.744	0.0164219
638.822	0.0162706
638.901	0.0163158
638.979	0.0162974
639.057	0.0162647
639.135	0.0163157
639.213	0.0162372
639.291	0.0163499
639.369	0.0163365
639.447	0.0164561
639.526	0.0164722
639.604	0.0163487
639.682	0.0162106
639.760	0.0163838
639.838	0.0164851
639.916	0.0163736
639.994	0.0163290
640.072	0.0163845
640.151	0.0164435
640.229	0.0163784
640.307	0.0163796
640.385	0.0164769
640.463	0.0163440
640.541	0.0163315
640.619	0.0163461
640.697	0.0163502
640.776	0.0163841
640.854	0.0164947
640.932	0.0163709
641.010	0.0163551
641.088	0.0165469
641.166	0.0163538
641.244	0.0164706
641.322	0.0165102
641.401	0.0164050
641.479	0.0163806
641.557	0.0165115
641.635	0.0163056
641.713	0.0165607
641.791	0.0166210
641.869	0.0164513
641.947	0.0164458
642.026	0.0163985
642.104	0.0166241
642.182	0.0164868
642.260	0.0164153
642.338	0.0165039
642.416	0.0165284
642.494	0.0164339
642.572	0.0164661
642.651	0.0163880
642.729	0.0164379
642.807	0.0166200
642.885	0.0165768
642.963	0.0164045
643.041	0.0164960
643.119	0.0164537
643.197	0.0163914
643.276	0.0165018
643.354	0.0165785
643.432	0.0165643
643.510	0.0165328
643.588	0.0165846
643.666	0.0164603
643.744	0.0165006
643.822	0.0165865
643.901	0.0163968
643.979	0.0165694
644.057	0.0165533
644.135	0.0164503
644.213	0.0165432
644.291	0.0165353
644.369	0.0166494
644.447	0.0165768
644.526	0.0164693
644.604	0.0165785
644.682	0.0165003
644.760	0.0166348
644.838	0.0165396
644.916	0.0165333
644.994	0.0165266
645.072	0.0164017
645.151	0.0165833
645.229	0.0165161
645.307	0.0163497
645.385	0.0166255
645.463	0.0165788
645.541	0.0164678
645.619	0.0166752
645.697	0.0165355
645.776	0.0166096
645.854	0.0165665
645.932	0.0164532
646.010	0.0163965
646.088	0.0163960
646.166	0.0164837
646.244	0.0164927
646.322	0.0164774
646.401	0.0163705
646.479	0.0166451
646.557	0.0166887
646.635	0.0164888
646.713	0.0166411
646.791	0.0164948
646.869	0.0164314
646.947	0.0164918
647.026	0.0163860
647.104	0.0165681
647.182	0.0167128
647.260	0.0165755
647.338	0.0165267
647.416	0.0165314
647.494	0.0163963
647.572	0.0164442
647.651	0.0165150
647.729	0.0165202
647.807	0.0164006
647.885	0.0164690
647.963	0.0165141
648.041	0.0165414
648.119	0.0164600
648.197	0.0164719
648.276	0.0166516
648.354	0.0166059
648.432	0.0165730
648.510	0.0165257
648.588	0.0163769
648.666	0.0164954
648.744	0.0165556
648.822	0.0164888
648.901	0.0163391
648.979	0.0164199
649.057	0.0164894
649.135	0.0165047
649.213	0.0163932
649.291	0.0165539
649.369	0.0164706
649.447	0.0165215
649.526	0.0165286
649.604	0.0164793
649.682	0.0164561
649.760	0.0165417
649.838	0.0164559
649.916	0.0164798
649.994	0.0165054
650.072	0.0166418
650.151	0.0164773
650.229	0.0164752
650.307	0.0164855
650.385	0.0166868
650.463	0.0165684
650.541	0.0165945
650.619	0.0165170
650.697	0.0165968
650.776	0.0165910
650.854	0.0164644
650.932	0.0165532
651.010	0.0164325
651.088	0.0164091
651.166	0.0166013
651.244	0.0164719
651.322	0.0163316
651.401	0.0164604
651.479	0.0165351
651.557	0.0165659
651.635	0.0164948
651.713	0.0165970
651.791	0.0165894
651.869	0.0163902
651.947	0.0166073
652.026	0.0165900
652.104	0.0164825
652.182	0.0166260
652.260	0.0164915
652.338	0.0164981
652.416	0.0165657
652.494	0.0165199
652.572	0.0165031
652.651	0.0166142
652.729	0.0165826
652.807	0.0165221
652.885	0.0164751
652.963	0.0164965
653.041	0.0164970
653.119	0.0163915
653.197	0.0165292
653.276	0.0164399
653.354	0.0164386
653.432	0.0164140
653.510	0.0164627
653.588	0.0165098
653.666	0.0164764
653.744	0.0164169
653.822	0.0164368
653.901	0.0165078
653.979	0.0165103
654.057	0.0164063
654.135	0.0165409
654.213	0.0163175
654.291	0.0163902
654.369	0.0164206
654.447	0.0164937
654.526	0.0164452
654.604	0.0165102
654.682	0.0165350
654.760	0.0163891
654.838	0.0164566
654.916	0.0164430
654.994	0.0164568
655.072	0.0165072
655.151	0.0164873
655.229	0.0164214
655.307	0.0163360
655.385	0.0164458
655.463	0.0164909
655.541	0.0165409
655.619	0.0164394
655.697	0.0164126
655.776	0.0164497
655.854	0.0164420
655.932	0.0163148
656.010	0.0164408
656.088	0.0163936
656.166	0.0164336
656.244	0.0164137
656.322	0.0164594
656.401	0.0164192
656.479	0.0161825
656.557	0.0163014
656.635	0.0163921
656.713	0.0163431
656.791	0.0165252
656.869	0.0164162
656.947	0.0163844
657.026	0.0163742
657.104	0.0164392
657.182	0.0164657
657.260	0.0164284
657.338	0.0165083
657.416	0.0163052
657.494	0.0162576
657.572	0.0164434
657.651	0.0164510
657.729	0.0162846
657.807	0.0162852
657.885	0.0164771
657.963	0.0163576
658.041	0.0162569
658.119	0.0163936
658.197	0.0163335
658.276	0.0165545
658.354	0.0163448
658.432	0.0163688
658.510	0.0162990
658.588	0.0164705
658.666	0.0165149
658.744	0.0163211
658.822	0.0164679
658.901	0.0163289
658.979	0.0163076
659.057	0.0163721
659.135	0.0163084
659.213	0.0163589
659.291	0.0164064
659.369	0.0163937
659.447	0.0163657
659.526	0.0164198
659.604	0.0162834
659.682	0.0163029
659.760	0.0161790
659.838	0.0164133
659.916	0.0164917
659.994	0.0162781
660.072	0.0163570
660.151	0.0162550
660.229	0.0163297
660.307	0.0163955
660.385	0.0163282
660.463	0.0163103
660.541	0.0163726
660.619	0.0163821
660.697	0.0164153
660.776	0.0162994
660.854	0.0164441
660.932	0.0162789
661.010	0.0163654
661.088	0.0164259
661.166	0.0164014
661.244	0.0163546
661.322	0.0165408
661.401	0.0163168
661.479	0.0163819
661.557	0.0164651
661.635	0.0162688
661.713	0.0164358
661.791	0.0163999
661.869	0.0164649
661.947	0.0164320
662.026	0.0164282
662.104	0.0163358
662.182	0.0164214
662.260	0.0164722
662.338	0.0164652
662.416	0.0164516
662.494	0.0163064
662.572	0.0164383
662.651	0.0165384
662.729	0.0164249
662.807	0.0162675
662.885	0.0163931
662.963	0.0164371
663.041	0.0164111
663.119	0.0163300
663.197	0.0164449
663.276	0.0165155
663.354	0.0163764
663.432	0.0163342
663.510	0.0164318
663.588	0.0164832
663.666	0.0163853
663.744	0.0164709
663.822	0.0162664
663.901	0.0162865
663.979	0.0164167
664.057	0.0165672
664.135	0.0162335
664.213	0.0162671
664.291	0.0164004
664.369	0.0163268
664.447	0.0162816
664.526	0.0163312
664.604	0.0163259
664.682	0.0163548
664.760	0.0163650
664.838	0.0162673
664.916	0.0162415
664.994	0.0163970
665.072	0.0164491
665.151	0.0163396
665.229	0.0163528
665.307	0.0161948
665.385	0.0164198
665.463	0.0165012
665.541	0.0163618
665.619	0.0163310
665.697	0.0163128
665.776	0.0163857
665.854	0.0164956
665.932	0.0162403
666.010	0.0163051
666.088	0.0164585
666.166	0.0165198
666.244	0.0164242
666.322	0.0164750
666.401	0.0164796
666.479	0.0163241
666.557	0.0164114
666.635	0.0164415
666.713	0.0165177
666.791	0.0164222
666.869	0.0164088
666.947	0.0163261
667.026	0.0162802
667.104	0.0164347
667.182	0.0165386
667.260	0.0164869
667.338	0.0164273
667.416	0.0164622
667.494	0.0164788
667.572	0.0164861
667.651	0.0164374
667.729	0.0165486
667.807	0.0165281
667.885	0.0165524
667.963	0.0164948
668.041	0.0164312
668.119	0.0163808
668.197	0.0164201
668.276	0.0164307
668.354	0.0165179
668.432	0.0166100
668.510	0.0165856
668.588	0.0165268
668.666	0.0164462
668.744	0.0164108
668.822	0.0166703
668.901	0.0163906
668.979	0.0164316
669.057	0.0164399
669.135	0.0164662
669.213	0.0164367
669.291	0.0163767
669.369	0.0164503
669.447	0.0164179
669.526	0.0163427
669.604	0.0164438
669.682	0.0164251
669.760	0.0163153
669.838	0.0161823
669.916	0.0163733
669.994	0.0163578
670.072	0.0163551
670.151	0.0164899
670.229	0.0163708
670.307	0.0163269
670.385	0.0166177
670.463	0.0164631
670.541	0.0163996
670.619	0.0164294
670.697	0.0165551
670.776	0.0166576
670.854	0.0165842
670.932	0.0164512
671.010	0.0165749
671.088	0.0164821
671.166	0.0165781
671.244	0.0165403
671.322	0.0163741
671.401	0.0165808
671.479	0.0164787
671.557	0.0164268
671.635	0.0164195
671.713	0.0165152
671.791	0.0163777
671.869	0.0164519
671.947	0.0165315
672.026	0.0164379
672.104	0.0164522
672.182	0.0163961
672.260	0.0164083
672.338	0.0164142
672.416	0.0164856
672.494	0.0164988
672.572	0.0163998
672.651	0.0164829
672.729	0.0163615
672.807	0.0164647
672.885	0.0164874
672.963	0.0164950
673.041	0.0166074
673.119	0.0164693
673.197	0.0163989
673.276	0.0163438
673.354	0.0164169
673.432	0.0164626
673.510	0.0164542
673.588	0.0164954
673.666	0.0164249
673.744	0.0163364
673.822	0.0163699
673.901	0.0163209
673.979	0.0163788
674.057	0.0164285
674.135	0.0162591
674.213	0.0162881
674.291	0.0165275
674.369	0.0164827
674.447	0.0162949
674.526	0.0165067
674.604	0.0166576
674.682	0.0166254
674.760	0.0166083
674.838	0.0164703
674.916	0.0164848
674.994	0.0166354
675.072	0.0166711
675.151	0.0165444
675.229	0.0164581
675.307	0.0166654
675.385	0.0166400
675.463	0.0164959
675.541	0.0164488
675.619	0.0165469
675.697	0.0164838
675.776	0.0164851
675.854	0.0163953
675.932	0.0162608
676.010	0.0163951
676.088	0.0163311
676.166	0.0162335
676.244	0.0162947
676.322	0.0163874
676.401	0.0162223
676.479	0.0162833
676.557	0.0163645
676.635	0.0162261
676.713	0.0162749
676.791	0.0163840
676.869	0.0163542
676.947	0.0164688
677.026	0.0164400
677.104	0.0163830
677.182	0.0164529
677.260	0.0163229
677.338	0.0166104
677.416	0.0165825
677.494	0.0165054
677.572	0.0164990
677.651	0.0165550
677.729	0.0164138
677.807	0.0165138
677.885	0.0164237
677.963	0.0165702
678.041	0.0166832
678.119	0.0164347
678.197	0.0163589
678.276	0.0165188
678.354	0.0164921
678.432	0.0165160
678.510	0.0165409
678.588	0.0164970
678.666	0.0164817
678.744	0.0164167
678.822	0.0164115
678.901	0.0163538
678.979	0.0163257
679.057	0.0165252
679.135	0.0164371
679.213	0.0164962
679.291	0.0164632
679.369	0.0164945
679.447	0.0164395
679.526	0.0163976
679.604	0.0164137
679.682	0.0164312
679.760	0.0164556
679.838	0.0164258
679.916	0.0164473
679.994	0.0164352
680.072	0.0164215
680.151	0.0164803
680.229	0.0165422
680.307	0.0166163
680.385	0.0165800
680.463	0.0165742
680.541	0.0166461
680.619	0.0167006
680.697	0.0166335
680.776	0.0166341
680.854	0.0167216
680.932	0.0166940
681.010	0.0165559
681.088	0.0166778
681.166	0.0166727
681.244	0.0165861
681.322	0.0166071
681.401	0.0165583
681.479	0.0166595
681.557	0.0166138
681.635	0.0165594
681.713	0.0166534
681.791	0.0165585
681.869	0.0165579
681.947	0.0165763
682.026	0.0164732
682.104	0.0164284
682.182	0.0164367
682.260	0.0163253
682.338	0.0163847
682.416	0.0164819
682.494	0.0164237
682.572	0.0163276
682.651	0.0162875
682.729	0.0161292
682.807	0.0163482
682.885	0.0163477
682.963	0.0163007
683.041	0.0161930
683.119	0.0161871
683.197	0.0162022
683.276	0.0162584
683.354	0.0162105
683.432	0.0163796
683.510	0.0164753
683.588	0.0163837
683.666	0.0164243
683.744	0.0166301
683.822	0.0165585
683.901	0.0165071
683.979	0.0165910
684.057	0.0166201
684.135	0.0165867
684.213	0.0166808
684.291	0.0167006
684.369	0.0167312
684.447	0.0166135
684.526	0.0165357
684.604	0.0165403
684.682	0.0165287
684.760	0.0164816
684.838	0.0164726
684.916	0.0165141
684.994	0.0163590
685.072	0.0164108
685.151	0.0164729
685.229	0.0164343
685.307	0.0164198
685.385	0.0163770
685.463	0.0164051
685.541	0.0164815
685.619	0.0163526
685.697	0.0163177
685.776	0.0163831
685.854	0.0163599
685.932	0.0164547
686.010	0.0163763
686.088	0.0163489
686.166	0.0163260
686.244	0.0163483
686.322	0.0164571
686.401	0.0163145
686.479	0.0163324
686.557	0.0161296
686.635	0.0162171
686.713	0.0161591
686.791	0.0161465
686.869	0.0162011
686.947	0.0161700
687.026	0.0159953
687.104	0.0160128
687.182	0.0160967
687.260	0.0159103
687.338	0.0160430
687.416	0.0160999
687.494	0.0160537
687.572	0.0159439
687.651	0.0160408
687.729	0.0161160
687.807	0.0162843
687.885	0.0163282
687.963	0.0162585
688.041	0.0163503
688.119	0.0163860
688.197	0.0164938
688.276	0.0166482
688.354	0.0165117
688.432	0.0165079
688.510	0.0167049
688.588	0.0168674
688.666	0.0167994
688.744	0.0168064
688.822	0.0167686
688.901	0.0167884
688.979	0.0167146
689.057	0.0165374
689.135	0.0167663
689.213	0.0169389
689.291	0.0166230
689.369	0.0166920
689.447	0.0166749
689.526	0.0165542
689.604	0.0165226
689.682	0.0164025
689.760	0.0163553
689.838	0.0162862
689.916	0.0162126
689.994	0.0162519
690.072	0.0162796
690.151	0.0161320
690.229	0.0162212
690.307	0.0161399
690.385	0.0161009
690.463	0.0161213
690.541	0.0159198
690.619	0.0160235
690.697	0.0160396
690.776	0.0160019
690.854	0.0163050
690.932	0.0161444
691.010	0.0161168
691.088	0.0162608
691.166	0.0161104
691.244	0.0162677
691.322	0.0163805
691.401	0.0164354
691.479	0.0164405
691.557	0.0164352
691.635	0.0166322
691.713	0.0166097
691.791	0.0166492
691.869	0.0166769
691.947	0.0165718
692.026	0.0167228
692.104	0.0167890
692.182	0.0166908
692.260	0.0167668
692.338	0.0167341
692.416	0.0166496
692.494	0.0166370
692.572	0.0167881
692.651	0.0166377
692.729	0.0168031
692.807	0.0165173
692.885	0.0164960
692.963	0.0166267
693.041	0.0165170
693.119	0.0164772
693.197	0.0165998
693.276	0.0165128
693.354	0.0163660
693.432	0.0163998
693.510	0.0164142
693.588	0.0163251
693.666	0.0164994
693.744	0.0164296
693.822	0.0164370
693.901	0.0165725
693.979	0.0165644
694.057	0.0165803
694.135	0.0165928
694.213	0.0166565
694.291	0.0164607
694.369	0.0165291
694.447	0.0167859
694.526	0.0165815
694.604	0.0165359
694.682	0.0166518
694.760	0.0165942
694.838	0.0164587
694.916	0.0167415
694.994	0.0165689
695.072	0.0165899
695.151	0.0165168
695.229	0.0164999
695.307	0.0164523
695.385	0.0165247
695.463	0.0164021
695.541	0.0164446
695.619	0.0164782
695.697	0.0165020
695.776	0.0164263
695.854	0.0164290
695.932	0.0164658
696.010	0.0164429
696.088	0.0165195
696.166	0.0163511
696.244	0.0165340
696.322	0.0163688
696.401	0.0163171
696.479	0.0163111
696.557	0.0164085
696.635	0.0163611
696.713	0.0162240
696.791	0.0163144
696.869	0.0162251
696.947	0.0162108
697.026	0.0163749
697.104	0.0162547
697.182	0.0161879
697.260	0.0161238
697.338	0.0161774
697.416	0.0163050
697.494	0.0163048
697.572	0.0162965
697.651	0.0162543
697.729	0.0164381
697.807	0.0163640
697.885	0.0165541
697.963	0.0165096
698.041	0.0166689
698.119	0.0166486
698.197	0.0167378
698.276	0.0167558
698.354	0.0167811
698.432	0.0167764
698.510	0.0167093
698.588	0.0169312
698.666	0.0169110
698.744	0.0168477
698.822	0.0169178
698.901	0.0166837
698.979	0.0167343
699.057	0.0167009
699.135	0.0167199
699.213	0.0167111
699.291	0.0165771
699.369	0.0165532
699.447	0.0166845
699.526	0.0164239
699.604	0.0163625
699.682	0.0162362
699.760	0.0162397
699.838	0.0160615
699.916	0.0159773
699.994	0.0160103
700.072	0.0159869
700.151	0.0159787
700.229	0.0159009
700.307	0.0159443
700.385	0.0160632
700.463	0.0159671
700.541	0.0161185
700.619	0.0161835
700.697	0.0165370
700.776	0.0164635
700.854	0.0164657
700.932	0.0166513
701.010	0.0166412
701.088	0.0167354
701.166	0.0167852
701.244	0.0169716
701.322	0.0169254
701.401	0.0170537
701.479	0.0169619
701.557	0.0169845
701.635	0.0171232
701.713	0.0169450
701.791	0.0168213
701.869	0.0168193
701.947	0.0168039
702.026	0.0166461
702.104	0.0165601
702.182	0.0164339
702.260	0.0164527
702.338	0.0163797
702.416	0.0161228
702.494	0.0160238
702.572	0.0161201
702.651	0.0161378
702.729	0.0159223
702.807	0.0158884
702.885	0.0159219
702.963	0.0160362
703.041	0.0160327
703.119	0.0160666
703.197	0.0162730
703.276	0.0162105
703.354	0.0162943
703.432	0.0163237
703.510	0.0161974
703.588	0.0163695
703.666	0.0164400
703.744	0.0163882
703.822	0.0164243
703.901	0.0166154
703.979	0.0165472
704.057	0.0164173
704.135	0.0165120
704.213	0.0164571
704.291	0.0166114
704.369	0.0165501
704.447	0.0166612
704.526	0.0164316
704.604	0.0165778
704.682	0.0166264
704.760	0.0166544
704.838	0.0168671
704.916	0.0168037
704.994	0.0169463
705.072	0.0168830
705.151	0.0169422
705.229	0.0170317
705.307	0.0169206
705.385	0.0169102
705.463	0.0169472
705.541	0.0169567
705.619	0.0169190
705.697	0.0168159
705.776	0.0168715
705.854	0.0165554
705.932	0.0165630
706.010	0.0166402
706.088	0.0166214
706.166	0.0165299
706.244	0.0164294
706.322	0.0165079
706.401	0.0164795
706.479	0.0162788
706.557	0.0162104
706.635	0.0162651
706.713	0.0161423
706.791	0.0161193
706.869	0.0162201
706.947	0.0161323
707.026	0.0161788
707.104	0.0161766
707.182	0.0161446
707.260	0.0161630
707.338	0.0162880
707.416	0.0163306
707.494	0.0162455
707.572	0.0163219
707.651	0.0165693
707.729	0.0166887
707.807	0.0164655
707.885	0.0164018
707.963	0.0164408
708.041	0.0165079
708.119	0.0166850
708.197	0.0166348
708.276	0.0165357
708.354	0.0163207
708.432	0.0164049
708.510	0.0164133
708.588	0.0163419
708.666	0.0163208
708.744	0.0163493
708.822	0.0162155
708.901	0.0159906
708.979	0.0161146
709.057	0.0161890
709.135	0.0162648
709.213	0.0161493
709.291	0.0160756
709.369	0.0161817
709.447	0.0162195
709.526	0.0162062
709.604	0.0162096
709.682	0.0163284
709.760	0.0161522
709.838	0.0163017
709.916	0.0163500
709.994	0.0165220
710.072	0.0163431
710.151	0.0162376
710.229	0.0163387
710.307	0.0164874
710.385	0.0164465
710.463	0.0164751
710.541	0.0165972
710.619	0.0165742
710.697	0.0166959
710.776	0.0167602
710.854	0.0167426
710.932	0.0167597
711.010	0.0169144
711.088	0.0168883
711.166	0.0168980
711.244	0.0169872
711.322	0.0170057
711.401	0.0169718
711.479	0.0170732
711.557	0.0170129
711.635	0.0169091
711.713	0.0170403
711.791	0.0168985
711.869	0.0168674
711.947	0.0167708
712.026	0.0169210
712.104	0.0167100
712.182	0.0167942
712.260	0.0165925
712.338	0.0164649
712.416	0.0166515
712.494	0.0166652
712.572	0.0165543
712.651	0.0164526
712.729	0.0165891
712.807	0.0164157
712.885	0.0165035
712.963	0.0164415
713.041	0.0163982
713.119	0.0163807
713.197	0.0163721
713.276	0.0162697
713.354	0.0161597
713.432	0.0161098
713.510	0.0159113
713.588	0.0157796
713.666	0.0157189
713.744	0.0156448
713.822	0.0155784
713.901	0.0155076
713.979	0.0154175
714.057	0.0154398
714.135	0.0155923
714.213	0.0155802
714.291	0.0155859
714.369	0.0157639
714.447	0.0159726
714.526	0.0162380
714.604	0.0160572
714.682	0.0163628
714.760	0.0166277
714.838	0.0167744
714.916	0.0168591
714.994	0.0170317
715.072	0.0172255
715.151	0.0172860
715.229	0.0173230
715.307	0.0175680
715.385	0.0176478
715.463	0.0174212
715.541	0.0174763
715.619	0.0175829
715.697	0.0175106
715.776	0.0172933
715.854	0.0171874
715.932	0.0169361
716.010	0.0168101
716.088	0.0166618
716.166	0.0163971
716.244	0.0162452
716.322	0.0161658
716.401	0.0160417
716.479	0.0159304
716.557	0.0156618
716.635	0.0155540
716.713	0.0155027
716.791	0.0153799
716.869	0.0153897
716.947	0.0155116
717.026	0.0156688
717.104	0.0156734
717.182	0.0157061
717.260	0.0159352
717.338	0.0159458
717.416	0.0161009
717.494	0.0161983
717.572	0.0164786
717.651	0.0166129
717.729	0.0167845
717.807	0.0170682
717.885	0.0170780
717.963	0.0172818
718.041	0.0173432
718.119	0.0174242
718.197	0.0175153
718.276	0.0176846
718.354	0.0176943
718.432	0.0175913
718.510	0.0175686
718.588	0.0174850
718.666	0.0174413
718.744	0.0173986
718.822	0.0172138
718.901	0.0169961
718.979	0.0169130
719.057	0.0168615
719.135	0.0168878
719.213	0.0165015
719.291	0.0163949
719.369	0.0162259
719.447	0.0162719
719.526	0.0162955
719.604	0.0161417
719.682	0.0160970
719.760	0.0160763
719.838	0.0160118
719.916	0.0159883
719.994	0.0159035
720.072	0.0160336
720.151	0.0158823
720.229	0.0159397
720.307	0.0160715
720.385	0.0159390
720.463	0.0158726
720.541	0.0160126
720.619	0.0158889
720.697	0.0159141
720.776	0.0158254
720.854	0.0159168
720.932	0.0159170
721.010	0.0157732
721.088	0.0158519
721.166	0.0157417
721.244	0.0158678
721.322	0.0160456
721.401	0.0160455
721.479	0.0162544
721.557	0.0162311
721.635	0.0162907
721.713	0.0164061
721.791	0.0164871
721.869	0.0167626
721.947	0.0168935
722.026	0.0169744
722.104	0.0172108
722.182	0.0172627
722.260	0.0174244
722.338	0.0174693
722.416	0.0177000
722.494	0.0176102
722.572	0.0175574
722.651	0.0175803
722.729	0.0176730
722.807	0.0174585
722.885	0.0173568
722.963	0.0172404
723.041	0.0169865
723.119	0.0170403
723.197	0.0168571
723.276	0.0166302
723.354	0.0165747
723.432	0.0164007
723.510	0.0162733
723.588	0.0162499
723.666	0.0160816
723.744	0.0159702
723.822	0.0160441
723.901	0.0158347
723.979	0.0157924
724.057	0.0159054
724.135	0.0159116
724.213	0.0160139
724.291	0.0159241
724.369	0.0158660
724.447	0.0159860
724.526	0.0160271
724.604	0.0161577
724.682	0.0160567
724.760	0.0160761
724.838	0.0161942
724.916	0.0160941
724.994	0.0161786
725.072	0.0162796
725.151	0.0162576
725.229	0.0163698
725.307	0.0162974
725.385	0.0163232
725.463	0.0165578
725.541	0.0164907
725.619	0.0166620
725.697	0.0166862
725.776	0.0168279
725.854	0.0167499
725.932	0.0168454
726.010	0.0169574
726.088	0.0171010
726.166	0.0173042
726.244	0.0173699
726.322	0.0172945
726.401	0.0173874
726.479	0.0174191
726.557	0.0175299
726.635	0.0173210
726.713	0.0174237
726.791	0.0173468
726.869	0.0171871
726.947	0.0171698
727.026	0.0170474
727.104	0.0168060
727.182	0.0167085
727.260	0.0165589
727.338	0.0162969
727.416	0.0161010
727.494	0.0159686
727.572	0.0157755
727.651	0.0156397
727.729	0.0154552
727.807	0.0152486
727.885	0.0151458
727.963	0.0150211
728.041	0.0149757
728.119	0.0148736
728.197	0.0149271
728.276	0.0149776
728.354	0.0151299
728.432	0.0151748
728.510	0.0152661
728.588	0.0153486
728.666	0.0155022
728.744	0.0157968
728.822	0.0160665
728.901	0.0163018
728.979	0.0165398
729.057	0.0167570
729.135	0.0168636
729.213	0.0169182
729.291	0.0170904
729.369	0.0171255
729.447	0.0171963
729.526	0.0172501
729.604	0.0172594
729.682	0.0171105
729.760	0.0171533
729.838	0.0171073
729.916	0.0171048
729.994	0.0170153
730.072	0.0168320
730.151	0.0168111
730.229	0.0169592
730.307	0.0168088
730.385	0.0167093
730.463	0.0166747
730.541	0.0168559
730.619	0.0168059
730.697	0.0166546
730.776	0.0167729
730.854	0.0167423
730.932	0.0168147
731.010	0.0169154
731.088	0.0168447
731.166	0.0170134
731.244	0.0171294
731.322	0.0170619
731.401	0.0170247
731.479	0.0170796
731.557	0.0170379
731.635	0.0169550
731.713	0.0168903
731.791	0.0166965
731.869	0.0167241
731.947	0.0166501
732.026	0.0163704
732.104	0.0162151
732.182	0.0160564
732.260	0.0159747
732.338	0.0157510
732.416	0.0157325
732.494	0.0155856
732.572	0.0154732
732.651	0.0154099
732.729	0.0152770
732.807	0.0152577
732.885	0.0153490
732.963	0.0153584
733.041	0.0154533
733.119	0.0154350
733.197	0.0155439
733.276	0.0156760
733.354	0.0159766
733.432	0.0160769
733.510	0.0162570
733.588	0.0164687
733.666	0.0164741
733.744	0.0165818
733.822	0.0168497
733.901	0.0169909
733.979	0.0170345
734.057	0.0170833
734.135	0.0170925
734.213	0.0170435
734.291	0.0169890
734.369	0.0169465
734.447	0.0167787
734.526	0.0168277
734.604	0.0168101
734.682	0.0165261
734.760	0.0164554
734.838	0.0162260
734.916	0.0162719
734.994	0.0161331
735.072	0.0161701
735.151	0.0162084
735.229	0.0162019
735.307	0.0160670
735.385	0.0161660
735.463	0.0160554
735.541	0.0162962
735.619	0.0163577
735.697	0.0165249
735.776	0.0165751
735.854	0.0166590
735.932	0.0167779
736.010	0.0167457
736.088	0.0168505
736.166	0.0170081
736.244	0.0170071
736.322	0.0171552
736.401	0.0171819
736.479	0.0170917
736.557	0.0169706
736.635	0.0170597
736.713	0.0169440
736.791	0.0168716
736.869	0.0169570
736.947	0.0167634
737.026	0.0167944
737.104	0.0166373
737.182	0.0164725
737.260	0.0164699
737.338	0.0165509
737.416	0.0163972
737.494	0.0161647
737.572	0.0160739
737.651	0.0162287
737.729	0.0162373
737.807	0.0159525
737.885	0.0160371
737.963	0.0160833
738.041	0.0159924
738.119	0.0159523
738.197	0.0159931
738.276	0.0160406
738.354	0.0160469
738.432	0.0161588
738.510	0.0159797
738.588	0.0160795
738.666	0.0159570
738.744	0.0161671
738.822	0.0161033
738.901	0.0161240
738.979	0.0160608
739.057	0.0160213
739.135	0.0161338
739.213	0.0159438
739.291	0.0159615
739.369	0.0159215
739.447	0.0158987
739.526	0.0158327
739.604	0.0158904
739.682	0.0158402
739.760	0.0159917
739.838	0.0160273
739.916	0.0160207
739.994	0.0161467
740.072	0.0160625
740.151	0.0162229
740.229	0.0163193
740.307	0.0164466
740.385	0.0164001
740.463	0.0164487
740.541	0.0164412
740.619	0.0165820
740.697	0.0166446
740.776	0.0165019
740.854	0.0166874
740.932	0.0168848
741.010	0.0168465
741.088	0.0167902
741.166	0.0169334
741.244	0.0169640
741.322	0.0170394
741.401	0.0171555
741.479	0.0172102
741.557	0.0171925
741.635	0.0172723
741.713	0.0172402
741.791	0.0171122
741.869	0.0173173
741.947	0.0171053
742.026	0.0170384
742.104	0.0169410
742.182	0.0168373
742.260	0.0167834
742.338	0.0168286
742.416	0.0166232
742.494	0.0165176
742.572	0.0166024
742.651	0.0163085
742.729	0.0162565
742.807	0.0162422
742.885	0.0160104
742.963	0.0160740
743.041	0.0161280
743.119	0.0159551
743.197	0.0158602
743.276	0.0158272
743.354	0.0158228
743.432	0.0159521
743.510	0.0158990
743.588	0.0159409
743.666	0.0159438
743.744	0.0159538
743.822	0.0161740
743.901	0.0162032
743.979	0.0163607
744.057	0.0163307
744.135	0.0164891
744.213	0.0165532
744.291	0.0164335
744.369	0.0164690
744.447	0.0165115
744.526	0.0165371
744.604	0.0164105
744.682	0.0165051
744.760	0.0164510
744.838	0.0164461
744.916	0.0165213
744.994	0.0163949
745.072	0.0162252
745.151	0.0164100
745.229	0.0162630
745.307	0.0163912
745.385	0.0163412
745.463	0.0161871
745.541	0.0162616
745.619	0.0162302
745.697	0.0163369
745.776	0.0162563
745.854	0.0163483
745.932	0.0164415
746.010	0.0165720
746.088	0.0165264
746.166	0.0164632
746.244	0.0165386
746.322	0.0166564
746.401	0.0165616
746.479	0.0165369
746.557	0.0167937
746.635	0.0167522
746.713	0.0167081
746.791	0.0167670
746.869	0.0167982
746.947	0.0168389
747.026	0.0167432
747.104	0.0167778
747.182	0.0166565
747.260	0.0166268
747.338	0.0165549
747.416	0.0166387
747.494	0.0164747
747.572	0.0165615
747.651	0.0164868
747.729	0.0164887
747.807	0.0165267
747.885	0.0165360
747.963	0.0164977
748.041	0.0166000
748.119	0.0166650
748.197	0.0165079
748.276	0.0166109
748.354	0.0166730
748.432	0.0164892
748.510	0.0165058
748.588	0.0163093
748.666	0.0164486
748.744	0.0163824
748.822	0.0164013
748.901	0.0164188
748.979	0.0163109
749.057	0.0161540
749.135	0.0160835
749.213	0.0160168
749.291	0.0162675
749.369	0.0160503
749.447	0.0160454
749.526	0.0159032
749.604	0.0159941
749.682	0.0160397
749.760	0.0159309
749.838	0.0158292
749.916	0.0160588
749.994	0.0161347
750.072	0.0160957
750.151	0.0162507
750.229	0.0161504
750.307	0.0160935
750.385	0.0163087
750.463	0.0160798
750.541	0.0160559
750.619	0.0161978
750.697	0.0161848
750.776	0.0160940
750.854	0.0160255
750.932	0.0162069
751.010	0.0161479
751.088	0.0160699
751.166	0.0160520
751.244	0.0161686
751.322	0.0161317
751.401	0.0163082
751.479	0.0163572
751.557	0.0164670
751.635	0.0165177
751.713	0.0167056
751.791	0.0167381
751.869	0.0167979
751.947	0.0168890
752.026	0.0168833
752.104	0.0172107
752.182	0.0170921
752.260	0.0172198
752.338	0.0173531
752.416	0.0173539
752.494	0.0171744
752.572	0.0172059
752.651	0.0173082
752.729	0.0170901
752.807	0.0171024
752.885	0.0170760
752.963	0.0169168
753.041	0.0168575
753.119	0.0166196
753.197	0.0163927
753.276	0.0163446
753.354	0.0162508
753.432	0.0161494
753.510	0.0161381
753.588	0.0159576
753.666	0.0157883
753.744	0.0158170
753.822	0.0156295
753.901	0.0155800
753.979	0.0154705
754.057	0.0155968
754.135	0.0154468
754.213	0.0154017
754.291	0.0154376
754.369	0.0155903
754.447	0.0155864
754.526	0.0155833
754.604	0.0157668
754.682	0.0157928
754.760	0.0159385
754.838	0.0159207
754.916	0.0160380
754.994	0.0160339
755.072	0.0162157
755.151	0.0162914
755.229	0.0162383
755.307	0.0163422
755.385	0.0164811
755.463	0.0166319
755.541	0.0166469
755.619	0.0166866
755.697	0.0167241
755.776	0.0167495
755.854	0.0168603
755.932	0.0168679
756.010	0.0168797
756.088	0.0169021
756.166	0.0169180
756.244	0.0169913
756.322	0.0169718
756.401	0.0169834
756.479	0.0169863
756.557	0.0169083
756.635	0.0169417
756.713	0.0168089
756.791	0.0166692
756.869	0.0165257
756.947	0.0164545
757.026	0.0164635
757.104	0.0164195
757.182	0.0161900
757.260	0.0159697
757.338	0.0159583
757.416	0.0159613
757.494	0.0157978
757.572	0.0158168
757.651	0.0158941
757.729	0.0160029
757.807	0.0158798
757.885	0.0159782
757.963	0.0160744
758.041	0.0159802
758.119	0.0161623
758.197	0.0161934
758.276	0.0161792
758.354	0.0164334
758.432	0.0164922
758.510	0.0165471
758.588	0.0165473
758.666	0.0164443
758.744	0.0166418
758.822	0.0166296
758.901	0.0166248
758.979	0.0165015
759.057	0.0166828
759.135	0.0165823
759.213	0.0164956
759.291	0.0165606
759.369	0.0167169
759.447	0.0164873
759.526	0.0164405
759.604	0.0165145
759.682	0.0165238
759.760	0.0164554
759.838	0.0164436
759.916	0.0163767
759.994	0.0163489
760.072	0.0164371
760.151	0.0163249
760.229	0.0164068
760.307	0.0164114
760.385	0.0163612
760.463	0.0162119
760.541	0.0163750
760.619	0.0161529
760.697	0.0162599
760.776	0.0163681
760.854	0.0163129
760.932	0.0163656
761.010	0.0165622
761.088	0.0164541
761.166	0.0163825
761.244	0.0165578
761.322	0.0165446
761.401	0.0164059
761.479	0.0164438
761.557	0.0163750
761.635	0.0164204
761.713	0.0164482
761.791	0.0163042
761.869	0.0162089
761.947	0.0161448
762.026	0.0162614
762.104	0.0162874
762.182	0.0160951
762.260	0.0163188
762.338	0.0162608
762.416	0.0163647
762.494	0.0163733
762.572	0.0163130
762.651	0.0163416
762.729	0.0162846
762.807	0.0163863
762.885	0.0162008
762.963	0.0163295
763.041	0.0163749
763.119	0.0161749
763.197	0.0160266
763.276	0.0159792
763.354	0.0159805
763.432	0.0160407
763.510	0.0159319
763.588	0.0159394
763.666	0.0159874
763.744	0.0158402
763.822	0.0159388
763.901	0.0159147
763.979	0.0160142
764.057	0.0160989
764.135	0.0161144
764.213	0.0164928
764.291	0.0164319
764.369	0.0163351
764.447	0.0165295
764.526	0.0165968
764.604	0.0164863
764.682	0.0166153
764.760	0.0165629
764.838	0.0166329
764.916	0.0167096
764.994	0.0165046
765.072	0.0164326
765.151	0.0164326
765.229	0.0164416
765.307	0.0164678
765.385	0.0164497
765.463	0.0165153
765.541	0.0164799
765.619	0.0165244
765.697	0.0167230
765.776	0.0165913
765.854	0.0165910
765.932	0.0167908
766.010	0.0166402
766.088	0.0167545
766.166	0.0168665
766.244	0.0167035
766.322	0.0166959
766.401	0.0168089
766.479	0.0167850
766.557	0.0168265
766.635	0.0167946
766.713	0.0167831
766.791	0.0168198
766.869	0.0166852
766.947	0.0166692
767.026	0.0166957
767.104	0.0166065
767.182	0.0165768
767.260	0.0165765
767.338	0.0164961
767.416	0.0164378
767.494	0.0163000
767.572	0.0162196
767.651	0.0161400
767.729	0.0161128
767.807	0.0161845
767.885	0.0159856
767.963	0.0158663
768.041	0.0159491
768.119	0.0158195
768.197	0.0158685
768.276	0.0157277
768.354	0.0156688
768.432	0.0158047
768.510	0.0158620
768.588	0.0158887
768.666	0.0158386
768.744	0.0159635
768.822	0.0159230
768.901	0.0161054
768.979	0.0161881
769.057	0.0160725
769.135	0.0161961
769.213	0.0163747
769.291	0.0164294
769.369	0.0164676
769.447	0.0166268
769.526	0.0165436
769.604	0.0166663
769.682	0.0164632
769.760	0.0166139
769.838	0.0166741
769.916	0.0165808
769.994	0.0167449
770.072	0.0166879
770.151	0.0167926
770.229	0.0166981
770.307	0.0167450
770.385	0.0168705
770.463	0.0168653
770.541	0.0168451
770.619	0.0167854
770.697	0.0168753
770.776	0.0169862
770.854	0.0169389
770.932	0.0167965
771.010	0.0168645
771.088	0.0169774
771.166	0.0169612
771.244	0.0168777
771.322	0.0168340
771.401	0.0167168
771.479	0.0167963
771.557	0.0166573
771.635	0.0165118
771.713	0.0163722
771.791	0.0161728
771.869	0.0162549
771.947	0.0162977
772.026	0.0160761
772.104	0.0160686
772.182	0.0159943
772.260	0.0160173
772.338	0.0158508
772.416	0.0159062
772.494	0.0159183
772.572	0.0159300
772.651	0.0158646
772.729	0.0159698
772.807	0.0160707
772.885	0.0159955
772.963	0.0160418
773.041	0.0161269
773.119	0.0163635
773.197	0.0162835
773.276	0.0165025
773.354	0.0166180
773.432	0.0165273
773.510	0.0165819
773.588	0.0166989
773.666	0.0167658
773.744	0.0168282
773.822	0.0167329
773.901	0.0166999
773.979	0.0167011
774.057	0.0167908
774.135	0.0169513
774.213	0.0167124
774.291	0.0166527
774.369	0.0167588
774.447	0.0167001
774.526	0.0166709
774.604	0.0166448
774.682	0.0167499
774.760	0.0164538
774.838	0.0165205
774.916	0.0163369
774.994	0.0164602
775.072	0.0165272
775.151	0.0164504
775.229	0.0164708
775.307	0.0165437
775.385	0.0163526
775.463	0.0164125
775.541	0.0163577
775.619	0.0164402
775.697	0.0163621
775.776	0.0163576
775.854	0.0163065
775.932	0.0162933
776.010	0.0163865
776.088	0.0162966
776.166	0.0163144
776.244	0.0163345
776.322	0.0163938
776.401	0.0164098
776.479	0.0164388
776.557	0.0164013
776.635	0.0165015
776.713	0.0166240
776.791	0.0165047
776.869	0.0164583
776.947	0.0163998
777.026	0.0165987
777.104	0.0168192
777.182	0.0167358
777.260	0.0165623
777.338	0.0165772
777.416	0.0166387
777.494	0.0164963
777.572	0.0167396
777.651	0.0166377
777.729	0.0165427
777.807	0.0165820
777.885	0.0166391
777.963	0.0167149
778.041	0.0167198
778.119	0.0166356
778.197	0.0165525
778.276	0.0166168
778.354	0.0167036
778.432	0.0166102
778.510	0.0164164
778.588	0.0164328
778.666	0.0163990
778.744	0.0164159
778.822	0.0162955
778.901	0.0162217
778.979	0.0162386
779.057	0.0163824
779.135	0.0161729
779.213	0.0163705
779.291	0.0162798
779.369	0.0163912
779.447	0.0164292
779.526	0.0164132
779.604	0.0164688
779.682	0.0165721
779.760	0.0164542
779.838	0.0167126
779.916	0.0166062
779.994	0.0164157
780.072	0.0165717
780.151	0.0165411
780.229	0.0166457
780.307	0.0166202
780.385	0.0166459
780.463	0.0164828
780.541	0.0165038
780.619	0.0164097
780.697	0.0164101
780.776	0.0165498
780.854	0.0164399
780.932	0.0165299
781.010	0.0166324
781.088	0.0164961
781.166	0.0164273
781.244	0.0165265
781.322	0.0164272
781.401	0.0163780
781.479	0.0164360
781.557	0.0165340
781.635	0.0165134
781.713	0.0164217
781.791	0.0163438
781.869	0.0164288
781.947	0.0163127
782.026	0.0164182
782.104	0.0163394
782.182	0.0163784
782.260	0.0161975
782.338	0.0162436
782.416	0.0161866
782.494	0.0163118
782.572	0.0161723
782.651	0.0162231
782.729	0.0161799
782.807	0.0162665
782.885	0.0162292
782.963	0.0162936
783.041	0.0161969
783.119	0.0162740
783.197	0.0163594
783.276	0.0163431
783.354	0.0165425
783.432	0.0166189
783.510	0.0166305
783.588	0.0167117
783.666	0.0167062
783.744	0.0167133
783.822	0.0167319
783.901	0.0168844
783.979	0.0169018
784.057	0.0167530
784.135	0.0168595
784.213	0.0170193
784.291	0.0168626
784.369	0.0169122
784.447	0.0168191
784.526	0.0167597
784.604	0.0167085
784.682	0.0168218
784.760	0.0166339
784.838	0.0165609
784.916	0.0166431
784.994	0.0164009
785.072	0.0164352
785.151	0.0163503
785.229	0.0163926
785.307	0.0164397
785.385	0.0163188
785.463	0.0163251
785.541	0.0163870
785.619	0.0163924
785.697	0.0164594
785.776	0.0164053
785.854	0.0163077
785.932	0.0162154
786.010	0.0162528
786.088	0.0162826
786.166	0.0163273
786.244	0.0163858
786.322	0.0162212
786.401	0.0162256
786.479	0.0162907
786.557	0.0164372
786.635	0.0161143
786.713	0.0162453
786.791	0.0163307
786.869	0.0163741
786.947	0.0163920
787.026	0.0165413
787.104	0.0164173
787.182	0.0164977
787.260	0.0165347
787.338	0.0165475
787.416	0.0166841
787.494	0.0167173
787.572	0.0166895
787.651	0.0167393
787.729	0.0167876
787.807	0.0168618
787.885	0.0168256
787.963	0.0168291
788.041	0.0167592
788.119	0.0167515
788.197	0.0168248
788.276	0.0167427
788.354	0.0166188
788.432	0.0166113
788.510	0.0167587
788.588	0.0166549
788.666	0.0165160
788.744	0.0165878
788.822	0.0163614
788.901	0.0165598
788.979	0.0165224
789.057	0.0163803
789.135	0.0162772
789.213	0.0164967
789.291	0.0164166
789.369	0.0166847
789.447	0.0165205
789.526	0.0165138
789.604	0.0164848
789.682	0.0168005
789.760	0.0166795
789.838	0.0165836
789.916	0.0166624
789.994	0.0166866
790.072	0.0167638
790.151	0.0167120
790.229	0.0167010
790.307	0.0167500
790.385	0.0166726
790.463	0.0167088
790.541	0.0165034
790.619	0.0165565
790.697	0.0165310
790.776	0.0164757
790.854	0.0164568
790.932	0.0164290
791.010	0.0164290
791.088	0.0162153
791.166	0.0162156
791.244	0.0162600
791.322	0.0161127
791.401	0.0162278
791.479	0.0162982
791.557	0.0163405
791.635	0.0162375
791.713	0.0162263
791.791	0.0161318
791.869	0.0161708
791.947	0.0161457
792.026	0.0160711
792.104	0.0162189
792.182	0.0162067
792.260	0.0160789
792.338	0.0161816
792.416	0.0161855
792.494	0.0162215
792.572	0.0162286
792.651	0.0162604
792.729	0.0163680
792.807	0.0163888
792.885	0.0163422
792.963	0.0164173
793.041	0.0163956
793.119	0.0164518
793.197	0.0164793
793.276	0.0163208
793.354	0.0165101
793.432	0.0164857
793.510	0.0164929
793.588	0.0165011
793.666	0.0166949
793.744	0.0165066
793.822	0.0164337
793.901	0.0166587
793.979	0.0165075
794.057	0.0164639
794.135	0.0165810
794.213	0.0165320
794.291	0.0164738
794.369	0.0164452
794.447	0.0165051
794.526	0.0164535
794.604	0.0163539
794.682	0.0163981
794.760	0.0162746
794.838	0.0162669
794.916	0.0163398
794.994	0.0163049
795.072	0.0164419
795.151	0.0163402
795.229	0.0163129
795.307	0.0165380
795.385	0.0164359
795.463	0.0167262
795.541	0.0165707
795.619	0.0166731
795.697	0.0167083
795.776	0.0165712
795.854	0.0168802
795.932	0.0168634
796.010	0.0167484
796.088	0.0166109
796.166	0.0167228
796.244	0.0167370
796.322	0.0166809
796.401	0.0166086
796.479	0.0165022
796.557	0.0165908
796.635	0.0166423
796.713	0.0166364
796.791	0.0164477
796.869	0.0163682
796.947	0.0164388
797.026	0.0164500
797.104	0.0163358
797.182	0.0163396
797.260	0.0165176
797.338	0.0165781
797.416	0.0165149
797.494	0.0163583
797.572	0.0164561
797.651	0.0165113
797.729	0.0165641
797.807	0.0165161
797.885	0.0164186
797.963	0.0164181
798.041	0.0163910
798.119	0.0164288
798.197	0.0164165
798.276	0.0164767
798.354	0.0164757
798.432	0.0164840
798.510	0.0164046
798.588	0.0164782
798.666	0.0164859
798.744	0.0165129
798.822	0.0163275
798.901	0.0163275
798.979	0.0164551
799.057	0.0164899
799.135	0.0165707
799.213	0.0164476
799.291	0.0164368
799.369	0.0165770
799.447	0.0163743
799.526	0.0164161
799.604	0.0165437
799.682	0.0165125
799.760	0.0167552
799.838	0.0165364
799.916	0.0164721
799.994	0.0165954
800.072	0.0164967
800.151	0.0165417
800.229	0.0163768
800.307	0.0165305
800.385	0.0165659
800.463	0.0164838
800.541	0.0166159
800.619	0.0164629
800.697	0.0164809
800.776	0.0165649
800.854	0.0164883
800.932	0.0164657
801.010	0.0165195
801.088	0.0165565
801.166	0.0165617
801.244	0.0164952
801.322	0.0165199
801.401	0.0165987
801.479	0.0163987
801.557	0.0165356
801.635	0.0164555
801.713	0.0165739
801.791	0.0165195
801.869	0.0164966
801.947	0.0165341
802.026	0.0165137
802.104	0.0164966
802.182	0.0164602
802.260	0.0165294
802.338	0.0163860
802.416	0.0165105
802.494	0.0164355
802.572	0.0164498
802.651	0.0166085
802.729	0.0164167
802.807	0.0164401
802.885	0.0164797
802.963	0.0165226
803.041	0.0164757
803.119	0.0165549
803.197	0.0164465
803.276	0.0166251
803.354	0.0165617
803.432	0.0166045
803.510	0.0165870
803.588	0.0166155
803.666	0.0165382
803.744	0.0165027
803.822	0.0165440
803.901	0.0165740
803.979	0.0165122
804.057	0.0164931
804.135	0.0165874
804.213	0.0163766
804.291	0.0163747
804.369	0.0164507
804.447	0.0163571
804.526	0.0163763
804.604	0.0163898
804.682	0.0163567
804.760	0.0164407
804.838	0.0162584
804.916	0.0162252
804.994	0.0162560
805.072	0.0162684
805.151	0.0162888
805.229	0.0163348
805.307	0.0162080
805.385	0.0163174
805.463	0.0164043
805.541	0.0162742
805.619	0.0162996
805.697	0.0164600
805.776	0.0163267
805.854	0.0164468
805.932	0.0165005
806.010	0.0165821
806.088	0.0165790
806.166	0.0165262
806.244	0.0166194
806.322	0.0165341
806.401	0.0166284
806.479	0.0165815
806.557	0.0167448
806.635	0.0166841
806.713	0.0166794
806.791	0.0166240
806.869	0.0166560
806.947	0.0166029
807.026	0.0165485
807.104	0.0165465
807.182	0.0164983
807.260	0.0164548
807.338	0.0163818
807.416	0.0163483
807.494	0.0163226
807.572	0.0163396
807.651	0.0164246
807.729	0.0165260
807.807	0.0164636
807.885	0.0165054
807.963	0.0164630
808.041	0.0166258
808.119	0.0165578
808.197	0.0165657
808.276	0.0164998
808.354	0.0166636
808.432	0.0166353
808.510	0.0166628
808.588	0.0166222
808.666	0.0165841
808.744	0.0165316
808.822	0.0164702
808.901	0.0164603
808.979	0.0165369
809.057	0.0163203
809.135	0.0164212
809.213	0.0164679
809.291	0.0163819
809.369	0.0163191
809.447	0.0163570
809.526	0.0165366
809.604	0.0163960
809.682	0.0162952
809.760	0.0163893
809.838	0.0163462
809.916	0.0163800
809.994	0.0163120
810.072	0.0164248
810.151	0.0163762
810.229	0.0163954
810.307	0.0163519
810.385	0.0163610
810.463	0.0164166
810.541	0.0164098
810.619	0.0164963
810.697	0.0164134
810.776	0.0163366
810.854	0.0163995
810.932	0.0163477
811.010	0.0165038
811.088	0.0164265
811.166	0.0165624
811.244	0.0164338
811.322	0.0164125
811.401	0.0165370
811.479	0.0164414
811.557	0.0165123
811.635	0.0165179
811.713	0.0165137
811.791	0.0164289
811.869	0.0164776
811.947	0.0165365
812.026	0.0164352
812.104	0.0163396
812.182	0.0162940
812.260	0.0163282
812.338	0.0162396
812.416	0.0162081
812.494	0.0162479
812.572	0.0162708
812.651	0.0161651
812.729	0.0162302
812.807	0.0162283
812.885	0.0162289
812.963	0.0162152
813.041	0.0162198
813.119	0.0162535
813.197	0.0162463
813.276	0.0161415
813.354	0.0162937
813.432	0.0163068
813.510	0.0164243
813.588	0.0163690
813.666	0.0164182
813.744	0.0165450
813.822	0.0164703
813.901	0.0165255
813.979	0.0166656
814.057	0.0166560
814.135	0.0167366
814.213	0.0166196
814.291	0.0167521
814.369	0.0165968
814.447	0.0167184
814.526	0.0166592
814.604	0.0167479
814.682	0.0166016
814.760	0.0166611
814.838	0.0166705
814.916	0.0166715
814.994	0.0165905
815.072	0.0166467
815.151	0.0166779
815.229	0.0165970
815.307	0.0165809
815.385	0.0165979
815.463	0.0166112
815.541	0.0166173
815.619	0.0165359
815.697	0.0164876
815.776	0.0165179
815.854	0.0165546
815.932	0.0165417
816.010	0.0165257
816.088	0.0164474
816.166	0.0165277
816.244	0.0164137
816.322	0.0163590
816.401	0.0165479
816.479	0.0164484
816.557	0.0163455
816.635	0.0163435
816.713	0.0163299
816.791	0.0164024
816.869	0.0163005
816.947	0.0163403
817.026	0.0163005
817.104	0.0161396
817.182	0.0162447
817.260	0.0162617
817.338	0.0162154
817.416	0.0162592
817.494	0.0162489
817.572	0.0162195
817.651	0.0163360
817.729	0.0162846
817.807	0.0162975
817.885	0.0162986
817.963	0.0161792
818.041	0.0164229
818.119	0.0165385
818.197	0.0164487
818.276	0.0161908
818.354	0.0163362
818.432	0.0163490
818.510	0.0163679
818.588	0.0164403
818.666	0.0165285
818.744	0.0165101
818.822	0.0164739
818.901	0.0164159
818.979	0.0164693
819.057	0.0165339
819.135	0.0165653
819.213	0.0166006
819.291	0.0166360
819.369	0.0166875
819.447	0.0168618
819.526	0.0166625
819.604	0.0167174
819.682	0.0168148
819.760	0.0168159
819.838	0.0166206
819.916	0.0166919
819.994	0.0167604
820.072	0.0167542
820.151	0.0167451
820.229	0.0166087
820.307	0.0166315
820.385	0.0166884
820.463	0.0164183
820.541	0.0164204
820.619	0.0164181
820.697	0.0165460
820.776	0.0163454
820.854	0.0163098
820.932	0.0163382
821.010	0.0163174
821.088	0.0162261
821.166	0.0162104
821.244	0.0162900
821.322	0.0163142
821.401	0.0162940
821.479	0.0162647
821.557	0.0163184
821.635	0.0163301
821.713	0.0164456
821.791	0.0163051
821.869	0.0165306
821.947	0.0163399
822.026	0.0164412
822.104	0.0163299
822.182	0.0163219
822.260	0.0163167
822.338	0.0163904
822.416	0.0165228
822.494	0.0163972
822.572	0.0163185
822.651	0.0164000
822.729	0.0163974
822.807	0.0163546
822.885	0.0164701
822.963	0.0164748
823.041	0.0165579
823.119	0.0165182
823.197	0.0163775
823.276	0.0164054
823.354	0.0164655
823.432	0.0165655
823.510	0.0164171
823.588	0.0165522
823.666	0.0165850
823.744	0.0165791
823.822	0.0165088
823.901	0.0165775
823.979	0.0166773
824.057	0.0166628
824.135	0.0164468
824.213	0.0165118
824.291	0.0165638
824.369	0.0165124
824.447	0.0164352
824.526	0.0165283
824.604	0.0163146
824.682	0.0164797
824.760	0.0164964
824.838	0.0162537
824.916	0.0163424
824.994	0.0163645
825.072	0.0162818
825.151	0.0161586
825.229	0.0161883
825.307	0.0162768
825.385	0.0161512
825.463	0.0162018
825.541	0.0163131
825.619	0.0163212
825.697	0.0162715
825.776	0.0163644
825.854	0.0163837
825.932	0.0163093
826.010	0.0164417
826.088	0.0162438
826.166	0.0163120
826.244	0.0164696
826.322	0.0164490
826.401	0.0165154
826.479	0.0165448
826.557	0.0163437
826.635	0.0164362
826.713	0.0166035
826.791	0.0165185
826.869	0.0166369
826.947	0.0166864
827.026	0.0166340
827.104	0.0166473
827.182	0.0166161
827.260	0.0164604
827.338	0.0166227
827.416	0.0166242
827.494	0.0166899
827.572	0.0167031
827.651	0.0165116
827.729	0.0166080
827.807	0.0163342
827.885	0.0163673
827.963	0.0165520
828.041	0.0164207
828.119	0.0164143
828.197	0.0163579
828.276	0.0163574
828.354	0.0163335
828.432	0.0161605
828.510	0.0162659
828.588	0.0163052
828.666	0.0163975
828.744	0.0162416
828.822	0.0162628
828.901	0.0163759
828.979	0.0162715
829.057	0.0164118
829.135	0.0162994
829.213	0.0162870
829.291	0.0162953
829.369	0.0163506
829.447	0.0163390
829.526	0.0164043
829.604	0.0163795
829.682	0.0164640
829.760	0.0164121
829.838	0.0163401
829.916	0.0163527
829.994	0.0164279
830.072	0.0164234
830.151	0.0163934
830.229	0.0163429
830.307	0.0163177
830.385	0.0163756
830.463	0.0163269
830.541	0.0163113
830.619	0.0164523
830.697	0.0163324
830.776	0.0163108
830.854	0.0163425
830.932	0.0163839
831.010	0.0164023
831.088	0.0164185
831.166	0.0162217
831.244	0.0163013
831.322	0.0164590
831.401	0.0163800
831.479	0.0163750
831.557	0.0164819
831.635	0.0164568
831.713	0.0164799
831.791	0.0164423
831.869	0.0165010
831.947	0.0164973
832.026	0.0164650
832.104	0.0166010
832.182	0.0165658
832.260	0.0164847
832.338	0.0163468
832.416	0.0164452
832.494	0.0164099
832.572	0.0164505
832.651	0.0164766
832.729	0.0165144
832.807	0.0163100
832.885	0.0163078
832.963	0.0164166
833.041	0.0163380
833.119	0.0162588
833.197	0.0162413
833.276	0.0162694
833.354	0.0163833
833.432	0.0162206
833.510	0.0161269
833.588	0.0161777
833.666	0.0161745
833.744	0.0160134
833.822	0.0162287
833.901	0.0161957
833.979	0.0161642
834.057	0.0162151
834.135	0.0162131
834.213	0.0162469
834.291	0.0161975
834.369	0.0163091
834.447	0.0162973
834.526	0.0162121
834.604	0.0163641
834.682	0.0161916
834.760	0.0163725
834.838	0.0162756
834.916	0.0162345
834.994	0.0162806
835.072	0.0163033
835.151	0.0163829
835.229	0.0162398
835.307	0.0163533
835.385	0.0162541
835.463	0.0164536
835.541	0.0163293
835.619	0.0163051
835.697	0.0163004
835.776	0.0162268
835.854	0.0162458
835.932	0.0163665
836.010	0.0162682
836.088	0.0163047
836.166	0.0161986
836.244	0.0163374
836.322	0.0163464
836.401	0.0163810
836.479	0.0164085
836.557	0.0163403
836.635	0.0163090
836.713	0.0163972
836.791	0.0163076
836.869	0.0163982
836.947	0.0164996
837.026	0.0165359
837.104	0.0164757
837.182	0.0165426
837.260	0.0166090
837.338	0.0164976
837.416	0.0165282
837.494	0.0165704
837.572	0.0167010
837.651	0.0166657
837.729	0.0165974
837.807	0.0167161
837.885	0.0165014
837.963	0.0165675
838.041	0.0166706
838.119	0.0168113
838.197	0.0167424
838.276	0.0166824
838.354	0.0166885
838.432	0.0166677
838.510	0.0166664
838.588	0.0167068
838.666	0.0164813
838.744	0.0164706
838.822	0.0166222
838.901	0.0165066
838.979	0.0164850
839.057	0.0165952
839.135	0.0164528
839.213	0.0162898
839.291	0.0164268
839.369	0.0163840
839.447	0.0162922
839.526	0.0163670
839.604	0.0161806
839.682	0.0162661
839.760	0.0161760
839.838	0.0161520
839.916	0.0161559
839.994	0.0162458
840.072	0.0162492
840.151	0.0162879
840.229	0.0163942
840.307	0.0162708
840.385	0.0163241
840.463	0.0163142
840.541	0.0164918
840.619	0.0164557
840.697	0.0163465
840.776	0.0165401
840.854	0.0165533
840.932	0.0163702
841.010	0.0163669
841.088	0.0166447
841.166	0.0166195
841.244	0.0165175
841.322	0.0165022
841.401	0.0164865
841.479	0.0166208
841.557	0.0165837
841.635	0.0165742
841.713	0.0166020
841.791	0.0165981
841.869	0.0165736
841.947	0.0164229
842.026	0.0163477
842.104	0.0164445
842.182	0.0164703
842.260	0.0163770
842.338	0.0164436
842.416	0.0165215
842.494	0.0164098
842.572	0.0163271
842.651	0.0164157
842.729	0.0163514
842.807	0.0164851
842.885	0.0163533
842.963	0.0164327
843.041	0.0164017
843.119	0.0164886
843.197	0.0164763
843.276	0.0165977
843.354	0.0163850
843.432	0.0165073
843.510	0.0164236
843.588	0.0164783
843.666	0.0165362
843.744	0.0164568
843.822	0.0164673
843.901	0.0164405
843.979	0.0163757
844.057	0.0164937
844.135	0.0164799
844.213	0.0165211
844.291	0.0164324
844.369	0.0164654
844.447	0.0165868
844.526	0.0165517
844.604	0.0166013
844.682	0.0164002
844.760	0.0165505
844.838	0.0164820
844.916	0.0165221
844.994	0.0164608
845.072	0.0164406
845.151	0.0164912
845.229	0.0163580
845.307	0.0164582
845.385	0.0164427
845.463	0.0164513
845.541	0.0164146
845.619	0.0163942
845.697	0.0163956
845.776	0.0163466
845.854	0.0164165
845.932	0.0164305
846.010	0.0164217
846.088	0.0162813
846.166	0.0163285
846.244	0.0164056
846.322	0.0163303
846.401	0.0163525
846.479	0.0163081
846.557	0.0163455
846.635	0.0165334
846.713	0.0165658
846.791	0.0164107
846.869	0.0163759
846.947	0.0163599
847.026	0.0164352
847.104	0.0164371
847.182	0.0164238
847.260	0.0164256
847.338	0.0165298
847.416	0.0163641
847.494	0.0165527
847.572	0.0164938
847.651	0.0165198
847.729	0.0166231
847.807	0.0165285
847.885	0.0165884
847.963	0.0166074
848.041	0.0164738
848.119	0.0165260
848.197	0.0164933
848.276	0.0166259
848.354	0.0166286
848.432	0.0166936
848.510	0.0168188
848.588	0.0166655
848.666	0.0166762
848.744	0.0166341
848.822	0.0166492
848.901	0.0166652
848.979	0.0166744
849.057	0.0166177
849.135	0.0165765
849.213	0.0165834
849.291	0.0165830
849.369	0.0164851
849.447	0.0165101
849.526	0.0165108
849.604	0.0165135
849.682	0.0165726
849.760	0.0164478
849.838	0.0165121
849.916	0.0165691
849.994	0.0165728
850.072	0.0164371
850.151	0.0166102
850.229	0.0164472
850.307	0.0165057
850.385	0.0163958
850.463	0.0164774
850.541	0.0164301
850.619	0.0165216
850.697	0.0165175
850.776	0.0165324
850.854	0.0163438
850.932	0.0164001
851.010	0.0165285
851.088	0.0163479
851.166	0.0164645
851.244	0.0164494
851.322	0.0163058
851.401	0.0162508
851.479	0.0164091
851.557	0.0164385
851.635	0.0163708
851.713	0.0164139
851.791	0.0163291
851.869	0.0163776
851.947	0.0164224
852.026	0.0163710
852.104	0.0163444
852.182	0.0164198
852.260	0.0163664
852.338	0.0164104
852.416	0.0164172
852.494	0.0165334
852.572	0.0163383
852.651	0.0164983
852.729	0.0164940
852.807	0.0164621
852.885	0.0164507
852.963	0.0163885
853.041	0.0164356
853.119	0.0163763
853.197	0.0163918
853.276	0.0163524
853.354	0.0164370
853.432	0.0163503
853.510	0.0164474
853.588	0.0163269
853.666	0.0165099
853.744	0.0164518
853.822	0.0163063
853.901	0.0163191
853.979	0.0162822
854.057	0.0164710
854.135	0.0163113
854.213	0.0164301
854.291	0.0164578
854.369	0.0164841
854.447	0.0163339
854.526	0.0164597
854.604	0.0164707
854.682	0.0163682
854.760	0.0164349
854.838	0.0164181
854.916	0.0164191
854.994	0.0162830
855.072	0.0162067
855.151	0.0164327
855.229	0.0164458
855.307	0.0162985
855.385	0.0162669
855.463	0.0163183
855.541	0.0161593
855.619	0.0163987
855.697	0.0163279
855.776	0.0161759
855.854	0.0162930
855.932	0.0162107
856.010	0.0162389
856.088	0.0161569
856.166	0.0161557
856.244	0.0162405
856.322	0.0162156
856.401	0.0161413
856.479	0.0163055
856.557	0.0162267
856.635	0.0162968
856.713	0.0161398
856.791	0.0162379
856.869	0.0162542
856.947	0.0163770
857.026	0.0164115
857.104	0.0163736
857.182	0.0163281
857.260	0.0162813
857.338	0.0164285
857.416	0.0163908
857.494	0.0164231
857.572	0.0165641
857.651	0.0164697
857.729	0.0164192
857.807	0.0164211
857.885	0.0163922
857.963	0.0163998
858.041	0.0162482
858.119	0.0163338
858.197	0.0165231
858.276	0.0164477
858.354	0.0163776
858.432	0.0162369
858.510	0.0164662
858.588	0.0163371
858.666	0.0164194
858.744	0.0163905
858.822	0.0162760
858.901	0.0164938
858.979	0.0164530
859.057	0.0164410
859.135	0.0165149
859.213	0.0164091
859.291	0.0164808
859.369	0.0164488
859.447	0.0164900
859.526	0.0161841
859.604	0.0163142
859.682	0.0164337
859.760	0.0162598
859.838	0.0162814
859.916	0.0164212
859.994	0.0162464
860.072	0.0162244
860.151	0.0163783
860.229	0.0163360
860.307	0.0161573
860.385	0.0162498
860.463	0.0162428
860.541	0.0162930
860.619	0.0163651
860.697	0.0164053
860.776	0.0161658
860.854	0.0163356
860.932	0.0163371
861.010	0.0162325
861.088	0.0164930
861.166	0.0164848
861.244	0.0165485
861.322	0.0164428
861.401	0.0164330
861.479	0.0164388
861.557	0.0164433
861.635	0.0165177
861.713	0.0165342
861.791	0.0165835
861.869	0.0164368
861.947	0.0165718
862.026	0.0164645
862.104	0.0165348
862.182	0.0166161
862.260	0.0165038
862.338	0.0164708
862.416	0.0166709
862.494	0.0165681
862.572	0.0165581
862.651	0.0165805
862.729	0.0165962
862.807	0.0167128
862.885	0.0166325
862.963	0.0164176
863.041	0.0165869
863.119	0.0166082
863.197	0.0166956
863.276	0.0164375
863.354	0.0167027
863.432	0.0165026
863.510	0.0164084
863.588	0.0164146
863.666	0.0164754
863.744	0.0164718
863.822	0.0164348
863.901	0.0164648
863.979	0.0164221
864.057	0.0164008
864.135	0.0164075
864.213	0.0163606
864.291	0.0163612
864.369	0.0163680
864.447	0.0163038
864.526	0.0163662
864.604	0.0164447
864.682	0.0164774
864.760	0.0164012
864.838	0.0163869
864.916	0.0163749
864.994	0.0164197
865.072	0.0166615
865.151	0.0165170
865.229	0.0163654
865.307	0.0164140
865.385	0.0164861
865.463	0.0163622
865.541	0.0165236
865.619	0.0164852
865.697	0.0163961
865.776	0.0165192
865.854	0.0165222
865.932	0.0164754
866.010	0.0165060
866.088	0.0165273
866.166	0.0165511
866.244	0.0164586
866.322	0.0165345
866.401	0.0165298
866.479	0.0165934
866.557	0.0165237
866.635	0.0164781
866.713	0.0165350
866.791	0.0165682
866.869	0.0165446
866.947	0.0164937
867.026	0.0165609
867.104	0.0166261
867.182	0.0166873
867.260	0.0166487
867.338	0.0165306
867.416	0.0166622
867.494	0.0165944
867.572	0.0166044
867.651	0.0164612
867.729	0.0166077
867.807	0.0165706
867.885	0.0165426
867.963	0.0165955
868.041	0.0167174
868.119	0.0166170
868.197	0.0165445
868.276	0.0165870
868.354	0.0165054
868.432	0.0164378
868.510	0.0166399
868.588	0.0166151
868.666	0.0164003
868.744	0.0165268
868.822	0.0165271
868.901	0.0164879
868.979	0.0165566
869.057	0.0166345
869.135	0.0165279
869.213	0.0163379
869.291	0.0163717
869.369	0.0164182
869.447	0.0165458
869.526	0.0164406
869.604	0.0165147
869.682	0.0165078
869.760	0.0164670
869.838	0.0164449
869.916	0.0165580
869.994	0.0164923
870.072	0.0164588
870.151	0.0163973
870.229	0.0164108
870.307	0.0163840
870.385	0.0163679
870.463	0.0165245
870.541	0.0163166
870.619	0.0164922
870.697	0.0164671
870.776	0.0164992
870.854	0.0164946
870.932	0.0164572
871.010	0.0164967
871.088	0.0165143
871.166	0.0164590
871.244	0.0164217
871.322	0.0165063
871.401	0.0165379
871.479	0.0165608
871.557	0.0165005
871.635	0.0164671
871.713	0.0165622
871.791	0.0164550
871.869	0.0165150
871.947	0.0165441
872.026	0.0163903
872.104	0.0164751
872.182	0.0163728
872.260	0.0164577
872.338	0.0165688
872.416	0.0164549
872.494	0.0163306
872.572	0.0164420
872.651	0.0163703
872.729	0.0164798
872.807	0.0165054
872.885	0.0163816
872.963	0.0162872
873.041	0.0161942
873.119	0.0162914
873.197	0.0163283
873.276	0.0163914
873.354	0.0163317
873.432	0.0162928
873.510	0.0163852
873.588	0.0163359
873.666	0.0163591
873.744	0.0162071
873.822	0.0163881
873.901	0.0164642
873.979	0.0164117
874.057	0.0163774
874.135	0.0163824
874.213	0.0163419
874.291	0.0163892
874.369	0.0165104
874.447	0.0163718
874.526	0.0164862
874.604	0.0163196
874.682	0.0164442
874.760	0.0164774
874.838	0.0164660
874.916	0.0165369
874.994	0.0163070
875.072	0.0164662
875.151	0.0164165
875.229	0.0164585
875.307	0.0165057
875.385	0.0164899
875.463	0.0163026
875.541	0.0163291
875.619	0.0165141
875.697	0.0164491
875.776	0.0164329
875.854	0.0164825
875.932	0.0164049
876.010	0.0163638
876.088	0.0163936
876.166	0.0163036
876.244	0.0163929
876.322	0.0164385
876.401	0.0164180
876.479	0.0164294
876.557	0.0163493
876.635	0.0161781
876.713	0.0163386
876.791	0.0163996
876.869	0.0162268
876.947	0.0163513
877.026	0.0164072
877.104	0.0163271
877.182	0.0163212
877.260	0.0163283
877.338	0.0165209
877.416	0.0163010
877.494	0.0164106
877.572	0.0163340
877.651	0.0162990
877.729	0.0163943
877.807	0.0164777
877.885	0.0163860
877.963	0.0163682
878.041	0.0163568
878.119	0.0164323
878.197	0.0164020
878.276	0.0164519
878.354	0.0165365
878.432	0.0163684
878.510	0.0164301
878.588	0.0164708
878.666	0.0164258
878.744	0.0164302
878.822	0.0165363
878.901	0.0165009
878.979	0.0164354
879.057	0.0163937
879.135	0.0164406
879.213	0.0165192
879.291	0.0165662
879.369	0.0164928
879.447	0.0164642
879.526	0.0164177
879.604	0.0164309
879.682	0.0165739
879.760	0.0165408
879.838	0.0165677
879.916	0.0165305
879.994	0.0165761
880.072	0.0165663
880.151	0.0166631
880.229	0.0166139
880.307	0.0164314
880.385	0.0165855
880.463	0.0165887
880.541	0.0165270
880.619	0.0165591
880.697	0.0166267
880.776	0.0164796
880.854	0.0165784
880.932	0.0164876
881.010	0.0165322
881.088	0.0165551
881.166	0.0165693
881.244	0.0166127
881.322	0.0165890
881.401	0.0166392
881.479	0.0164901
881.557	0.0164433
881.635	0.0164258
881.713	0.0165860
881.791	0.0165043
881.869	0.0164058
881.947	0.0164051
882.026	0.0164104
882.104	0.0166029
882.182	0.0163853
882.260	0.0163211
882.338	0.0164404
882.416	0.0163184
882.494	0.0162864
882.572	0.0162969
882.651	0.0163094
882.729	0.0163293
882.807	0.0162968
882.885	0.0162309
882.963	0.0161298
883.041	0.0161828
883.119	0.0163499
883.197	0.0162038
883.276	0.0162883
883.354	0.0163711
883.432	0.0162411
883.510	0.0163909
883.588	0.0162503
883.666	0.0164641
883.744	0.0163916
883.822	0.0162798
883.901	0.0162928
883.979	0.0164955
884.057	0.0163667
884.135	0.0164082
884.213	0.0163791
884.291	0.0164391
884.369	0.0163828
884.447	0.0163882
884.526	0.0164507
884.604	0.0164703
884.682	0.0163066
884.760	0.0163210
884.838	0.0163586
884.916	0.0165025
884.994	0.0164002
885.072	0.0163953
885.151	0.0163441
885.229	0.0163995
885.307	0.0165105
885.385	0.0164791
885.463	0.0164278
885.541	0.0166045
885.619	0.0165746
885.697	0.0165814
885.776	0.0167046
885.854	0.0165666
885.932	0.0164939
886.010	0.0165079
886.088	0.0165795
886.166	0.0165032
886.244	0.0165896
886.322	0.0165262
886.401	0.0165165
886.479	0.0166508
886.557	0.0166010
886.635	0.0166391
886.713	0.0166023
886.791	0.0166137
886.869	0.0166805
886.947	0.0165359
887.026	0.0165176
887.104	0.0166146
887.182	0.0166291
887.260	0.0165294
887.338	0.0165669
887.416	0.0167393
887.494	0.0165937
887.572	0.0166976
887.651	0.0165858
887.729	0.0165977
887.807	0.0166319
887.885	0.0166370
887.963	0.0166517
888.041	0.0166506
888.119	0.0168125
888.197	0.0167148
888.276	0.0165066
888.354	0.0165860
888.432	0.0166444
888.510	0.0165672
888.588	0.0166495
888.666	0.0167036
888.744	0.0166077
888.822	0.0165331
888.901	0.0166998
888.979	0.0165708
889.057	0.0164653
889.135	0.0167255
889.213	0.0166297
889.291	0.0165359
889.369	0.0166167
889.447	0.0166123
889.526	0.0167194
889.604	0.0165624
889.682	0.0165759
889.760	0.0167130
889.838	0.0167031
889.916	0.0167229
