06/03/2022	16:09:12	Ver.	4.1	UNKNOWN
Optical Delay	569.994326	Delta X		0.078125	Sweeps	1	Scan Rate	0/0
Coordinates	Axis 1	NaN	Axis 2	NaN	Axis 3	NaN	Axis 4	NaN	Axis 5	NaN	Axis 6	0.000000
TX Power	0.000000	RX Power	0.000000

569.994	0.0165914
570.072	0.0167554
570.151	0.0167838
570.229	0.0166122
570.307	0.0164801
570.385	0.0164967
570.463	0.0166634
570.541	0.0166543
570.619	0.0166481
570.697	0.0165340
570.776	0.0164356
570.854	0.0165394
570.932	0.0166175
571.010	0.0166659
571.088	0.0164938
571.166	0.0165413
571.244	0.0166165
571.322	0.0165885
571.401	0.0166688
571.479	0.0164557
571.557	0.0164802
571.635	0.0166788
571.713	0.0166210
571.791	0.0166338
571.869	0.0166146
571.947	0.0165273
572.026	0.0165140
572.104	0.0164642
572.182	0.0165075
572.260	0.0164782
572.338	0.0165034
572.416	0.0165210
572.494	0.0165426
572.572	0.0166229
572.651	0.0164618
572.729	0.0165466
572.807	0.0164341
572.885	0.0165002
572.963	0.0166360
573.041	0.0164816
573.119	0.0165691
573.197	0.0165584
573.276	0.0166222
573.354	0.0164487
573.432	0.0164858
573.510	0.0165202
573.588	0.0166513
573.666	0.0165103
573.744	0.0166060
573.822	0.0165921
573.901	0.0165411
573.979	0.0164263
574.057	0.0166422
574.135	0.0165491
574.213	0.0165119
574.291	0.0165416
574.369	0.0166371
574.447	0.0165036
574.526	0.0166359
574.604	0.0167459
574.682	0.0166042
574.760	0.0166039
574.838	0.0165463
574.916	0.0165450
574.994	0.0165643
575.072	0.0165649
575.151	0.0166515
575.229	0.0166116
575.307	0.0167587
575.385	0.0166566
575.463	0.0166582
575.541	0.0165759
575.619	0.0165644
575.697	0.0166978
575.776	0.0165855
575.854	0.0166017
575.932	0.0167023
576.010	0.0166750
576.088	0.0166830
576.166	0.0167106
576.244	0.0167924
576.322	0.0167244
576.401	0.0167648
576.479	0.0166833
576.557	0.0166564
576.635	0.0167561
576.713	0.0166873
576.791	0.0167260
576.869	0.0166803
576.947	0.0167915
577.026	0.0167664
577.104	0.0166354
577.182	0.0166862
577.260	0.0167020
577.338	0.0166343
577.416	0.0166405
577.494	0.0167287
577.572	0.0165691
577.651	0.0166866
577.729	0.0165494
577.807	0.0166688
577.885	0.0166168
577.963	0.0167014
578.041	0.0167240
578.119	0.0166416
578.197	0.0166122
578.276	0.0167113
578.354	0.0166869
578.432	0.0167078
578.510	0.0166360
578.588	0.0167686
578.666	0.0167539
578.744	0.0166639
578.822	0.0167711
578.901	0.0167367
578.979	0.0165812
579.057	0.0166007
579.135	0.0166441
579.213	0.0168127
579.291	0.0168638
579.369	0.0167075
579.447	0.0167105
579.526	0.0167191
579.604	0.0166314
579.682	0.0167449
579.760	0.0165926
579.838	0.0165982
579.916	0.0166760
579.994	0.0166832
580.072	0.0166832
580.151	0.0165385
580.229	0.0165203
580.307	0.0165269
580.385	0.0166367
580.463	0.0167301
580.541	0.0165916
580.619	0.0165981
580.697	0.0166084
580.776	0.0165599
580.854	0.0164954
580.932	0.0165239
581.010	0.0165052
581.088	0.0166008
581.166	0.0165368
581.244	0.0165905
581.322	0.0164735
581.401	0.0165516
581.479	0.0164796
581.557	0.0165359
581.635	0.0165591
581.713	0.0165269
581.791	0.0165008
581.869	0.0163828
581.947	0.0164627
582.026	0.0166849
582.104	0.0164773
582.182	0.0165386
582.260	0.0164915
582.338	0.0164831
582.416	0.0165422
582.494	0.0165536
582.572	0.0165633
582.651	0.0164536
582.729	0.0163495
582.807	0.0164097
582.885	0.0163145
582.963	0.0163902
583.041	0.0164381
583.119	0.0165036
583.197	0.0163961
583.276	0.0164250
583.354	0.0165067
583.432	0.0164747
583.510	0.0163392
583.588	0.0165041
583.666	0.0165277
583.744	0.0164873
583.822	0.0166013
583.901	0.0165369
583.979	0.0165781
584.057	0.0164856
584.135	0.0164793
584.213	0.0165594
584.291	0.0166611
584.369	0.0165436
584.447	0.0165748
584.526	0.0164679
584.604	0.0164977
584.682	0.0166772
584.760	0.0164651
584.838	0.0165488
584.916	0.0165251
584.994	0.0165224
585.072	0.0165585
585.151	0.0164391
585.229	0.0164564
585.307	0.0165968
585.385	0.0165426
585.463	0.0164703
585.541	0.0163197
585.619	0.0165678
585.697	0.0164862
585.776	0.0164996
585.854	0.0166132
585.932	0.0166611
586.010	0.0166193
586.088	0.0164452
586.166	0.0165244
586.244	0.0164890
586.322	0.0164848
586.401	0.0164756
586.479	0.0164780
586.557	0.0165616
586.635	0.0166004
586.713	0.0165694
586.791	0.0166754
586.869	0.0165095
586.947	0.0165831
587.026	0.0164845
587.104	0.0165198
587.182	0.0166839
587.260	0.0166029
587.338	0.0165385
587.416	0.0166376
587.494	0.0165981
587.572	0.0165635
587.651	0.0165852
587.729	0.0166331
587.807	0.0165917
587.885	0.0164642
587.963	0.0166830
588.041	0.0166428
588.119	0.0166088
588.197	0.0165986
588.276	0.0166418
588.354	0.0166624
588.432	0.0164231
588.510	0.0165820
588.588	0.0167017
588.666	0.0166857
588.744	0.0164274
588.822	0.0166137
588.901	0.0165704
588.979	0.0166057
589.057	0.0164571
589.135	0.0166437
589.213	0.0166047
589.291	0.0165835
589.369	0.0165985
589.447	0.0166061
589.526	0.0165607
589.604	0.0165462
589.682	0.0164998
589.760	0.0165519
589.838	0.0164830
589.916	0.0166151
589.994	0.0166396
590.072	0.0165463
590.151	0.0164574
590.229	0.0166616
590.307	0.0164852
590.385	0.0165292
590.463	0.0164377
590.541	0.0165955
590.619	0.0165427
590.697	0.0165421
590.776	0.0164580
590.854	0.0163847
590.932	0.0165335
591.010	0.0164426
591.088	0.0164264
591.166	0.0164476
591.244	0.0164332
591.322	0.0165051
591.401	0.0164761
591.479	0.0163542
591.557	0.0162691
591.635	0.0163874
591.713	0.0165629
591.791	0.0165276
591.869	0.0163746
591.947	0.0163834
592.026	0.0165858
592.104	0.0163403
592.182	0.0165008
592.260	0.0164446
592.338	0.0164814
592.416	0.0164603
592.494	0.0164311
592.572	0.0164719
592.651	0.0164661
592.729	0.0165544
592.807	0.0166240
592.885	0.0164562
592.963	0.0164373
593.041	0.0164925
593.119	0.0164096
593.197	0.0165350
593.276	0.0166656
593.354	0.0165200
593.432	0.0165057
593.510	0.0165280
593.588	0.0164858
593.666	0.0163568
593.744	0.0165894
593.822	0.0166644
593.901	0.0166704
593.979	0.0165711
594.057	0.0164613
594.135	0.0165524
594.213	0.0165607
594.291	0.0164717
594.369	0.0166998
594.447	0.0165775
594.526	0.0166261
594.604	0.0164302
594.682	0.0165940
594.760	0.0166743
594.838	0.0166299
594.916	0.0165533
594.994	0.0165785
595.072	0.0165977
595.151	0.0165980
595.229	0.0165357
595.307	0.0165981
595.385	0.0166286
595.463	0.0164826
595.541	0.0164762
595.619	0.0165635
595.697	0.0166213
595.776	0.0165347
595.854	0.0165707
595.932	0.0166567
596.010	0.0165960
596.088	0.0165244
596.166	0.0164408
596.244	0.0164509
596.322	0.0166155
596.401	0.0166466
596.479	0.0166003
596.557	0.0165524
596.635	0.0164597
596.713	0.0165489
596.791	0.0165960
596.869	0.0166071
596.947	0.0167661
597.026	0.0167814
597.104	0.0166698
597.182	0.0166264
597.260	0.0166150
597.338	0.0166485
597.416	0.0168472
597.494	0.0167654
597.572	0.0166581
597.651	0.0166586
597.729	0.0166335
597.807	0.0165678
597.885	0.0166699
597.963	0.0164919
598.041	0.0166288
598.119	0.0166534
598.197	0.0165720
598.276	0.0166599
598.354	0.0167297
598.432	0.0164799
598.510	0.0164520
598.588	0.0165320
598.666	0.0166245
598.744	0.0166277
598.822	0.0164812
598.901	0.0164515
598.979	0.0165817
599.057	0.0164761
599.135	0.0166207
599.213	0.0166105
599.291	0.0166084
599.369	0.0166598
599.447	0.0165943
599.526	0.0164963
599.604	0.0166544
599.682	0.0166792
599.760	0.0166608
599.838	0.0165574
599.916	0.0164631
599.994	0.0166407
600.072	0.0165775
600.151	0.0165562
600.229	0.0165012
600.307	0.0165773
600.385	0.0165122
600.463	0.0166227
600.541	0.0164751
600.619	0.0164668
600.697	0.0165732
600.776	0.0166608
600.854	0.0166752
600.932	0.0164172
601.010	0.0166247
601.088	0.0165795
601.166	0.0165768
601.244	0.0164501
601.322	0.0164438
601.401	0.0165334
601.479	0.0166340
601.557	0.0163837
601.635	0.0165293
601.713	0.0165036
601.791	0.0163187
601.869	0.0165186
601.947	0.0165195
602.026	0.0163860
602.104	0.0165749
602.182	0.0165208
602.260	0.0164970
602.338	0.0165308
602.416	0.0164650
602.494	0.0165240
602.572	0.0164948
602.651	0.0165385
602.729	0.0165334
602.807	0.0163963
602.885	0.0165909
602.963	0.0165273
603.041	0.0164708
603.119	0.0164422
603.197	0.0164625
603.276	0.0165051
603.354	0.0165244
603.432	0.0165350
603.510	0.0165472
603.588	0.0164224
603.666	0.0164325
603.744	0.0165615
603.822	0.0165955
603.901	0.0164885
603.979	0.0165436
604.057	0.0165919
604.135	0.0165905
604.213	0.0165945
604.291	0.0164058
604.369	0.0165461
604.447	0.0165932
604.526	0.0165415
604.604	0.0165565
604.682	0.0165649
604.760	0.0165965
604.838	0.0167345
604.916	0.0165571
604.994	0.0166775
605.072	0.0165846
605.151	0.0163874
605.229	0.0165171
605.307	0.0165690
605.385	0.0164920
605.463	0.0165819
605.541	0.0167023
605.619	0.0165714
605.697	0.0166365
605.776	0.0165982
605.854	0.0164961
605.932	0.0165195
606.010	0.0166202
606.088	0.0165783
606.166	0.0165536
606.244	0.0165677
606.322	0.0165261
606.401	0.0166734
606.479	0.0165945
606.557	0.0166785
606.635	0.0165862
606.713	0.0166107
606.791	0.0166598
606.869	0.0166311
606.947	0.0165739
607.026	0.0165336
607.104	0.0166141
607.182	0.0166274
607.260	0.0166927
607.338	0.0166968
607.416	0.0165427
607.494	0.0165596
607.572	0.0165001
607.651	0.0165703
607.729	0.0167154
607.807	0.0166898
607.885	0.0164558
607.963	0.0166020
608.041	0.0165744
608.119	0.0166255
608.197	0.0165588
608.276	0.0165341
608.354	0.0164690
608.432	0.0164543
608.510	0.0166199
608.588	0.0166482
608.666	0.0165171
608.744	0.0166033
608.822	0.0165443
608.901	0.0165804
608.979	0.0165105
609.057	0.0165679
609.135	0.0164578
609.213	0.0164893
609.291	0.0164426
609.369	0.0164599
609.447	0.0165464
609.526	0.0165476
609.604	0.0163136
609.682	0.0163741
609.760	0.0165136
609.838	0.0166031
609.916	0.0165396
609.994	0.0164439
610.072	0.0163857
610.151	0.0163918
610.229	0.0164898
610.307	0.0165018
610.385	0.0164652
610.463	0.0165274
610.541	0.0164116
610.619	0.0165076
610.697	0.0164559
610.776	0.0165098
610.854	0.0164475
610.932	0.0165051
611.010	0.0163848
611.088	0.0164466
611.166	0.0163900
611.244	0.0164670
611.322	0.0164172
611.401	0.0163642
611.479	0.0164005
611.557	0.0162761
611.635	0.0164919
611.713	0.0164534
611.791	0.0165005
611.869	0.0164686
611.947	0.0163344
612.026	0.0164299
612.104	0.0165199
612.182	0.0165045
612.260	0.0165023
612.338	0.0165137
612.416	0.0164293
612.494	0.0164374
612.572	0.0164494
612.651	0.0163895
612.729	0.0165491
612.807	0.0165157
612.885	0.0163615
612.963	0.0165129
613.041	0.0165209
613.119	0.0164684
613.197	0.0163898
613.276	0.0164212
613.354	0.0164832
613.432	0.0165108
613.510	0.0164388
613.588	0.0164528
613.666	0.0164566
613.744	0.0164512
613.822	0.0165679
613.901	0.0164487
613.979	0.0165387
614.057	0.0165714
614.135	0.0165047
614.213	0.0165449
614.291	0.0166545
614.369	0.0163877
614.447	0.0164709
614.526	0.0163911
614.604	0.0165752
614.682	0.0165138
614.760	0.0165965
614.838	0.0166181
614.916	0.0165060
614.994	0.0165302
615.072	0.0164252
615.151	0.0164704
615.229	0.0166020
615.307	0.0165285
615.385	0.0165038
615.463	0.0164266
615.541	0.0163898
615.619	0.0165037
615.697	0.0165508
615.776	0.0166164
615.854	0.0165942
615.932	0.0165262
616.010	0.0165427
616.088	0.0165862
616.166	0.0166517
616.244	0.0165425
616.322	0.0164764
616.401	0.0165502
616.479	0.0165821
616.557	0.0164705
616.635	0.0165323
616.713	0.0166222
616.791	0.0165659
616.869	0.0165704
616.947	0.0165479
617.026	0.0165057
617.104	0.0165878
617.182	0.0164771
617.260	0.0164465
617.338	0.0164574
617.416	0.0164649
617.494	0.0165456
617.572	0.0165855
617.651	0.0165347
617.729	0.0165143
617.807	0.0165189
617.885	0.0163960
617.963	0.0164929
618.041	0.0165158
618.119	0.0166498
618.197	0.0166448
618.276	0.0164675
618.354	0.0165203
618.432	0.0166453
618.510	0.0166660
618.588	0.0165968
618.666	0.0165802
618.744	0.0165379
618.822	0.0166166
618.901	0.0166530
618.979	0.0165174
619.057	0.0164603
619.135	0.0166165
619.213	0.0166732
619.291	0.0165913
619.369	0.0167087
619.447	0.0165149
619.526	0.0165885
619.604	0.0165686
619.682	0.0166113
619.760	0.0166066
619.838	0.0166964
619.916	0.0167139
619.994	0.0166335
620.072	0.0166109
620.151	0.0165174
620.229	0.0165097
620.307	0.0166482
620.385	0.0166450
620.463	0.0166142
620.541	0.0167111
620.619	0.0165857
620.697	0.0166590
620.776	0.0166233
620.854	0.0166047
620.932	0.0165193
621.010	0.0166794
621.088	0.0166116
621.166	0.0165563
621.244	0.0166965
621.322	0.0165691
621.401	0.0164941
621.479	0.0167110
621.557	0.0165823
621.635	0.0165707
621.713	0.0165821
621.791	0.0166064
621.869	0.0165837
621.947	0.0166351
622.026	0.0165347
622.104	0.0166393
622.182	0.0166032
622.260	0.0165024
622.338	0.0164715
622.416	0.0165425
622.494	0.0164745
622.572	0.0166046
622.651	0.0165378
622.729	0.0165572
622.807	0.0166212
622.885	0.0164227
622.963	0.0165636
623.041	0.0166141
623.119	0.0167257
623.197	0.0166102
623.276	0.0164636
623.354	0.0164917
623.432	0.0165253
623.510	0.0164624
623.588	0.0165399
623.666	0.0165714
623.744	0.0164672
623.822	0.0163794
623.901	0.0164348
623.979	0.0164892
624.057	0.0165717
624.135	0.0166252
624.213	0.0165472
624.291	0.0164587
624.369	0.0164888
624.447	0.0165495
624.526	0.0166976
624.604	0.0165152
624.682	0.0164322
624.760	0.0165141
624.838	0.0164505
624.916	0.0165608
624.994	0.0165855
625.072	0.0165363
625.151	0.0165034
625.229	0.0164730
625.307	0.0165028
625.385	0.0165067
625.463	0.0164867
625.541	0.0165774
625.619	0.0164933
625.697	0.0164258
625.776	0.0164404
625.854	0.0164762
625.932	0.0165864
626.010	0.0165843
626.088	0.0164054
626.166	0.0163725
626.244	0.0164063
626.322	0.0165466
626.401	0.0166599
626.479	0.0165489
626.557	0.0164299
626.635	0.0165237
626.713	0.0165710
626.791	0.0164987
626.869	0.0165416
626.947	0.0164844
627.026	0.0165079
627.104	0.0165373
627.182	0.0165192
627.260	0.0163846
627.338	0.0164423
627.416	0.0165345
627.494	0.0164863
627.572	0.0165633
627.651	0.0166983
627.729	0.0166039
627.807	0.0165549
627.885	0.0165849
627.963	0.0166666
628.041	0.0165929
628.119	0.0166823
628.197	0.0166883
628.276	0.0166173
628.354	0.0165966
628.432	0.0166824
628.510	0.0166828
628.588	0.0167139
628.666	0.0167179
628.744	0.0165675
628.822	0.0166885
628.901	0.0166724
628.979	0.0166467
629.057	0.0165934
629.135	0.0166232
629.213	0.0165900
629.291	0.0166296
629.369	0.0167260
629.447	0.0165781
629.526	0.0166460
629.604	0.0166344
629.682	0.0166368
629.760	0.0166444
629.838	0.0166164
629.916	0.0166825
629.994	0.0164906
630.072	0.0166367
630.151	0.0166522
630.229	0.0166483
630.307	0.0167220
630.385	0.0167703
630.463	0.0165643
630.541	0.0166461
630.619	0.0165823
630.697	0.0166523
630.776	0.0166530
630.854	0.0166563
630.932	0.0166570
631.010	0.0164771
631.088	0.0165700
631.166	0.0166940
631.244	0.0166449
631.322	0.0166547
631.401	0.0167085
631.479	0.0166803
631.557	0.0168107
631.635	0.0166567
631.713	0.0164737
631.791	0.0165207
631.869	0.0166866
631.947	0.0165977
632.026	0.0167596
632.104	0.0165400
632.182	0.0164639
632.260	0.0166132
632.338	0.0166020
632.416	0.0166918
632.494	0.0166497
632.572	0.0165659
632.651	0.0165121
632.729	0.0166044
632.807	0.0165314
632.885	0.0164956
632.963	0.0165207
633.041	0.0165424
633.119	0.0165321
633.197	0.0165372
633.276	0.0165849
633.354	0.0164618
633.432	0.0164760
633.510	0.0165893
633.588	0.0164737
633.666	0.0165298
633.744	0.0166499
633.822	0.0164973
633.901	0.0165320
633.979	0.0166014
634.057	0.0166125
634.135	0.0164626
634.213	0.0164318
634.291	0.0165831
634.369	0.0165395
634.447	0.0165130
634.526	0.0164089
634.604	0.0165089
634.682	0.0165253
634.760	0.0164959
634.838	0.0164758
634.916	0.0165443
634.994	0.0165594
635.072	0.0165784
635.151	0.0164825
635.229	0.0164711
635.307	0.0165392
635.385	0.0165470
635.463	0.0164720
635.541	0.0165627
635.619	0.0163792
635.697	0.0164958
635.776	0.0165044
635.854	0.0163464
635.932	0.0164695
636.010	0.0165002
636.088	0.0164252
636.166	0.0164256
636.244	0.0165515
636.322	0.0165173
636.401	0.0166046
636.479	0.0163937
636.557	0.0165179
636.635	0.0164968
636.713	0.0165057
636.791	0.0164851
636.869	0.0164754
636.947	0.0164550
637.026	0.0163422
637.104	0.0162573
637.182	0.0163799
637.260	0.0165862
637.338	0.0165508
637.416	0.0164555
637.494	0.0164363
637.572	0.0164345
637.651	0.0164568
637.729	0.0164928
637.807	0.0164880
637.885	0.0164495
637.963	0.0164516
638.041	0.0163122
638.119	0.0165760
638.197	0.0166008
638.276	0.0164646
638.354	0.0165242
638.432	0.0165218
638.510	0.0165028
638.588	0.0165345
638.666	0.0166234
638.744	0.0164839
638.822	0.0166520
638.901	0.0167130
638.979	0.0165620
639.057	0.0166332
639.135	0.0166143
639.213	0.0165170
639.291	0.0164310
639.369	0.0165681
639.447	0.0167037
639.526	0.0166838
639.604	0.0166970
639.682	0.0166103
639.760	0.0165808
639.838	0.0165794
639.916	0.0166878
639.994	0.0166094
640.072	0.0166999
640.151	0.0167388
640.229	0.0166682
640.307	0.0166909
640.385	0.0166624
640.463	0.0166560
640.541	0.0167551
640.619	0.0166492
640.697	0.0167218
640.776	0.0166363
640.854	0.0167082
640.932	0.0166500
641.010	0.0166518
641.088	0.0167133
641.166	0.0167007
641.244	0.0167133
641.322	0.0167252
641.401	0.0165823
641.479	0.0166406
641.557	0.0168109
641.635	0.0167449
641.713	0.0166114
641.791	0.0165516
641.869	0.0165977
641.947	0.0166568
642.026	0.0165987
642.104	0.0166602
642.182	0.0166045
642.260	0.0166355
642.338	0.0167786
642.416	0.0168048
642.494	0.0167844
642.572	0.0167606
642.651	0.0167941
642.729	0.0168671
642.807	0.0168047
642.885	0.0166437
642.963	0.0166521
643.041	0.0167641
643.119	0.0166428
643.197	0.0166487
643.276	0.0166444
643.354	0.0168317
643.432	0.0167950
643.510	0.0165589
643.588	0.0166789
643.666	0.0167544
643.744	0.0167370
643.822	0.0167998
643.901	0.0165306
643.979	0.0166669
644.057	0.0166954
644.135	0.0167097
644.213	0.0167379
644.291	0.0166650
644.369	0.0167468
644.447	0.0167009
644.526	0.0166586
644.604	0.0166502
644.682	0.0167854
644.760	0.0165584
644.838	0.0165286
644.916	0.0166465
644.994	0.0166027
645.072	0.0166577
645.151	0.0166034
645.229	0.0166837
645.307	0.0164982
645.385	0.0167332
645.463	0.0167229
645.541	0.0166600
645.619	0.0166207
645.697	0.0165574
645.776	0.0165527
645.854	0.0165627
645.932	0.0166626
646.010	0.0166523
646.088	0.0164961
646.166	0.0166354
646.244	0.0166415
646.322	0.0165251
646.401	0.0164921
646.479	0.0166331
646.557	0.0166036
646.635	0.0165180
646.713	0.0166943
646.791	0.0165928
646.869	0.0165973
646.947	0.0165313
647.026	0.0165353
647.104	0.0164719
647.182	0.0166157
647.260	0.0165041
647.338	0.0166039
647.416	0.0165877
647.494	0.0166385
647.572	0.0166813
647.651	0.0165651
647.729	0.0164698
647.807	0.0165440
647.885	0.0166589
647.963	0.0166611
648.041	0.0166329
648.119	0.0167599
648.197	0.0166202
648.276	0.0164745
648.354	0.0165097
648.432	0.0166183
648.510	0.0165422
648.588	0.0165571
648.666	0.0166721
648.744	0.0166225
648.822	0.0164714
648.901	0.0165302
648.979	0.0164677
649.057	0.0165491
649.135	0.0166490
649.213	0.0167015
649.291	0.0165873
649.369	0.0164102
649.447	0.0166250
649.526	0.0166137
649.604	0.0165453
649.682	0.0165659
649.760	0.0166465
649.838	0.0165501
649.916	0.0165615
649.994	0.0165055
650.072	0.0165614
650.151	0.0166705
650.229	0.0166228
650.307	0.0167638
650.385	0.0167262
650.463	0.0166708
650.541	0.0166452
650.619	0.0165598
650.697	0.0165722
650.776	0.0165508
650.854	0.0166332
650.932	0.0166517
651.010	0.0166721
651.088	0.0164354
651.166	0.0166006
651.244	0.0166604
651.322	0.0165915
651.401	0.0165537
651.479	0.0165540
651.557	0.0165096
651.635	0.0165440
651.713	0.0165692
651.791	0.0164742
651.869	0.0165176
651.947	0.0165916
652.026	0.0167649
652.104	0.0166789
652.182	0.0166651
652.260	0.0163936
652.338	0.0164542
652.416	0.0164381
652.494	0.0164533
652.572	0.0165770
652.651	0.0165631
652.729	0.0164363
652.807	0.0165254
652.885	0.0164510
652.963	0.0164439
653.041	0.0164804
653.119	0.0166051
653.197	0.0165052
653.276	0.0163611
653.354	0.0164736
653.432	0.0164202
653.510	0.0164878
653.588	0.0166055
653.666	0.0164507
653.744	0.0164117
653.822	0.0165666
653.901	0.0166274
653.979	0.0164914
654.057	0.0166389
654.135	0.0165169
654.213	0.0166102
654.291	0.0165585
654.369	0.0166070
654.447	0.0165854
654.526	0.0166785
654.604	0.0165942
654.682	0.0165008
654.760	0.0166308
654.838	0.0165138
654.916	0.0165894
654.994	0.0165958
655.072	0.0165857
655.151	0.0165002
655.229	0.0165780
655.307	0.0165695
655.385	0.0166455
655.463	0.0166310
655.541	0.0165984
655.619	0.0165311
655.697	0.0166463
655.776	0.0165134
655.854	0.0165383
655.932	0.0166120
656.010	0.0164655
656.088	0.0164760
656.166	0.0167226
656.244	0.0165736
656.322	0.0165749
656.401	0.0166323
656.479	0.0165065
656.557	0.0166893
656.635	0.0165801
656.713	0.0166268
656.791	0.0165525
656.869	0.0166352
656.947	0.0165329
657.026	0.0164957
657.104	0.0164751
657.182	0.0164847
657.260	0.0165309
657.338	0.0164464
657.416	0.0164624
657.494	0.0165713
657.572	0.0163987
657.651	0.0164172
657.729	0.0165162
657.807	0.0164581
657.885	0.0164101
657.963	0.0165408
658.041	0.0165623
658.119	0.0164417
658.197	0.0163423
658.276	0.0165756
658.354	0.0164565
658.432	0.0165509
658.510	0.0163441
658.588	0.0164304
658.666	0.0164930
658.744	0.0165110
658.822	0.0164680
658.901	0.0164115
658.979	0.0163997
659.057	0.0165300
659.135	0.0164516
659.213	0.0165730
659.291	0.0164261
659.369	0.0164449
659.447	0.0163884
659.526	0.0165441
659.604	0.0164703
659.682	0.0164530
659.760	0.0164352
659.838	0.0164567
659.916	0.0165749
659.994	0.0164785
660.072	0.0165563
660.151	0.0164301
660.229	0.0165019
660.307	0.0164780
660.385	0.0164544
660.463	0.0164902
660.541	0.0164452
660.619	0.0164707
660.697	0.0163850
660.776	0.0163067
660.854	0.0164115
660.932	0.0164893
661.010	0.0163686
661.088	0.0163709
661.166	0.0163785
661.244	0.0164489
661.322	0.0164617
661.401	0.0164744
661.479	0.0163966
661.557	0.0163005
661.635	0.0164708
661.713	0.0164735
661.791	0.0163715
661.869	0.0165173
661.947	0.0165454
662.026	0.0164253
662.104	0.0164408
662.182	0.0164539
662.260	0.0165353
662.338	0.0165174
662.416	0.0163774
662.494	0.0163856
662.572	0.0165018
662.651	0.0165047
662.729	0.0165514
662.807	0.0162643
662.885	0.0164211
662.963	0.0165386
663.041	0.0165250
663.119	0.0164402
663.197	0.0165170
663.276	0.0164443
663.354	0.0164093
663.432	0.0167159
663.510	0.0165590
663.588	0.0164766
663.666	0.0164530
663.744	0.0166998
663.822	0.0165961
663.901	0.0164617
663.979	0.0165600
664.057	0.0165930
664.135	0.0165143
664.213	0.0165009
664.291	0.0165521
664.369	0.0166101
664.447	0.0165484
664.526	0.0165463
664.604	0.0164524
664.682	0.0165936
664.760	0.0165097
664.838	0.0164786
664.916	0.0165709
664.994	0.0164991
665.072	0.0164622
665.151	0.0166247
665.229	0.0165805
665.307	0.0165274
665.385	0.0163850
665.463	0.0165236
665.541	0.0164983
665.619	0.0165209
665.697	0.0165343
665.776	0.0165391
665.854	0.0165041
665.932	0.0166545
666.010	0.0166760
666.088	0.0165839
666.166	0.0165237
666.244	0.0166084
666.322	0.0165778
666.401	0.0165891
666.479	0.0165591
666.557	0.0165896
666.635	0.0166085
666.713	0.0165665
666.791	0.0166147
666.869	0.0165498
666.947	0.0166775
667.026	0.0167149
667.104	0.0164758
667.182	0.0167157
667.260	0.0166842
667.338	0.0166795
667.416	0.0165466
667.494	0.0166475
667.572	0.0167551
667.651	0.0166088
667.729	0.0165652
667.807	0.0167447
667.885	0.0167571
667.963	0.0166449
668.041	0.0165443
668.119	0.0165137
668.197	0.0166576
668.276	0.0166924
668.354	0.0166834
668.432	0.0164877
668.510	0.0164916
668.588	0.0165813
668.666	0.0167191
668.744	0.0165805
668.822	0.0164433
668.901	0.0166409
668.979	0.0165612
669.057	0.0164297
669.135	0.0165443
669.213	0.0165239
669.291	0.0165425
669.369	0.0164922
669.447	0.0164968
669.526	0.0165882
669.604	0.0165366
669.682	0.0163938
669.760	0.0164525
669.838	0.0164568
669.916	0.0165973
669.994	0.0166721
670.072	0.0165860
670.151	0.0164902
670.229	0.0166257
670.307	0.0166058
670.385	0.0166316
670.463	0.0166976
670.541	0.0168299
670.619	0.0165936
670.697	0.0165707
670.776	0.0165316
670.854	0.0165856
670.932	0.0166957
671.010	0.0166090
671.088	0.0165492
671.166	0.0164878
671.244	0.0165872
671.322	0.0165328
671.401	0.0165224
671.479	0.0164578
671.557	0.0165271
671.635	0.0165041
671.713	0.0166035
671.791	0.0164612
671.869	0.0164317
671.947	0.0165116
672.026	0.0165414
672.104	0.0165242
672.182	0.0165587
672.260	0.0164237
672.338	0.0164669
672.416	0.0164629
672.494	0.0166051
672.572	0.0166915
672.651	0.0164478
672.729	0.0163498
672.807	0.0165439
672.885	0.0164060
672.963	0.0166290
673.041	0.0164957
673.119	0.0164454
673.197	0.0164287
673.276	0.0163907
673.354	0.0165488
673.432	0.0163321
673.510	0.0163961
673.588	0.0163176
673.666	0.0164784
673.744	0.0164493
673.822	0.0165820
673.901	0.0166145
673.979	0.0165266
674.057	0.0165948
674.135	0.0167263
674.213	0.0166111
674.291	0.0166773
674.369	0.0167258
674.447	0.0167451
674.526	0.0168533
674.604	0.0168080
674.682	0.0167840
674.760	0.0167539
674.838	0.0169095
674.916	0.0169073
674.994	0.0166570
675.072	0.0166743
675.151	0.0166555
675.229	0.0165534
675.307	0.0165498
675.385	0.0165087
675.463	0.0165708
675.541	0.0165166
675.619	0.0165415
675.697	0.0165112
675.776	0.0166217
675.854	0.0164338
675.932	0.0163976
676.010	0.0166444
676.088	0.0164905
676.166	0.0165305
676.244	0.0167029
676.322	0.0168000
676.401	0.0166597
676.479	0.0166399
676.557	0.0166648
676.635	0.0166764
676.713	0.0165942
676.791	0.0167403
676.869	0.0168104
676.947	0.0165799
677.026	0.0166309
677.104	0.0167249
677.182	0.0166019
677.260	0.0166459
677.338	0.0166132
677.416	0.0165680
677.494	0.0166083
677.572	0.0165934
677.651	0.0167673
677.729	0.0166273
677.807	0.0166053
677.885	0.0164626
677.963	0.0166988
678.041	0.0165280
678.119	0.0166040
678.197	0.0165809
678.276	0.0164922
678.354	0.0164726
678.432	0.0165005
678.510	0.0165837
678.588	0.0166078
678.666	0.0163959
678.744	0.0165402
678.822	0.0166043
678.901	0.0164507
678.979	0.0165820
679.057	0.0164159
679.135	0.0164685
679.213	0.0164681
679.291	0.0164014
679.369	0.0163914
679.447	0.0165682
679.526	0.0165102
679.604	0.0166455
679.682	0.0165429
679.760	0.0164965
679.838	0.0165875
679.916	0.0167004
679.994	0.0166242
680.072	0.0165623
680.151	0.0164634
680.229	0.0166010
680.307	0.0165517
680.385	0.0166061
680.463	0.0165198
680.541	0.0166470
680.619	0.0165616
680.697	0.0164979
680.776	0.0166049
680.854	0.0165417
680.932	0.0164334
681.010	0.0165295
681.088	0.0164101
681.166	0.0164896
681.244	0.0164239
681.322	0.0163869
681.401	0.0162846
681.479	0.0164470
681.557	0.0163569
681.635	0.0164291
681.713	0.0163057
681.791	0.0161736
681.869	0.0163929
681.947	0.0162588
682.026	0.0162482
682.104	0.0163235
682.182	0.0163464
682.260	0.0162271
682.338	0.0163405
682.416	0.0162679
682.494	0.0162511
682.572	0.0163296
682.651	0.0161296
682.729	0.0162310
682.807	0.0163878
682.885	0.0163949
682.963	0.0164454
683.041	0.0166348
683.119	0.0164864
683.197	0.0165752
683.276	0.0166409
683.354	0.0168074
683.432	0.0165555
683.510	0.0167017
683.588	0.0168020
683.666	0.0168140
683.744	0.0168538
683.822	0.0167648
683.901	0.0168359
683.979	0.0167101
684.057	0.0167323
684.135	0.0166196
684.213	0.0166969
684.291	0.0166900
684.369	0.0165429
684.447	0.0163516
684.526	0.0164817
684.604	0.0163600
684.682	0.0163134
684.760	0.0162148
684.838	0.0163449
684.916	0.0164981
684.994	0.0163469
685.072	0.0163551
685.151	0.0164572
685.229	0.0165172
685.307	0.0163752
685.385	0.0163099
685.463	0.0163763
685.541	0.0164631
685.619	0.0165683
685.697	0.0163987
685.776	0.0165776
685.854	0.0165249
685.932	0.0164251
686.010	0.0163988
686.088	0.0163126
686.166	0.0163425
686.244	0.0163774
686.322	0.0161635
686.401	0.0161308
686.479	0.0163110
686.557	0.0161784
686.635	0.0162109
686.713	0.0161353
686.791	0.0161540
686.869	0.0161731
686.947	0.0161569
687.026	0.0161903
687.104	0.0162901
687.182	0.0162628
687.260	0.0162243
687.338	0.0163805
687.416	0.0164697
687.494	0.0164768
687.572	0.0166280
687.651	0.0166676
687.729	0.0166837
687.807	0.0167000
687.885	0.0168848
687.963	0.0168086
688.041	0.0169004
688.119	0.0170579
688.197	0.0170037
688.276	0.0170462
688.354	0.0170168
688.432	0.0170886
688.510	0.0170542
688.588	0.0171320
688.666	0.0170378
688.744	0.0170348
688.822	0.0170269
688.901	0.0169910
688.979	0.0168033
689.057	0.0167646
689.135	0.0166870
689.213	0.0166169
689.291	0.0166417
689.369	0.0165797
689.447	0.0163630
689.526	0.0162775
689.604	0.0162959
689.682	0.0162929
689.760	0.0162217
689.838	0.0161972
689.916	0.0162223
689.994	0.0162450
690.072	0.0161403
690.151	0.0162023
690.229	0.0162925
690.307	0.0162399
690.385	0.0162380
690.463	0.0163476
690.541	0.0164503
690.619	0.0164720
690.697	0.0163879
690.776	0.0164291
690.854	0.0165086
690.932	0.0163837
691.010	0.0165103
691.088	0.0165587
691.166	0.0166177
691.244	0.0167576
691.322	0.0168331
691.401	0.0166030
691.479	0.0166572
691.557	0.0168919
691.635	0.0167461
691.713	0.0168614
691.791	0.0167326
691.869	0.0167802
691.947	0.0168943
692.026	0.0166931
692.104	0.0168550
692.182	0.0168988
692.260	0.0166326
692.338	0.0167693
692.416	0.0166200
692.494	0.0166030
692.572	0.0165539
692.651	0.0165293
692.729	0.0164669
692.807	0.0164851
692.885	0.0165149
692.963	0.0165589
693.041	0.0165697
693.119	0.0165500
693.197	0.0164331
693.276	0.0164268
693.354	0.0164188
693.432	0.0165449
693.510	0.0165414
693.588	0.0164445
693.666	0.0164865
693.744	0.0164716
693.822	0.0165360
693.901	0.0165610
693.979	0.0167251
694.057	0.0166846
694.135	0.0166467
694.213	0.0166209
694.291	0.0166743
694.369	0.0166690
694.447	0.0166573
694.526	0.0165279
694.604	0.0165126
694.682	0.0164211
694.760	0.0165409
694.838	0.0164949
694.916	0.0164390
694.994	0.0165226
695.072	0.0163322
695.151	0.0163885
695.229	0.0163841
695.307	0.0164454
695.385	0.0163851
695.463	0.0163814
695.541	0.0164693
695.619	0.0163311
695.697	0.0164345
695.776	0.0165652
695.854	0.0164569
695.932	0.0164284
696.010	0.0163918
696.088	0.0163678
696.166	0.0164671
696.244	0.0164346
696.322	0.0165125
696.401	0.0164138
696.479	0.0164294
696.557	0.0163774
696.635	0.0163509
696.713	0.0162788
696.791	0.0164935
696.869	0.0164022
696.947	0.0163818
697.026	0.0162934
697.104	0.0165113
697.182	0.0164999
697.260	0.0165179
697.338	0.0166119
697.416	0.0165347
697.494	0.0166527
697.572	0.0167087
697.651	0.0166113
697.729	0.0167204
697.807	0.0169176
697.885	0.0169603
697.963	0.0169648
698.041	0.0168128
698.119	0.0171216
698.197	0.0170260
698.276	0.0170579
698.354	0.0169576
698.432	0.0169262
698.510	0.0171030
698.588	0.0169841
698.666	0.0168421
698.744	0.0168646
698.822	0.0168507
698.901	0.0167331
698.979	0.0166758
699.057	0.0165351
699.135	0.0164548
699.213	0.0164399
699.291	0.0163417
699.369	0.0162266
699.447	0.0162212
699.526	0.0160357
699.604	0.0160387
699.682	0.0160015
699.760	0.0160172
699.838	0.0160486
699.916	0.0160836
699.994	0.0161000
700.072	0.0161330
700.151	0.0163512
700.229	0.0162721
700.307	0.0163733
700.385	0.0163953
700.463	0.0166068
700.541	0.0167628
700.619	0.0167676
700.697	0.0168835
700.776	0.0170535
700.854	0.0170008
700.932	0.0170765
701.010	0.0172458
701.088	0.0171715
701.166	0.0170387
701.244	0.0170458
701.322	0.0170870
701.401	0.0170085
701.479	0.0167264
701.557	0.0167607
701.635	0.0166054
701.713	0.0165881
701.791	0.0163794
701.869	0.0163879
701.947	0.0162537
702.026	0.0160886
702.104	0.0161728
702.182	0.0159291
702.260	0.0159467
702.338	0.0161018
702.416	0.0160556
702.494	0.0161667
702.572	0.0159721
702.651	0.0161286
702.729	0.0162276
702.807	0.0163766
702.885	0.0163103
702.963	0.0164317
703.041	0.0166190
703.119	0.0166084
703.197	0.0168241
703.276	0.0166800
703.354	0.0166102
703.432	0.0166848
703.510	0.0167728
703.588	0.0167633
703.666	0.0166754
703.744	0.0164845
703.822	0.0166343
703.901	0.0166790
703.979	0.0166058
704.057	0.0166747
704.135	0.0167161
704.213	0.0165507
704.291	0.0166896
704.369	0.0167056
704.447	0.0167754
704.526	0.0167503
704.604	0.0169423
704.682	0.0169216
704.760	0.0170132
704.838	0.0169420
704.916	0.0169869
704.994	0.0169400
705.072	0.0168675
705.151	0.0169617
705.229	0.0169837
705.307	0.0169214
705.385	0.0168645
705.463	0.0168299
705.541	0.0168476
705.619	0.0166685
705.697	0.0167098
705.776	0.0166782
705.854	0.0166062
705.932	0.0163803
706.010	0.0165007
706.088	0.0164625
706.166	0.0163697
706.244	0.0164633
706.322	0.0164185
706.401	0.0162537
706.479	0.0162383
706.557	0.0164027
706.635	0.0161927
706.713	0.0162437
706.791	0.0163161
706.869	0.0163172
706.947	0.0164977
707.026	0.0163257
707.104	0.0163774
707.182	0.0165472
707.260	0.0164662
707.338	0.0165717
707.416	0.0165777
707.494	0.0165543
707.572	0.0165966
707.651	0.0165957
707.729	0.0166433
707.807	0.0164613
707.885	0.0165674
707.963	0.0166370
708.041	0.0165647
708.119	0.0165608
708.197	0.0166704
708.276	0.0165497
708.354	0.0164234
708.432	0.0164503
708.510	0.0163377
708.588	0.0162919
708.666	0.0163787
708.744	0.0162210
708.822	0.0162595
708.901	0.0162051
708.979	0.0164558
709.057	0.0163313
709.135	0.0162179
709.213	0.0163755
709.291	0.0162271
709.369	0.0162719
709.447	0.0165018
709.526	0.0164296
709.604	0.0165735
709.682	0.0165894
709.760	0.0164722
709.838	0.0165955
709.916	0.0167381
709.994	0.0165785
710.072	0.0166632
710.151	0.0167665
710.229	0.0166998
710.307	0.0168453
710.385	0.0167824
710.463	0.0167959
710.541	0.0170460
710.619	0.0170560
710.697	0.0171152
710.776	0.0171603
710.854	0.0171459
710.932	0.0172673
711.010	0.0172542
711.088	0.0173428
711.166	0.0173428
711.244	0.0173887
711.322	0.0172753
711.401	0.0171648
711.479	0.0170858
711.557	0.0167796
711.635	0.0169828
711.713	0.0167690
711.791	0.0166121
711.869	0.0164438
711.947	0.0165277
712.026	0.0164835
712.104	0.0162838
712.182	0.0163550
712.260	0.0163329
712.338	0.0163412
712.416	0.0163962
712.494	0.0163631
712.572	0.0161591
712.651	0.0163232
712.729	0.0163660
712.807	0.0163261
712.885	0.0163708
712.963	0.0163324
713.041	0.0163239
713.119	0.0163837
713.197	0.0162341
713.276	0.0161507
713.354	0.0161472
713.432	0.0160146
713.510	0.0158828
713.588	0.0158609
713.666	0.0156582
713.744	0.0157029
713.822	0.0156901
713.901	0.0157457
713.979	0.0158382
714.057	0.0156606
714.135	0.0157207
714.213	0.0159624
714.291	0.0161258
714.369	0.0161570
714.447	0.0163600
714.526	0.0165614
714.604	0.0166452
714.682	0.0168310
714.760	0.0170026
714.838	0.0170290
714.916	0.0173418
714.994	0.0175628
715.072	0.0175757
715.151	0.0175037
715.229	0.0177853
715.307	0.0178510
715.385	0.0176086
715.463	0.0175397
715.541	0.0173671
715.619	0.0173750
715.697	0.0174455
715.776	0.0171246
715.854	0.0170583
715.932	0.0167912
716.010	0.0165339
716.088	0.0165041
716.166	0.0164243
716.244	0.0161562
716.322	0.0159912
716.401	0.0159319
716.479	0.0157600
716.557	0.0156718
716.635	0.0157910
716.713	0.0157009
716.791	0.0157079
716.869	0.0158144
716.947	0.0159746
717.026	0.0160043
717.104	0.0161120
717.182	0.0163296
717.260	0.0164012
717.338	0.0166032
717.416	0.0167289
717.494	0.0168044
717.572	0.0169986
717.651	0.0173222
717.729	0.0173986
717.807	0.0174585
717.885	0.0176484
717.963	0.0177677
718.041	0.0176906
718.119	0.0178104
718.197	0.0177575
718.276	0.0177837
718.354	0.0177344
718.432	0.0175662
718.510	0.0172285
718.588	0.0172076
718.666	0.0171423
718.744	0.0170143
718.822	0.0168168
718.901	0.0166862
718.979	0.0165232
719.057	0.0163078
719.135	0.0161968
719.213	0.0163358
719.291	0.0161357
719.369	0.0161559
719.447	0.0160767
719.526	0.0158353
719.604	0.0160191
719.682	0.0159811
719.760	0.0159880
719.838	0.0161771
719.916	0.0160574
719.994	0.0162057
720.072	0.0162149
720.151	0.0161476
720.229	0.0160899
720.307	0.0161234
720.385	0.0162021
720.463	0.0161260
720.541	0.0160781
720.619	0.0161662
720.697	0.0159283
720.776	0.0161122
720.854	0.0159495
720.932	0.0159503
721.010	0.0160503
721.088	0.0159975
721.166	0.0161163
721.244	0.0160852
721.322	0.0161410
721.401	0.0161247
721.479	0.0162942
721.557	0.0164307
721.635	0.0165333
721.713	0.0166158
721.791	0.0169356
721.869	0.0169810
721.947	0.0170844
722.026	0.0170891
722.104	0.0173743
722.182	0.0174336
722.260	0.0174945
722.338	0.0176048
722.416	0.0176635
722.494	0.0176704
722.572	0.0175834
722.651	0.0176618
722.729	0.0176035
722.807	0.0172430
722.885	0.0173563
722.963	0.0172269
723.041	0.0170741
723.119	0.0170181
723.197	0.0168041
723.276	0.0166672
723.354	0.0165633
723.432	0.0164656
723.510	0.0162321
723.588	0.0161047
723.666	0.0161217
723.744	0.0161269
723.822	0.0159559
723.901	0.0160116
723.979	0.0159753
724.057	0.0159185
724.135	0.0160226
724.213	0.0159930
724.291	0.0158612
724.369	0.0160862
724.447	0.0158793
724.526	0.0159371
724.604	0.0160925
724.682	0.0160691
724.760	0.0160291
724.838	0.0160995
724.916	0.0161880
724.994	0.0162587
725.072	0.0162038
725.151	0.0161855
725.229	0.0163858
725.307	0.0164156
725.385	0.0165697
725.463	0.0164922
725.541	0.0165709
725.619	0.0167170
725.697	0.0167667
725.776	0.0168736
725.854	0.0171122
725.932	0.0170266
726.010	0.0169621
726.088	0.0172241
726.166	0.0173734
726.244	0.0172363
726.322	0.0173729
726.401	0.0174680
726.479	0.0174665
726.557	0.0174232
726.635	0.0173696
726.713	0.0171840
726.791	0.0172144
726.869	0.0170338
726.947	0.0169394
727.026	0.0169997
727.104	0.0167844
727.182	0.0165192
727.260	0.0163846
727.338	0.0161106
727.416	0.0159061
727.494	0.0156448
727.572	0.0155453
727.651	0.0155390
727.729	0.0154197
727.807	0.0152997
727.885	0.0152872
727.963	0.0150642
728.041	0.0151727
728.119	0.0153832
728.197	0.0152216
728.276	0.0152209
728.354	0.0155349
728.432	0.0156387
728.510	0.0158826
728.588	0.0159441
728.666	0.0160861
728.744	0.0163699
728.822	0.0164665
728.901	0.0168111
728.979	0.0171595
729.057	0.0171820
729.135	0.0172623
729.213	0.0172356
729.291	0.0174464
729.369	0.0173924
729.447	0.0174097
729.526	0.0174219
729.604	0.0172047
729.682	0.0174176
729.760	0.0172387
729.838	0.0172013
729.916	0.0170927
729.994	0.0168233
730.072	0.0169647
730.151	0.0167556
730.229	0.0167323
730.307	0.0166518
730.385	0.0167133
730.463	0.0167256
730.541	0.0165111
730.619	0.0167099
730.697	0.0166821
730.776	0.0167579
730.854	0.0167322
730.932	0.0167281
731.010	0.0167551
731.088	0.0169731
731.166	0.0169479
731.244	0.0169827
731.322	0.0169774
731.401	0.0170031
731.479	0.0170453
731.557	0.0169478
731.635	0.0168298
731.713	0.0166256
731.791	0.0165649
731.869	0.0166100
731.947	0.0165582
732.026	0.0163270
732.104	0.0160164
732.182	0.0159870
732.260	0.0158386
732.338	0.0157446
732.416	0.0157075
732.494	0.0155764
732.572	0.0154729
732.651	0.0154400
732.729	0.0154942
732.807	0.0154910
732.885	0.0156034
732.963	0.0156409
733.041	0.0156662
733.119	0.0157074
733.197	0.0158630
733.276	0.0159852
733.354	0.0161220
733.432	0.0162863
733.510	0.0164386
733.588	0.0166106
733.666	0.0166779
733.744	0.0168398
733.822	0.0168395
733.901	0.0170410
733.979	0.0170863
734.057	0.0171275
734.135	0.0171033
734.213	0.0168848
734.291	0.0168763
734.369	0.0168629
734.447	0.0167247
734.526	0.0165110
734.604	0.0164822
734.682	0.0165347
734.760	0.0163634
734.838	0.0162485
734.916	0.0160685
734.994	0.0161340
735.072	0.0161026
735.151	0.0162459
735.229	0.0160191
735.307	0.0161823
735.385	0.0162437
735.463	0.0163194
735.541	0.0163824
735.619	0.0166039
735.697	0.0167130
735.776	0.0167696
735.854	0.0167397
735.932	0.0170193
736.010	0.0170869
736.088	0.0171696
736.166	0.0172118
736.244	0.0171081
736.322	0.0172676
736.401	0.0172007
736.479	0.0174396
736.557	0.0170557
736.635	0.0171460
736.713	0.0170392
736.791	0.0170753
736.869	0.0169868
736.947	0.0169329
737.026	0.0169154
737.104	0.0168279
737.182	0.0167548
737.260	0.0165723
737.338	0.0164175
737.416	0.0164282
737.494	0.0163495
737.572	0.0162778
737.651	0.0161851
737.729	0.0161604
737.807	0.0159804
737.885	0.0160339
737.963	0.0160599
738.041	0.0159875
738.119	0.0159537
738.197	0.0160929
738.276	0.0159266
738.354	0.0158588
738.432	0.0160729
738.510	0.0160802
738.588	0.0160109
738.666	0.0160944
738.744	0.0160806
738.822	0.0160568
738.901	0.0161940
738.979	0.0160892
739.057	0.0161372
739.135	0.0163891
739.213	0.0163552
739.291	0.0163899
739.369	0.0162789
739.447	0.0161638
739.526	0.0162791
739.604	0.0164252
739.682	0.0162757
739.760	0.0164600
739.838	0.0166427
739.916	0.0166283
739.994	0.0165207
740.072	0.0166482
740.151	0.0167352
740.229	0.0168656
740.307	0.0169471
740.385	0.0168549
740.463	0.0169401
740.541	0.0170037
740.619	0.0169671
740.697	0.0171689
740.776	0.0169395
740.854	0.0170193
740.932	0.0170014
741.010	0.0170908
741.088	0.0171496
741.166	0.0170798
741.244	0.0172097
741.322	0.0169429
741.401	0.0170805
741.479	0.0172034
741.557	0.0171508
741.635	0.0172524
741.713	0.0171837
741.791	0.0170026
741.869	0.0169292
741.947	0.0169232
742.026	0.0168175
742.104	0.0167922
742.182	0.0165565
742.260	0.0165231
742.338	0.0164283
742.416	0.0163983
742.494	0.0162801
742.572	0.0162766
742.651	0.0161351
742.729	0.0161787
742.807	0.0161700
742.885	0.0160585
742.963	0.0159388
743.041	0.0160376
743.119	0.0159563
743.197	0.0159478
743.276	0.0159843
743.354	0.0161040
743.432	0.0160730
743.510	0.0162330
743.588	0.0161491
743.666	0.0162772
743.744	0.0163097
743.822	0.0163148
743.901	0.0165031
743.979	0.0165929
744.057	0.0166690
744.135	0.0166282
744.213	0.0167301
744.291	0.0167168
744.369	0.0167507
744.447	0.0167329
744.526	0.0166808
744.604	0.0166305
744.682	0.0165981
744.760	0.0165650
744.838	0.0163044
744.916	0.0163120
744.994	0.0162119
745.072	0.0161385
745.151	0.0160776
745.229	0.0161069
745.307	0.0162470
745.385	0.0161939
745.463	0.0161166
745.541	0.0162674
745.619	0.0163097
745.697	0.0163987
745.776	0.0164983
745.854	0.0165863
745.932	0.0166713
746.010	0.0167518
746.088	0.0167467
746.166	0.0169260
746.244	0.0169758
746.322	0.0169518
746.401	0.0169350
746.479	0.0170879
746.557	0.0169567
746.635	0.0169224
746.713	0.0169684
746.791	0.0170723
746.869	0.0171183
746.947	0.0168951
747.026	0.0168830
747.104	0.0168882
747.182	0.0169408
747.260	0.0168587
747.338	0.0168265
747.416	0.0167594
747.494	0.0167729
747.572	0.0166216
747.651	0.0167712
747.729	0.0167313
747.807	0.0165067
747.885	0.0165026
747.963	0.0166344
748.041	0.0164944
748.119	0.0165575
748.197	0.0164140
748.276	0.0164571
748.354	0.0164201
748.432	0.0164134
748.510	0.0163144
748.588	0.0162148
748.666	0.0161497
748.744	0.0163153
748.822	0.0161691
748.901	0.0161803
748.979	0.0161203
749.057	0.0162109
749.135	0.0160692
749.213	0.0159827
749.291	0.0160680
749.369	0.0162834
749.447	0.0162289
749.526	0.0162066
749.604	0.0163052
749.682	0.0164622
749.760	0.0162602
749.838	0.0163577
749.916	0.0165804
749.994	0.0164613
750.072	0.0164179
750.151	0.0164181
750.229	0.0165269
750.307	0.0165294
750.385	0.0164933
750.463	0.0164236
750.541	0.0162717
750.619	0.0162859
750.697	0.0162057
750.776	0.0161412
750.854	0.0161178
750.932	0.0161888
751.010	0.0161115
751.088	0.0161848
751.166	0.0161628
751.244	0.0162591
751.322	0.0161929
751.401	0.0163122
751.479	0.0163235
751.557	0.0165833
751.635	0.0165150
751.713	0.0164730
751.791	0.0166720
751.869	0.0168690
751.947	0.0168396
752.026	0.0169350
752.104	0.0169559
752.182	0.0170616
752.260	0.0170302
752.338	0.0170006
752.416	0.0171521
752.494	0.0170375
752.572	0.0171053
752.651	0.0169770
752.729	0.0171096
752.807	0.0169772
752.885	0.0169988
752.963	0.0169030
753.041	0.0167480
753.119	0.0167217
753.197	0.0167788
753.276	0.0166793
753.354	0.0166264
753.432	0.0164636
753.510	0.0164474
753.588	0.0164378
753.666	0.0163017
753.744	0.0161418
753.822	0.0159525
753.901	0.0160677
753.979	0.0161028
754.057	0.0158384
754.135	0.0157701
754.213	0.0157690
754.291	0.0157492
754.369	0.0157877
754.447	0.0157880
754.526	0.0156142
754.604	0.0157395
754.682	0.0158733
754.760	0.0157965
754.838	0.0158141
754.916	0.0159792
754.994	0.0159874
755.072	0.0159979
755.151	0.0162384
755.229	0.0163322
755.307	0.0166267
755.385	0.0166020
755.463	0.0166316
755.541	0.0168067
755.619	0.0168083
755.697	0.0168625
755.776	0.0169483
755.854	0.0170336
755.932	0.0170262
756.010	0.0169343
756.088	0.0170226
756.166	0.0170424
756.244	0.0170315
756.322	0.0170734
756.401	0.0170518
756.479	0.0167285
756.557	0.0168074
756.635	0.0168578
756.713	0.0168034
756.791	0.0167365
756.869	0.0167316
756.947	0.0166595
757.026	0.0165292
757.104	0.0163880
757.182	0.0163875
757.260	0.0164349
757.338	0.0162401
757.416	0.0161811
757.494	0.0162644
757.572	0.0160808
757.651	0.0161069
757.729	0.0161041
757.807	0.0160841
757.885	0.0161429
757.963	0.0161972
758.041	0.0161943
758.119	0.0162112
758.197	0.0161490
758.276	0.0162910
758.354	0.0164701
758.432	0.0163788
758.510	0.0165627
758.588	0.0164993
758.666	0.0165785
758.744	0.0166019
758.822	0.0165549
758.901	0.0165084
758.979	0.0165245
759.057	0.0165343
759.135	0.0164704
759.213	0.0166669
759.291	0.0163761
759.369	0.0162596
759.447	0.0164753
759.526	0.0165319
759.604	0.0164584
759.682	0.0165462
759.760	0.0165130
759.838	0.0166459
759.916	0.0165271
759.994	0.0166552
760.072	0.0165324
760.151	0.0166019
760.229	0.0164506
760.307	0.0166785
760.385	0.0164981
760.463	0.0165054
760.541	0.0166528
760.619	0.0164098
760.697	0.0165837
760.776	0.0165394
760.854	0.0165650
760.932	0.0165917
761.010	0.0164407
761.088	0.0164219
761.166	0.0165825
761.244	0.0164476
761.322	0.0164211
761.401	0.0164748
761.479	0.0163995
761.557	0.0164906
761.635	0.0164164
761.713	0.0163824
761.791	0.0163896
761.869	0.0162765
761.947	0.0163378
762.026	0.0163597
762.104	0.0162609
762.182	0.0162503
762.260	0.0163441
762.338	0.0163449
762.416	0.0163583
762.494	0.0163647
762.572	0.0163404
762.651	0.0165055
762.729	0.0165723
762.807	0.0164844
762.885	0.0165884
762.963	0.0165855
763.041	0.0167374
763.119	0.0166547
763.197	0.0165593
763.276	0.0165960
763.354	0.0167877
763.432	0.0165729
763.510	0.0165188
763.588	0.0164929
763.666	0.0162935
763.744	0.0162877
763.822	0.0161372
763.901	0.0162432
763.979	0.0162170
764.057	0.0161603
764.135	0.0161910
764.213	0.0162149
764.291	0.0162968
764.369	0.0163287
764.447	0.0162811
764.526	0.0165798
764.604	0.0165703
764.682	0.0165533
764.760	0.0165678
764.838	0.0164614
764.916	0.0165862
764.994	0.0166794
765.072	0.0166682
765.151	0.0166060
765.229	0.0166293
765.307	0.0165771
765.385	0.0165354
765.463	0.0164738
765.541	0.0166615
765.619	0.0164112
765.697	0.0165609
765.776	0.0165843
765.854	0.0164947
765.932	0.0164845
766.010	0.0165542
766.088	0.0166572
766.166	0.0167258
766.244	0.0168907
766.322	0.0168130
766.401	0.0168596
766.479	0.0169020
766.557	0.0170440
766.635	0.0171142
766.713	0.0171577
766.791	0.0170300
766.869	0.0169509
766.947	0.0169582
767.026	0.0169991
767.104	0.0169249
767.182	0.0168520
767.260	0.0168105
767.338	0.0167757
767.416	0.0167233
767.494	0.0166847
767.572	0.0164392
767.651	0.0162959
767.729	0.0163805
767.807	0.0161845
767.885	0.0161224
767.963	0.0161644
768.041	0.0159390
768.119	0.0157579
768.197	0.0156807
768.276	0.0156335
768.354	0.0155281
768.432	0.0155129
768.510	0.0154768
768.588	0.0155886
768.666	0.0156622
768.744	0.0156666
768.822	0.0159189
768.901	0.0158803
768.979	0.0159562
769.057	0.0161028
769.135	0.0162547
769.213	0.0162859
769.291	0.0164754
769.369	0.0164846
769.447	0.0166222
769.526	0.0166605
769.604	0.0165778
769.682	0.0168218
769.760	0.0169001
769.838	0.0169613
769.916	0.0168207
769.994	0.0169876
770.072	0.0169501
770.151	0.0170643
770.229	0.0170924
770.307	0.0171026
770.385	0.0171162
770.463	0.0171473
770.541	0.0172266
770.619	0.0171758
770.697	0.0171140
770.776	0.0172148
770.854	0.0172189
770.932	0.0172562
771.010	0.0170806
771.088	0.0169302
771.166	0.0169786
771.244	0.0169114
771.322	0.0169579
771.401	0.0167453
771.479	0.0165430
771.557	0.0165351
771.635	0.0166681
771.713	0.0163728
771.791	0.0161813
771.869	0.0162608
771.947	0.0162266
772.026	0.0161002
772.104	0.0161089
772.182	0.0161929
772.260	0.0160619
772.338	0.0161336
772.416	0.0161475
772.494	0.0162355
772.572	0.0161576
772.651	0.0162158
772.729	0.0162967
772.807	0.0163020
772.885	0.0163957
772.963	0.0164905
773.041	0.0163747
773.119	0.0164922
773.197	0.0167218
773.276	0.0167384
773.354	0.0166994
773.432	0.0167948
773.510	0.0167737
773.588	0.0168786
773.666	0.0170476
773.744	0.0170733
773.822	0.0169907
773.901	0.0169714
773.979	0.0169096
774.057	0.0170788
774.135	0.0169565
774.213	0.0168816
774.291	0.0169353
774.369	0.0168388
774.447	0.0166334
774.526	0.0167844
774.604	0.0166242
774.682	0.0165403
774.760	0.0164894
774.838	0.0163541
774.916	0.0163666
774.994	0.0164877
775.072	0.0164870
775.151	0.0163547
775.229	0.0164364
775.307	0.0164780
775.385	0.0164957
775.463	0.0163514
775.541	0.0162454
775.619	0.0162500
775.697	0.0164223
775.776	0.0164394
775.854	0.0164643
775.932	0.0164961
776.010	0.0163456
776.088	0.0163709
776.166	0.0164609
776.244	0.0165506
776.322	0.0164645
776.401	0.0165902
776.479	0.0166373
776.557	0.0166621
776.635	0.0167345
776.713	0.0165228
776.791	0.0167294
776.869	0.0168475
776.947	0.0166714
777.026	0.0166979
777.104	0.0169237
777.182	0.0168544
777.260	0.0167701
777.338	0.0168414
777.416	0.0166586
777.494	0.0166727
777.572	0.0165585
777.651	0.0164629
777.729	0.0164541
777.807	0.0164847
777.885	0.0165908
777.963	0.0165106
778.041	0.0164947
778.119	0.0164813
778.197	0.0164994
778.276	0.0165513
778.354	0.0165890
778.432	0.0164199
778.510	0.0164514
778.588	0.0164701
778.666	0.0164523
778.744	0.0164307
778.822	0.0163526
778.901	0.0162416
778.979	0.0163448
779.057	0.0163519
779.135	0.0163019
779.213	0.0163277
779.291	0.0162292
779.369	0.0162024
779.447	0.0164298
779.526	0.0165108
779.604	0.0164552
779.682	0.0164079
779.760	0.0163705
779.838	0.0165810
779.916	0.0165157
779.994	0.0166263
780.072	0.0167200
780.151	0.0166518
780.229	0.0165816
780.307	0.0166964
780.385	0.0167616
780.463	0.0167102
780.541	0.0168169
780.619	0.0168522
780.697	0.0167295
780.776	0.0165098
780.854	0.0166904
780.932	0.0165536
781.010	0.0165446
781.088	0.0165598
781.166	0.0166440
781.244	0.0166386
781.322	0.0166266
781.401	0.0164768
781.479	0.0163865
781.557	0.0165240
781.635	0.0165788
781.713	0.0166269
781.791	0.0165875
781.869	0.0164836
781.947	0.0166345
782.026	0.0166334
782.104	0.0164627
782.182	0.0163913
782.260	0.0166508
782.338	0.0163919
782.416	0.0162577
782.494	0.0163651
782.572	0.0164304
782.651	0.0162502
782.729	0.0162791
782.807	0.0161806
782.885	0.0164056
782.963	0.0162880
783.041	0.0164417
783.119	0.0163637
783.197	0.0163873
783.276	0.0166144
783.354	0.0168383
783.432	0.0168904
783.510	0.0166865
783.588	0.0167937
783.666	0.0170718
783.744	0.0170261
783.822	0.0169990
783.901	0.0171503
783.979	0.0172950
784.057	0.0171636
784.135	0.0172939
784.213	0.0171899
784.291	0.0171687
784.369	0.0170771
784.447	0.0170596
784.526	0.0171785
784.604	0.0169573
784.682	0.0169794
784.760	0.0169041
784.838	0.0168512
784.916	0.0166646
784.994	0.0166282
785.072	0.0166100
785.151	0.0165621
785.229	0.0164414
785.307	0.0162920
785.385	0.0163225
785.463	0.0163782
785.541	0.0163422
785.619	0.0162874
785.697	0.0162701
785.776	0.0162907
785.854	0.0162132
785.932	0.0162989
786.010	0.0163588
786.088	0.0164548
786.166	0.0163177
786.244	0.0163579
786.322	0.0164245
786.401	0.0165694
786.479	0.0165502
786.557	0.0164077
786.635	0.0165382
786.713	0.0165294
786.791	0.0165780
786.869	0.0166315
786.947	0.0164303
787.026	0.0165034
787.104	0.0166821
787.182	0.0165789
787.260	0.0165795
787.338	0.0165547
787.416	0.0165016
787.494	0.0165539
787.572	0.0164964
787.651	0.0166039
787.729	0.0166409
787.807	0.0165947
787.885	0.0166940
787.963	0.0167294
788.041	0.0165831
788.119	0.0167795
788.197	0.0168376
788.276	0.0166705
788.354	0.0168818
788.432	0.0168643
788.510	0.0167641
788.588	0.0167972
788.666	0.0166880
788.744	0.0167708
788.822	0.0166913
788.901	0.0168044
788.979	0.0166949
789.057	0.0165993
789.135	0.0163605
789.213	0.0163979
789.291	0.0166312
789.369	0.0163737
789.447	0.0164207
789.526	0.0164719
789.604	0.0164587
789.682	0.0163891
789.760	0.0163924
789.838	0.0164816
789.916	0.0164724
789.994	0.0166368
790.072	0.0165366
790.151	0.0166707
790.229	0.0165760
790.307	0.0165511
790.385	0.0166996
790.463	0.0167922
790.541	0.0166169
790.619	0.0166354
790.697	0.0166935
790.776	0.0166855
790.854	0.0167456
790.932	0.0166551
791.010	0.0165484
791.088	0.0165617
791.166	0.0163084
791.244	0.0164265
791.322	0.0164925
791.401	0.0163008
791.479	0.0162453
791.557	0.0164100
791.635	0.0162701
791.713	0.0162474
791.791	0.0162492
791.869	0.0161434
791.947	0.0162069
792.026	0.0162225
792.104	0.0161522
792.182	0.0161821
792.260	0.0163531
792.338	0.0162696
792.416	0.0162763
792.494	0.0162913
792.572	0.0163568
792.651	0.0164112
792.729	0.0164384
792.807	0.0165469
792.885	0.0164896
792.963	0.0164394
793.041	0.0166082
793.119	0.0166046
793.197	0.0165324
793.276	0.0167107
793.354	0.0166953
793.432	0.0166547
793.510	0.0166562
793.588	0.0168066
793.666	0.0167155
793.744	0.0167862
793.822	0.0166316
793.901	0.0167651
793.979	0.0167428
794.057	0.0166594
794.135	0.0167409
794.213	0.0167563
794.291	0.0167130
794.369	0.0166048
794.447	0.0168014
794.526	0.0166884
794.604	0.0167195
794.682	0.0168726
794.760	0.0167877
794.838	0.0168003
794.916	0.0167783
794.994	0.0167853
795.072	0.0167248
795.151	0.0167780
795.229	0.0168174
795.307	0.0168708
795.385	0.0169223
795.463	0.0168153
795.541	0.0166914
795.619	0.0168335
795.697	0.0167126
795.776	0.0167935
795.854	0.0168611
795.932	0.0168589
796.010	0.0167749
796.088	0.0166399
796.166	0.0167188
796.244	0.0166648
796.322	0.0167120
796.401	0.0167097
796.479	0.0166546
796.557	0.0165559
796.635	0.0166596
796.713	0.0166076
796.791	0.0165746
796.869	0.0165911
796.947	0.0165731
797.026	0.0164931
797.104	0.0165561
797.182	0.0166107
797.260	0.0166956
797.338	0.0166834
797.416	0.0165041
797.494	0.0166161
797.572	0.0165339
797.651	0.0165453
797.729	0.0165047
797.807	0.0165366
797.885	0.0165284
797.963	0.0165211
798.041	0.0164937
798.119	0.0163262
798.197	0.0163441
798.276	0.0163921
798.354	0.0163717
798.432	0.0163565
798.510	0.0162797
798.588	0.0162682
798.666	0.0162553
798.744	0.0163586
798.822	0.0163389
798.901	0.0163524
798.979	0.0163571
799.057	0.0163607
799.135	0.0163658
799.213	0.0163554
799.291	0.0165285
799.369	0.0164428
799.447	0.0163825
799.526	0.0164821
799.604	0.0165301
799.682	0.0165512
799.760	0.0164834
799.838	0.0165489
799.916	0.0165206
799.994	0.0166250
800.072	0.0166367
800.151	0.0164854
800.229	0.0165607
800.307	0.0165620
800.385	0.0164893
800.463	0.0164673
800.541	0.0165149
800.619	0.0165753
800.697	0.0166472
800.776	0.0166848
800.854	0.0165199
800.932	0.0165564
801.010	0.0166125
801.088	0.0166006
801.166	0.0167102
801.244	0.0166980
801.322	0.0166042
801.401	0.0166639
801.479	0.0167426
801.557	0.0166729
801.635	0.0166154
801.713	0.0167714
801.791	0.0166488
801.869	0.0166925
801.947	0.0166119
802.026	0.0167220
802.104	0.0166949
802.182	0.0165178
802.260	0.0164494
802.338	0.0165874
802.416	0.0165683
802.494	0.0165078
802.572	0.0165996
802.651	0.0165087
802.729	0.0164668
802.807	0.0164091
802.885	0.0165430
802.963	0.0166256
803.041	0.0165452
803.119	0.0164947
803.197	0.0165187
803.276	0.0165749
803.354	0.0164360
803.432	0.0166254
803.510	0.0165901
803.588	0.0166574
803.666	0.0166374
803.744	0.0167168
803.822	0.0167477
803.901	0.0166702
803.979	0.0166818
804.057	0.0165783
804.135	0.0165938
804.213	0.0167308
804.291	0.0166160
804.369	0.0166396
804.447	0.0165777
804.526	0.0165862
804.604	0.0166353
804.682	0.0165343
804.760	0.0165993
804.838	0.0166148
804.916	0.0165057
804.994	0.0165636
805.072	0.0165471
805.151	0.0166735
805.229	0.0164494
805.307	0.0165096
805.385	0.0165394
805.463	0.0164094
805.541	0.0164437
805.619	0.0165463
805.697	0.0164252
805.776	0.0165649
805.854	0.0166510
805.932	0.0165372
806.010	0.0166075
806.088	0.0164943
806.166	0.0165046
806.244	0.0167465
806.322	0.0166670
806.401	0.0166741
806.479	0.0167927
806.557	0.0166353
806.635	0.0167870
806.713	0.0165654
806.791	0.0166972
806.869	0.0166075
806.947	0.0165837
807.026	0.0164090
807.104	0.0166172
807.182	0.0165387
807.260	0.0165717
807.338	0.0163922
807.416	0.0163917
807.494	0.0163999
807.572	0.0163727
807.651	0.0163864
807.729	0.0163372
807.807	0.0164809
807.885	0.0164393
807.963	0.0165710
808.041	0.0166232
808.119	0.0164756
808.197	0.0163646
808.276	0.0165543
808.354	0.0166076
808.432	0.0165732
808.510	0.0165441
808.588	0.0166566
808.666	0.0166621
808.744	0.0165419
808.822	0.0165688
808.901	0.0165974
808.979	0.0164336
809.057	0.0163204
809.135	0.0163822
809.213	0.0164218
809.291	0.0165398
809.369	0.0162395
809.447	0.0162077
809.526	0.0164636
809.604	0.0163001
809.682	0.0163203
809.760	0.0164362
809.838	0.0163984
809.916	0.0164214
809.994	0.0166044
810.072	0.0166286
810.151	0.0165813
810.229	0.0165070
810.307	0.0164096
810.385	0.0166166
810.463	0.0165945
810.541	0.0163741
810.619	0.0165524
810.697	0.0166525
810.776	0.0166081
810.854	0.0165871
810.932	0.0166106
811.010	0.0166595
811.088	0.0165749
811.166	0.0165060
811.244	0.0165707
811.322	0.0165594
811.401	0.0165601
811.479	0.0165097
811.557	0.0163424
811.635	0.0164867
811.713	0.0164793
811.791	0.0165791
811.869	0.0165294
811.947	0.0163982
812.026	0.0164539
812.104	0.0164193
812.182	0.0163825
812.260	0.0163717
812.338	0.0164217
812.416	0.0163243
812.494	0.0163431
812.572	0.0163290
812.651	0.0163284
812.729	0.0163835
812.807	0.0163686
812.885	0.0165186
812.963	0.0162468
813.041	0.0162653
813.119	0.0164615
813.197	0.0162865
813.276	0.0163826
813.354	0.0162854
813.432	0.0163844
813.510	0.0163045
813.588	0.0163906
813.666	0.0163213
813.744	0.0163905
813.822	0.0164031
813.901	0.0164498
813.979	0.0165085
814.057	0.0165991
814.135	0.0166001
814.213	0.0166492
814.291	0.0167733
814.369	0.0167255
814.447	0.0168314
814.526	0.0166792
814.604	0.0167810
814.682	0.0168328
814.760	0.0166859
814.838	0.0166930
814.916	0.0168379
814.994	0.0167220
815.072	0.0165775
815.151	0.0167178
815.229	0.0166190
815.307	0.0165401
815.385	0.0164970
815.463	0.0164238
815.541	0.0165073
815.619	0.0165005
815.697	0.0164767
815.776	0.0164375
815.854	0.0164685
815.932	0.0164330
816.010	0.0164246
816.088	0.0164618
816.166	0.0163045
816.244	0.0162539
816.322	0.0164365
816.401	0.0163782
816.479	0.0163604
816.557	0.0164270
816.635	0.0162478
816.713	0.0162424
816.791	0.0164628
816.869	0.0163992
816.947	0.0163689
817.026	0.0163528
817.104	0.0163227
817.182	0.0165022
817.260	0.0165007
817.338	0.0164661
817.416	0.0165371
817.494	0.0166154
817.572	0.0165866
817.651	0.0163599
817.729	0.0163156
817.807	0.0165071
817.885	0.0163683
817.963	0.0165190
818.041	0.0164146
818.119	0.0163240
818.197	0.0163539
818.276	0.0162944
818.354	0.0164124
818.432	0.0163841
818.510	0.0166029
818.588	0.0163679
818.666	0.0163387
818.744	0.0165076
818.822	0.0164412
818.901	0.0166251
818.979	0.0165308
819.057	0.0164192
819.135	0.0166776
819.213	0.0166213
819.291	0.0166238
819.369	0.0167262
819.447	0.0167043
819.526	0.0166051
819.604	0.0167273
819.682	0.0166706
819.760	0.0167348
819.838	0.0168102
819.916	0.0166943
819.994	0.0166831
820.072	0.0166221
820.151	0.0167416
820.229	0.0167561
820.307	0.0165987
820.385	0.0166283
820.463	0.0166811
820.541	0.0164550
820.619	0.0164851
820.697	0.0164659
820.776	0.0165246
820.854	0.0163822
820.932	0.0163190
821.010	0.0161878
821.088	0.0163166
821.166	0.0161864
821.244	0.0161966
821.322	0.0162688
821.401	0.0162289
821.479	0.0162170
821.557	0.0162782
821.635	0.0163452
821.713	0.0164140
821.791	0.0163131
821.869	0.0162976
821.947	0.0163354
822.026	0.0164273
822.104	0.0163860
822.182	0.0164615
822.260	0.0164041
822.338	0.0163696
822.416	0.0164715
822.494	0.0164415
822.572	0.0164667
822.651	0.0165746
822.729	0.0166486
822.807	0.0165714
822.885	0.0165546
822.963	0.0165662
823.041	0.0166444
823.119	0.0166781
823.197	0.0166674
823.276	0.0166515
823.354	0.0166605
823.432	0.0167525
823.510	0.0167323
823.588	0.0166876
823.666	0.0168153
823.744	0.0165556
823.822	0.0166296
823.901	0.0168731
823.979	0.0167219
824.057	0.0166585
824.135	0.0166737
824.213	0.0166824
824.291	0.0166131
824.369	0.0164958
824.447	0.0165099
824.526	0.0164375
824.604	0.0164146
824.682	0.0163544
824.760	0.0163063
824.838	0.0162663
824.916	0.0163489
824.994	0.0163688
825.072	0.0163644
825.151	0.0161877
825.229	0.0162711
825.307	0.0162401
825.385	0.0162936
825.463	0.0162228
825.541	0.0163188
825.619	0.0163577
825.697	0.0164977
825.776	0.0163972
825.854	0.0162736
825.932	0.0163905
826.010	0.0163766
826.088	0.0164815
826.166	0.0165103
826.244	0.0164956
826.322	0.0165044
826.401	0.0165826
826.479	0.0165385
826.557	0.0165751
826.635	0.0165625
826.713	0.0165488
826.791	0.0165440
826.869	0.0165204
826.947	0.0165619
827.026	0.0165065
827.104	0.0165207
827.182	0.0166119
827.260	0.0165418
827.338	0.0164696
827.416	0.0163754
827.494	0.0164550
827.572	0.0164018
827.651	0.0164762
827.729	0.0163873
827.807	0.0164108
827.885	0.0163438
827.963	0.0163020
828.041	0.0165167
828.119	0.0164781
828.197	0.0164077
828.276	0.0162249
828.354	0.0164311
828.432	0.0163438
828.510	0.0162666
828.588	0.0162324
828.666	0.0162595
828.744	0.0163836
828.822	0.0162344
828.901	0.0164290
828.979	0.0165024
829.057	0.0162884
829.135	0.0163898
829.213	0.0162679
829.291	0.0162726
829.369	0.0164079
829.447	0.0164309
829.526	0.0164012
829.604	0.0162783
829.682	0.0162134
829.760	0.0164476
829.838	0.0162888
829.916	0.0164698
829.994	0.0164769
830.072	0.0165066
830.151	0.0163893
830.229	0.0163319
830.307	0.0162759
830.385	0.0163437
830.463	0.0164848
830.541	0.0165151
830.619	0.0163026
830.697	0.0162721
830.776	0.0165136
830.854	0.0164832
830.932	0.0164150
831.010	0.0164771
831.088	0.0164272
831.166	0.0166229
831.244	0.0165923
831.322	0.0165071
831.401	0.0165118
831.479	0.0164689
831.557	0.0165844
831.635	0.0164970
831.713	0.0165256
831.791	0.0165716
831.869	0.0167097
831.947	0.0165157
832.026	0.0164680
832.104	0.0165984
832.182	0.0164566
832.260	0.0165768
832.338	0.0165720
832.416	0.0166146
832.494	0.0165376
832.572	0.0165308
832.651	0.0165448
832.729	0.0166314
832.807	0.0164366
832.885	0.0164382
832.963	0.0164776
833.041	0.0163568
833.119	0.0163074
833.197	0.0164008
833.276	0.0163215
833.354	0.0163063
833.432	0.0163790
833.510	0.0163029
833.588	0.0162167
833.666	0.0163705
833.744	0.0163180
833.822	0.0164011
833.901	0.0163789
833.979	0.0163908
834.057	0.0162691
834.135	0.0163498
834.213	0.0165089
834.291	0.0163138
834.369	0.0163981
834.447	0.0163369
834.526	0.0163634
834.604	0.0165658
834.682	0.0164545
834.760	0.0163734
834.838	0.0163165
834.916	0.0164176
834.994	0.0164871
835.072	0.0164728
835.151	0.0163627
835.229	0.0164437
835.307	0.0163802
835.385	0.0163158
835.463	0.0165205
835.541	0.0166256
835.619	0.0164714
835.697	0.0165144
835.776	0.0164902
835.854	0.0165337
835.932	0.0165877
836.010	0.0165266
836.088	0.0164536
836.166	0.0163377
836.244	0.0165635
836.322	0.0164931
836.401	0.0165615
836.479	0.0165910
836.557	0.0166143
836.635	0.0165972
836.713	0.0164202
836.791	0.0165247
836.869	0.0166149
836.947	0.0165015
837.026	0.0166652
837.104	0.0167053
837.182	0.0166220
837.260	0.0166271
837.338	0.0165767
837.416	0.0165211
837.494	0.0165440
837.572	0.0166570
837.651	0.0165524
837.729	0.0167181
837.807	0.0166943
837.885	0.0166233
837.963	0.0166525
838.041	0.0168007
838.119	0.0165459
838.197	0.0165790
838.276	0.0166452
838.354	0.0165336
838.432	0.0165723
838.510	0.0165258
838.588	0.0164779
838.666	0.0164980
838.744	0.0164919
838.822	0.0164581
838.901	0.0164676
838.979	0.0165810
839.057	0.0165167
839.135	0.0163931
839.213	0.0163485
839.291	0.0163342
839.369	0.0163125
839.447	0.0163120
839.526	0.0162415
839.604	0.0160249
839.682	0.0164018
839.760	0.0164284
839.838	0.0163438
839.916	0.0164194
839.994	0.0163232
840.072	0.0163438
840.151	0.0164456
840.229	0.0164977
840.307	0.0164164
840.385	0.0163813
840.463	0.0163914
840.541	0.0166274
840.619	0.0164923
840.697	0.0165894
840.776	0.0166422
840.854	0.0166519
840.932	0.0167404
841.010	0.0165285
841.088	0.0167573
841.166	0.0165631
841.244	0.0165068
841.322	0.0166100
841.401	0.0166103
841.479	0.0166633
841.557	0.0166343
841.635	0.0164797
841.713	0.0165641
841.791	0.0166402
841.869	0.0165742
841.947	0.0165404
842.026	0.0164384
842.104	0.0164277
842.182	0.0163986
842.260	0.0165242
842.338	0.0164624
842.416	0.0165472
842.494	0.0165900
842.572	0.0165125
842.651	0.0165395
842.729	0.0164411
842.807	0.0165486
842.885	0.0164044
842.963	0.0165153
843.041	0.0165276
843.119	0.0165629
843.197	0.0165849
843.276	0.0165437
843.354	0.0165974
843.432	0.0166738
843.510	0.0165915
843.588	0.0165705
843.666	0.0166014
843.744	0.0165868
843.822	0.0164429
843.901	0.0164779
843.979	0.0166090
844.057	0.0167225
844.135	0.0166373
844.213	0.0166561
844.291	0.0167006
844.369	0.0166356
844.447	0.0166923
844.526	0.0166563
844.604	0.0166755
844.682	0.0166409
844.760	0.0166315
844.838	0.0167731
844.916	0.0166193
844.994	0.0165187
845.072	0.0167339
845.151	0.0167057
845.229	0.0165800
845.307	0.0165368
845.385	0.0166714
845.463	0.0166840
845.541	0.0165524
845.619	0.0166562
845.697	0.0164273
845.776	0.0165104
845.854	0.0165443
845.932	0.0165936
846.010	0.0166255
846.088	0.0164737
846.166	0.0164973
846.244	0.0165407
846.322	0.0166730
846.401	0.0166302
846.479	0.0165088
846.557	0.0164933
846.635	0.0166302
846.713	0.0165469
846.791	0.0163645
846.869	0.0166116
846.947	0.0165731
847.026	0.0165939
847.104	0.0163332
847.182	0.0165263
847.260	0.0166705
847.338	0.0165220
847.416	0.0164493
847.494	0.0165618
847.572	0.0164654
847.651	0.0165318
847.729	0.0166283
847.807	0.0164928
847.885	0.0165248
847.963	0.0165475
848.041	0.0164903
848.119	0.0165446
848.197	0.0164422
848.276	0.0165373
848.354	0.0164513
848.432	0.0163743
848.510	0.0165144
848.588	0.0165180
848.666	0.0163718
848.744	0.0163253
848.822	0.0165036
848.901	0.0165383
848.979	0.0163768
849.057	0.0162016
849.135	0.0163435
849.213	0.0165457
849.291	0.0164686
849.369	0.0164915
849.447	0.0165646
849.526	0.0165202
849.604	0.0165137
849.682	0.0164445
849.760	0.0163873
849.838	0.0164748
849.916	0.0165544
849.994	0.0164959
850.072	0.0164117
850.151	0.0165830
850.229	0.0165981
850.307	0.0164291
850.385	0.0165379
850.463	0.0165234
850.541	0.0164955
850.619	0.0165113
850.697	0.0164859
850.776	0.0164599
850.854	0.0165539
850.932	0.0164428
851.010	0.0165697
851.088	0.0164356
851.166	0.0165316
851.244	0.0164513
851.322	0.0162991
851.401	0.0163620
851.479	0.0162561
851.557	0.0162993
851.635	0.0164491
851.713	0.0163778
851.791	0.0163676
851.869	0.0163801
851.947	0.0163506
852.026	0.0164049
852.104	0.0162241
852.182	0.0162725
852.260	0.0163484
852.338	0.0163284
852.416	0.0162957
852.494	0.0162547
852.572	0.0163467
852.651	0.0163096
852.729	0.0163734
852.807	0.0163876
852.885	0.0162577
852.963	0.0163300
853.041	0.0164051
853.119	0.0163984
853.197	0.0162923
853.276	0.0163665
853.354	0.0163855
853.432	0.0163490
853.510	0.0163824
853.588	0.0163194
853.666	0.0164405
853.744	0.0163457
853.822	0.0165455
853.901	0.0162951
853.979	0.0163579
854.057	0.0161735
854.135	0.0163577
854.213	0.0164480
854.291	0.0165202
854.369	0.0163706
854.447	0.0163718
854.526	0.0162667
854.604	0.0163469
854.682	0.0164402
854.760	0.0163583
854.838	0.0163008
854.916	0.0164146
854.994	0.0163988
855.072	0.0165150
855.151	0.0164703
855.229	0.0164731
855.307	0.0164530
855.385	0.0165115
855.463	0.0164754
855.541	0.0164989
855.619	0.0163674
855.697	0.0165451
855.776	0.0164862
855.854	0.0163817
855.932	0.0164662
856.010	0.0164662
856.088	0.0164827
856.166	0.0163416
856.244	0.0164122
856.322	0.0163943
856.401	0.0164939
856.479	0.0164156
856.557	0.0163959
856.635	0.0165239
856.713	0.0165097
856.791	0.0166511
856.869	0.0165111
856.947	0.0164603
857.026	0.0164754
857.104	0.0164872
857.182	0.0165397
857.260	0.0167175
857.338	0.0166486
857.416	0.0165949
857.494	0.0165760
857.572	0.0165153
857.651	0.0164419
857.729	0.0165356
857.807	0.0165022
857.885	0.0164993
857.963	0.0164211
858.041	0.0164917
858.119	0.0164223
858.197	0.0164721
858.276	0.0166039
858.354	0.0166357
858.432	0.0166593
858.510	0.0165556
858.588	0.0165491
858.666	0.0167231
858.744	0.0165363
858.822	0.0164841
858.901	0.0167391
858.979	0.0166015
859.057	0.0165514
859.135	0.0167039
859.213	0.0167069
859.291	0.0165083
859.369	0.0165195
859.447	0.0164921
859.526	0.0165485
859.604	0.0165246
859.682	0.0164996
859.760	0.0164811
859.838	0.0165165
859.916	0.0166034
859.994	0.0164194
860.072	0.0163636
860.151	0.0163026
860.229	0.0163869
860.307	0.0163878
860.385	0.0164808
860.463	0.0165355
860.541	0.0164471
860.619	0.0164844
860.697	0.0166511
860.776	0.0165503
860.854	0.0165182
860.932	0.0165350
861.010	0.0166573
861.088	0.0166771
861.166	0.0165720
861.244	0.0165932
861.322	0.0167336
861.401	0.0166685
861.479	0.0165047
861.557	0.0165683
861.635	0.0166164
861.713	0.0165746
861.791	0.0165540
861.869	0.0166737
861.947	0.0168228
862.026	0.0166022
862.104	0.0166452
862.182	0.0166840
862.260	0.0168614
862.338	0.0166760
862.416	0.0167995
862.494	0.0167367
862.572	0.0166495
862.651	0.0166408
862.729	0.0167497
862.807	0.0166744
862.885	0.0167106
862.963	0.0166264
863.041	0.0167018
863.119	0.0166204
863.197	0.0165762
863.276	0.0167218
863.354	0.0166832
863.432	0.0166991
863.510	0.0166126
863.588	0.0165807
863.666	0.0164818
863.744	0.0166933
863.822	0.0165378
863.901	0.0165434
863.979	0.0165215
864.057	0.0165278
864.135	0.0164713
864.213	0.0164845
864.291	0.0165051
864.369	0.0165334
864.447	0.0164870
864.526	0.0164282
864.604	0.0164630
864.682	0.0165914
864.760	0.0163935
864.838	0.0164423
864.916	0.0164674
864.994	0.0165948
865.072	0.0164265
865.151	0.0165600
865.229	0.0165422
865.307	0.0165838
865.385	0.0165892
865.463	0.0166062
865.541	0.0166841
865.619	0.0166083
865.697	0.0165691
865.776	0.0165690
865.854	0.0166189
865.932	0.0166367
866.010	0.0165775
866.088	0.0165315
866.166	0.0165266
866.244	0.0164759
866.322	0.0166271
866.401	0.0165654
866.479	0.0165496
866.557	0.0165597
866.635	0.0166510
866.713	0.0166651
866.791	0.0165652
866.869	0.0165471
866.947	0.0165501
867.026	0.0164765
867.104	0.0166407
867.182	0.0167000
867.260	0.0164959
867.338	0.0164452
867.416	0.0165018
867.494	0.0165766
867.572	0.0165651
867.651	0.0165837
867.729	0.0166300
867.807	0.0164542
867.885	0.0167504
867.963	0.0165164
868.041	0.0165921
868.119	0.0165401
868.197	0.0165115
868.276	0.0165672
868.354	0.0164839
868.432	0.0164916
868.510	0.0165012
868.588	0.0164382
868.666	0.0165685
868.744	0.0165192
868.822	0.0163578
868.901	0.0163761
868.979	0.0164362
869.057	0.0164537
869.135	0.0164165
869.213	0.0163576
869.291	0.0163612
869.369	0.0165589
869.447	0.0164524
869.526	0.0164864
869.604	0.0162617
869.682	0.0164780
869.760	0.0163531
869.838	0.0164249
869.916	0.0162841
869.994	0.0162494
870.072	0.0164200
870.151	0.0162946
870.229	0.0163012
870.307	0.0163301
870.385	0.0162938
870.463	0.0163010
870.541	0.0163695
870.619	0.0163396
870.697	0.0165584
870.776	0.0164432
870.854	0.0164247
870.932	0.0163687
871.010	0.0163980
871.088	0.0165112
871.166	0.0163597
871.244	0.0164090
871.322	0.0164592
871.401	0.0165003
871.479	0.0165035
871.557	0.0165044
871.635	0.0165561
871.713	0.0163775
871.791	0.0164842
871.869	0.0165584
871.947	0.0166399
872.026	0.0166091
872.104	0.0165865
872.182	0.0164988
872.260	0.0166119
872.338	0.0165464
872.416	0.0164685
872.494	0.0166463
872.572	0.0165521
872.651	0.0164756
872.729	0.0165274
872.807	0.0165942
872.885	0.0165656
872.963	0.0164867
873.041	0.0164183
873.119	0.0165074
873.197	0.0165434
873.276	0.0163715
873.354	0.0164518
873.432	0.0166139
873.510	0.0164625
873.588	0.0165055
873.666	0.0164545
873.744	0.0166179
873.822	0.0164217
873.901	0.0163857
873.979	0.0163081
874.057	0.0164359
874.135	0.0165930
874.213	0.0164935
874.291	0.0166016
874.369	0.0165070
874.447	0.0163943
874.526	0.0164413
874.604	0.0164779
874.682	0.0165472
874.760	0.0163810
874.838	0.0163724
874.916	0.0164400
874.994	0.0165161
875.072	0.0164697
875.151	0.0163975
875.229	0.0164793
875.307	0.0165384
875.385	0.0164678
875.463	0.0165665
875.541	0.0164184
875.619	0.0164939
875.697	0.0166977
875.776	0.0165620
875.854	0.0165632
875.932	0.0165482
876.010	0.0165022
876.088	0.0166592
876.166	0.0163194
876.244	0.0163881
876.322	0.0164504
876.401	0.0165565
876.479	0.0164773
876.557	0.0165034
876.635	0.0163861
876.713	0.0165150
876.791	0.0164721
876.869	0.0165467
876.947	0.0165051
877.026	0.0166005
877.104	0.0165475
877.182	0.0164887
877.260	0.0165787
877.338	0.0166571
877.416	0.0166497
877.494	0.0166297
877.572	0.0166226
877.651	0.0166212
877.729	0.0167039
877.807	0.0167054
877.885	0.0166905
877.963	0.0167132
878.041	0.0166050
878.119	0.0165347
878.197	0.0165366
878.276	0.0167007
878.354	0.0165395
878.432	0.0165449
878.510	0.0166966
878.588	0.0167332
878.666	0.0166787
878.744	0.0166405
878.822	0.0167265
878.901	0.0166281
878.979	0.0167172
879.057	0.0166701
879.135	0.0165903
879.213	0.0165973
879.291	0.0166150
879.369	0.0165665
879.447	0.0166038
879.526	0.0164553
879.604	0.0165099
879.682	0.0165038
879.760	0.0163772
879.838	0.0165571
879.916	0.0164038
879.994	0.0162792
880.072	0.0164503
880.151	0.0164445
880.229	0.0162576
880.307	0.0164665
880.385	0.0163159
880.463	0.0164800
880.541	0.0162036
880.619	0.0162688
880.697	0.0163563
880.776	0.0162188
880.854	0.0162959
880.932	0.0163148
881.010	0.0163648
881.088	0.0164707
881.166	0.0162874
881.244	0.0161630
881.322	0.0162481
881.401	0.0164533
881.479	0.0165392
881.557	0.0163242
881.635	0.0162469
881.713	0.0163390
881.791	0.0164649
881.869	0.0163292
881.947	0.0165434
882.026	0.0164182
882.104	0.0164932
882.182	0.0165173
882.260	0.0164571
882.338	0.0166277
882.416	0.0165484
882.494	0.0164431
882.572	0.0163818
882.651	0.0164991
882.729	0.0165008
882.807	0.0163653
882.885	0.0164262
882.963	0.0166599
883.041	0.0164809
883.119	0.0166232
883.197	0.0165606
883.276	0.0166887
883.354	0.0167696
883.432	0.0165975
883.510	0.0168175
883.588	0.0166734
883.666	0.0167233
883.744	0.0166931
883.822	0.0168054
883.901	0.0168707
883.979	0.0166573
884.057	0.0166834
884.135	0.0167102
884.213	0.0168629
884.291	0.0167699
884.369	0.0166967
884.447	0.0166640
884.526	0.0167824
884.604	0.0168531
884.682	0.0167976
884.760	0.0168809
884.838	0.0168896
884.916	0.0167218
884.994	0.0166817
885.072	0.0167446
885.151	0.0168085
885.229	0.0167507
885.307	0.0166757
885.385	0.0168721
885.463	0.0167354
885.541	0.0167457
885.619	0.0167404
885.697	0.0169036
885.776	0.0167747
885.854	0.0169068
885.932	0.0167393
886.010	0.0168220
886.088	0.0167632
886.166	0.0167828
886.244	0.0167853
886.322	0.0169204
886.401	0.0166565
886.479	0.0166769
886.557	0.0167752
886.635	0.0168171
886.713	0.0167905
886.791	0.0166684
886.869	0.0166589
886.947	0.0166125
887.026	0.0165376
887.104	0.0166232
887.182	0.0166602
887.260	0.0166295
887.338	0.0167555
887.416	0.0167632
887.494	0.0166349
887.572	0.0165662
887.651	0.0165767
887.729	0.0165276
887.807	0.0165363
887.885	0.0166543
887.963	0.0166090
888.041	0.0167002
888.119	0.0167315
888.197	0.0166105
888.276	0.0166674
888.354	0.0165972
888.432	0.0165421
888.510	0.0165215
888.588	0.0165360
888.666	0.0165062
888.744	0.0166071
888.822	0.0166543
888.901	0.0165859
888.979	0.0165160
889.057	0.0164512
889.135	0.0165752
889.213	0.0164790
889.291	0.0165691
889.369	0.0164661
889.447	0.0165800
889.526	0.0166228
889.604	0.0164984
889.682	0.0164771
889.760	0.0165614
889.838	0.0165469
889.916	0.0166198
