06/03/2022	15:27:20	Ver.	4.1	UNKNOWN
Optical Delay	550.020508	Delta X		0.078125	Sweeps	1	Scan Rate	0/0
Coordinates	Axis 1	NaN	Axis 2	NaN	Axis 3	NaN	Axis 4	NaN	Axis 5	NaN	Axis 6	0.000000
TX Power	0.000000	RX Power	0.000000

550.021	0.0165556
550.099	0.0165971
550.177	0.0164545
550.255	0.0166032
550.333	0.0165444
550.411	0.0164681
550.489	0.0166115
550.567	0.0164963
550.646	0.0166016
550.724	0.0165852
550.802	0.0164427
550.880	0.0164291
550.958	0.0164935
551.036	0.0165652
551.114	0.0164075
551.192	0.0165335
551.271	0.0166254
551.349	0.0165488
551.427	0.0164782
551.505	0.0165975
551.583	0.0165412
551.661	0.0164558
551.739	0.0164580
551.817	0.0164297
551.896	0.0166445
551.974	0.0166418
552.052	0.0164524
552.130	0.0164226
552.208	0.0164639
552.286	0.0164713
552.364	0.0163136
552.442	0.0165002
552.521	0.0166100
552.599	0.0164999
552.677	0.0164783
552.755	0.0164771
552.833	0.0163889
552.911	0.0165649
552.989	0.0165501
553.067	0.0165210
553.146	0.0166359
553.224	0.0165040
553.302	0.0164361
553.380	0.0165797
553.458	0.0166492
553.536	0.0164675
553.614	0.0165159
553.692	0.0165357
553.771	0.0165530
553.849	0.0164931
553.927	0.0164561
554.005	0.0165444
554.083	0.0165356
554.161	0.0164068
554.239	0.0164971
554.317	0.0165167
554.396	0.0164396
554.474	0.0165311
554.552	0.0165150
554.630	0.0165597
554.708	0.0165704
554.786	0.0164935
554.864	0.0163898
554.942	0.0164224
555.021	0.0166433
555.099	0.0165394
555.177	0.0164902
555.255	0.0164712
555.333	0.0167650
555.411	0.0165600
555.489	0.0165685
555.567	0.0165622
555.646	0.0164899
555.724	0.0165419
555.802	0.0164711
555.880	0.0165660
555.958	0.0164600
556.036	0.0164416
556.114	0.0165683
556.192	0.0166498
556.271	0.0164683
556.349	0.0164330
556.427	0.0165751
556.505	0.0165653
556.583	0.0165282
556.661	0.0165678
556.739	0.0165235
556.817	0.0165340
556.896	0.0165144
556.974	0.0163818
557.052	0.0163974
557.130	0.0165773
557.208	0.0165995
557.286	0.0166054
557.364	0.0166158
557.442	0.0165207
557.521	0.0165816
557.599	0.0164494
557.677	0.0164118
557.755	0.0164549
557.833	0.0165041
557.911	0.0165884
557.989	0.0165752
558.067	0.0165976
558.146	0.0164559
558.224	0.0166151
558.302	0.0166351
558.380	0.0167446
558.458	0.0164755
558.536	0.0165416
558.614	0.0165701
558.692	0.0164593
558.771	0.0165547
558.849	0.0165757
558.927	0.0165657
559.005	0.0165260
559.083	0.0165344
559.161	0.0163962
559.239	0.0165862
559.317	0.0166333
559.396	0.0165183
559.474	0.0165099
559.552	0.0167078
559.630	0.0164882
559.708	0.0165025
559.786	0.0165663
559.864	0.0166318
559.942	0.0165503
560.021	0.0165179
560.099	0.0167017
560.177	0.0164296
560.255	0.0164391
560.333	0.0166135
560.411	0.0165376
560.489	0.0165576
560.567	0.0165000
560.646	0.0164963
560.724	0.0165491
560.802	0.0165087
560.880	0.0166009
560.958	0.0165031
561.036	0.0166107
561.114	0.0166802
561.192	0.0166142
561.271	0.0163879
561.349	0.0164400
561.427	0.0165302
561.505	0.0164783
561.583	0.0165737
561.661	0.0165101
561.739	0.0165503
561.817	0.0164104
561.896	0.0164012
561.974	0.0163846
562.052	0.0166343
562.130	0.0166108
562.208	0.0165409
562.286	0.0165233
562.364	0.0164614
562.442	0.0163855
562.521	0.0165897
562.599	0.0164677
562.677	0.0165355
562.755	0.0164275
562.833	0.0165443
562.911	0.0165851
562.989	0.0164089
563.067	0.0165565
563.146	0.0164275
563.224	0.0164603
563.302	0.0166455
563.380	0.0165203
563.458	0.0163594
563.536	0.0163620
563.614	0.0164281
563.692	0.0164714
563.771	0.0163750
563.849	0.0164642
563.927	0.0164091
564.005	0.0165045
564.083	0.0165276
564.161	0.0164945
564.239	0.0165340
564.317	0.0165547
564.396	0.0165684
564.474	0.0164202
564.552	0.0164588
564.630	0.0164581
564.708	0.0164988
564.786	0.0164375
564.864	0.0166338
564.942	0.0165172
565.021	0.0165204
565.099	0.0165771
565.177	0.0164582
565.255	0.0164347
565.333	0.0164990
565.411	0.0166797
565.489	0.0165868
565.567	0.0165268
565.646	0.0165097
565.724	0.0163530
565.802	0.0164248
565.880	0.0165013
565.958	0.0165613
566.036	0.0165369
566.114	0.0165036
566.192	0.0165384
566.271	0.0165252
566.349	0.0164547
566.427	0.0165172
566.505	0.0164807
566.583	0.0165334
566.661	0.0164473
566.739	0.0165449
566.817	0.0165664
566.896	0.0164766
566.974	0.0165632
567.052	0.0164970
567.130	0.0166235
567.208	0.0164778
567.286	0.0166170
567.364	0.0165920
567.442	0.0165644
567.521	0.0165797
567.599	0.0165255
567.677	0.0164902
567.755	0.0165491
567.833	0.0165446
567.911	0.0164743
567.989	0.0166097
568.067	0.0165758
568.146	0.0165263
568.224	0.0165916
568.302	0.0166167
568.380	0.0165137
568.458	0.0166534
568.536	0.0165410
568.614	0.0164896
568.692	0.0165343
568.771	0.0165718
568.849	0.0164468
568.927	0.0165401
569.005	0.0165217
569.083	0.0165226
569.161	0.0165581
569.239	0.0165176
569.317	0.0165099
569.396	0.0165858
569.474	0.0165834
569.552	0.0164579
569.630	0.0165670
569.708	0.0164876
569.786	0.0166002
569.864	0.0165646
569.942	0.0165931
570.021	0.0165668
570.099	0.0165718
570.177	0.0165737
570.255	0.0165160
570.333	0.0165591
570.411	0.0165301
570.489	0.0164349
570.567	0.0165373
570.646	0.0165366
570.724	0.0166803
570.802	0.0165552
570.880	0.0164286
570.958	0.0164440
571.036	0.0164559
571.114	0.0166855
571.192	0.0167243
571.271	0.0165060
571.349	0.0165874
571.427	0.0166076
571.505	0.0165371
571.583	0.0164118
571.661	0.0164807
571.739	0.0165916
571.817	0.0164689
571.896	0.0164860
571.974	0.0165130
572.052	0.0165527
572.130	0.0165311
572.208	0.0165619
572.286	0.0165557
572.364	0.0166550
572.442	0.0165438
572.521	0.0165250
572.599	0.0165241
572.677	0.0165015
572.755	0.0164249
572.833	0.0163324
572.911	0.0165845
572.989	0.0165598
573.067	0.0165753
573.146	0.0165336
573.224	0.0165281
573.302	0.0166598
573.380	0.0165229
573.458	0.0164583
573.536	0.0165755
573.614	0.0165623
573.692	0.0163795
573.771	0.0163891
573.849	0.0165450
573.927	0.0165726
574.005	0.0165147
574.083	0.0165140
574.161	0.0165132
574.239	0.0165436
574.317	0.0164086
574.396	0.0165944
574.474	0.0166126
574.552	0.0165379
574.630	0.0165491
574.708	0.0165958
574.786	0.0166245
574.864	0.0166272
574.942	0.0164138
575.021	0.0165163
575.099	0.0165005
575.177	0.0165874
575.255	0.0164640
575.333	0.0166614
575.411	0.0165029
575.489	0.0165871
575.567	0.0166570
575.646	0.0165201
575.724	0.0164759
575.802	0.0166396
575.880	0.0164701
575.958	0.0163894
576.036	0.0165681
576.114	0.0166912
576.192	0.0164767
576.271	0.0165923
576.349	0.0164791
576.427	0.0166023
576.505	0.0164207
576.583	0.0163821
576.661	0.0164745
576.739	0.0163951
576.817	0.0165643
576.896	0.0164105
576.974	0.0165247
577.052	0.0165267
577.130	0.0165357
577.208	0.0165345
577.286	0.0164796
577.364	0.0163927
577.442	0.0164339
577.521	0.0165269
577.599	0.0166147
577.677	0.0164945
577.755	0.0164525
577.833	0.0166388
577.911	0.0165696
577.989	0.0163998
578.067	0.0165830
578.146	0.0165012
578.224	0.0165099
578.302	0.0164642
578.380	0.0165661
578.458	0.0164818
578.536	0.0164848
578.614	0.0165599
578.692	0.0165036
578.771	0.0165649
578.849	0.0165285
578.927	0.0166358
579.005	0.0164397
579.083	0.0165617
579.161	0.0165865
579.239	0.0165511
579.317	0.0166649
579.396	0.0165255
579.474	0.0165041
579.552	0.0165630
579.630	0.0165274
579.708	0.0166682
579.786	0.0165009
579.864	0.0163068
579.942	0.0165390
580.021	0.0165654
580.099	0.0166814
580.177	0.0165519
580.255	0.0166553
580.333	0.0165225
580.411	0.0164533
580.489	0.0163823
580.567	0.0166063
580.646	0.0166296
580.724	0.0165240
580.802	0.0166014
580.880	0.0166567
580.958	0.0164603
581.036	0.0165328
581.114	0.0165742
581.192	0.0166678
581.271	0.0165133
581.349	0.0165018
581.427	0.0166405
581.505	0.0165275
581.583	0.0164309
581.661	0.0165627
581.739	0.0165672
581.817	0.0164796
581.896	0.0165192
581.974	0.0165817
582.052	0.0165855
582.130	0.0165633
582.208	0.0164758
582.286	0.0164885
582.364	0.0166037
582.442	0.0164893
582.521	0.0166375
582.599	0.0165465
582.677	0.0164308
582.755	0.0166514
582.833	0.0165714
582.911	0.0165535
582.989	0.0166786
583.067	0.0165318
583.146	0.0165149
583.224	0.0164870
583.302	0.0165628
583.380	0.0166335
583.458	0.0165827
583.536	0.0165464
583.614	0.0166211
583.692	0.0165457
583.771	0.0164571
583.849	0.0164967
583.927	0.0165150
584.005	0.0165916
584.083	0.0165862
584.161	0.0165715
584.239	0.0166840
584.317	0.0163344
584.396	0.0163829
584.474	0.0165530
584.552	0.0164420
584.630	0.0164241
584.708	0.0164571
584.786	0.0166125
584.864	0.0166799
584.942	0.0164653
585.021	0.0164520
585.099	0.0164941
585.177	0.0165740
585.255	0.0165412
585.333	0.0165874
585.411	0.0165875
585.489	0.0166465
585.567	0.0164705
585.646	0.0165411
585.724	0.0166177
585.802	0.0165377
585.880	0.0166018
585.958	0.0166672
586.036	0.0165352
586.114	0.0164954
586.192	0.0165836
586.271	0.0166265
586.349	0.0166464
586.427	0.0165575
586.505	0.0166060
586.583	0.0165807
586.661	0.0166070
586.739	0.0165041
586.817	0.0165977
586.896	0.0165572
586.974	0.0166381
587.052	0.0166149
587.130	0.0165935
587.208	0.0165176
587.286	0.0165607
587.364	0.0165408
587.442	0.0165272
587.521	0.0166584
587.599	0.0164669
587.677	0.0165687
587.755	0.0165335
587.833	0.0166344
587.911	0.0166302
587.989	0.0166441
588.067	0.0165293
588.146	0.0166266
588.224	0.0166496
588.302	0.0165234
588.380	0.0165430
588.458	0.0164861
588.536	0.0165146
588.614	0.0165424
588.692	0.0166394
588.771	0.0164871
588.849	0.0166602
588.927	0.0165139
589.005	0.0166183
589.083	0.0165221
589.161	0.0165782
589.239	0.0163775
589.317	0.0165076
589.396	0.0165830
589.474	0.0163716
589.552	0.0165446
589.630	0.0164539
589.708	0.0165179
589.786	0.0165778
589.864	0.0165237
589.942	0.0166323
590.021	0.0165139
590.099	0.0165498
590.177	0.0165861
590.255	0.0166255
590.333	0.0164861
590.411	0.0166273
590.489	0.0165495
590.567	0.0164845
590.646	0.0165299
590.724	0.0166926
590.802	0.0165591
590.880	0.0165520
590.958	0.0165051
591.036	0.0165994
591.114	0.0165395
591.192	0.0165543
591.271	0.0165864
591.349	0.0165865
591.427	0.0166343
591.505	0.0165742
591.583	0.0164907
591.661	0.0166501
591.739	0.0166210
591.817	0.0166013
591.896	0.0166068
591.974	0.0166873
592.052	0.0166100
592.130	0.0166254
592.208	0.0165936
592.286	0.0164812
592.364	0.0165999
592.442	0.0164162
592.521	0.0165141
592.599	0.0166146
592.677	0.0165453
592.755	0.0165370
592.833	0.0165861
592.911	0.0164563
592.989	0.0164645
593.067	0.0165217
593.146	0.0166155
593.224	0.0166058
593.302	0.0164513
593.380	0.0166045
593.458	0.0165320
593.536	0.0164963
593.614	0.0164565
593.692	0.0164311
593.771	0.0165767
593.849	0.0163832
593.927	0.0166125
594.005	0.0165726
594.083	0.0164220
594.161	0.0165562
594.239	0.0167220
594.317	0.0164730
594.396	0.0165369
594.474	0.0164977
594.552	0.0165037
594.630	0.0166747
594.708	0.0165494
594.786	0.0165641
594.864	0.0164323
594.942	0.0165131
595.021	0.0165057
595.099	0.0165715
595.177	0.0165861
595.255	0.0165068
595.333	0.0167257
595.411	0.0163963
595.489	0.0164799
595.567	0.0165739
595.646	0.0165073
595.724	0.0166344
595.802	0.0166388
595.880	0.0165586
595.958	0.0165028
596.036	0.0165717
596.114	0.0167033
596.192	0.0165759
596.271	0.0164596
596.349	0.0165617
596.427	0.0165240
596.505	0.0164278
596.583	0.0164224
596.661	0.0165417
596.739	0.0165820
596.817	0.0165757
596.896	0.0165124
596.974	0.0164783
597.052	0.0165199
597.130	0.0165614
597.208	0.0165681
597.286	0.0166602
597.364	0.0164318
597.442	0.0164610
597.521	0.0165978
597.599	0.0164104
597.677	0.0163783
597.755	0.0164921
597.833	0.0165712
597.911	0.0165082
597.989	0.0164838
598.067	0.0165687
598.146	0.0166902
598.224	0.0164944
598.302	0.0165697
598.380	0.0165924
598.458	0.0165340
598.536	0.0166333
598.614	0.0165630
598.692	0.0165540
598.771	0.0164962
598.849	0.0165397
598.927	0.0165021
599.005	0.0165521
599.083	0.0163796
599.161	0.0165411
599.239	0.0166869
599.317	0.0164685
599.396	0.0166218
599.474	0.0165321
599.552	0.0165309
599.630	0.0166388
599.708	0.0165813
599.786	0.0166878
599.864	0.0165678
599.942	0.0165719
600.021	0.0166322
600.099	0.0163955
600.177	0.0164465
600.255	0.0164250
600.333	0.0163668
600.411	0.0165864
600.489	0.0165491
600.567	0.0164308
600.646	0.0164156
600.724	0.0165867
600.802	0.0166294
600.880	0.0165037
600.958	0.0165312
601.036	0.0165570
601.114	0.0164598
601.192	0.0164637
601.271	0.0165324
601.349	0.0166716
601.427	0.0165854
601.505	0.0164522
601.583	0.0165577
601.661	0.0164387
601.739	0.0165529
601.817	0.0165964
601.896	0.0165588
601.974	0.0165273
602.052	0.0165363
602.130	0.0165123
602.208	0.0164230
602.286	0.0164317
602.364	0.0166592
602.442	0.0164729
602.521	0.0165477
602.599	0.0164842
602.677	0.0164229
602.755	0.0164902
602.833	0.0165409
602.911	0.0166269
602.989	0.0166092
603.067	0.0164874
603.146	0.0165273
603.224	0.0164980
603.302	0.0166360
603.380	0.0166360
603.458	0.0166474
603.536	0.0164754
603.614	0.0164746
603.692	0.0164777
603.771	0.0165133
603.849	0.0163528
603.927	0.0165005
604.005	0.0167120
604.083	0.0166093
604.161	0.0165488
604.239	0.0165683
604.317	0.0165212
604.396	0.0164030
604.474	0.0163961
604.552	0.0164593
604.630	0.0164914
604.708	0.0163493
604.786	0.0165891
604.864	0.0164653
604.942	0.0165085
605.021	0.0165004
605.099	0.0165216
605.177	0.0167019
605.255	0.0164874
605.333	0.0164916
605.411	0.0166452
605.489	0.0165834
605.567	0.0165565
605.646	0.0165771
605.724	0.0165521
605.802	0.0165589
605.880	0.0166883
605.958	0.0165415
606.036	0.0165672
606.114	0.0164356
606.192	0.0165083
606.271	0.0165637
606.349	0.0164559
606.427	0.0165239
606.505	0.0165035
606.583	0.0165572
606.661	0.0166764
606.739	0.0165126
606.817	0.0165223
606.896	0.0166261
606.974	0.0165724
607.052	0.0167154
607.130	0.0166523
607.208	0.0164653
607.286	0.0164897
607.364	0.0167091
607.442	0.0166463
607.521	0.0165890
607.599	0.0166091
607.677	0.0166135
607.755	0.0165675
607.833	0.0164675
607.911	0.0164963
607.989	0.0165167
608.067	0.0166554
608.146	0.0165694
608.224	0.0165023
608.302	0.0166912
608.380	0.0166109
608.458	0.0165893
608.536	0.0165703
608.614	0.0165446
608.692	0.0164493
608.771	0.0165193
608.849	0.0164848
608.927	0.0165256
609.005	0.0166698
609.083	0.0164917
609.161	0.0165404
609.239	0.0166036
609.317	0.0165680
609.396	0.0165955
609.474	0.0165276
609.552	0.0165029
609.630	0.0164741
609.708	0.0166722
609.786	0.0165807
609.864	0.0164945
609.942	0.0165051
610.021	0.0165635
610.099	0.0165366
610.177	0.0164925
610.255	0.0164550
610.333	0.0164980
610.411	0.0165838
610.489	0.0163934
610.567	0.0164457
610.646	0.0164181
610.724	0.0165924
610.802	0.0165393
610.880	0.0165784
610.958	0.0164618
611.036	0.0165778
611.114	0.0164648
611.192	0.0165837
611.271	0.0163784
611.349	0.0165688
611.427	0.0165369
611.505	0.0165214
611.583	0.0165163
611.661	0.0165413
611.739	0.0165747
611.817	0.0165118
611.896	0.0162689
611.974	0.0165132
612.052	0.0165516
612.130	0.0166174
612.208	0.0164519
612.286	0.0165095
612.364	0.0164762
612.442	0.0165244
612.521	0.0165559
612.599	0.0164589
612.677	0.0164792
612.755	0.0165313
612.833	0.0165150
612.911	0.0165635
612.989	0.0165504
613.067	0.0165000
613.146	0.0166808
613.224	0.0164881
613.302	0.0165142
613.380	0.0166578
613.458	0.0165168
613.536	0.0165062
613.614	0.0163975
613.692	0.0165999
613.771	0.0166611
613.849	0.0164592
613.927	0.0165987
614.005	0.0164517
614.083	0.0166153
614.161	0.0164314
614.239	0.0165342
614.317	0.0165053
614.396	0.0165644
614.474	0.0165053
614.552	0.0166000
614.630	0.0164066
614.708	0.0164852
614.786	0.0165569
614.864	0.0165278
614.942	0.0164952
615.021	0.0166193
615.099	0.0166842
615.177	0.0165182
615.255	0.0163602
615.333	0.0164455
615.411	0.0165594
615.489	0.0165394
615.567	0.0165632
615.646	0.0166490
615.724	0.0166175
615.802	0.0165432
615.880	0.0164985
615.958	0.0165012
616.036	0.0164491
616.114	0.0167191
616.192	0.0165457
616.271	0.0165710
616.349	0.0165411
616.427	0.0165249
616.505	0.0165430
616.583	0.0165560
616.661	0.0165820
616.739	0.0164978
616.817	0.0165896
616.896	0.0164668
616.974	0.0165412
617.052	0.0164851
617.130	0.0165523
617.208	0.0165246
617.286	0.0164853
617.364	0.0165710
617.442	0.0166158
617.521	0.0167091
617.599	0.0166054
617.677	0.0165147
617.755	0.0165067
617.833	0.0166291
617.911	0.0165635
617.989	0.0163535
618.067	0.0165200
618.146	0.0164742
618.224	0.0164833
618.302	0.0165631
618.380	0.0165107
618.458	0.0165359
618.536	0.0164632
618.614	0.0164436
618.692	0.0166009
618.771	0.0165352
618.849	0.0164342
618.927	0.0164037
619.005	0.0165259
619.083	0.0165302
619.161	0.0165871
619.239	0.0165454
619.317	0.0164740
619.396	0.0165349
619.474	0.0165701
619.552	0.0166459
619.630	0.0165647
619.708	0.0164578
619.786	0.0164835
619.864	0.0166303
619.942	0.0165556
620.021	0.0165063
620.099	0.0163715
620.177	0.0164544
620.255	0.0166296
620.333	0.0164584
620.411	0.0164623
620.489	0.0164539
620.567	0.0164747
620.646	0.0164932
620.724	0.0164992
620.802	0.0166193
620.880	0.0165843
620.958	0.0165958
621.036	0.0164600
621.114	0.0166071
621.192	0.0165836
621.271	0.0164789
621.349	0.0163919
621.427	0.0164718
621.505	0.0165594
621.583	0.0164848
621.661	0.0164122
621.739	0.0165865
621.817	0.0164754
621.896	0.0164670
621.974	0.0165225
622.052	0.0165026
622.130	0.0163869
622.208	0.0166248
622.286	0.0164902
622.364	0.0165827
622.442	0.0165792
622.521	0.0164982
622.599	0.0166215
622.677	0.0165534
622.755	0.0165809
622.833	0.0164923
622.911	0.0164903
622.989	0.0165475
623.067	0.0165559
623.146	0.0165695
623.224	0.0164942
623.302	0.0164542
623.380	0.0163789
623.458	0.0165677
623.536	0.0165324
623.614	0.0165868
623.692	0.0163852
623.771	0.0165594
623.849	0.0165102
623.927	0.0166291
624.005	0.0164819
624.083	0.0164943
624.161	0.0166078
624.239	0.0165361
624.317	0.0165762
624.396	0.0164667
624.474	0.0165569
624.552	0.0166061
624.630	0.0166044
624.708	0.0164957
624.786	0.0165541
624.864	0.0165060
624.942	0.0165686
625.021	0.0166219
625.099	0.0165868
625.177	0.0163931
625.255	0.0164475
625.333	0.0165039
625.411	0.0165744
625.489	0.0165027
625.567	0.0165691
625.646	0.0165710
625.724	0.0164727
625.802	0.0164954
625.880	0.0165402
625.958	0.0165540
626.036	0.0163916
626.114	0.0166434
626.192	0.0164809
626.271	0.0164697
626.349	0.0164697
626.427	0.0164800
626.505	0.0164539
626.583	0.0164960
626.661	0.0163657
626.739	0.0164903
626.817	0.0165375
626.896	0.0166344
626.974	0.0163812
627.052	0.0165340
627.130	0.0164827
627.208	0.0163907
627.286	0.0164870
627.364	0.0164642
627.442	0.0165857
627.521	0.0166155
627.599	0.0166066
627.677	0.0166041
627.755	0.0165388
627.833	0.0165872
627.911	0.0165731
627.989	0.0165723
628.067	0.0164812
628.146	0.0165367
628.224	0.0166035
628.302	0.0165862
628.380	0.0164536
628.458	0.0164570
628.536	0.0165441
628.614	0.0164658
628.692	0.0165633
628.771	0.0164622
628.849	0.0165150
628.927	0.0165070
629.005	0.0165209
629.083	0.0166400
629.161	0.0166293
629.239	0.0164836
629.317	0.0164854
629.396	0.0165459
629.474	0.0164993
629.552	0.0165566
629.630	0.0164186
629.708	0.0165945
629.786	0.0164999
629.864	0.0164715
629.942	0.0165007
630.021	0.0166576
630.099	0.0164358
630.177	0.0165237
630.255	0.0165992
630.333	0.0165039
630.411	0.0166199
630.489	0.0165999
630.567	0.0165660
630.646	0.0164843
630.724	0.0165356
630.802	0.0166558
630.880	0.0165134
630.958	0.0164821
631.036	0.0165073
631.114	0.0166302
631.192	0.0166135
631.271	0.0165098
631.349	0.0164541
631.427	0.0166542
631.505	0.0166340
631.583	0.0165991
631.661	0.0165491
631.739	0.0166150
631.817	0.0164610
631.896	0.0165234
631.974	0.0163506
632.052	0.0165291
632.130	0.0164573
632.208	0.0166313
632.286	0.0165646
632.364	0.0165069
632.442	0.0166105
632.521	0.0165215
632.599	0.0165782
632.677	0.0164356
632.755	0.0165727
632.833	0.0166293
632.911	0.0165308
632.989	0.0165657
633.067	0.0165695
633.146	0.0165824
633.224	0.0165976
633.302	0.0165505
633.380	0.0165120
633.458	0.0166415
633.536	0.0166243
633.614	0.0164931
633.692	0.0164803
633.771	0.0165647
633.849	0.0165307
633.927	0.0164864
634.005	0.0164671
634.083	0.0164957
634.161	0.0165599
634.239	0.0165290
634.317	0.0163980
634.396	0.0164523
634.474	0.0165974
634.552	0.0165125
634.630	0.0165404
634.708	0.0165639
634.786	0.0165498
634.864	0.0165113
634.942	0.0165430
635.021	0.0164116
635.099	0.0164146
635.177	0.0165584
635.255	0.0164812
635.333	0.0166844
635.411	0.0165133
635.489	0.0165957
635.567	0.0165498
635.646	0.0165891
635.724	0.0165996
635.802	0.0164981
635.880	0.0164013
635.958	0.0165717
636.036	0.0164975
636.114	0.0164146
636.192	0.0165512
636.271	0.0164966
636.349	0.0165349
636.427	0.0166210
636.505	0.0165176
636.583	0.0165288
636.661	0.0166779
636.739	0.0165639
636.817	0.0165546
636.896	0.0165625
636.974	0.0164272
637.052	0.0165201
637.130	0.0164954
637.208	0.0165933
637.286	0.0166773
637.364	0.0165322
637.442	0.0165073
637.521	0.0165491
637.599	0.0165041
637.677	0.0166348
637.755	0.0165539
637.833	0.0164714
637.911	0.0166454
637.989	0.0165019
638.067	0.0164402
638.146	0.0165378
638.224	0.0165725
638.302	0.0165252
638.380	0.0165208
638.458	0.0165279
638.536	0.0166501
638.614	0.0166136
638.692	0.0165321
638.771	0.0166425
638.849	0.0167044
638.927	0.0165408
639.005	0.0164442
639.083	0.0166164
639.161	0.0165787
639.239	0.0164594
639.317	0.0165032
639.396	0.0164132
639.474	0.0164892
639.552	0.0166752
639.630	0.0165377
639.708	0.0165231
639.786	0.0165228
639.864	0.0165814
639.942	0.0165314
640.021	0.0165135
640.099	0.0164700
640.177	0.0165418
640.255	0.0164864
640.333	0.0165150
640.411	0.0165343
640.489	0.0165398
640.567	0.0164039
640.646	0.0164679
640.724	0.0164281
640.802	0.0164983
640.880	0.0164964
640.958	0.0164663
641.036	0.0164577
641.114	0.0166476
641.192	0.0165663
641.271	0.0165047
641.349	0.0164535
641.427	0.0165086
641.505	0.0164630
641.583	0.0164942
641.661	0.0166234
641.739	0.0166022
641.817	0.0166379
641.896	0.0164632
641.974	0.0165394
642.052	0.0165284
642.130	0.0165531
642.208	0.0164827
642.286	0.0164520
642.364	0.0165495
642.442	0.0165485
642.521	0.0165842
642.599	0.0166007
642.677	0.0166853
642.755	0.0163602
642.833	0.0164676
642.911	0.0165168
642.989	0.0164948
643.067	0.0165192
643.146	0.0165182
643.224	0.0165743
643.302	0.0164521
643.380	0.0165311
643.458	0.0164784
643.536	0.0165470
643.614	0.0164283
643.692	0.0165591
643.771	0.0165886
643.849	0.0165131
643.927	0.0165871
644.005	0.0165459
644.083	0.0165649
644.161	0.0163137
644.239	0.0165032
644.317	0.0165437
644.396	0.0165323
644.474	0.0165403
644.552	0.0166246
644.630	0.0165704
644.708	0.0164189
644.786	0.0167130
644.864	0.0164837
644.942	0.0165222
645.021	0.0165073
645.099	0.0165635
645.177	0.0165497
645.255	0.0165245
645.333	0.0164547
645.411	0.0165285
645.489	0.0165884
645.567	0.0165343
645.646	0.0165549
645.724	0.0166329
645.802	0.0165147
645.880	0.0165747
645.958	0.0166042
646.036	0.0163862
646.114	0.0164858
646.192	0.0166411
646.271	0.0164514
646.349	0.0164656
646.427	0.0164838
646.505	0.0165208
646.583	0.0166078
646.661	0.0165221
646.739	0.0165966
646.817	0.0165809
646.896	0.0164836
646.974	0.0165617
647.052	0.0164687
647.130	0.0165506
647.208	0.0166631
647.286	0.0164854
647.364	0.0164025
647.442	0.0165485
647.521	0.0166298
647.599	0.0165585
647.677	0.0165697
647.755	0.0165036
647.833	0.0166087
647.911	0.0164475
647.989	0.0166342
648.067	0.0166152
648.146	0.0166389
648.224	0.0164267
648.302	0.0165345
648.380	0.0165257
648.458	0.0165260
648.536	0.0166006
648.614	0.0165920
648.692	0.0165370
648.771	0.0166828
648.849	0.0165925
648.927	0.0166676
649.005	0.0165249
649.083	0.0165765
649.161	0.0165466
649.239	0.0164841
649.317	0.0165279
649.396	0.0165533
649.474	0.0166814
649.552	0.0165618
649.630	0.0166289
649.708	0.0164563
649.786	0.0164764
649.864	0.0165480
649.942	0.0165631
650.021	0.0165259
650.099	0.0164530
650.177	0.0165480
650.255	0.0165712
650.333	0.0165962
650.411	0.0165265
650.489	0.0166046
650.567	0.0165746
650.646	0.0164581
650.724	0.0164836
650.802	0.0164833
650.880	0.0164385
650.958	0.0165521
651.036	0.0165563
651.114	0.0165420
651.192	0.0166532
651.271	0.0165867
651.349	0.0166200
651.427	0.0164980
651.505	0.0165779
651.583	0.0166825
651.661	0.0166185
651.739	0.0164335
651.817	0.0163776
651.896	0.0165829
651.974	0.0166394
652.052	0.0166053
652.130	0.0166065
652.208	0.0165086
652.286	0.0165692
652.364	0.0164139
652.442	0.0164169
652.521	0.0165123
652.599	0.0166493
652.677	0.0164703
652.755	0.0164764
652.833	0.0165204
652.911	0.0164234
652.989	0.0165797
653.067	0.0166454
653.146	0.0164720
653.224	0.0165254
653.302	0.0165665
653.380	0.0165469
653.458	0.0164759
653.536	0.0165585
653.614	0.0165746
653.692	0.0165539
653.771	0.0165786
653.849	0.0166041
653.927	0.0164664
654.005	0.0165285
654.083	0.0165674
654.161	0.0165319
654.239	0.0164809
654.317	0.0164413
654.396	0.0165290
654.474	0.0164783
654.552	0.0165847
654.630	0.0165855
654.708	0.0165420
654.786	0.0164061
654.864	0.0165532
654.942	0.0164351
655.021	0.0165505
655.099	0.0166686
655.177	0.0166760
655.255	0.0165714
655.333	0.0165687
655.411	0.0164993
655.489	0.0167181
655.567	0.0166339
655.646	0.0164377
655.724	0.0165455
655.802	0.0164986
655.880	0.0165501
655.958	0.0166109
656.036	0.0164907
656.114	0.0164806
656.192	0.0165399
656.271	0.0164334
656.349	0.0164282
656.427	0.0166553
656.505	0.0166564
656.583	0.0165984
656.661	0.0166361
656.739	0.0164579
656.817	0.0165561
656.896	0.0165079
656.974	0.0166588
657.052	0.0166782
657.130	0.0165561
657.208	0.0164323
657.286	0.0165603
657.364	0.0165646
657.442	0.0165556
657.521	0.0165110
657.599	0.0166295
657.677	0.0165650
657.755	0.0164822
657.833	0.0165015
657.911	0.0165766
657.989	0.0166476
658.067	0.0165790
658.146	0.0165038
658.224	0.0164426
658.302	0.0165793
658.380	0.0164983
658.458	0.0166074
658.536	0.0166647
658.614	0.0165449
658.692	0.0165736
658.771	0.0164466
658.849	0.0165396
658.927	0.0165697
659.005	0.0165054
659.083	0.0164352
659.161	0.0166370
659.239	0.0164487
659.317	0.0165016
659.396	0.0164633
659.474	0.0164805
659.552	0.0165192
659.630	0.0164682
659.708	0.0165501
659.786	0.0164692
659.864	0.0165666
659.942	0.0166238
660.021	0.0165012
660.099	0.0165179
660.177	0.0165687
660.255	0.0166688
660.333	0.0164392
660.411	0.0165277
660.489	0.0165793
660.567	0.0164925
660.646	0.0165401
660.724	0.0165871
660.802	0.0165530
660.880	0.0164758
660.958	0.0163607
661.036	0.0164716
661.114	0.0165955
661.192	0.0165249
661.271	0.0166168
661.349	0.0164230
661.427	0.0163550
661.505	0.0165375
661.583	0.0166037
661.661	0.0165479
661.739	0.0165516
661.817	0.0165137
661.896	0.0164980
661.974	0.0164774
662.052	0.0163906
662.130	0.0166525
662.208	0.0166106
662.286	0.0163917
662.364	0.0165694
662.442	0.0166254
662.521	0.0165118
662.599	0.0165409
662.677	0.0164381
662.755	0.0163813
662.833	0.0164972
662.911	0.0166422
662.989	0.0166496
663.067	0.0165823
663.146	0.0166209
663.224	0.0165731
663.302	0.0165809
663.380	0.0166080
663.458	0.0163815
663.536	0.0164471
663.614	0.0165688
663.692	0.0165981
663.771	0.0165040
663.849	0.0165083
663.927	0.0163644
664.005	0.0165146
664.083	0.0165582
664.161	0.0167643
664.239	0.0166570
664.317	0.0166254
664.396	0.0166357
664.474	0.0165096
664.552	0.0165438
664.630	0.0165981
664.708	0.0165701
664.786	0.0165315
664.864	0.0165372
664.942	0.0165250
665.021	0.0163868
665.099	0.0165289
665.177	0.0165807
665.255	0.0166351
665.333	0.0164931
665.411	0.0164577
665.489	0.0166106
665.567	0.0166064
665.646	0.0166299
665.724	0.0164807
665.802	0.0164831
665.880	0.0165086
665.958	0.0166143
666.036	0.0165803
666.114	0.0164096
666.192	0.0165044
666.271	0.0164735
666.349	0.0165302
666.427	0.0165754
666.505	0.0166118
666.583	0.0165586
666.661	0.0164704
666.739	0.0166192
666.817	0.0165630
666.896	0.0164266
666.974	0.0164314
667.052	0.0166375
667.130	0.0165099
667.208	0.0165363
667.286	0.0166328
667.364	0.0165222
667.442	0.0167377
667.521	0.0166176
667.599	0.0165544
667.677	0.0165719
667.755	0.0165632
667.833	0.0166244
667.911	0.0166193
667.989	0.0164819
668.067	0.0165721
668.146	0.0165085
668.224	0.0166060
668.302	0.0165564
668.380	0.0164933
668.458	0.0164994
668.536	0.0165634
668.614	0.0165946
668.692	0.0165507
668.771	0.0165175
668.849	0.0165935
668.927	0.0165857
669.005	0.0164151
669.083	0.0165141
669.161	0.0165327
669.239	0.0165714
669.317	0.0165740
669.396	0.0167047
669.474	0.0164629
669.552	0.0166008
669.630	0.0164179
669.708	0.0165692
669.786	0.0164488
669.864	0.0164484
669.942	0.0165914
670.021	0.0164382
670.099	0.0165578
670.177	0.0165776
670.255	0.0166143
670.333	0.0166193
670.411	0.0166772
670.489	0.0166006
670.567	0.0164993
670.646	0.0164081
670.724	0.0165022
670.802	0.0165454
670.880	0.0164727
670.958	0.0165961
671.036	0.0166607
671.114	0.0164697
671.192	0.0165556
671.271	0.0165163
671.349	0.0165778
671.427	0.0164961
671.505	0.0165508
671.583	0.0166588
671.661	0.0165702
671.739	0.0164256
671.817	0.0166696
671.896	0.0164987
671.974	0.0165282
672.052	0.0166040
672.130	0.0167017
672.208	0.0164532
672.286	0.0165489
672.364	0.0165622
672.442	0.0165602
672.521	0.0165900
672.599	0.0165205
672.677	0.0165643
672.755	0.0165845
672.833	0.0165173
672.911	0.0165401
672.989	0.0165625
673.067	0.0165304
673.146	0.0165117
673.224	0.0165096
673.302	0.0164949
673.380	0.0165356
673.458	0.0164914
673.536	0.0165407
673.614	0.0164507
673.692	0.0166130
673.771	0.0164955
673.849	0.0164428
673.927	0.0166341
674.005	0.0166719
674.083	0.0164742
674.161	0.0165546
674.239	0.0165113
674.317	0.0164433
674.396	0.0165383
674.474	0.0166560
674.552	0.0165421
674.630	0.0165770
674.708	0.0165023
674.786	0.0166441
674.864	0.0167357
674.942	0.0165515
675.021	0.0165013
675.099	0.0164594
675.177	0.0166646
675.255	0.0166304
675.333	0.0164515
675.411	0.0164851
675.489	0.0165369
675.567	0.0165766
675.646	0.0166174
675.724	0.0166253
675.802	0.0165279
675.880	0.0165544
675.958	0.0165019
676.036	0.0165296
676.114	0.0166311
676.192	0.0164268
676.271	0.0165135
676.349	0.0165958
676.427	0.0163966
676.505	0.0164630
676.583	0.0164701
676.661	0.0164616
676.739	0.0164782
676.817	0.0164776
676.896	0.0165260
676.974	0.0165499
677.052	0.0165717
677.130	0.0166694
677.208	0.0166235
677.286	0.0164371
677.364	0.0164156
677.442	0.0164539
677.521	0.0165113
677.599	0.0164835
677.677	0.0165265
677.755	0.0164706
677.833	0.0165490
677.911	0.0165515
677.989	0.0164172
678.067	0.0164507
678.146	0.0166376
678.224	0.0166282
678.302	0.0165430
678.380	0.0163750
678.458	0.0165631
678.536	0.0164955
678.614	0.0164291
678.692	0.0166127
678.771	0.0165845
678.849	0.0164751
678.927	0.0165480
679.005	0.0163406
679.083	0.0164006
679.161	0.0165093
679.239	0.0164330
679.317	0.0165161
679.396	0.0165129
679.474	0.0166150
679.552	0.0163258
679.630	0.0164264
679.708	0.0164458
679.786	0.0164404
679.864	0.0165164
679.942	0.0164333
680.021	0.0163916
680.099	0.0163991
680.177	0.0163235
680.255	0.0164017
680.333	0.0165486
680.411	0.0164825
680.489	0.0163835
680.567	0.0164823
680.646	0.0165186
680.724	0.0163203
680.802	0.0166014
680.880	0.0165368
680.958	0.0165909
681.036	0.0165282
681.114	0.0164311
681.192	0.0165813
681.271	0.0165427
681.349	0.0164725
681.427	0.0164901
681.505	0.0165922
681.583	0.0164290
681.661	0.0165359
681.739	0.0164854
681.817	0.0164882
681.896	0.0166358
681.974	0.0165683
682.052	0.0164220
682.130	0.0166304
682.208	0.0164820
682.286	0.0163958
682.364	0.0165120
682.442	0.0166525
682.521	0.0165613
682.599	0.0165819
682.677	0.0164083
682.755	0.0165706
682.833	0.0166096
682.911	0.0165075
682.989	0.0165115
683.067	0.0164694
683.146	0.0163964
683.224	0.0165655
683.302	0.0164934
683.380	0.0165434
683.458	0.0165504
683.536	0.0164862
683.614	0.0165502
683.692	0.0164636
683.771	0.0165585
683.849	0.0165853
683.927	0.0165144
684.005	0.0165543
684.083	0.0165685
684.161	0.0166683
684.239	0.0165076
684.317	0.0165298
684.396	0.0167226
684.474	0.0166121
684.552	0.0167034
684.630	0.0166093
684.708	0.0165472
684.786	0.0166528
684.864	0.0164230
684.942	0.0165509
685.021	0.0167059
685.099	0.0168224
685.177	0.0166512
685.255	0.0165686
685.333	0.0166142
685.411	0.0165516
685.489	0.0166488
685.567	0.0167842
685.646	0.0165949
685.724	0.0166841
685.802	0.0165638
685.880	0.0168201
685.958	0.0165886
686.036	0.0166210
686.114	0.0167551
686.192	0.0167694
686.271	0.0166407
686.349	0.0166958
686.427	0.0166249
686.505	0.0166272
686.583	0.0167165
686.661	0.0167514
686.739	0.0166257
686.817	0.0166496
686.896	0.0165902
686.974	0.0166416
687.052	0.0166822
687.130	0.0166415
687.208	0.0166714
687.286	0.0165298
687.364	0.0165939
687.442	0.0165049
687.521	0.0165669
687.599	0.0166798
687.677	0.0166608
687.755	0.0166360
687.833	0.0166263
687.911	0.0165308
687.989	0.0164825
688.067	0.0166776
688.146	0.0167357
688.224	0.0165838
688.302	0.0165211
688.380	0.0164815
688.458	0.0167050
688.536	0.0165597
688.614	0.0166104
688.692	0.0164951
688.771	0.0165185
688.849	0.0166348
688.927	0.0166560
689.005	0.0165380
689.083	0.0165151
689.161	0.0166447
689.239	0.0165153
689.317	0.0165990
689.396	0.0164455
689.474	0.0166116
689.552	0.0164815
689.630	0.0163879
689.708	0.0164244
689.786	0.0165936
689.864	0.0167078
689.942	0.0166192
690.021	0.0165115
690.099	0.0164574
690.177	0.0164432
690.255	0.0165877
690.333	0.0164838
690.411	0.0164668
690.489	0.0165586
690.567	0.0165843
690.646	0.0166077
690.724	0.0165071
690.802	0.0164741
690.880	0.0165486
690.958	0.0163717
691.036	0.0163081
691.114	0.0165492
691.192	0.0166305
691.271	0.0165752
691.349	0.0164463
691.427	0.0165112
691.505	0.0163696
691.583	0.0165810
691.661	0.0164352
691.739	0.0162986
691.817	0.0164418
691.896	0.0164986
691.974	0.0165797
692.052	0.0163990
692.130	0.0163157
692.208	0.0164955
692.286	0.0164111
692.364	0.0163660
692.442	0.0164976
692.521	0.0164998
692.599	0.0165874
692.677	0.0164798
692.755	0.0164433
692.833	0.0165096
692.911	0.0165925
692.989	0.0164495
693.067	0.0165463
693.146	0.0164771
693.224	0.0164545
693.302	0.0162950
693.380	0.0162891
693.458	0.0164169
693.536	0.0165968
693.614	0.0164851
693.692	0.0164771
693.771	0.0164561
693.849	0.0164735
693.927	0.0163977
694.005	0.0164711
694.083	0.0165102
694.161	0.0165956
694.239	0.0164523
694.317	0.0164478
694.396	0.0164406
694.474	0.0164911
694.552	0.0165080
694.630	0.0164803
694.708	0.0166158
694.786	0.0164552
694.864	0.0164690
694.942	0.0165372
695.021	0.0164542
695.099	0.0164819
695.177	0.0165642
695.255	0.0165978
695.333	0.0165384
695.411	0.0165718
695.489	0.0166473
695.567	0.0164686
695.646	0.0166570
695.724	0.0165848
695.802	0.0165511
695.880	0.0164714
695.958	0.0164832
696.036	0.0165134
696.114	0.0165210
696.192	0.0165010
696.271	0.0166689
696.349	0.0165967
696.427	0.0166733
696.505	0.0165320
696.583	0.0166183
696.661	0.0166275
696.739	0.0165948
696.817	0.0165708
696.896	0.0164654
696.974	0.0164991
697.052	0.0166204
697.130	0.0163258
697.208	0.0162941
697.286	0.0162666
697.364	0.0162930
697.442	0.0162180
697.521	0.0161714
697.599	0.0162408
697.677	0.0163786
697.755	0.0165193
697.833	0.0166856
697.911	0.0166948
697.989	0.0168636
698.067	0.0170178
698.146	0.0173640
698.224	0.0174786
698.302	0.0175200
698.380	0.0174285
698.458	0.0175604
698.536	0.0173830
698.614	0.0173058
698.692	0.0168970
698.771	0.0164943
698.849	0.0161513
698.927	0.0156408
699.005	0.0151877
699.083	0.0147724
699.161	0.0142957
699.239	0.0140665
699.317	0.0139600
699.396	0.0142183
699.474	0.0143137
699.552	0.0151105
699.630	0.0157088
699.708	0.0166994
699.786	0.0177835
699.864	0.0188767
699.942	0.0197227
700.021	0.0205743
700.099	0.0210745
700.177	0.0213483
700.255	0.0214401
700.333	0.0209836
700.411	0.0203539
700.489	0.0193962
700.567	0.0181513
700.646	0.0170014
700.724	0.0156014
700.802	0.0142551
700.880	0.0129178
700.958	0.0118488
701.036	0.0112433
701.114	0.0108460
701.192	0.0110552
701.271	0.0113564
701.349	0.0119041
701.427	0.0128853
701.505	0.0141271
701.583	0.0155120
701.661	0.0165951
701.739	0.0180346
701.817	0.0192078
701.896	0.0202665
701.974	0.0209439
702.052	0.0214725
702.130	0.0216434
702.208	0.0212768
702.286	0.0207548
702.364	0.0199448
702.442	0.0189303
702.521	0.0179961
702.599	0.0171052
702.677	0.0159870
702.755	0.0149042
702.833	0.0142162
702.911	0.0137061
702.989	0.0133653
703.067	0.0131342
703.146	0.0131447
703.224	0.0133595
703.302	0.0135706
703.380	0.0140645
703.458	0.0145840
703.536	0.0151513
703.614	0.0157169
703.692	0.0161697
703.771	0.0168298
703.849	0.0173731
703.927	0.0176814
704.005	0.0182268
704.083	0.0185834
704.161	0.0188868
704.239	0.0188709
704.317	0.0188122
704.396	0.0188296
704.474	0.0184875
704.552	0.0182227
704.630	0.0177354
704.708	0.0172907
704.786	0.0166724
704.864	0.0162652
704.942	0.0158143
705.021	0.0156721
705.099	0.0153281
705.177	0.0151096
705.255	0.0150474
705.333	0.0152151
705.411	0.0153986
705.489	0.0155739
705.567	0.0158442
705.646	0.0160681
705.724	0.0162853
705.802	0.0162928
705.880	0.0165119
705.958	0.0165451
706.036	0.0165558
706.114	0.0163965
706.192	0.0162486
706.271	0.0161114
706.349	0.0158447
706.427	0.0156878
706.505	0.0155901
706.583	0.0154236
706.661	0.0152913
706.739	0.0151818
706.817	0.0152443
706.896	0.0154462
706.974	0.0156303
707.052	0.0158511
707.130	0.0161171
707.208	0.0164910
707.286	0.0168958
707.364	0.0172847
707.442	0.0175563
707.521	0.0182092
707.599	0.0184582
707.677	0.0186794
707.755	0.0189701
707.833	0.0190894
707.911	0.0192381
707.989	0.0192044
708.067	0.0190274
708.146	0.0189613
708.224	0.0185076
708.302	0.0182463
708.380	0.0176988
708.458	0.0172714
708.536	0.0168015
708.614	0.0162157
708.692	0.0157497
708.771	0.0152922
708.849	0.0149273
708.927	0.0147165
709.005	0.0143073
709.083	0.0140958
709.161	0.0141396
709.239	0.0141814
709.317	0.0139568
709.396	0.0142889
709.474	0.0144601
709.552	0.0145843
709.630	0.0149946
709.708	0.0150794
709.786	0.0153867
709.864	0.0157566
709.942	0.0161997
710.021	0.0164896
710.099	0.0166226
710.177	0.0168252
710.255	0.0170649
710.333	0.0172054
710.411	0.0175147
710.489	0.0175549
710.567	0.0176637
710.646	0.0177401
710.724	0.0175767
710.802	0.0174030
710.880	0.0174860
710.958	0.0174670
711.036	0.0172425
711.114	0.0170157
711.192	0.0168617
711.271	0.0168574
711.349	0.0167770
711.427	0.0167780
711.505	0.0166910
711.583	0.0166698
711.661	0.0165958
711.739	0.0167198
711.817	0.0168045
711.896	0.0167276
711.974	0.0169413
712.052	0.0170399
712.130	0.0172028
712.208	0.0172311
712.286	0.0171967
712.364	0.0171960
712.442	0.0173203
712.521	0.0173666
712.599	0.0172945
712.677	0.0172182
712.755	0.0170153
712.833	0.0168834
712.911	0.0166882
712.989	0.0165207
713.067	0.0163472
713.146	0.0161165
713.224	0.0160354
713.302	0.0158398
713.380	0.0157877
713.458	0.0155953
713.536	0.0155313
713.614	0.0156647
713.692	0.0155206
713.771	0.0155856
713.849	0.0155942
713.927	0.0157587
714.005	0.0158743
714.083	0.0157562
714.161	0.0160432
714.239	0.0162170
714.317	0.0161736
714.396	0.0162160
714.474	0.0163776
714.552	0.0164927
714.630	0.0165242
714.708	0.0167736
714.786	0.0168777
714.864	0.0170905
714.942	0.0172425
715.021	0.0174001
715.099	0.0176363
715.177	0.0176840
715.255	0.0178169
715.333	0.0179880
715.411	0.0177779
715.489	0.0178464
715.567	0.0176248
715.646	0.0175925
715.724	0.0174060
715.802	0.0171289
715.880	0.0171452
715.958	0.0166943
716.036	0.0163063
716.114	0.0160025
716.192	0.0158323
716.271	0.0155777
716.349	0.0152957
716.427	0.0152544
716.505	0.0154382
716.583	0.0153855
716.661	0.0152933
716.739	0.0153844
716.817	0.0155228
716.896	0.0156036
716.974	0.0157890
717.052	0.0157225
717.130	0.0159038
717.208	0.0160381
717.286	0.0160868
717.364	0.0163627
717.442	0.0164758
717.521	0.0164390
717.599	0.0163584
717.677	0.0164101
717.755	0.0166080
717.833	0.0165059
717.911	0.0165718
717.989	0.0167894
718.067	0.0165362
718.146	0.0166902
718.224	0.0168128
718.302	0.0169070
718.380	0.0169912
718.458	0.0168765
718.536	0.0170835
718.614	0.0171166
718.692	0.0171499
718.771	0.0172378
718.849	0.0172365
718.927	0.0172645
719.005	0.0173731
719.083	0.0173273
719.161	0.0170972
719.239	0.0171411
719.317	0.0170157
719.396	0.0168889
719.474	0.0165360
719.552	0.0162101
719.630	0.0161121
719.708	0.0158818
719.786	0.0157677
719.864	0.0155392
719.942	0.0155428
720.021	0.0153619
720.099	0.0154144
720.177	0.0156007
720.255	0.0156693
720.333	0.0156843
720.411	0.0161115
720.489	0.0163436
720.567	0.0164369
720.646	0.0167507
720.724	0.0169006
720.802	0.0171413
720.880	0.0170869
720.958	0.0172913
721.036	0.0172282
721.114	0.0170789
721.192	0.0170022
721.271	0.0168362
721.349	0.0167895
721.427	0.0165167
721.505	0.0164298
721.583	0.0162055
721.661	0.0160310
721.739	0.0161053
721.817	0.0160062
721.896	0.0158962
721.974	0.0157297
722.052	0.0158651
722.130	0.0159585
722.208	0.0161225
722.286	0.0160670
722.364	0.0162798
722.442	0.0165672
722.521	0.0165540
722.599	0.0166001
722.677	0.0166895
722.755	0.0167419
722.833	0.0167087
722.911	0.0169235
722.989	0.0168491
723.067	0.0166731
723.146	0.0167732
723.224	0.0168477
723.302	0.0168264
723.380	0.0166821
723.458	0.0165457
723.536	0.0164394
723.614	0.0166114
723.692	0.0166031
723.771	0.0166774
723.849	0.0166834
723.927	0.0167884
724.005	0.0168839
724.083	0.0169419
724.161	0.0171959
724.239	0.0172898
724.317	0.0172626
724.396	0.0173618
724.474	0.0174373
724.552	0.0173065
724.630	0.0172294
724.708	0.0174163
724.786	0.0169944
724.864	0.0169894
724.942	0.0167387
725.021	0.0166664
725.099	0.0164702
725.177	0.0161127
725.255	0.0160206
725.333	0.0158709
725.411	0.0158560
725.489	0.0159765
725.567	0.0159679
725.646	0.0160072
725.724	0.0161683
725.802	0.0163139
725.880	0.0164577
725.958	0.0166882
726.036	0.0169312
726.114	0.0167956
726.192	0.0169335
726.271	0.0170026
726.349	0.0169650
726.427	0.0168044
726.505	0.0168000
726.583	0.0166270
726.661	0.0165070
726.739	0.0161840
726.817	0.0160798
726.896	0.0159117
726.974	0.0156969
727.052	0.0155061
727.130	0.0151740
727.208	0.0153738
727.286	0.0152840
727.364	0.0153590
727.442	0.0154394
727.521	0.0156112
727.599	0.0157617
727.677	0.0159605
727.755	0.0161189
727.833	0.0164031
727.911	0.0165449
727.989	0.0169244
728.067	0.0168173
728.146	0.0169526
728.224	0.0172019
728.302	0.0171207
728.380	0.0170726
728.458	0.0170896
728.536	0.0170314
728.614	0.0169846
728.692	0.0170404
728.771	0.0170210
728.849	0.0168307
728.927	0.0169379
729.005	0.0168634
729.083	0.0166895
729.161	0.0168792
729.239	0.0168724
729.317	0.0169056
729.396	0.0169275
729.474	0.0169993
729.552	0.0169051
729.630	0.0170515
729.708	0.0169662
729.786	0.0170083
729.864	0.0168045
729.942	0.0168295
730.021	0.0167928
730.099	0.0168340
730.177	0.0167448
730.255	0.0165766
730.333	0.0165923
730.411	0.0165594
730.489	0.0164439
730.567	0.0162884
730.646	0.0162893
730.724	0.0160908
730.802	0.0160954
730.880	0.0161971
730.958	0.0162030
731.036	0.0162539
731.114	0.0164365
731.192	0.0164677
731.271	0.0163192
731.349	0.0165565
731.427	0.0166021
731.505	0.0165525
731.583	0.0166392
731.661	0.0165598
731.739	0.0165650
731.817	0.0167228
731.896	0.0164523
731.974	0.0163729
732.052	0.0163221
732.130	0.0163947
732.208	0.0160851
732.286	0.0160522
732.364	0.0159528
732.442	0.0159029
732.521	0.0159044
732.599	0.0158987
732.677	0.0160333
732.755	0.0160567
732.833	0.0161804
732.911	0.0162162
732.989	0.0164291
733.067	0.0164915
733.146	0.0166620
733.224	0.0168015
733.302	0.0168404
733.380	0.0168231
733.458	0.0168004
733.536	0.0170193
733.614	0.0170022
733.692	0.0168679
733.771	0.0169456
733.849	0.0168836
733.927	0.0169064
734.005	0.0168690
734.083	0.0169470
734.161	0.0168672
734.239	0.0169331
734.317	0.0169646
734.396	0.0168744
734.474	0.0168767
734.552	0.0169398
734.630	0.0167635
734.708	0.0169961
734.786	0.0170166
734.864	0.0169646
734.942	0.0168808
735.021	0.0170091
735.099	0.0168881
735.177	0.0170126
735.255	0.0169109
735.333	0.0167019
735.411	0.0167859
735.489	0.0167128
735.567	0.0167121
735.646	0.0165879
735.724	0.0164996
735.802	0.0163806
735.880	0.0162373
735.958	0.0162280
736.036	0.0162561
736.114	0.0161629
736.192	0.0162056
736.271	0.0160340
736.349	0.0160197
736.427	0.0162167
736.505	0.0163811
736.583	0.0162373
736.661	0.0162179
736.739	0.0164738
736.817	0.0166151
736.896	0.0165465
736.974	0.0165430
737.052	0.0166595
737.130	0.0167933
737.208	0.0166246
737.286	0.0166142
737.364	0.0166266
737.442	0.0164130
737.521	0.0164438
737.599	0.0162873
737.677	0.0163004
737.755	0.0162033
737.833	0.0161557
737.911	0.0160561
737.989	0.0161674
738.067	0.0162052
738.146	0.0162242
738.224	0.0162203
738.302	0.0163699
738.380	0.0165587
738.458	0.0165632
738.536	0.0167168
738.614	0.0167297
738.692	0.0167175
738.771	0.0169128
738.849	0.0168587
738.927	0.0170189
739.005	0.0171183
739.083	0.0171810
739.161	0.0170187
739.239	0.0170527
739.317	0.0170149
739.396	0.0170852
739.474	0.0169083
739.552	0.0168657
739.630	0.0168689
739.708	0.0169002
739.786	0.0166547
739.864	0.0167620
739.942	0.0166211
740.021	0.0166784
740.099	0.0168452
740.177	0.0166283
740.255	0.0166513
740.333	0.0167327
740.411	0.0167659
740.489	0.0167313
740.567	0.0167520
740.646	0.0166612
740.724	0.0165315
740.802	0.0165900
740.880	0.0164573
740.958	0.0164897
741.036	0.0163274
741.114	0.0163447
741.192	0.0162672
741.271	0.0159197
741.349	0.0160292
741.427	0.0159481
741.505	0.0159827
741.583	0.0157899
741.661	0.0158138
741.739	0.0159132
741.817	0.0159021
741.896	0.0160561
741.974	0.0161903
742.052	0.0163072
742.130	0.0164285
742.208	0.0164165
742.286	0.0165800
742.364	0.0167486
742.442	0.0168238
742.521	0.0169154
742.599	0.0168751
742.677	0.0169295
742.755	0.0167633
742.833	0.0167682
742.911	0.0167702
742.989	0.0166875
743.067	0.0165156
743.146	0.0165319
743.224	0.0164051
743.302	0.0164571
743.380	0.0164501
743.458	0.0164319
743.536	0.0162877
743.614	0.0163302
743.692	0.0164030
743.771	0.0163268
743.849	0.0162797
743.927	0.0164287
744.005	0.0164855
744.083	0.0165575
744.161	0.0164138
744.239	0.0163594
744.317	0.0164841
744.396	0.0165587
744.474	0.0165406
744.552	0.0166695
744.630	0.0166602
744.708	0.0166759
744.786	0.0166113
744.864	0.0164230
744.942	0.0166158
745.021	0.0167480
745.099	0.0166465
745.177	0.0164893
745.255	0.0165231
745.333	0.0165565
745.411	0.0165623
745.489	0.0164703
745.567	0.0165450
745.646	0.0163797
745.724	0.0164247
745.802	0.0165733
745.880	0.0163902
745.958	0.0165902
746.036	0.0165800
746.114	0.0165144
746.192	0.0164648
746.271	0.0166303
746.349	0.0165672
746.427	0.0166969
746.505	0.0167456
746.583	0.0165481
746.661	0.0166096
746.739	0.0164524
746.817	0.0164017
746.896	0.0164573
746.974	0.0165268
747.052	0.0164900
747.130	0.0163973
747.208	0.0164772
747.286	0.0165889
747.364	0.0165583
747.442	0.0165241
747.521	0.0167109
747.599	0.0166759
747.677	0.0165851
747.755	0.0166678
747.833	0.0169041
747.911	0.0169353
747.989	0.0167687
748.067	0.0166460
748.146	0.0167004
748.224	0.0166858
748.302	0.0165642
748.380	0.0165400
748.458	0.0162498
748.536	0.0162805
748.614	0.0162179
748.692	0.0162796
748.771	0.0160407
748.849	0.0160557
748.927	0.0161654
749.005	0.0159875
749.083	0.0160341
749.161	0.0160950
749.239	0.0160608
749.317	0.0160688
749.396	0.0160915
749.474	0.0161386
749.552	0.0160721
749.630	0.0161445
749.708	0.0165200
749.786	0.0164141
749.864	0.0164848
749.942	0.0164683
750.021	0.0165739
750.099	0.0165813
750.177	0.0165240
750.255	0.0164983
750.333	0.0168103
750.411	0.0167629
750.489	0.0167002
750.567	0.0166761
750.646	0.0167946
750.724	0.0167190
750.802	0.0167418
750.880	0.0168455
750.958	0.0168179
751.036	0.0168858
751.114	0.0169297
751.192	0.0169382
751.271	0.0171078
751.349	0.0169243
751.427	0.0170759
751.505	0.0171262
751.583	0.0170175
751.661	0.0170070
751.739	0.0169382
751.817	0.0168420
751.896	0.0166828
751.974	0.0167174
752.052	0.0167394
752.130	0.0164422
752.208	0.0162757
752.286	0.0163420
752.364	0.0162734
752.442	0.0162138
752.521	0.0162797
752.599	0.0162397
752.677	0.0162788
752.755	0.0163235
752.833	0.0161658
752.911	0.0163622
752.989	0.0163365
753.067	0.0163979
753.146	0.0163626
753.224	0.0163641
753.302	0.0164294
753.380	0.0163656
753.458	0.0165678
753.536	0.0163951
753.614	0.0163223
753.692	0.0164440
753.771	0.0166464
753.849	0.0165224
753.927	0.0164491
754.005	0.0166589
754.083	0.0168165
754.161	0.0167053
754.239	0.0167706
754.317	0.0168382
754.396	0.0168671
754.474	0.0168602
754.552	0.0169379
754.630	0.0169853
754.708	0.0169240
754.786	0.0168602
754.864	0.0168311
754.942	0.0167406
755.021	0.0165617
755.099	0.0166158
755.177	0.0165147
755.255	0.0164295
755.333	0.0163765
755.411	0.0163263
755.489	0.0162900
755.567	0.0163413
755.646	0.0162260
755.724	0.0161979
755.802	0.0163496
755.880	0.0162376
755.958	0.0162707
756.036	0.0164100
756.114	0.0163534
756.192	0.0164242
756.271	0.0163586
756.349	0.0164697
756.427	0.0166230
756.505	0.0165886
756.583	0.0165568
756.661	0.0165704
756.739	0.0166170
756.817	0.0167188
756.896	0.0166710
756.974	0.0167965
757.052	0.0167728
757.130	0.0166856
757.208	0.0166748
757.286	0.0166165
757.364	0.0167221
757.442	0.0165358
757.521	0.0166000
757.599	0.0166235
757.677	0.0164530
757.755	0.0165091
757.833	0.0165179
757.911	0.0164952
757.989	0.0165089
758.067	0.0165813
758.146	0.0165495
758.224	0.0165999
758.302	0.0164549
758.380	0.0164141
758.458	0.0163447
758.536	0.0164006
758.614	0.0164836
758.692	0.0164819
758.771	0.0163457
758.849	0.0163497
758.927	0.0165757
759.005	0.0163410
759.083	0.0163736
759.161	0.0163634
759.239	0.0163807
759.317	0.0164052
759.396	0.0164146
759.474	0.0164386
759.552	0.0164675
759.630	0.0164803
759.708	0.0163438
759.786	0.0163914
759.864	0.0165086
759.942	0.0166564
760.021	0.0165689
760.099	0.0165812
760.177	0.0168282
760.255	0.0167496
760.333	0.0167731
760.411	0.0168336
760.489	0.0167882
760.567	0.0167481
760.646	0.0168367
760.724	0.0168845
760.802	0.0169010
760.880	0.0169893
760.958	0.0167059
761.036	0.0168430
761.114	0.0167335
761.192	0.0167503
761.271	0.0166237
761.349	0.0165282
761.427	0.0164736
761.505	0.0164309
761.583	0.0166247
761.661	0.0164908
761.739	0.0164095
761.817	0.0163545
761.896	0.0163981
761.974	0.0164409
762.052	0.0164452
762.130	0.0164490
762.208	0.0165549
762.286	0.0165814
762.364	0.0165623
762.442	0.0164257
762.521	0.0165850
762.599	0.0166011
762.677	0.0165236
762.755	0.0165089
762.833	0.0165926
762.911	0.0165459
762.989	0.0165551
763.067	0.0164582
763.146	0.0165572
763.224	0.0165495
763.302	0.0165047
763.380	0.0166605
763.458	0.0165594
763.536	0.0165078
763.614	0.0165842
763.692	0.0166971
763.771	0.0167406
763.849	0.0168160
763.927	0.0169009
764.005	0.0167799
764.083	0.0168325
764.161	0.0168243
764.239	0.0167782
764.317	0.0168684
764.396	0.0167502
764.474	0.0166721
764.552	0.0167504
764.630	0.0166392
764.708	0.0166682
764.786	0.0164303
764.864	0.0165226
764.942	0.0165358
765.021	0.0163498
765.099	0.0164877
765.177	0.0163996
765.255	0.0164494
765.333	0.0164896
765.411	0.0162911
765.489	0.0163198
765.567	0.0165028
765.646	0.0165709
765.724	0.0163966
765.802	0.0164556
765.880	0.0164053
765.958	0.0164273
766.036	0.0163268
766.114	0.0162617
766.192	0.0162744
766.271	0.0163251
766.349	0.0163759
766.427	0.0162125
766.505	0.0161999
766.583	0.0161588
766.661	0.0161870
766.739	0.0162659
766.817	0.0163355
766.896	0.0163487
766.974	0.0164254
767.052	0.0165443
767.130	0.0165187
767.208	0.0165609
767.286	0.0166421
767.364	0.0167473
767.442	0.0167072
767.521	0.0168318
767.599	0.0167403
767.677	0.0167503
767.755	0.0169490
767.833	0.0168659
767.911	0.0167149
767.989	0.0166820
768.067	0.0167003
768.146	0.0165410
768.224	0.0166176
768.302	0.0164893
768.380	0.0164916
768.458	0.0164992
768.536	0.0165074
768.614	0.0165145
768.692	0.0164122
768.771	0.0163432
768.849	0.0163502
768.927	0.0163978
769.005	0.0164173
769.083	0.0164833
769.161	0.0163879
769.239	0.0164019
769.317	0.0163473
769.396	0.0163442
769.474	0.0163692
769.552	0.0162694
769.630	0.0164168
769.708	0.0165252
769.786	0.0164984
769.864	0.0165724
769.942	0.0165768
770.021	0.0166187
770.099	0.0166647
770.177	0.0166131
770.255	0.0166331
770.333	0.0166716
770.411	0.0166570
770.489	0.0165160
770.567	0.0165411
770.646	0.0168012
770.724	0.0167843
770.802	0.0167278
770.880	0.0166176
770.958	0.0166665
771.036	0.0165671
771.114	0.0166631
771.192	0.0165631
771.271	0.0165079
771.349	0.0164548
771.427	0.0162966
771.505	0.0164276
771.583	0.0163998
771.661	0.0163042
771.739	0.0163280
771.817	0.0163313
771.896	0.0162956
771.974	0.0162231
772.052	0.0161223
772.130	0.0161716
772.208	0.0163425
772.286	0.0160892
772.364	0.0161647
772.442	0.0163479
772.521	0.0164030
772.599	0.0163538
772.677	0.0164803
772.755	0.0164673
772.833	0.0165446
772.911	0.0166563
772.989	0.0167560
773.067	0.0166508
773.146	0.0166907
773.224	0.0167899
773.302	0.0168346
773.380	0.0167608
773.458	0.0166872
773.536	0.0166361
773.614	0.0167300
773.692	0.0167667
773.771	0.0165794
773.849	0.0166634
773.927	0.0165987
774.005	0.0164565
774.083	0.0165952
774.161	0.0165652
774.239	0.0164967
774.317	0.0166161
774.396	0.0164916
774.474	0.0163285
774.552	0.0164270
774.630	0.0163852
774.708	0.0164540
774.786	0.0162887
774.864	0.0163154
774.942	0.0164218
775.021	0.0163602
775.099	0.0163607
775.177	0.0162539
775.255	0.0162524
775.333	0.0162531
775.411	0.0165128
775.489	0.0163132
775.567	0.0162424
775.646	0.0163666
775.724	0.0164191
775.802	0.0166399
775.880	0.0166770
775.958	0.0165472
776.036	0.0166004
776.114	0.0166759
776.192	0.0167586
776.271	0.0167269
776.349	0.0166695
776.427	0.0168580
776.505	0.0168273
776.583	0.0167630
776.661	0.0166823
776.739	0.0167775
776.817	0.0165653
776.896	0.0165722
776.974	0.0164344
777.052	0.0164474
777.130	0.0164484
777.208	0.0162543
777.286	0.0163369
777.364	0.0164127
777.442	0.0163565
777.521	0.0164127
777.599	0.0162331
777.677	0.0162955
777.755	0.0163683
777.833	0.0163963
777.911	0.0164790
777.989	0.0164511
778.067	0.0165135
778.146	0.0165601
778.224	0.0165128
778.302	0.0165578
778.380	0.0165943
778.458	0.0166027
778.536	0.0165522
778.614	0.0164934
778.692	0.0165938
778.771	0.0166166
778.849	0.0166518
778.927	0.0166423
779.005	0.0164899
779.083	0.0163982
779.161	0.0164208
779.239	0.0165564
779.317	0.0165722
779.396	0.0165392
779.474	0.0164768
779.552	0.0165435
779.630	0.0167125
779.708	0.0166508
779.786	0.0164815
779.864	0.0166175
779.942	0.0165677
780.021	0.0166227
780.099	0.0166269
780.177	0.0164599
780.255	0.0164437
780.333	0.0165701
780.411	0.0165730
780.489	0.0165338
780.567	0.0166025
780.646	0.0166632
780.724	0.0164664
780.802	0.0165137
780.880	0.0164837
780.958	0.0166503
781.036	0.0164498
781.114	0.0164516
781.192	0.0165214
781.271	0.0164350
781.349	0.0165450
781.427	0.0163638
781.505	0.0165246
781.583	0.0164610
781.661	0.0164774
781.739	0.0164709
781.817	0.0164310
781.896	0.0163636
781.974	0.0163763
782.052	0.0163602
782.130	0.0163883
782.208	0.0164028
782.286	0.0164690
782.364	0.0164520
782.442	0.0163678
782.521	0.0164127
782.599	0.0164349
782.677	0.0164521
782.755	0.0166043
782.833	0.0163719
782.911	0.0165191
782.989	0.0164666
783.067	0.0164517
783.146	0.0164923
783.224	0.0164764
783.302	0.0165237
783.380	0.0165446
783.458	0.0164902
783.536	0.0164983
783.614	0.0165854
783.692	0.0166955
783.771	0.0165728
783.849	0.0166131
783.927	0.0166680
784.005	0.0165662
784.083	0.0167594
784.161	0.0167070
784.239	0.0168562
784.317	0.0167152
784.396	0.0168100
784.474	0.0168096
784.552	0.0167301
784.630	0.0166433
784.708	0.0167339
784.786	0.0168601
784.864	0.0166464
784.942	0.0166203
785.021	0.0165327
785.099	0.0164317
785.177	0.0164917
785.255	0.0164471
785.333	0.0163733
785.411	0.0163700
785.489	0.0163413
785.567	0.0163187
785.646	0.0161988
785.724	0.0162750
785.802	0.0163275
785.880	0.0162340
785.958	0.0164280
786.036	0.0164434
786.114	0.0165583
786.192	0.0165086
786.271	0.0166011
786.349	0.0165921
786.427	0.0166331
786.505	0.0167958
786.583	0.0167799
786.661	0.0167838
786.739	0.0168124
786.817	0.0168488
786.896	0.0167087
786.974	0.0168620
787.052	0.0168202
787.130	0.0168925
787.208	0.0167901
787.286	0.0165486
787.364	0.0166180
787.442	0.0165983
787.521	0.0166409
787.599	0.0166154
787.677	0.0165417
787.755	0.0164087
787.833	0.0163011
787.911	0.0163565
787.989	0.0164137
788.067	0.0163426
788.146	0.0163033
788.224	0.0162062
788.302	0.0163318
788.380	0.0164196
788.458	0.0163890
788.536	0.0163902
788.614	0.0162550
788.692	0.0163630
788.771	0.0163279
788.849	0.0163524
788.927	0.0163858
789.005	0.0164763
789.083	0.0164048
789.161	0.0164124
789.239	0.0162740
789.317	0.0165465
789.396	0.0163722
789.474	0.0165112
789.552	0.0165511
789.630	0.0163679
789.708	0.0163842
789.786	0.0165527
789.864	0.0167035
789.942	0.0167569
790.021	0.0166383
790.099	0.0166742
790.177	0.0165798
790.255	0.0165045
790.333	0.0165886
790.411	0.0166573
790.489	0.0165961
790.567	0.0165650
790.646	0.0166338
790.724	0.0166189
790.802	0.0166576
790.880	0.0166682
790.958	0.0165946
791.036	0.0167033
791.114	0.0165946
791.192	0.0166399
791.271	0.0166117
791.349	0.0164056
791.427	0.0167672
791.505	0.0167239
791.583	0.0167116
791.661	0.0166459
791.739	0.0166196
791.817	0.0166083
791.896	0.0166412
791.974	0.0165312
792.052	0.0165535
792.130	0.0165589
792.208	0.0165031
792.286	0.0165894
792.364	0.0165666
792.442	0.0164792
792.521	0.0165730
792.599	0.0165405
792.677	0.0164600
792.755	0.0166209
792.833	0.0165929
792.911	0.0166325
792.989	0.0165905
793.067	0.0164383
793.146	0.0164860
793.224	0.0165645
793.302	0.0166400
793.380	0.0166270
793.458	0.0164297
793.536	0.0165697
793.614	0.0165464
793.692	0.0165467
793.771	0.0165530
793.849	0.0163696
793.927	0.0165264
794.005	0.0166327
794.083	0.0166419
794.161	0.0166130
794.239	0.0164303
794.317	0.0166495
794.396	0.0166915
794.474	0.0165824
794.552	0.0167004
794.630	0.0166080
794.708	0.0166321
794.786	0.0165573
794.864	0.0164582
794.942	0.0163513
795.021	0.0166004
795.099	0.0164114
795.177	0.0166233
795.255	0.0165268
795.333	0.0164842
795.411	0.0165034
795.489	0.0164352
795.567	0.0164369
795.646	0.0163931
795.724	0.0163509
795.802	0.0163873
795.880	0.0163502
795.958	0.0164198
796.036	0.0166689
796.114	0.0164767
796.192	0.0166381
796.271	0.0166020
796.349	0.0165661
796.427	0.0165665
796.505	0.0166958
796.583	0.0165501
796.661	0.0165879
796.739	0.0166956
796.817	0.0167234
796.896	0.0164960
796.974	0.0164701
797.052	0.0165015
797.130	0.0165762
797.208	0.0165757
797.286	0.0164306
797.364	0.0166106
797.442	0.0165395
797.521	0.0164568
797.599	0.0165462
797.677	0.0165388
797.755	0.0165411
797.833	0.0165962
797.911	0.0166418
797.989	0.0165682
798.067	0.0167444
798.146	0.0166094
798.224	0.0164643
798.302	0.0165902
798.380	0.0165903
798.458	0.0165859
798.536	0.0165019
798.614	0.0165260
798.692	0.0164542
798.771	0.0163444
798.849	0.0163464
798.927	0.0163070
799.005	0.0162844
799.083	0.0163796
799.161	0.0163088
799.239	0.0165119
799.317	0.0164773
799.396	0.0163374
799.474	0.0164436
799.552	0.0164493
799.630	0.0165697
799.708	0.0165395
799.786	0.0166269
799.864	0.0164594
799.942	0.0165302
800.021	0.0166638
800.099	0.0166148
800.177	0.0165885
800.255	0.0165769
800.333	0.0165433
800.411	0.0164893
800.489	0.0165762
800.567	0.0164388
800.646	0.0165241
800.724	0.0165433
800.802	0.0163962
800.880	0.0163888
800.958	0.0163812
801.036	0.0163283
801.114	0.0163325
801.192	0.0163308
801.271	0.0163433
801.349	0.0162606
801.427	0.0164649
801.505	0.0163548
801.583	0.0164043
801.661	0.0164927
801.739	0.0164907
801.817	0.0165882
801.896	0.0164297
801.974	0.0165266
802.052	0.0165560
802.130	0.0167473
802.208	0.0163873
802.286	0.0163588
802.364	0.0165488
802.442	0.0164036
802.521	0.0163080
802.599	0.0164491
802.677	0.0162225
802.755	0.0162868
802.833	0.0162697
802.911	0.0161447
802.989	0.0163145
803.067	0.0163490
803.146	0.0163169
803.224	0.0163992
803.302	0.0163963
803.380	0.0165765
803.458	0.0166273
803.536	0.0165901
803.614	0.0165327
803.692	0.0166087
803.771	0.0167258
803.849	0.0168411
803.927	0.0167599
804.005	0.0169044
804.083	0.0167194
804.161	0.0168636
804.239	0.0169737
804.317	0.0169240
804.396	0.0168001
804.474	0.0168473
804.552	0.0166164
804.630	0.0167345
804.708	0.0166939
804.786	0.0165378
804.864	0.0166595
804.942	0.0166327
805.021	0.0165627
805.099	0.0167134
805.177	0.0165393
805.255	0.0166299
805.333	0.0165768
805.411	0.0165997
805.489	0.0165594
805.567	0.0167564
805.646	0.0166873
805.724	0.0164841
805.802	0.0166483
805.880	0.0166277
805.958	0.0165728
806.036	0.0165910
806.114	0.0167313
806.192	0.0165211
806.271	0.0165440
806.349	0.0164780
806.427	0.0164352
806.505	0.0164109
806.583	0.0165137
806.661	0.0164738
806.739	0.0163638
806.817	0.0162735
806.896	0.0163427
806.974	0.0162281
807.052	0.0163692
807.130	0.0162589
807.208	0.0162388
807.286	0.0161768
807.364	0.0163539
807.442	0.0162587
807.521	0.0164169
807.599	0.0165485
807.677	0.0165405
807.755	0.0166364
807.833	0.0166787
807.911	0.0166277
807.989	0.0167540
808.067	0.0168447
808.146	0.0168420
808.224	0.0169077
808.302	0.0169596
808.380	0.0169361
808.458	0.0169998
808.536	0.0169626
808.614	0.0169763
808.692	0.0168147
808.771	0.0168011
808.849	0.0168014
808.927	0.0168286
809.005	0.0168483
809.083	0.0167532
809.161	0.0167266
809.239	0.0166084
809.317	0.0166273
809.396	0.0164584
809.474	0.0164293
809.552	0.0164761
809.630	0.0164540
809.708	0.0163892
809.786	0.0164391
809.864	0.0163271
809.942	0.0163150
810.021	0.0164100
810.099	0.0163280
810.177	0.0164825
810.255	0.0164643
810.333	0.0163204
810.411	0.0164310
810.489	0.0164436
810.567	0.0163404
810.646	0.0162798
810.724	0.0163678
810.802	0.0164902
810.880	0.0163734
810.958	0.0163793
811.036	0.0164300
811.114	0.0165153
811.192	0.0164136
811.271	0.0163374
811.349	0.0163443
811.427	0.0163743
811.505	0.0163887
811.583	0.0165451
811.661	0.0165578
811.739	0.0164933
811.817	0.0163887
811.896	0.0164930
811.974	0.0165355
812.052	0.0165590
812.130	0.0166689
812.208	0.0166795
812.286	0.0166035
812.364	0.0166172
812.442	0.0166947
812.521	0.0166470
812.599	0.0168418
812.677	0.0167555
812.755	0.0166119
812.833	0.0168011
812.911	0.0167393
812.989	0.0165815
813.067	0.0165412
813.146	0.0166745
813.224	0.0164674
813.302	0.0164136
813.380	0.0165062
813.458	0.0165495
813.536	0.0167112
813.614	0.0165139
813.692	0.0164196
813.771	0.0163920
813.849	0.0164768
813.927	0.0165006
814.005	0.0164532
814.083	0.0164254
814.161	0.0164421
814.239	0.0165575
814.317	0.0165672
814.396	0.0164311
814.474	0.0166807
814.552	0.0165321
814.630	0.0164479
814.708	0.0166747
814.786	0.0165312
814.864	0.0166394
814.942	0.0166599
815.021	0.0166936
815.099	0.0166526
815.177	0.0167904
815.255	0.0166426
815.333	0.0167083
815.411	0.0166729
815.489	0.0167115
815.567	0.0165765
815.646	0.0165764
815.724	0.0165225
815.802	0.0164842
815.880	0.0165714
815.958	0.0164413
816.036	0.0164113
816.114	0.0165102
816.192	0.0164896
816.271	0.0164198
816.349	0.0164371
816.427	0.0164175
816.505	0.0165994
816.583	0.0166663
816.661	0.0165672
816.739	0.0165160
816.817	0.0166110
816.896	0.0165630
816.974	0.0166505
817.052	0.0166421
817.130	0.0165585
817.208	0.0167120
817.286	0.0166302
817.364	0.0166434
817.442	0.0165366
817.521	0.0165965
817.599	0.0163567
817.677	0.0167003
817.755	0.0165006
817.833	0.0164117
817.911	0.0165251
817.989	0.0163976
818.067	0.0164116
818.146	0.0163650
818.224	0.0162806
818.302	0.0163821
818.380	0.0163553
818.458	0.0163087
818.536	0.0163081
818.614	0.0163268
818.692	0.0163498
818.771	0.0162222
818.849	0.0162475
818.927	0.0163138
819.005	0.0163880
819.083	0.0164632
819.161	0.0163882
819.239	0.0164954
819.317	0.0166335
819.396	0.0165743
819.474	0.0164052
819.552	0.0164682
819.630	0.0165371
819.708	0.0167007
819.786	0.0166186
819.864	0.0166911
819.942	0.0166451
820.021	0.0164616
820.099	0.0164323
820.177	0.0165515
820.255	0.0166552
820.333	0.0166252
820.411	0.0166837
820.489	0.0164722
820.567	0.0166256
820.646	0.0165807
820.724	0.0165294
820.802	0.0166449
820.880	0.0166119
820.958	0.0166196
821.036	0.0164622
821.114	0.0166898
821.192	0.0165874
821.271	0.0163850
821.349	0.0164643
821.427	0.0164703
821.505	0.0165458
821.583	0.0165767
821.661	0.0164420
821.739	0.0164425
821.817	0.0165266
821.896	0.0164140
821.974	0.0165591
822.052	0.0167043
822.130	0.0166409
822.208	0.0165141
822.286	0.0166358
822.364	0.0166926
822.442	0.0167123
822.521	0.0167792
822.599	0.0167328
822.677	0.0167834
822.755	0.0166486
822.833	0.0166734
822.911	0.0166074
822.989	0.0166605
823.067	0.0165748
823.146	0.0164761
823.224	0.0165552
823.302	0.0164053
823.380	0.0163852
823.458	0.0162900
823.536	0.0163094
823.614	0.0162878
823.692	0.0160764
823.771	0.0161214
823.849	0.0162825
823.927	0.0162857
824.005	0.0161945
824.083	0.0162260
824.161	0.0162128
824.239	0.0164787
824.317	0.0165138
824.396	0.0164189
824.474	0.0164406
824.552	0.0164838
824.630	0.0164497
824.708	0.0165075
824.786	0.0166167
824.864	0.0165047
824.942	0.0165649
825.021	0.0165309
825.099	0.0164411
825.177	0.0164832
825.255	0.0166574
825.333	0.0166644
825.411	0.0166505
825.489	0.0166719
825.567	0.0166135
825.646	0.0166016
825.724	0.0166084
825.802	0.0165102
825.880	0.0163395
825.958	0.0164767
826.036	0.0165775
826.114	0.0165899
826.192	0.0164005
826.271	0.0165572
826.349	0.0165329
826.427	0.0164515
826.505	0.0165118
826.583	0.0164343
826.661	0.0165504
826.739	0.0164431
826.817	0.0165134
826.896	0.0166733
826.974	0.0166125
827.052	0.0166906
827.130	0.0167371
827.208	0.0167088
827.286	0.0165408
827.364	0.0164312
827.442	0.0166534
827.521	0.0166003
827.599	0.0166603
827.677	0.0166342
827.755	0.0167408
827.833	0.0165182
827.911	0.0163756
827.989	0.0164162
828.067	0.0164224
828.146	0.0164032
828.224	0.0163935
828.302	0.0162471
828.380	0.0163833
828.458	0.0162920
828.536	0.0163461
828.614	0.0162914
828.692	0.0163210
828.771	0.0162284
828.849	0.0162421
828.927	0.0163100
829.005	0.0162215
829.083	0.0164169
829.161	0.0164146
829.239	0.0163124
829.317	0.0165839
829.396	0.0165355
829.474	0.0165003
829.552	0.0164301
829.630	0.0164818
829.708	0.0164042
829.786	0.0166246
829.864	0.0164549
829.942	0.0165137
830.021	0.0163326
830.099	0.0165110
830.177	0.0166573
830.255	0.0166154
830.333	0.0166595
830.411	0.0165562
830.489	0.0166032
830.567	0.0167289
830.646	0.0166878
830.724	0.0166193
830.802	0.0167345
830.880	0.0167880
830.958	0.0166943
831.036	0.0168023
831.114	0.0166525
831.192	0.0167739
831.271	0.0165650
831.349	0.0167587
831.427	0.0166531
831.505	0.0166145
831.583	0.0165627
831.661	0.0166594
831.739	0.0165859
831.817	0.0165894
831.896	0.0166202
831.974	0.0164086
832.052	0.0165613
832.130	0.0165949
832.208	0.0165323
832.286	0.0164941
832.364	0.0165362
832.442	0.0165088
832.521	0.0164821
832.599	0.0165672
832.677	0.0165782
832.755	0.0164262
832.833	0.0163394
832.911	0.0163265
832.989	0.0163419
833.067	0.0161382
833.146	0.0163219
833.224	0.0163864
833.302	0.0163620
833.380	0.0164437
833.458	0.0163576
833.536	0.0163679
833.614	0.0164457
833.692	0.0163875
833.771	0.0163479
833.849	0.0165365
833.927	0.0164030
834.005	0.0164369
834.083	0.0163773
834.161	0.0166261
834.239	0.0166062
834.317	0.0167485
834.396	0.0166237
834.474	0.0166175
834.552	0.0165932
834.630	0.0166960
834.708	0.0168246
834.786	0.0167416
834.864	0.0167389
834.942	0.0167198
835.021	0.0166974
835.099	0.0166505
835.177	0.0167676
835.255	0.0167323
835.333	0.0166599
835.411	0.0167439
835.489	0.0167212
835.567	0.0165967
835.646	0.0166338
835.724	0.0166799
835.802	0.0166601
835.880	0.0164864
835.958	0.0166238
836.036	0.0165426
836.114	0.0164539
836.192	0.0164851
836.271	0.0163867
836.349	0.0163878
836.427	0.0163591
836.505	0.0164513
836.583	0.0164228
836.661	0.0163380
836.739	0.0163652
836.817	0.0164420
836.896	0.0163326
836.974	0.0163766
837.052	0.0163100
837.130	0.0163755
837.208	0.0164335
837.286	0.0164069
837.364	0.0164098
837.442	0.0164186
837.521	0.0164853
837.599	0.0164928
837.677	0.0165569
837.755	0.0167252
837.833	0.0166099
837.911	0.0167432
837.989	0.0166324
838.067	0.0168181
838.146	0.0168187
838.224	0.0167831
838.302	0.0167007
838.380	0.0167532
838.458	0.0166669
838.536	0.0167763
838.614	0.0166254
838.692	0.0167316
838.771	0.0167155
838.849	0.0166502
838.927	0.0166939
839.005	0.0167603
839.083	0.0166552
839.161	0.0166567
839.239	0.0167224
839.317	0.0165887
839.396	0.0164771
839.474	0.0165517
839.552	0.0166537
839.630	0.0166151
839.708	0.0164970
839.786	0.0164557
839.864	0.0165973
839.942	0.0166527
840.021	0.0165516
840.099	0.0163602
840.177	0.0164944
840.255	0.0164340
840.333	0.0163715
840.411	0.0164280
840.489	0.0164867
840.567	0.0162941
840.646	0.0163147
840.724	0.0162964
840.802	0.0164603
840.880	0.0164308
840.958	0.0164123
841.036	0.0162503
841.114	0.0164037
841.192	0.0162373
841.271	0.0164355
841.349	0.0165594
841.427	0.0164712
841.505	0.0164346
841.583	0.0166039
841.661	0.0166047
841.739	0.0166528
841.817	0.0165009
841.896	0.0167239
841.974	0.0166489
842.052	0.0167394
842.130	0.0168040
842.208	0.0166229
842.286	0.0167620
842.364	0.0166422
842.442	0.0167721
842.521	0.0168620
842.599	0.0167847
842.677	0.0167962
842.755	0.0166624
842.833	0.0166955
842.911	0.0168497
842.989	0.0166988
843.067	0.0166335
843.146	0.0166164
843.224	0.0166826
843.302	0.0166546
843.380	0.0165582
843.458	0.0167444
843.536	0.0168201
843.614	0.0167412
843.692	0.0167516
843.771	0.0167801
843.849	0.0167154
843.927	0.0165647
844.005	0.0165704
844.083	0.0164236
844.161	0.0165970
844.239	0.0165803
844.317	0.0163870
844.396	0.0163348
844.474	0.0163712
844.552	0.0163470
844.630	0.0162518
844.708	0.0162477
844.786	0.0161862
844.864	0.0162204
844.942	0.0161431
845.021	0.0163264
845.099	0.0161790
845.177	0.0163334
845.255	0.0164146
845.333	0.0164441
845.411	0.0165999
845.489	0.0166042
845.567	0.0164433
845.646	0.0165891
845.724	0.0165905
845.802	0.0165305
845.880	0.0165997
845.958	0.0166394
846.036	0.0166900
846.114	0.0167008
846.192	0.0166252
846.271	0.0165456
846.349	0.0166316
846.427	0.0165926
846.505	0.0165053
846.583	0.0166005
846.661	0.0165340
846.739	0.0164189
846.817	0.0164700
846.896	0.0165993
846.974	0.0165773
847.052	0.0163544
847.130	0.0164799
847.208	0.0165799
847.286	0.0165640
847.364	0.0165816
847.442	0.0165623
847.521	0.0167825
847.599	0.0166626
847.677	0.0167017
847.755	0.0164847
847.833	0.0165994
847.911	0.0166570
847.989	0.0165356
848.067	0.0165866
848.146	0.0165368
848.224	0.0164644
848.302	0.0166103
848.380	0.0166064
848.458	0.0165966
848.536	0.0166862
848.614	0.0166374
848.692	0.0164948
848.771	0.0164681
848.849	0.0164987
848.927	0.0166848
849.005	0.0166922
849.083	0.0165983
849.161	0.0167226
849.239	0.0166674
849.317	0.0164956
849.396	0.0165050
849.474	0.0165177
849.552	0.0164120
849.630	0.0166314
849.708	0.0163496
849.786	0.0165491
849.864	0.0163963
849.942	0.0163483
850.021	0.0163321
850.099	0.0164469
850.177	0.0164737
850.255	0.0164186
850.333	0.0163250
850.411	0.0164004
850.489	0.0165046
850.567	0.0164972
850.646	0.0163737
850.724	0.0164407
850.802	0.0165077
850.880	0.0163757
850.958	0.0165919
851.036	0.0166440
851.114	0.0164917
851.192	0.0166748
851.271	0.0164708
851.349	0.0164661
851.427	0.0165532
851.505	0.0165453
851.583	0.0164520
851.661	0.0164607
851.739	0.0163866
851.817	0.0165231
851.896	0.0165079
851.974	0.0164534
852.052	0.0163358
852.130	0.0163742
852.208	0.0164598
852.286	0.0163911
852.364	0.0164187
852.442	0.0166222
852.521	0.0165066
852.599	0.0165144
852.677	0.0165176
852.755	0.0165196
852.833	0.0166416
852.911	0.0166150
852.989	0.0166713
853.067	0.0167712
853.146	0.0166014
853.224	0.0165492
853.302	0.0165079
853.380	0.0165510
853.458	0.0165964
853.536	0.0167379
853.614	0.0165514
853.692	0.0166519
853.771	0.0165908
853.849	0.0166053
853.927	0.0166360
854.005	0.0167295
854.083	0.0166151
854.161	0.0165154
854.239	0.0164252
854.317	0.0164140
854.396	0.0165365
854.474	0.0164616
854.552	0.0165891
854.630	0.0164053
854.708	0.0166299
854.786	0.0165846
854.864	0.0164766
854.942	0.0164687
855.021	0.0166225
855.099	0.0167078
855.177	0.0165717
855.255	0.0165094
855.333	0.0166542
855.411	0.0166705
855.489	0.0166477
855.567	0.0166499
855.646	0.0166344
855.724	0.0166906
855.802	0.0166631
855.880	0.0167158
855.958	0.0166345
856.036	0.0165673
856.114	0.0166093
856.192	0.0166639
856.271	0.0168397
856.349	0.0165739
856.427	0.0166624
856.505	0.0166975
856.583	0.0168494
856.661	0.0168284
856.739	0.0167346
856.817	0.0166991
856.896	0.0167558
856.974	0.0167715
857.052	0.0166324
857.130	0.0166594
857.208	0.0167556
857.286	0.0165253
857.364	0.0165149
857.442	0.0165303
857.521	0.0164758
857.599	0.0163357
857.677	0.0163216
857.755	0.0164300
857.833	0.0163661
857.911	0.0164330
857.989	0.0164999
858.067	0.0164816
858.146	0.0163791
858.224	0.0164353
858.302	0.0164150
858.380	0.0164558
858.458	0.0165175
858.536	0.0163937
858.614	0.0164581
858.692	0.0164777
858.771	0.0166958
858.849	0.0166064
858.927	0.0165743
859.005	0.0166428
859.083	0.0166752
859.161	0.0166773
859.239	0.0164507
859.317	0.0164532
859.396	0.0165630
859.474	0.0166029
859.552	0.0166251
859.630	0.0165736
859.708	0.0166106
859.786	0.0165559
859.864	0.0165689
859.942	0.0164716
860.021	0.0165233
860.099	0.0165529
860.177	0.0165337
860.255	0.0164451
860.333	0.0164983
860.411	0.0164080
860.489	0.0165517
860.567	0.0165285
860.646	0.0165134
860.724	0.0165617
860.802	0.0165152
860.880	0.0165700
860.958	0.0166162
861.036	0.0165486
861.114	0.0166848
861.192	0.0166740
861.271	0.0167157
861.349	0.0165358
861.427	0.0166949
861.505	0.0165682
861.583	0.0165937
861.661	0.0166798
861.739	0.0165255
861.817	0.0165598
861.896	0.0166844
861.974	0.0166202
862.052	0.0166094
862.130	0.0165956
862.208	0.0165244
862.286	0.0166542
862.364	0.0166053
862.442	0.0163879
862.521	0.0164993
862.599	0.0164383
862.677	0.0165313
862.755	0.0163485
862.833	0.0165756
862.911	0.0163717
862.989	0.0162211
863.067	0.0163992
863.146	0.0165694
863.224	0.0165002
863.302	0.0164621
863.380	0.0163821
863.458	0.0165139
863.536	0.0164597
863.614	0.0165566
863.692	0.0165462
863.771	0.0166113
863.849	0.0165109
863.927	0.0165430
864.005	0.0167419
864.083	0.0166756
864.161	0.0165007
864.239	0.0166093
864.317	0.0166940
864.396	0.0167908
864.474	0.0164858
864.552	0.0164113
864.630	0.0165434
864.708	0.0165521
864.786	0.0165781
864.864	0.0164642
864.942	0.0163797
865.021	0.0164918
865.099	0.0163046
865.177	0.0164184
865.255	0.0164282
865.333	0.0165183
865.411	0.0165001
865.489	0.0163857
865.567	0.0165218
865.646	0.0164207
865.724	0.0164050
865.802	0.0165909
865.880	0.0165033
865.958	0.0164687
866.036	0.0164542
866.114	0.0165396
866.192	0.0165250
866.271	0.0164828
866.349	0.0166853
866.427	0.0166462
866.505	0.0165379
866.583	0.0165482
866.661	0.0165481
866.739	0.0165113
866.817	0.0166707
866.896	0.0165395
866.974	0.0166077
867.052	0.0166168
867.130	0.0165398
867.208	0.0165930
867.286	0.0165870
867.364	0.0167010
867.442	0.0167574
867.521	0.0167369
867.599	0.0167287
867.677	0.0167686
867.755	0.0167435
867.833	0.0167469
867.911	0.0167924
867.989	0.0166888
868.067	0.0167229
868.146	0.0166102
868.224	0.0166490
868.302	0.0165260
868.380	0.0164922
868.458	0.0164963
868.536	0.0163733
868.614	0.0164397
868.692	0.0163538
868.771	0.0164830
868.849	0.0164337
868.927	0.0164137
869.005	0.0163603
869.083	0.0164454
869.161	0.0165285
869.239	0.0164700
869.317	0.0163685
869.396	0.0163963
869.474	0.0164740
869.552	0.0163849
869.630	0.0165205
869.708	0.0164508
869.786	0.0164349
869.864	0.0165543
869.942	0.0164387
