06/03/2022	16:15:33	Ver.	4.1	UNKNOWN
Optical Delay	569.994326	Delta X		0.078125	Sweeps	1	Scan Rate	0/0
Coordinates	Axis 1	NaN	Axis 2	NaN	Axis 3	NaN	Axis 4	NaN	Axis 5	NaN	Axis 6	0.000000
TX Power	0.000000	RX Power	0.000000

569.994	0.0164343
570.072	0.0168180
570.151	0.0168134
570.229	0.0169653
570.307	0.0169981
570.385	0.0170608
570.463	0.0169998
570.541	0.0169013
570.619	0.0170921
570.697	0.0170947
570.776	0.0170478
570.854	0.0169402
570.932	0.0169219
571.010	0.0169992
571.088	0.0170457
571.166	0.0168414
571.244	0.0167751
571.322	0.0167288
571.401	0.0168713
571.479	0.0167310
571.557	0.0168707
571.635	0.0168925
571.713	0.0169071
571.791	0.0170222
571.869	0.0169952
571.947	0.0170206
572.026	0.0169044
572.104	0.0169588
572.182	0.0168310
572.260	0.0167533
572.338	0.0167258
572.416	0.0166302
572.494	0.0165231
572.572	0.0164192
572.651	0.0163136
572.729	0.0163557
572.807	0.0163631
572.885	0.0161893
572.963	0.0161594
573.041	0.0161110
573.119	0.0160954
573.197	0.0161389
573.276	0.0158767
573.354	0.0161562
573.432	0.0161245
573.510	0.0159204
573.588	0.0160543
573.666	0.0163222
573.744	0.0160915
573.822	0.0162011
573.901	0.0161581
573.979	0.0162348
574.057	0.0163161
574.135	0.0161770
574.213	0.0162010
574.291	0.0160902
574.369	0.0160364
574.447	0.0159791
574.526	0.0159303
574.604	0.0159021
574.682	0.0158837
574.760	0.0157990
574.838	0.0157165
574.916	0.0157996
574.994	0.0156934
575.072	0.0157853
575.151	0.0158604
575.229	0.0157503
575.307	0.0155074
575.385	0.0156255
575.463	0.0159453
575.541	0.0159550
575.619	0.0158826
575.697	0.0158721
575.776	0.0159108
575.854	0.0160526
575.932	0.0160570
576.010	0.0160368
576.088	0.0162791
576.166	0.0162549
576.244	0.0163793
576.322	0.0163280
576.401	0.0164616
576.479	0.0163990
576.557	0.0164288
576.635	0.0163885
576.713	0.0165798
576.791	0.0166099
576.869	0.0167432
576.947	0.0168610
577.026	0.0167096
577.104	0.0166209
577.182	0.0167072
577.260	0.0169236
577.338	0.0167625
577.416	0.0168717
577.494	0.0167818
577.572	0.0167957
577.651	0.0168472
577.729	0.0167390
577.807	0.0166171
577.885	0.0166397
577.963	0.0168289
578.041	0.0167950
578.119	0.0167389
578.197	0.0166283
578.276	0.0166075
578.354	0.0166927
578.432	0.0165360
578.510	0.0165496
578.588	0.0163928
578.666	0.0163567
578.744	0.0165073
578.822	0.0163544
578.901	0.0163814
578.979	0.0163622
579.057	0.0164639
579.135	0.0165845
579.213	0.0164784
579.291	0.0164537
579.369	0.0165861
579.447	0.0165295
579.526	0.0165468
579.604	0.0166069
579.682	0.0166103
579.760	0.0167197
579.838	0.0166866
579.916	0.0167583
579.994	0.0165997
580.072	0.0166868
580.151	0.0168198
580.229	0.0167682
580.307	0.0167463
580.385	0.0169533
580.463	0.0167742
580.541	0.0167740
580.619	0.0168613
580.697	0.0168800
580.776	0.0171851
580.854	0.0171152
580.932	0.0170996
581.010	0.0171879
581.088	0.0173492
581.166	0.0173256
581.244	0.0171589
581.322	0.0172195
581.401	0.0174872
581.479	0.0172620
581.557	0.0174246
581.635	0.0173610
581.713	0.0174731
581.791	0.0175404
581.869	0.0174375
581.947	0.0173601
582.026	0.0174954
582.104	0.0174429
582.182	0.0173701
582.260	0.0173871
582.338	0.0173315
582.416	0.0172684
582.494	0.0172578
582.572	0.0173295
582.651	0.0172244
582.729	0.0172137
582.807	0.0172029
582.885	0.0171316
582.963	0.0172250
583.041	0.0173383
583.119	0.0171348
583.197	0.0171406
583.276	0.0171870
583.354	0.0172060
583.432	0.0171540
583.510	0.0173731
583.588	0.0172559
583.666	0.0170982
583.744	0.0172147
583.822	0.0171060
583.901	0.0171239
583.979	0.0171404
584.057	0.0168945
584.135	0.0168691
584.213	0.0168390
584.291	0.0167985
584.369	0.0167661
584.447	0.0167387
584.526	0.0166348
584.604	0.0165952
584.682	0.0163856
584.760	0.0166850
584.838	0.0165182
584.916	0.0165759
584.994	0.0165186
585.072	0.0165421
585.151	0.0164503
585.229	0.0164755
585.307	0.0166373
585.385	0.0165830
585.463	0.0164552
585.541	0.0166308
585.619	0.0165220
585.697	0.0165057
585.776	0.0165639
585.854	0.0163086
585.932	0.0165076
586.010	0.0164130
586.088	0.0164073
586.166	0.0162455
586.244	0.0163258
586.322	0.0163360
586.401	0.0162512
586.479	0.0160778
586.557	0.0162179
586.635	0.0162632
586.713	0.0163036
586.791	0.0163640
586.869	0.0163876
586.947	0.0161160
587.026	0.0162807
587.104	0.0162807
587.182	0.0162428
587.260	0.0162804
587.338	0.0162437
587.416	0.0162722
587.494	0.0162218
587.572	0.0162478
587.651	0.0162479
587.729	0.0161970
587.807	0.0161994
587.885	0.0161523
587.963	0.0161233
588.041	0.0161564
588.119	0.0162880
588.197	0.0161395
588.276	0.0161514
588.354	0.0162630
588.432	0.0162503
588.510	0.0161929
588.588	0.0161575
588.666	0.0162326
588.744	0.0161148
588.822	0.0162211
588.901	0.0163389
588.979	0.0161971
589.057	0.0162656
589.135	0.0161755
589.213	0.0162395
589.291	0.0162217
589.369	0.0160760
589.447	0.0161585
589.526	0.0161859
589.604	0.0164029
589.682	0.0161803
589.760	0.0161732
589.838	0.0161774
589.916	0.0162845
589.994	0.0162887
590.072	0.0162599
590.151	0.0163161
590.229	0.0161207
590.307	0.0163769
590.385	0.0164133
590.463	0.0164553
590.541	0.0165607
590.619	0.0163418
590.697	0.0164360
590.776	0.0163895
590.854	0.0165853
590.932	0.0164995
591.010	0.0165308
591.088	0.0165895
591.166	0.0165881
591.244	0.0166400
591.322	0.0167451
591.401	0.0168700
591.479	0.0168381
591.557	0.0166788
591.635	0.0166449
591.713	0.0168591
591.791	0.0169646
591.869	0.0169609
591.947	0.0168799
592.026	0.0168943
592.104	0.0170342
592.182	0.0173575
592.260	0.0171349
592.338	0.0170205
592.416	0.0170479
592.494	0.0171308
592.572	0.0172298
592.651	0.0171390
592.729	0.0171906
592.807	0.0172536
592.885	0.0170593
592.963	0.0170477
593.041	0.0171564
593.119	0.0172606
593.197	0.0170104
593.276	0.0169920
593.354	0.0168380
593.432	0.0171018
593.510	0.0169038
593.588	0.0170204
593.666	0.0169224
593.744	0.0168661
593.822	0.0169540
593.901	0.0168327
593.979	0.0169440
594.057	0.0169253
594.135	0.0169068
594.213	0.0169822
594.291	0.0169329
594.369	0.0168800
594.447	0.0170319
594.526	0.0169637
594.604	0.0169756
594.682	0.0169399
594.760	0.0168473
594.838	0.0168812
594.916	0.0167728
594.994	0.0168297
595.072	0.0169193
595.151	0.0168526
595.229	0.0167856
595.307	0.0168784
595.385	0.0167930
595.463	0.0167883
595.541	0.0168139
595.619	0.0167176
595.697	0.0166959
595.776	0.0167519
595.854	0.0166845
595.932	0.0166789
596.010	0.0165897
596.088	0.0167845
596.166	0.0167338
596.244	0.0166456
596.322	0.0167090
596.401	0.0165702
596.479	0.0165707
596.557	0.0166413
596.635	0.0165038
596.713	0.0164155
596.791	0.0164810
596.869	0.0164880
596.947	0.0164371
597.026	0.0163319
597.104	0.0163949
597.182	0.0164371
597.260	0.0163267
597.338	0.0163673
597.416	0.0163104
597.494	0.0161378
597.572	0.0161182
597.651	0.0161266
597.729	0.0160600
597.807	0.0160239
597.885	0.0160168
597.963	0.0160619
598.041	0.0160958
598.119	0.0160905
598.197	0.0159741
598.276	0.0159294
598.354	0.0159241
598.432	0.0160068
598.510	0.0159653
598.588	0.0159959
598.666	0.0160278
598.744	0.0159726
598.822	0.0159273
598.901	0.0159858
598.979	0.0161562
599.057	0.0162043
599.135	0.0160112
599.213	0.0161316
599.291	0.0161644
599.369	0.0160090
599.447	0.0160822
599.526	0.0160427
599.604	0.0161716
599.682	0.0162733
599.760	0.0162640
599.838	0.0162041
599.916	0.0162296
599.994	0.0162037
600.072	0.0163184
600.151	0.0162418
600.229	0.0162385
600.307	0.0163606
600.385	0.0162386
600.463	0.0161952
600.541	0.0163178
600.619	0.0162072
600.697	0.0163581
600.776	0.0162908
600.854	0.0161374
600.932	0.0163112
601.010	0.0162660
601.088	0.0163428
601.166	0.0163762
601.244	0.0162222
601.322	0.0162258
601.401	0.0162701
601.479	0.0162334
601.557	0.0161556
601.635	0.0162563
601.713	0.0163841
601.791	0.0163737
601.869	0.0162296
601.947	0.0163752
602.026	0.0164366
602.104	0.0164970
602.182	0.0165566
602.260	0.0165695
602.338	0.0164894
602.416	0.0164693
602.494	0.0165874
602.572	0.0166334
602.651	0.0167395
602.729	0.0165212
602.807	0.0166262
602.885	0.0166872
602.963	0.0168286
603.041	0.0167270
603.119	0.0168660
603.197	0.0168100
603.276	0.0167580
603.354	0.0168356
603.432	0.0168298
603.510	0.0168580
603.588	0.0168280
603.666	0.0168939
603.744	0.0167707
603.822	0.0168889
603.901	0.0168982
603.979	0.0170397
604.057	0.0169030
604.135	0.0170104
604.213	0.0171416
604.291	0.0169547
604.369	0.0171349
604.447	0.0171031
604.526	0.0170254
604.604	0.0171828
604.682	0.0172614
604.760	0.0171899
604.838	0.0172220
604.916	0.0171297
604.994	0.0171735
605.072	0.0172900
605.151	0.0172756
605.229	0.0171783
605.307	0.0170479
605.385	0.0170286
605.463	0.0171950
605.541	0.0170068
605.619	0.0170044
605.697	0.0170116
605.776	0.0169865
605.854	0.0169531
605.932	0.0167854
606.010	0.0169327
606.088	0.0169270
606.166	0.0168341
606.244	0.0168713
606.322	0.0168776
606.401	0.0167861
606.479	0.0168642
606.557	0.0167546
606.635	0.0167522
606.713	0.0168189
606.791	0.0166329
606.869	0.0167336
606.947	0.0165845
607.026	0.0166178
607.104	0.0166960
607.182	0.0166574
607.260	0.0166421
607.338	0.0166776
607.416	0.0166331
607.494	0.0165451
607.572	0.0166260
607.651	0.0166234
607.729	0.0166019
607.807	0.0165752
607.885	0.0166097
607.963	0.0165855
608.041	0.0166089
608.119	0.0166639
608.197	0.0165639
608.276	0.0166228
608.354	0.0165652
608.432	0.0166227
608.510	0.0166455
608.588	0.0166857
608.666	0.0165658
608.744	0.0166303
608.822	0.0165520
608.901	0.0165065
608.979	0.0165829
609.057	0.0165753
609.135	0.0165021
609.213	0.0165089
609.291	0.0165202
609.369	0.0164240
609.447	0.0162939
609.526	0.0165285
609.604	0.0164835
609.682	0.0163641
609.760	0.0164401
609.838	0.0165797
609.916	0.0162971
609.994	0.0162833
610.072	0.0163616
610.151	0.0164158
610.229	0.0163303
610.307	0.0163870
610.385	0.0163300
610.463	0.0164300
610.541	0.0162851
610.619	0.0162326
610.697	0.0163811
610.776	0.0164594
610.854	0.0163097
610.932	0.0164223
611.010	0.0164369
611.088	0.0163504
611.166	0.0164457
611.244	0.0163482
611.322	0.0163858
611.401	0.0163832
611.479	0.0165154
611.557	0.0163737
611.635	0.0164254
611.713	0.0164576
611.791	0.0164778
611.869	0.0165014
611.947	0.0165878
612.026	0.0164835
612.104	0.0164772
612.182	0.0166862
612.260	0.0166629
612.338	0.0166149
612.416	0.0165682
612.494	0.0166013
612.572	0.0167526
612.651	0.0167681
612.729	0.0166991
612.807	0.0167924
612.885	0.0166319
612.963	0.0168037
613.041	0.0169701
613.119	0.0167877
613.197	0.0168272
613.276	0.0168162
613.354	0.0166995
613.432	0.0168125
613.510	0.0168018
613.588	0.0167712
613.666	0.0167686
613.744	0.0167866
613.822	0.0167754
613.901	0.0168716
613.979	0.0168162
614.057	0.0166239
614.135	0.0167953
614.213	0.0169806
614.291	0.0168256
614.369	0.0167476
614.447	0.0168196
614.526	0.0167540
614.604	0.0168714
614.682	0.0168828
614.760	0.0167828
614.838	0.0168090
614.916	0.0170309
614.994	0.0168996
615.072	0.0168961
615.151	0.0169370
615.229	0.0167834
615.307	0.0167779
615.385	0.0168195
615.463	0.0169579
615.541	0.0168040
615.619	0.0167077
615.697	0.0167354
615.776	0.0169501
615.854	0.0168631
615.932	0.0168258
616.010	0.0166866
616.088	0.0168035
616.166	0.0167866
616.244	0.0166023
616.322	0.0166300
616.401	0.0165585
616.479	0.0166750
616.557	0.0165710
616.635	0.0167342
616.713	0.0166457
616.791	0.0166628
616.869	0.0166032
616.947	0.0166956
617.026	0.0165296
617.104	0.0165565
617.182	0.0166387
617.260	0.0163992
617.338	0.0165869
617.416	0.0166248
617.494	0.0165810
617.572	0.0166904
617.651	0.0166052
617.729	0.0164420
617.807	0.0164519
617.885	0.0165359
617.963	0.0166118
618.041	0.0165031
618.119	0.0165769
618.197	0.0165099
618.276	0.0164407
618.354	0.0165176
618.432	0.0165292
618.510	0.0164993
618.588	0.0165662
618.666	0.0164076
618.744	0.0164026
618.822	0.0165091
618.901	0.0164966
618.979	0.0164712
619.057	0.0164266
619.135	0.0164297
619.213	0.0164853
619.291	0.0166621
619.369	0.0163641
619.447	0.0164955
619.526	0.0164919
619.604	0.0166044
619.682	0.0164136
619.760	0.0164893
619.838	0.0166246
619.916	0.0164375
619.994	0.0165102
620.072	0.0166576
620.151	0.0164810
620.229	0.0165663
620.307	0.0165154
620.385	0.0164830
620.463	0.0165580
620.541	0.0166780
620.619	0.0166236
620.697	0.0165866
620.776	0.0165205
620.854	0.0166865
620.932	0.0167247
621.010	0.0166132
621.088	0.0166470
621.166	0.0167636
621.244	0.0167319
621.322	0.0167636
621.401	0.0167436
621.479	0.0166692
621.557	0.0168212
621.635	0.0169010
621.713	0.0167366
621.791	0.0167829
621.869	0.0166546
621.947	0.0167669
622.026	0.0167464
622.104	0.0168216
622.182	0.0168954
622.260	0.0168796
622.338	0.0167624
622.416	0.0167542
622.494	0.0167333
622.572	0.0168712
622.651	0.0167498
622.729	0.0168706
622.807	0.0168182
622.885	0.0167284
622.963	0.0167848
623.041	0.0167413
623.119	0.0168500
623.197	0.0168569
623.276	0.0167807
623.354	0.0167705
623.432	0.0169010
623.510	0.0169283
623.588	0.0168353
623.666	0.0168224
623.744	0.0167438
623.822	0.0167497
623.901	0.0168470
623.979	0.0168010
624.057	0.0166575
624.135	0.0166866
624.213	0.0167569
624.291	0.0167702
624.369	0.0168547
624.447	0.0167467
624.526	0.0166264
624.604	0.0166740
624.682	0.0166562
624.760	0.0166858
624.838	0.0167119
624.916	0.0166673
624.994	0.0166250
625.072	0.0164112
625.151	0.0165406
625.229	0.0164906
625.307	0.0165373
625.385	0.0165670
625.463	0.0166299
625.541	0.0164790
625.619	0.0164343
625.697	0.0163854
625.776	0.0165130
625.854	0.0165274
625.932	0.0164486
626.010	0.0161887
626.088	0.0162468
626.166	0.0163336
626.244	0.0162064
626.322	0.0163317
626.401	0.0162543
626.479	0.0162127
626.557	0.0161719
626.635	0.0162767
626.713	0.0162743
626.791	0.0163728
626.869	0.0163357
626.947	0.0163627
627.026	0.0163628
627.104	0.0164185
627.182	0.0163136
627.260	0.0162643
627.338	0.0163087
627.416	0.0163990
627.494	0.0165893
627.572	0.0163846
627.651	0.0163177
627.729	0.0165324
627.807	0.0163727
627.885	0.0164800
627.963	0.0164578
628.041	0.0165068
628.119	0.0164522
628.197	0.0165039
628.276	0.0165375
628.354	0.0166376
628.432	0.0163715
628.510	0.0165428
628.588	0.0166566
628.666	0.0165515
628.744	0.0166385
628.822	0.0166675
628.901	0.0166850
628.979	0.0165942
629.057	0.0164980
629.135	0.0166174
629.213	0.0166414
629.291	0.0165974
629.369	0.0165592
629.447	0.0166432
629.526	0.0167392
629.604	0.0166779
629.682	0.0166807
629.760	0.0168972
629.838	0.0167002
629.916	0.0166826
629.994	0.0167696
630.072	0.0169362
630.151	0.0167322
630.229	0.0168574
630.307	0.0169221
630.385	0.0168185
630.463	0.0168185
630.541	0.0170528
630.619	0.0168343
630.697	0.0168383
630.776	0.0168060
630.854	0.0169781
630.932	0.0167757
631.010	0.0168527
631.088	0.0168850
631.166	0.0166951
631.244	0.0167580
631.322	0.0168909
631.401	0.0167622
631.479	0.0167143
631.557	0.0168530
631.635	0.0168867
631.713	0.0168628
631.791	0.0167736
631.869	0.0168946
631.947	0.0168746
632.026	0.0168633
632.104	0.0168514
632.182	0.0168454
632.260	0.0168040
632.338	0.0168620
632.416	0.0168726
632.494	0.0169145
632.572	0.0167499
632.651	0.0168427
632.729	0.0168843
632.807	0.0167074
632.885	0.0167410
632.963	0.0168221
633.041	0.0167971
633.119	0.0167243
633.197	0.0169386
633.276	0.0167277
633.354	0.0168099
633.432	0.0167728
633.510	0.0166871
633.588	0.0167146
633.666	0.0166685
633.744	0.0168015
633.822	0.0167673
633.901	0.0167560
633.979	0.0168008
634.057	0.0167385
634.135	0.0166737
634.213	0.0166853
634.291	0.0167228
634.369	0.0166473
634.447	0.0165694
634.526	0.0166158
634.604	0.0165438
634.682	0.0166369
634.760	0.0166607
634.838	0.0165147
634.916	0.0165555
634.994	0.0165067
635.072	0.0165561
635.151	0.0164688
635.229	0.0165588
635.307	0.0163802
635.385	0.0164037
635.463	0.0165262
635.541	0.0163888
635.619	0.0164520
635.697	0.0164248
635.776	0.0164039
635.854	0.0163652
635.932	0.0165671
636.010	0.0163406
636.088	0.0164115
636.166	0.0165277
636.244	0.0164233
636.322	0.0164450
636.401	0.0164632
636.479	0.0164128
636.557	0.0164191
636.635	0.0166086
636.713	0.0165645
636.791	0.0163383
636.869	0.0164014
636.947	0.0164219
637.026	0.0165602
637.104	0.0164530
637.182	0.0164009
637.260	0.0165485
637.338	0.0164630
637.416	0.0165134
637.494	0.0165619
637.572	0.0166016
637.651	0.0166308
637.729	0.0164640
637.807	0.0165548
637.885	0.0166981
637.963	0.0166665
638.041	0.0165806
638.119	0.0165752
638.197	0.0165393
638.276	0.0167807
638.354	0.0165900
638.432	0.0166364
638.510	0.0166331
638.588	0.0166593
638.666	0.0166204
638.744	0.0167335
638.822	0.0166290
638.901	0.0166923
638.979	0.0166509
639.057	0.0166824
639.135	0.0167442
639.213	0.0166676
639.291	0.0167280
639.369	0.0167006
639.447	0.0166912
639.526	0.0168235
639.604	0.0167369
639.682	0.0166389
639.760	0.0167964
639.838	0.0167773
639.916	0.0168758
639.994	0.0167580
640.072	0.0166759
640.151	0.0168462
640.229	0.0167572
640.307	0.0167142
640.385	0.0166504
640.463	0.0167897
640.541	0.0167612
640.619	0.0165992
640.697	0.0167162
640.776	0.0168406
640.854	0.0166786
640.932	0.0167459
641.010	0.0165218
641.088	0.0166042
641.166	0.0167628
641.244	0.0165867
641.322	0.0166130
641.401	0.0166069
641.479	0.0167160
641.557	0.0167704
641.635	0.0166819
641.713	0.0167401
641.791	0.0166290
641.869	0.0165951
641.947	0.0166482
642.026	0.0166534
642.104	0.0166012
642.182	0.0166924
642.260	0.0167971
642.338	0.0166446
642.416	0.0165710
642.494	0.0166353
642.572	0.0166718
642.651	0.0167162
642.729	0.0166712
642.807	0.0165632
642.885	0.0165775
642.963	0.0165534
643.041	0.0166409
643.119	0.0165604
643.197	0.0166975
643.276	0.0166872
643.354	0.0167525
643.432	0.0164828
643.510	0.0167824
643.588	0.0166792
643.666	0.0167055
643.744	0.0166072
643.822	0.0166781
643.901	0.0166711
643.979	0.0166839
644.057	0.0165507
644.135	0.0165292
644.213	0.0167214
644.291	0.0165501
644.369	0.0166615
644.447	0.0166814
644.526	0.0167287
644.604	0.0166849
644.682	0.0166634
644.760	0.0167522
644.838	0.0166016
644.916	0.0166841
644.994	0.0166389
645.072	0.0166129
645.151	0.0166316
645.229	0.0167597
645.307	0.0165648
645.385	0.0166220
645.463	0.0167282
645.541	0.0165587
645.619	0.0166164
645.697	0.0165662
645.776	0.0165145
645.854	0.0166814
645.932	0.0164702
646.010	0.0165388
646.088	0.0166045
646.166	0.0165374
646.244	0.0164913
646.322	0.0165314
646.401	0.0165436
646.479	0.0164909
646.557	0.0165927
646.635	0.0164738
646.713	0.0164620
646.791	0.0164495
646.869	0.0163850
646.947	0.0164493
647.026	0.0164906
647.104	0.0164139
647.182	0.0164361
647.260	0.0164614
647.338	0.0164722
647.416	0.0165611
647.494	0.0165246
647.572	0.0164066
647.651	0.0165243
647.729	0.0166786
647.807	0.0164328
647.885	0.0167755
647.963	0.0167463
648.041	0.0166364
648.119	0.0167235
648.197	0.0167554
648.276	0.0168872
648.354	0.0169672
648.432	0.0169401
648.510	0.0169964
648.588	0.0167653
648.666	0.0169386
648.744	0.0169704
648.822	0.0169810
648.901	0.0169070
648.979	0.0169032
649.057	0.0170117
649.135	0.0170610
649.213	0.0169492
649.291	0.0168934
649.369	0.0169322
649.447	0.0169739
649.526	0.0169573
649.604	0.0169341
649.682	0.0169288
649.760	0.0169138
649.838	0.0170362
649.916	0.0171262
649.994	0.0170512
650.072	0.0168938
650.151	0.0167834
650.229	0.0169633
650.307	0.0169997
650.385	0.0170107
650.463	0.0170349
650.541	0.0168328
650.619	0.0168156
650.697	0.0169012
650.776	0.0169462
650.854	0.0168444
650.932	0.0167175
651.010	0.0167867
651.088	0.0168546
651.166	0.0167609
651.244	0.0165627
651.322	0.0166847
651.401	0.0165348
651.479	0.0166108
651.557	0.0167220
651.635	0.0167420
651.713	0.0167078
651.791	0.0167496
651.869	0.0167174
651.947	0.0167485
652.026	0.0169041
652.104	0.0168134
652.182	0.0168168
652.260	0.0170096
652.338	0.0170611
652.416	0.0169163
652.494	0.0170093
652.572	0.0169861
652.651	0.0171016
652.729	0.0170373
652.807	0.0170288
652.885	0.0171599
652.963	0.0170098
653.041	0.0169363
653.119	0.0170887
653.197	0.0171539
653.276	0.0169514
653.354	0.0170080
653.432	0.0170898
653.510	0.0168381
653.588	0.0168951
653.666	0.0166840
653.744	0.0168969
653.822	0.0167625
653.901	0.0167751
653.979	0.0166930
654.057	0.0167290
654.135	0.0167140
654.213	0.0166307
654.291	0.0166994
654.369	0.0165780
654.447	0.0167097
654.526	0.0166051
654.604	0.0165498
654.682	0.0165965
654.760	0.0166269
654.838	0.0164668
654.916	0.0166106
654.994	0.0165342
655.072	0.0165687
655.151	0.0166678
655.229	0.0165237
655.307	0.0165560
655.385	0.0165546
655.463	0.0164870
655.541	0.0165372
655.619	0.0165533
655.697	0.0164855
655.776	0.0164352
655.854	0.0166351
655.932	0.0166518
656.010	0.0165435
656.088	0.0164646
656.166	0.0165702
656.244	0.0164971
656.322	0.0165299
656.401	0.0165266
656.479	0.0164555
656.557	0.0163646
656.635	0.0164433
656.713	0.0166106
656.791	0.0164980
656.869	0.0164701
656.947	0.0164937
657.026	0.0164445
657.104	0.0166570
657.182	0.0165176
657.260	0.0164632
657.338	0.0164552
657.416	0.0163841
657.494	0.0165500
657.572	0.0165037
657.651	0.0166839
657.729	0.0166760
657.807	0.0166290
657.885	0.0164853
657.963	0.0165637
658.041	0.0165736
658.119	0.0166732
658.197	0.0166615
658.276	0.0166101
658.354	0.0166634
658.432	0.0166328
658.510	0.0165572
658.588	0.0166758
658.666	0.0166714
658.744	0.0166604
658.822	0.0166292
658.901	0.0165668
658.979	0.0166077
659.057	0.0164796
659.135	0.0165104
659.213	0.0166673
659.291	0.0165374
659.369	0.0165205
659.447	0.0165261
659.526	0.0164342
659.604	0.0165549
659.682	0.0167189
659.760	0.0166116
659.838	0.0165565
659.916	0.0165731
659.994	0.0165779
660.072	0.0166260
660.151	0.0166770
660.229	0.0164819
660.307	0.0164489
660.385	0.0166862
660.463	0.0166670
660.541	0.0165268
660.619	0.0165724
660.697	0.0166479
660.776	0.0167762
660.854	0.0165775
660.932	0.0168480
661.010	0.0166171
661.088	0.0166257
661.166	0.0167236
661.244	0.0167335
661.322	0.0168718
661.401	0.0167828
661.479	0.0168149
661.557	0.0168641
661.635	0.0167954
661.713	0.0168119
661.791	0.0168109
661.869	0.0168037
661.947	0.0168060
662.026	0.0166837
662.104	0.0166185
662.182	0.0165906
662.260	0.0167591
662.338	0.0166955
662.416	0.0167523
662.494	0.0166307
662.572	0.0166305
662.651	0.0164758
662.729	0.0166501
662.807	0.0166118
662.885	0.0167410
662.963	0.0165619
663.041	0.0164709
663.119	0.0167044
663.197	0.0166105
663.276	0.0165411
663.354	0.0165450
663.432	0.0165066
663.510	0.0165037
663.588	0.0164780
663.666	0.0165257
663.744	0.0165916
663.822	0.0165538
663.901	0.0165987
663.979	0.0165364
664.057	0.0165614
664.135	0.0167103
664.213	0.0166653
664.291	0.0165511
664.369	0.0166025
664.447	0.0166052
664.526	0.0165099
664.604	0.0165570
664.682	0.0165745
664.760	0.0164177
664.838	0.0165319
664.916	0.0166559
664.994	0.0166164
665.072	0.0167084
665.151	0.0166414
665.229	0.0165668
665.307	0.0164922
665.385	0.0164960
665.463	0.0166663
665.541	0.0168121
665.619	0.0166135
665.697	0.0167667
665.776	0.0166640
665.854	0.0166049
665.932	0.0167323
666.010	0.0166492
666.088	0.0166179
666.166	0.0167220
666.244	0.0165443
666.322	0.0165569
666.401	0.0166144
666.479	0.0165154
666.557	0.0164394
666.635	0.0164976
666.713	0.0166869
666.791	0.0165215
666.869	0.0165055
666.947	0.0165627
667.026	0.0165409
667.104	0.0164648
667.182	0.0163911
667.260	0.0163310
667.338	0.0163938
667.416	0.0164404
667.494	0.0163773
667.572	0.0163277
667.651	0.0162646
667.729	0.0162810
667.807	0.0164060
667.885	0.0163995
667.963	0.0163744
668.041	0.0162988
668.119	0.0164616
668.197	0.0163551
668.276	0.0163043
668.354	0.0163934
668.432	0.0163477
668.510	0.0162860
668.588	0.0162718
668.666	0.0164102
668.744	0.0162981
668.822	0.0163961
668.901	0.0163736
668.979	0.0163426
669.057	0.0163380
669.135	0.0163873
669.213	0.0165685
669.291	0.0164805
669.369	0.0164136
669.447	0.0163960
669.526	0.0165623
669.604	0.0165014
669.682	0.0164118
669.760	0.0166202
669.838	0.0166248
669.916	0.0166328
669.994	0.0166157
670.072	0.0167385
670.151	0.0167558
670.229	0.0168700
670.307	0.0168452
670.385	0.0167879
670.463	0.0167988
670.541	0.0168103
670.619	0.0168531
670.697	0.0169142
670.776	0.0167697
670.854	0.0168280
670.932	0.0168738
671.010	0.0170351
671.088	0.0168812
671.166	0.0168161
671.244	0.0169922
671.322	0.0168969
671.401	0.0169913
671.479	0.0169272
671.557	0.0169495
671.635	0.0170236
671.713	0.0170806
671.791	0.0169684
671.869	0.0170835
671.947	0.0169183
672.026	0.0170107
672.104	0.0169318
672.182	0.0169421
672.260	0.0169103
672.338	0.0168850
672.416	0.0168500
672.494	0.0168205
672.572	0.0167674
672.651	0.0168333
672.729	0.0166823
672.807	0.0168773
672.885	0.0167534
672.963	0.0167346
673.041	0.0166419
673.119	0.0167032
673.197	0.0167651
673.276	0.0167616
673.354	0.0167722
673.432	0.0168016
673.510	0.0167767
673.588	0.0167569
673.666	0.0167331
673.744	0.0167342
673.822	0.0167904
673.901	0.0167675
673.979	0.0167079
674.057	0.0168141
674.135	0.0167888
674.213	0.0167354
674.291	0.0167352
674.369	0.0167470
674.447	0.0167970
674.526	0.0167285
674.604	0.0166299
674.682	0.0166553
674.760	0.0165256
674.838	0.0167872
674.916	0.0167934
674.994	0.0167690
675.072	0.0167390
675.151	0.0167560
675.229	0.0166783
675.307	0.0167020
675.385	0.0166161
675.463	0.0166655
675.541	0.0168639
675.619	0.0166968
675.697	0.0166250
675.776	0.0165877
675.854	0.0166583
675.932	0.0166909
676.010	0.0166534
676.088	0.0165575
676.166	0.0165547
676.244	0.0163754
676.322	0.0164234
676.401	0.0165621
676.479	0.0163226
676.557	0.0163970
676.635	0.0164401
676.713	0.0163319
676.791	0.0163521
676.869	0.0162909
676.947	0.0162622
677.026	0.0163460
677.104	0.0164559
677.182	0.0162738
677.260	0.0164453
677.338	0.0164133
677.416	0.0163068
677.494	0.0164735
677.572	0.0164040
677.651	0.0164645
677.729	0.0165291
677.807	0.0164314
677.885	0.0164603
677.963	0.0166031
678.041	0.0167126
678.119	0.0165877
678.197	0.0166163
678.276	0.0165642
678.354	0.0165811
678.432	0.0166714
678.510	0.0165987
678.588	0.0165103
678.666	0.0165688
678.744	0.0166526
678.822	0.0166228
678.901	0.0166284
678.979	0.0166058
679.057	0.0165165
679.135	0.0167298
679.213	0.0166485
679.291	0.0165466
679.369	0.0165584
679.447	0.0166347
679.526	0.0168260
679.604	0.0167210
679.682	0.0166266
679.760	0.0164610
679.838	0.0167155
679.916	0.0166325
679.994	0.0165504
680.072	0.0166667
680.151	0.0166395
680.229	0.0166148
680.307	0.0166343
680.385	0.0167346
680.463	0.0167156
680.541	0.0166662
680.619	0.0165029
680.697	0.0166911
680.776	0.0167677
680.854	0.0166738
680.932	0.0166732
681.010	0.0166911
681.088	0.0167318
681.166	0.0166888
681.244	0.0167378
681.322	0.0166815
681.401	0.0167299
681.479	0.0167589
681.557	0.0165161
681.635	0.0165836
681.713	0.0165354
681.791	0.0166817
681.869	0.0166257
681.947	0.0166477
682.026	0.0165208
682.104	0.0165607
682.182	0.0167205
682.260	0.0166241
682.338	0.0166859
682.416	0.0165825
682.494	0.0166461
682.572	0.0166456
682.651	0.0165234
682.729	0.0167057
682.807	0.0166061
682.885	0.0167004
682.963	0.0165993
683.041	0.0166460
683.119	0.0167097
683.197	0.0167736
683.276	0.0166437
683.354	0.0165437
683.432	0.0167748
683.510	0.0168098
683.588	0.0167020
683.666	0.0167438
683.744	0.0167799
683.822	0.0167815
683.901	0.0168835
683.979	0.0168085
684.057	0.0167494
684.135	0.0168690
684.213	0.0167946
684.291	0.0168168
684.369	0.0168094
684.447	0.0166772
684.526	0.0166148
684.604	0.0167596
684.682	0.0168491
684.760	0.0169192
684.838	0.0166311
684.916	0.0166101
684.994	0.0164215
685.072	0.0167173
685.151	0.0166727
685.229	0.0166127
685.307	0.0163660
685.385	0.0164480
685.463	0.0166026
685.541	0.0164767
685.619	0.0166161
685.697	0.0164965
685.776	0.0165798
685.854	0.0164004
685.932	0.0164229
686.010	0.0165058
686.088	0.0164770
686.166	0.0164192
686.244	0.0164253
686.322	0.0164487
686.401	0.0165511
686.479	0.0165047
686.557	0.0165314
686.635	0.0163843
686.713	0.0163918
686.791	0.0164441
686.869	0.0164237
686.947	0.0164069
687.026	0.0163528
687.104	0.0163718
687.182	0.0163139
687.260	0.0161905
687.338	0.0163062
687.416	0.0162901
687.494	0.0161604
687.572	0.0163374
687.651	0.0163181
687.729	0.0161754
687.807	0.0161783
687.885	0.0162392
687.963	0.0163424
688.041	0.0164318
688.119	0.0164561
688.197	0.0163677
688.276	0.0164730
688.354	0.0164342
688.432	0.0163351
688.510	0.0164530
688.588	0.0164163
688.666	0.0163937
688.744	0.0164514
688.822	0.0165691
688.901	0.0165937
688.979	0.0164622
689.057	0.0163915
689.135	0.0164726
689.213	0.0165179
689.291	0.0165749
689.369	0.0164884
689.447	0.0164987
689.526	0.0164824
689.604	0.0166490
689.682	0.0164336
689.760	0.0165129
689.838	0.0163627
689.916	0.0165183
689.994	0.0164069
690.072	0.0163101
690.151	0.0163290
690.229	0.0164919
690.307	0.0163482
690.385	0.0164503
690.463	0.0164510
690.541	0.0163600
690.619	0.0163074
690.697	0.0164410
690.776	0.0164394
690.854	0.0164408
690.932	0.0164985
691.010	0.0165723
691.088	0.0165302
691.166	0.0164553
691.244	0.0165956
691.322	0.0164931
691.401	0.0165762
691.479	0.0164646
691.557	0.0166538
691.635	0.0166304
691.713	0.0165397
691.791	0.0165008
691.869	0.0166553
691.947	0.0166605
692.026	0.0166281
692.104	0.0164972
692.182	0.0166101
692.260	0.0166273
692.338	0.0165678
692.416	0.0166335
692.494	0.0166572
692.572	0.0166596
692.651	0.0165423
692.729	0.0167684
692.807	0.0166579
692.885	0.0166914
692.963	0.0166773
693.041	0.0167330
693.119	0.0165836
693.197	0.0167473
693.276	0.0168649
693.354	0.0167945
693.432	0.0168747
693.510	0.0169006
693.588	0.0167850
693.666	0.0168940
693.744	0.0168229
693.822	0.0168388
693.901	0.0168776
693.979	0.0168728
694.057	0.0167823
694.135	0.0168246
694.213	0.0170100
694.291	0.0168468
694.369	0.0168435
694.447	0.0167564
694.526	0.0169306
694.604	0.0166902
694.682	0.0166457
694.760	0.0167773
694.838	0.0167928
694.916	0.0168034
694.994	0.0168451
695.072	0.0167957
695.151	0.0167834
695.229	0.0167307
695.307	0.0167205
695.385	0.0168537
695.463	0.0167415
695.541	0.0166350
695.619	0.0167642
695.697	0.0165774
695.776	0.0165353
695.854	0.0166665
695.932	0.0166765
696.010	0.0165049
696.088	0.0165496
696.166	0.0165952
696.244	0.0164796
696.322	0.0164264
696.401	0.0165387
696.479	0.0164479
696.557	0.0165497
696.635	0.0164946
696.713	0.0165856
696.791	0.0165050
696.869	0.0165755
696.947	0.0162955
697.026	0.0163369
697.104	0.0163742
697.182	0.0164075
697.260	0.0164034
697.338	0.0164119
697.416	0.0164056
697.494	0.0164981
697.572	0.0164426
697.651	0.0165160
697.729	0.0165847
697.807	0.0165044
697.885	0.0164014
697.963	0.0165765
698.041	0.0165620
698.119	0.0164942
698.197	0.0166593
698.276	0.0166272
698.354	0.0166628
698.432	0.0165470
698.510	0.0165332
698.588	0.0165506
698.666	0.0165924
698.744	0.0165488
698.822	0.0164135
698.901	0.0164970
698.979	0.0164372
699.057	0.0163260
699.135	0.0164462
699.213	0.0164432
699.291	0.0164297
699.369	0.0162635
699.447	0.0163676
699.526	0.0163826
699.604	0.0164153
699.682	0.0163046
699.760	0.0162763
699.838	0.0163345
699.916	0.0163930
699.994	0.0164681
700.072	0.0165324
700.151	0.0165730
700.229	0.0165010
700.307	0.0163616
700.385	0.0165800
700.463	0.0166969
700.541	0.0166604
700.619	0.0165575
700.697	0.0167393
700.776	0.0168678
700.854	0.0166294
700.932	0.0166808
701.010	0.0166483
701.088	0.0168076
701.166	0.0167121
701.244	0.0167010
701.322	0.0166302
701.401	0.0165652
701.479	0.0166083
701.557	0.0164577
701.635	0.0165218
701.713	0.0165424
701.791	0.0164511
701.869	0.0166668
701.947	0.0164483
702.026	0.0165139
702.104	0.0164864
702.182	0.0165752
702.260	0.0165784
702.338	0.0166387
702.416	0.0166027
702.494	0.0166904
702.572	0.0166011
702.651	0.0165894
702.729	0.0167688
702.807	0.0169476
702.885	0.0168168
702.963	0.0167025
703.041	0.0167577
703.119	0.0166898
703.197	0.0167543
703.276	0.0168166
703.354	0.0167818
703.432	0.0166681
703.510	0.0166487
703.588	0.0165869
703.666	0.0165108
703.744	0.0164670
703.822	0.0166000
703.901	0.0165361
703.979	0.0164952
704.057	0.0164550
704.135	0.0163202
704.213	0.0163760
704.291	0.0166205
704.369	0.0164602
704.447	0.0163628
704.526	0.0164556
704.604	0.0164340
704.682	0.0165990
704.760	0.0165099
704.838	0.0166350
704.916	0.0166915
704.994	0.0164471
705.072	0.0166682
705.151	0.0167733
705.229	0.0165733
705.307	0.0167870
705.385	0.0167066
705.463	0.0168175
705.541	0.0169254
705.619	0.0167636
705.697	0.0167674
705.776	0.0167666
705.854	0.0168066
705.932	0.0167413
706.010	0.0166978
706.088	0.0167211
706.166	0.0168104
706.244	0.0165841
706.322	0.0166442
706.401	0.0166906
706.479	0.0167513
706.557	0.0165620
706.635	0.0167245
706.713	0.0166309
706.791	0.0166471
706.869	0.0167509
706.947	0.0165159
707.026	0.0166020
707.104	0.0168362
707.182	0.0167821
707.260	0.0166325
707.338	0.0166787
707.416	0.0168211
707.494	0.0169390
707.572	0.0168764
707.651	0.0168954
707.729	0.0169408
707.807	0.0168964
707.885	0.0170186
707.963	0.0169124
708.041	0.0169815
708.119	0.0170080
708.197	0.0166779
708.276	0.0168330
708.354	0.0168633
708.432	0.0167337
708.510	0.0167073
708.588	0.0166586
708.666	0.0165749
708.744	0.0165332
708.822	0.0166038
708.901	0.0164396
708.979	0.0163546
709.057	0.0163795
709.135	0.0163120
709.213	0.0164318
709.291	0.0165266
709.369	0.0163993
709.447	0.0163270
709.526	0.0164804
709.604	0.0163762
709.682	0.0164341
709.760	0.0165408
709.838	0.0163134
709.916	0.0164648
709.994	0.0165176
710.072	0.0165679
710.151	0.0165048
710.229	0.0164922
710.307	0.0163614
710.385	0.0165069
710.463	0.0166222
710.541	0.0163521
710.619	0.0162833
710.697	0.0166377
710.776	0.0164575
710.854	0.0164058
710.932	0.0163451
711.010	0.0164609
711.088	0.0164799
711.166	0.0163491
711.244	0.0164573
711.322	0.0164837
711.401	0.0164599
711.479	0.0165293
711.557	0.0163876
711.635	0.0164715
711.713	0.0165619
711.791	0.0164900
711.869	0.0165015
711.947	0.0165845
712.026	0.0164236
712.104	0.0165527
712.182	0.0165156
712.260	0.0165157
712.338	0.0165344
712.416	0.0164647
712.494	0.0165629
712.572	0.0166323
712.651	0.0166207
712.729	0.0165977
712.807	0.0165715
712.885	0.0166460
712.963	0.0165250
713.041	0.0165865
713.119	0.0165915
713.197	0.0166038
713.276	0.0164925
713.354	0.0166051
713.432	0.0166905
713.510	0.0166028
713.588	0.0166281
713.666	0.0166109
713.744	0.0166036
713.822	0.0166245
713.901	0.0165292
713.979	0.0166718
714.057	0.0166050
714.135	0.0165175
714.213	0.0165361
714.291	0.0164341
714.369	0.0164867
714.447	0.0164602
714.526	0.0163824
714.604	0.0164203
714.682	0.0165043
714.760	0.0165744
714.838	0.0164452
714.916	0.0166085
714.994	0.0165911
715.072	0.0166772
715.151	0.0166956
715.229	0.0166992
715.307	0.0166769
715.385	0.0168572
715.463	0.0170218
715.541	0.0168527
715.619	0.0168443
715.697	0.0168816
715.776	0.0169653
715.854	0.0168172
715.932	0.0169344
716.010	0.0169810
716.088	0.0169258
716.166	0.0168103
716.244	0.0167776
716.322	0.0167412
716.401	0.0167986
716.479	0.0167119
716.557	0.0164669
716.635	0.0164954
716.713	0.0165987
716.791	0.0163302
716.869	0.0162481
716.947	0.0163011
717.026	0.0163084
717.104	0.0162859
717.182	0.0162534
717.260	0.0163206
717.338	0.0162731
717.416	0.0162473
717.494	0.0162964
717.572	0.0163226
717.651	0.0164648
717.729	0.0165803
717.807	0.0165360
717.885	0.0166907
717.963	0.0165775
718.041	0.0166609
718.119	0.0168951
718.197	0.0168312
718.276	0.0170327
718.354	0.0170483
718.432	0.0171487
718.510	0.0171218
718.588	0.0170329
718.666	0.0171679
718.744	0.0170454
718.822	0.0169820
718.901	0.0169533
718.979	0.0169815
719.057	0.0171042
719.135	0.0168214
719.213	0.0168102
719.291	0.0167105
719.369	0.0165466
719.447	0.0168649
719.526	0.0168008
719.604	0.0165144
719.682	0.0166426
719.760	0.0165932
719.838	0.0165693
719.916	0.0166335
719.994	0.0166301
720.072	0.0165735
720.151	0.0166095
720.229	0.0165482
720.307	0.0167498
720.385	0.0167744
720.463	0.0167026
720.541	0.0166920
720.619	0.0168060
720.697	0.0166871
720.776	0.0169261
720.854	0.0169242
720.932	0.0169082
721.010	0.0166840
721.088	0.0169342
721.166	0.0169461
721.244	0.0168909
721.322	0.0168213
721.401	0.0169044
721.479	0.0167492
721.557	0.0167025
721.635	0.0168052
721.713	0.0168581
721.791	0.0167858
721.869	0.0169184
721.947	0.0168097
722.026	0.0168615
722.104	0.0168075
722.182	0.0169854
722.260	0.0170114
722.338	0.0169540
722.416	0.0170165
722.494	0.0169850
722.572	0.0170798
722.651	0.0172453
722.729	0.0171839
722.807	0.0171739
722.885	0.0171048
722.963	0.0171803
723.041	0.0171999
723.119	0.0172165
723.197	0.0172708
723.276	0.0172602
723.354	0.0170961
723.432	0.0169772
723.510	0.0168739
723.588	0.0169639
723.666	0.0168719
723.744	0.0167223
723.822	0.0167696
723.901	0.0165878
723.979	0.0165691
724.057	0.0166261
724.135	0.0166003
724.213	0.0164900
724.291	0.0165166
724.369	0.0165012
724.447	0.0163998
724.526	0.0165160
724.604	0.0165301
724.682	0.0165216
724.760	0.0165570
724.838	0.0165351
724.916	0.0166239
724.994	0.0165099
725.072	0.0166834
725.151	0.0166417
725.229	0.0166943
725.307	0.0167373
725.385	0.0169762
725.463	0.0168649
725.541	0.0168696
725.619	0.0168930
725.697	0.0170612
725.776	0.0169416
725.854	0.0169235
725.932	0.0168790
726.010	0.0169038
726.088	0.0171627
726.166	0.0169200
726.244	0.0168244
726.322	0.0168847
726.401	0.0169115
726.479	0.0170277
726.557	0.0170344
726.635	0.0170683
726.713	0.0169854
726.791	0.0170125
726.869	0.0169112
726.947	0.0169661
727.026	0.0170789
727.104	0.0169798
727.182	0.0170493
727.260	0.0169883
727.338	0.0167798
727.416	0.0169314
727.494	0.0167960
727.572	0.0168562
727.651	0.0167876
727.729	0.0167189
727.807	0.0166158
727.885	0.0164826
727.963	0.0163963
728.041	0.0164512
728.119	0.0164848
728.197	0.0164011
728.276	0.0162808
728.354	0.0162417
728.432	0.0160567
728.510	0.0161601
728.588	0.0160856
728.666	0.0160846
728.744	0.0162000
728.822	0.0161362
728.901	0.0162268
728.979	0.0162103
729.057	0.0163896
729.135	0.0163660
729.213	0.0163609
729.291	0.0167606
729.369	0.0166242
729.447	0.0164451
729.526	0.0167221
729.604	0.0165844
729.682	0.0167188
729.760	0.0167970
729.838	0.0166473
729.916	0.0166920
729.994	0.0166828
730.072	0.0165582
730.151	0.0166268
730.229	0.0165487
730.307	0.0165128
730.385	0.0164374
730.463	0.0164869
730.541	0.0164051
730.619	0.0163538
730.697	0.0164999
730.776	0.0164867
730.854	0.0163512
730.932	0.0162672
731.010	0.0162612
731.088	0.0164892
731.166	0.0162575
731.244	0.0165148
731.322	0.0165080
731.401	0.0164855
731.479	0.0165771
731.557	0.0166346
731.635	0.0166518
731.713	0.0167240
731.791	0.0168977
731.869	0.0169340
731.947	0.0169682
732.026	0.0169208
732.104	0.0168689
732.182	0.0169333
732.260	0.0168951
732.338	0.0168570
732.416	0.0168980
732.494	0.0167824
732.572	0.0165922
732.651	0.0164312
732.729	0.0164736
732.807	0.0162663
732.885	0.0162212
732.963	0.0162122
733.041	0.0160231
733.119	0.0161079
733.197	0.0161723
733.276	0.0162428
733.354	0.0161141
733.432	0.0160972
733.510	0.0161662
733.588	0.0163641
733.666	0.0164616
733.744	0.0163282
733.822	0.0165157
733.901	0.0166894
733.979	0.0166541
734.057	0.0167558
734.135	0.0168494
734.213	0.0168520
734.291	0.0169357
734.369	0.0169341
734.447	0.0169377
734.526	0.0170796
734.604	0.0171175
734.682	0.0169564
734.760	0.0169936
734.838	0.0169781
734.916	0.0169189
734.994	0.0166889
735.072	0.0168132
735.151	0.0168346
735.229	0.0166422
735.307	0.0166123
735.385	0.0164500
735.463	0.0165357
735.541	0.0165092
735.619	0.0164491
735.697	0.0164159
735.776	0.0164146
735.854	0.0164426
735.932	0.0165037
736.010	0.0162006
736.088	0.0165255
736.166	0.0166441
736.244	0.0164190
736.322	0.0165228
736.401	0.0165600
736.479	0.0165715
736.557	0.0166332
736.635	0.0165560
736.713	0.0166372
736.791	0.0167072
736.869	0.0167862
736.947	0.0167213
737.026	0.0168470
737.104	0.0168800
737.182	0.0166643
737.260	0.0168494
737.338	0.0167392
737.416	0.0166640
737.494	0.0165777
737.572	0.0165054
737.651	0.0165874
737.729	0.0164968
737.807	0.0165201
737.885	0.0166355
737.963	0.0164707
738.041	0.0164193
738.119	0.0164372
738.197	0.0165191
738.276	0.0165866
738.354	0.0164160
738.432	0.0163617
738.510	0.0165456
738.588	0.0165541
738.666	0.0165842
738.744	0.0166772
738.822	0.0166055
738.901	0.0165141
738.979	0.0166305
739.057	0.0167243
739.135	0.0167127
739.213	0.0168024
739.291	0.0168727
739.369	0.0168464
739.447	0.0168002
739.526	0.0169333
739.604	0.0169746
739.682	0.0169013
739.760	0.0169578
739.838	0.0170350
739.916	0.0168628
739.994	0.0169357
740.072	0.0167968
740.151	0.0168674
740.229	0.0166784
740.307	0.0166351
740.385	0.0164783
740.463	0.0164642
740.541	0.0162840
740.619	0.0162572
740.697	0.0161576
740.776	0.0162430
740.854	0.0162074
740.932	0.0160374
741.010	0.0160976
741.088	0.0160687
741.166	0.0161807
741.244	0.0161945
741.322	0.0162659
741.401	0.0160672
741.479	0.0163582
741.557	0.0163268
741.635	0.0164169
741.713	0.0164854
741.791	0.0165256
741.869	0.0166320
741.947	0.0167232
742.026	0.0168597
742.104	0.0168624
742.182	0.0170050
742.260	0.0168922
742.338	0.0169678
742.416	0.0170081
742.494	0.0169887
742.572	0.0169882
742.651	0.0170537
742.729	0.0169644
742.807	0.0170542
742.885	0.0170469
742.963	0.0170358
743.041	0.0169038
743.119	0.0170204
743.197	0.0169151
743.276	0.0168181
743.354	0.0168891
743.432	0.0167441
743.510	0.0166948
743.588	0.0166978
743.666	0.0166267
743.744	0.0167166
743.822	0.0165749
743.901	0.0163589
743.979	0.0164107
744.057	0.0165068
744.135	0.0162323
744.213	0.0163690
744.291	0.0162659
744.369	0.0161202
744.447	0.0160973
744.526	0.0160182
744.604	0.0160814
744.682	0.0162228
744.760	0.0160909
744.838	0.0162840
744.916	0.0163599
744.994	0.0163987
745.072	0.0164006
745.151	0.0165283
745.229	0.0165740
745.307	0.0164486
745.385	0.0166132
745.463	0.0167543
745.541	0.0168591
745.619	0.0167074
745.697	0.0168165
745.776	0.0169015
745.854	0.0170200
745.932	0.0171735
746.010	0.0171988
746.088	0.0170553
746.166	0.0172615
746.244	0.0174093
746.322	0.0173504
746.401	0.0173417
746.479	0.0174844
746.557	0.0173144
746.635	0.0174734
746.713	0.0173531
746.791	0.0173123
746.869	0.0174432
746.947	0.0173180
747.026	0.0171370
747.104	0.0170814
747.182	0.0172511
747.260	0.0170493
747.338	0.0169292
747.416	0.0169210
747.494	0.0170380
747.572	0.0168467
747.651	0.0169212
747.729	0.0167456
747.807	0.0166817
747.885	0.0165986
747.963	0.0166567
748.041	0.0166884
748.119	0.0166186
748.197	0.0165041
748.276	0.0165364
748.354	0.0166194
748.432	0.0166131
748.510	0.0165880
748.588	0.0166434
748.666	0.0166248
748.744	0.0165997
748.822	0.0167253
748.901	0.0167140
748.979	0.0167457
749.057	0.0167436
749.135	0.0167200
749.213	0.0166653
749.291	0.0167908
749.369	0.0165900
749.447	0.0165740
749.526	0.0167120
749.604	0.0165195
749.682	0.0165368
749.760	0.0165293
749.838	0.0166508
749.916	0.0166714
749.994	0.0165485
750.072	0.0166170
750.151	0.0165842
750.229	0.0164970
750.307	0.0166213
750.385	0.0168233
750.463	0.0164998
750.541	0.0165444
750.619	0.0165231
750.697	0.0165476
750.776	0.0167015
750.854	0.0165302
750.932	0.0164211
751.010	0.0164772
751.088	0.0166097
751.166	0.0167654
751.244	0.0165845
751.322	0.0166261
751.401	0.0165808
751.479	0.0167857
751.557	0.0166401
751.635	0.0167149
751.713	0.0167020
751.791	0.0165859
751.869	0.0167985
751.947	0.0167384
752.026	0.0167207
752.104	0.0166373
752.182	0.0166882
752.260	0.0166306
752.338	0.0166936
752.416	0.0167325
752.494	0.0167023
752.572	0.0166678
752.651	0.0167022
752.729	0.0168411
752.807	0.0168425
752.885	0.0168157
752.963	0.0168229
753.041	0.0168289
753.119	0.0168787
753.197	0.0168201
753.276	0.0166715
753.354	0.0167406
753.432	0.0166862
753.510	0.0166223
753.588	0.0167374
753.666	0.0165837
753.744	0.0163928
753.822	0.0164747
753.901	0.0164390
753.979	0.0164742
754.057	0.0163995
754.135	0.0163786
754.213	0.0165320
754.291	0.0165432
754.369	0.0166102
754.447	0.0166158
754.526	0.0166582
754.604	0.0165304
754.682	0.0167024
754.760	0.0167347
754.838	0.0166711
754.916	0.0165760
754.994	0.0165871
755.072	0.0166667
755.151	0.0165498
755.229	0.0166092
755.307	0.0165245
755.385	0.0165966
755.463	0.0163440
755.541	0.0164563
755.619	0.0163541
755.697	0.0165566
755.776	0.0165660
755.854	0.0163675
755.932	0.0163099
756.010	0.0164565
756.088	0.0164799
756.166	0.0163021
756.244	0.0164787
756.322	0.0165449
756.401	0.0164743
756.479	0.0165652
756.557	0.0165005
756.635	0.0164317
756.713	0.0164718
756.791	0.0164791
756.869	0.0164317
756.947	0.0164254
757.026	0.0164146
757.104	0.0163627
757.182	0.0162230
757.260	0.0163361
757.338	0.0162460
757.416	0.0162075
757.494	0.0163564
757.572	0.0164214
757.651	0.0162259
757.729	0.0162434
757.807	0.0163654
757.885	0.0162833
757.963	0.0163680
758.041	0.0162904
758.119	0.0164143
758.197	0.0163249
758.276	0.0163390
758.354	0.0163960
758.432	0.0162335
758.510	0.0162948
758.588	0.0163080
758.666	0.0163893
758.744	0.0163000
758.822	0.0164295
758.901	0.0164966
758.979	0.0163936
759.057	0.0164381
759.135	0.0164919
759.213	0.0167004
759.291	0.0165499
759.369	0.0164494
759.447	0.0165121
759.526	0.0165868
759.604	0.0164325
759.682	0.0165134
759.760	0.0163071
759.838	0.0162777
759.916	0.0162439
759.994	0.0162513
760.072	0.0163173
760.151	0.0162766
760.229	0.0162865
760.307	0.0161414
760.385	0.0160612
760.463	0.0162894
760.541	0.0162006
760.619	0.0162292
760.697	0.0162383
760.776	0.0164334
760.854	0.0163868
760.932	0.0163100
761.010	0.0163689
761.088	0.0164439
761.166	0.0164594
761.244	0.0165466
761.322	0.0165875
761.401	0.0163332
761.479	0.0163951
761.557	0.0164981
761.635	0.0164597
761.713	0.0164165
761.791	0.0166174
761.869	0.0165141
761.947	0.0165401
762.026	0.0165302
762.104	0.0165139
762.182	0.0165040
762.260	0.0164839
762.338	0.0165311
762.416	0.0165150
762.494	0.0167381
762.572	0.0166672
762.651	0.0167028
762.729	0.0166560
762.807	0.0166679
762.885	0.0168279
762.963	0.0168732
763.041	0.0169341
763.119	0.0169176
763.197	0.0168304
763.276	0.0169820
763.354	0.0169550
763.432	0.0168732
763.510	0.0168601
763.588	0.0167786
763.666	0.0167687
763.744	0.0167144
763.822	0.0168559
763.901	0.0166935
763.979	0.0164474
764.057	0.0166134
764.135	0.0165604
764.213	0.0164628
764.291	0.0163907
764.369	0.0163841
764.447	0.0163408
764.526	0.0163419
764.604	0.0164339
764.682	0.0162394
764.760	0.0162437
764.838	0.0161967
764.916	0.0162814
764.994	0.0163316
765.072	0.0163791
765.151	0.0163621
765.229	0.0165273
765.307	0.0166901
765.385	0.0168698
765.463	0.0169106
765.541	0.0169707
765.619	0.0169282
765.697	0.0169080
765.776	0.0172569
765.854	0.0171783
765.932	0.0172568
766.010	0.0172367
766.088	0.0171362
766.166	0.0171412
766.244	0.0170986
766.322	0.0171703
766.401	0.0171099
766.479	0.0171546
766.557	0.0170939
766.635	0.0170415
766.713	0.0167277
766.791	0.0168327
766.869	0.0168808
766.947	0.0167771
767.026	0.0167808
767.104	0.0168651
767.182	0.0166608
767.260	0.0166202
767.338	0.0166359
767.416	0.0165408
767.494	0.0166605
767.572	0.0167844
767.651	0.0167416
767.729	0.0165540
767.807	0.0167130
767.885	0.0167066
767.963	0.0165049
768.041	0.0164034
768.119	0.0166025
768.197	0.0165213
768.276	0.0165501
768.354	0.0165057
768.432	0.0163235
768.510	0.0165355
768.588	0.0164448
768.666	0.0163969
768.744	0.0164493
768.822	0.0163133
768.901	0.0163945
768.979	0.0163670
769.057	0.0163654
769.135	0.0164345
769.213	0.0163953
769.291	0.0164052
769.369	0.0165012
769.447	0.0165741
769.526	0.0164124
769.604	0.0165172
769.682	0.0165166
769.760	0.0164423
769.838	0.0165402
769.916	0.0166187
769.994	0.0166446
770.072	0.0167210
770.151	0.0168100
770.229	0.0168501
770.307	0.0169525
770.385	0.0168867
770.463	0.0169357
770.541	0.0169894
770.619	0.0168986
770.697	0.0169552
770.776	0.0170075
770.854	0.0168444
770.932	0.0170281
771.010	0.0169711
771.088	0.0170032
771.166	0.0168980
771.244	0.0169526
771.322	0.0168383
771.401	0.0169504
771.479	0.0168619
771.557	0.0167147
771.635	0.0166834
771.713	0.0166862
771.791	0.0166322
771.869	0.0164918
771.947	0.0164866
772.026	0.0164187
772.104	0.0163970
772.182	0.0164284
772.260	0.0163769
772.338	0.0163479
772.416	0.0162617
772.494	0.0163809
772.572	0.0163148
772.651	0.0163564
772.729	0.0163535
772.807	0.0163292
772.885	0.0164125
772.963	0.0164751
773.041	0.0163075
773.119	0.0164495
773.197	0.0165753
773.276	0.0165479
773.354	0.0166228
773.432	0.0166887
773.510	0.0167520
773.588	0.0165875
773.666	0.0167189
773.744	0.0166621
773.822	0.0165125
773.901	0.0166344
773.979	0.0165789
774.057	0.0164787
774.135	0.0165927
774.213	0.0163986
774.291	0.0162526
774.369	0.0163862
774.447	0.0163698
774.526	0.0163355
774.604	0.0162905
774.682	0.0162345
774.760	0.0160823
774.838	0.0160500
774.916	0.0160589
774.994	0.0160947
775.072	0.0160985
775.151	0.0160773
775.229	0.0161428
775.307	0.0160509
775.385	0.0162135
775.463	0.0161425
775.541	0.0161650
775.619	0.0162922
775.697	0.0162497
775.776	0.0161919
775.854	0.0161317
775.932	0.0161980
776.010	0.0162547
776.088	0.0164373
776.166	0.0163179
776.244	0.0165069
776.322	0.0165826
776.401	0.0164100
776.479	0.0166193
776.557	0.0165613
776.635	0.0166869
776.713	0.0167859
776.791	0.0167272
776.869	0.0168542
776.947	0.0168824
777.026	0.0168479
777.104	0.0168809
777.182	0.0168791
777.260	0.0169026
777.338	0.0168339
777.416	0.0168336
777.494	0.0167690
777.572	0.0167365
777.651	0.0167290
777.729	0.0167033
777.807	0.0167795
777.885	0.0165798
777.963	0.0165776
778.041	0.0167667
778.119	0.0166283
778.197	0.0165060
778.276	0.0165664
778.354	0.0165414
778.432	0.0166713
778.510	0.0168063
778.588	0.0167969
778.666	0.0166708
778.744	0.0166595
778.822	0.0167677
778.901	0.0166360
778.979	0.0166775
779.057	0.0164627
779.135	0.0165478
779.213	0.0163773
779.291	0.0165585
779.369	0.0165166
779.447	0.0164169
779.526	0.0164408
779.604	0.0164451
779.682	0.0163722
779.760	0.0163477
779.838	0.0164110
779.916	0.0165462
779.994	0.0165491
780.072	0.0165747
780.151	0.0166949
780.229	0.0166837
780.307	0.0166454
780.385	0.0167149
780.463	0.0168780
780.541	0.0170365
780.619	0.0170435
780.697	0.0170115
780.776	0.0170704
780.854	0.0171214
780.932	0.0171501
781.010	0.0170660
781.088	0.0171465
781.166	0.0171883
781.244	0.0170429
781.322	0.0171739
781.401	0.0170133
781.479	0.0169642
781.557	0.0169963
781.635	0.0170267
781.713	0.0168866
781.791	0.0168999
781.869	0.0170071
781.947	0.0168542
782.026	0.0169643
782.104	0.0168374
782.182	0.0168532
782.260	0.0167677
782.338	0.0168455
782.416	0.0168524
782.494	0.0167747
782.572	0.0168301
782.651	0.0167847
782.729	0.0167132
782.807	0.0167333
782.885	0.0168387
782.963	0.0166785
783.041	0.0167329
783.119	0.0167126
783.197	0.0166266
783.276	0.0167120
783.354	0.0169011
783.432	0.0167422
783.510	0.0167602
783.588	0.0168045
783.666	0.0168585
783.744	0.0167049
783.822	0.0167310
783.901	0.0167609
783.979	0.0168594
784.057	0.0167690
784.135	0.0168729
784.213	0.0168906
784.291	0.0167590
784.369	0.0168424
784.447	0.0168497
784.526	0.0169443
784.604	0.0169057
784.682	0.0168065
784.760	0.0170477
784.838	0.0169049
784.916	0.0169659
784.994	0.0169275
785.072	0.0168369
785.151	0.0168758
785.229	0.0167628
785.307	0.0168500
785.385	0.0168036
785.463	0.0166643
785.541	0.0169056
785.619	0.0167876
785.697	0.0168683
785.776	0.0167111
785.854	0.0166909
785.932	0.0164829
786.010	0.0165485
786.088	0.0165541
786.166	0.0165426
786.244	0.0165813
786.322	0.0164619
786.401	0.0165014
786.479	0.0165149
786.557	0.0164677
786.635	0.0165652
786.713	0.0164468
786.791	0.0166140
786.869	0.0165806
786.947	0.0165806
787.026	0.0166092
787.104	0.0165707
787.182	0.0166178
787.260	0.0166829
787.338	0.0166010
787.416	0.0165230
787.494	0.0166094
787.572	0.0164807
787.651	0.0165314
787.729	0.0164812
787.807	0.0163617
787.885	0.0163051
787.963	0.0163128
788.041	0.0163032
788.119	0.0161847
788.197	0.0161892
788.276	0.0161204
788.354	0.0161396
788.432	0.0160456
788.510	0.0161507
788.588	0.0161703
788.666	0.0161991
788.744	0.0160123
788.822	0.0161016
788.901	0.0163348
788.979	0.0162545
789.057	0.0162423
789.135	0.0165721
789.213	0.0166618
789.291	0.0165105
789.369	0.0166529
789.447	0.0166497
789.526	0.0167854
789.604	0.0168822
789.682	0.0167915
789.760	0.0168682
789.838	0.0169256
789.916	0.0168417
789.994	0.0168264
790.072	0.0167522
790.151	0.0168055
790.229	0.0166846
790.307	0.0167860
790.385	0.0168497
790.463	0.0169308
790.541	0.0166640
790.619	0.0166733
790.697	0.0167789
790.776	0.0168208
790.854	0.0167432
790.932	0.0166809
791.010	0.0167139
791.088	0.0168176
791.166	0.0166241
791.244	0.0167140
791.322	0.0167768
791.401	0.0167070
791.479	0.0167244
791.557	0.0166194
791.635	0.0167683
791.713	0.0167877
791.791	0.0165276
791.869	0.0164183
791.947	0.0165619
792.026	0.0164314
792.104	0.0162335
792.182	0.0163787
792.260	0.0164552
792.338	0.0162550
792.416	0.0163962
792.494	0.0162726
792.572	0.0162961
792.651	0.0164215
792.729	0.0163747
792.807	0.0163054
792.885	0.0164609
792.963	0.0164510
793.041	0.0163654
793.119	0.0164851
793.197	0.0163941
793.276	0.0163025
793.354	0.0164138
793.432	0.0162603
793.510	0.0163239
793.588	0.0164415
793.666	0.0164520
793.744	0.0163779
793.822	0.0163998
793.901	0.0164640
793.979	0.0165522
794.057	0.0166396
794.135	0.0166004
794.213	0.0166194
794.291	0.0167454
794.369	0.0167273
794.447	0.0165484
794.526	0.0166954
794.604	0.0168158
794.682	0.0168214
794.760	0.0168121
794.838	0.0167591
794.916	0.0169114
794.994	0.0168079
795.072	0.0168249
795.151	0.0168140
795.229	0.0166979
795.307	0.0167485
795.385	0.0167165
795.463	0.0165774
795.541	0.0166769
795.619	0.0166486
795.697	0.0164760
795.776	0.0164318
795.854	0.0164662
795.932	0.0163300
796.010	0.0164565
796.088	0.0163223
796.166	0.0163348
796.244	0.0164919
796.322	0.0165506
796.401	0.0163639
796.479	0.0164886
796.557	0.0162721
796.635	0.0164337
796.713	0.0165067
796.791	0.0164410
796.869	0.0165462
796.947	0.0166103
797.026	0.0164090
797.104	0.0165025
797.182	0.0166106
797.260	0.0165679
797.338	0.0164665
797.416	0.0166148
797.494	0.0165868
797.572	0.0166667
797.651	0.0166375
797.729	0.0167464
797.807	0.0165616
797.885	0.0166375
797.963	0.0167158
798.041	0.0166406
798.119	0.0164697
798.197	0.0167046
798.276	0.0166910
798.354	0.0165416
798.432	0.0166071
798.510	0.0166693
798.588	0.0165826
798.666	0.0165210
798.744	0.0165078
798.822	0.0165275
798.901	0.0164880
798.979	0.0165781
799.057	0.0165186
799.135	0.0165121
799.213	0.0164950
799.291	0.0165318
799.369	0.0165456
799.447	0.0166621
799.526	0.0164114
799.604	0.0165339
799.682	0.0165523
799.760	0.0166281
799.838	0.0165170
799.916	0.0166530
799.994	0.0166231
800.072	0.0165415
800.151	0.0166109
800.229	0.0165745
800.307	0.0167068
800.385	0.0166075
800.463	0.0166737
800.541	0.0166583
800.619	0.0165909
800.697	0.0167110
800.776	0.0165161
800.854	0.0165411
800.932	0.0166516
801.010	0.0166139
801.088	0.0167003
801.166	0.0166576
801.244	0.0166061
801.322	0.0166419
801.401	0.0166537
801.479	0.0167108
801.557	0.0166010
801.635	0.0166464
801.713	0.0165929
801.791	0.0168664
801.869	0.0168389
801.947	0.0167527
802.026	0.0167435
802.104	0.0168738
802.182	0.0169501
802.260	0.0169717
802.338	0.0168240
802.416	0.0167858
802.494	0.0168232
802.572	0.0168909
802.651	0.0169329
802.729	0.0168162
802.807	0.0167984
802.885	0.0169220
802.963	0.0169362
803.041	0.0168487
803.119	0.0168218
803.197	0.0169553
803.276	0.0168239
803.354	0.0168868
803.432	0.0168686
803.510	0.0167499
803.588	0.0168244
803.666	0.0168102
803.744	0.0167999
803.822	0.0168608
803.901	0.0168214
803.979	0.0168584
804.057	0.0169032
804.135	0.0168732
804.213	0.0167940
804.291	0.0167987
804.369	0.0169181
804.447	0.0168413
804.526	0.0170261
804.604	0.0170853
804.682	0.0168773
804.760	0.0169662
804.838	0.0170486
804.916	0.0169646
804.994	0.0168933
805.072	0.0169855
805.151	0.0169749
805.229	0.0169575
805.307	0.0170088
805.385	0.0168915
805.463	0.0168315
805.541	0.0168578
805.619	0.0168710
805.697	0.0168387
805.776	0.0167157
805.854	0.0165354
805.932	0.0166175
806.010	0.0165881
806.088	0.0167808
806.166	0.0167079
806.244	0.0165148
806.322	0.0164315
806.401	0.0165775
806.479	0.0165882
806.557	0.0166077
806.635	0.0165328
806.713	0.0165614
806.791	0.0166607
806.869	0.0165539
806.947	0.0165469
807.026	0.0166327
807.104	0.0165646
807.182	0.0165497
807.260	0.0167970
807.338	0.0166555
807.416	0.0167760
807.494	0.0168220
807.572	0.0168652
807.651	0.0168606
807.729	0.0169104
807.807	0.0168449
807.885	0.0168703
807.963	0.0168281
808.041	0.0167615
808.119	0.0168337
808.197	0.0168311
808.276	0.0167570
808.354	0.0168226
808.432	0.0169145
808.510	0.0167390
808.588	0.0167671
808.666	0.0166908
808.744	0.0165858
808.822	0.0165146
808.901	0.0166000
808.979	0.0166425
809.057	0.0165330
809.135	0.0166819
809.213	0.0165289
809.291	0.0166479
809.369	0.0166273
809.447	0.0166601
809.526	0.0166839
809.604	0.0166776
809.682	0.0167950
809.760	0.0167511
809.838	0.0167869
809.916	0.0168285
809.994	0.0169621
810.072	0.0169481
810.151	0.0167763
810.229	0.0169412
810.307	0.0168738
810.385	0.0167976
810.463	0.0168945
810.541	0.0168347
810.619	0.0170237
810.697	0.0169209
810.776	0.0168330
810.854	0.0168709
810.932	0.0167449
811.010	0.0166882
811.088	0.0166583
811.166	0.0166776
811.244	0.0166242
811.322	0.0166953
811.401	0.0166463
811.479	0.0166252
811.557	0.0165304
811.635	0.0165015
811.713	0.0166885
811.791	0.0167520
811.869	0.0167238
811.947	0.0166570
812.026	0.0167245
812.104	0.0167588
812.182	0.0167445
812.260	0.0167793
812.338	0.0165997
812.416	0.0167099
812.494	0.0168211
812.572	0.0168685
812.651	0.0167567
812.729	0.0167824
812.807	0.0168192
812.885	0.0167121
812.963	0.0167797
813.041	0.0165656
813.119	0.0166991
813.197	0.0167236
813.276	0.0167992
813.354	0.0166183
813.432	0.0166177
813.510	0.0166190
813.588	0.0164697
813.666	0.0164217
813.744	0.0164507
813.822	0.0163161
813.901	0.0164530
813.979	0.0164266
814.057	0.0163329
814.135	0.0163204
814.213	0.0161697
814.291	0.0163283
814.369	0.0161205
814.447	0.0163831
814.526	0.0164668
814.604	0.0162683
814.682	0.0163367
814.760	0.0165228
814.838	0.0165507
814.916	0.0165579
814.994	0.0166357
815.072	0.0167242
815.151	0.0166344
815.229	0.0166924
815.307	0.0167796
815.385	0.0168765
815.463	0.0168681
815.541	0.0168932
815.619	0.0169303
815.697	0.0169406
815.776	0.0168082
815.854	0.0167538
815.932	0.0169182
816.010	0.0167968
816.088	0.0167759
816.166	0.0165931
816.244	0.0166188
816.322	0.0167231
816.401	0.0165927
816.479	0.0165266
816.557	0.0166414
816.635	0.0167271
816.713	0.0166589
816.791	0.0166261
816.869	0.0167437
816.947	0.0167353
817.026	0.0167365
817.104	0.0167446
817.182	0.0168996
817.260	0.0169025
817.338	0.0168582
817.416	0.0168526
817.494	0.0168629
817.572	0.0169677
817.651	0.0167944
817.729	0.0166637
817.807	0.0169212
817.885	0.0167764
817.963	0.0166536
818.041	0.0166097
818.119	0.0166642
818.197	0.0165858
818.276	0.0164664
818.354	0.0164047
818.432	0.0164212
818.510	0.0164442
818.588	0.0164545
818.666	0.0163869
818.744	0.0162177
818.822	0.0164229
818.901	0.0163306
818.979	0.0162722
819.057	0.0164271
819.135	0.0164812
819.213	0.0163593
819.291	0.0162955
819.369	0.0163612
819.447	0.0163968
819.526	0.0164275
819.604	0.0164040
819.682	0.0165327
819.760	0.0164884
819.838	0.0163982
819.916	0.0168098
819.994	0.0166473
820.072	0.0165971
820.151	0.0167429
820.229	0.0166460
820.307	0.0166567
820.385	0.0166689
820.463	0.0168013
820.541	0.0167458
820.619	0.0167271
820.697	0.0166988
820.776	0.0167339
820.854	0.0166106
820.932	0.0165283
821.010	0.0165723
821.088	0.0166783
821.166	0.0163972
821.244	0.0163483
821.322	0.0165905
821.401	0.0166084
821.479	0.0165796
821.557	0.0164039
821.635	0.0166427
821.713	0.0164524
821.791	0.0166180
821.869	0.0166357
821.947	0.0165457
822.026	0.0164908
822.104	0.0165852
822.182	0.0165627
822.260	0.0166444
822.338	0.0168354
822.416	0.0167103
822.494	0.0166106
822.572	0.0165259
822.651	0.0166016
822.729	0.0166972
822.807	0.0165655
822.885	0.0165271
822.963	0.0165846
823.041	0.0165854
823.119	0.0164189
823.197	0.0164816
823.276	0.0163651
823.354	0.0163804
823.432	0.0163692
823.510	0.0164298
823.588	0.0164774
823.666	0.0165564
823.744	0.0164632
823.822	0.0163227
823.901	0.0165868
823.979	0.0165816
824.057	0.0166628
824.135	0.0166709
824.213	0.0164061
824.291	0.0166660
824.369	0.0168033
824.447	0.0166086
824.526	0.0167995
824.604	0.0167683
824.682	0.0166952
824.760	0.0167979
824.838	0.0168779
824.916	0.0167210
824.994	0.0167921
825.072	0.0169083
825.151	0.0167925
825.229	0.0167924
825.307	0.0168422
825.385	0.0169567
825.463	0.0167120
825.541	0.0167391
825.619	0.0167620
825.697	0.0166428
825.776	0.0166108
825.854	0.0166200
825.932	0.0166824
826.010	0.0165273
826.088	0.0166737
826.166	0.0165179
826.244	0.0165298
826.322	0.0165498
826.401	0.0164998
826.479	0.0166291
826.557	0.0165240
826.635	0.0165139
826.713	0.0165710
826.791	0.0165657
826.869	0.0165511
826.947	0.0166687
827.026	0.0166528
827.104	0.0166989
827.182	0.0167707
827.260	0.0167126
827.338	0.0167414
827.416	0.0167425
827.494	0.0166744
827.572	0.0166342
827.651	0.0166405
827.729	0.0168667
827.807	0.0166786
827.885	0.0166925
827.963	0.0167780
828.041	0.0167260
828.119	0.0166827
828.197	0.0167915
828.276	0.0167368
828.354	0.0168674
828.432	0.0167737
828.510	0.0167705
828.588	0.0167236
828.666	0.0166623
828.744	0.0166618
828.822	0.0166335
828.901	0.0167288
828.979	0.0166122
829.057	0.0165610
829.135	0.0166051
829.213	0.0166134
829.291	0.0166245
829.369	0.0164922
829.447	0.0166512
829.526	0.0165625
829.604	0.0165778
829.682	0.0167994
829.760	0.0167415
829.838	0.0167020
829.916	0.0165879
829.994	0.0167015
830.072	0.0166355
830.151	0.0166375
830.229	0.0166777
830.307	0.0166051
830.385	0.0166479
830.463	0.0165496
830.541	0.0166125
830.619	0.0166754
830.697	0.0165456
830.776	0.0166244
830.854	0.0166064
830.932	0.0164536
831.010	0.0164429
831.088	0.0164896
831.166	0.0164975
831.244	0.0164408
831.322	0.0164298
831.401	0.0165618
831.479	0.0163379
831.557	0.0163684
831.635	0.0164638
831.713	0.0164476
831.791	0.0166026
831.869	0.0165828
831.947	0.0164753
832.026	0.0166396
832.104	0.0166219
832.182	0.0166587
832.260	0.0165956
832.338	0.0165843
832.416	0.0166900
832.494	0.0167155
832.572	0.0166037
832.651	0.0166665
832.729	0.0165804
832.807	0.0165479
832.885	0.0166492
832.963	0.0165994
833.041	0.0166212
833.119	0.0165244
833.197	0.0165748
833.276	0.0166276
833.354	0.0166125
833.432	0.0166744
833.510	0.0167101
833.588	0.0166415
833.666	0.0165714
833.744	0.0167102
833.822	0.0166835
833.901	0.0167290
833.979	0.0166499
834.057	0.0166726
834.135	0.0165598
834.213	0.0166761
834.291	0.0166446
834.369	0.0167946
834.447	0.0165958
834.526	0.0165731
834.604	0.0166254
834.682	0.0167223
834.760	0.0167558
834.838	0.0167783
834.916	0.0166604
834.994	0.0166473
835.072	0.0169278
835.151	0.0167500
835.229	0.0168481
835.307	0.0167348
835.385	0.0168387
835.463	0.0167659
835.541	0.0166139
835.619	0.0167048
835.697	0.0167110
835.776	0.0166985
835.854	0.0165723
835.932	0.0164373
836.010	0.0165452
836.088	0.0164242
836.166	0.0164659
836.244	0.0165030
836.322	0.0163663
836.401	0.0163650
836.479	0.0163959
836.557	0.0163886
836.635	0.0163369
836.713	0.0163710
836.791	0.0164072
836.869	0.0163853
836.947	0.0164294
837.026	0.0163712
837.104	0.0162503
837.182	0.0162552
837.260	0.0163432
837.338	0.0161401
837.416	0.0162238
837.494	0.0161671
837.572	0.0162500
837.651	0.0160873
837.729	0.0162132
837.807	0.0162297
837.885	0.0161900
837.963	0.0162664
838.041	0.0161780
838.119	0.0161902
838.197	0.0161490
838.276	0.0161770
838.354	0.0163101
838.432	0.0163522
838.510	0.0164165
838.588	0.0163931
838.666	0.0163577
838.744	0.0165203
838.822	0.0164828
838.901	0.0163869
838.979	0.0164318
839.057	0.0163716
839.135	0.0163581
839.213	0.0163963
839.291	0.0165516
839.369	0.0165178
839.447	0.0165134
839.526	0.0163254
839.604	0.0164215
839.682	0.0164368
839.760	0.0164101
839.838	0.0162161
839.916	0.0164051
839.994	0.0164034
840.072	0.0163337
840.151	0.0164301
840.229	0.0164082
840.307	0.0163574
840.385	0.0163955
840.463	0.0165430
840.541	0.0165363
840.619	0.0165603
840.697	0.0165154
840.776	0.0164960
840.854	0.0165553
840.932	0.0165149
841.010	0.0165812
841.088	0.0165723
841.166	0.0165492
841.244	0.0165143
841.322	0.0166036
841.401	0.0165439
841.479	0.0165411
841.557	0.0166214
841.635	0.0166303
841.713	0.0165602
841.791	0.0164421
841.869	0.0167113
841.947	0.0165466
842.026	0.0167318
842.104	0.0166727
842.182	0.0166144
842.260	0.0168646
842.338	0.0167458
842.416	0.0165361
842.494	0.0166086
842.572	0.0168221
842.651	0.0167039
842.729	0.0168229
842.807	0.0168509
842.885	0.0167370
842.963	0.0168353
843.041	0.0169307
843.119	0.0168524
843.197	0.0168705
843.276	0.0168267
843.354	0.0169183
843.432	0.0169306
843.510	0.0169563
843.588	0.0169227
843.666	0.0168974
843.744	0.0169498
843.822	0.0168797
843.901	0.0168658
843.979	0.0169199
844.057	0.0168478
844.135	0.0167259
844.213	0.0167395
844.291	0.0169365
844.369	0.0167632
844.447	0.0168062
844.526	0.0168450
844.604	0.0165497
844.682	0.0166898
844.760	0.0166392
844.838	0.0164740
844.916	0.0165060
844.994	0.0164899
845.072	0.0164925
845.151	0.0164679
845.229	0.0165040
845.307	0.0162718
845.385	0.0162775
845.463	0.0164034
845.541	0.0162627
845.619	0.0163226
845.697	0.0163433
845.776	0.0162605
845.854	0.0163062
845.932	0.0163548
846.010	0.0164757
846.088	0.0164696
846.166	0.0163822
846.244	0.0165092
846.322	0.0165786
846.401	0.0166006
846.479	0.0166402
846.557	0.0166489
846.635	0.0166129
846.713	0.0166530
846.791	0.0165652
846.869	0.0165711
846.947	0.0166502
847.026	0.0167156
847.104	0.0167848
847.182	0.0168127
847.260	0.0167254
847.338	0.0166944
847.416	0.0168324
847.494	0.0167434
847.572	0.0167452
847.651	0.0167942
847.729	0.0167899
847.807	0.0167229
847.885	0.0167604
847.963	0.0168586
848.041	0.0167409
848.119	0.0168385
848.197	0.0168894
848.276	0.0167704
848.354	0.0167926
848.432	0.0167735
848.510	0.0169174
848.588	0.0168266
848.666	0.0167677
848.744	0.0168599
848.822	0.0169514
848.901	0.0168426
848.979	0.0170340
849.057	0.0170054
849.135	0.0168292
849.213	0.0168404
849.291	0.0167520
849.369	0.0169481
849.447	0.0168562
849.526	0.0166866
849.604	0.0167976
849.682	0.0167271
849.760	0.0165531
849.838	0.0166988
849.916	0.0166821
849.994	0.0167709
850.072	0.0167625
850.151	0.0166549
850.229	0.0166901
850.307	0.0167148
850.385	0.0166885
850.463	0.0166366
850.541	0.0166239
850.619	0.0166518
850.697	0.0165721
850.776	0.0166281
850.854	0.0165490
850.932	0.0166560
851.010	0.0166532
851.088	0.0167272
851.166	0.0165540
851.244	0.0165466
851.322	0.0167135
851.401	0.0165109
851.479	0.0164668
851.557	0.0166750
851.635	0.0164944
851.713	0.0164653
851.791	0.0165676
851.869	0.0165453
851.947	0.0166480
852.026	0.0166796
852.104	0.0165770
852.182	0.0163578
852.260	0.0165484
852.338	0.0165992
852.416	0.0165425
852.494	0.0165275
852.572	0.0166084
852.651	0.0165610
852.729	0.0164604
852.807	0.0163850
852.885	0.0164258
852.963	0.0164593
853.041	0.0164198
853.119	0.0164677
853.197	0.0164147
853.276	0.0164192
853.354	0.0163969
853.432	0.0163850
853.510	0.0164967
853.588	0.0164783
853.666	0.0164674
853.744	0.0163515
853.822	0.0163773
853.901	0.0164007
853.979	0.0165215
854.057	0.0165211
854.135	0.0163893
854.213	0.0162960
854.291	0.0163716
854.369	0.0162708
854.447	0.0162768
854.526	0.0163641
854.604	0.0163213
854.682	0.0164231
854.760	0.0164124
854.838	0.0164898
854.916	0.0163541
854.994	0.0163685
855.072	0.0164812
855.151	0.0164212
855.229	0.0166136
855.307	0.0165716
855.385	0.0164771
855.463	0.0165235
855.541	0.0166274
855.619	0.0165340
855.697	0.0165829
855.776	0.0165918
855.854	0.0165946
855.932	0.0166759
856.010	0.0166044
856.088	0.0164572
856.166	0.0165026
856.244	0.0165959
856.322	0.0165575
856.401	0.0165205
856.479	0.0164446
856.557	0.0164469
856.635	0.0165671
856.713	0.0164947
856.791	0.0162671
856.869	0.0164983
856.947	0.0163026
857.026	0.0163809
857.104	0.0165108
857.182	0.0164418
857.260	0.0163677
857.338	0.0164043
857.416	0.0164864
857.494	0.0164889
857.572	0.0165123
857.651	0.0164034
857.729	0.0164230
857.807	0.0163461
857.885	0.0164246
857.963	0.0163599
858.041	0.0164194
858.119	0.0164408
858.197	0.0163094
858.276	0.0165345
858.354	0.0165079
858.432	0.0163656
858.510	0.0163573
858.588	0.0163875
858.666	0.0163467
858.744	0.0162347
858.822	0.0164672
858.901	0.0164346
858.979	0.0164307
859.057	0.0163780
859.135	0.0164111
859.213	0.0163516
859.291	0.0164262
859.369	0.0164925
859.447	0.0164367
859.526	0.0164503
859.604	0.0166241
859.682	0.0165619
859.760	0.0165461
859.838	0.0166129
859.916	0.0165977
859.994	0.0165906
860.072	0.0166671
860.151	0.0167249
860.229	0.0167788
860.307	0.0167323
860.385	0.0166290
860.463	0.0167840
860.541	0.0168316
860.619	0.0169017
860.697	0.0168463
860.776	0.0167954
860.854	0.0168842
860.932	0.0167678
861.010	0.0168260
861.088	0.0168504
861.166	0.0168340
861.244	0.0168966
861.322	0.0169143
861.401	0.0167868
861.479	0.0169125
861.557	0.0171393
861.635	0.0171374
861.713	0.0169539
861.791	0.0169548
861.869	0.0171801
861.947	0.0172718
862.026	0.0169866
862.104	0.0169836
862.182	0.0170506
862.260	0.0170775
862.338	0.0171614
862.416	0.0171300
862.494	0.0170011
862.572	0.0169705
862.651	0.0170765
862.729	0.0171040
862.807	0.0169282
862.885	0.0169104
862.963	0.0169495
863.041	0.0169704
863.119	0.0169782
863.197	0.0169666
863.276	0.0168961
863.354	0.0168072
863.432	0.0168787
863.510	0.0168175
863.588	0.0168216
863.666	0.0168142
863.744	0.0167391
863.822	0.0166778
863.901	0.0166150
863.979	0.0167435
864.057	0.0166663
864.135	0.0167329
864.213	0.0167549
864.291	0.0166969
864.369	0.0167332
864.447	0.0166422
864.526	0.0166418
864.604	0.0167110
864.682	0.0166232
864.760	0.0166593
864.838	0.0166293
864.916	0.0167126
864.994	0.0166897
865.072	0.0165853
865.151	0.0166225
865.229	0.0165136
865.307	0.0166464
865.385	0.0166453
865.463	0.0165762
865.541	0.0165141
865.619	0.0165317
865.697	0.0165654
865.776	0.0164941
865.854	0.0164574
865.932	0.0165613
866.010	0.0164455
866.088	0.0166564
866.166	0.0165864
866.244	0.0165697
866.322	0.0165879
866.401	0.0165324
866.479	0.0164212
866.557	0.0165616
866.635	0.0166558
866.713	0.0165270
866.791	0.0164935
866.869	0.0166983
866.947	0.0165077
867.026	0.0166416
867.104	0.0165912
867.182	0.0166126
867.260	0.0166134
867.338	0.0165398
867.416	0.0166163
867.494	0.0166292
867.572	0.0167084
867.651	0.0166971
867.729	0.0166213
867.807	0.0167077
867.885	0.0166601
867.963	0.0167076
868.041	0.0167990
868.119	0.0167422
868.197	0.0168234
868.276	0.0168494
868.354	0.0167506
868.432	0.0168104
868.510	0.0167490
868.588	0.0169517
868.666	0.0168378
868.744	0.0168028
868.822	0.0169501
868.901	0.0169057
868.979	0.0170292
869.057	0.0169978
869.135	0.0170090
869.213	0.0170489
869.291	0.0169946
869.369	0.0170936
869.447	0.0169520
869.526	0.0169436
869.604	0.0168378
869.682	0.0168388
869.760	0.0169088
869.838	0.0169761
869.916	0.0168581
869.994	0.0168024
870.072	0.0167630
870.151	0.0167881
870.229	0.0167734
870.307	0.0168637
870.385	0.0167377
870.463	0.0168573
870.541	0.0167160
870.619	0.0167718
870.697	0.0167000
870.776	0.0166713
870.854	0.0168186
870.932	0.0165645
871.010	0.0166676
871.088	0.0166053
871.166	0.0166164
871.244	0.0165582
871.322	0.0166025
871.401	0.0165701
871.479	0.0165264
871.557	0.0165369
871.635	0.0164775
871.713	0.0165200
871.791	0.0164617
871.869	0.0165207
871.947	0.0164239
872.026	0.0165782
872.104	0.0166412
872.182	0.0166135
872.260	0.0165347
872.338	0.0166667
872.416	0.0167981
872.494	0.0166376
872.572	0.0165930
872.651	0.0167009
872.729	0.0166125
872.807	0.0165309
872.885	0.0167950
872.963	0.0167667
873.041	0.0166725
873.119	0.0167178
873.197	0.0167818
873.276	0.0167815
873.354	0.0167614
873.432	0.0166233
873.510	0.0167390
873.588	0.0167171
873.666	0.0166849
873.744	0.0166573
873.822	0.0167021
873.901	0.0166413
873.979	0.0168317
874.057	0.0168056
874.135	0.0167360
874.213	0.0168047
874.291	0.0168035
874.369	0.0168874
874.447	0.0166644
874.526	0.0166407
874.604	0.0166753
874.682	0.0165726
874.760	0.0165827
874.838	0.0166830
874.916	0.0165325
874.994	0.0166949
875.072	0.0166301
875.151	0.0165889
875.229	0.0166305
875.307	0.0164478
875.385	0.0164802
875.463	0.0164938
875.541	0.0163776
875.619	0.0165163
875.697	0.0165344
875.776	0.0165009
875.854	0.0163992
875.932	0.0164349
876.010	0.0164048
876.088	0.0164391
876.166	0.0164132
876.244	0.0165510
876.322	0.0164066
876.401	0.0164020
876.479	0.0164102
876.557	0.0164066
876.635	0.0164133
876.713	0.0165765
876.791	0.0164172
876.869	0.0164204
876.947	0.0163467
877.026	0.0165398
877.104	0.0165131
877.182	0.0163683
877.260	0.0165193
877.338	0.0163809
877.416	0.0163494
877.494	0.0164765
877.572	0.0164271
877.651	0.0164368
877.729	0.0163882
877.807	0.0163330
877.885	0.0164371
877.963	0.0163996
878.041	0.0164909
878.119	0.0166493
878.197	0.0163313
878.276	0.0164408
878.354	0.0164967
878.432	0.0164741
878.510	0.0165464
878.588	0.0164618
878.666	0.0164350
878.744	0.0164874
878.822	0.0165170
878.901	0.0164863
878.979	0.0165243
879.057	0.0164024
879.135	0.0166373
879.213	0.0165812
879.291	0.0165447
879.369	0.0167048
879.447	0.0167243
879.526	0.0167033
879.604	0.0167760
879.682	0.0167036
879.760	0.0167434
879.838	0.0167776
879.916	0.0168638
879.994	0.0167257
880.072	0.0166829
880.151	0.0168779
880.229	0.0167604
880.307	0.0168552
880.385	0.0167657
880.463	0.0168239
880.541	0.0169624
880.619	0.0169583
880.697	0.0169291
880.776	0.0167783
880.854	0.0170074
880.932	0.0169469
881.010	0.0169216
881.088	0.0168496
881.166	0.0169116
881.244	0.0169370
881.322	0.0169077
881.401	0.0168777
881.479	0.0168935
881.557	0.0170596
881.635	0.0168536
881.713	0.0169399
881.791	0.0168666
881.869	0.0168249
881.947	0.0168372
882.026	0.0169345
882.104	0.0168081
882.182	0.0168181
882.260	0.0168182
882.338	0.0168594
882.416	0.0167214
882.494	0.0167741
882.572	0.0168119
882.651	0.0167779
882.729	0.0168183
882.807	0.0169962
882.885	0.0168505
882.963	0.0167671
883.041	0.0167940
883.119	0.0168217
883.197	0.0168280
883.276	0.0167723
883.354	0.0167143
883.432	0.0167335
883.510	0.0168952
883.588	0.0169672
883.666	0.0168323
883.744	0.0167365
883.822	0.0167754
883.901	0.0169237
883.979	0.0167492
884.057	0.0166776
884.135	0.0166389
884.213	0.0168102
884.291	0.0167242
884.369	0.0166338
884.447	0.0166109
884.526	0.0168624
884.604	0.0168157
884.682	0.0165917
884.760	0.0166403
884.838	0.0166048
884.916	0.0167269
884.994	0.0166271
885.072	0.0165923
885.151	0.0166146
885.229	0.0165150
885.307	0.0165872
885.385	0.0165878
885.463	0.0165476
885.541	0.0164402
885.619	0.0164514
885.697	0.0164379
885.776	0.0166321
885.854	0.0164221
885.932	0.0164446
886.010	0.0165443
886.088	0.0164190
886.166	0.0164956
886.244	0.0166797
886.322	0.0165362
886.401	0.0167645
886.479	0.0166862
886.557	0.0165548
886.635	0.0166620
886.713	0.0165068
886.791	0.0166659
886.869	0.0167222
886.947	0.0166716
887.026	0.0166727
887.104	0.0166406
887.182	0.0166805
887.260	0.0166279
887.338	0.0167137
887.416	0.0166038
887.494	0.0166789
887.572	0.0166297
887.651	0.0166424
887.729	0.0165287
887.807	0.0165220
887.885	0.0165504
887.963	0.0165295
888.041	0.0165671
888.119	0.0164538
888.197	0.0165369
888.276	0.0164382
888.354	0.0164634
888.432	0.0164568
888.510	0.0165359
888.588	0.0165678
888.666	0.0164700
888.744	0.0165034
888.822	0.0165191
888.901	0.0165584
888.979	0.0165575
889.057	0.0165299
889.135	0.0165436
889.213	0.0164970
889.291	0.0165784
889.369	0.0165961
889.447	0.0165379
889.526	0.0166671
889.604	0.0166313
889.682	0.0166637
889.760	0.0164903
889.838	0.0165938
889.916	0.0165492
