06/03/2022	15:28:45	Ver.	4.1	UNKNOWN
Optical Delay	550.020508	Delta X		0.078125	Sweeps	1	Scan Rate	0/0
Coordinates	Axis 1	NaN	Axis 2	NaN	Axis 3	NaN	Axis 4	NaN	Axis 5	NaN	Axis 6	0.000000
TX Power	0.000000	RX Power	0.000000

550.021	0.0168744
550.099	0.0169731
550.177	0.0169926
550.255	0.0169979
550.333	0.0168478
550.411	0.0169225
550.489	0.0168934
550.567	0.0168033
550.646	0.0168559
550.724	0.0168425
550.802	0.0168309
550.880	0.0170034
550.958	0.0168538
551.036	0.0168192
551.114	0.0169800
551.192	0.0170029
551.271	0.0167931
551.349	0.0168635
551.427	0.0168854
551.505	0.0168739
551.583	0.0168439
551.661	0.0168882
551.739	0.0168819
551.817	0.0169315
551.896	0.0169257
551.974	0.0169305
552.052	0.0168872
552.130	0.0168537
552.208	0.0168728
552.286	0.0169068
552.364	0.0169322
552.442	0.0167986
552.521	0.0166766
552.599	0.0168323
552.677	0.0169669
552.755	0.0167946
552.833	0.0168453
552.911	0.0169622
552.989	0.0168893
553.067	0.0169518
553.146	0.0168036
553.224	0.0168569
553.302	0.0168973
553.380	0.0168989
553.458	0.0168883
553.536	0.0170290
553.614	0.0169308
553.692	0.0170237
553.771	0.0168781
553.849	0.0168562
553.927	0.0170288
554.005	0.0168298
554.083	0.0168707
554.161	0.0169958
554.239	0.0169125
554.317	0.0170457
554.396	0.0169632
554.474	0.0167596
554.552	0.0170195
554.630	0.0168839
554.708	0.0168836
554.786	0.0167639
554.864	0.0167995
554.942	0.0168884
555.021	0.0169006
555.099	0.0168783
555.177	0.0169048
555.255	0.0169128
555.333	0.0169706
555.411	0.0169733
555.489	0.0167606
555.567	0.0168694
555.646	0.0168932
555.724	0.0169433
555.802	0.0168642
555.880	0.0167640
555.958	0.0168917
556.036	0.0170107
556.114	0.0169048
556.192	0.0168321
556.271	0.0169337
556.349	0.0167772
556.427	0.0168648
556.505	0.0167934
556.583	0.0168468
556.661	0.0168176
556.739	0.0168714
556.817	0.0168911
556.896	0.0169241
556.974	0.0168860
557.052	0.0169888
557.130	0.0168072
557.208	0.0168734
557.286	0.0169179
557.364	0.0167860
557.442	0.0168076
557.521	0.0169449
557.599	0.0168609
557.677	0.0169965
557.755	0.0168945
557.833	0.0168376
557.911	0.0170052
557.989	0.0169906
558.067	0.0168279
558.146	0.0169901
558.224	0.0168440
558.302	0.0168832
558.380	0.0170005
558.458	0.0169579
558.536	0.0168262
558.614	0.0168587
558.692	0.0168214
558.771	0.0168895
558.849	0.0168477
558.927	0.0169488
559.005	0.0168999
559.083	0.0170037
559.161	0.0170124
559.239	0.0169704
559.317	0.0170223
559.396	0.0168805
559.474	0.0169051
559.552	0.0168239
559.630	0.0169034
559.708	0.0167697
559.786	0.0166924
559.864	0.0169492
559.942	0.0170551
560.021	0.0167562
560.099	0.0168173
560.177	0.0168684
560.255	0.0169573
560.333	0.0167102
560.411	0.0169379
560.489	0.0168391
560.567	0.0166974
560.646	0.0168797
560.724	0.0169875
560.802	0.0169750
560.880	0.0170060
560.958	0.0169214
561.036	0.0168439
561.114	0.0168951
561.192	0.0168589
561.271	0.0168327
561.349	0.0168430
561.427	0.0168230
561.505	0.0168363
561.583	0.0168542
561.661	0.0169476
561.739	0.0169805
561.817	0.0169209
561.896	0.0169089
561.974	0.0169613
562.052	0.0169935
562.130	0.0168490
562.208	0.0168208
562.286	0.0168535
562.364	0.0168490
562.442	0.0168998
562.521	0.0167937
562.599	0.0169299
562.677	0.0169497
562.755	0.0168132
562.833	0.0168517
562.911	0.0169180
562.989	0.0168652
563.067	0.0169167
563.146	0.0169736
563.224	0.0168079
563.302	0.0168272
563.380	0.0168073
563.458	0.0169164
563.536	0.0168430
563.614	0.0169096
563.692	0.0168254
563.771	0.0167583
563.849	0.0167856
563.927	0.0168282
564.005	0.0167980
564.083	0.0168401
564.161	0.0168420
564.239	0.0170597
564.317	0.0169537
564.396	0.0168964
564.474	0.0168369
564.552	0.0168179
564.630	0.0166981
564.708	0.0169296
564.786	0.0168609
564.864	0.0169649
564.942	0.0169815
565.021	0.0168321
565.099	0.0168539
565.177	0.0168757
565.255	0.0169106
565.333	0.0169776
565.411	0.0169059
565.489	0.0168040
565.567	0.0168102
565.646	0.0170169
565.724	0.0170947
565.802	0.0168113
565.880	0.0168903
565.958	0.0168754
566.036	0.0168591
566.114	0.0168946
566.192	0.0169772
566.271	0.0168105
566.349	0.0168917
566.427	0.0168527
566.505	0.0170077
566.583	0.0169505
566.661	0.0169432
566.739	0.0169565
566.817	0.0170058
566.896	0.0168795
566.974	0.0169865
567.052	0.0169241
567.130	0.0170010
567.208	0.0170081
567.286	0.0168996
567.364	0.0168367
567.442	0.0169144
567.521	0.0169297
567.599	0.0168753
567.677	0.0169022
567.755	0.0169196
567.833	0.0168624
567.911	0.0169104
567.989	0.0167911
568.067	0.0169939
568.146	0.0168886
568.224	0.0168263
568.302	0.0168356
568.380	0.0168198
568.458	0.0169245
568.536	0.0168365
568.614	0.0169373
568.692	0.0168259
568.771	0.0168489
568.849	0.0168478
568.927	0.0168632
569.005	0.0168169
569.083	0.0168280
569.161	0.0169005
569.239	0.0169189
569.317	0.0168306
569.396	0.0168305
569.474	0.0169309
569.552	0.0168133
569.630	0.0168311
569.708	0.0169044
569.786	0.0169147
569.864	0.0168434
569.942	0.0168076
570.021	0.0169354
570.099	0.0169636
570.177	0.0168209
570.255	0.0168556
570.333	0.0168303
570.411	0.0167443
570.489	0.0168024
570.567	0.0168965
570.646	0.0169513
570.724	0.0169334
570.802	0.0168043
570.880	0.0167963
570.958	0.0169471
571.036	0.0167975
571.114	0.0169595
571.192	0.0168935
571.271	0.0169340
571.349	0.0168431
571.427	0.0168683
571.505	0.0168343
571.583	0.0169164
571.661	0.0168851
571.739	0.0169106
571.817	0.0169023
571.896	0.0168622
571.974	0.0169631
572.052	0.0169111
572.130	0.0169276
572.208	0.0168827
572.286	0.0169460
572.364	0.0168676
572.442	0.0167622
572.521	0.0168940
572.599	0.0169270
572.677	0.0167780
572.755	0.0168484
572.833	0.0168170
572.911	0.0169682
572.989	0.0169760
573.067	0.0168494
573.146	0.0169272
573.224	0.0169207
573.302	0.0169817
573.380	0.0169572
573.458	0.0167976
573.536	0.0169057
573.614	0.0168954
573.692	0.0168301
573.771	0.0168075
573.849	0.0168687
573.927	0.0168475
574.005	0.0168356
574.083	0.0169303
574.161	0.0167553
574.239	0.0170003
574.317	0.0169029
574.396	0.0169625
574.474	0.0167935
574.552	0.0169541
574.630	0.0169176
574.708	0.0169601
574.786	0.0168512
574.864	0.0169510
574.942	0.0169579
575.021	0.0168694
575.099	0.0170132
575.177	0.0168515
575.255	0.0168613
575.333	0.0170417
575.411	0.0169482
575.489	0.0169801
575.567	0.0169418
575.646	0.0170232
575.724	0.0167722
575.802	0.0169799
575.880	0.0168089
575.958	0.0167807
576.036	0.0169311
576.114	0.0168703
576.192	0.0168224
576.271	0.0169459
576.349	0.0169069
576.427	0.0169130
576.505	0.0168747
576.583	0.0167968
576.661	0.0168259
576.739	0.0168082
576.817	0.0168571
576.896	0.0169802
576.974	0.0168381
577.052	0.0167947
577.130	0.0167892
577.208	0.0169153
577.286	0.0167725
577.364	0.0168334
577.442	0.0169442
577.521	0.0169339
577.599	0.0168442
577.677	0.0168377
577.755	0.0168314
577.833	0.0168907
577.911	0.0170405
577.989	0.0168182
578.067	0.0167870
578.146	0.0168341
578.224	0.0169183
578.302	0.0169093
578.380	0.0168471
578.458	0.0167550
578.536	0.0168820
578.614	0.0169499
578.692	0.0168410
578.771	0.0168244
578.849	0.0169161
578.927	0.0167700
579.005	0.0168736
579.083	0.0168863
579.161	0.0168944
579.239	0.0167810
579.317	0.0168588
579.396	0.0167031
579.474	0.0169215
579.552	0.0168667
579.630	0.0168291
579.708	0.0168002
579.786	0.0168968
579.864	0.0167682
579.942	0.0167654
580.021	0.0168933
580.099	0.0170299
580.177	0.0169466
580.255	0.0167908
580.333	0.0169604
580.411	0.0168565
580.489	0.0168736
580.567	0.0169362
580.646	0.0168787
580.724	0.0169387
580.802	0.0169368
580.880	0.0169496
580.958	0.0168030
581.036	0.0169570
581.114	0.0170580
581.192	0.0169090
581.271	0.0168706
581.349	0.0169356
581.427	0.0169431
581.505	0.0169728
581.583	0.0168370
581.661	0.0167950
581.739	0.0168283
581.817	0.0168708
581.896	0.0169357
581.974	0.0168887
582.052	0.0168771
582.130	0.0168859
582.208	0.0168353
582.286	0.0167400
582.364	0.0169151
582.442	0.0169125
582.521	0.0167862
582.599	0.0169010
582.677	0.0168668
582.755	0.0167807
582.833	0.0167673
582.911	0.0169304
582.989	0.0168367
583.067	0.0168145
583.146	0.0166953
583.224	0.0168246
583.302	0.0169959
583.380	0.0170112
583.458	0.0168382
583.536	0.0168089
583.614	0.0168454
583.692	0.0167860
583.771	0.0169372
583.849	0.0169232
583.927	0.0169150
584.005	0.0167758
584.083	0.0169209
584.161	0.0169904
584.239	0.0169208
584.317	0.0169115
584.396	0.0168810
584.474	0.0168298
584.552	0.0168808
584.630	0.0170168
584.708	0.0168630
584.786	0.0168441
584.864	0.0169114
584.942	0.0170080
585.021	0.0169573
585.099	0.0169350
585.177	0.0170213
585.255	0.0167902
585.333	0.0168112
585.411	0.0167918
585.489	0.0168230
585.567	0.0169650
585.646	0.0169512
585.724	0.0168552
585.802	0.0169745
585.880	0.0166953
585.958	0.0167633
586.036	0.0169611
586.114	0.0169338
586.192	0.0169285
586.271	0.0168954
586.349	0.0167892
586.427	0.0167460
586.505	0.0167268
586.583	0.0170390
586.661	0.0169652
586.739	0.0168104
586.817	0.0169283
586.896	0.0169009
586.974	0.0166887
587.052	0.0168484
587.130	0.0168607
587.208	0.0167899
587.286	0.0169079
587.364	0.0167908
587.442	0.0169331
587.521	0.0169025
587.599	0.0168977
587.677	0.0167976
587.755	0.0168580
587.833	0.0168804
587.911	0.0168949
587.989	0.0168945
588.067	0.0168211
588.146	0.0169135
588.224	0.0168939
588.302	0.0168723
588.380	0.0167985
588.458	0.0169131
588.536	0.0168916
588.614	0.0168058
588.692	0.0169226
588.771	0.0168301
588.849	0.0168777
588.927	0.0169454
589.005	0.0168990
589.083	0.0170083
589.161	0.0170320
589.239	0.0167695
589.317	0.0168143
589.396	0.0170079
589.474	0.0168351
589.552	0.0168743
589.630	0.0168174
589.708	0.0168325
589.786	0.0168705
589.864	0.0168285
589.942	0.0169966
590.021	0.0167561
590.099	0.0167930
590.177	0.0167976
590.255	0.0168045
590.333	0.0168626
590.411	0.0168861
590.489	0.0168829
590.567	0.0168558
590.646	0.0169433
590.724	0.0170458
590.802	0.0169656
590.880	0.0169033
590.958	0.0168752
591.036	0.0168598
591.114	0.0167678
591.192	0.0169272
591.271	0.0169012
591.349	0.0166936
591.427	0.0167365
591.505	0.0169955
591.583	0.0169106
591.661	0.0168954
591.739	0.0170210
591.817	0.0169533
591.896	0.0170214
591.974	0.0169399
592.052	0.0168517
592.130	0.0169262
592.208	0.0168914
592.286	0.0169695
592.364	0.0167611
592.442	0.0168794
592.521	0.0169603
592.599	0.0169640
592.677	0.0169347
592.755	0.0169781
592.833	0.0170705
592.911	0.0169516
592.989	0.0168629
593.067	0.0169037
593.146	0.0167953
593.224	0.0168499
593.302	0.0167466
593.380	0.0169909
593.458	0.0169118
593.536	0.0168953
593.614	0.0168283
593.692	0.0168323
593.771	0.0168991
593.849	0.0168676
593.927	0.0169151
594.005	0.0167970
594.083	0.0168075
594.161	0.0168895
594.239	0.0168192
594.317	0.0169589
594.396	0.0169444
594.474	0.0168654
594.552	0.0168459
594.630	0.0168217
594.708	0.0169368
594.786	0.0168693
594.864	0.0168285
594.942	0.0168657
595.021	0.0169326
595.099	0.0168782
595.177	0.0168799
595.255	0.0169696
595.333	0.0169257
595.411	0.0168649
595.489	0.0168615
595.567	0.0168873
595.646	0.0168601
595.724	0.0168491
595.802	0.0168413
595.880	0.0169376
595.958	0.0168865
596.036	0.0168952
596.114	0.0167850
596.192	0.0169563
596.271	0.0168478
596.349	0.0168433
596.427	0.0168978
596.505	0.0168250
596.583	0.0168240
596.661	0.0170250
596.739	0.0168657
596.817	0.0167882
596.896	0.0169634
596.974	0.0168500
597.052	0.0168190
597.130	0.0169608
597.208	0.0167808
597.286	0.0167036
597.364	0.0168841
597.442	0.0167878
597.521	0.0168736
597.599	0.0168440
597.677	0.0168897
597.755	0.0168246
597.833	0.0169078
597.911	0.0167130
597.989	0.0167541
598.067	0.0169342
598.146	0.0168199
598.224	0.0167719
598.302	0.0169890
598.380	0.0168928
598.458	0.0168559
598.536	0.0169200
598.614	0.0168884
598.692	0.0169200
598.771	0.0168250
598.849	0.0167719
598.927	0.0167371
599.005	0.0169898
599.083	0.0168090
599.161	0.0167916
599.239	0.0169479
599.317	0.0169933
599.396	0.0169031
599.474	0.0169093
599.552	0.0168932
599.630	0.0169037
599.708	0.0169174
599.786	0.0168507
599.864	0.0167834
599.942	0.0169444
600.021	0.0170615
600.099	0.0168923
600.177	0.0168954
600.255	0.0168695
600.333	0.0170754
600.411	0.0168893
600.489	0.0168533
600.567	0.0170219
600.646	0.0169981
600.724	0.0169037
600.802	0.0170341
600.880	0.0169673
600.958	0.0168771
601.036	0.0170062
601.114	0.0168747
601.192	0.0168565
601.271	0.0167486
601.349	0.0168521
601.427	0.0170092
601.505	0.0167852
601.583	0.0167283
601.661	0.0168447
601.739	0.0169332
601.817	0.0168582
601.896	0.0168424
601.974	0.0168726
602.052	0.0168523
602.130	0.0168278
602.208	0.0167229
602.286	0.0168709
602.364	0.0170007
602.442	0.0168587
602.521	0.0169106
602.599	0.0168748
602.677	0.0168465
602.755	0.0169151
602.833	0.0169154
602.911	0.0168418
602.989	0.0169749
603.067	0.0170144
603.146	0.0169111
603.224	0.0168465
603.302	0.0169238
603.380	0.0170213
603.458	0.0169201
603.536	0.0168636
603.614	0.0168330
603.692	0.0167583
603.771	0.0169365
603.849	0.0168854
603.927	0.0168367
604.005	0.0168478
604.083	0.0167700
604.161	0.0168101
604.239	0.0169549
604.317	0.0168613
604.396	0.0167738
604.474	0.0167782
604.552	0.0167624
604.630	0.0167583
604.708	0.0168680
604.786	0.0167736
604.864	0.0168373
604.942	0.0168461
605.021	0.0168668
605.099	0.0168680
605.177	0.0169184
605.255	0.0169385
605.333	0.0168069
605.411	0.0168337
605.489	0.0168018
605.567	0.0168425
605.646	0.0168024
605.724	0.0169036
605.802	0.0168566
605.880	0.0170592
605.958	0.0168265
606.036	0.0166710
606.114	0.0166737
606.192	0.0167250
606.271	0.0169503
606.349	0.0169547
606.427	0.0167870
606.505	0.0168002
606.583	0.0167707
606.661	0.0168350
606.739	0.0168223
606.817	0.0167416
606.896	0.0168915
606.974	0.0168887
607.052	0.0169805
607.130	0.0168256
607.208	0.0168594
607.286	0.0168002
607.364	0.0169022
607.442	0.0168502
607.521	0.0168719
607.599	0.0167676
607.677	0.0168594
607.755	0.0169595
607.833	0.0168565
607.911	0.0167631
607.989	0.0169586
608.067	0.0168197
608.146	0.0167725
608.224	0.0168066
608.302	0.0166914
608.380	0.0168946
608.458	0.0169527
608.536	0.0169068
608.614	0.0168942
608.692	0.0167446
608.771	0.0168018
608.849	0.0168425
608.927	0.0168723
609.005	0.0169511
609.083	0.0168542
609.161	0.0167660
609.239	0.0168376
609.317	0.0169926
609.396	0.0167163
609.474	0.0167957
609.552	0.0167876
609.630	0.0169006
609.708	0.0169492
609.786	0.0168753
609.864	0.0168267
609.942	0.0168204
610.021	0.0169687
610.099	0.0168625
610.177	0.0167379
610.255	0.0168539
610.333	0.0168042
610.411	0.0168263
610.489	0.0166985
610.567	0.0167993
610.646	0.0168405
610.724	0.0170121
610.802	0.0168317
610.880	0.0168219
610.958	0.0167252
611.036	0.0167463
611.114	0.0167480
611.192	0.0168227
611.271	0.0169602
611.349	0.0168099
611.427	0.0167132
611.505	0.0167848
611.583	0.0168520
611.661	0.0168922
611.739	0.0167928
611.817	0.0168331
611.896	0.0168624
611.974	0.0169309
612.052	0.0168244
612.130	0.0168705
612.208	0.0167818
612.286	0.0169064
612.364	0.0167966
612.442	0.0167889
612.521	0.0168519
612.599	0.0169031
612.677	0.0168716
612.755	0.0168901
612.833	0.0168542
612.911	0.0168849
612.989	0.0167448
613.067	0.0168869
613.146	0.0169434
613.224	0.0167599
613.302	0.0167662
613.380	0.0168609
613.458	0.0169657
613.536	0.0169013
613.614	0.0166785
613.692	0.0167197
613.771	0.0169964
613.849	0.0169067
613.927	0.0167558
614.005	0.0169239
614.083	0.0168761
614.161	0.0169212
614.239	0.0169033
614.317	0.0167181
614.396	0.0167578
614.474	0.0166903
614.552	0.0168755
614.630	0.0169595
614.708	0.0167132
614.786	0.0169740
614.864	0.0167511
614.942	0.0167994
615.021	0.0168014
615.099	0.0168941
615.177	0.0168168
615.255	0.0169191
615.333	0.0168481
615.411	0.0168460
615.489	0.0167946
615.567	0.0167778
615.646	0.0169355
615.724	0.0170894
615.802	0.0170903
615.880	0.0167471
615.958	0.0168319
616.036	0.0170262
616.114	0.0167889
616.192	0.0167764
616.271	0.0169294
616.349	0.0168131
616.427	0.0169165
616.505	0.0168777
616.583	0.0168379
616.661	0.0168801
616.739	0.0168390
616.817	0.0167793
616.896	0.0169384
616.974	0.0168394
617.052	0.0168941
617.130	0.0168784
617.208	0.0167896
617.286	0.0169049
617.364	0.0169311
617.442	0.0168857
617.521	0.0168819
617.599	0.0167699
617.677	0.0168613
617.755	0.0167516
617.833	0.0167770
617.911	0.0169344
617.989	0.0168801
618.067	0.0168816
618.146	0.0168752
618.224	0.0169155
618.302	0.0168364
618.380	0.0167929
618.458	0.0168855
618.536	0.0168777
618.614	0.0167461
618.692	0.0168412
618.771	0.0168819
618.849	0.0169851
618.927	0.0168202
619.005	0.0167700
619.083	0.0169220
619.161	0.0168452
619.239	0.0168892
619.317	0.0168260
619.396	0.0168086
619.474	0.0167612
619.552	0.0167184
619.630	0.0168285
619.708	0.0168612
619.786	0.0168027
619.864	0.0168732
619.942	0.0168041
620.021	0.0170300
620.099	0.0168823
620.177	0.0167712
620.255	0.0168300
620.333	0.0167832
620.411	0.0168044
620.489	0.0168719
620.567	0.0169072
620.646	0.0168926
620.724	0.0169346
620.802	0.0169988
620.880	0.0169672
620.958	0.0168981
621.036	0.0168103
621.114	0.0167962
621.192	0.0168919
621.271	0.0168964
621.349	0.0168663
621.427	0.0168570
621.505	0.0168931
621.583	0.0167841
621.661	0.0169245
621.739	0.0168365
621.817	0.0167612
621.896	0.0169049
621.974	0.0168872
622.052	0.0168491
622.130	0.0168707
622.208	0.0168223
622.286	0.0168810
622.364	0.0168364
622.442	0.0167479
622.521	0.0168875
622.599	0.0167587
622.677	0.0168069
622.755	0.0169449
622.833	0.0169344
622.911	0.0167008
622.989	0.0168071
623.067	0.0168172
623.146	0.0168711
623.224	0.0168798
623.302	0.0170541
623.380	0.0169936
623.458	0.0168531
623.536	0.0168381
623.614	0.0170190
623.692	0.0170929
623.771	0.0168710
623.849	0.0168403
623.927	0.0166920
624.005	0.0169379
624.083	0.0169011
624.161	0.0169186
624.239	0.0168377
624.317	0.0168226
624.396	0.0169180
624.474	0.0166547
624.552	0.0169254
624.630	0.0168178
624.708	0.0167188
624.786	0.0169352
624.864	0.0167651
624.942	0.0167619
625.021	0.0169634
625.099	0.0168662
625.177	0.0168472
625.255	0.0168753
625.333	0.0168524
625.411	0.0169911
625.489	0.0167760
625.567	0.0169012
625.646	0.0169346
625.724	0.0169732
625.802	0.0168481
625.880	0.0170216
625.958	0.0169514
626.036	0.0167945
626.114	0.0168954
626.192	0.0169430
626.271	0.0168951
626.349	0.0168368
626.427	0.0167944
626.505	0.0168018
626.583	0.0170750
626.661	0.0167243
626.739	0.0167718
626.817	0.0169146
626.896	0.0168604
626.974	0.0167079
627.052	0.0167108
627.130	0.0168341
627.208	0.0169751
627.286	0.0168855
627.364	0.0166972
627.442	0.0168407
627.521	0.0169055
627.599	0.0169401
627.677	0.0169344
627.755	0.0168465
627.833	0.0167627
627.911	0.0169628
627.989	0.0168956
628.067	0.0169740
628.146	0.0168789
628.224	0.0167397
628.302	0.0168962
628.380	0.0168231
628.458	0.0168772
628.536	0.0168816
628.614	0.0167612
628.692	0.0168669
628.771	0.0169140
628.849	0.0169106
628.927	0.0168452
629.005	0.0166620
629.083	0.0169405
629.161	0.0170234
629.239	0.0168984
629.317	0.0168405
629.396	0.0168915
629.474	0.0168975
629.552	0.0168806
629.630	0.0168181
629.708	0.0167660
629.786	0.0168481
629.864	0.0168545
629.942	0.0168319
630.021	0.0167431
630.099	0.0168971
630.177	0.0168076
630.255	0.0168063
630.333	0.0169214
630.411	0.0169093
630.489	0.0167844
630.567	0.0168086
630.646	0.0168935
630.724	0.0168934
630.802	0.0169039
630.880	0.0169422
630.958	0.0167902
631.036	0.0168219
631.114	0.0168791
631.192	0.0169044
631.271	0.0167258
631.349	0.0167811
631.427	0.0169367
631.505	0.0166646
631.583	0.0168429
631.661	0.0168835
631.739	0.0167954
631.817	0.0168430
631.896	0.0168516
631.974	0.0169158
632.052	0.0167983
632.130	0.0168605
632.208	0.0167987
632.286	0.0168025
632.364	0.0169464
632.442	0.0168619
632.521	0.0167191
632.599	0.0168007
632.677	0.0167711
632.755	0.0167144
632.833	0.0168414
632.911	0.0168589
632.989	0.0168554
633.067	0.0166716
633.146	0.0169003
633.224	0.0168002
633.302	0.0168225
633.380	0.0167483
633.458	0.0168382
633.536	0.0168219
633.614	0.0169382
633.692	0.0168964
633.771	0.0168758
633.849	0.0168018
633.927	0.0167585
634.005	0.0168597
634.083	0.0168305
634.161	0.0168678
634.239	0.0168645
634.317	0.0168518
634.396	0.0167439
634.474	0.0170039
634.552	0.0169514
634.630	0.0167744
634.708	0.0167902
634.786	0.0167722
634.864	0.0169239
634.942	0.0168818
635.021	0.0167940
635.099	0.0168599
635.177	0.0168767
635.255	0.0169005
635.333	0.0167860
635.411	0.0169909
635.489	0.0168067
635.567	0.0168586
635.646	0.0169472
635.724	0.0168008
635.802	0.0168777
635.880	0.0168037
635.958	0.0168758
636.036	0.0168072
636.114	0.0167578
636.192	0.0170748
636.271	0.0167380
636.349	0.0168179
636.427	0.0168719
636.505	0.0169404
636.583	0.0168684
636.661	0.0167368
636.739	0.0168423
636.817	0.0168581
636.896	0.0169104
636.974	0.0169442
637.052	0.0168551
637.130	0.0169833
637.208	0.0169773
637.286	0.0169007
637.364	0.0167806
637.442	0.0168114
637.521	0.0167701
637.599	0.0168369
637.677	0.0169328
637.755	0.0168595
637.833	0.0169988
637.911	0.0169333
637.989	0.0169342
638.067	0.0168814
638.146	0.0167721
638.224	0.0167957
638.302	0.0168806
638.380	0.0168879
638.458	0.0169136
638.536	0.0167908
638.614	0.0169026
638.692	0.0168021
638.771	0.0167633
638.849	0.0169601
638.927	0.0169428
639.005	0.0169794
639.083	0.0168655
639.161	0.0167772
639.239	0.0168321
639.317	0.0169073
639.396	0.0169084
639.474	0.0169293
639.552	0.0167934
639.630	0.0168642
639.708	0.0170012
639.786	0.0169132
639.864	0.0169294
639.942	0.0168532
640.021	0.0169440
640.099	0.0167846
640.177	0.0169778
640.255	0.0169652
640.333	0.0168879
640.411	0.0168980
640.489	0.0169111
640.567	0.0167660
640.646	0.0169128
640.724	0.0168511
640.802	0.0168682
640.880	0.0169701
640.958	0.0167896
641.036	0.0169326
641.114	0.0168752
641.192	0.0167890
641.271	0.0168916
641.349	0.0168751
641.427	0.0169241
641.505	0.0169518
641.583	0.0168594
641.661	0.0168359
641.739	0.0170797
641.817	0.0169586
641.896	0.0169356
641.974	0.0168864
642.052	0.0168776
642.130	0.0168497
642.208	0.0169550
642.286	0.0169352
642.364	0.0167764
642.442	0.0169895
642.521	0.0168665
642.599	0.0168800
642.677	0.0168226
642.755	0.0168090
642.833	0.0169417
642.911	0.0168551
642.989	0.0168613
643.067	0.0167155
643.146	0.0168447
643.224	0.0168732
643.302	0.0169132
643.380	0.0168744
643.458	0.0168475
643.536	0.0168099
643.614	0.0170056
643.692	0.0167577
643.771	0.0168156
643.849	0.0168594
643.927	0.0170235
644.005	0.0168655
644.083	0.0167867
644.161	0.0169644
644.239	0.0168607
644.317	0.0168971
644.396	0.0168678
644.474	0.0168870
644.552	0.0168194
644.630	0.0168250
644.708	0.0167963
644.786	0.0169574
644.864	0.0169923
644.942	0.0169260
645.021	0.0169457
645.099	0.0167461
645.177	0.0167468
645.255	0.0169999
645.333	0.0168561
645.411	0.0168959
645.489	0.0167910
645.567	0.0168630
645.646	0.0167753
645.724	0.0168989
645.802	0.0168857
645.880	0.0169305
645.958	0.0169073
646.036	0.0169389
646.114	0.0168428
646.192	0.0169387
646.271	0.0168757
646.349	0.0168573
646.427	0.0168653
646.505	0.0168177
646.583	0.0169059
646.661	0.0169424
646.739	0.0169783
646.817	0.0168346
646.896	0.0169043
646.974	0.0168388
647.052	0.0168351
647.130	0.0169562
647.208	0.0168905
647.286	0.0168225
647.364	0.0168562
647.442	0.0168501
647.521	0.0168964
647.599	0.0168102
647.677	0.0169931
647.755	0.0167863
647.833	0.0168655
647.911	0.0168836
647.989	0.0168862
648.067	0.0166907
648.146	0.0168311
648.224	0.0169321
648.302	0.0168449
648.380	0.0168778
648.458	0.0168931
648.536	0.0168586
648.614	0.0168520
648.692	0.0166780
648.771	0.0167889
648.849	0.0167908
648.927	0.0168334
649.005	0.0167296
649.083	0.0168264
649.161	0.0168027
649.239	0.0169035
649.317	0.0168427
649.396	0.0168524
649.474	0.0167884
649.552	0.0167645
649.630	0.0169054
649.708	0.0169866
649.786	0.0168500
649.864	0.0168079
649.942	0.0168638
650.021	0.0166891
650.099	0.0169289
650.177	0.0169356
650.255	0.0169357
650.333	0.0168217
650.411	0.0169051
650.489	0.0170292
650.567	0.0168951
650.646	0.0169971
650.724	0.0168768
650.802	0.0169041
650.880	0.0169000
650.958	0.0168456
651.036	0.0169260
651.114	0.0170087
651.192	0.0168792
651.271	0.0167413
651.349	0.0168209
651.427	0.0168166
651.505	0.0168494
651.583	0.0167702
651.661	0.0169127
651.739	0.0169400
651.817	0.0167971
651.896	0.0167928
651.974	0.0168242
652.052	0.0168563
652.130	0.0169225
652.208	0.0169100
652.286	0.0168220
652.364	0.0168441
652.442	0.0167500
652.521	0.0169563
652.599	0.0169869
652.677	0.0167832
652.755	0.0169518
652.833	0.0168448
652.911	0.0168703
652.989	0.0167881
653.067	0.0168964
653.146	0.0168511
653.224	0.0169617
653.302	0.0169444
653.380	0.0169104
653.458	0.0171168
653.536	0.0168649
653.614	0.0167969
653.692	0.0167612
653.771	0.0167663
653.849	0.0168427
653.927	0.0169434
654.005	0.0168698
654.083	0.0168230
654.161	0.0167854
654.239	0.0168051
654.317	0.0169526
654.396	0.0168746
654.474	0.0167739
654.552	0.0168956
654.630	0.0169510
654.708	0.0167831
654.786	0.0168600
654.864	0.0169817
654.942	0.0168405
655.021	0.0169096
655.099	0.0168024
655.177	0.0167724
655.255	0.0168238
655.333	0.0167078
655.411	0.0168665
655.489	0.0168176
655.567	0.0167003
655.646	0.0169243
655.724	0.0168278
655.802	0.0168593
655.880	0.0169520
655.958	0.0168825
656.036	0.0169200
656.114	0.0168110
656.192	0.0167484
656.271	0.0169335
656.349	0.0168713
656.427	0.0169817
656.505	0.0170529
656.583	0.0167723
656.661	0.0170088
656.739	0.0168241
656.817	0.0169179
656.896	0.0167998
656.974	0.0167870
657.052	0.0169594
657.130	0.0169608
657.208	0.0168848
657.286	0.0168295
657.364	0.0168771
657.442	0.0167776
657.521	0.0168082
657.599	0.0169834
657.677	0.0169281
657.755	0.0169215
657.833	0.0169329
657.911	0.0167174
657.989	0.0169623
658.067	0.0168354
658.146	0.0169610
658.224	0.0168901
658.302	0.0168766
658.380	0.0167278
658.458	0.0167301
658.536	0.0168108
658.614	0.0168927
658.692	0.0168440
658.771	0.0169145
658.849	0.0169865
658.927	0.0167831
659.005	0.0168811
659.083	0.0167798
659.161	0.0169186
659.239	0.0168344
659.317	0.0168613
659.396	0.0168215
659.474	0.0168530
659.552	0.0168333
659.630	0.0169181
659.708	0.0168187
659.786	0.0168089
659.864	0.0169326
659.942	0.0168078
660.021	0.0168968
660.099	0.0169451
660.177	0.0168732
660.255	0.0168563
660.333	0.0168865
660.411	0.0168952
660.489	0.0168875
660.567	0.0167239
660.646	0.0168443
660.724	0.0168945
660.802	0.0168031
660.880	0.0168623
660.958	0.0169038
661.036	0.0168117
661.114	0.0168073
661.192	0.0168922
661.271	0.0168214
661.349	0.0167664
661.427	0.0168031
661.505	0.0169158
661.583	0.0170364
661.661	0.0167870
661.739	0.0168528
661.817	0.0167908
661.896	0.0167714
661.974	0.0169866
662.052	0.0169846
662.130	0.0168453
662.208	0.0168562
662.286	0.0168396
662.364	0.0168604
662.442	0.0168810
662.521	0.0169650
662.599	0.0168414
662.677	0.0168433
662.755	0.0169322
662.833	0.0168593
662.911	0.0168229
662.989	0.0169067
663.067	0.0169892
663.146	0.0167999
663.224	0.0169402
663.302	0.0170689
663.380	0.0170548
663.458	0.0168884
663.536	0.0167625
663.614	0.0167229
663.692	0.0169475
663.771	0.0169203
663.849	0.0167843
663.927	0.0168649
664.005	0.0170007
664.083	0.0169283
664.161	0.0169773
664.239	0.0168833
664.317	0.0170307
664.396	0.0168352
664.474	0.0169067
664.552	0.0168155
664.630	0.0168456
664.708	0.0168737
664.786	0.0168522
664.864	0.0168135
664.942	0.0168452
665.021	0.0167670
665.099	0.0168396
665.177	0.0169546
665.255	0.0169579
665.333	0.0168861
665.411	0.0168449
665.489	0.0167741
665.567	0.0168251
665.646	0.0169505
665.724	0.0168838
665.802	0.0169710
665.880	0.0169027
665.958	0.0168443
666.036	0.0169962
666.114	0.0168294
666.192	0.0168909
666.271	0.0169615
666.349	0.0169186
666.427	0.0168673
666.505	0.0170041
666.583	0.0168849
666.661	0.0169105
666.739	0.0168591
666.817	0.0167948
666.896	0.0168263
666.974	0.0167693
667.052	0.0168684
667.130	0.0168762
667.208	0.0169296
667.286	0.0167560
667.364	0.0167954
667.442	0.0168532
667.521	0.0169693
667.599	0.0169046
667.677	0.0168736
667.755	0.0170251
667.833	0.0169309
667.911	0.0167911
667.989	0.0168549
668.067	0.0168835
668.146	0.0169138
668.224	0.0168207
668.302	0.0167479
668.380	0.0169330
668.458	0.0168729
668.536	0.0168882
668.614	0.0168789
668.692	0.0168803
668.771	0.0168535
668.849	0.0169557
668.927	0.0168311
669.005	0.0168883
669.083	0.0168810
669.161	0.0168448
669.239	0.0169610
669.317	0.0169830
669.396	0.0169489
669.474	0.0167660
669.552	0.0169695
669.630	0.0169391
669.708	0.0169393
669.786	0.0169016
669.864	0.0169342
669.942	0.0169643
670.021	0.0168600
670.099	0.0167625
670.177	0.0167721
670.255	0.0169243
670.333	0.0169366
670.411	0.0169897
670.489	0.0166298
670.567	0.0167992
670.646	0.0168722
670.724	0.0168541
670.802	0.0168518
670.880	0.0168900
670.958	0.0168509
671.036	0.0169176
671.114	0.0169468
671.192	0.0167884
671.271	0.0169303
671.349	0.0168811
671.427	0.0168484
671.505	0.0169705
671.583	0.0167392
671.661	0.0168354
671.739	0.0167640
671.817	0.0168187
671.896	0.0168645
671.974	0.0169605
672.052	0.0170322
672.130	0.0166485
672.208	0.0168126
672.286	0.0169005
672.364	0.0168671
672.442	0.0168861
672.521	0.0168259
672.599	0.0168305
672.677	0.0169900
672.755	0.0169587
672.833	0.0168194
672.911	0.0168348
672.989	0.0168711
673.067	0.0170255
673.146	0.0168890
673.224	0.0166598
673.302	0.0169070
673.380	0.0168182
673.458	0.0169124
673.536	0.0167072
673.614	0.0169353
673.692	0.0169580
673.771	0.0167747
673.849	0.0167336
673.927	0.0168443
674.005	0.0168521
674.083	0.0168857
674.161	0.0168408
674.239	0.0168043
674.317	0.0168114
674.396	0.0168185
674.474	0.0168650
674.552	0.0168803
674.630	0.0169691
674.708	0.0168539
674.786	0.0168122
674.864	0.0169071
674.942	0.0170009
675.021	0.0169449
675.099	0.0169306
675.177	0.0169523
675.255	0.0168131
675.333	0.0167883
675.411	0.0167576
675.489	0.0169359
675.567	0.0168188
675.646	0.0169195
675.724	0.0167995
675.802	0.0168043
675.880	0.0169966
675.958	0.0169912
676.036	0.0168568
676.114	0.0169341
676.192	0.0168797
676.271	0.0168382
676.349	0.0169131
676.427	0.0168974
676.505	0.0168019
676.583	0.0170422
676.661	0.0168692
676.739	0.0169125
676.817	0.0169443
676.896	0.0168657
676.974	0.0169878
677.052	0.0168075
677.130	0.0168660
677.208	0.0168325
677.286	0.0167988
677.364	0.0168575
677.442	0.0168746
677.521	0.0169033
677.599	0.0169462
677.677	0.0169127
677.755	0.0168436
677.833	0.0169135
677.911	0.0168662
677.989	0.0169083
678.067	0.0168317
678.146	0.0168174
678.224	0.0167332
678.302	0.0167796
678.380	0.0169907
678.458	0.0168211
678.536	0.0169205
678.614	0.0167969
678.692	0.0168378
678.771	0.0169043
678.849	0.0167690
678.927	0.0168265
679.005	0.0167586
679.083	0.0167196
679.161	0.0169545
679.239	0.0167982
679.317	0.0167632
679.396	0.0168328
679.474	0.0167555
679.552	0.0168890
679.630	0.0169321
679.708	0.0168552
679.786	0.0169133
679.864	0.0168867
679.942	0.0168648
680.021	0.0168764
680.099	0.0168751
680.177	0.0168605
680.255	0.0168997
680.333	0.0168574
680.411	0.0169090
680.489	0.0167365
680.567	0.0169151
680.646	0.0169568
680.724	0.0168081
680.802	0.0168674
680.880	0.0170300
680.958	0.0169374
681.036	0.0168697
681.114	0.0168983
681.192	0.0169044
681.271	0.0167821
681.349	0.0167860
681.427	0.0167822
681.505	0.0168845
681.583	0.0170004
681.661	0.0169420
681.739	0.0168091
681.817	0.0169041
681.896	0.0168649
681.974	0.0169087
682.052	0.0168396
682.130	0.0169073
682.208	0.0168065
682.286	0.0168906
682.364	0.0168171
682.442	0.0169759
682.521	0.0168194
682.599	0.0168387
682.677	0.0168374
682.755	0.0169325
682.833	0.0169899
682.911	0.0167950
682.989	0.0168235
683.067	0.0169701
683.146	0.0168998
683.224	0.0168870
683.302	0.0169331
683.380	0.0168467
683.458	0.0169849
683.536	0.0168727
683.614	0.0167954
683.692	0.0170788
683.771	0.0170274
683.849	0.0170103
683.927	0.0168890
684.005	0.0169020
684.083	0.0169111
684.161	0.0170158
684.239	0.0169762
684.317	0.0169766
684.396	0.0167722
684.474	0.0169598
684.552	0.0169556
684.630	0.0168865
684.708	0.0170062
684.786	0.0170464
684.864	0.0170160
684.942	0.0169776
685.021	0.0169554
685.099	0.0169068
685.177	0.0169612
685.255	0.0169379
685.333	0.0169611
685.411	0.0168842
685.489	0.0170569
685.567	0.0170089
685.646	0.0169193
685.724	0.0169170
685.802	0.0168731
685.880	0.0169816
685.958	0.0170621
686.036	0.0169334
686.114	0.0169391
686.192	0.0168626
686.271	0.0169686
686.349	0.0168851
686.427	0.0170078
686.505	0.0169955
686.583	0.0168685
686.661	0.0170180
686.739	0.0169136
686.817	0.0171381
686.896	0.0168766
686.974	0.0168082
687.052	0.0170028
687.130	0.0170249
687.208	0.0170515
687.286	0.0167174
687.364	0.0168138
687.442	0.0169274
687.521	0.0170095
687.599	0.0169426
687.677	0.0170453
687.755	0.0168871
687.833	0.0167433
687.911	0.0170665
687.989	0.0169644
688.067	0.0167702
688.146	0.0170536
688.224	0.0169606
688.302	0.0169989
688.380	0.0168819
688.458	0.0169031
688.536	0.0169548
688.614	0.0168198
688.692	0.0169724
688.771	0.0168542
688.849	0.0168830
688.927	0.0169609
689.005	0.0168617
689.083	0.0169453
689.161	0.0169798
689.239	0.0168875
689.317	0.0168473
689.396	0.0168832
689.474	0.0167995
689.552	0.0168491
689.630	0.0167533
689.708	0.0169540
689.786	0.0167008
689.864	0.0167138
689.942	0.0167945
690.021	0.0168204
690.099	0.0167593
690.177	0.0167586
690.255	0.0168139
690.333	0.0168465
690.411	0.0169256
690.489	0.0168654
690.567	0.0168065
690.646	0.0167977
690.724	0.0167945
690.802	0.0169733
690.880	0.0168913
690.958	0.0169080
691.036	0.0168459
691.114	0.0168155
691.192	0.0168393
691.271	0.0168636
691.349	0.0168385
691.427	0.0168785
691.505	0.0167828
691.583	0.0168945
691.661	0.0168481
691.739	0.0168130
691.817	0.0167862
691.896	0.0168256
691.974	0.0167771
692.052	0.0167336
692.130	0.0167545
692.208	0.0167430
692.286	0.0168384
692.364	0.0167944
692.442	0.0168193
692.521	0.0166663
692.599	0.0168932
692.677	0.0168758
692.755	0.0167711
692.833	0.0167580
692.911	0.0167929
692.989	0.0169671
693.067	0.0167695
693.146	0.0169763
693.224	0.0169411
693.302	0.0167870
693.380	0.0167815
693.458	0.0169762
693.536	0.0168797
693.614	0.0168450
693.692	0.0168048
693.771	0.0169489
693.849	0.0168581
693.927	0.0168287
694.005	0.0168762
694.083	0.0169540
694.161	0.0167482
694.239	0.0168505
694.317	0.0168872
694.396	0.0168195
694.474	0.0169419
694.552	0.0168246
694.630	0.0168465
694.708	0.0167142
694.786	0.0167004
694.864	0.0167635
694.942	0.0169639
695.021	0.0168907
695.099	0.0168411
695.177	0.0167043
695.255	0.0168445
695.333	0.0168997
695.411	0.0169403
695.489	0.0168880
695.567	0.0168362
695.646	0.0167705
695.724	0.0169552
695.802	0.0168200
695.880	0.0167937
695.958	0.0168434
696.036	0.0167347
696.114	0.0168488
696.192	0.0169182
696.271	0.0169348
696.349	0.0169340
696.427	0.0169030
696.505	0.0168954
696.583	0.0167914
696.661	0.0168486
696.739	0.0167833
696.817	0.0167115
696.896	0.0167371
696.974	0.0167789
697.052	0.0166378
697.130	0.0166610
697.208	0.0166491
697.286	0.0167872
697.364	0.0168182
697.442	0.0168517
697.521	0.0172351
697.599	0.0173781
697.677	0.0174497
697.755	0.0173914
697.833	0.0175610
697.911	0.0175186
697.989	0.0176930
698.067	0.0174817
698.146	0.0173550
698.224	0.0173885
698.302	0.0171008
698.380	0.0168488
698.458	0.0167781
698.536	0.0166825
698.614	0.0164908
698.692	0.0163928
698.771	0.0161563
698.849	0.0160653
698.927	0.0161236
699.005	0.0161841
699.083	0.0161171
699.161	0.0160217
699.239	0.0160146
699.317	0.0158697
699.396	0.0157470
699.474	0.0158102
699.552	0.0159255
699.630	0.0161172
699.708	0.0161967
699.786	0.0167425
699.864	0.0172317
699.942	0.0178432
700.021	0.0187080
700.099	0.0193177
700.177	0.0198734
700.255	0.0205605
700.333	0.0209550
700.411	0.0210197
700.489	0.0209172
700.567	0.0207681
700.646	0.0200638
700.724	0.0194908
700.802	0.0184535
700.880	0.0173331
700.958	0.0160447
701.036	0.0150084
701.114	0.0138635
701.192	0.0128117
701.271	0.0116820
701.349	0.0109200
701.427	0.0104477
701.505	0.00985420
701.583	0.00966187
701.661	0.00996719
701.739	0.0102422
701.817	0.0108420
701.896	0.0120530
701.974	0.0133019
702.052	0.0148582
702.130	0.0169035
702.208	0.0189922
702.286	0.0209668
702.364	0.0231033
702.442	0.0249078
702.521	0.0263824
702.599	0.0271998
702.677	0.0275693
702.755	0.0274888
702.833	0.0265358
702.911	0.0251743
702.989	0.0235477
703.067	0.0212833
703.146	0.0191042
703.224	0.0167106
703.302	0.0143907
703.380	0.0122678
703.458	0.0104355
703.536	0.00916107
703.614	0.00830109
703.692	0.00773392
703.771	0.00740227
703.849	0.00744125
703.927	0.00793564
704.005	0.00894577
704.083	0.00968552
704.161	0.0110437
704.239	0.0126566
704.317	0.0142821
704.396	0.0160441
704.474	0.0176422
704.552	0.0195046
704.630	0.0211678
704.708	0.0226904
704.786	0.0239581
704.864	0.0247132
704.942	0.0253622
705.021	0.0254440
705.099	0.0252248
705.177	0.0245287
705.255	0.0235665
705.333	0.0222880
705.411	0.0207408
705.489	0.0188460
705.567	0.0172656
705.646	0.0155451
705.724	0.0140100
705.802	0.0126868
705.880	0.0114597
705.958	0.0107941
706.036	0.0103042
706.114	0.0102023
706.192	0.0104510
706.271	0.0108095
706.349	0.0113641
706.427	0.0122106
706.505	0.0131608
706.583	0.0140855
706.661	0.0153928
706.739	0.0165538
706.817	0.0176277
706.896	0.0186849
706.974	0.0195087
707.052	0.0203453
707.130	0.0211726
707.208	0.0217586
707.286	0.0219772
707.364	0.0218472
707.442	0.0218933
707.521	0.0214024
707.599	0.0209937
707.677	0.0204800
707.755	0.0196413
707.833	0.0188834
707.911	0.0179449
707.989	0.0171415
708.067	0.0162670
708.146	0.0156181
708.224	0.0149243
708.302	0.0143602
708.380	0.0140907
708.458	0.0137478
708.536	0.0137080
708.614	0.0138522
708.692	0.0139431
708.771	0.0143734
708.849	0.0149278
708.927	0.0153476
709.005	0.0158096
709.083	0.0164425
709.161	0.0169043
709.239	0.0172533
709.317	0.0176781
709.396	0.0179533
709.474	0.0179809
709.552	0.0180386
709.630	0.0179919
709.708	0.0177998
709.786	0.0175227
709.864	0.0172457
709.942	0.0169192
710.021	0.0166048
710.099	0.0163466
710.177	0.0158261
710.255	0.0157437
710.333	0.0156744
710.411	0.0156532
710.489	0.0157887
710.567	0.0158559
710.646	0.0160007
710.724	0.0162190
710.802	0.0165173
710.880	0.0166794
710.958	0.0169949
711.036	0.0170911
711.114	0.0172883
711.192	0.0176380
711.271	0.0176724
711.349	0.0176720
711.427	0.0178169
711.505	0.0177965
711.583	0.0177446
711.661	0.0177840
711.739	0.0177043
711.817	0.0176307
711.896	0.0176624
711.974	0.0177337
712.052	0.0178243
712.130	0.0178053
712.208	0.0179740
712.286	0.0180566
712.364	0.0179794
712.442	0.0181783
712.521	0.0180933
712.599	0.0182344
712.677	0.0180974
712.755	0.0181265
712.833	0.0182177
712.911	0.0179996
712.989	0.0177676
713.067	0.0175983
713.146	0.0174376
713.224	0.0171843
713.302	0.0170480
713.380	0.0166549
713.458	0.0164316
713.536	0.0159871
713.614	0.0156150
713.692	0.0154279
713.771	0.0150227
713.849	0.0146880
713.927	0.0145760
714.005	0.0144099
714.083	0.0144223
714.161	0.0143867
714.239	0.0145869
714.317	0.0144035
714.396	0.0147800
714.474	0.0150380
714.552	0.0154608
714.630	0.0157031
714.708	0.0159668
714.786	0.0163612
714.864	0.0165996
714.942	0.0168324
715.021	0.0171487
715.099	0.0173191
715.177	0.0174889
715.255	0.0175282
715.333	0.0177677
715.411	0.0179129
715.489	0.0179517
715.567	0.0182287
715.646	0.0183912
715.724	0.0184095
715.802	0.0183598
715.880	0.0185600
715.958	0.0185029
716.036	0.0186212
716.114	0.0184121
716.192	0.0183052
716.271	0.0179494
716.349	0.0177804
716.427	0.0176225
716.505	0.0172617
716.583	0.0169775
716.661	0.0166010
716.739	0.0163346
716.817	0.0162592
716.896	0.0160193
716.974	0.0160103
717.052	0.0158853
717.130	0.0160336
717.208	0.0160037
717.286	0.0161235
717.364	0.0162958
717.442	0.0164372
717.521	0.0166714
717.599	0.0167117
717.677	0.0167557
717.755	0.0167429
717.833	0.0168536
717.911	0.0167009
717.989	0.0167274
718.067	0.0166521
718.146	0.0166384
718.224	0.0166747
718.302	0.0167070
718.380	0.0165706
718.458	0.0166134
718.536	0.0166235
718.614	0.0166210
718.692	0.0167638
718.771	0.0169128
718.849	0.0170354
718.927	0.0171210
719.005	0.0172041
719.083	0.0173338
719.161	0.0172520
719.239	0.0174033
719.317	0.0173865
719.396	0.0172240
719.474	0.0171522
719.552	0.0171502
719.630	0.0170203
719.708	0.0168577
719.786	0.0167217
719.864	0.0167933
719.942	0.0165867
720.021	0.0164040
720.099	0.0164079
720.177	0.0164173
720.255	0.0163911
720.333	0.0165426
720.411	0.0166428
720.489	0.0166613
720.567	0.0168615
720.646	0.0169455
720.724	0.0170876
720.802	0.0172112
720.880	0.0173933
720.958	0.0175307
721.036	0.0176183
721.114	0.0176528
721.192	0.0176206
721.271	0.0175764
721.349	0.0174333
721.427	0.0173105
721.505	0.0172899
721.583	0.0169364
721.661	0.0168324
721.739	0.0166074
721.817	0.0165205
721.896	0.0161635
721.974	0.0162247
722.052	0.0160621
722.130	0.0160426
722.208	0.0160497
722.286	0.0159338
722.364	0.0158336
722.442	0.0159471
722.521	0.0159407
722.599	0.0160798
722.677	0.0162659
722.755	0.0165158
722.833	0.0167635
722.911	0.0169792
722.989	0.0172143
723.067	0.0175198
723.146	0.0178266
723.224	0.0178020
723.302	0.0180934
723.380	0.0180600
723.458	0.0180232
723.536	0.0180150
723.614	0.0179187
723.692	0.0178046
723.771	0.0175332
723.849	0.0175327
723.927	0.0174616
724.005	0.0172363
724.083	0.0168031
724.161	0.0168075
724.239	0.0164925
724.317	0.0164304
724.396	0.0163515
724.474	0.0162943
724.552	0.0162782
724.630	0.0163410
724.708	0.0164206
724.786	0.0163548
724.864	0.0164088
724.942	0.0163187
725.021	0.0165795
725.099	0.0166581
725.177	0.0167441
725.255	0.0166492
725.333	0.0167600
725.411	0.0170699
725.489	0.0168549
725.567	0.0170247
725.646	0.0170679
725.724	0.0172922
725.802	0.0173608
725.880	0.0174087
725.958	0.0174098
726.036	0.0175533
726.114	0.0176620
726.192	0.0176660
726.271	0.0175691
726.349	0.0174971
726.427	0.0175905
726.505	0.0174732
726.583	0.0173011
726.661	0.0171128
726.739	0.0171136
726.817	0.0167699
726.896	0.0167072
726.974	0.0164837
727.052	0.0163445
727.130	0.0161584
727.208	0.0159087
727.286	0.0158858
727.364	0.0157690
727.442	0.0157123
727.521	0.0156059
727.599	0.0156081
727.677	0.0157248
727.755	0.0156334
727.833	0.0156519
727.911	0.0160111
727.989	0.0161192
728.067	0.0161580
728.146	0.0164996
728.224	0.0166427
728.302	0.0167728
728.380	0.0172344
728.458	0.0172176
728.536	0.0174390
728.614	0.0174487
728.692	0.0175874
728.771	0.0174825
728.849	0.0176025
728.927	0.0173764
729.005	0.0173616
729.083	0.0171848
729.161	0.0170374
729.239	0.0169859
729.317	0.0169114
729.396	0.0167769
729.474	0.0166731
729.552	0.0167577
729.630	0.0168103
729.708	0.0168228
729.786	0.0168323
729.864	0.0169706
729.942	0.0170398
730.021	0.0171507
730.099	0.0173207
730.177	0.0173996
730.255	0.0175978
730.333	0.0175423
730.411	0.0178875
730.489	0.0178060
730.567	0.0176869
730.646	0.0179208
730.724	0.0178009
730.802	0.0176919
730.880	0.0176376
730.958	0.0177496
731.036	0.0175877
731.114	0.0174512
731.192	0.0175583
731.271	0.0173653
731.349	0.0172023
731.427	0.0171348
731.505	0.0168573
731.583	0.0166310
731.661	0.0166570
731.739	0.0165229
731.817	0.0163187
731.896	0.0162923
731.974	0.0161975
732.052	0.0160259
732.130	0.0160526
732.208	0.0157377
732.286	0.0157299
732.364	0.0156708
732.442	0.0157112
732.521	0.0156792
732.599	0.0157394
732.677	0.0156551
732.755	0.0157803
732.833	0.0158031
732.911	0.0157822
732.989	0.0159740
733.067	0.0159477
733.146	0.0161109
733.224	0.0164088
733.302	0.0165336
733.380	0.0166456
733.458	0.0166900
733.536	0.0167575
733.614	0.0170716
733.692	0.0172167
733.771	0.0173474
733.849	0.0174146
733.927	0.0174626
734.005	0.0175883
734.083	0.0175590
734.161	0.0176624
734.239	0.0176022
734.317	0.0176083
734.396	0.0174874
734.474	0.0175755
734.552	0.0175946
734.630	0.0174158
734.708	0.0175077
734.786	0.0172915
734.864	0.0172160
734.942	0.0173676
735.021	0.0173329
735.099	0.0172721
735.177	0.0173856
735.255	0.0174143
735.333	0.0173708
735.411	0.0173287
735.489	0.0172983
735.567	0.0173327
735.646	0.0172730
735.724	0.0171471
735.802	0.0171918
735.880	0.0171575
735.958	0.0170904
736.036	0.0169145
736.114	0.0169679
736.192	0.0169971
736.271	0.0168623
736.349	0.0167200
736.427	0.0166988
736.505	0.0167064
736.583	0.0166196
736.661	0.0166597
736.739	0.0167770
736.817	0.0166090
736.896	0.0165016
736.974	0.0165115
737.052	0.0166870
737.130	0.0165646
737.208	0.0167371
737.286	0.0167709
737.364	0.0166244
737.442	0.0164601
737.521	0.0164766
737.599	0.0166430
737.677	0.0165606
737.755	0.0162046
737.833	0.0163217
737.911	0.0163171
737.989	0.0161337
738.067	0.0161565
738.146	0.0162289
738.224	0.0160464
738.302	0.0160397
738.380	0.0160503
738.458	0.0163338
738.536	0.0163370
738.614	0.0166000
738.692	0.0168305
738.771	0.0169752
738.849	0.0170736
738.927	0.0175171
739.005	0.0175511
739.083	0.0177818
739.161	0.0175765
739.239	0.0176949
739.317	0.0177801
739.396	0.0177412
739.474	0.0176049
739.552	0.0175825
739.630	0.0175642
739.708	0.0173800
739.786	0.0173550
739.864	0.0172942
739.942	0.0171570
740.021	0.0170791
740.099	0.0171506
740.177	0.0171124
740.255	0.0171360
740.333	0.0171645
740.411	0.0169637
740.489	0.0168665
740.567	0.0169327
740.646	0.0167899
740.724	0.0168359
740.802	0.0167310
740.880	0.0166504
740.958	0.0165732
741.036	0.0164742
741.114	0.0166739
741.192	0.0165842
741.271	0.0164880
741.349	0.0164365
741.427	0.0163737
741.505	0.0165813
741.583	0.0163657
741.661	0.0162703
741.739	0.0164620
741.817	0.0165004
741.896	0.0166027
741.974	0.0165972
742.052	0.0166506
742.130	0.0165877
742.208	0.0166385
742.286	0.0166351
742.364	0.0168731
742.442	0.0168932
742.521	0.0170363
742.599	0.0170561
742.677	0.0171908
742.755	0.0171252
742.833	0.0172360
742.911	0.0172672
742.989	0.0172995
743.067	0.0174316
743.146	0.0173800
743.224	0.0175388
743.302	0.0175788
743.380	0.0173505
743.458	0.0173323
743.536	0.0171625
743.614	0.0169217
743.692	0.0169250
743.771	0.0168375
743.849	0.0165350
743.927	0.0165352
744.005	0.0163639
744.083	0.0164034
744.161	0.0163953
744.239	0.0164442
744.317	0.0163323
744.396	0.0164452
744.474	0.0164625
744.552	0.0165260
744.630	0.0166631
744.708	0.0169090
744.786	0.0170136
744.864	0.0168915
744.942	0.0170142
745.021	0.0170272
745.099	0.0170745
745.177	0.0171764
745.255	0.0170402
745.333	0.0171960
745.411	0.0171977
745.489	0.0171436
745.567	0.0171838
745.646	0.0170870
745.724	0.0170104
745.802	0.0169997
745.880	0.0170284
745.958	0.0169405
746.036	0.0168910
746.114	0.0169499
746.192	0.0169893
746.271	0.0168066
746.349	0.0167854
746.427	0.0167289
746.505	0.0166373
746.583	0.0166935
746.661	0.0167182
746.739	0.0166705
746.817	0.0167595
746.896	0.0167742
746.974	0.0168999
747.052	0.0168633
747.130	0.0168443
747.208	0.0167132
747.286	0.0170512
747.364	0.0170715
747.442	0.0169888
747.521	0.0170278
747.599	0.0169991
747.677	0.0168363
747.755	0.0167879
747.833	0.0168052
747.911	0.0167179
747.989	0.0167197
748.067	0.0167583
748.146	0.0166643
748.224	0.0167616
748.302	0.0167912
748.380	0.0168002
748.458	0.0168578
748.536	0.0166756
748.614	0.0168121
748.692	0.0169151
748.771	0.0171242
748.849	0.0168969
748.927	0.0168462
749.005	0.0169384
749.083	0.0168142
749.161	0.0166527
749.239	0.0168647
749.317	0.0170132
749.396	0.0168605
749.474	0.0168600
749.552	0.0168352
749.630	0.0168514
749.708	0.0168402
749.786	0.0167308
749.864	0.0166357
749.942	0.0165071
750.021	0.0165716
750.099	0.0165128
750.177	0.0165009
750.255	0.0163681
750.333	0.0163202
750.411	0.0163102
750.489	0.0163757
750.567	0.0163526
750.646	0.0164432
750.724	0.0164771
750.802	0.0165745
750.880	0.0168030
750.958	0.0170770
751.036	0.0171214
751.114	0.0171901
751.192	0.0172900
751.271	0.0173569
751.349	0.0175332
751.427	0.0175757
751.505	0.0175892
751.583	0.0176171
751.661	0.0175814
751.739	0.0175149
751.817	0.0175625
751.896	0.0175849
751.974	0.0174072
752.052	0.0174165
752.130	0.0173103
752.208	0.0172944
752.286	0.0171918
752.364	0.0171918
752.442	0.0171815
752.521	0.0168330
752.599	0.0168318
752.677	0.0168354
752.755	0.0166601
752.833	0.0166860
752.911	0.0165715
752.989	0.0165386
753.067	0.0164824
753.146	0.0163508
753.224	0.0162236
753.302	0.0161990
753.380	0.0162413
753.458	0.0162895
753.536	0.0163377
753.614	0.0162803
753.692	0.0165562
753.771	0.0165308
753.849	0.0166705
753.927	0.0168706
754.005	0.0169236
754.083	0.0168576
754.161	0.0171346
754.239	0.0173254
754.317	0.0171110
754.396	0.0172031
754.474	0.0172357
754.552	0.0172552
754.630	0.0172870
754.708	0.0173056
754.786	0.0172048
754.864	0.0170538
754.942	0.0169627
755.021	0.0170247
755.099	0.0168544
755.177	0.0169437
755.255	0.0167800
755.333	0.0167213
755.411	0.0167017
755.489	0.0166383
755.567	0.0166012
755.646	0.0165466
755.724	0.0165230
755.802	0.0166000
755.880	0.0165885
755.958	0.0166406
756.036	0.0165639
756.114	0.0166486
756.192	0.0167778
756.271	0.0165195
756.349	0.0165871
756.427	0.0168803
756.505	0.0167629
756.583	0.0167726
756.661	0.0168281
756.739	0.0168116
756.817	0.0169401
756.896	0.0170664
756.974	0.0170922
757.052	0.0172009
757.130	0.0171477
757.208	0.0172826
757.286	0.0173096
757.364	0.0170666
757.442	0.0173340
757.521	0.0174818
757.599	0.0173736
757.677	0.0173098
757.755	0.0171276
757.833	0.0171336
757.911	0.0172229
757.989	0.0171485
758.067	0.0170695
758.146	0.0168417
758.224	0.0167788
758.302	0.0167410
758.380	0.0165953
758.458	0.0165917
758.536	0.0164820
758.614	0.0165054
758.692	0.0166561
758.771	0.0166599
758.849	0.0166795
758.927	0.0168376
759.005	0.0168272
759.083	0.0170535
759.161	0.0171781
759.239	0.0169724
759.317	0.0169863
759.396	0.0170184
759.474	0.0171101
759.552	0.0172233
759.630	0.0172426
759.708	0.0170995
759.786	0.0171681
759.864	0.0169646
759.942	0.0167915
760.021	0.0169569
760.099	0.0170408
760.177	0.0167551
760.255	0.0166752
760.333	0.0167991
760.411	0.0166810
760.489	0.0167307
760.567	0.0167875
760.646	0.0166232
760.724	0.0167982
760.802	0.0167788
760.880	0.0168201
760.958	0.0168379
761.036	0.0169277
761.114	0.0168417
761.192	0.0169704
761.271	0.0170612
761.349	0.0168854
761.427	0.0169686
761.505	0.0171117
761.583	0.0170834
761.661	0.0169972
761.739	0.0171176
761.817	0.0169655
761.896	0.0169296
761.974	0.0167961
762.052	0.0169068
762.130	0.0168371
762.208	0.0167349
762.286	0.0166455
762.364	0.0168942
762.442	0.0167944
762.521	0.0169548
762.599	0.0168401
762.677	0.0168377
762.755	0.0168373
762.833	0.0167536
762.911	0.0169767
762.989	0.0168682
763.067	0.0169781
763.146	0.0168316
763.224	0.0169753
763.302	0.0168474
763.380	0.0169166
763.458	0.0169358
763.536	0.0168994
763.614	0.0168705
763.692	0.0170528
763.771	0.0168473
763.849	0.0169098
763.927	0.0168555
764.005	0.0168947
764.083	0.0168009
764.161	0.0169400
764.239	0.0168595
764.317	0.0169957
764.396	0.0170303
764.474	0.0171474
764.552	0.0170792
764.630	0.0170239
764.708	0.0170996
764.786	0.0172025
764.864	0.0170966
764.942	0.0172366
765.021	0.0172060
765.099	0.0172820
765.177	0.0172321
765.255	0.0171422
765.333	0.0172584
765.411	0.0172739
765.489	0.0172319
765.567	0.0170262
765.646	0.0171615
765.724	0.0170177
765.802	0.0169572
765.880	0.0168455
765.958	0.0169169
766.036	0.0168806
766.114	0.0167609
766.192	0.0167754
766.271	0.0167348
766.349	0.0167363
766.427	0.0165526
766.505	0.0165843
766.583	0.0165212
766.661	0.0166245
766.739	0.0166103
766.817	0.0166141
766.896	0.0165343
766.974	0.0168331
767.052	0.0168008
767.130	0.0169982
767.208	0.0170167
767.286	0.0169977
767.364	0.0169788
767.442	0.0173090
767.521	0.0171562
767.599	0.0171844
767.677	0.0172052
767.755	0.0172411
767.833	0.0171767
767.911	0.0172082
767.989	0.0171955
768.067	0.0171575
768.146	0.0170853
768.224	0.0170583
768.302	0.0169656
768.380	0.0170727
768.458	0.0170060
768.536	0.0167329
768.614	0.0167273
768.692	0.0166913
768.771	0.0165898
768.849	0.0166328
768.927	0.0165314
769.005	0.0165395
769.083	0.0164876
769.161	0.0166347
769.239	0.0164590
769.317	0.0165484
769.396	0.0164960
769.474	0.0166744
769.552	0.0165644
769.630	0.0166855
769.708	0.0167186
769.786	0.0168604
769.864	0.0168682
769.942	0.0168884
770.021	0.0168971
770.099	0.0169676
770.177	0.0169371
770.255	0.0169508
770.333	0.0171138
770.411	0.0173005
770.489	0.0172136
770.567	0.0171815
770.646	0.0171923
770.724	0.0171604
770.802	0.0171237
770.880	0.0172462
770.958	0.0170751
771.036	0.0171558
771.114	0.0170866
771.192	0.0170683
771.271	0.0169855
771.349	0.0167686
771.427	0.0168228
771.505	0.0168075
771.583	0.0167319
771.661	0.0167058
771.739	0.0166798
771.817	0.0165463
771.896	0.0165279
771.974	0.0164784
772.052	0.0164697
772.130	0.0163306
772.208	0.0164135
772.286	0.0165707
772.364	0.0164447
772.442	0.0164009
772.521	0.0166928
772.599	0.0167538
772.677	0.0167401
772.755	0.0168421
772.833	0.0167100
772.911	0.0169708
772.989	0.0168810
773.067	0.0169542
773.146	0.0171775
773.224	0.0170860
773.302	0.0172905
773.380	0.0173018
773.458	0.0172419
773.536	0.0172614
773.614	0.0172864
773.692	0.0171252
773.771	0.0171754
773.849	0.0171889
773.927	0.0170300
774.005	0.0170325
774.083	0.0172091
774.161	0.0170193
774.239	0.0169177
774.317	0.0169046
774.396	0.0168501
774.474	0.0168148
774.552	0.0169897
774.630	0.0167955
774.708	0.0168141
774.786	0.0168940
774.864	0.0168047
774.942	0.0167861
775.021	0.0169465
775.099	0.0166748
775.177	0.0168409
775.255	0.0167934
775.333	0.0168634
775.411	0.0168441
775.489	0.0170268
775.567	0.0168650
775.646	0.0167976
775.724	0.0169321
775.802	0.0169467
775.880	0.0170290
775.958	0.0170881
776.036	0.0170893
776.114	0.0170502
776.192	0.0170304
776.271	0.0171689
776.349	0.0170765
776.427	0.0170921
776.505	0.0169467
776.583	0.0169320
776.661	0.0169035
776.739	0.0168522
776.817	0.0167754
776.896	0.0168577
776.974	0.0166402
777.052	0.0166322
777.130	0.0166846
777.208	0.0165781
777.286	0.0165187
777.364	0.0165298
777.442	0.0165730
777.521	0.0164837
777.599	0.0166181
777.677	0.0167681
777.755	0.0166325
777.833	0.0167012
777.911	0.0165863
777.989	0.0168223
778.067	0.0166933
778.146	0.0169714
778.224	0.0169211
778.302	0.0170428
778.380	0.0171110
778.458	0.0170252
778.536	0.0171569
778.614	0.0172585
778.692	0.0172615
778.771	0.0171754
778.849	0.0173289
778.927	0.0171310
779.005	0.0170413
779.083	0.0170348
779.161	0.0170606
779.239	0.0170355
779.317	0.0169980
779.396	0.0169160
779.474	0.0168463
779.552	0.0167874
779.630	0.0168140
779.708	0.0167441
779.786	0.0166085
779.864	0.0166414
779.942	0.0168490
780.021	0.0168233
780.099	0.0166154
780.177	0.0166830
780.255	0.0169592
780.333	0.0167936
780.411	0.0167458
780.489	0.0168505
780.567	0.0168763
780.646	0.0168261
780.724	0.0168089
780.802	0.0169479
780.880	0.0170937
780.958	0.0168941
781.036	0.0168733
781.114	0.0168973
781.192	0.0168769
781.271	0.0170174
781.349	0.0170148
781.427	0.0169923
781.505	0.0170490
781.583	0.0167658
781.661	0.0169529
781.739	0.0169582
781.817	0.0169730
781.896	0.0169835
781.974	0.0170838
782.052	0.0169289
782.130	0.0169766
782.208	0.0170335
782.286	0.0170596
782.364	0.0170770
782.442	0.0170679
782.521	0.0169516
782.599	0.0170934
782.677	0.0170660
782.755	0.0171137
782.833	0.0170448
782.911	0.0170006
782.989	0.0168066
783.067	0.0168830
783.146	0.0167829
783.224	0.0168027
783.302	0.0166721
783.380	0.0165919
783.458	0.0164078
783.536	0.0165905
783.614	0.0165328
783.692	0.0165333
783.771	0.0166068
783.849	0.0166017
783.927	0.0165770
784.005	0.0168447
784.083	0.0168898
784.161	0.0169636
784.239	0.0171303
784.317	0.0171475
784.396	0.0172895
784.474	0.0173621
784.552	0.0172750
784.630	0.0173318
784.708	0.0174428
784.786	0.0174271
784.864	0.0174966
784.942	0.0173317
785.021	0.0173790
785.099	0.0172063
785.177	0.0172585
785.255	0.0171088
785.333	0.0169836
785.411	0.0168910
785.489	0.0167207
785.567	0.0167236
785.646	0.0165183
785.724	0.0164841
785.802	0.0165517
785.880	0.0165952
785.958	0.0163378
786.036	0.0164780
786.114	0.0164668
786.192	0.0165897
786.271	0.0165836
786.349	0.0168031
786.427	0.0166706
786.505	0.0167384
786.583	0.0167921
786.661	0.0167722
786.739	0.0169846
786.817	0.0170103
786.896	0.0168846
786.974	0.0169952
787.052	0.0170381
787.130	0.0171391
787.208	0.0171276
787.286	0.0169147
787.364	0.0169273
787.442	0.0171306
787.521	0.0170094
787.599	0.0170161
787.677	0.0171230
787.755	0.0170924
787.833	0.0169695
787.911	0.0169367
787.989	0.0168652
788.067	0.0169707
788.146	0.0168922
788.224	0.0170584
788.302	0.0169068
788.380	0.0168932
788.458	0.0169643
788.536	0.0167884
788.614	0.0168777
788.692	0.0168855
788.771	0.0169118
788.849	0.0168645
788.927	0.0167639
789.005	0.0168295
789.083	0.0168398
789.161	0.0169253
789.239	0.0168628
789.317	0.0168948
789.396	0.0169515
789.474	0.0168194
789.552	0.0167843
789.630	0.0167386
789.708	0.0168315
789.786	0.0166794
789.864	0.0168909
789.942	0.0169234
790.021	0.0168749
790.099	0.0167786
790.177	0.0168695
790.255	0.0169013
790.333	0.0168348
790.411	0.0170116
790.489	0.0169566
790.567	0.0169328
790.646	0.0169528
790.724	0.0168919
790.802	0.0169156
790.880	0.0170195
790.958	0.0170126
791.036	0.0171110
791.114	0.0170444
791.192	0.0170913
791.271	0.0172505
791.349	0.0170200
791.427	0.0170106
791.505	0.0171124
791.583	0.0171255
791.661	0.0170214
791.739	0.0170753
791.817	0.0172018
791.896	0.0170507
791.974	0.0169598
792.052	0.0170031
792.130	0.0170498
792.208	0.0169505
792.286	0.0168708
792.364	0.0169631
792.442	0.0168246
792.521	0.0166517
792.599	0.0167557
792.677	0.0166791
792.755	0.0166245
792.833	0.0166380
792.911	0.0166640
792.989	0.0165904
793.067	0.0166203
793.146	0.0164857
793.224	0.0166663
793.302	0.0166855
793.380	0.0167341
793.458	0.0167905
793.536	0.0167017
793.614	0.0169522
793.692	0.0169894
793.771	0.0170358
793.849	0.0170836
793.927	0.0170038
794.005	0.0172003
794.083	0.0171378
794.161	0.0171197
794.239	0.0170462
794.317	0.0171169
794.396	0.0170233
794.474	0.0169989
794.552	0.0168777
794.630	0.0168222
794.708	0.0167701
794.786	0.0167086
794.864	0.0166282
794.942	0.0165933
795.021	0.0165495
795.099	0.0166201
795.177	0.0166393
795.255	0.0164777
795.333	0.0166258
795.411	0.0166491
795.489	0.0166278
795.567	0.0167182
795.646	0.0166768
795.724	0.0168327
795.802	0.0167146
795.880	0.0167816
795.958	0.0168999
796.036	0.0168688
796.114	0.0169798
796.192	0.0171397
796.271	0.0171138
796.349	0.0171701
796.427	0.0172702
796.505	0.0173116
796.583	0.0173434
796.661	0.0172792
796.739	0.0172924
796.817	0.0173602
796.896	0.0172256
796.974	0.0171451
797.052	0.0170093
797.130	0.0169308
797.208	0.0167532
797.286	0.0166458
797.364	0.0165492
797.442	0.0164820
797.521	0.0164205
797.599	0.0164235
797.677	0.0163816
797.755	0.0163879
797.833	0.0163737
797.911	0.0163511
797.989	0.0166108
798.067	0.0167421
798.146	0.0166998
798.224	0.0167036
798.302	0.0168298
798.380	0.0168170
798.458	0.0168885
798.536	0.0169287
798.614	0.0169494
798.692	0.0170946
798.771	0.0171234
798.849	0.0170638
798.927	0.0171617
799.005	0.0172356
799.083	0.0172214
799.161	0.0171073
799.239	0.0170107
799.317	0.0169431
799.396	0.0167668
799.474	0.0166992
799.552	0.0166251
799.630	0.0164919
799.708	0.0165694
799.786	0.0164508
799.864	0.0165919
799.942	0.0166082
800.021	0.0166963
800.099	0.0167727
800.177	0.0169658
800.255	0.0170822
800.333	0.0170493
800.411	0.0172125
800.489	0.0170554
800.567	0.0170486
800.646	0.0172884
800.724	0.0171700
800.802	0.0170335
800.880	0.0170419
800.958	0.0169617
801.036	0.0169142
801.114	0.0167101
801.192	0.0168591
801.271	0.0167845
801.349	0.0166658
801.427	0.0167455
801.505	0.0165524
801.583	0.0165010
801.661	0.0164869
801.739	0.0165242
801.817	0.0164086
801.896	0.0166004
801.974	0.0165858
802.052	0.0165720
802.130	0.0166196
802.208	0.0167200
802.286	0.0169206
802.364	0.0168473
802.442	0.0170016
802.521	0.0171957
802.599	0.0171143
802.677	0.0172022
802.755	0.0173277
802.833	0.0174599
802.911	0.0171449
802.989	0.0172452
803.067	0.0169936
803.146	0.0171191
803.224	0.0170061
803.302	0.0167758
803.380	0.0168325
803.458	0.0167411
803.536	0.0166693
803.614	0.0165114
803.692	0.0166253
803.771	0.0165847
803.849	0.0164426
803.927	0.0165918
804.005	0.0165574
804.083	0.0165477
804.161	0.0166251
804.239	0.0168584
804.317	0.0166277
804.396	0.0168224
804.474	0.0168210
804.552	0.0169103
804.630	0.0169626
804.708	0.0170458
804.786	0.0172987
804.864	0.0173564
804.942	0.0174175
805.021	0.0174095
805.099	0.0175272
805.177	0.0175076
805.255	0.0172923
805.333	0.0172778
805.411	0.0173501
805.489	0.0171501
805.567	0.0170613
805.646	0.0169741
805.724	0.0169767
805.802	0.0168397
805.880	0.0166457
805.958	0.0166071
806.036	0.0165956
806.114	0.0166134
806.192	0.0166312
806.271	0.0166832
806.349	0.0165689
806.427	0.0165618
806.505	0.0166905
806.583	0.0166663
806.661	0.0166417
806.739	0.0167604
806.817	0.0167658
806.896	0.0167183
806.974	0.0168053
807.052	0.0168422
807.130	0.0169134
807.208	0.0168927
807.286	0.0169617
807.364	0.0169933
807.442	0.0169595
807.521	0.0169801
807.599	0.0168904
807.677	0.0169245
807.755	0.0167569
807.833	0.0166403
807.911	0.0168145
807.989	0.0166817
808.067	0.0167794
808.146	0.0166219
808.224	0.0166221
808.302	0.0168280
808.380	0.0167509
808.458	0.0167879
808.536	0.0170133
808.614	0.0168780
808.692	0.0170824
808.771	0.0169496
808.849	0.0171948
808.927	0.0172885
809.005	0.0173746
809.083	0.0172787
809.161	0.0174393
809.239	0.0173466
809.317	0.0175581
809.396	0.0174969
809.474	0.0174493
809.552	0.0174424
809.630	0.0171978
809.708	0.0171970
809.786	0.0171033
809.864	0.0168337
809.942	0.0169176
810.021	0.0167235
810.099	0.0165694
810.177	0.0163504
810.255	0.0162832
810.333	0.0162343
810.411	0.0162035
810.489	0.0162953
810.567	0.0160597
810.646	0.0162836
810.724	0.0162986
810.802	0.0161847
810.880	0.0161633
810.958	0.0163492
811.036	0.0164864
811.114	0.0166713
811.192	0.0165389
811.271	0.0167434
811.349	0.0169179
811.427	0.0170107
811.505	0.0170080
811.583	0.0170468
811.661	0.0170280
811.739	0.0171762
811.817	0.0170319
811.896	0.0170939
811.974	0.0172005
812.052	0.0171740
812.130	0.0172381
812.208	0.0172378
812.286	0.0172189
812.364	0.0170569
812.442	0.0170511
812.521	0.0170234
812.599	0.0170306
812.677	0.0169640
812.755	0.0170377
812.833	0.0168429
812.911	0.0167605
812.989	0.0168858
813.067	0.0168403
813.146	0.0167342
813.224	0.0167085
813.302	0.0167737
813.380	0.0167278
813.458	0.0167016
813.536	0.0168382
813.614	0.0168246
813.692	0.0168788
813.771	0.0170222
813.849	0.0169779
813.927	0.0169878
814.005	0.0171046
814.083	0.0171217
814.161	0.0170006
814.239	0.0170998
814.317	0.0172058
814.396	0.0172451
814.474	0.0171791
814.552	0.0170362
814.630	0.0171320
814.708	0.0171567
814.786	0.0170201
814.864	0.0170010
814.942	0.0170021
815.021	0.0171217
815.099	0.0167807
815.177	0.0167902
815.255	0.0168900
815.333	0.0168617
815.411	0.0167038
815.489	0.0166842
815.567	0.0165965
815.646	0.0166711
815.724	0.0167187
815.802	0.0166093
815.880	0.0165848
815.958	0.0166349
816.036	0.0166342
816.114	0.0166062
816.192	0.0166784
816.271	0.0167069
816.349	0.0166047
816.427	0.0168561
816.505	0.0168353
816.583	0.0167406
816.661	0.0168283
816.739	0.0169929
816.817	0.0170838
816.896	0.0169682
816.974	0.0169465
817.052	0.0170766
817.130	0.0171362
817.208	0.0171438
817.286	0.0171675
817.364	0.0171871
817.442	0.0171602
817.521	0.0171481
817.599	0.0171873
817.677	0.0171366
817.755	0.0170681
817.833	0.0170236
817.911	0.0169389
817.989	0.0168729
818.067	0.0169169
818.146	0.0168483
818.224	0.0168031
818.302	0.0166917
818.380	0.0167722
818.458	0.0166256
818.536	0.0167547
818.614	0.0167725
818.692	0.0166907
818.771	0.0166869
818.849	0.0166840
818.927	0.0166062
819.005	0.0166779
819.083	0.0166657
819.161	0.0167318
819.239	0.0168401
819.317	0.0169453
819.396	0.0168646
819.474	0.0169480
819.552	0.0169125
819.630	0.0167526
819.708	0.0168291
819.786	0.0169603
819.864	0.0168721
819.942	0.0169350
820.021	0.0169915
820.099	0.0168816
820.177	0.0169378
820.255	0.0168965
820.333	0.0169144
820.411	0.0167374
820.489	0.0168340
820.567	0.0169360
820.646	0.0170379
820.724	0.0169969
820.802	0.0170494
820.880	0.0168821
820.958	0.0168833
821.036	0.0171249
821.114	0.0171388
821.192	0.0170707
821.271	0.0170336
821.349	0.0171192
821.427	0.0170990
821.505	0.0170231
821.583	0.0172389
821.661	0.0170066
821.739	0.0170062
821.817	0.0170539
821.896	0.0169723
821.974	0.0168750
822.052	0.0167593
822.130	0.0168304
822.208	0.0167164
822.286	0.0165642
822.364	0.0167130
822.442	0.0167830
822.521	0.0166927
822.599	0.0167661
822.677	0.0167151
822.755	0.0167099
822.833	0.0167027
822.911	0.0168718
822.989	0.0169014
823.067	0.0169019
823.146	0.0169298
823.224	0.0168729
823.302	0.0170482
823.380	0.0170265
823.458	0.0169141
823.536	0.0170255
823.614	0.0170969
823.692	0.0170050
823.771	0.0170160
823.849	0.0168814
823.927	0.0169076
824.005	0.0169550
824.083	0.0167046
824.161	0.0167720
824.239	0.0167330
824.317	0.0167869
824.396	0.0167187
824.474	0.0166316
824.552	0.0165452
824.630	0.0165707
824.708	0.0166305
824.786	0.0167052
824.864	0.0167232
824.942	0.0165879
825.021	0.0167442
825.099	0.0169122
825.177	0.0168829
825.255	0.0167404
825.333	0.0169341
825.411	0.0169506
825.489	0.0169667
825.567	0.0168612
825.646	0.0170644
825.724	0.0169837
825.802	0.0169420
825.880	0.0170210
825.958	0.0171331
826.036	0.0169626
826.114	0.0170360
826.192	0.0168413
826.271	0.0168543
826.349	0.0168002
826.427	0.0169270
826.505	0.0167675
826.583	0.0167220
826.661	0.0167380
826.739	0.0169514
826.817	0.0169667
826.896	0.0167688
826.974	0.0168448
827.052	0.0168997
827.130	0.0166506
827.208	0.0167516
827.286	0.0169236
827.364	0.0168591
827.442	0.0170107
827.521	0.0170915
827.599	0.0171392
827.677	0.0171170
827.755	0.0169276
827.833	0.0169491
827.911	0.0170067
827.989	0.0170359
828.067	0.0169667
828.146	0.0171075
828.224	0.0170399
828.302	0.0168491
828.380	0.0168598
828.458	0.0169292
828.536	0.0166035
828.614	0.0167522
828.692	0.0165716
828.771	0.0165807
828.849	0.0165143
828.927	0.0166196
829.005	0.0165932
829.083	0.0163653
829.161	0.0165860
829.239	0.0165446
829.317	0.0165133
829.396	0.0165531
829.474	0.0166275
829.552	0.0165690
829.630	0.0167343
829.708	0.0166254
829.786	0.0167336
829.864	0.0167255
829.942	0.0168681
830.021	0.0168748
830.099	0.0168749
830.177	0.0167701
830.255	0.0168594
830.333	0.0168417
830.411	0.0169886
830.489	0.0169671
830.567	0.0169115
830.646	0.0170013
830.724	0.0169554
830.802	0.0170785
830.880	0.0171191
830.958	0.0170476
831.036	0.0170210
831.114	0.0171038
831.192	0.0170625
831.271	0.0171333
831.349	0.0173073
831.427	0.0171970
831.505	0.0171034
831.583	0.0170309
831.661	0.0169585
831.739	0.0171398
831.817	0.0171590
831.896	0.0170515
831.974	0.0170628
832.052	0.0169550
832.130	0.0170470
832.208	0.0168812
832.286	0.0168275
832.364	0.0168402
832.442	0.0168694
832.521	0.0169479
832.599	0.0170224
832.677	0.0167953
832.755	0.0167197
832.833	0.0167545
832.911	0.0168356
832.989	0.0166862
833.067	0.0166718
833.146	0.0168316
833.224	0.0166604
833.302	0.0166649
833.380	0.0166118
833.458	0.0167411
833.536	0.0165074
833.614	0.0166640
833.692	0.0166962
833.771	0.0167523
833.849	0.0166142
833.927	0.0166759
834.005	0.0167244
834.083	0.0166528
834.161	0.0165900
834.239	0.0166316
834.317	0.0166696
834.396	0.0168784
834.474	0.0168409
834.552	0.0168591
834.630	0.0167163
834.708	0.0168192
834.786	0.0170325
834.864	0.0169145
834.942	0.0168689
835.021	0.0169050
835.099	0.0168147
835.177	0.0169203
835.255	0.0168148
835.333	0.0169140
835.411	0.0169354
835.489	0.0169641
835.567	0.0170557
835.646	0.0170451
835.724	0.0169102
835.802	0.0168563
835.880	0.0169012
835.958	0.0171272
836.036	0.0170467
836.114	0.0169045
836.192	0.0168163
836.271	0.0169788
836.349	0.0169229
836.427	0.0168794
836.505	0.0168700
836.583	0.0169513
836.661	0.0169299
836.739	0.0170029
836.817	0.0170441
836.896	0.0169334
836.974	0.0168662
837.052	0.0167573
837.130	0.0171027
837.208	0.0170291
837.286	0.0169148
837.364	0.0169402
837.442	0.0168168
837.521	0.0168890
837.599	0.0169775
837.677	0.0170147
837.755	0.0170063
837.833	0.0169572
837.911	0.0169853
837.989	0.0169376
838.067	0.0168376
838.146	0.0169086
838.224	0.0167978
838.302	0.0169522
838.380	0.0169229
838.458	0.0169102
838.536	0.0167709
838.614	0.0166775
838.692	0.0168442
838.771	0.0169247
838.849	0.0168130
838.927	0.0166945
839.005	0.0168283
839.083	0.0168175
839.161	0.0168821
839.239	0.0169788
839.317	0.0170700
839.396	0.0171779
839.474	0.0170982
839.552	0.0171222
839.630	0.0171608
839.708	0.0173949
839.786	0.0171732
839.864	0.0171156
839.942	0.0172122
840.021	0.0172630
840.099	0.0171072
840.177	0.0173077
840.255	0.0171983
840.333	0.0170380
840.411	0.0170552
840.489	0.0169994
840.567	0.0170546
840.646	0.0168443
840.724	0.0167773
840.802	0.0167134
840.880	0.0167545
840.958	0.0168760
841.036	0.0165314
841.114	0.0165479
841.192	0.0166667
841.271	0.0167693
841.349	0.0167127
841.427	0.0167932
841.505	0.0167774
841.583	0.0165887
841.661	0.0167124
841.739	0.0167503
841.817	0.0167282
841.896	0.0168709
841.974	0.0169905
842.052	0.0169804
842.130	0.0169441
842.208	0.0170091
842.286	0.0172011
842.364	0.0170919
842.442	0.0170131
842.521	0.0170324
842.599	0.0171795
842.677	0.0170999
842.755	0.0168921
842.833	0.0169909
842.911	0.0169834
842.989	0.0170045
843.067	0.0169373
843.146	0.0168077
843.224	0.0169289
843.302	0.0168698
843.380	0.0168661
843.458	0.0168098
843.536	0.0166368
843.614	0.0167857
843.692	0.0168774
843.771	0.0167064
843.849	0.0169407
843.927	0.0169672
844.005	0.0169369
844.083	0.0168708
844.161	0.0170355
844.239	0.0170555
844.317	0.0171497
844.396	0.0171798
844.474	0.0170799
844.552	0.0170486
844.630	0.0171614
844.708	0.0170592
844.786	0.0172250
844.864	0.0170771
844.942	0.0170498
845.021	0.0170447
845.099	0.0169730
845.177	0.0170227
845.255	0.0167992
845.333	0.0169672
845.411	0.0168628
845.489	0.0168443
845.567	0.0169599
845.646	0.0168989
845.724	0.0167902
845.802	0.0168768
845.880	0.0170424
845.958	0.0170863
846.036	0.0168330
846.114	0.0167594
846.192	0.0166927
846.271	0.0168471
846.349	0.0168372
846.427	0.0168296
846.505	0.0168650
846.583	0.0168632
846.661	0.0167355
846.739	0.0168065
846.817	0.0169499
846.896	0.0168702
846.974	0.0167539
847.052	0.0168293
847.130	0.0168221
847.208	0.0169611
847.286	0.0168402
847.364	0.0169830
847.442	0.0169871
847.521	0.0170283
847.599	0.0168439
847.677	0.0168541
847.755	0.0169642
847.833	0.0169736
847.911	0.0168306
847.989	0.0167673
848.067	0.0167015
848.146	0.0168491
848.224	0.0167723
848.302	0.0169181
848.380	0.0168933
848.458	0.0168520
848.536	0.0169022
848.614	0.0170551
848.692	0.0168953
848.771	0.0170515
848.849	0.0170536
848.927	0.0171034
849.005	0.0171166
849.083	0.0170522
849.161	0.0171197
849.239	0.0169531
849.317	0.0169553
849.396	0.0169028
849.474	0.0168741
849.552	0.0169770
849.630	0.0168414
849.708	0.0166935
849.786	0.0168935
849.864	0.0168130
849.942	0.0168416
850.021	0.0167332
850.099	0.0166750
850.177	0.0166726
850.255	0.0166447
850.333	0.0167078
850.411	0.0167928
850.489	0.0168346
850.567	0.0167971
850.646	0.0168077
850.724	0.0168910
850.802	0.0169423
850.880	0.0170520
850.958	0.0170034
851.036	0.0170062
851.114	0.0170332
851.192	0.0171113
851.271	0.0171602
851.349	0.0170535
851.427	0.0170782
851.505	0.0168686
851.583	0.0169201
851.661	0.0168287
851.739	0.0166456
851.817	0.0168819
851.896	0.0167001
851.974	0.0167047
852.052	0.0167652
852.130	0.0165860
852.208	0.0166011
852.286	0.0166278
852.364	0.0166278
852.442	0.0166812
852.521	0.0167133
852.599	0.0165988
852.677	0.0167443
852.755	0.0167960
852.833	0.0166343
852.911	0.0167473
852.989	0.0167260
853.067	0.0169656
853.146	0.0169617
853.224	0.0170390
853.302	0.0169984
853.380	0.0170535
853.458	0.0172270
853.536	0.0171877
853.614	0.0171885
853.692	0.0172223
853.771	0.0171857
853.849	0.0171452
853.927	0.0171615
854.005	0.0171103
854.083	0.0170528
854.161	0.0169573
854.239	0.0170664
854.317	0.0169096
854.396	0.0168896
854.474	0.0167529
854.552	0.0165643
854.630	0.0167776
854.708	0.0168607
854.786	0.0166834
854.864	0.0166684
854.942	0.0168546
855.021	0.0168673
855.099	0.0168600
855.177	0.0168525
855.255	0.0168317
855.333	0.0168967
855.411	0.0168824
855.489	0.0169534
855.567	0.0170256
855.646	0.0170979
855.724	0.0170110
855.802	0.0169639
855.880	0.0171468
855.958	0.0169776
856.036	0.0169292
856.114	0.0166996
856.192	0.0169848
856.271	0.0169139
856.349	0.0167351
856.427	0.0168404
856.505	0.0167644
856.583	0.0166884
856.661	0.0168047
856.739	0.0167535
856.817	0.0168748
856.896	0.0167152
856.974	0.0167261
857.052	0.0168220
857.130	0.0169237
857.208	0.0168015
857.286	0.0167263
857.364	0.0167498
857.442	0.0170023
857.521	0.0170557
857.599	0.0168898
857.677	0.0168997
857.755	0.0169460
857.833	0.0169354
857.911	0.0170966
857.989	0.0170330
858.067	0.0168535
858.146	0.0169157
858.224	0.0168122
858.302	0.0170143
858.380	0.0169651
858.458	0.0169037
858.536	0.0168760
858.614	0.0168192
858.692	0.0168414
858.771	0.0168387
858.849	0.0168514
858.927	0.0169567
859.005	0.0169476
859.083	0.0168870
859.161	0.0168302
859.239	0.0168008
859.317	0.0168056
859.396	0.0168353
859.474	0.0169033
859.552	0.0169180
859.630	0.0167876
859.708	0.0167650
859.786	0.0169532
859.864	0.0170245
859.942	0.0169860
860.021	0.0167764
860.099	0.0169653
860.177	0.0169563
860.255	0.0169322
860.333	0.0169421
860.411	0.0169516
860.489	0.0170837
860.567	0.0171838
860.646	0.0171900
860.724	0.0170277
860.802	0.0170528
860.880	0.0170721
860.958	0.0170044
861.036	0.0170604
861.114	0.0170796
861.192	0.0170084
861.271	0.0169612
861.349	0.0170366
861.427	0.0169017
861.505	0.0170437
861.583	0.0168924
861.661	0.0169327
861.739	0.0168703
861.817	0.0168272
861.896	0.0169267
861.974	0.0168765
862.052	0.0167783
862.130	0.0169479
862.208	0.0168572
862.286	0.0169347
862.364	0.0169559
862.442	0.0169078
862.521	0.0168255
862.599	0.0168024
862.677	0.0169480
862.755	0.0169184
862.833	0.0168198
862.911	0.0168849
862.989	0.0168688
863.067	0.0169364
863.146	0.0167429
863.224	0.0168291
863.302	0.0169264
863.380	0.0168842
863.458	0.0167628
863.536	0.0168611
863.614	0.0168600
863.692	0.0168496
863.771	0.0169546
863.849	0.0169061
863.927	0.0168614
864.005	0.0168145
864.083	0.0170330
864.161	0.0168557
864.239	0.0169737
864.317	0.0170057
864.396	0.0169029
864.474	0.0169213
864.552	0.0170448
864.630	0.0170522
864.708	0.0170013
864.786	0.0170685
864.864	0.0169904
864.942	0.0170790
865.021	0.0168576
865.099	0.0168200
865.177	0.0168385
865.255	0.0169549
865.333	0.0170152
865.411	0.0169358
865.489	0.0168169
865.567	0.0169473
865.646	0.0168756
865.724	0.0168700
865.802	0.0168657
865.880	0.0167590
865.958	0.0168884
866.036	0.0167883
866.114	0.0167380
866.192	0.0168414
866.271	0.0168638
866.349	0.0167460
866.427	0.0168475
866.505	0.0169542
866.583	0.0167464
866.661	0.0168584
866.739	0.0168646
866.817	0.0168665
866.896	0.0169704
866.974	0.0170644
867.052	0.0170040
867.130	0.0170982
867.208	0.0171958
867.286	0.0170842
867.364	0.0170285
867.442	0.0171118
867.521	0.0170261
867.599	0.0169584
867.677	0.0169940
867.755	0.0170303
867.833	0.0171057
867.911	0.0170196
867.989	0.0169984
868.067	0.0170037
868.146	0.0169955
868.224	0.0169645
868.302	0.0169357
868.380	0.0168926
868.458	0.0169441
868.536	0.0171456
868.614	0.0169122
868.692	0.0169588
868.771	0.0170350
868.849	0.0169984
868.927	0.0168922
869.005	0.0169584
869.083	0.0171135
869.161	0.0169159
869.239	0.0170190
869.317	0.0169364
869.396	0.0170223
869.474	0.0168485
869.552	0.0168983
869.630	0.0170181
869.708	0.0168435
869.786	0.0167603
869.864	0.0168437
869.942	0.0168022
