06/03/2022	15:32:20	Ver.	4.1	UNKNOWN
Optical Delay	550.020508	Delta X		0.078125	Sweeps	1	Scan Rate	0/0
Coordinates	Axis 1	NaN	Axis 2	NaN	Axis 3	NaN	Axis 4	NaN	Axis 5	NaN	Axis 6	0.000000
TX Power	0.000000	RX Power	0.000000

550.021	0.0165730
550.099	0.0166365
550.177	0.0165318
550.255	0.0165355
550.333	0.0164490
550.411	0.0166191
550.489	0.0166222
550.567	0.0167312
550.646	0.0165137
550.724	0.0166676
550.802	0.0165113
550.880	0.0165373
550.958	0.0165620
551.036	0.0165783
551.114	0.0166576
551.192	0.0164963
551.271	0.0165291
551.349	0.0163417
551.427	0.0165085
551.505	0.0166666
551.583	0.0165905
551.661	0.0165529
551.739	0.0164777
551.817	0.0164925
551.896	0.0165704
551.974	0.0165965
552.052	0.0165218
552.130	0.0164712
552.208	0.0166291
552.286	0.0165893
552.364	0.0165309
552.442	0.0165226
552.521	0.0164722
552.599	0.0165674
552.677	0.0164981
552.755	0.0165428
552.833	0.0165435
552.911	0.0164195
552.989	0.0163503
553.067	0.0165530
553.146	0.0166322
553.224	0.0164375
553.302	0.0165185
553.380	0.0165183
553.458	0.0164582
553.536	0.0166056
553.614	0.0165787
553.692	0.0164291
553.771	0.0165470
553.849	0.0166180
553.927	0.0164463
554.005	0.0166061
554.083	0.0166584
554.161	0.0164656
554.239	0.0166087
554.317	0.0166122
554.396	0.0165820
554.474	0.0166750
554.552	0.0166158
554.630	0.0164866
554.708	0.0165797
554.786	0.0165471
554.864	0.0166148
554.942	0.0166582
555.021	0.0166227
555.099	0.0166261
555.177	0.0166985
555.255	0.0167100
555.333	0.0164262
555.411	0.0165424
555.489	0.0166107
555.567	0.0164299
555.646	0.0167117
555.724	0.0165403
555.802	0.0165620
555.880	0.0167050
555.958	0.0165832
556.036	0.0165756
556.114	0.0165504
556.192	0.0165440
556.271	0.0165221
556.349	0.0164580
556.427	0.0166746
556.505	0.0165677
556.583	0.0165798
556.661	0.0166081
556.739	0.0165105
556.817	0.0167200
556.896	0.0165808
556.974	0.0167133
557.052	0.0167156
557.130	0.0165373
557.208	0.0166109
557.286	0.0166214
557.364	0.0166577
557.442	0.0165701
557.521	0.0167228
557.599	0.0165262
557.677	0.0165701
557.755	0.0166492
557.833	0.0166188
557.911	0.0166209
557.989	0.0165284
558.067	0.0164997
558.146	0.0165791
558.224	0.0165957
558.302	0.0166020
558.380	0.0165369
558.458	0.0167230
558.536	0.0165751
558.614	0.0165853
558.692	0.0165322
558.771	0.0166066
558.849	0.0165359
558.927	0.0166458
559.005	0.0166679
559.083	0.0164457
559.161	0.0165305
559.239	0.0165986
559.317	0.0164509
559.396	0.0166406
559.474	0.0165672
559.552	0.0165651
559.630	0.0165827
559.708	0.0166334
559.786	0.0165194
559.864	0.0165097
559.942	0.0165489
560.021	0.0168009
560.099	0.0165504
560.177	0.0165763
560.255	0.0165572
560.333	0.0164242
560.411	0.0164873
560.489	0.0166720
560.567	0.0165227
560.646	0.0165626
560.724	0.0166860
560.802	0.0164954
560.880	0.0164792
560.958	0.0165289
561.036	0.0165294
561.114	0.0166499
561.192	0.0167178
561.271	0.0165639
561.349	0.0165621
561.427	0.0164191
561.505	0.0166494
561.583	0.0166317
561.661	0.0165682
561.739	0.0166145
561.817	0.0165518
561.896	0.0165143
561.974	0.0165916
562.052	0.0166142
562.130	0.0166441
562.208	0.0166528
562.286	0.0166158
562.364	0.0166217
562.442	0.0165280
562.521	0.0165646
562.599	0.0165630
562.677	0.0164491
562.755	0.0166403
562.833	0.0165266
562.911	0.0164433
562.989	0.0165853
563.067	0.0166508
563.146	0.0165527
563.224	0.0164944
563.302	0.0166644
563.380	0.0165828
563.458	0.0165822
563.536	0.0165767
563.614	0.0165521
563.692	0.0166536
563.771	0.0166128
563.849	0.0164838
563.927	0.0166086
564.005	0.0165907
564.083	0.0165428
564.161	0.0166119
564.239	0.0165359
564.317	0.0163741
564.396	0.0164766
564.474	0.0167021
564.552	0.0165492
564.630	0.0165588
564.708	0.0166039
564.786	0.0165807
564.864	0.0165126
564.942	0.0165517
565.021	0.0166334
565.099	0.0166597
565.177	0.0165582
565.255	0.0166187
565.333	0.0165540
565.411	0.0164810
565.489	0.0166420
565.567	0.0165636
565.646	0.0165259
565.724	0.0165542
565.802	0.0165703
565.880	0.0166039
565.958	0.0166845
566.036	0.0166582
566.114	0.0165388
566.192	0.0167402
566.271	0.0165345
566.349	0.0165636
566.427	0.0166119
566.505	0.0165195
566.583	0.0165461
566.661	0.0166167
566.739	0.0166258
566.817	0.0165162
566.896	0.0165282
566.974	0.0166182
567.052	0.0166084
567.130	0.0165707
567.208	0.0165987
567.286	0.0165108
567.364	0.0165177
567.442	0.0165101
567.521	0.0164063
567.599	0.0166470
567.677	0.0165086
567.755	0.0165011
567.833	0.0165469
567.911	0.0166344
567.989	0.0165282
568.067	0.0166669
568.146	0.0166472
568.224	0.0166494
568.302	0.0166040
568.380	0.0165665
568.458	0.0165501
568.536	0.0165701
568.614	0.0166032
568.692	0.0165038
568.771	0.0164503
568.849	0.0166082
568.927	0.0165224
569.005	0.0165973
569.083	0.0165839
569.161	0.0165659
569.239	0.0166103
569.317	0.0164993
569.396	0.0165528
569.474	0.0164961
569.552	0.0164753
569.630	0.0164574
569.708	0.0166038
569.786	0.0166153
569.864	0.0165446
569.942	0.0165790
570.021	0.0165411
570.099	0.0166090
570.177	0.0164780
570.255	0.0166065
570.333	0.0166616
570.411	0.0164890
570.489	0.0165514
570.567	0.0164941
570.646	0.0165815
570.724	0.0165804
570.802	0.0166106
570.880	0.0166417
570.958	0.0166073
571.036	0.0165691
571.114	0.0165503
571.192	0.0165831
571.271	0.0165414
571.349	0.0165405
571.427	0.0165938
571.505	0.0166977
571.583	0.0165971
571.661	0.0164426
571.739	0.0166213
571.817	0.0167216
571.896	0.0166646
571.974	0.0165924
572.052	0.0166169
572.130	0.0164705
572.208	0.0166364
572.286	0.0164734
572.364	0.0166192
572.442	0.0166698
572.521	0.0165497
572.599	0.0165315
572.677	0.0165373
572.755	0.0164836
572.833	0.0166980
572.911	0.0166009
572.989	0.0166177
573.067	0.0165962
573.146	0.0164741
573.224	0.0165883
573.302	0.0166540
573.380	0.0165991
573.458	0.0167336
573.536	0.0165990
573.614	0.0166823
573.692	0.0165566
573.771	0.0166882
573.849	0.0165617
573.927	0.0166703
574.005	0.0166206
574.083	0.0166111
574.161	0.0166266
574.239	0.0166625
574.317	0.0165638
574.396	0.0166358
574.474	0.0166386
574.552	0.0165811
574.630	0.0165380
574.708	0.0166187
574.786	0.0167513
574.864	0.0165614
574.942	0.0165276
575.021	0.0164573
575.099	0.0165421
575.177	0.0167734
575.255	0.0165154
575.333	0.0165708
575.411	0.0166529
575.489	0.0164616
575.567	0.0166040
575.646	0.0165619
575.724	0.0165752
575.802	0.0166168
575.880	0.0165977
575.958	0.0164900
576.036	0.0165903
576.114	0.0166550
576.192	0.0166860
576.271	0.0166702
576.349	0.0166371
576.427	0.0165807
576.505	0.0165608
576.583	0.0166361
576.661	0.0166079
576.739	0.0165867
576.817	0.0166520
576.896	0.0166937
576.974	0.0166893
577.052	0.0165476
577.130	0.0165918
577.208	0.0165660
577.286	0.0166341
577.364	0.0166557
577.442	0.0165791
577.521	0.0166799
577.599	0.0166635
577.677	0.0165937
577.755	0.0167763
577.833	0.0166990
577.911	0.0166245
577.989	0.0165302
578.067	0.0165881
578.146	0.0165843
578.224	0.0165120
578.302	0.0167215
578.380	0.0166911
578.458	0.0165949
578.536	0.0166940
578.614	0.0166844
578.692	0.0166605
578.771	0.0165247
578.849	0.0166276
578.927	0.0166553
579.005	0.0165836
579.083	0.0167414
579.161	0.0164891
579.239	0.0167548
579.317	0.0166015
579.396	0.0166875
579.474	0.0164263
579.552	0.0166567
579.630	0.0164782
579.708	0.0166660
579.786	0.0166467
579.864	0.0164482
579.942	0.0165123
580.021	0.0166579
580.099	0.0166400
580.177	0.0165616
580.255	0.0166185
580.333	0.0165442
580.411	0.0165764
580.489	0.0165240
580.567	0.0166440
580.646	0.0164513
580.724	0.0166670
580.802	0.0166723
580.880	0.0166185
580.958	0.0167296
581.036	0.0166272
581.114	0.0165945
581.192	0.0166710
581.271	0.0165282
581.349	0.0166086
581.427	0.0166257
581.505	0.0166215
581.583	0.0165749
581.661	0.0166296
581.739	0.0167298
581.817	0.0165250
581.896	0.0165707
581.974	0.0165885
582.052	0.0164674
582.130	0.0165532
582.208	0.0165353
582.286	0.0165688
582.364	0.0165904
582.442	0.0165553
582.521	0.0165201
582.599	0.0166628
582.677	0.0165597
582.755	0.0164644
582.833	0.0163968
582.911	0.0166591
582.989	0.0163820
583.067	0.0166322
583.146	0.0166798
583.224	0.0165076
583.302	0.0164236
583.380	0.0164816
583.458	0.0165687
583.536	0.0165898
583.614	0.0166959
583.692	0.0164896
583.771	0.0165937
583.849	0.0165079
583.927	0.0164677
584.005	0.0166670
584.083	0.0165679
584.161	0.0165698
584.239	0.0164902
584.317	0.0166463
584.396	0.0166717
584.474	0.0166076
584.552	0.0165784
584.630	0.0165862
584.708	0.0165479
584.786	0.0165875
584.864	0.0167457
584.942	0.0166473
585.021	0.0165180
585.099	0.0165131
585.177	0.0166341
585.255	0.0166664
585.333	0.0165360
585.411	0.0166125
585.489	0.0165118
585.567	0.0165527
585.646	0.0166018
585.724	0.0167167
585.802	0.0167123
585.880	0.0166702
585.958	0.0165982
586.036	0.0165853
586.114	0.0165361
586.192	0.0166051
586.271	0.0165100
586.349	0.0166190
586.427	0.0165709
586.505	0.0166254
586.583	0.0165591
586.661	0.0166264
586.739	0.0165849
586.817	0.0166375
586.896	0.0165844
586.974	0.0167625
587.052	0.0166656
587.130	0.0166811
587.208	0.0166836
587.286	0.0165086
587.364	0.0166635
587.442	0.0166522
587.521	0.0165308
587.599	0.0165219
587.677	0.0165874
587.755	0.0164873
587.833	0.0167272
587.911	0.0165647
587.989	0.0165401
588.067	0.0166341
588.146	0.0164853
588.224	0.0166173
588.302	0.0165949
588.380	0.0166228
588.458	0.0164794
588.536	0.0166906
588.614	0.0166743
588.692	0.0164895
588.771	0.0166061
588.849	0.0165414
588.927	0.0166155
589.005	0.0167343
589.083	0.0165733
589.161	0.0166092
589.239	0.0167293
589.317	0.0166160
589.396	0.0166158
589.474	0.0165652
589.552	0.0165660
589.630	0.0166176
589.708	0.0165668
589.786	0.0165873
589.864	0.0166227
589.942	0.0165903
590.021	0.0165690
590.099	0.0165060
590.177	0.0165886
590.255	0.0165150
590.333	0.0163977
590.411	0.0165763
590.489	0.0164877
590.567	0.0165772
590.646	0.0166171
590.724	0.0165956
590.802	0.0165814
590.880	0.0165739
590.958	0.0165928
591.036	0.0165858
591.114	0.0167023
591.192	0.0167234
591.271	0.0165023
591.349	0.0165682
591.427	0.0166363
591.505	0.0166675
591.583	0.0165775
591.661	0.0166093
591.739	0.0166109
591.817	0.0166023
591.896	0.0165331
591.974	0.0164595
592.052	0.0164423
592.130	0.0166331
592.208	0.0165128
592.286	0.0166207
592.364	0.0164509
592.442	0.0166344
592.521	0.0165979
592.599	0.0166684
592.677	0.0165650
592.755	0.0166410
592.833	0.0166316
592.911	0.0165238
592.989	0.0166731
593.067	0.0165993
593.146	0.0165576
593.224	0.0165955
593.302	0.0165648
593.380	0.0166409
593.458	0.0165462
593.536	0.0166886
593.614	0.0166006
593.692	0.0165556
593.771	0.0164847
593.849	0.0166321
593.927	0.0166285
594.005	0.0166420
594.083	0.0165432
594.161	0.0168192
594.239	0.0165793
594.317	0.0165891
594.396	0.0165366
594.474	0.0165408
594.552	0.0166315
594.630	0.0165800
594.708	0.0166891
594.786	0.0165045
594.864	0.0166008
594.942	0.0165104
595.021	0.0165234
595.099	0.0167937
595.177	0.0166022
595.255	0.0165245
595.333	0.0165864
595.411	0.0166034
595.489	0.0165570
595.567	0.0165238
595.646	0.0166975
595.724	0.0166277
595.802	0.0165137
595.880	0.0165987
595.958	0.0166974
596.036	0.0165575
596.114	0.0165903
596.192	0.0166169
596.271	0.0168112
596.349	0.0165279
596.427	0.0166248
596.505	0.0167212
596.583	0.0166384
596.661	0.0166131
596.739	0.0165359
596.817	0.0167438
596.896	0.0165659
596.974	0.0166821
597.052	0.0165011
597.130	0.0164283
597.208	0.0166395
597.286	0.0166512
597.364	0.0165565
597.442	0.0164234
597.521	0.0165780
597.599	0.0166552
597.677	0.0164040
597.755	0.0165691
597.833	0.0166412
597.911	0.0166708
597.989	0.0165898
598.067	0.0165119
598.146	0.0166369
598.224	0.0166084
598.302	0.0165297
598.380	0.0164803
598.458	0.0166769
598.536	0.0165677
598.614	0.0165782
598.692	0.0165266
598.771	0.0165168
598.849	0.0167115
598.927	0.0165482
599.005	0.0166887
599.083	0.0164583
599.161	0.0164627
599.239	0.0166000
599.317	0.0165588
599.396	0.0166564
599.474	0.0165939
599.552	0.0166126
599.630	0.0164841
599.708	0.0165827
599.786	0.0166091
599.864	0.0165715
599.942	0.0165041
600.021	0.0165330
600.099	0.0165993
600.177	0.0165951
600.255	0.0166219
600.333	0.0166338
600.411	0.0165428
600.489	0.0165661
600.567	0.0164572
600.646	0.0164914
600.724	0.0165605
600.802	0.0164752
600.880	0.0164765
600.958	0.0164146
601.036	0.0165777
601.114	0.0166247
601.192	0.0164718
601.271	0.0165480
601.349	0.0165736
601.427	0.0165749
601.505	0.0166577
601.583	0.0166337
601.661	0.0165176
601.739	0.0167281
601.817	0.0165829
601.896	0.0166154
601.974	0.0166943
602.052	0.0164602
602.130	0.0165618
602.208	0.0165388
602.286	0.0165558
602.364	0.0166471
602.442	0.0167134
602.521	0.0164980
602.599	0.0165809
602.677	0.0166405
602.755	0.0165914
602.833	0.0165629
602.911	0.0166123
602.989	0.0166246
603.067	0.0166178
603.146	0.0166183
603.224	0.0165771
603.302	0.0165457
603.380	0.0165013
603.458	0.0165412
603.536	0.0166650
603.614	0.0165839
603.692	0.0166106
603.771	0.0166530
603.849	0.0165753
603.927	0.0166901
604.005	0.0165741
604.083	0.0165598
604.161	0.0164666
604.239	0.0166349
604.317	0.0165856
604.396	0.0165290
604.474	0.0164259
604.552	0.0166071
604.630	0.0166361
604.708	0.0165539
604.786	0.0166493
604.864	0.0165792
604.942	0.0165336
605.021	0.0166741
605.099	0.0165377
605.177	0.0167336
605.255	0.0165830
605.333	0.0166125
605.411	0.0165234
605.489	0.0165281
605.567	0.0165558
605.646	0.0166106
605.724	0.0165235
605.802	0.0166589
605.880	0.0165836
605.958	0.0164472
606.036	0.0166473
606.114	0.0167463
606.192	0.0166953
606.271	0.0165394
606.349	0.0164902
606.427	0.0165279
606.505	0.0165605
606.583	0.0166728
606.661	0.0166835
606.739	0.0167487
606.817	0.0166534
606.896	0.0166669
606.974	0.0165584
607.052	0.0164745
607.130	0.0164718
607.208	0.0165266
607.286	0.0165430
607.364	0.0165401
607.442	0.0166216
607.521	0.0166202
607.599	0.0165766
607.677	0.0166376
607.755	0.0165953
607.833	0.0167778
607.911	0.0165434
607.989	0.0166429
608.067	0.0166625
608.146	0.0166825
608.224	0.0165894
608.302	0.0165764
608.380	0.0165627
608.458	0.0166705
608.536	0.0166428
608.614	0.0166750
608.692	0.0165893
608.771	0.0166270
608.849	0.0166129
608.927	0.0166264
609.005	0.0165944
609.083	0.0165784
609.161	0.0166719
609.239	0.0166247
609.317	0.0166807
609.396	0.0164779
609.474	0.0165700
609.552	0.0166621
609.630	0.0165003
609.708	0.0165945
609.786	0.0165805
609.864	0.0165762
609.942	0.0165450
610.021	0.0166126
610.099	0.0166084
610.177	0.0166247
610.255	0.0165753
610.333	0.0164854
610.411	0.0166248
610.489	0.0166058
610.567	0.0166331
610.646	0.0167868
610.724	0.0164738
610.802	0.0165592
610.880	0.0166362
610.958	0.0165586
611.036	0.0166428
611.114	0.0164947
611.192	0.0167036
611.271	0.0166227
611.349	0.0165552
611.427	0.0166831
611.505	0.0165371
611.583	0.0165578
611.661	0.0165574
611.739	0.0165312
611.817	0.0165230
611.896	0.0165632
611.974	0.0165962
612.052	0.0165054
612.130	0.0166142
612.208	0.0166084
612.286	0.0165763
612.364	0.0165153
612.442	0.0165587
612.521	0.0167760
612.599	0.0166921
612.677	0.0166875
612.755	0.0165514
612.833	0.0165756
612.911	0.0165335
612.989	0.0166241
613.067	0.0167095
613.146	0.0166726
613.224	0.0166530
613.302	0.0166043
613.380	0.0166434
613.458	0.0166071
613.536	0.0166651
613.614	0.0168008
613.692	0.0165073
613.771	0.0164054
613.849	0.0166669
613.927	0.0165945
614.005	0.0163671
614.083	0.0167289
614.161	0.0167867
614.239	0.0165622
614.317	0.0165851
614.396	0.0166890
614.474	0.0166344
614.552	0.0166734
614.630	0.0164314
614.708	0.0166246
614.786	0.0165704
614.864	0.0164801
614.942	0.0165236
615.021	0.0166608
615.099	0.0165787
615.177	0.0167046
615.255	0.0166741
615.333	0.0166469
615.411	0.0166267
615.489	0.0167139
615.567	0.0165793
615.646	0.0166409
615.724	0.0166592
615.802	0.0166320
615.880	0.0165985
615.958	0.0166793
616.036	0.0167834
616.114	0.0166626
616.192	0.0166047
616.271	0.0166266
616.349	0.0166750
616.427	0.0165759
616.505	0.0166045
616.583	0.0165879
616.661	0.0165405
616.739	0.0166656
616.817	0.0167099
616.896	0.0165755
616.974	0.0165941
617.052	0.0165159
617.130	0.0166633
617.208	0.0166359
617.286	0.0165218
617.364	0.0166116
617.442	0.0164847
617.521	0.0165205
617.599	0.0165307
617.677	0.0166042
617.755	0.0166209
617.833	0.0166068
617.911	0.0166074
617.989	0.0165950
618.067	0.0166938
618.146	0.0166122
618.224	0.0167266
618.302	0.0165999
618.380	0.0163635
618.458	0.0165515
618.536	0.0165594
618.614	0.0166841
618.692	0.0165486
618.771	0.0164390
618.849	0.0166007
618.927	0.0166940
619.005	0.0165697
619.083	0.0165800
619.161	0.0167056
619.239	0.0165849
619.317	0.0165312
619.396	0.0166328
619.474	0.0165545
619.552	0.0164522
619.630	0.0166749
619.708	0.0166702
619.786	0.0166382
619.864	0.0166214
619.942	0.0166015
620.021	0.0165887
620.099	0.0165043
620.177	0.0167089
620.255	0.0166565
620.333	0.0165491
620.411	0.0167263
620.489	0.0166242
620.567	0.0166813
620.646	0.0165508
620.724	0.0166650
620.802	0.0166679
620.880	0.0166816
620.958	0.0165417
621.036	0.0166391
621.114	0.0166216
621.192	0.0165775
621.271	0.0166607
621.349	0.0165962
621.427	0.0165751
621.505	0.0166232
621.583	0.0165968
621.661	0.0165221
621.739	0.0166352
621.817	0.0166090
621.896	0.0165268
621.974	0.0166875
622.052	0.0167634
622.130	0.0166975
622.208	0.0165080
622.286	0.0165163
622.364	0.0165792
622.442	0.0166119
622.521	0.0166285
622.599	0.0166763
622.677	0.0166071
622.755	0.0166746
622.833	0.0165713
622.911	0.0166392
622.989	0.0165627
623.067	0.0165311
623.146	0.0166740
623.224	0.0167201
623.302	0.0166305
623.380	0.0166936
623.458	0.0166750
623.536	0.0166479
623.614	0.0166434
623.692	0.0167303
623.771	0.0166309
623.849	0.0166925
623.927	0.0167825
624.005	0.0166911
624.083	0.0165792
624.161	0.0166503
624.239	0.0167173
624.317	0.0164627
624.396	0.0166483
624.474	0.0166113
624.552	0.0166806
624.630	0.0166853
624.708	0.0166401
624.786	0.0166230
624.864	0.0166637
624.942	0.0167362
625.021	0.0166753
625.099	0.0166329
625.177	0.0166928
625.255	0.0167619
625.333	0.0165488
625.411	0.0165304
625.489	0.0165727
625.567	0.0165790
625.646	0.0167007
625.724	0.0165584
625.802	0.0166305
625.880	0.0165904
625.958	0.0166695
626.036	0.0166103
626.114	0.0165519
626.192	0.0166022
626.271	0.0164883
626.349	0.0164755
626.427	0.0165606
626.505	0.0166103
626.583	0.0168328
626.661	0.0165533
626.739	0.0166558
626.817	0.0166591
626.896	0.0167087
626.974	0.0165810
627.052	0.0165150
627.130	0.0164746
627.208	0.0166210
627.286	0.0166382
627.364	0.0165631
627.442	0.0164883
627.521	0.0167879
627.599	0.0166351
627.677	0.0166013
627.755	0.0167833
627.833	0.0166412
627.911	0.0165781
627.989	0.0166215
628.067	0.0165761
628.146	0.0166753
628.224	0.0165980
628.302	0.0165697
628.380	0.0166148
628.458	0.0165509
628.536	0.0167397
628.614	0.0166141
628.692	0.0166228
628.771	0.0165520
628.849	0.0166203
628.927	0.0165495
629.005	0.0164794
629.083	0.0166410
629.161	0.0165230
629.239	0.0166131
629.317	0.0165329
629.396	0.0164853
629.474	0.0165111
629.552	0.0166068
629.630	0.0165266
629.708	0.0166125
629.786	0.0165572
629.864	0.0165419
629.942	0.0165892
630.021	0.0165276
630.099	0.0166003
630.177	0.0167611
630.255	0.0166462
630.333	0.0167160
630.411	0.0166206
630.489	0.0166285
630.567	0.0166542
630.646	0.0166661
630.724	0.0166663
630.802	0.0166732
630.880	0.0166361
630.958	0.0166925
631.036	0.0165896
631.114	0.0167332
631.192	0.0167580
631.271	0.0167207
631.349	0.0166856
631.427	0.0167413
631.505	0.0167188
631.583	0.0164973
631.661	0.0166063
631.739	0.0167796
631.817	0.0164845
631.896	0.0165992
631.974	0.0165483
632.052	0.0166167
632.130	0.0166875
632.208	0.0165367
632.286	0.0164040
632.364	0.0166060
632.442	0.0165973
632.521	0.0165038
632.599	0.0164568
632.677	0.0166363
632.755	0.0166119
632.833	0.0164989
632.911	0.0166653
632.989	0.0166314
633.067	0.0165675
633.146	0.0165873
633.224	0.0165586
633.302	0.0165717
633.380	0.0165508
633.458	0.0165241
633.536	0.0166039
633.614	0.0166479
633.692	0.0166759
633.771	0.0165332
633.849	0.0166480
633.927	0.0165504
634.005	0.0167102
634.083	0.0167332
634.161	0.0166305
634.239	0.0167043
634.317	0.0167020
634.396	0.0167123
634.474	0.0166101
634.552	0.0166389
634.630	0.0166623
634.708	0.0166602
634.786	0.0167261
634.864	0.0167146
634.942	0.0166779
635.021	0.0165893
635.099	0.0165029
635.177	0.0166650
635.255	0.0166420
635.333	0.0166353
635.411	0.0165511
635.489	0.0166616
635.567	0.0167352
635.646	0.0165240
635.724	0.0167120
635.802	0.0166042
635.880	0.0165634
635.958	0.0165965
636.036	0.0166570
636.114	0.0165732
636.192	0.0165445
636.271	0.0165797
636.349	0.0165701
636.427	0.0166074
636.505	0.0165893
636.583	0.0167131
636.661	0.0165508
636.739	0.0164290
636.817	0.0165261
636.896	0.0164745
636.974	0.0165306
637.052	0.0166077
637.130	0.0165963
637.208	0.0165614
637.286	0.0164996
637.364	0.0165762
637.442	0.0164624
637.521	0.0167322
637.599	0.0167207
637.677	0.0165829
637.755	0.0166083
637.833	0.0166766
637.911	0.0165419
637.989	0.0166472
638.067	0.0165945
638.146	0.0164861
638.224	0.0167372
638.302	0.0167249
638.380	0.0165987
638.458	0.0165702
638.536	0.0166656
638.614	0.0166470
638.692	0.0166644
638.771	0.0167147
638.849	0.0166346
638.927	0.0166502
639.005	0.0166166
639.083	0.0165341
639.161	0.0166864
639.239	0.0166020
639.317	0.0166801
639.396	0.0166667
639.474	0.0164700
639.552	0.0167446
639.630	0.0166092
639.708	0.0164680
639.786	0.0166045
639.864	0.0166711
639.942	0.0164789
640.021	0.0164977
640.099	0.0165547
640.177	0.0165260
640.255	0.0165551
640.333	0.0165071
640.411	0.0165543
640.489	0.0165748
640.567	0.0165614
640.646	0.0166064
640.724	0.0166351
640.802	0.0165069
640.880	0.0167658
640.958	0.0166763
641.036	0.0166325
641.114	0.0165508
641.192	0.0165562
641.271	0.0165786
641.349	0.0166257
641.427	0.0166700
641.505	0.0165338
641.583	0.0166554
641.661	0.0166893
641.739	0.0163712
641.817	0.0165015
641.896	0.0165998
641.974	0.0167435
642.052	0.0165013
642.130	0.0165662
642.208	0.0166002
642.286	0.0165343
642.364	0.0165864
642.442	0.0164899
642.521	0.0165951
642.599	0.0166412
642.677	0.0166132
642.755	0.0165488
642.833	0.0165372
642.911	0.0165347
642.989	0.0166023
643.067	0.0164754
643.146	0.0165366
643.224	0.0163009
643.302	0.0164653
643.380	0.0166301
643.458	0.0166463
643.536	0.0164230
643.614	0.0165457
643.692	0.0166298
643.771	0.0165457
643.849	0.0165261
643.927	0.0165952
644.005	0.0166024
644.083	0.0165753
644.161	0.0165440
644.239	0.0166787
644.317	0.0165816
644.396	0.0165468
644.474	0.0166773
644.552	0.0164418
644.630	0.0165475
644.708	0.0164806
644.786	0.0166309
644.864	0.0166334
644.942	0.0167231
645.021	0.0165195
645.099	0.0165243
645.177	0.0165129
645.255	0.0165551
645.333	0.0165591
645.411	0.0165621
645.489	0.0164845
645.567	0.0164703
645.646	0.0166094
645.724	0.0165670
645.802	0.0165671
645.880	0.0165866
645.958	0.0166241
646.036	0.0165714
646.114	0.0164738
646.192	0.0166014
646.271	0.0167818
646.349	0.0165488
646.427	0.0164404
646.505	0.0166338
646.583	0.0166161
646.661	0.0166125
646.739	0.0165272
646.817	0.0166138
646.896	0.0165867
646.974	0.0166109
647.052	0.0165905
647.130	0.0166610
647.208	0.0165933
647.286	0.0166283
647.364	0.0166525
647.442	0.0165275
647.521	0.0166854
647.599	0.0166013
647.677	0.0165571
647.755	0.0164472
647.833	0.0165969
647.911	0.0165278
647.989	0.0165296
648.067	0.0166203
648.146	0.0165907
648.224	0.0166443
648.302	0.0166270
648.380	0.0165474
648.458	0.0165550
648.536	0.0164882
648.614	0.0165359
648.692	0.0165154
648.771	0.0165739
648.849	0.0165289
648.927	0.0164816
649.005	0.0166843
649.083	0.0166560
649.161	0.0165690
649.239	0.0166285
649.317	0.0166528
649.396	0.0167011
649.474	0.0166367
649.552	0.0165669
649.630	0.0165511
649.708	0.0165733
649.786	0.0166384
649.864	0.0166850
649.942	0.0165517
650.021	0.0164921
650.099	0.0166026
650.177	0.0167022
650.255	0.0165345
650.333	0.0165919
650.411	0.0166127
650.489	0.0165408
650.567	0.0164613
650.646	0.0165388
650.724	0.0164422
650.802	0.0166024
650.880	0.0166210
650.958	0.0166747
651.036	0.0165911
651.114	0.0166254
651.192	0.0166047
651.271	0.0167210
651.349	0.0166656
651.427	0.0167073
651.505	0.0166564
651.583	0.0167102
651.661	0.0165092
651.739	0.0166751
651.817	0.0166458
651.896	0.0166864
651.974	0.0166117
652.052	0.0164736
652.130	0.0166367
652.208	0.0166216
652.286	0.0164732
652.364	0.0167640
652.442	0.0166483
652.521	0.0165966
652.599	0.0166680
652.677	0.0165412
652.755	0.0166949
652.833	0.0166187
652.911	0.0166778
652.989	0.0165355
653.067	0.0166140
653.146	0.0165721
653.224	0.0164520
653.302	0.0165868
653.380	0.0166791
653.458	0.0165852
653.536	0.0165965
653.614	0.0166299
653.692	0.0166322
653.771	0.0166843
653.849	0.0165996
653.927	0.0165601
654.005	0.0166296
654.083	0.0166572
654.161	0.0165360
654.239	0.0165415
654.317	0.0165615
654.396	0.0165755
654.474	0.0165800
654.552	0.0166634
654.630	0.0167288
654.708	0.0166273
654.786	0.0165856
654.864	0.0166071
654.942	0.0165928
655.021	0.0166292
655.099	0.0164928
655.177	0.0165333
655.255	0.0166256
655.333	0.0165995
655.411	0.0165621
655.489	0.0165365
655.567	0.0165990
655.646	0.0165500
655.724	0.0165982
655.802	0.0165356
655.880	0.0165851
655.958	0.0166489
656.036	0.0166433
656.114	0.0165648
656.192	0.0166618
656.271	0.0167072
656.349	0.0166026
656.427	0.0166298
656.505	0.0165913
656.583	0.0166462
656.661	0.0165904
656.739	0.0166019
656.817	0.0166214
656.896	0.0165302
656.974	0.0165343
657.052	0.0166614
657.130	0.0166479
657.208	0.0164847
657.286	0.0165334
657.364	0.0166492
657.442	0.0166742
657.521	0.0166900
657.599	0.0166732
657.677	0.0166302
657.755	0.0165745
657.833	0.0166269
657.911	0.0166973
657.989	0.0165977
658.067	0.0166808
658.146	0.0166104
658.224	0.0165273
658.302	0.0166274
658.380	0.0164989
658.458	0.0166124
658.536	0.0166960
658.614	0.0166096
658.692	0.0166612
658.771	0.0165927
658.849	0.0166311
658.927	0.0165887
659.005	0.0165190
659.083	0.0165217
659.161	0.0167318
659.239	0.0165919
659.317	0.0165632
659.396	0.0165424
659.474	0.0165095
659.552	0.0164596
659.630	0.0165948
659.708	0.0164954
659.786	0.0166187
659.864	0.0165823
659.942	0.0165915
660.021	0.0166113
660.099	0.0166113
660.177	0.0165592
660.255	0.0165440
660.333	0.0166177
660.411	0.0165760
660.489	0.0166395
660.567	0.0166909
660.646	0.0166644
660.724	0.0165396
660.802	0.0165742
660.880	0.0165941
660.958	0.0166214
661.036	0.0166199
661.114	0.0167172
661.192	0.0167108
661.271	0.0166119
661.349	0.0166358
661.427	0.0166609
661.505	0.0166181
661.583	0.0165669
661.661	0.0165427
661.739	0.0166754
661.817	0.0166692
661.896	0.0165701
661.974	0.0165975
662.052	0.0166848
662.130	0.0166512
662.208	0.0167067
662.286	0.0166587
662.364	0.0165965
662.442	0.0164680
662.521	0.0166431
662.599	0.0166221
662.677	0.0165976
662.755	0.0165588
662.833	0.0167034
662.911	0.0166840
662.989	0.0165402
663.067	0.0166402
663.146	0.0167493
663.224	0.0165526
663.302	0.0165622
663.380	0.0165418
663.458	0.0166637
663.536	0.0165610
663.614	0.0164915
663.692	0.0165458
663.771	0.0165883
663.849	0.0166540
663.927	0.0165665
664.005	0.0165936
664.083	0.0166225
664.161	0.0164735
664.239	0.0165304
664.317	0.0164989
664.396	0.0165093
664.474	0.0166194
664.552	0.0164849
664.630	0.0166283
664.708	0.0165234
664.786	0.0165462
664.864	0.0164095
664.942	0.0165583
665.021	0.0167014
665.099	0.0166531
665.177	0.0165443
665.255	0.0165965
665.333	0.0166644
665.411	0.0166207
665.489	0.0165165
665.567	0.0164595
665.646	0.0165856
665.724	0.0165762
665.802	0.0165292
665.880	0.0165954
665.958	0.0167513
666.036	0.0166254
666.114	0.0165612
666.192	0.0166695
666.271	0.0164953
666.349	0.0166464
666.427	0.0167085
666.505	0.0165881
666.583	0.0165028
666.661	0.0166525
666.739	0.0166283
666.817	0.0167046
666.896	0.0165755
666.974	0.0165475
667.052	0.0165993
667.130	0.0165945
667.208	0.0164800
667.286	0.0166512
667.364	0.0166217
667.442	0.0165953
667.521	0.0165961
667.599	0.0164564
667.677	0.0166319
667.755	0.0164662
667.833	0.0166174
667.911	0.0165468
667.989	0.0166467
668.067	0.0166330
668.146	0.0167159
668.224	0.0165684
668.302	0.0165285
668.380	0.0165198
668.458	0.0165334
668.536	0.0165289
668.614	0.0164761
668.692	0.0165162
668.771	0.0165886
668.849	0.0164337
668.927	0.0164713
669.005	0.0166760
669.083	0.0165697
669.161	0.0164750
669.239	0.0165720
669.317	0.0165478
669.396	0.0166824
669.474	0.0165417
669.552	0.0165399
669.630	0.0166156
669.708	0.0165199
669.786	0.0164996
669.864	0.0165852
669.942	0.0165113
670.021	0.0165224
670.099	0.0166103
670.177	0.0166226
670.255	0.0167038
670.333	0.0165012
670.411	0.0165307
670.489	0.0166363
670.567	0.0167524
670.646	0.0166214
670.724	0.0165786
670.802	0.0166084
670.880	0.0166253
670.958	0.0166454
671.036	0.0165870
671.114	0.0165068
671.192	0.0165176
671.271	0.0165881
671.349	0.0164960
671.427	0.0164829
671.505	0.0166965
671.583	0.0165926
671.661	0.0166154
671.739	0.0165420
671.817	0.0166647
671.896	0.0164948
671.974	0.0165443
672.052	0.0166737
672.130	0.0165267
672.208	0.0167147
672.286	0.0165529
672.364	0.0166081
672.442	0.0165398
672.521	0.0165585
672.599	0.0165782
672.677	0.0166190
672.755	0.0165843
672.833	0.0164960
672.911	0.0166824
672.989	0.0165869
673.067	0.0165315
673.146	0.0165995
673.224	0.0165035
673.302	0.0166776
673.380	0.0165907
673.458	0.0166209
673.536	0.0165953
673.614	0.0167941
673.692	0.0165874
673.771	0.0164848
673.849	0.0164932
673.927	0.0166478
674.005	0.0166267
674.083	0.0165540
674.161	0.0165487
674.239	0.0166101
674.317	0.0165531
674.396	0.0166129
674.474	0.0166621
674.552	0.0165799
674.630	0.0166026
674.708	0.0165426
674.786	0.0165948
674.864	0.0168555
674.942	0.0166631
675.021	0.0166235
675.099	0.0165764
675.177	0.0166824
675.255	0.0166589
675.333	0.0164993
675.411	0.0165759
675.489	0.0166605
675.567	0.0165938
675.646	0.0165343
675.724	0.0164457
675.802	0.0165294
675.880	0.0165651
675.958	0.0166306
676.036	0.0164689
676.114	0.0165117
676.192	0.0165730
676.271	0.0164367
676.349	0.0165949
676.427	0.0167037
676.505	0.0167274
676.583	0.0165260
676.661	0.0165763
676.739	0.0165947
676.817	0.0165497
676.896	0.0165216
676.974	0.0167123
677.052	0.0165875
677.130	0.0164926
677.208	0.0166682
677.286	0.0166061
677.364	0.0165393
677.442	0.0164996
677.521	0.0164949
677.599	0.0167059
677.677	0.0165173
677.755	0.0167297
677.833	0.0167863
677.911	0.0165013
677.989	0.0165323
678.067	0.0166000
678.146	0.0166427
678.224	0.0166045
678.302	0.0166092
678.380	0.0166332
678.458	0.0165613
678.536	0.0166819
678.614	0.0165977
678.692	0.0165878
678.771	0.0165903
678.849	0.0167153
678.927	0.0166241
679.005	0.0165928
679.083	0.0167025
679.161	0.0166625
679.239	0.0166875
679.317	0.0167069
679.396	0.0166162
679.474	0.0166460
679.552	0.0167366
679.630	0.0166482
679.708	0.0166268
679.786	0.0166397
679.864	0.0166596
679.942	0.0166225
680.021	0.0166315
680.099	0.0167510
680.177	0.0165717
680.255	0.0165944
680.333	0.0167094
680.411	0.0166280
680.489	0.0165751
680.567	0.0165518
680.646	0.0164102
680.724	0.0166206
680.802	0.0166158
680.880	0.0167062
680.958	0.0166269
681.036	0.0165981
681.114	0.0166339
681.192	0.0165246
681.271	0.0166391
681.349	0.0166669
681.427	0.0164908
681.505	0.0167205
681.583	0.0165752
681.661	0.0165594
681.739	0.0166018
681.817	0.0166394
681.896	0.0166861
681.974	0.0166125
682.052	0.0167293
682.130	0.0166389
682.208	0.0166727
682.286	0.0166257
682.364	0.0165176
682.442	0.0166161
682.521	0.0167793
682.599	0.0164459
682.677	0.0164711
682.755	0.0165937
682.833	0.0165659
682.911	0.0165656
682.989	0.0166069
683.067	0.0165943
683.146	0.0164158
683.224	0.0166138
683.302	0.0165330
683.380	0.0165569
683.458	0.0166130
683.536	0.0166457
683.614	0.0165915
683.692	0.0165623
683.771	0.0165941
683.849	0.0167225
683.927	0.0166896
684.005	0.0165691
684.083	0.0166135
684.161	0.0165768
684.239	0.0168026
684.317	0.0165652
684.396	0.0166011
684.474	0.0166335
684.552	0.0166335
684.630	0.0167104
684.708	0.0165671
684.786	0.0165990
684.864	0.0165442
684.942	0.0165392
685.021	0.0166891
685.099	0.0164591
685.177	0.0165417
685.255	0.0165866
685.333	0.0166131
685.411	0.0164713
685.489	0.0165558
685.567	0.0165909
685.646	0.0165635
685.724	0.0165616
685.802	0.0166135
685.880	0.0165860
685.958	0.0165265
686.036	0.0163868
686.114	0.0165874
686.192	0.0164796
686.271	0.0166400
686.349	0.0165425
686.427	0.0165849
686.505	0.0167078
686.583	0.0165174
686.661	0.0164739
686.739	0.0166191
686.817	0.0165836
686.896	0.0166251
686.974	0.0165327
687.052	0.0164285
687.130	0.0165987
687.208	0.0166634
687.286	0.0166539
687.364	0.0165880
687.442	0.0166138
687.521	0.0165957
687.599	0.0165453
687.677	0.0165545
687.755	0.0166376
687.833	0.0166293
687.911	0.0167796
687.989	0.0165599
688.067	0.0166358
688.146	0.0164600
688.224	0.0165217
688.302	0.0165311
688.380	0.0166834
688.458	0.0165454
688.536	0.0164824
688.614	0.0166814
688.692	0.0166456
688.771	0.0166715
688.849	0.0164763
688.927	0.0164692
689.005	0.0165592
689.083	0.0166348
689.161	0.0165348
689.239	0.0165388
689.317	0.0164362
689.396	0.0164962
689.474	0.0166133
689.552	0.0165893
689.630	0.0165190
689.708	0.0165829
689.786	0.0165891
689.864	0.0165186
689.942	0.0164870
690.021	0.0164925
690.099	0.0165005
690.177	0.0166386
690.255	0.0164558
690.333	0.0166083
690.411	0.0165977
690.489	0.0163567
690.567	0.0164711
690.646	0.0166039
690.724	0.0166840
690.802	0.0163899
690.880	0.0164249
690.958	0.0167522
691.036	0.0165566
691.114	0.0165405
691.192	0.0165898
691.271	0.0165678
691.349	0.0166300
691.427	0.0166753
691.505	0.0165338
691.583	0.0164950
691.661	0.0165802
691.739	0.0166208
691.817	0.0164985
691.896	0.0165485
691.974	0.0166203
692.052	0.0165421
692.130	0.0164490
692.208	0.0164456
692.286	0.0164311
692.364	0.0165968
692.442	0.0166256
692.521	0.0166776
692.599	0.0165704
692.677	0.0166690
692.755	0.0168740
692.833	0.0167889
692.911	0.0167115
692.989	0.0167069
693.067	0.0166513
693.146	0.0166798
693.224	0.0165844
693.302	0.0166266
693.380	0.0165532
693.458	0.0164322
693.536	0.0164511
693.614	0.0164301
693.692	0.0162973
693.771	0.0163439
693.849	0.0163972
693.927	0.0165707
694.005	0.0165793
694.083	0.0167313
694.161	0.0167091
694.239	0.0168557
694.317	0.0170309
694.396	0.0169552
694.474	0.0168872
694.552	0.0168515
694.630	0.0167529
694.708	0.0166045
694.786	0.0163947
694.864	0.0165219
694.942	0.0164127
695.021	0.0162215
695.099	0.0160877
695.177	0.0161034
695.255	0.0160284
695.333	0.0159940
695.411	0.0161882
695.489	0.0162647
695.567	0.0163937
695.646	0.0166914
695.724	0.0169621
695.802	0.0173077
695.880	0.0172560
695.958	0.0172807
696.036	0.0173127
696.114	0.0171614
696.192	0.0170079
696.271	0.0168018
696.349	0.0165482
696.427	0.0163106
696.505	0.0160851
696.583	0.0159478
696.661	0.0157740
696.739	0.0157314
696.817	0.0158428
696.896	0.0160549
696.974	0.0163635
697.052	0.0166220
697.130	0.0167039
697.208	0.0171278
697.286	0.0172732
697.364	0.0173308
697.442	0.0173495
697.521	0.0173603
697.599	0.0173983
697.677	0.0169702
697.755	0.0167525
697.833	0.0163958
697.911	0.0159611
697.989	0.0158524
698.067	0.0154366
698.146	0.0153679
698.224	0.0153274
698.302	0.0155911
698.380	0.0156911
698.458	0.0157950
698.536	0.0161213
698.614	0.0162505
698.692	0.0166449
698.771	0.0167139
698.849	0.0169104
698.927	0.0171046
699.005	0.0172788
699.083	0.0173791
699.161	0.0173852
699.239	0.0175021
699.317	0.0174062
699.396	0.0172897
699.474	0.0172215
699.552	0.0171680
699.630	0.0171516
699.708	0.0170628
699.786	0.0169978
699.864	0.0169360
699.942	0.0170468
700.021	0.0171268
700.099	0.0170475
700.177	0.0172605
700.255	0.0170876
700.333	0.0170756
700.411	0.0169859
700.489	0.0169129
700.567	0.0167356
700.646	0.0162640
700.724	0.0161644
700.802	0.0157449
700.880	0.0153888
700.958	0.0151233
701.036	0.0148058
701.114	0.0146873
701.192	0.0145992
701.271	0.0145126
701.349	0.0147417
701.427	0.0149107
701.505	0.0150335
701.583	0.0153995
701.661	0.0156470
701.739	0.0160355
701.817	0.0164633
701.896	0.0167556
701.974	0.0171799
702.052	0.0174949
702.130	0.0176389
702.208	0.0181432
702.286	0.0182478
702.364	0.0183727
702.442	0.0182304
702.521	0.0182735
702.599	0.0182538
702.677	0.0180307
702.755	0.0178439
702.833	0.0176525
702.911	0.0174430
702.989	0.0173136
703.067	0.0171464
703.146	0.0169237
703.224	0.0167888
703.302	0.0169412
703.380	0.0170265
703.458	0.0170598
703.536	0.0174180
703.614	0.0177239
703.692	0.0179890
703.771	0.0181956
703.849	0.0185194
703.927	0.0186668
704.005	0.0187763
704.083	0.0187821
704.161	0.0185880
704.239	0.0182664
704.317	0.0178090
704.396	0.0172008
704.474	0.0164132
704.552	0.0155920
704.630	0.0148168
704.708	0.0138445
704.786	0.0129498
704.864	0.0121241
704.942	0.0114185
705.021	0.0109240
705.099	0.0104623
705.177	0.0103133
705.255	0.0106499
705.333	0.0110194
705.411	0.0115461
705.489	0.0123289
705.567	0.0131754
705.646	0.0139802
705.724	0.0148994
705.802	0.0158944
705.880	0.0166569
705.958	0.0175124
706.036	0.0180589
706.114	0.0186825
706.192	0.0190707
706.271	0.0194061
706.349	0.0197363
706.427	0.0201759
706.505	0.0205995
706.583	0.0209029
706.661	0.0213306
706.739	0.0218354
706.817	0.0221953
706.896	0.0227159
706.974	0.0235873
707.052	0.0240715
707.130	0.0246846
707.208	0.0248506
707.286	0.0253529
707.364	0.0252295
707.442	0.0248630
707.521	0.0240641
707.599	0.0230728
707.677	0.0216150
707.755	0.0200495
707.833	0.0182040
707.911	0.0158556
707.989	0.0138092
708.067	0.0116952
708.146	0.00952202
708.224	0.00786575
708.302	0.00613403
708.380	0.00475258
708.458	0.00377777
708.536	0.00306305
708.614	0.00268250
708.692	0.00274406
708.771	0.00324684
708.849	0.00406830
708.927	0.00508369
709.005	0.00653603
709.083	0.00828079
709.161	0.0101492
709.239	0.0121391
709.317	0.0143240
709.396	0.0165181
709.474	0.0183836
709.552	0.0201160
709.630	0.0216439
709.708	0.0227749
709.786	0.0235638
709.864	0.0240286
709.942	0.0246115
710.021	0.0247240
710.099	0.0247746
710.177	0.0247879
710.255	0.0249212
710.333	0.0249656
710.411	0.0252310
710.489	0.0255252
710.567	0.0255318
710.646	0.0258524
710.724	0.0257877
710.802	0.0254809
710.880	0.0250105
710.958	0.0242914
711.036	0.0231069
711.114	0.0217040
711.192	0.0202976
711.271	0.0185765
711.349	0.0167959
711.427	0.0152180
711.505	0.0136037
711.583	0.0122286
711.661	0.0107166
711.739	0.00942749
711.817	0.00868950
711.896	0.00785950
711.974	0.00708649
712.052	0.00669579
712.130	0.00654236
712.208	0.00639786
712.286	0.00675499
712.364	0.00708694
712.442	0.00779274
712.521	0.00859512
712.599	0.00958267
712.677	0.0106413
712.755	0.0117218
712.833	0.0129816
712.911	0.0141283
712.989	0.0151024
713.067	0.0161867
713.146	0.0172247
713.224	0.0180768
713.302	0.0189474
713.380	0.0198462
713.458	0.0205666
713.536	0.0210361
713.614	0.0218401
713.692	0.0226262
713.771	0.0232414
713.849	0.0238011
713.927	0.0242654
714.005	0.0246287
714.083	0.0246172
714.161	0.0244289
714.239	0.0242031
714.317	0.0237408
714.396	0.0229401
714.474	0.0220882
714.552	0.0210823
714.630	0.0200743
714.708	0.0189223
714.786	0.0179246
714.864	0.0168435
714.942	0.0157721
715.021	0.0147523
715.099	0.0139508
715.177	0.0131208
715.255	0.0123605
715.333	0.0118802
715.411	0.0115303
715.489	0.0110655
715.567	0.0108511
715.646	0.0105305
715.724	0.0103684
715.802	0.0102465
715.880	0.0101608
715.958	0.0100993
716.036	0.0100671
716.114	0.0104159
716.192	0.0106477
716.271	0.0109743
716.349	0.0115913
716.427	0.0122781
716.505	0.0132220
716.583	0.0141933
716.661	0.0152752
716.739	0.0166439
716.817	0.0177923
716.896	0.0189848
716.974	0.0203778
717.052	0.0214204
717.130	0.0225725
717.208	0.0234968
717.286	0.0243220
717.364	0.0247305
717.442	0.0251100
717.521	0.0252952
717.599	0.0249714
717.677	0.0248590
717.755	0.0244869
717.833	0.0235834
717.911	0.0229374
717.989	0.0218524
718.067	0.0208924
718.146	0.0199537
718.224	0.0188243
718.302	0.0177197
718.380	0.0164095
718.458	0.0153904
718.536	0.0145528
718.614	0.0136369
718.692	0.0128239
718.771	0.0120181
718.849	0.0114914
718.927	0.0109795
719.005	0.0105516
719.083	0.0105745
719.161	0.0104691
719.239	0.0103067
719.317	0.0105544
719.396	0.0108334
719.474	0.0109099
719.552	0.0111258
719.630	0.0113962
719.708	0.0116879
719.786	0.0122605
719.864	0.0125691
719.942	0.0130335
720.021	0.0135884
720.099	0.0140886
720.177	0.0149233
720.255	0.0155322
720.333	0.0162329
720.411	0.0172520
720.489	0.0181248
720.567	0.0188152
720.646	0.0196352
720.724	0.0203031
720.802	0.0208989
720.880	0.0214990
720.958	0.0218534
721.036	0.0220432
721.114	0.0222384
721.192	0.0222347
721.271	0.0221284
721.349	0.0218917
721.427	0.0215871
721.505	0.0212868
721.583	0.0206355
721.661	0.0200518
721.739	0.0193640
721.817	0.0187594
721.896	0.0180025
721.974	0.0171139
722.052	0.0165498
722.130	0.0158132
722.208	0.0151779
722.286	0.0147566
722.364	0.0144940
722.442	0.0142133
722.521	0.0139949
722.599	0.0139669
722.677	0.0140113
722.755	0.0141041
722.833	0.0142558
722.911	0.0143191
722.989	0.0147934
723.067	0.0148328
723.146	0.0150912
723.224	0.0152235
723.302	0.0153306
723.380	0.0154134
723.458	0.0155930
723.536	0.0156236
723.614	0.0158534
723.692	0.0161526
723.771	0.0162737
723.849	0.0162945
723.927	0.0166842
724.005	0.0168455
724.083	0.0169924
724.161	0.0170992
724.239	0.0172945
724.317	0.0175558
724.396	0.0175684
724.474	0.0176473
724.552	0.0178260
724.630	0.0178596
724.708	0.0177338
724.786	0.0176856
724.864	0.0176904
724.942	0.0173667
725.021	0.0172119
725.099	0.0168863
725.177	0.0166846
725.255	0.0166845
725.333	0.0164324
725.411	0.0162296
725.489	0.0158862
725.567	0.0157605
725.646	0.0154954
725.724	0.0155437
725.802	0.0154036
725.880	0.0155104
725.958	0.0154616
726.036	0.0156325
726.114	0.0155261
726.192	0.0156223
726.271	0.0156644
726.349	0.0157227
726.427	0.0157604
726.505	0.0158295
726.583	0.0158529
726.661	0.0159554
726.739	0.0160011
726.817	0.0160251
726.896	0.0159360
726.974	0.0160094
727.052	0.0162826
727.130	0.0164889
727.208	0.0166719
727.286	0.0168938
727.364	0.0169348
727.442	0.0173692
727.521	0.0175887
727.599	0.0180643
727.677	0.0182244
727.755	0.0183680
727.833	0.0187210
727.911	0.0188070
727.989	0.0189452
728.067	0.0190536
728.146	0.0189931
728.224	0.0187945
728.302	0.0186424
728.380	0.0184576
728.458	0.0180943
728.536	0.0176261
728.614	0.0172829
728.692	0.0169907
728.771	0.0165218
728.849	0.0160732
728.927	0.0156458
729.005	0.0154500
729.083	0.0152884
729.161	0.0148605
729.239	0.0147572
729.317	0.0147234
729.396	0.0148349
729.474	0.0148104
729.552	0.0149065
729.630	0.0149819
729.708	0.0151485
729.786	0.0152751
729.864	0.0154467
729.942	0.0156888
730.021	0.0159302
730.099	0.0162249
730.177	0.0164016
730.255	0.0163912
730.333	0.0165967
730.411	0.0166635
730.489	0.0166052
730.567	0.0166299
730.646	0.0166546
730.724	0.0167125
730.802	0.0166870
730.880	0.0167601
730.958	0.0166244
731.036	0.0168617
731.114	0.0170038
731.192	0.0171272
731.271	0.0172478
731.349	0.0173829
731.427	0.0174091
731.505	0.0177850
731.583	0.0176050
731.661	0.0176820
731.739	0.0177036
731.817	0.0175609
731.896	0.0176060
731.974	0.0174541
732.052	0.0173399
732.130	0.0171189
732.208	0.0168540
732.286	0.0166438
732.364	0.0163148
732.442	0.0161457
732.521	0.0158499
732.599	0.0155595
732.677	0.0156578
732.755	0.0154362
732.833	0.0154054
732.911	0.0153788
732.989	0.0154317
733.067	0.0156327
733.146	0.0156600
733.224	0.0158678
733.302	0.0161182
733.380	0.0163915
733.458	0.0167336
733.536	0.0169777
733.614	0.0173172
733.692	0.0173994
733.771	0.0175903
733.849	0.0175548
733.927	0.0177900
734.005	0.0178194
734.083	0.0177052
734.161	0.0177280
734.239	0.0176315
734.317	0.0176219
734.396	0.0173510
734.474	0.0172313
734.552	0.0170911
734.630	0.0169312
734.708	0.0168262
734.786	0.0165884
734.864	0.0164256
734.942	0.0164040
735.021	0.0163554
735.099	0.0161643
735.177	0.0162138
735.255	0.0160517
735.333	0.0158715
735.411	0.0159280
735.489	0.0158073
735.567	0.0159918
735.646	0.0158066
735.724	0.0159311
735.802	0.0158261
735.880	0.0157784
735.958	0.0157457
736.036	0.0157321
736.114	0.0156980
736.192	0.0157596
736.271	0.0158662
736.349	0.0158634
736.427	0.0157344
736.505	0.0157951
736.583	0.0159945
736.661	0.0161599
736.739	0.0162386
736.817	0.0164007
736.896	0.0165629
736.974	0.0169430
737.052	0.0171164
737.130	0.0173286
737.208	0.0176416
737.286	0.0178122
737.364	0.0180403
737.442	0.0182396
737.521	0.0181862
737.599	0.0182494
737.677	0.0183523
737.755	0.0182391
737.833	0.0181427
737.911	0.0180146
737.989	0.0178177
738.067	0.0174966
738.146	0.0173409
738.224	0.0171317
738.302	0.0170123
738.380	0.0168319
738.458	0.0168172
738.536	0.0167338
738.614	0.0166291
738.692	0.0164514
738.771	0.0164223
738.849	0.0163320
738.927	0.0163144
739.005	0.0160542
739.083	0.0159089
739.161	0.0158009
739.239	0.0156167
739.317	0.0154848
739.396	0.0155116
739.474	0.0153519
739.552	0.0151685
739.630	0.0151106
739.708	0.0150132
739.786	0.0151669
739.864	0.0149466
739.942	0.0151634
740.021	0.0153711
740.099	0.0152876
740.177	0.0154754
740.255	0.0158652
740.333	0.0159061
740.411	0.0159367
740.489	0.0161285
740.567	0.0161340
740.646	0.0162830
740.724	0.0163778
740.802	0.0163741
740.880	0.0165396
740.958	0.0167250
741.036	0.0167432
741.114	0.0167095
741.192	0.0168840
741.271	0.0169593
741.349	0.0170926
741.427	0.0171647
741.505	0.0173492
741.583	0.0175935
741.661	0.0177948
741.739	0.0176485
741.817	0.0179583
741.896	0.0180728
741.974	0.0180925
742.052	0.0182712
742.130	0.0182644
742.208	0.0182487
742.286	0.0182095
742.364	0.0182933
742.442	0.0181863
742.521	0.0180614
742.599	0.0178657
742.677	0.0177840
742.755	0.0174636
742.833	0.0171310
742.911	0.0168594
742.989	0.0167137
743.067	0.0163759
743.146	0.0161240
743.224	0.0157630
743.302	0.0156975
743.380	0.0155601
743.458	0.0153418
743.536	0.0151598
743.614	0.0151475
743.692	0.0152543
743.771	0.0153981
743.849	0.0152683
743.927	0.0154317
744.005	0.0155547
744.083	0.0157415
744.161	0.0159216
744.239	0.0158669
744.317	0.0160464
744.396	0.0163184
744.474	0.0165182
744.552	0.0165005
744.630	0.0163885
744.708	0.0164965
744.786	0.0167823
744.864	0.0167302
744.942	0.0168997
745.021	0.0170702
745.099	0.0169137
745.177	0.0169810
745.255	0.0170299
745.333	0.0170497
745.411	0.0170303
745.489	0.0168765
745.567	0.0170610
745.646	0.0170308
745.724	0.0170577
745.802	0.0171875
745.880	0.0172437
745.958	0.0173526
746.036	0.0171491
746.114	0.0172552
746.192	0.0172312
746.271	0.0172388
746.349	0.0173148
746.427	0.0170881
746.505	0.0169031
746.583	0.0168369
746.661	0.0166837
746.739	0.0163865
746.817	0.0163895
746.896	0.0160409
746.974	0.0158855
747.052	0.0157317
747.130	0.0155400
747.208	0.0156786
747.286	0.0154633
747.364	0.0155626
747.442	0.0155325
747.521	0.0156642
747.599	0.0157132
747.677	0.0158537
747.755	0.0160682
747.833	0.0161290
747.911	0.0163146
747.989	0.0162782
748.067	0.0164030
748.146	0.0165102
748.224	0.0166402
748.302	0.0167454
748.380	0.0166582
748.458	0.0167037
748.536	0.0167484
748.614	0.0167787
748.692	0.0167717
748.771	0.0167651
748.849	0.0168165
748.927	0.0167696
749.005	0.0168791
749.083	0.0169373
749.161	0.0170820
749.239	0.0170352
749.317	0.0170837
749.396	0.0172443
749.474	0.0172044
749.552	0.0172719
749.630	0.0173081
749.708	0.0174158
749.786	0.0174382
749.864	0.0174035
749.942	0.0175376
750.021	0.0173571
750.099	0.0173081
750.177	0.0171822
750.255	0.0171358
750.333	0.0171208
750.411	0.0171275
750.489	0.0169903
750.567	0.0168781
750.646	0.0168237
750.724	0.0167593
750.802	0.0165186
750.880	0.0165829
750.958	0.0162778
751.036	0.0161669
751.114	0.0160428
751.192	0.0161525
751.271	0.0160951
751.349	0.0159423
751.427	0.0158794
751.505	0.0157944
751.583	0.0157848
751.661	0.0156752
751.739	0.0157886
751.817	0.0156598
751.896	0.0155022
751.974	0.0156653
752.052	0.0156667
752.130	0.0158014
752.208	0.0157911
752.286	0.0161676
752.364	0.0161500
752.442	0.0162927
752.521	0.0163735
752.599	0.0166402
752.677	0.0165845
752.755	0.0168057
752.833	0.0169144
752.911	0.0170366
752.989	0.0168903
753.067	0.0170575
753.146	0.0171445
753.224	0.0172440
753.302	0.0171017
753.380	0.0171664
753.458	0.0171585
753.536	0.0170688
753.614	0.0171780
753.692	0.0172061
753.771	0.0172501
753.849	0.0173213
753.927	0.0172029
754.005	0.0171188
754.083	0.0170571
754.161	0.0171438
754.239	0.0170789
754.317	0.0170515
754.396	0.0167141
754.474	0.0168722
754.552	0.0167571
754.630	0.0163379
754.708	0.0164199
754.786	0.0165103
754.864	0.0162669
754.942	0.0160924
755.021	0.0159021
755.099	0.0158200
755.177	0.0157574
755.255	0.0155411
755.333	0.0156495
755.411	0.0156432
755.489	0.0155399
755.567	0.0156621
755.646	0.0157300
755.724	0.0158304
755.802	0.0159820
755.880	0.0160004
755.958	0.0162553
756.036	0.0166225
756.114	0.0166920
756.192	0.0168613
756.271	0.0171011
756.349	0.0172491
756.427	0.0172183
756.505	0.0175169
756.583	0.0175656
756.661	0.0174482
756.739	0.0176325
756.817	0.0173669
756.896	0.0173235
756.974	0.0173338
757.052	0.0172064
757.130	0.0171161
757.208	0.0167944
757.286	0.0168201
757.364	0.0166003
757.442	0.0165454
757.521	0.0164484
757.599	0.0163180
757.677	0.0161628
757.755	0.0162952
757.833	0.0161446
757.911	0.0161520
757.989	0.0161172
758.067	0.0160313
758.146	0.0160927
758.224	0.0160275
758.302	0.0161279
758.380	0.0161855
758.458	0.0161431
758.536	0.0160565
758.614	0.0162169
758.692	0.0163097
758.771	0.0162655
758.849	0.0163721
758.927	0.0165741
759.005	0.0167265
759.083	0.0166502
759.161	0.0166283
759.239	0.0166891
759.317	0.0169009
759.396	0.0170571
759.474	0.0170294
759.552	0.0168522
759.630	0.0169703
759.708	0.0170593
759.786	0.0170907
759.864	0.0170030
759.942	0.0170878
760.021	0.0171341
760.099	0.0172366
760.177	0.0172334
760.255	0.0172097
760.333	0.0171855
760.411	0.0171309
760.489	0.0170839
760.567	0.0169419
760.646	0.0168387
760.724	0.0167349
760.802	0.0166586
760.880	0.0165422
760.958	0.0163240
761.036	0.0161642
761.114	0.0160798
761.192	0.0160905
761.271	0.0159908
761.349	0.0159670
761.427	0.0158326
761.505	0.0158926
761.583	0.0158614
761.661	0.0158810
761.739	0.0159759
761.817	0.0160725
761.896	0.0161436
761.974	0.0163144
762.052	0.0163304
762.130	0.0164165
762.208	0.0165741
762.286	0.0167306
762.364	0.0166628
762.442	0.0168058
762.521	0.0169424
762.599	0.0170329
762.677	0.0171178
762.755	0.0170694
762.833	0.0172250
762.911	0.0171366
762.989	0.0173286
763.067	0.0171880
763.146	0.0173325
763.224	0.0174401
763.302	0.0174021
763.380	0.0171465
763.458	0.0170451
763.536	0.0169120
763.614	0.0169199
763.692	0.0168085
763.771	0.0167496
763.849	0.0166860
763.927	0.0164333
764.005	0.0164394
764.083	0.0164196
764.161	0.0163335
764.239	0.0161784
764.317	0.0161522
764.396	0.0163925
764.474	0.0163448
764.552	0.0162150
764.630	0.0163218
764.708	0.0163291
764.786	0.0163929
764.864	0.0163385
764.942	0.0162684
765.021	0.0162946
765.099	0.0162405
765.177	0.0162535
765.255	0.0165248
765.333	0.0165656
765.411	0.0164587
765.489	0.0165073
765.567	0.0165520
765.646	0.0165954
765.724	0.0166461
765.802	0.0168131
765.880	0.0169100
765.958	0.0170446
766.036	0.0170315
766.114	0.0170605
766.192	0.0170817
766.271	0.0171889
766.349	0.0170728
766.427	0.0171183
766.505	0.0171645
766.583	0.0171790
766.661	0.0171829
766.739	0.0171381
766.817	0.0169589
766.896	0.0169754
766.974	0.0169350
767.052	0.0167641
767.130	0.0167200
767.208	0.0166111
767.286	0.0164539
767.364	0.0166743
767.442	0.0165934
767.521	0.0165395
767.599	0.0165076
767.677	0.0166428
767.755	0.0165361
767.833	0.0163889
767.911	0.0164728
767.989	0.0165690
768.067	0.0164520
768.146	0.0165002
768.224	0.0165297
768.302	0.0165397
768.380	0.0164591
768.458	0.0165397
768.536	0.0164265
768.614	0.0164369
768.692	0.0165536
768.771	0.0165041
768.849	0.0165261
768.927	0.0165144
769.005	0.0165618
769.083	0.0165094
769.161	0.0166149
769.239	0.0165990
769.317	0.0166915
769.396	0.0165682
769.474	0.0168356
769.552	0.0167264
769.630	0.0168472
769.708	0.0167854
769.786	0.0168953
769.864	0.0167801
769.942	0.0167609
770.021	0.0167649
770.099	0.0166804
770.177	0.0167385
770.255	0.0165702
770.333	0.0165007
770.411	0.0165318
770.489	0.0163741
770.567	0.0165147
770.646	0.0164542
770.724	0.0164386
770.802	0.0164639
770.880	0.0164266
770.958	0.0165089
771.036	0.0165535
771.114	0.0166169
771.192	0.0167721
771.271	0.0167514
771.349	0.0166664
771.427	0.0167412
771.505	0.0168179
771.583	0.0169693
771.661	0.0169627
771.739	0.0169208
771.817	0.0167475
771.896	0.0167993
771.974	0.0169315
772.052	0.0167163
772.130	0.0166251
772.208	0.0168309
772.286	0.0167573
772.364	0.0165379
772.442	0.0166003
772.521	0.0167087
772.599	0.0165982
772.677	0.0166354
772.755	0.0164896
772.833	0.0164495
772.911	0.0165533
772.989	0.0166353
773.067	0.0167213
773.146	0.0167809
773.224	0.0166188
773.302	0.0166135
773.380	0.0166823
773.458	0.0166417
773.536	0.0167133
773.614	0.0166804
773.692	0.0166853
773.771	0.0167606
773.849	0.0167596
773.927	0.0167772
774.005	0.0168434
774.083	0.0169454
774.161	0.0168026
774.239	0.0167532
774.317	0.0167384
774.396	0.0168290
774.474	0.0168709
774.552	0.0166936
774.630	0.0168849
774.708	0.0167824
774.786	0.0168507
774.864	0.0168184
774.942	0.0168163
775.021	0.0167097
775.099	0.0164848
775.177	0.0166282
775.255	0.0165327
775.333	0.0164785
775.411	0.0163600
775.489	0.0164602
775.567	0.0163346
775.646	0.0161041
775.724	0.0160708
775.802	0.0161722
775.880	0.0159108
775.958	0.0160712
776.036	0.0159811
776.114	0.0159966
776.192	0.0160877
776.271	0.0160271
776.349	0.0161060
776.427	0.0161128
776.505	0.0161735
776.583	0.0162600
776.661	0.0163864
776.739	0.0164450
776.817	0.0164287
776.896	0.0165455
776.974	0.0164754
777.052	0.0164142
777.130	0.0165846
777.208	0.0166537
777.286	0.0167062
777.364	0.0167162
777.442	0.0169995
777.521	0.0169233
777.599	0.0169046
777.677	0.0170554
777.755	0.0170772
777.833	0.0172317
777.911	0.0171364
777.989	0.0171696
778.067	0.0171690
778.146	0.0170325
778.224	0.0172412
778.302	0.0171618
778.380	0.0171105
778.458	0.0169361
778.536	0.0169094
778.614	0.0168463
778.692	0.0167329
778.771	0.0167999
778.849	0.0165382
778.927	0.0164021
779.005	0.0162670
779.083	0.0162897
779.161	0.0162785
779.239	0.0160810
779.317	0.0160784
779.396	0.0159588
779.474	0.0161280
779.552	0.0161240
779.630	0.0161773
779.708	0.0160932
779.786	0.0159354
779.864	0.0161460
779.942	0.0161929
780.021	0.0163950
780.099	0.0163665
780.177	0.0163480
780.255	0.0163467
780.333	0.0163968
780.411	0.0164278
780.489	0.0165903
780.567	0.0164818
780.646	0.0164760
780.724	0.0167152
780.802	0.0165924
780.880	0.0166636
780.958	0.0166669
781.036	0.0167413
781.114	0.0167065
781.192	0.0168513
781.271	0.0165804
781.349	0.0167450
781.427	0.0167578
781.505	0.0167510
781.583	0.0167818
781.661	0.0166117
781.739	0.0167263
781.817	0.0166317
781.896	0.0166707
781.974	0.0166658
782.052	0.0166282
782.130	0.0166180
782.208	0.0164948
782.286	0.0165135
782.364	0.0166768
782.442	0.0164726
782.521	0.0165491
782.599	0.0166351
782.677	0.0165284
782.755	0.0165787
782.833	0.0166618
782.911	0.0166688
782.989	0.0165913
783.067	0.0166158
783.146	0.0166481
783.224	0.0168291
783.302	0.0167767
783.380	0.0167411
783.458	0.0166455
783.536	0.0168021
783.614	0.0168703
783.692	0.0168134
783.771	0.0167287
783.849	0.0167152
783.927	0.0167146
784.005	0.0166434
784.083	0.0166065
784.161	0.0166913
784.239	0.0165012
784.317	0.0165121
784.396	0.0163549
784.474	0.0165023
784.552	0.0165041
784.630	0.0164851
784.708	0.0164030
784.786	0.0164851
784.864	0.0163882
784.942	0.0163483
785.021	0.0161666
785.099	0.0163665
785.177	0.0163396
785.255	0.0162556
785.333	0.0162691
785.411	0.0162515
785.489	0.0161871
785.567	0.0160813
785.646	0.0161691
785.724	0.0163798
785.802	0.0162601
785.880	0.0163927
785.958	0.0163538
786.036	0.0164481
786.114	0.0165817
786.192	0.0166796
786.271	0.0166890
786.349	0.0168761
786.427	0.0170029
786.505	0.0170810
786.583	0.0169765
786.661	0.0171594
786.739	0.0171598
786.817	0.0170043
786.896	0.0171424
786.974	0.0172864
787.052	0.0171135
787.130	0.0169806
787.208	0.0169279
787.286	0.0168542
787.364	0.0168256
787.442	0.0167155
787.521	0.0166462
787.599	0.0164836
787.677	0.0163307
787.755	0.0161523
787.833	0.0162752
787.911	0.0160948
787.989	0.0160513
788.067	0.0161108
788.146	0.0159647
788.224	0.0158056
788.302	0.0159419
788.380	0.0158790
788.458	0.0159484
788.536	0.0159966
788.614	0.0162516
788.692	0.0159689
788.771	0.0161205
788.849	0.0163118
788.927	0.0162782
789.005	0.0162880
789.083	0.0164072
789.161	0.0166630
789.239	0.0167136
789.317	0.0168628
789.396	0.0168312
789.474	0.0169318
789.552	0.0170682
789.630	0.0170985
789.708	0.0171219
789.786	0.0171561
789.864	0.0171497
789.942	0.0172901
790.021	0.0172196
790.099	0.0172803
790.177	0.0173174
790.255	0.0172660
790.333	0.0171226
790.411	0.0171160
790.489	0.0169391
790.567	0.0167553
790.646	0.0168266
790.724	0.0167599
790.802	0.0166026
790.880	0.0165884
790.958	0.0165298
791.036	0.0164487
791.114	0.0163811
791.192	0.0162921
791.271	0.0164393
791.349	0.0161362
791.427	0.0162873
791.505	0.0163382
791.583	0.0163134
791.661	0.0161420
791.739	0.0162460
791.817	0.0164797
791.896	0.0164564
791.974	0.0164785
792.052	0.0163707
792.130	0.0164382
792.208	0.0165442
792.286	0.0165348
792.364	0.0164948
792.442	0.0166110
792.521	0.0165710
792.599	0.0165588
792.677	0.0166074
792.755	0.0166306
792.833	0.0167077
792.911	0.0165459
792.989	0.0165392
793.067	0.0165087
793.146	0.0166707
793.224	0.0165482
793.302	0.0166508
793.380	0.0162342
793.458	0.0164123
793.536	0.0164603
793.614	0.0162897
793.692	0.0163611
793.771	0.0165469
793.849	0.0163783
793.927	0.0163802
794.005	0.0164992
794.083	0.0164167
794.161	0.0163860
794.239	0.0165758
794.317	0.0165523
794.396	0.0165169
794.474	0.0166708
794.552	0.0166611
794.630	0.0167306
794.708	0.0167123
794.786	0.0167284
794.864	0.0166873
794.942	0.0167271
795.021	0.0168016
795.099	0.0167426
795.177	0.0168192
795.255	0.0169781
795.333	0.0168241
795.411	0.0169129
795.489	0.0170650
795.567	0.0171325
795.646	0.0171084
795.724	0.0169377
795.802	0.0169997
795.880	0.0170619
795.958	0.0168843
796.036	0.0170281
796.114	0.0169783
796.192	0.0169054
796.271	0.0168658
796.349	0.0168254
796.427	0.0166183
796.505	0.0165950
796.583	0.0165527
796.661	0.0164001
796.739	0.0163871
796.817	0.0163268
796.896	0.0163031
796.974	0.0161007
797.052	0.0160048
797.130	0.0160807
797.208	0.0159953
797.286	0.0159135
797.364	0.0159646
797.442	0.0159436
797.521	0.0160043
797.599	0.0160630
797.677	0.0162160
797.755	0.0162161
797.833	0.0163839
797.911	0.0164538
797.989	0.0164594
798.067	0.0165285
798.146	0.0166138
798.224	0.0166810
798.302	0.0167807
798.380	0.0167431
798.458	0.0167382
798.536	0.0169415
798.614	0.0169926
798.692	0.0169192
798.771	0.0171046
798.849	0.0170902
798.927	0.0170847
799.005	0.0170746
799.083	0.0169920
799.161	0.0168301
799.239	0.0169436
799.317	0.0168322
799.396	0.0167345
799.474	0.0166754
799.552	0.0167161
799.630	0.0166630
799.708	0.0166384
799.786	0.0165932
799.864	0.0165426
799.942	0.0164905
800.021	0.0166694
800.099	0.0166399
800.177	0.0164964
800.255	0.0165722
800.333	0.0163482
800.411	0.0165210
800.489	0.0163239
800.567	0.0163244
800.646	0.0163274
800.724	0.0161900
800.802	0.0162239
800.880	0.0162226
800.958	0.0160664
801.036	0.0161319
801.114	0.0162571
801.192	0.0161012
801.271	0.0160329
801.349	0.0160477
801.427	0.0160751
801.505	0.0161388
801.583	0.0161890
801.661	0.0161691
801.739	0.0161608
801.817	0.0160825
801.896	0.0161136
801.974	0.0162919
802.052	0.0162924
802.130	0.0163745
802.208	0.0164458
802.286	0.0164962
802.364	0.0165920
802.442	0.0165636
802.521	0.0166429
802.599	0.0168587
802.677	0.0168404
802.755	0.0168974
802.833	0.0169962
802.911	0.0170434
802.989	0.0172002
803.067	0.0170798
803.146	0.0172707
803.224	0.0171397
803.302	0.0172807
803.380	0.0173772
803.458	0.0174294
803.536	0.0172180
803.614	0.0173168
803.692	0.0173438
803.771	0.0171712
803.849	0.0171173
803.927	0.0171511
804.005	0.0169293
804.083	0.0168065
804.161	0.0166946
804.239	0.0167139
804.317	0.0164797
804.396	0.0164019
804.474	0.0164768
804.552	0.0162064
804.630	0.0160166
804.708	0.0160770
804.786	0.0159795
804.864	0.0158781
804.942	0.0158093
805.021	0.0158037
805.099	0.0157087
805.177	0.0157304
805.255	0.0158206
805.333	0.0157644
805.411	0.0158996
805.489	0.0159470
805.567	0.0159563
805.646	0.0160118
805.724	0.0160580
805.802	0.0160597
805.880	0.0161948
805.958	0.0161272
806.036	0.0161082
806.114	0.0160679
806.192	0.0161560
806.271	0.0163264
806.349	0.0164166
806.427	0.0164994
806.505	0.0166169
806.583	0.0166316
806.661	0.0168028
806.739	0.0170193
806.817	0.0170750
806.896	0.0173266
806.974	0.0174207
807.052	0.0174377
807.130	0.0175519
807.208	0.0176151
807.286	0.0175507
807.364	0.0176121
807.442	0.0177299
807.521	0.0177176
807.599	0.0175101
807.677	0.0174615
807.755	0.0173779
807.833	0.0171724
807.911	0.0171546
807.989	0.0168833
808.067	0.0168719
808.146	0.0166256
808.224	0.0164497
808.302	0.0164069
808.380	0.0163659
808.458	0.0161084
808.536	0.0160503
808.614	0.0159487
808.692	0.0156823
808.771	0.0156140
808.849	0.0156573
808.927	0.0155459
809.005	0.0155181
809.083	0.0155885
809.161	0.0155261
809.239	0.0155749
809.317	0.0155499
809.396	0.0156348
809.474	0.0158071
809.552	0.0158413
809.630	0.0159524
809.708	0.0159821
809.786	0.0159405
809.864	0.0162456
809.942	0.0162775
810.021	0.0163956
810.099	0.0165649
810.177	0.0165913
810.255	0.0166154
810.333	0.0168483
810.411	0.0169620
810.489	0.0170077
810.567	0.0170786
810.646	0.0170789
810.724	0.0172824
810.802	0.0172746
810.880	0.0173248
810.958	0.0174048
811.036	0.0176026
811.114	0.0175343
811.192	0.0174731
811.271	0.0175713
811.349	0.0174164
811.427	0.0172131
811.505	0.0172250
811.583	0.0170222
811.661	0.0170576
811.739	0.0169426
811.817	0.0169473
811.896	0.0167728
811.974	0.0167049
812.052	0.0164677
812.130	0.0163265
812.208	0.0163924
812.286	0.0161626
812.364	0.0160166
812.442	0.0161357
812.521	0.0160346
812.599	0.0159831
812.677	0.0159473
812.755	0.0159904
812.833	0.0160441
812.911	0.0159995
812.989	0.0161216
813.067	0.0163195
813.146	0.0162467
813.224	0.0162967
813.302	0.0165591
813.380	0.0166121
813.458	0.0166906
813.536	0.0168094
813.614	0.0167861
813.692	0.0169714
813.771	0.0170535
813.849	0.0169878
813.927	0.0169025
814.005	0.0169972
814.083	0.0169473
814.161	0.0170935
814.239	0.0170884
814.317	0.0171001
814.396	0.0169909
814.474	0.0169963
814.552	0.0170019
814.630	0.0169380
814.708	0.0169276
814.786	0.0167984
814.864	0.0168499
814.942	0.0167152
815.021	0.0166444
815.099	0.0165553
815.177	0.0166095
815.255	0.0163647
815.333	0.0163182
815.411	0.0161929
815.489	0.0164287
815.567	0.0164771
815.646	0.0163291
815.724	0.0162484
815.802	0.0163821
815.880	0.0162689
815.958	0.0161226
816.036	0.0162065
816.114	0.0164628
816.192	0.0163531
816.271	0.0162866
816.349	0.0163190
816.427	0.0164755
816.505	0.0163429
816.583	0.0164850
816.661	0.0165112
816.739	0.0165490
816.817	0.0165141
816.896	0.0166245
816.974	0.0167663
817.052	0.0167533
817.130	0.0167602
817.208	0.0166771
817.286	0.0166268
817.364	0.0167134
817.442	0.0166930
817.521	0.0167350
817.599	0.0167799
817.677	0.0167873
817.755	0.0166933
817.833	0.0169935
817.911	0.0168430
817.989	0.0167507
818.067	0.0168914
818.146	0.0168410
818.224	0.0167708
818.302	0.0169199
818.380	0.0168710
818.458	0.0168093
818.536	0.0167442
818.614	0.0167448
818.692	0.0168229
818.771	0.0167664
818.849	0.0167787
818.927	0.0167371
819.005	0.0168436
819.083	0.0170318
819.161	0.0168904
819.239	0.0167809
819.317	0.0169573
819.396	0.0168708
819.474	0.0169269
819.552	0.0169864
819.630	0.0168967
819.708	0.0168129
819.786	0.0167891
819.864	0.0167624
819.942	0.0166482
820.021	0.0165855
820.099	0.0164503
820.177	0.0164229
820.255	0.0164807
820.333	0.0163663
820.411	0.0163955
820.489	0.0162375
820.567	0.0164117
820.646	0.0162264
820.724	0.0161460
820.802	0.0160983
820.880	0.0162296
820.958	0.0163589
821.036	0.0163082
821.114	0.0160984
821.192	0.0163450
821.271	0.0162920
821.349	0.0162737
821.427	0.0161341
821.505	0.0162309
821.583	0.0163877
821.661	0.0164096
821.739	0.0163482
821.817	0.0163337
821.896	0.0163992
821.974	0.0162016
822.052	0.0163322
822.130	0.0163189
822.208	0.0165754
822.286	0.0164957
822.364	0.0164925
822.442	0.0167793
822.521	0.0168175
822.599	0.0167378
822.677	0.0167984
822.755	0.0168151
822.833	0.0168534
822.911	0.0169785
822.989	0.0170410
823.067	0.0170194
823.146	0.0169718
823.224	0.0171011
823.302	0.0168867
823.380	0.0169191
823.458	0.0168835
823.536	0.0168041
823.614	0.0168808
823.692	0.0168611
823.771	0.0167118
823.849	0.0168555
823.927	0.0166730
824.005	0.0166164
824.083	0.0166456
824.161	0.0166254
824.239	0.0165689
824.317	0.0166185
824.396	0.0166714
824.474	0.0165532
824.552	0.0166357
824.630	0.0166965
824.708	0.0165916
824.786	0.0164435
824.864	0.0166087
824.942	0.0166439
825.021	0.0165305
825.099	0.0164268
825.177	0.0163779
825.255	0.0166454
825.333	0.0164092
825.411	0.0164665
825.489	0.0163723
825.567	0.0164504
825.646	0.0164470
825.724	0.0164188
825.802	0.0163763
825.880	0.0165578
825.958	0.0166087
826.036	0.0165610
826.114	0.0165170
826.192	0.0165553
826.271	0.0168047
826.349	0.0165401
826.427	0.0166161
826.505	0.0166543
826.583	0.0165421
826.661	0.0166527
826.739	0.0165806
826.817	0.0165291
826.896	0.0164932
826.974	0.0165028
827.052	0.0163405
827.130	0.0162344
827.208	0.0163967
827.286	0.0163379
827.364	0.0162376
827.442	0.0163130
827.521	0.0163898
827.599	0.0163863
827.677	0.0164056
827.755	0.0164787
827.833	0.0164987
827.911	0.0166052
827.989	0.0167867
828.067	0.0166861
828.146	0.0165749
828.224	0.0166895
828.302	0.0169003
828.380	0.0167349
828.458	0.0168947
828.536	0.0169561
828.614	0.0169671
828.692	0.0167928
828.771	0.0167477
828.849	0.0167072
828.927	0.0168090
829.005	0.0168146
829.083	0.0168793
829.161	0.0168178
829.239	0.0167252
829.317	0.0165932
829.396	0.0166521
829.474	0.0167565
829.552	0.0167246
829.630	0.0166928
829.708	0.0166651
829.786	0.0167901
829.864	0.0166055
829.942	0.0166482
830.021	0.0166951
830.099	0.0167597
830.177	0.0167459
830.255	0.0167368
830.333	0.0166061
830.411	0.0166736
830.489	0.0166277
830.567	0.0166029
830.646	0.0165955
830.724	0.0165730
830.802	0.0164877
830.880	0.0164492
830.958	0.0164403
831.036	0.0164011
831.114	0.0163386
831.192	0.0164353
831.271	0.0162173
831.349	0.0161539
831.427	0.0162391
831.505	0.0162423
831.583	0.0163943
831.661	0.0162434
831.739	0.0163872
831.817	0.0165036
831.896	0.0164555
831.974	0.0164101
832.052	0.0164075
832.130	0.0164512
832.208	0.0165273
832.286	0.0166003
832.364	0.0166029
832.442	0.0167944
832.521	0.0169190
832.599	0.0168180
832.677	0.0168365
832.755	0.0168679
832.833	0.0169569
832.911	0.0169962
832.989	0.0169185
833.067	0.0170245
833.146	0.0169048
833.224	0.0168751
833.302	0.0170104
833.380	0.0169231
833.458	0.0167868
833.536	0.0167624
833.614	0.0165963
833.692	0.0165811
833.771	0.0167059
833.849	0.0165179
833.927	0.0164516
834.005	0.0164732
834.083	0.0165127
834.161	0.0164938
834.239	0.0165121
834.317	0.0164475
834.396	0.0165013
834.474	0.0163876
834.552	0.0165464
834.630	0.0165939
834.708	0.0165411
834.786	0.0167245
834.864	0.0166794
834.942	0.0166871
835.021	0.0166723
835.099	0.0166627
835.177	0.0166774
835.255	0.0165290
835.333	0.0164628
835.411	0.0165492
835.489	0.0164605
835.567	0.0165647
835.646	0.0164379
835.724	0.0164048
835.802	0.0162718
835.880	0.0163754
835.958	0.0163136
836.036	0.0163651
836.114	0.0162109
836.192	0.0163322
836.271	0.0163872
836.349	0.0164708
836.427	0.0164545
836.505	0.0166611
836.583	0.0165966
836.661	0.0166032
836.739	0.0165494
836.817	0.0166483
836.896	0.0167461
836.974	0.0169181
837.052	0.0168030
837.130	0.0167128
837.208	0.0168224
837.286	0.0166476
837.364	0.0168073
837.442	0.0166695
837.521	0.0167704
837.599	0.0166934
837.677	0.0168025
837.755	0.0168105
837.833	0.0167409
837.911	0.0167788
837.989	0.0167809
838.067	0.0166976
838.146	0.0165951
838.224	0.0166656
838.302	0.0168420
838.380	0.0166766
838.458	0.0166137
838.536	0.0165077
838.614	0.0165144
838.692	0.0166210
838.771	0.0165004
838.849	0.0166232
838.927	0.0165955
839.005	0.0166088
839.083	0.0165836
839.161	0.0166869
839.239	0.0166463
839.317	0.0166605
839.396	0.0166137
839.474	0.0167475
839.552	0.0167970
839.630	0.0167976
839.708	0.0168145
839.786	0.0167879
839.864	0.0169006
839.942	0.0169068
840.021	0.0168741
840.099	0.0166444
840.177	0.0167604
840.255	0.0167368
840.333	0.0166939
840.411	0.0167123
840.489	0.0166322
840.567	0.0167065
840.646	0.0166447
840.724	0.0165617
840.802	0.0167087
840.880	0.0165147
840.958	0.0164298
841.036	0.0167343
841.114	0.0167268
841.192	0.0166590
841.271	0.0166358
841.349	0.0166675
841.427	0.0166779
841.505	0.0166523
841.583	0.0166707
841.661	0.0165924
841.739	0.0166216
841.817	0.0166518
841.896	0.0164847
841.974	0.0166672
842.052	0.0166028
842.130	0.0166492
842.208	0.0166726
842.286	0.0165440
842.364	0.0166303
842.442	0.0164476
842.521	0.0163832
842.599	0.0165944
842.677	0.0164320
842.755	0.0165585
842.833	0.0165605
842.911	0.0164259
842.989	0.0165160
843.067	0.0165027
843.146	0.0166305
843.224	0.0165101
843.302	0.0166057
843.380	0.0166431
843.458	0.0168035
843.536	0.0168571
843.614	0.0168137
843.692	0.0168439
843.771	0.0168482
843.849	0.0168400
843.927	0.0169424
844.005	0.0168549
844.083	0.0168790
844.161	0.0168785
844.239	0.0168803
844.317	0.0167702
844.396	0.0168398
844.474	0.0168458
844.552	0.0168433
844.630	0.0167355
844.708	0.0166444
844.786	0.0165871
844.864	0.0165450
844.942	0.0166031
845.021	0.0164543
845.099	0.0164334
845.177	0.0164094
845.255	0.0165764
845.333	0.0166033
845.411	0.0165408
845.489	0.0165926
845.567	0.0165039
845.646	0.0166030
845.724	0.0166605
845.802	0.0165170
845.880	0.0165664
845.958	0.0166370
846.036	0.0165531
846.114	0.0166093
846.192	0.0166757
846.271	0.0167381
846.349	0.0166174
846.427	0.0165544
846.505	0.0166031
846.583	0.0165785
846.661	0.0166447
846.739	0.0166125
846.817	0.0166848
846.896	0.0166103
846.974	0.0164724
847.052	0.0166397
847.130	0.0166502
847.208	0.0167458
847.286	0.0165178
847.364	0.0165286
847.442	0.0165326
847.521	0.0164780
847.599	0.0166187
847.677	0.0166381
847.755	0.0167397
847.833	0.0166222
847.911	0.0166327
847.989	0.0164935
848.067	0.0164912
848.146	0.0164388
848.224	0.0165108
848.302	0.0164248
848.380	0.0164643
848.458	0.0165631
848.536	0.0165107
848.614	0.0163977
848.692	0.0164699
848.771	0.0165025
848.849	0.0164939
848.927	0.0165918
849.005	0.0165382
849.083	0.0165839
849.161	0.0166449
849.239	0.0165307
849.317	0.0166489
849.396	0.0166738
849.474	0.0166412
849.552	0.0167833
849.630	0.0167103
849.708	0.0166779
849.786	0.0167691
849.864	0.0167686
849.942	0.0166453
850.021	0.0168441
850.099	0.0167935
850.177	0.0167570
850.255	0.0168726
850.333	0.0167903
850.411	0.0167989
850.489	0.0168353
850.567	0.0167188
850.646	0.0166981
850.724	0.0167427
850.802	0.0165833
850.880	0.0166479
850.958	0.0166533
851.036	0.0166166
851.114	0.0166578
851.192	0.0166464
851.271	0.0166320
851.349	0.0164918
851.427	0.0164529
851.505	0.0164821
851.583	0.0164319
851.661	0.0165140
851.739	0.0164774
851.817	0.0164308
851.896	0.0163876
851.974	0.0164170
852.052	0.0163123
852.130	0.0163225
852.208	0.0163744
852.286	0.0162817
852.364	0.0164102
852.442	0.0164977
852.521	0.0164009
852.599	0.0164436
852.677	0.0166070
852.755	0.0165257
852.833	0.0166099
852.911	0.0165562
852.989	0.0166641
853.067	0.0167493
853.146	0.0168362
853.224	0.0168703
853.302	0.0168183
853.380	0.0168246
853.458	0.0169241
853.536	0.0169022
853.614	0.0167330
853.692	0.0169489
853.771	0.0168237
853.849	0.0167027
853.927	0.0168581
854.005	0.0168303
854.083	0.0166663
854.161	0.0167109
854.239	0.0165266
854.317	0.0167368
854.396	0.0168332
854.474	0.0166820
854.552	0.0166634
854.630	0.0164120
854.708	0.0165945
854.786	0.0164579
854.864	0.0164355
854.942	0.0162894
855.021	0.0164258
855.099	0.0164362
855.177	0.0164304
855.255	0.0163692
855.333	0.0164434
855.411	0.0163685
855.489	0.0163168
855.567	0.0164416
855.646	0.0163158
855.724	0.0164034
855.802	0.0165525
855.880	0.0165662
855.958	0.0165999
856.036	0.0164316
856.114	0.0166146
856.192	0.0167596
856.271	0.0166930
856.349	0.0165318
856.427	0.0167089
856.505	0.0167444
856.583	0.0167139
856.661	0.0167263
856.739	0.0166963
856.817	0.0169491
856.896	0.0166976
856.974	0.0167719
857.052	0.0168466
857.130	0.0166752
857.208	0.0166108
857.286	0.0167008
857.364	0.0165881
857.442	0.0165607
857.521	0.0165689
857.599	0.0166425
857.677	0.0165302
857.755	0.0165292
857.833	0.0164940
857.911	0.0165602
857.989	0.0165230
858.067	0.0165176
858.146	0.0164865
858.224	0.0163709
858.302	0.0164018
858.380	0.0165242
858.458	0.0165530
858.536	0.0165576
858.614	0.0163786
858.692	0.0164723
858.771	0.0164610
858.849	0.0165078
858.927	0.0165353
859.005	0.0165700
859.083	0.0165853
859.161	0.0165503
859.239	0.0165640
859.317	0.0165344
859.396	0.0168179
859.474	0.0167092
859.552	0.0167179
859.630	0.0167696
859.708	0.0166729
859.786	0.0168579
859.864	0.0167775
859.942	0.0168273
860.021	0.0167049
860.099	0.0168181
860.177	0.0168502
860.255	0.0168795
860.333	0.0168220
860.411	0.0168478
860.489	0.0167999
860.567	0.0168697
860.646	0.0167414
860.724	0.0166953
860.802	0.0166785
860.880	0.0166195
860.958	0.0166070
861.036	0.0165597
861.114	0.0165575
861.192	0.0165790
861.271	0.0166112
861.349	0.0165444
861.427	0.0165236
861.505	0.0164324
861.583	0.0165102
861.661	0.0165382
861.739	0.0164500
861.817	0.0165659
861.896	0.0164698
861.974	0.0165894
862.052	0.0165054
862.130	0.0166284
862.208	0.0165108
862.286	0.0165661
862.364	0.0167037
862.442	0.0166091
862.521	0.0166038
862.599	0.0166574
862.677	0.0166807
862.755	0.0167260
862.833	0.0166861
862.911	0.0166160
862.989	0.0168239
863.067	0.0167769
863.146	0.0167548
863.224	0.0166745
863.302	0.0167449
863.380	0.0166605
863.458	0.0167835
863.536	0.0167698
863.614	0.0167448
863.692	0.0165282
863.771	0.0166348
863.849	0.0167471
863.927	0.0167222
864.005	0.0165947
864.083	0.0167191
864.161	0.0166959
864.239	0.0165839
864.317	0.0166734
864.396	0.0166657
864.474	0.0167590
864.552	0.0168259
864.630	0.0166560
864.708	0.0166721
864.786	0.0165182
864.864	0.0167768
864.942	0.0166464
865.021	0.0165812
865.099	0.0166772
865.177	0.0165426
865.255	0.0165506
865.333	0.0166360
865.411	0.0165906
865.489	0.0166611
865.567	0.0165019
865.646	0.0166108
865.724	0.0166391
865.802	0.0164464
865.880	0.0166184
865.958	0.0165080
866.036	0.0165054
866.114	0.0164902
866.192	0.0166114
866.271	0.0165843
866.349	0.0164285
866.427	0.0165281
866.505	0.0166194
866.583	0.0167036
866.661	0.0166487
866.739	0.0166695
866.817	0.0167220
866.896	0.0166420
866.974	0.0167718
867.052	0.0168298
867.130	0.0168021
867.208	0.0166325
867.286	0.0167596
867.364	0.0168307
867.442	0.0167714
867.521	0.0168750
867.599	0.0167388
867.677	0.0168192
867.755	0.0167831
867.833	0.0165486
867.911	0.0166618
867.989	0.0166406
868.067	0.0165919
868.146	0.0164845
868.224	0.0165397
868.302	0.0164851
868.380	0.0164431
868.458	0.0164684
868.536	0.0164985
868.614	0.0164443
868.692	0.0164557
868.771	0.0164831
868.849	0.0164567
868.927	0.0163702
869.005	0.0165350
869.083	0.0165181
869.161	0.0164531
869.239	0.0164304
869.317	0.0166402
869.396	0.0166290
869.474	0.0165726
869.552	0.0164751
869.630	0.0163142
869.708	0.0164471
869.786	0.0164790
869.864	0.0164329
869.942	0.0163982
