06/03/2022	15:32:35	Ver.	4.1	UNKNOWN
Optical Delay	550.020508	Delta X		0.078125	Sweeps	1	Scan Rate	0/0
Coordinates	Axis 1	NaN	Axis 2	NaN	Axis 3	NaN	Axis 4	NaN	Axis 5	NaN	Axis 6	0.000000
TX Power	0.000000	RX Power	0.000000

550.021	0.0166830
550.099	0.0167284
550.177	0.0167960
550.255	0.0166075
550.333	0.0167834
550.411	0.0167267
550.489	0.0166331
550.567	0.0166988
550.646	0.0166880
550.724	0.0166814
550.802	0.0165897
550.880	0.0166873
550.958	0.0167195
551.036	0.0167069
551.114	0.0166584
551.192	0.0165504
551.271	0.0166425
551.349	0.0167521
551.427	0.0167656
551.505	0.0167447
551.583	0.0167600
551.661	0.0166321
551.739	0.0168364
551.817	0.0166467
551.896	0.0167240
551.974	0.0167097
552.052	0.0167320
552.130	0.0166613
552.208	0.0166174
552.286	0.0166716
552.364	0.0166723
552.442	0.0167297
552.521	0.0166566
552.599	0.0165679
552.677	0.0165771
552.755	0.0167025
552.833	0.0167178
552.911	0.0166035
552.989	0.0166647
553.067	0.0167923
553.146	0.0167725
553.224	0.0166428
553.302	0.0166197
553.380	0.0167731
553.458	0.0167387
553.536	0.0165863
553.614	0.0166350
553.692	0.0167873
553.771	0.0167838
553.849	0.0167628
553.927	0.0168748
554.005	0.0166705
554.083	0.0165565
554.161	0.0167203
554.239	0.0167258
554.317	0.0166096
554.396	0.0167550
554.474	0.0168823
554.552	0.0165912
554.630	0.0166947
554.708	0.0167361
554.786	0.0167142
554.864	0.0166956
554.942	0.0168098
555.021	0.0168165
555.099	0.0167343
555.177	0.0167962
555.255	0.0166914
555.333	0.0168650
555.411	0.0168502
555.489	0.0166907
555.567	0.0166549
555.646	0.0168366
555.724	0.0167148
555.802	0.0165978
555.880	0.0167660
555.958	0.0167811
556.036	0.0166830
556.114	0.0166608
556.192	0.0167420
556.271	0.0166180
556.349	0.0166402
556.427	0.0166633
556.505	0.0166425
556.583	0.0166836
556.661	0.0167737
556.739	0.0167359
556.817	0.0167411
556.896	0.0166386
556.974	0.0165618
557.052	0.0167710
557.130	0.0166974
557.208	0.0167460
557.286	0.0166760
557.364	0.0166792
557.442	0.0168506
557.521	0.0166607
557.599	0.0166431
557.677	0.0167564
557.755	0.0166848
557.833	0.0166433
557.911	0.0166601
557.989	0.0166922
558.067	0.0166784
558.146	0.0166568
558.224	0.0167103
558.302	0.0167220
558.380	0.0168912
558.458	0.0167903
558.536	0.0166307
558.614	0.0166512
558.692	0.0167789
558.771	0.0166436
558.849	0.0166588
558.927	0.0167454
559.005	0.0165988
559.083	0.0167523
559.161	0.0166595
559.239	0.0167054
559.317	0.0167108
559.396	0.0167173
559.474	0.0166991
559.552	0.0167878
559.630	0.0166240
559.708	0.0167766
559.786	0.0168637
559.864	0.0166782
559.942	0.0167227
560.021	0.0168155
560.099	0.0167686
560.177	0.0168090
560.255	0.0165870
560.333	0.0166489
560.411	0.0166474
560.489	0.0166579
560.567	0.0167541
560.646	0.0166115
560.724	0.0167362
560.802	0.0167889
560.880	0.0167884
560.958	0.0168216
561.036	0.0166376
561.114	0.0165816
561.192	0.0167058
561.271	0.0167544
561.349	0.0166727
561.427	0.0166283
561.505	0.0166718
561.583	0.0167290
561.661	0.0167397
561.739	0.0166470
561.817	0.0167257
561.896	0.0166945
561.974	0.0167371
562.052	0.0167163
562.130	0.0167825
562.208	0.0166317
562.286	0.0167593
562.364	0.0168578
562.442	0.0168201
562.521	0.0166939
562.599	0.0166541
562.677	0.0165800
562.755	0.0167531
562.833	0.0167116
562.911	0.0167828
562.989	0.0164874
563.067	0.0166506
563.146	0.0165936
563.224	0.0167036
563.302	0.0165599
563.380	0.0165852
563.458	0.0167402
563.536	0.0166364
563.614	0.0167284
563.692	0.0166999
563.771	0.0166907
563.849	0.0167310
563.927	0.0166917
564.005	0.0167090
564.083	0.0166958
564.161	0.0167194
564.239	0.0166943
564.317	0.0167881
564.396	0.0165975
564.474	0.0166424
564.552	0.0167728
564.630	0.0167735
564.708	0.0168674
564.786	0.0167359
564.864	0.0166769
564.942	0.0167188
565.021	0.0166925
565.099	0.0167229
565.177	0.0165904
565.255	0.0166130
565.333	0.0168018
565.411	0.0165827
565.489	0.0165447
565.567	0.0166154
565.646	0.0168052
565.724	0.0166933
565.802	0.0166092
565.880	0.0167022
565.958	0.0167909
566.036	0.0166607
566.114	0.0167589
566.192	0.0167479
566.271	0.0166894
566.349	0.0167522
566.427	0.0167189
566.505	0.0166953
566.583	0.0166288
566.661	0.0166858
566.739	0.0167787
566.817	0.0167529
566.896	0.0167511
566.974	0.0168128
567.052	0.0167371
567.130	0.0165166
567.208	0.0167413
567.286	0.0167246
567.364	0.0166086
567.442	0.0167912
567.521	0.0166458
567.599	0.0167119
567.677	0.0167505
567.755	0.0165820
567.833	0.0166919
567.911	0.0167277
567.989	0.0167155
568.067	0.0167879
568.146	0.0167165
568.224	0.0166064
568.302	0.0165643
568.380	0.0166847
568.458	0.0166522
568.536	0.0166239
568.614	0.0167852
568.692	0.0166981
568.771	0.0167555
568.849	0.0166872
568.927	0.0167234
569.005	0.0165862
569.083	0.0167318
569.161	0.0167669
569.239	0.0166544
569.317	0.0166498
569.396	0.0166512
569.474	0.0167019
569.552	0.0166106
569.630	0.0167093
569.708	0.0167186
569.786	0.0167620
569.864	0.0166600
569.942	0.0166867
570.021	0.0166787
570.099	0.0165437
570.177	0.0166634
570.255	0.0167255
570.333	0.0167611
570.411	0.0168304
570.489	0.0166920
570.567	0.0166867
570.646	0.0166418
570.724	0.0166597
570.802	0.0167585
570.880	0.0166679
570.958	0.0168895
571.036	0.0167089
571.114	0.0166575
571.192	0.0167522
571.271	0.0168454
571.349	0.0167356
571.427	0.0167609
571.505	0.0167639
571.583	0.0166359
571.661	0.0167017
571.739	0.0166823
571.817	0.0167477
571.896	0.0168403
571.974	0.0167883
572.052	0.0167805
572.130	0.0167641
572.208	0.0167484
572.286	0.0168313
572.364	0.0166394
572.442	0.0166124
572.521	0.0166498
572.599	0.0167615
572.677	0.0167714
572.755	0.0167329
572.833	0.0167693
572.911	0.0167107
572.989	0.0166576
573.067	0.0168621
573.146	0.0167421
573.224	0.0168027
573.302	0.0167620
573.380	0.0166657
573.458	0.0167242
573.536	0.0166880
573.614	0.0167053
573.692	0.0167197
573.771	0.0166183
573.849	0.0166637
573.927	0.0168237
574.005	0.0168186
574.083	0.0167675
574.161	0.0166511
574.239	0.0165563
574.317	0.0167872
574.396	0.0167702
574.474	0.0167405
574.552	0.0167341
574.630	0.0166504
574.708	0.0167326
574.786	0.0166788
574.864	0.0168890
574.942	0.0167290
575.021	0.0166518
575.099	0.0167123
575.177	0.0167530
575.255	0.0166456
575.333	0.0166248
575.411	0.0167226
575.489	0.0166719
575.567	0.0165797
575.646	0.0167522
575.724	0.0166158
575.802	0.0167308
575.880	0.0166947
575.958	0.0166191
576.036	0.0167030
576.114	0.0167078
576.192	0.0166833
576.271	0.0167134
576.349	0.0167173
576.427	0.0167225
576.505	0.0166264
576.583	0.0166632
576.661	0.0166986
576.739	0.0166582
576.817	0.0166644
576.896	0.0167552
576.974	0.0166909
577.052	0.0165985
577.130	0.0166250
577.208	0.0166348
577.286	0.0168637
577.364	0.0166844
577.442	0.0165678
577.521	0.0167458
577.599	0.0167499
577.677	0.0166142
577.755	0.0167501
577.833	0.0167633
577.911	0.0166769
577.989	0.0166767
578.067	0.0167882
578.146	0.0167603
578.224	0.0166788
578.302	0.0167491
578.380	0.0167406
578.458	0.0165974
578.536	0.0167529
578.614	0.0166448
578.692	0.0167657
578.771	0.0167671
578.849	0.0168211
578.927	0.0167713
579.005	0.0166177
579.083	0.0167845
579.161	0.0168019
579.239	0.0168193
579.317	0.0167656
579.396	0.0165376
579.474	0.0165674
579.552	0.0166828
579.630	0.0168634
579.708	0.0166031
579.786	0.0166850
579.864	0.0166385
579.942	0.0167265
580.021	0.0166589
580.099	0.0167641
580.177	0.0166953
580.255	0.0166411
580.333	0.0167093
580.411	0.0165429
580.489	0.0166546
580.567	0.0166742
580.646	0.0167103
580.724	0.0167148
580.802	0.0166277
580.880	0.0166490
580.958	0.0166950
581.036	0.0166816
581.114	0.0165958
581.192	0.0166507
581.271	0.0166586
581.349	0.0167908
581.427	0.0166833
581.505	0.0166022
581.583	0.0165398
581.661	0.0167756
581.739	0.0167772
581.817	0.0166312
581.896	0.0167292
581.974	0.0168533
582.052	0.0167085
582.130	0.0167083
582.208	0.0166881
582.286	0.0166653
582.364	0.0167391
582.442	0.0166411
582.521	0.0167155
582.599	0.0166363
582.677	0.0168064
582.755	0.0167999
582.833	0.0166652
582.911	0.0166729
582.989	0.0166808
583.067	0.0167627
583.146	0.0165495
583.224	0.0167266
583.302	0.0165527
583.380	0.0167275
583.458	0.0166537
583.536	0.0167432
583.614	0.0167235
583.692	0.0166843
583.771	0.0167781
583.849	0.0167718
583.927	0.0166467
584.005	0.0166735
584.083	0.0165781
584.161	0.0166696
584.239	0.0168320
584.317	0.0166989
584.396	0.0166674
584.474	0.0165796
584.552	0.0166865
584.630	0.0167941
584.708	0.0167024
584.786	0.0166010
584.864	0.0165517
584.942	0.0166862
585.021	0.0167567
585.099	0.0168736
585.177	0.0166324
585.255	0.0166651
585.333	0.0167266
585.411	0.0168628
585.489	0.0167110
585.567	0.0169086
585.646	0.0167864
585.724	0.0165442
585.802	0.0166954
585.880	0.0168575
585.958	0.0168641
586.036	0.0167049
586.114	0.0167067
586.192	0.0167757
586.271	0.0166800
586.349	0.0166963
586.427	0.0167960
586.505	0.0167016
586.583	0.0165864
586.661	0.0167431
586.739	0.0167175
586.817	0.0166825
586.896	0.0167947
586.974	0.0168085
587.052	0.0167375
587.130	0.0165663
587.208	0.0167315
587.286	0.0167425
587.364	0.0167402
587.442	0.0167605
587.521	0.0167439
587.599	0.0168035
587.677	0.0167767
587.755	0.0167056
587.833	0.0168372
587.911	0.0166509
587.989	0.0167920
588.067	0.0168804
588.146	0.0167464
588.224	0.0166530
588.302	0.0166617
588.380	0.0166705
588.458	0.0167859
588.536	0.0166611
588.614	0.0168690
588.692	0.0166743
588.771	0.0166268
588.849	0.0169166
588.927	0.0167114
589.005	0.0166460
589.083	0.0167246
589.161	0.0167694
589.239	0.0166729
589.317	0.0168642
589.396	0.0167183
589.474	0.0166820
589.552	0.0168254
589.630	0.0168513
589.708	0.0167239
589.786	0.0168269
589.864	0.0167766
589.942	0.0166780
590.021	0.0167841
590.099	0.0168475
590.177	0.0166834
590.255	0.0167046
590.333	0.0166953
590.411	0.0167365
590.489	0.0166297
590.567	0.0165928
590.646	0.0167329
590.724	0.0166000
590.802	0.0167543
590.880	0.0167103
590.958	0.0167131
591.036	0.0167325
591.114	0.0168546
591.192	0.0167789
591.271	0.0166167
591.349	0.0166802
591.427	0.0167146
591.505	0.0167921
591.583	0.0166798
591.661	0.0167418
591.739	0.0167408
591.817	0.0168568
591.896	0.0168351
591.974	0.0167796
592.052	0.0165469
592.130	0.0166538
592.208	0.0167149
592.286	0.0167509
592.364	0.0166494
592.442	0.0167906
592.521	0.0167176
592.599	0.0166726
592.677	0.0168367
592.755	0.0165860
592.833	0.0165692
592.911	0.0166278
592.989	0.0167439
593.067	0.0166339
593.146	0.0166393
593.224	0.0167522
593.302	0.0167862
593.380	0.0167359
593.458	0.0167030
593.536	0.0165218
593.614	0.0166000
593.692	0.0166882
593.771	0.0167249
593.849	0.0166079
593.927	0.0167148
594.005	0.0167708
594.083	0.0168262
594.161	0.0167599
594.239	0.0167444
594.317	0.0166795
594.396	0.0166279
594.474	0.0167258
594.552	0.0166333
594.630	0.0166488
594.708	0.0166788
594.786	0.0166923
594.864	0.0167833
594.942	0.0166383
595.021	0.0167184
595.099	0.0166296
595.177	0.0166673
595.255	0.0167381
595.333	0.0166487
595.411	0.0165508
595.489	0.0167031
595.567	0.0166331
595.646	0.0167529
595.724	0.0167632
595.802	0.0165998
595.880	0.0167659
595.958	0.0165938
596.036	0.0166187
596.114	0.0166853
596.192	0.0166282
596.271	0.0167265
596.349	0.0166420
596.427	0.0168291
596.505	0.0167616
596.583	0.0166801
596.661	0.0167442
596.739	0.0167570
596.817	0.0166683
596.896	0.0167669
596.974	0.0165531
597.052	0.0166103
597.130	0.0167271
597.208	0.0167524
597.286	0.0167994
597.364	0.0165910
597.442	0.0166142
597.521	0.0165769
597.599	0.0167113
597.677	0.0167870
597.755	0.0166758
597.833	0.0167184
597.911	0.0166602
597.989	0.0166878
598.067	0.0167344
598.146	0.0165533
598.224	0.0167054
598.302	0.0167217
598.380	0.0166418
598.458	0.0167282
598.536	0.0167683
598.614	0.0167884
598.692	0.0166891
598.771	0.0166524
598.849	0.0165932
598.927	0.0167210
599.005	0.0167169
599.083	0.0165975
599.161	0.0165921
599.239	0.0164799
599.317	0.0168426
599.396	0.0167156
599.474	0.0165791
599.552	0.0166814
599.630	0.0166833
599.708	0.0167054
599.786	0.0166770
599.864	0.0166579
599.942	0.0166340
600.021	0.0166034
600.099	0.0166913
600.177	0.0166955
600.255	0.0167256
600.333	0.0166562
600.411	0.0167662
600.489	0.0167448
600.567	0.0166743
600.646	0.0166538
600.724	0.0167496
600.802	0.0166304
600.880	0.0167926
600.958	0.0167081
601.036	0.0167903
601.114	0.0166346
601.192	0.0165743
601.271	0.0167012
601.349	0.0167192
601.427	0.0167522
601.505	0.0167326
601.583	0.0165860
601.661	0.0166209
601.739	0.0166228
601.817	0.0167990
601.896	0.0167381
601.974	0.0167884
602.052	0.0167262
602.130	0.0166799
602.208	0.0167580
602.286	0.0166335
602.364	0.0165009
602.442	0.0166592
602.521	0.0167488
602.599	0.0167281
602.677	0.0168107
602.755	0.0166043
602.833	0.0168299
602.911	0.0167457
602.989	0.0166103
603.067	0.0166355
603.146	0.0167787
603.224	0.0167909
603.302	0.0167622
603.380	0.0166744
603.458	0.0168499
603.536	0.0167368
603.614	0.0166864
603.692	0.0166544
603.771	0.0168126
603.849	0.0167794
603.927	0.0167229
604.005	0.0166275
604.083	0.0168002
604.161	0.0168415
604.239	0.0166934
604.317	0.0166080
604.396	0.0165582
604.474	0.0166786
604.552	0.0166106
604.630	0.0166307
604.708	0.0166357
604.786	0.0166279
604.864	0.0167273
604.942	0.0167529
605.021	0.0167429
605.099	0.0168193
605.177	0.0166833
605.255	0.0167529
605.333	0.0167428
605.411	0.0166468
605.489	0.0167648
605.567	0.0167976
605.646	0.0166170
605.724	0.0165919
605.802	0.0167665
605.880	0.0166404
605.958	0.0167667
606.036	0.0168535
606.114	0.0168153
606.192	0.0166236
606.271	0.0166975
606.349	0.0166909
606.427	0.0166727
606.505	0.0167385
606.583	0.0166573
606.661	0.0166120
606.739	0.0166939
606.817	0.0167357
606.896	0.0168115
606.974	0.0167160
607.052	0.0167590
607.130	0.0167616
607.208	0.0167461
607.286	0.0166960
607.364	0.0166927
607.442	0.0167718
607.521	0.0166174
607.599	0.0167537
607.677	0.0167325
607.755	0.0166978
607.833	0.0167346
607.911	0.0167422
607.989	0.0167915
608.067	0.0166644
608.146	0.0167748
608.224	0.0166564
608.302	0.0168576
608.380	0.0168050
608.458	0.0166753
608.536	0.0166473
608.614	0.0167469
608.692	0.0167936
608.771	0.0166555
608.849	0.0167989
608.927	0.0168855
609.005	0.0166798
609.083	0.0166673
609.161	0.0166269
609.239	0.0167262
609.317	0.0167614
609.396	0.0168876
609.474	0.0168244
609.552	0.0166624
609.630	0.0168028
609.708	0.0167377
609.786	0.0166191
609.864	0.0167814
609.942	0.0167127
610.021	0.0167386
610.099	0.0166364
610.177	0.0168055
610.255	0.0167068
610.333	0.0166886
610.411	0.0166972
610.489	0.0167350
610.567	0.0167452
610.646	0.0167226
610.724	0.0167516
610.802	0.0167828
610.880	0.0166344
610.958	0.0165747
611.036	0.0167677
611.114	0.0167741
611.192	0.0165967
611.271	0.0166093
611.349	0.0166835
611.427	0.0166856
611.505	0.0166707
611.583	0.0168546
611.661	0.0166490
611.739	0.0166648
611.817	0.0167559
611.896	0.0167486
611.974	0.0168319
612.052	0.0166997
612.130	0.0167758
612.208	0.0168282
612.286	0.0166068
612.364	0.0167586
612.442	0.0167274
612.521	0.0166517
612.599	0.0167334
612.677	0.0167228
612.755	0.0166685
612.833	0.0166766
612.911	0.0166789
612.989	0.0166942
613.067	0.0166634
613.146	0.0166815
613.224	0.0167514
613.302	0.0167607
613.380	0.0167480
613.458	0.0165796
613.536	0.0168468
613.614	0.0168098
613.692	0.0167194
613.771	0.0168037
613.849	0.0167480
613.927	0.0167271
614.005	0.0166443
614.083	0.0166702
614.161	0.0168395
614.239	0.0166385
614.317	0.0166732
614.396	0.0168192
614.474	0.0167953
614.552	0.0167821
614.630	0.0166122
614.708	0.0166599
614.786	0.0165575
614.864	0.0167419
614.942	0.0166282
615.021	0.0167044
615.099	0.0167316
615.177	0.0166109
615.255	0.0166776
615.333	0.0166709
615.411	0.0167279
615.489	0.0166824
615.567	0.0166582
615.646	0.0166850
615.724	0.0166732
615.802	0.0166172
615.880	0.0166454
615.958	0.0167509
616.036	0.0167577
616.114	0.0167815
616.192	0.0167116
616.271	0.0166878
616.349	0.0167030
616.427	0.0168219
616.505	0.0166916
616.583	0.0166559
616.661	0.0167506
616.739	0.0167104
616.817	0.0168085
616.896	0.0167726
616.974	0.0166312
617.052	0.0166188
617.130	0.0167018
617.208	0.0166226
617.286	0.0166196
617.364	0.0167408
617.442	0.0167281
617.521	0.0166396
617.599	0.0166869
617.677	0.0167778
617.755	0.0166633
617.833	0.0165403
617.911	0.0166396
617.989	0.0167907
618.067	0.0168105
618.146	0.0166683
618.224	0.0166562
618.302	0.0166224
618.380	0.0166161
618.458	0.0167180
618.536	0.0167419
618.614	0.0168176
618.692	0.0167652
618.771	0.0166412
618.849	0.0167793
618.927	0.0166522
619.005	0.0167301
619.083	0.0167555
619.161	0.0167654
619.239	0.0166792
619.317	0.0167725
619.396	0.0167843
619.474	0.0166068
619.552	0.0167113
619.630	0.0167810
619.708	0.0167676
619.786	0.0166898
619.864	0.0167410
619.942	0.0166270
620.021	0.0166625
620.099	0.0167714
620.177	0.0168562
620.255	0.0167494
620.333	0.0166496
620.411	0.0166970
620.489	0.0166084
620.567	0.0166760
620.646	0.0165627
620.724	0.0167905
620.802	0.0168069
620.880	0.0167339
620.958	0.0166747
621.036	0.0166866
621.114	0.0167387
621.192	0.0166551
621.271	0.0167210
621.349	0.0167948
621.427	0.0166420
621.505	0.0166879
621.583	0.0168517
621.661	0.0167724
621.739	0.0166137
621.817	0.0167907
621.896	0.0166802
621.974	0.0166395
622.052	0.0168275
622.130	0.0166736
622.208	0.0167446
622.286	0.0165778
622.364	0.0166963
622.442	0.0166852
622.521	0.0167311
622.599	0.0167822
622.677	0.0166527
622.755	0.0165910
622.833	0.0167296
622.911	0.0167162
622.989	0.0167244
623.067	0.0167945
623.146	0.0166196
623.224	0.0167133
623.302	0.0167950
623.380	0.0167241
623.458	0.0168332
623.536	0.0167192
623.614	0.0167525
623.692	0.0167111
623.771	0.0165455
623.849	0.0167369
623.927	0.0167865
624.005	0.0167044
624.083	0.0167716
624.161	0.0166319
624.239	0.0167614
624.317	0.0168316
624.396	0.0166873
624.474	0.0167230
624.552	0.0166703
624.630	0.0168112
624.708	0.0168053
624.786	0.0167594
624.864	0.0167666
624.942	0.0166122
625.021	0.0166301
625.099	0.0166012
625.177	0.0167929
625.255	0.0167232
625.333	0.0166593
625.411	0.0166226
625.489	0.0167302
625.567	0.0167316
625.646	0.0167706
625.724	0.0166296
625.802	0.0166232
625.880	0.0165858
625.958	0.0167371
626.036	0.0167211
626.114	0.0167390
626.192	0.0168330
626.271	0.0165567
626.349	0.0167403
626.427	0.0167429
626.505	0.0167161
626.583	0.0166615
626.661	0.0165717
626.739	0.0167302
626.817	0.0167105
626.896	0.0167657
626.974	0.0168491
627.052	0.0166892
627.130	0.0168564
627.208	0.0166557
627.286	0.0167246
627.364	0.0167542
627.442	0.0167326
627.521	0.0167959
627.599	0.0167488
627.677	0.0167229
627.755	0.0166637
627.833	0.0167991
627.911	0.0167827
627.989	0.0166182
628.067	0.0166801
628.146	0.0167838
628.224	0.0168040
628.302	0.0168495
628.380	0.0166587
628.458	0.0167505
628.536	0.0165903
628.614	0.0165177
628.692	0.0167101
628.771	0.0167448
628.849	0.0164874
628.927	0.0166563
629.005	0.0167638
629.083	0.0166631
629.161	0.0165846
629.239	0.0166456
629.317	0.0165784
629.396	0.0167446
629.474	0.0167612
629.552	0.0165598
629.630	0.0165860
629.708	0.0166252
629.786	0.0166638
629.864	0.0166447
629.942	0.0168835
630.021	0.0166177
630.099	0.0167068
630.177	0.0167606
630.255	0.0167299
630.333	0.0167284
630.411	0.0168735
630.489	0.0167396
630.567	0.0168385
630.646	0.0165977
630.724	0.0166802
630.802	0.0168126
630.880	0.0166903
630.958	0.0166489
631.036	0.0167867
631.114	0.0166611
631.192	0.0167871
631.271	0.0166177
631.349	0.0167555
631.427	0.0167862
631.505	0.0166685
631.583	0.0166276
631.661	0.0167362
631.739	0.0167474
631.817	0.0167367
631.896	0.0168648
631.974	0.0166886
632.052	0.0167424
632.130	0.0167332
632.208	0.0165858
632.286	0.0168060
632.364	0.0166866
632.442	0.0166462
632.521	0.0166049
632.599	0.0166988
632.677	0.0167136
632.755	0.0166165
632.833	0.0166650
632.911	0.0166138
632.989	0.0165826
633.067	0.0167017
633.146	0.0165819
633.224	0.0166788
633.302	0.0166471
633.380	0.0168261
633.458	0.0166844
633.536	0.0167177
633.614	0.0167691
633.692	0.0167702
633.771	0.0165427
633.849	0.0167401
633.927	0.0168574
634.005	0.0168566
634.083	0.0166523
634.161	0.0166680
634.239	0.0167620
634.317	0.0167361
634.396	0.0165705
634.474	0.0166244
634.552	0.0166875
634.630	0.0167313
634.708	0.0166451
634.786	0.0167930
634.864	0.0167412
634.942	0.0167651
635.021	0.0167626
635.099	0.0167616
635.177	0.0167503
635.255	0.0166171
635.333	0.0166518
635.411	0.0168233
635.489	0.0166486
635.567	0.0166573
635.646	0.0165655
635.724	0.0166635
635.802	0.0166650
635.880	0.0166824
635.958	0.0165938
636.036	0.0165368
636.114	0.0165862
636.192	0.0166217
636.271	0.0166401
636.349	0.0166953
636.427	0.0166506
636.505	0.0166866
636.583	0.0166096
636.661	0.0165699
636.739	0.0166837
636.817	0.0166432
636.896	0.0166026
636.974	0.0167093
637.052	0.0166299
637.130	0.0167054
637.208	0.0166908
637.286	0.0166548
637.364	0.0166982
637.442	0.0166125
637.521	0.0166460
637.599	0.0167471
637.677	0.0167637
637.755	0.0168467
637.833	0.0167324
637.911	0.0167662
637.989	0.0166697
638.067	0.0166619
638.146	0.0166698
638.224	0.0166987
638.302	0.0167813
638.380	0.0168320
638.458	0.0167164
638.536	0.0168723
638.614	0.0167414
638.692	0.0166779
638.771	0.0166600
638.849	0.0167415
638.927	0.0165813
639.005	0.0165977
639.083	0.0166332
639.161	0.0166779
639.239	0.0165929
639.317	0.0166357
639.396	0.0168031
639.474	0.0166678
639.552	0.0166830
639.630	0.0166960
639.708	0.0165845
639.786	0.0165449
639.864	0.0167529
639.942	0.0166649
640.021	0.0167818
640.099	0.0166552
640.177	0.0167100
640.255	0.0165346
640.333	0.0166390
640.411	0.0165739
640.489	0.0165518
640.567	0.0166764
640.646	0.0165668
640.724	0.0166927
640.802	0.0167994
640.880	0.0165088
640.958	0.0166315
641.036	0.0167728
641.114	0.0167772
641.192	0.0167340
641.271	0.0167922
641.349	0.0166620
641.427	0.0166344
641.505	0.0168016
641.583	0.0166977
641.661	0.0167125
641.739	0.0167244
641.817	0.0167055
641.896	0.0166005
641.974	0.0167108
642.052	0.0167685
642.130	0.0166986
642.208	0.0166903
642.286	0.0167921
642.364	0.0168459
642.442	0.0165759
642.521	0.0165885
642.599	0.0166995
642.677	0.0165812
642.755	0.0166176
642.833	0.0169022
642.911	0.0167672
642.989	0.0166372
643.067	0.0166469
643.146	0.0166843
643.224	0.0167905
643.302	0.0166470
643.380	0.0166797
643.458	0.0168137
643.536	0.0167738
643.614	0.0167674
643.692	0.0166913
643.771	0.0166967
643.849	0.0167870
643.927	0.0167015
644.005	0.0166252
644.083	0.0166775
644.161	0.0169027
644.239	0.0166224
644.317	0.0167415
644.396	0.0167464
644.474	0.0168157
644.552	0.0166662
644.630	0.0166573
644.708	0.0166781
644.786	0.0166178
644.864	0.0166820
644.942	0.0167336
645.021	0.0167067
645.099	0.0167047
645.177	0.0167044
645.255	0.0167866
645.333	0.0167054
645.411	0.0167413
645.489	0.0167868
645.567	0.0166679
645.646	0.0166436
645.724	0.0166058
645.802	0.0167510
645.880	0.0166456
645.958	0.0167285
646.036	0.0168544
646.114	0.0166530
646.192	0.0166329
646.271	0.0168211
646.349	0.0165908
646.427	0.0168477
646.505	0.0167214
646.583	0.0167598
646.661	0.0168781
646.739	0.0168545
646.817	0.0166258
646.896	0.0166029
646.974	0.0167381
647.052	0.0167482
647.130	0.0167198
647.208	0.0167059
647.286	0.0168019
647.364	0.0166132
647.442	0.0164777
647.521	0.0167522
647.599	0.0166636
647.677	0.0167166
647.755	0.0165959
647.833	0.0167335
647.911	0.0167004
647.989	0.0166331
648.067	0.0167737
648.146	0.0166777
648.224	0.0165893
648.302	0.0167245
648.380	0.0166802
648.458	0.0167107
648.536	0.0168784
648.614	0.0166201
648.692	0.0167045
648.771	0.0167623
648.849	0.0167278
648.927	0.0167594
649.005	0.0167269
649.083	0.0166140
649.161	0.0167097
649.239	0.0166238
649.317	0.0167760
649.396	0.0168539
649.474	0.0166093
649.552	0.0166022
649.630	0.0167159
649.708	0.0166402
649.786	0.0165953
649.864	0.0167524
649.942	0.0167355
650.021	0.0166795
650.099	0.0166241
650.177	0.0166798
650.255	0.0167113
650.333	0.0168053
650.411	0.0167386
650.489	0.0166988
650.567	0.0167199
650.646	0.0166329
650.724	0.0167262
650.802	0.0166304
650.880	0.0165876
650.958	0.0166358
651.036	0.0168337
651.114	0.0168302
651.192	0.0166829
651.271	0.0167345
651.349	0.0166656
651.427	0.0166917
651.505	0.0168111
651.583	0.0166560
651.661	0.0166758
651.739	0.0167647
651.817	0.0167465
651.896	0.0166843
651.974	0.0166881
652.052	0.0166957
652.130	0.0167947
652.208	0.0167901
652.286	0.0168356
652.364	0.0165868
652.442	0.0166635
652.521	0.0166747
652.599	0.0167618
652.677	0.0168074
652.755	0.0166357
652.833	0.0167703
652.911	0.0166708
652.989	0.0167188
653.067	0.0166613
653.146	0.0165456
653.224	0.0167152
653.302	0.0167683
653.380	0.0167114
653.458	0.0166403
653.536	0.0166735
653.614	0.0166792
653.692	0.0166777
653.771	0.0167124
653.849	0.0168810
653.927	0.0167863
654.005	0.0167310
654.083	0.0167066
654.161	0.0167477
654.239	0.0166977
654.317	0.0168446
654.396	0.0166985
654.474	0.0166182
654.552	0.0167008
654.630	0.0167004
654.708	0.0166779
654.786	0.0167496
654.864	0.0168188
654.942	0.0166217
655.021	0.0166795
655.099	0.0167933
655.177	0.0166690
655.255	0.0166360
655.333	0.0166900
655.411	0.0167256
655.489	0.0167003
655.567	0.0166693
655.646	0.0167045
655.724	0.0167164
655.802	0.0168204
655.880	0.0167072
655.958	0.0166627
656.036	0.0165998
656.114	0.0167127
656.192	0.0165929
656.271	0.0166147
656.349	0.0167659
656.427	0.0166404
656.505	0.0166925
656.583	0.0167621
656.661	0.0166745
656.739	0.0167001
656.817	0.0168035
656.896	0.0167910
656.974	0.0167716
657.052	0.0166572
657.130	0.0167075
657.208	0.0166423
657.286	0.0167462
657.364	0.0167635
657.442	0.0167213
657.521	0.0167067
657.599	0.0168021
657.677	0.0168227
657.755	0.0167222
657.833	0.0167847
657.911	0.0167530
657.989	0.0168238
658.067	0.0168553
658.146	0.0165409
658.224	0.0167600
658.302	0.0167711
658.380	0.0167477
658.458	0.0166393
658.536	0.0167765
658.614	0.0167391
658.692	0.0167797
658.771	0.0167644
658.849	0.0166703
658.927	0.0167692
659.005	0.0166551
659.083	0.0166394
659.161	0.0168053
659.239	0.0167883
659.317	0.0166165
659.396	0.0166604
659.474	0.0166507
659.552	0.0168290
659.630	0.0167133
659.708	0.0166124
659.786	0.0167999
659.864	0.0166384
659.942	0.0166091
660.021	0.0166838
660.099	0.0166664
660.177	0.0167286
660.255	0.0167808
660.333	0.0166223
660.411	0.0166443
660.489	0.0167283
660.567	0.0166716
660.646	0.0167002
660.724	0.0166937
660.802	0.0167109
660.880	0.0166782
660.958	0.0166942
661.036	0.0167438
661.114	0.0166495
661.192	0.0167954
661.271	0.0166094
661.349	0.0166859
661.427	0.0168193
661.505	0.0166838
661.583	0.0166571
661.661	0.0166961
661.739	0.0166385
661.817	0.0166529
661.896	0.0166821
661.974	0.0168506
662.052	0.0167942
662.130	0.0168362
662.208	0.0166750
662.286	0.0166638
662.364	0.0166963
662.442	0.0166930
662.521	0.0167879
662.599	0.0166590
662.677	0.0166745
662.755	0.0167574
662.833	0.0166494
662.911	0.0168347
662.989	0.0165417
663.067	0.0167754
663.146	0.0167484
663.224	0.0167946
663.302	0.0166186
663.380	0.0167204
663.458	0.0168161
663.536	0.0167825
663.614	0.0167545
663.692	0.0167775
663.771	0.0167516
663.849	0.0167770
663.927	0.0167246
664.005	0.0167102
664.083	0.0167257
664.161	0.0167506
664.239	0.0167323
664.317	0.0166756
664.396	0.0167559
664.474	0.0165980
664.552	0.0166335
664.630	0.0166724
664.708	0.0166998
664.786	0.0167764
664.864	0.0165930
664.942	0.0167126
665.021	0.0166814
665.099	0.0166633
665.177	0.0168008
665.255	0.0167094
665.333	0.0167086
665.411	0.0165636
665.489	0.0166343
665.567	0.0167237
665.646	0.0167225
665.724	0.0165945
665.802	0.0166951
665.880	0.0167670
665.958	0.0166782
666.036	0.0168220
666.114	0.0167101
666.192	0.0167432
666.271	0.0166547
666.349	0.0166621
666.427	0.0166877
666.505	0.0167784
666.583	0.0167729
666.661	0.0166082
666.739	0.0167896
666.817	0.0167577
666.896	0.0165994
666.974	0.0167364
667.052	0.0165762
667.130	0.0167663
667.208	0.0168040
667.286	0.0166709
667.364	0.0167713
667.442	0.0166659
667.521	0.0166132
667.599	0.0167041
667.677	0.0166113
667.755	0.0167744
667.833	0.0166595
667.911	0.0165759
667.989	0.0166807
668.067	0.0166167
668.146	0.0166661
668.224	0.0166902
668.302	0.0167298
668.380	0.0167513
668.458	0.0167088
668.536	0.0167101
668.614	0.0167072
668.692	0.0167585
668.771	0.0167226
668.849	0.0166171
668.927	0.0167280
669.005	0.0166484
669.083	0.0166666
669.161	0.0166676
669.239	0.0167206
669.317	0.0166734
669.396	0.0166231
669.474	0.0166517
669.552	0.0167831
669.630	0.0166881
669.708	0.0166804
669.786	0.0167733
669.864	0.0167369
669.942	0.0167323
670.021	0.0167146
670.099	0.0167641
670.177	0.0166418
670.255	0.0166498
670.333	0.0167014
670.411	0.0168501
670.489	0.0167463
670.567	0.0167575
670.646	0.0167369
670.724	0.0165379
670.802	0.0167407
670.880	0.0166450
670.958	0.0166653
671.036	0.0167783
671.114	0.0166752
671.192	0.0167673
671.271	0.0165583
671.349	0.0167950
671.427	0.0167537
671.505	0.0166051
671.583	0.0167793
671.661	0.0167299
671.739	0.0166769
671.817	0.0166599
671.896	0.0166136
671.974	0.0168107
672.052	0.0166442
672.130	0.0167511
672.208	0.0167475
672.286	0.0166144
672.364	0.0166164
672.442	0.0166960
672.521	0.0167207
672.599	0.0165695
672.677	0.0167590
672.755	0.0166860
672.833	0.0167008
672.911	0.0165860
672.989	0.0167360
673.067	0.0166499
673.146	0.0166447
673.224	0.0168149
673.302	0.0166293
673.380	0.0165280
673.458	0.0166628
673.536	0.0166816
673.614	0.0168316
673.692	0.0166797
673.771	0.0165939
673.849	0.0166636
673.927	0.0167177
674.005	0.0165987
674.083	0.0168650
674.161	0.0167643
674.239	0.0166362
674.317	0.0166507
674.396	0.0167384
674.474	0.0166162
674.552	0.0167798
674.630	0.0166530
674.708	0.0166898
674.786	0.0166293
674.864	0.0166652
674.942	0.0167294
675.021	0.0167422
675.099	0.0167802
675.177	0.0166577
675.255	0.0166432
675.333	0.0167131
675.411	0.0165057
675.489	0.0167427
675.567	0.0166204
675.646	0.0166035
675.724	0.0167373
675.802	0.0167501
675.880	0.0167058
675.958	0.0167989
676.036	0.0165945
676.114	0.0166775
676.192	0.0167643
676.271	0.0165714
676.349	0.0166167
676.427	0.0167784
676.505	0.0167403
676.583	0.0166350
676.661	0.0167126
676.739	0.0167662
676.817	0.0167966
676.896	0.0167868
676.974	0.0167046
677.052	0.0166523
677.130	0.0167513
677.208	0.0167367
677.286	0.0166905
677.364	0.0168005
677.442	0.0166960
677.521	0.0167260
677.599	0.0166993
677.677	0.0167032
677.755	0.0167625
677.833	0.0167777
677.911	0.0168210
677.989	0.0166564
678.067	0.0167152
678.146	0.0167049
678.224	0.0166914
678.302	0.0167002
678.380	0.0166315
678.458	0.0167397
678.536	0.0167068
678.614	0.0167281
678.692	0.0169271
678.771	0.0168668
678.849	0.0167161
678.927	0.0165586
679.005	0.0166581
679.083	0.0166628
679.161	0.0167461
679.239	0.0166901
679.317	0.0167313
679.396	0.0166148
679.474	0.0167741
679.552	0.0165478
679.630	0.0166363
679.708	0.0167104
679.786	0.0167525
679.864	0.0167071
679.942	0.0165376
680.021	0.0166803
680.099	0.0168274
680.177	0.0167458
680.255	0.0167427
680.333	0.0166898
680.411	0.0167259
680.489	0.0167823
680.567	0.0167855
680.646	0.0166232
680.724	0.0166246
680.802	0.0167647
680.880	0.0168163
680.958	0.0166055
681.036	0.0166872
681.114	0.0167205
681.192	0.0166089
681.271	0.0167056
681.349	0.0166871
681.427	0.0166798
681.505	0.0167492
681.583	0.0167413
681.661	0.0166828
681.739	0.0166221
681.817	0.0167314
681.896	0.0168163
681.974	0.0166627
682.052	0.0167461
682.130	0.0166699
682.208	0.0167379
682.286	0.0167123
682.364	0.0166946
682.442	0.0167590
682.521	0.0167124
682.599	0.0166441
682.677	0.0166548
682.755	0.0166438
682.833	0.0166531
682.911	0.0166695
682.989	0.0167467
683.067	0.0167149
683.146	0.0166692
683.224	0.0166718
683.302	0.0167905
683.380	0.0168380
683.458	0.0166946
683.536	0.0167960
683.614	0.0167269
683.692	0.0167300
683.771	0.0168058
683.849	0.0167213
683.927	0.0168560
684.005	0.0166322
684.083	0.0165847
684.161	0.0167744
684.239	0.0168172
684.317	0.0166705
684.396	0.0167071
684.474	0.0168252
684.552	0.0165701
684.630	0.0166373
684.708	0.0167058
684.786	0.0166023
684.864	0.0166132
684.942	0.0166133
685.021	0.0166486
685.099	0.0167345
685.177	0.0167100
685.255	0.0168236
685.333	0.0165514
685.411	0.0167219
685.489	0.0167390
685.567	0.0166650
685.646	0.0168231
685.724	0.0167177
685.802	0.0166746
685.880	0.0166368
685.958	0.0165066
686.036	0.0167175
686.114	0.0167391
686.192	0.0166273
686.271	0.0167354
686.349	0.0167146
686.427	0.0166952
686.505	0.0167895
686.583	0.0167089
686.661	0.0166319
686.739	0.0167525
686.817	0.0167989
686.896	0.0166606
686.974	0.0165842
687.052	0.0166812
687.130	0.0167384
687.208	0.0167297
687.286	0.0166527
687.364	0.0166676
687.442	0.0167819
687.521	0.0167414
687.599	0.0166727
687.677	0.0167534
687.755	0.0166853
687.833	0.0166428
687.911	0.0166065
687.989	0.0167411
688.067	0.0168064
688.146	0.0167176
688.224	0.0165948
688.302	0.0166004
688.380	0.0164855
688.458	0.0167155
688.536	0.0166445
688.614	0.0166005
688.692	0.0166940
688.771	0.0165028
688.849	0.0166447
688.927	0.0166637
689.005	0.0165739
689.083	0.0166161
689.161	0.0167245
689.239	0.0165773
689.317	0.0166956
689.396	0.0166636
689.474	0.0166788
689.552	0.0167007
689.630	0.0167883
689.708	0.0166829
689.786	0.0166303
689.864	0.0166601
689.942	0.0167080
690.021	0.0165851
690.099	0.0166312
690.177	0.0166383
690.255	0.0166112
690.333	0.0166988
690.411	0.0167683
690.489	0.0165948
690.567	0.0166308
690.646	0.0166149
690.724	0.0165929
690.802	0.0166421
690.880	0.0166959
690.958	0.0166566
691.036	0.0167078
691.114	0.0165331
691.192	0.0166380
691.271	0.0166756
691.349	0.0166090
691.427	0.0166801
691.505	0.0166875
691.583	0.0167584
691.661	0.0168792
691.739	0.0168563
691.817	0.0168343
691.896	0.0168946
691.974	0.0169943
692.052	0.0167686
692.130	0.0168502
692.208	0.0168435
692.286	0.0167850
692.364	0.0167835
692.442	0.0166618
692.521	0.0164882
692.599	0.0165061
692.677	0.0165142
692.755	0.0164825
692.833	0.0164250
692.911	0.0165572
692.989	0.0165192
693.067	0.0168584
693.146	0.0168278
693.224	0.0167492
693.302	0.0169725
693.380	0.0170412
693.458	0.0169749
693.536	0.0170609
693.614	0.0170285
693.692	0.0169322
693.771	0.0166552
693.849	0.0165669
693.927	0.0165308
694.005	0.0163223
694.083	0.0160275
694.161	0.0160758
694.239	0.0162203
694.317	0.0161761
694.396	0.0163652
694.474	0.0165533
694.552	0.0167398
694.630	0.0167377
694.708	0.0171774
694.786	0.0174489
694.864	0.0174272
694.942	0.0175952
695.021	0.0175485
695.099	0.0173106
695.177	0.0171320
695.255	0.0169130
695.333	0.0165131
695.411	0.0163342
695.489	0.0160826
695.567	0.0158733
695.646	0.0156361
695.724	0.0158305
695.802	0.0159599
695.880	0.0160747
695.958	0.0161961
696.036	0.0166510
696.114	0.0170769
696.192	0.0172167
696.271	0.0176006
696.349	0.0175726
696.427	0.0177906
696.505	0.0178920
696.583	0.0176308
696.661	0.0172348
696.739	0.0169695
696.817	0.0166319
696.896	0.0162744
696.974	0.0159087
697.052	0.0157748
697.130	0.0154313
697.208	0.0154980
697.286	0.0155531
697.364	0.0155767
697.442	0.0158057
697.521	0.0160448
697.599	0.0164244
697.677	0.0166022
697.755	0.0168819
697.833	0.0170969
697.911	0.0171709
697.989	0.0173091
698.067	0.0172343
698.146	0.0172855
698.224	0.0172652
698.302	0.0170046
698.380	0.0169040
698.458	0.0167989
698.536	0.0167716
698.614	0.0165459
698.692	0.0163782
698.771	0.0166396
698.849	0.0165812
698.927	0.0166906
699.005	0.0169379
699.083	0.0170759
699.161	0.0174251
699.239	0.0175702
699.317	0.0177298
699.396	0.0180434
699.474	0.0178911
699.552	0.0179866
699.630	0.0178965
699.708	0.0177402
699.786	0.0174513
699.864	0.0171574
699.942	0.0166888
700.021	0.0163567
700.099	0.0158408
700.177	0.0157132
700.255	0.0153886
700.333	0.0153520
700.411	0.0149545
700.489	0.0149415
700.567	0.0150378
700.646	0.0149299
700.724	0.0149811
700.802	0.0152026
700.880	0.0154128
700.958	0.0153173
701.036	0.0156980
701.114	0.0159415
701.192	0.0159971
701.271	0.0161259
701.349	0.0162752
701.427	0.0167397
701.505	0.0171393
701.583	0.0172615
701.661	0.0175939
701.739	0.0180429
701.817	0.0184802
701.896	0.0184375
701.974	0.0184685
702.052	0.0184985
702.130	0.0184306
702.208	0.0183139
702.286	0.0180264
702.364	0.0177917
702.442	0.0174200
702.521	0.0169386
702.599	0.0170157
702.677	0.0167022
702.755	0.0167841
702.833	0.0169878
702.911	0.0171797
702.989	0.0174547
703.067	0.0178291
703.146	0.0182457
703.224	0.0184548
703.302	0.0187124
703.380	0.0188158
703.458	0.0188648
703.536	0.0186012
703.614	0.0184036
703.692	0.0180009
703.771	0.0173751
703.849	0.0167453
703.927	0.0159284
704.005	0.0153489
704.083	0.0146478
704.161	0.0141609
704.239	0.0134865
704.317	0.0130378
704.396	0.0127522
704.474	0.0124262
704.552	0.0124158
704.630	0.0124194
704.708	0.0123087
704.786	0.0126517
704.864	0.0127839
704.942	0.0130780
705.021	0.0136034
705.099	0.0138483
705.177	0.0144799
705.255	0.0149769
705.333	0.0157285
705.411	0.0165513
705.489	0.0170903
705.567	0.0176239
705.646	0.0182755
705.724	0.0188308
705.802	0.0192959
705.880	0.0197063
705.958	0.0199039
706.036	0.0201675
706.114	0.0202106
706.192	0.0204230
706.271	0.0205630
706.349	0.0208195
706.427	0.0208720
706.505	0.0211601
706.583	0.0214594
706.661	0.0218603
706.739	0.0223143
706.817	0.0227248
706.896	0.0231479
706.974	0.0233396
707.052	0.0235779
707.130	0.0234254
707.208	0.0229271
707.286	0.0223825
707.364	0.0215886
707.442	0.0201554
707.521	0.0185057
707.599	0.0168017
707.677	0.0151569
707.755	0.0130734
707.833	0.0109884
707.911	0.00926147
707.989	0.00742691
708.067	0.00578636
708.146	0.00464417
708.224	0.00385002
708.302	0.00327446
708.380	0.00319740
708.458	0.00352051
708.536	0.00423096
708.614	0.00509933
708.692	0.00630623
708.771	0.00771179
708.849	0.00930450
708.927	0.0112041
709.005	0.0131326
709.083	0.0150613
709.161	0.0170488
709.239	0.0188416
709.317	0.0206642
709.396	0.0221236
709.474	0.0234174
709.552	0.0243195
709.630	0.0250368
709.708	0.0255109
709.786	0.0259402
709.864	0.0261374
709.942	0.0261245
710.021	0.0259905
710.099	0.0260079
710.177	0.0260489
710.255	0.0261311
710.333	0.0259460
710.411	0.0258393
710.489	0.0259295
710.567	0.0255621
710.646	0.0250849
710.724	0.0241432
710.802	0.0230724
710.880	0.0219711
710.958	0.0203652
711.036	0.0185944
711.114	0.0169210
711.192	0.0151520
711.271	0.0134879
711.349	0.0119739
711.427	0.0104054
711.505	0.00917763
711.583	0.00841225
711.661	0.00743027
711.739	0.00675125
711.817	0.00622139
711.896	0.00591667
711.974	0.00560135
712.052	0.00550240
712.130	0.00561440
712.208	0.00600479
712.286	0.00686081
712.364	0.00754539
712.442	0.00857559
712.521	0.00994652
712.599	0.0114401
712.677	0.0130079
712.755	0.0145051
712.833	0.0159685
712.911	0.0175080
712.989	0.0188470
713.067	0.0198618
713.146	0.0207737
713.224	0.0215018
713.302	0.0222159
713.380	0.0227274
713.458	0.0230125
713.536	0.0234636
713.614	0.0238488
713.692	0.0240482
713.771	0.0244132
713.849	0.0247707
713.927	0.0251009
714.005	0.0250291
714.083	0.0249091
714.161	0.0248064
714.239	0.0242379
714.317	0.0235538
714.396	0.0228667
714.474	0.0217689
714.552	0.0205608
714.630	0.0193494
714.708	0.0179211
714.786	0.0164552
714.864	0.0151212
714.942	0.0138332
715.021	0.0125726
715.099	0.0115762
715.177	0.0107799
715.255	0.0100931
715.333	0.00946083
715.411	0.00906021
715.489	0.00867104
715.567	0.00865021
715.646	0.00866135
715.724	0.00850868
715.802	0.00891441
715.880	0.00924751
715.958	0.00987915
716.036	0.0103223
716.114	0.0110550
716.192	0.0120570
716.271	0.0130960
716.349	0.0140633
716.427	0.0152036
716.505	0.0163365
716.583	0.0177286
716.661	0.0188313
716.739	0.0198560
716.817	0.0208841
716.896	0.0217885
716.974	0.0226942
717.052	0.0235475
717.130	0.0240467
717.208	0.0245097
717.286	0.0249216
717.364	0.0250892
717.442	0.0250501
717.521	0.0249907
717.599	0.0246881
717.677	0.0240115
717.755	0.0233175
717.833	0.0224042
717.911	0.0214288
717.989	0.0202203
718.067	0.0190183
718.146	0.0179007
718.224	0.0164983
718.302	0.0154926
718.380	0.0143777
718.458	0.0134647
718.536	0.0126711
718.614	0.0120592
718.692	0.0114006
718.771	0.0111224
718.849	0.0108900
718.927	0.0105605
719.005	0.0105437
719.083	0.0104792
719.161	0.0104826
719.239	0.0104924
719.317	0.0107277
719.396	0.0107053
719.474	0.0110783
719.552	0.0114290
719.630	0.0118350
719.708	0.0123450
719.786	0.0127267
719.864	0.0132625
719.942	0.0139240
720.021	0.0145985
720.099	0.0153408
720.177	0.0159297
720.255	0.0168899
720.333	0.0177686
720.411	0.0184986
720.489	0.0192533
720.567	0.0202273
720.646	0.0210139
720.724	0.0217036
720.802	0.0224455
720.880	0.0229140
720.958	0.0232106
721.036	0.0235323
721.114	0.0237206
721.192	0.0235113
721.271	0.0230428
721.349	0.0226640
721.427	0.0221080
721.505	0.0213722
721.583	0.0207264
721.661	0.0197808
721.739	0.0189499
721.817	0.0180000
721.896	0.0170770
721.974	0.0162827
722.052	0.0156126
722.130	0.0149738
722.208	0.0144120
722.286	0.0139829
722.364	0.0136028
722.442	0.0134574
722.521	0.0132566
722.599	0.0131521
722.677	0.0130332
722.755	0.0131934
722.833	0.0133875
722.911	0.0134875
722.989	0.0136288
723.067	0.0138825
723.146	0.0141354
723.224	0.0143834
723.302	0.0146500
723.380	0.0150761
723.458	0.0153202
723.536	0.0156922
723.614	0.0159494
723.692	0.0163402
723.771	0.0164031
723.849	0.0167072
723.927	0.0168777
724.005	0.0172121
724.083	0.0174556
724.161	0.0175806
724.239	0.0177561
724.317	0.0179858
724.396	0.0180344
724.474	0.0181348
724.552	0.0182288
724.630	0.0182708
724.708	0.0182335
724.786	0.0183626
724.864	0.0183072
724.942	0.0181615
725.021	0.0178973
725.099	0.0177254
725.177	0.0175244
725.255	0.0173240
725.333	0.0170200
725.411	0.0167436
725.489	0.0164388
725.567	0.0162753
725.646	0.0159447
725.724	0.0158150
725.802	0.0155438
725.880	0.0153469
725.958	0.0150985
726.036	0.0150888
726.114	0.0150861
726.192	0.0150937
726.271	0.0150531
726.349	0.0150359
726.427	0.0149246
726.505	0.0149696
726.583	0.0151558
726.661	0.0153941
726.739	0.0155487
726.817	0.0158900
726.896	0.0162532
726.974	0.0165926
727.052	0.0167912
727.130	0.0171130
727.208	0.0174181
727.286	0.0176898
727.364	0.0180414
727.442	0.0183398
727.521	0.0187601
727.599	0.0187679
727.677	0.0188382
727.755	0.0189806
727.833	0.0190520
727.911	0.0191489
727.989	0.0190794
728.067	0.0190416
728.146	0.0187089
728.224	0.0185252
728.302	0.0182465
728.380	0.0180180
728.458	0.0176482
728.536	0.0171973
728.614	0.0169183
728.692	0.0163652
728.771	0.0161250
728.849	0.0159293
728.927	0.0156615
729.005	0.0154411
729.083	0.0152426
729.161	0.0152888
729.239	0.0152895
729.317	0.0152384
729.396	0.0153096
729.474	0.0155961
729.552	0.0155511
729.630	0.0156503
729.708	0.0158144
729.786	0.0158767
729.864	0.0159438
729.942	0.0160471
730.021	0.0161045
730.099	0.0160361
730.177	0.0161128
730.255	0.0161936
730.333	0.0161864
730.411	0.0162014
730.489	0.0162386
730.567	0.0162470
730.646	0.0162553
730.724	0.0163173
730.802	0.0166098
730.880	0.0166019
730.958	0.0168013
731.036	0.0167564
731.114	0.0171241
731.192	0.0171092
731.271	0.0172769
731.349	0.0173902
731.427	0.0176311
731.505	0.0175871
731.583	0.0175937
731.661	0.0175993
731.739	0.0176229
731.817	0.0174399
731.896	0.0173386
731.974	0.0171937
732.052	0.0169384
732.130	0.0167532
732.208	0.0166798
732.286	0.0165171
732.364	0.0162541
732.442	0.0162482
732.521	0.0162231
732.599	0.0160964
732.677	0.0161722
732.755	0.0161825
732.833	0.0163367
732.911	0.0163531
732.989	0.0166675
733.067	0.0168832
733.146	0.0169820
733.224	0.0170837
733.302	0.0173632
733.380	0.0174814
733.458	0.0173507
733.536	0.0174995
733.614	0.0176579
733.692	0.0176658
733.771	0.0175104
733.849	0.0174943
733.927	0.0174358
734.005	0.0172120
734.083	0.0171294
734.161	0.0169969
734.239	0.0168748
734.317	0.0167858
734.396	0.0166605
734.474	0.0165275
734.552	0.0165564
734.630	0.0164053
734.708	0.0164183
734.786	0.0164622
734.864	0.0165565
734.942	0.0164203
735.021	0.0163640
735.099	0.0163027
735.177	0.0162407
735.255	0.0160173
735.333	0.0158886
735.411	0.0160062
735.489	0.0158278
735.567	0.0157938
735.646	0.0157682
735.724	0.0156791
735.802	0.0157117
735.880	0.0155074
735.958	0.0153486
736.036	0.0155196
736.114	0.0155238
736.192	0.0156351
736.271	0.0157658
736.349	0.0159200
736.427	0.0161929
736.505	0.0164473
736.583	0.0167297
736.661	0.0169682
736.739	0.0173692
736.817	0.0178300
736.896	0.0179534
736.974	0.0181375
737.052	0.0183206
737.130	0.0184609
737.208	0.0185148
737.286	0.0184939
737.364	0.0185108
737.442	0.0183890
737.521	0.0183355
737.599	0.0182981
737.677	0.0180885
737.755	0.0179462
737.833	0.0175211
737.911	0.0173400
737.989	0.0171468
738.067	0.0171728
738.146	0.0170003
738.224	0.0170264
738.302	0.0168917
738.380	0.0168642
738.458	0.0168275
738.536	0.0166600
738.614	0.0166195
738.692	0.0163457
738.771	0.0162877
738.849	0.0161488
738.927	0.0158532
739.005	0.0155756
739.083	0.0153014
739.161	0.0151316
739.239	0.0151488
739.317	0.0148833
739.396	0.0149838
739.474	0.0146472
739.552	0.0145673
739.630	0.0147796
739.708	0.0148355
739.786	0.0151071
739.864	0.0153040
739.942	0.0155303
740.021	0.0158640
740.099	0.0160258
740.177	0.0163397
740.255	0.0165298
740.333	0.0167657
740.411	0.0169346
740.489	0.0170724
740.567	0.0171647
740.646	0.0173962
740.724	0.0174508
740.802	0.0175139
740.880	0.0175109
740.958	0.0175659
741.036	0.0175658
741.114	0.0175208
741.192	0.0176743
741.271	0.0175838
741.349	0.0175799
741.427	0.0176376
741.505	0.0177947
741.583	0.0178535
741.661	0.0179456
741.739	0.0179778
741.817	0.0180887
741.896	0.0181131
741.974	0.0182051
742.052	0.0180857
742.130	0.0181860
742.208	0.0181347
742.286	0.0179770
742.364	0.0178362
742.442	0.0177953
742.521	0.0175724
742.599	0.0172952
742.677	0.0169876
742.755	0.0168642
742.833	0.0166779
742.911	0.0164194
742.989	0.0161347
743.067	0.0158835
743.146	0.0157623
743.224	0.0157104
743.302	0.0155669
743.380	0.0153245
743.458	0.0153279
743.536	0.0153802
743.614	0.0154274
743.692	0.0152966
743.771	0.0152740
743.849	0.0155936
743.927	0.0156986
744.005	0.0158833
744.083	0.0160548
744.161	0.0161462
744.239	0.0161675
744.317	0.0162915
744.396	0.0164665
744.474	0.0165352
744.552	0.0166241
744.630	0.0166908
744.708	0.0168541
744.786	0.0171479
744.864	0.0170222
744.942	0.0171069
745.021	0.0174908
745.099	0.0172954
745.177	0.0172825
745.255	0.0175651
745.333	0.0173982
745.411	0.0175198
745.489	0.0175357
745.567	0.0175241
745.646	0.0176015
745.724	0.0175342
745.802	0.0175506
745.880	0.0176556
745.958	0.0174627
746.036	0.0173836
746.114	0.0172449
746.192	0.0171531
746.271	0.0169250
746.349	0.0169698
746.427	0.0167804
746.505	0.0164963
746.583	0.0162314
746.661	0.0161270
746.739	0.0160718
746.817	0.0157498
746.896	0.0154475
746.974	0.0154346
747.052	0.0155353
747.130	0.0154800
747.208	0.0155375
747.286	0.0155436
747.364	0.0156325
747.442	0.0156955
747.521	0.0157970
747.599	0.0157773
747.677	0.0161195
747.755	0.0161917
747.833	0.0164230
747.911	0.0165119
747.989	0.0165764
748.067	0.0167257
748.146	0.0166701
748.224	0.0168637
748.302	0.0168539
748.380	0.0169073
748.458	0.0168737
748.536	0.0168406
748.614	0.0170386
748.692	0.0170653
748.771	0.0170531
748.849	0.0171139
748.927	0.0173232
749.005	0.0173835
749.083	0.0173952
749.161	0.0174789
749.239	0.0174961
749.317	0.0177509
749.396	0.0177059
749.474	0.0177048
749.552	0.0178360
749.630	0.0178421
749.708	0.0178352
749.786	0.0178152
749.864	0.0177809
749.942	0.0175059
750.021	0.0174019
750.099	0.0173953
750.177	0.0172182
750.255	0.0171355
750.333	0.0168041
750.411	0.0166492
750.489	0.0165226
750.567	0.0163207
750.646	0.0162270
750.724	0.0161536
750.802	0.0159797
750.880	0.0156779
750.958	0.0158044
751.036	0.0157109
751.114	0.0156400
751.192	0.0156390
751.271	0.0156474
751.349	0.0156635
751.427	0.0157164
751.505	0.0158829
751.583	0.0158847
751.661	0.0160418
751.739	0.0159435
751.817	0.0158490
751.896	0.0159016
751.974	0.0159702
752.052	0.0159576
752.130	0.0160236
752.208	0.0160676
752.286	0.0161147
752.364	0.0161881
752.442	0.0163151
752.521	0.0165429
752.599	0.0166765
752.677	0.0168563
752.755	0.0170592
752.833	0.0172142
752.911	0.0173351
752.989	0.0174303
753.067	0.0176167
753.146	0.0175217
753.224	0.0176476
753.302	0.0177670
753.380	0.0176678
753.458	0.0175152
753.536	0.0176308
753.614	0.0173452
753.692	0.0173107
753.771	0.0172221
753.849	0.0172485
753.927	0.0171590
754.005	0.0170050
754.083	0.0169370
754.161	0.0167319
754.239	0.0167006
754.317	0.0166230
754.396	0.0166158
754.474	0.0165868
754.552	0.0164283
754.630	0.0163835
754.708	0.0164118
754.786	0.0160867
754.864	0.0160798
754.942	0.0158425
755.021	0.0159162
755.099	0.0157465
755.177	0.0156481
755.255	0.0156963
755.333	0.0157198
755.411	0.0155795
755.489	0.0158141
755.567	0.0160180
755.646	0.0161063
755.724	0.0163197
755.802	0.0165232
755.880	0.0167861
755.958	0.0167956
756.036	0.0171803
756.114	0.0171834
756.192	0.0174763
756.271	0.0177020
756.349	0.0178819
756.427	0.0179638
756.505	0.0178594
756.583	0.0178931
756.661	0.0177831
756.739	0.0177971
756.817	0.0176578
756.896	0.0173405
756.974	0.0170942
757.052	0.0168537
757.130	0.0167113
757.208	0.0166490
757.286	0.0163136
757.364	0.0160771
757.442	0.0159623
757.521	0.0159630
757.599	0.0159051
757.677	0.0159172
757.755	0.0160094
757.833	0.0159483
757.911	0.0162085
757.989	0.0162693
758.067	0.0163855
758.146	0.0164857
758.224	0.0166624
758.302	0.0166127
758.380	0.0167008
758.458	0.0168307
758.536	0.0168102
758.614	0.0167079
758.692	0.0166749
758.771	0.0166054
758.849	0.0166032
758.927	0.0166802
759.005	0.0165835
759.083	0.0166442
759.161	0.0167176
759.239	0.0167436
759.317	0.0168512
759.396	0.0169038
759.474	0.0169583
759.552	0.0172615
759.630	0.0172050
759.708	0.0173198
759.786	0.0174413
759.864	0.0175256
759.942	0.0174883
760.021	0.0174869
760.099	0.0174198
760.177	0.0174508
760.255	0.0173207
760.333	0.0171340
760.411	0.0169782
760.489	0.0166865
760.567	0.0166386
760.646	0.0166375
760.724	0.0162939
760.802	0.0161723
760.880	0.0161265
760.958	0.0161983
761.036	0.0159180
761.114	0.0159161
761.192	0.0159712
761.271	0.0160712
761.349	0.0159536
761.427	0.0161082
761.505	0.0163279
761.583	0.0163734
761.661	0.0164822
761.739	0.0165488
761.817	0.0164900
761.896	0.0166982
761.974	0.0167342
762.052	0.0167297
762.130	0.0168223
762.208	0.0170138
762.286	0.0169719
762.364	0.0169591
762.442	0.0173299
762.521	0.0171288
762.599	0.0171137
762.677	0.0171964
762.755	0.0171117
762.833	0.0172797
762.911	0.0173441
762.989	0.0171799
763.067	0.0172399
763.146	0.0171910
763.224	0.0171141
763.302	0.0171740
763.380	0.0170141
763.458	0.0169930
763.536	0.0168319
763.614	0.0167455
763.692	0.0167195
763.771	0.0166440
763.849	0.0167067
763.927	0.0165728
764.005	0.0164308
764.083	0.0162779
764.161	0.0163142
764.239	0.0163995
764.317	0.0163547
764.396	0.0164122
764.474	0.0162386
764.552	0.0163085
764.630	0.0163690
764.708	0.0163142
764.786	0.0164850
764.864	0.0165546
764.942	0.0167416
765.021	0.0165730
765.099	0.0166500
765.177	0.0167077
765.255	0.0169108
765.333	0.0168460
765.411	0.0168969
765.489	0.0169133
765.567	0.0168337
765.646	0.0169086
765.724	0.0169089
765.802	0.0168854
765.880	0.0169431
765.958	0.0167525
766.036	0.0169016
766.114	0.0170283
766.192	0.0170257
766.271	0.0171945
766.349	0.0171142
766.427	0.0171220
766.505	0.0171375
766.583	0.0173316
766.661	0.0171720
766.739	0.0170908
766.817	0.0171769
766.896	0.0171224
766.974	0.0171596
767.052	0.0169781
767.130	0.0168930
767.208	0.0168824
767.286	0.0168462
767.364	0.0166581
767.442	0.0167716
767.521	0.0167222
767.599	0.0166589
767.677	0.0165054
767.755	0.0164870
767.833	0.0164056
767.911	0.0165375
767.989	0.0165650
768.067	0.0167056
768.146	0.0165685
768.224	0.0166942
768.302	0.0167357
768.380	0.0166525
768.458	0.0166399
768.536	0.0167374
768.614	0.0167994
768.692	0.0165372
768.771	0.0166653
768.849	0.0168157
768.927	0.0167120
769.005	0.0166579
769.083	0.0165770
769.161	0.0165498
769.239	0.0164473
769.317	0.0165137
769.396	0.0165331
769.474	0.0165002
769.552	0.0165079
769.630	0.0165511
769.708	0.0165502
769.786	0.0165276
769.864	0.0166303
769.942	0.0166404
770.021	0.0166915
770.099	0.0167229
770.177	0.0166212
770.255	0.0167141
770.333	0.0169258
770.411	0.0167502
770.489	0.0167799
770.567	0.0168050
770.646	0.0168515
770.724	0.0168368
770.802	0.0168684
770.880	0.0166939
770.958	0.0167837
771.036	0.0167595
771.114	0.0166405
771.192	0.0167756
771.271	0.0166872
771.349	0.0166953
771.427	0.0167098
771.505	0.0167029
771.583	0.0168697
771.661	0.0167336
771.739	0.0167641
771.817	0.0167465
771.896	0.0167739
771.974	0.0168129
772.052	0.0167002
772.130	0.0168484
772.208	0.0168884
772.286	0.0168169
772.364	0.0167237
772.442	0.0168679
772.521	0.0167338
772.599	0.0167340
772.677	0.0167758
772.755	0.0166161
772.833	0.0168465
772.911	0.0168003
772.989	0.0167757
773.067	0.0167692
773.146	0.0168040
773.224	0.0167410
773.302	0.0169831
773.380	0.0167226
773.458	0.0167842
773.536	0.0168398
773.614	0.0169629
773.692	0.0169941
773.771	0.0169208
773.849	0.0169937
773.927	0.0168478
774.005	0.0167908
774.083	0.0168517
774.161	0.0169109
774.239	0.0168382
774.317	0.0167019
774.396	0.0166769
774.474	0.0167289
774.552	0.0167574
774.630	0.0167725
774.708	0.0166643
774.786	0.0166419
774.864	0.0165432
774.942	0.0165693
775.021	0.0167416
775.099	0.0163902
775.177	0.0163245
775.255	0.0163394
775.333	0.0163003
775.411	0.0162339
775.489	0.0162370
775.567	0.0163013
775.646	0.0163401
775.724	0.0162526
775.802	0.0163060
775.880	0.0161557
775.958	0.0164177
776.036	0.0164589
776.114	0.0163806
776.192	0.0164336
776.271	0.0163184
776.349	0.0165379
776.427	0.0165475
776.505	0.0164822
776.583	0.0165181
776.661	0.0165356
776.739	0.0166819
776.817	0.0167345
776.896	0.0165964
776.974	0.0166166
777.052	0.0166998
777.130	0.0169057
777.208	0.0167702
777.286	0.0167878
777.364	0.0170531
777.442	0.0169505
777.521	0.0169470
777.599	0.0171251
777.677	0.0171083
777.755	0.0171338
777.833	0.0171539
777.911	0.0172816
777.989	0.0172043
778.067	0.0171762
778.146	0.0171478
778.224	0.0173957
778.302	0.0171955
778.380	0.0170335
778.458	0.0171485
778.536	0.0168373
778.614	0.0169392
778.692	0.0166732
778.771	0.0165324
778.849	0.0164771
778.927	0.0163529
779.005	0.0163242
779.083	0.0160681
779.161	0.0161330
779.239	0.0160942
779.317	0.0160878
779.396	0.0160802
779.474	0.0160215
779.552	0.0161131
779.630	0.0163139
779.708	0.0162163
779.786	0.0164099
779.864	0.0163966
779.942	0.0164826
780.021	0.0164938
780.099	0.0165448
780.177	0.0165309
780.255	0.0166575
780.333	0.0167146
780.411	0.0165834
780.489	0.0164970
780.567	0.0165037
780.646	0.0167238
780.724	0.0164911
780.802	0.0166540
780.880	0.0165771
780.958	0.0168289
781.036	0.0167989
781.114	0.0168194
781.192	0.0168198
781.271	0.0170428
781.349	0.0169062
781.427	0.0169213
781.505	0.0169463
781.583	0.0169003
781.661	0.0168178
781.739	0.0170031
781.817	0.0170457
781.896	0.0169170
781.974	0.0170857
782.052	0.0169421
782.130	0.0169859
782.208	0.0170333
782.286	0.0166620
782.364	0.0169125
782.442	0.0168059
782.521	0.0166967
782.599	0.0167444
782.677	0.0163800
782.755	0.0165427
782.833	0.0165009
782.911	0.0165090
782.989	0.0166629
783.067	0.0165176
783.146	0.0166663
783.224	0.0166085
783.302	0.0166111
783.380	0.0166641
783.458	0.0165897
783.536	0.0166284
783.614	0.0168705
783.692	0.0166993
783.771	0.0166891
783.849	0.0168017
783.927	0.0166301
784.005	0.0166888
784.083	0.0166955
784.161	0.0167150
784.239	0.0166203
784.317	0.0165454
784.396	0.0165578
784.474	0.0165896
784.552	0.0165257
784.630	0.0164824
784.708	0.0164479
784.786	0.0163695
784.864	0.0164468
784.942	0.0165009
785.021	0.0164408
785.099	0.0163515
785.177	0.0163208
785.255	0.0165904
785.333	0.0165615
785.411	0.0165482
785.489	0.0165333
785.567	0.0165749
785.646	0.0167920
785.724	0.0167303
785.802	0.0168562
785.880	0.0169713
785.958	0.0169485
786.036	0.0169215
786.114	0.0169481
786.192	0.0170070
786.271	0.0171094
786.349	0.0172695
786.427	0.0170303
786.505	0.0170825
786.583	0.0170679
786.661	0.0171049
786.739	0.0169988
786.817	0.0172249
786.896	0.0171030
786.974	0.0169261
787.052	0.0169631
787.130	0.0168510
787.208	0.0167250
787.286	0.0165977
787.364	0.0166685
787.442	0.0166843
787.521	0.0163161
787.599	0.0163021
787.677	0.0163048
787.755	0.0162617
787.833	0.0161318
787.911	0.0162361
787.989	0.0160395
788.067	0.0160361
788.146	0.0160827
788.224	0.0161457
788.302	0.0160909
788.380	0.0163568
788.458	0.0163795
788.536	0.0163092
788.614	0.0164154
788.692	0.0164642
788.771	0.0167178
788.849	0.0167502
788.927	0.0168709
789.005	0.0169605
789.083	0.0169285
789.161	0.0170586
789.239	0.0171752
789.317	0.0172153
789.396	0.0171602
789.474	0.0172853
789.552	0.0173202
789.630	0.0172617
789.708	0.0173250
789.786	0.0173019
789.864	0.0173693
789.942	0.0174017
790.021	0.0174030
790.099	0.0172702
790.177	0.0172031
790.255	0.0172878
790.333	0.0170396
790.411	0.0171478
790.489	0.0171577
790.567	0.0169356
790.646	0.0167461
790.724	0.0168237
790.802	0.0167951
790.880	0.0164957
790.958	0.0165592
791.036	0.0164250
791.114	0.0165250
791.192	0.0163763
791.271	0.0163790
791.349	0.0163359
791.427	0.0162730
791.505	0.0163149
791.583	0.0163657
791.661	0.0163496
791.739	0.0163223
791.817	0.0164819
791.896	0.0166609
791.974	0.0166591
792.052	0.0166622
792.130	0.0165372
792.208	0.0166110
792.286	0.0168945
792.364	0.0166869
792.442	0.0166198
792.521	0.0166643
792.599	0.0165691
792.677	0.0166100
792.755	0.0164433
792.833	0.0165305
792.911	0.0164101
792.989	0.0164091
793.067	0.0165323
793.146	0.0165181
793.224	0.0166417
793.302	0.0166872
793.380	0.0166859
793.458	0.0167070
793.536	0.0166331
793.614	0.0167443
793.692	0.0166503
793.771	0.0165811
793.849	0.0168050
793.927	0.0167020
794.005	0.0167648
794.083	0.0168286
794.161	0.0168465
794.239	0.0167672
794.317	0.0167561
794.396	0.0167728
794.474	0.0167609
794.552	0.0167747
794.630	0.0169044
794.708	0.0168929
794.786	0.0168603
794.864	0.0168404
794.942	0.0168285
795.021	0.0169080
795.099	0.0169267
795.177	0.0169608
795.255	0.0169693
795.333	0.0171023
795.411	0.0169789
795.489	0.0170998
795.567	0.0170608
795.646	0.0170819
795.724	0.0171799
795.802	0.0169507
795.880	0.0170222
795.958	0.0168967
796.036	0.0168640
796.114	0.0166746
796.192	0.0166254
796.271	0.0165063
796.349	0.0165690
796.427	0.0163425
796.505	0.0162090
796.583	0.0162890
796.661	0.0161133
796.739	0.0159624
796.817	0.0158943
796.896	0.0159238
796.974	0.0161141
797.052	0.0160329
797.130	0.0159583
797.208	0.0160892
797.286	0.0161766
797.364	0.0162020
797.442	0.0164237
797.521	0.0165562
797.599	0.0165422
797.677	0.0166611
797.755	0.0168223
797.833	0.0169039
797.911	0.0168258
797.989	0.0169293
798.067	0.0170170
798.146	0.0171030
798.224	0.0171745
798.302	0.0172922
798.380	0.0171570
798.458	0.0170494
798.536	0.0172250
798.614	0.0171593
798.692	0.0171155
798.771	0.0171651
798.849	0.0171150
798.927	0.0170676
799.005	0.0171946
799.083	0.0169370
799.161	0.0170016
799.239	0.0168338
799.317	0.0169801
799.396	0.0169735
799.474	0.0168577
799.552	0.0167842
799.630	0.0168365
799.708	0.0168585
799.786	0.0167710
799.864	0.0166317
799.942	0.0166368
800.021	0.0165608
800.099	0.0164221
800.177	0.0164587
800.255	0.0163292
800.333	0.0162690
800.411	0.0162256
800.489	0.0162065
800.567	0.0160239
800.646	0.0160307
800.724	0.0159132
800.802	0.0160376
800.880	0.0159769
800.958	0.0160686
801.036	0.0158760
801.114	0.0160917
801.192	0.0161042
801.271	0.0161123
801.349	0.0161153
801.427	0.0162498
801.505	0.0163409
801.583	0.0164399
801.661	0.0165105
801.739	0.0164668
801.817	0.0167100
801.896	0.0166882
801.974	0.0167895
802.052	0.0168934
802.130	0.0168571
802.208	0.0170495
802.286	0.0169441
802.364	0.0170200
802.442	0.0171938
802.521	0.0172116
802.599	0.0171417
802.677	0.0173033
802.755	0.0171315
802.833	0.0172587
802.911	0.0174779
802.989	0.0174179
803.067	0.0174045
803.146	0.0174151
803.224	0.0173882
803.302	0.0172905
803.380	0.0173646
803.458	0.0172773
803.536	0.0172064
803.614	0.0171489
803.692	0.0171579
803.771	0.0169522
803.849	0.0169015
803.927	0.0166192
804.005	0.0165085
804.083	0.0164571
804.161	0.0162453
804.239	0.0161501
804.317	0.0161087
804.396	0.0160522
804.474	0.0159520
804.552	0.0158767
804.630	0.0158322
804.708	0.0158414
804.786	0.0158791
804.864	0.0157786
804.942	0.0156584
805.021	0.0158336
805.099	0.0159147
805.177	0.0158553
805.255	0.0159125
805.333	0.0158971
805.411	0.0159628
805.489	0.0159651
805.567	0.0161603
805.646	0.0161693
805.724	0.0163754
805.802	0.0162384
805.880	0.0163681
805.958	0.0166180
806.036	0.0166044
806.114	0.0166331
806.192	0.0168887
806.271	0.0169529
806.349	0.0171194
806.427	0.0171672
806.505	0.0173615
806.583	0.0174817
806.661	0.0175448
806.739	0.0177022
806.817	0.0178288
806.896	0.0178944
806.974	0.0177943
807.052	0.0180103
807.130	0.0179172
807.208	0.0179513
807.286	0.0178337
807.364	0.0178220
807.442	0.0175131
807.521	0.0175064
807.599	0.0173205
807.677	0.0170448
807.755	0.0170192
807.833	0.0167583
807.911	0.0167097
807.989	0.0166142
808.067	0.0163641
808.146	0.0162255
808.224	0.0162402
808.302	0.0160285
808.380	0.0159773
808.458	0.0159089
808.536	0.0158050
808.614	0.0157074
808.692	0.0156416
808.771	0.0155827
808.849	0.0154885
808.927	0.0155559
809.005	0.0154614
809.083	0.0155257
809.161	0.0155735
809.239	0.0156025
809.317	0.0155862
809.396	0.0155752
809.474	0.0157840
809.552	0.0160020
809.630	0.0159632
809.708	0.0160107
809.786	0.0162762
809.864	0.0165282
809.942	0.0166972
810.021	0.0168153
810.099	0.0170853
810.177	0.0173282
810.255	0.0174810
810.333	0.0176456
810.411	0.0175342
810.489	0.0177024
810.567	0.0177650
810.646	0.0178876
810.724	0.0178000
810.802	0.0177206
810.880	0.0179977
810.958	0.0178141
811.036	0.0178231
811.114	0.0176656
811.192	0.0175050
811.271	0.0174863
811.349	0.0174076
811.427	0.0172176
811.505	0.0170008
811.583	0.0169882
811.661	0.0170102
811.739	0.0168887
811.817	0.0166975
811.896	0.0165938
811.974	0.0165578
812.052	0.0166123
812.130	0.0163595
812.208	0.0164074
812.286	0.0161671
812.364	0.0160735
812.442	0.0161200
812.521	0.0161420
812.599	0.0159985
812.677	0.0159905
812.755	0.0161038
812.833	0.0161186
812.911	0.0161895
812.989	0.0161871
813.067	0.0162514
813.146	0.0163699
813.224	0.0164731
813.302	0.0165658
813.380	0.0166164
813.458	0.0167339
813.536	0.0168517
813.614	0.0167932
813.692	0.0169541
813.771	0.0168859
813.849	0.0170575
813.927	0.0170879
814.005	0.0170017
814.083	0.0171861
814.161	0.0171848
814.239	0.0169971
814.317	0.0170936
814.396	0.0169724
814.474	0.0170688
814.552	0.0169733
814.630	0.0170184
814.708	0.0170185
814.786	0.0169084
814.864	0.0168876
814.942	0.0167808
815.021	0.0166863
815.099	0.0168906
815.177	0.0167478
815.255	0.0166899
815.333	0.0168103
815.411	0.0166345
815.489	0.0165892
815.567	0.0166673
815.646	0.0167613
815.724	0.0166623
815.802	0.0164860
815.880	0.0165411
815.958	0.0164349
816.036	0.0163162
816.114	0.0164385
816.192	0.0162675
816.271	0.0164225
816.349	0.0165233
816.427	0.0163583
816.505	0.0162663
816.583	0.0163795
816.661	0.0164599
816.739	0.0166058
816.817	0.0166566
816.896	0.0166774
816.974	0.0168343
817.052	0.0168404
817.130	0.0167599
817.208	0.0167542
817.286	0.0170152
817.364	0.0169038
817.442	0.0170352
817.521	0.0169404
817.599	0.0169764
817.677	0.0169467
817.755	0.0169281
817.833	0.0170225
817.911	0.0169503
817.989	0.0169735
818.067	0.0169017
818.146	0.0168218
818.224	0.0170455
818.302	0.0169642
818.380	0.0168560
818.458	0.0168507
818.536	0.0169128
818.614	0.0168581
818.692	0.0169845
818.771	0.0170928
818.849	0.0171110
818.927	0.0170600
819.005	0.0172131
819.083	0.0170998
819.161	0.0171695
819.239	0.0170871
819.317	0.0169627
819.396	0.0169075
819.474	0.0170537
819.552	0.0169204
819.630	0.0166951
819.708	0.0165451
819.786	0.0165945
819.864	0.0165443
819.942	0.0163692
820.021	0.0162760
820.099	0.0162212
820.177	0.0161657
820.255	0.0162183
820.333	0.0161629
820.411	0.0161341
820.489	0.0162758
820.567	0.0160726
820.646	0.0160294
820.724	0.0162325
820.802	0.0162146
820.880	0.0161776
820.958	0.0162526
821.036	0.0162894
821.114	0.0164186
821.192	0.0163324
821.271	0.0163390
821.349	0.0163306
821.427	0.0165509
821.505	0.0164983
821.583	0.0165781
821.661	0.0165225
821.739	0.0165625
821.817	0.0166921
821.896	0.0165900
821.974	0.0167263
822.052	0.0166705
822.130	0.0168050
822.208	0.0167394
822.286	0.0168302
822.364	0.0169254
822.442	0.0169651
822.521	0.0169395
822.599	0.0170761
822.677	0.0170382
822.755	0.0169912
822.833	0.0169595
822.911	0.0170727
822.989	0.0170664
823.067	0.0169765
823.146	0.0170935
823.224	0.0169333
823.302	0.0168529
823.380	0.0169046
823.458	0.0168504
823.536	0.0169248
823.614	0.0168468
823.692	0.0168151
823.771	0.0168410
823.849	0.0168565
823.927	0.0167935
824.005	0.0168660
824.083	0.0168192
824.161	0.0167014
824.239	0.0167648
824.317	0.0166942
824.396	0.0167789
824.474	0.0165266
824.552	0.0166129
824.630	0.0165137
824.708	0.0164271
824.786	0.0164267
824.864	0.0164848
824.942	0.0163255
825.021	0.0163641
825.099	0.0165051
825.177	0.0164048
825.255	0.0163670
825.333	0.0164503
825.411	0.0165811
825.489	0.0165914
825.567	0.0166223
825.646	0.0166386
825.724	0.0166161
825.802	0.0167597
825.880	0.0168549
825.958	0.0166770
826.036	0.0167831
826.114	0.0168201
826.192	0.0167683
826.271	0.0167524
826.349	0.0167410
826.427	0.0168378
826.505	0.0167202
826.583	0.0166703
826.661	0.0164997
826.739	0.0165106
826.817	0.0165619
826.896	0.0165618
826.974	0.0165517
827.052	0.0164117
827.130	0.0164912
827.208	0.0164303
827.286	0.0165893
827.364	0.0166125
827.442	0.0164410
827.521	0.0166448
827.599	0.0166144
827.677	0.0168108
827.755	0.0168297
827.833	0.0167474
827.911	0.0169161
827.989	0.0170157
828.067	0.0170155
828.146	0.0171021
828.224	0.0171280
828.302	0.0170632
828.380	0.0170049
828.458	0.0170329
828.536	0.0169897
828.614	0.0168842
828.692	0.0169518
828.771	0.0167815
828.849	0.0168320
828.927	0.0166839
829.005	0.0166207
829.083	0.0166103
829.161	0.0165305
829.239	0.0166709
829.317	0.0166603
829.396	0.0166259
829.474	0.0167480
829.552	0.0167083
829.630	0.0167796
829.708	0.0167209
829.786	0.0169973
829.864	0.0168425
829.942	0.0167951
830.021	0.0168748
830.099	0.0169876
830.177	0.0166357
830.255	0.0167936
830.333	0.0168594
830.411	0.0166372
830.489	0.0166454
830.567	0.0165764
830.646	0.0165244
830.724	0.0166325
830.802	0.0164278
830.880	0.0163677
830.958	0.0164451
831.036	0.0165181
831.114	0.0163725
831.192	0.0164545
831.271	0.0163997
831.349	0.0165369
831.427	0.0164031
831.505	0.0165586
831.583	0.0164796
831.661	0.0165901
831.739	0.0167616
831.817	0.0168281
831.896	0.0168317
831.974	0.0169648
832.052	0.0170020
832.130	0.0169650
832.208	0.0169935
832.286	0.0169730
832.364	0.0169864
832.442	0.0170840
832.521	0.0170863
832.599	0.0169962
832.677	0.0169656
832.755	0.0170666
832.833	0.0169428
832.911	0.0170095
832.989	0.0170013
833.067	0.0169898
833.146	0.0167840
833.224	0.0167539
833.302	0.0168051
833.380	0.0167904
833.458	0.0168018
833.536	0.0168430
833.614	0.0166710
833.692	0.0166125
833.771	0.0166019
833.849	0.0166251
833.927	0.0166259
834.005	0.0165758
834.083	0.0165923
834.161	0.0167825
834.239	0.0167400
834.317	0.0166926
834.396	0.0165651
834.474	0.0167432
834.552	0.0166314
834.630	0.0167381
834.708	0.0167532
834.786	0.0167044
834.864	0.0167965
834.942	0.0167142
835.021	0.0166547
835.099	0.0166348
835.177	0.0165607
835.255	0.0166401
835.333	0.0165839
835.411	0.0164755
835.489	0.0164221
835.567	0.0165826
835.646	0.0165160
835.724	0.0164594
835.802	0.0164467
835.880	0.0164038
835.958	0.0165241
836.036	0.0163585
836.114	0.0165277
836.192	0.0165540
836.271	0.0166746
836.349	0.0167178
836.427	0.0167288
836.505	0.0167051
836.583	0.0168591
836.661	0.0168468
836.739	0.0169817
836.817	0.0170166
836.896	0.0171687
836.974	0.0171095
837.052	0.0170581
837.130	0.0169608
837.208	0.0170243
837.286	0.0169932
837.364	0.0169456
837.442	0.0169733
837.521	0.0169125
837.599	0.0168733
837.677	0.0169257
837.755	0.0168698
837.833	0.0167206
837.911	0.0167039
837.989	0.0166520
838.067	0.0167281
838.146	0.0166332
838.224	0.0166406
838.302	0.0167120
838.380	0.0166515
838.458	0.0167670
838.536	0.0168063
838.614	0.0168127
838.692	0.0167491
838.771	0.0167883
838.849	0.0167242
838.927	0.0168305
839.005	0.0169720
839.083	0.0168205
839.161	0.0168725
839.239	0.0168493
839.317	0.0167888
839.396	0.0168024
839.474	0.0167847
839.552	0.0167713
839.630	0.0168212
839.708	0.0168169
839.786	0.0168206
839.864	0.0167694
839.942	0.0167909
840.021	0.0166164
840.099	0.0167379
840.177	0.0168040
840.255	0.0167319
840.333	0.0167384
840.411	0.0166803
840.489	0.0167606
840.567	0.0167826
840.646	0.0165853
840.724	0.0168103
840.802	0.0167152
840.880	0.0167497
840.958	0.0168017
841.036	0.0167772
841.114	0.0167332
841.192	0.0166949
841.271	0.0168308
841.349	0.0167216
841.427	0.0166302
841.505	0.0167117
841.583	0.0166505
841.661	0.0165551
841.739	0.0165756
841.817	0.0165887
841.896	0.0166708
841.974	0.0166743
842.052	0.0165662
842.130	0.0165739
842.208	0.0165162
842.286	0.0164203
842.364	0.0166087
842.442	0.0166168
842.521	0.0166048
842.599	0.0166967
842.677	0.0167372
842.755	0.0166552
842.833	0.0167591
842.911	0.0167161
842.989	0.0166954
843.067	0.0168136
843.146	0.0168672
843.224	0.0168445
843.302	0.0169056
843.380	0.0169817
843.458	0.0169900
843.536	0.0169882
843.614	0.0169985
843.692	0.0170501
843.771	0.0169315
843.849	0.0170573
843.927	0.0168716
844.005	0.0168303
844.083	0.0169102
844.161	0.0169658
844.239	0.0168372
844.317	0.0167849
844.396	0.0167812
844.474	0.0165414
844.552	0.0165516
844.630	0.0166478
844.708	0.0165553
844.786	0.0165475
844.864	0.0165254
844.942	0.0165473
845.021	0.0165620
845.099	0.0165342
845.177	0.0165646
845.255	0.0167499
845.333	0.0166402
845.411	0.0166196
845.489	0.0167336
845.567	0.0167127
845.646	0.0166113
845.724	0.0166261
845.802	0.0168789
845.880	0.0166662
845.958	0.0165244
846.036	0.0167596
846.114	0.0166903
846.192	0.0167960
846.271	0.0167714
846.349	0.0168453
846.427	0.0169620
846.505	0.0166644
846.583	0.0167705
846.661	0.0168304
846.739	0.0167667
846.817	0.0166740
846.896	0.0166846
846.974	0.0167962
847.052	0.0167082
847.130	0.0167833
847.208	0.0166653
847.286	0.0167467
847.364	0.0166924
847.442	0.0166941
847.521	0.0165949
847.599	0.0167816
847.677	0.0166315
847.755	0.0166672
847.833	0.0167022
847.911	0.0166506
847.989	0.0165954
848.067	0.0165810
848.146	0.0164870
848.224	0.0166116
848.302	0.0165746
848.380	0.0166560
848.458	0.0165487
848.536	0.0167009
848.614	0.0165601
848.692	0.0166119
848.771	0.0167753
848.849	0.0167920
848.927	0.0166347
849.005	0.0166375
849.083	0.0168130
849.161	0.0167823
849.239	0.0167347
849.317	0.0167149
849.396	0.0166993
849.474	0.0168285
849.552	0.0168675
849.630	0.0167625
849.708	0.0168044
849.786	0.0168475
849.864	0.0168130
849.942	0.0169151
850.021	0.0168911
850.099	0.0168001
850.177	0.0167583
850.255	0.0167802
850.333	0.0168440
850.411	0.0169946
850.489	0.0167047
850.567	0.0166870
850.646	0.0168565
850.724	0.0168070
850.802	0.0167009
850.880	0.0167046
850.958	0.0168195
851.036	0.0166029
851.114	0.0167221
851.192	0.0166621
851.271	0.0166499
851.349	0.0164434
851.427	0.0164008
851.505	0.0165981
851.583	0.0166440
851.661	0.0165303
851.739	0.0165049
851.817	0.0165214
851.896	0.0166035
851.974	0.0165366
852.052	0.0164525
852.130	0.0165532
852.208	0.0165383
852.286	0.0166682
852.364	0.0166663
852.442	0.0166848
852.521	0.0167504
852.599	0.0167222
852.677	0.0168317
852.755	0.0168264
852.833	0.0170140
852.911	0.0169110
852.989	0.0169715
853.067	0.0169993
853.146	0.0170031
853.224	0.0170643
853.302	0.0170499
853.380	0.0170013
853.458	0.0169508
853.536	0.0168559
853.614	0.0169421
853.692	0.0168589
853.771	0.0169392
853.849	0.0168484
853.927	0.0168742
854.005	0.0166914
854.083	0.0168005
854.161	0.0167480
854.239	0.0167705
854.317	0.0167489
854.396	0.0167863
854.474	0.0166546
854.552	0.0166187
854.630	0.0164604
854.708	0.0163995
854.786	0.0166125
854.864	0.0165327
854.942	0.0164220
855.021	0.0165172
855.099	0.0164782
855.177	0.0164115
855.255	0.0165695
855.333	0.0165289
855.411	0.0165453
855.489	0.0165678
855.567	0.0165923
855.646	0.0166113
855.724	0.0166317
855.802	0.0166788
855.880	0.0166624
855.958	0.0168513
856.036	0.0168925
856.114	0.0167223
856.192	0.0168655
856.271	0.0169163
856.349	0.0169738
856.427	0.0169381
856.505	0.0169646
856.583	0.0167642
856.661	0.0169370
856.739	0.0167786
856.817	0.0168178
856.896	0.0167329
856.974	0.0166511
857.052	0.0167164
857.130	0.0166817
857.208	0.0167785
857.286	0.0166766
857.364	0.0167177
857.442	0.0166618
857.521	0.0166452
857.599	0.0165416
857.677	0.0168269
857.755	0.0167146
857.833	0.0166065
857.911	0.0167184
857.989	0.0167992
858.067	0.0166365
858.146	0.0167113
858.224	0.0166344
858.302	0.0167514
858.380	0.0167422
858.458	0.0166840
858.536	0.0167372
858.614	0.0167683
858.692	0.0166896
858.771	0.0167205
858.849	0.0167506
858.927	0.0168826
859.005	0.0167004
859.083	0.0168010
859.161	0.0169031
859.239	0.0168904
859.317	0.0167204
859.396	0.0168552
859.474	0.0169675
859.552	0.0168607
859.630	0.0169688
859.708	0.0168243
859.786	0.0167800
859.864	0.0169380
859.942	0.0169785
860.021	0.0170535
860.099	0.0168805
860.177	0.0168712
860.255	0.0168861
860.333	0.0168213
860.411	0.0168835
860.489	0.0168749
860.567	0.0167283
860.646	0.0166262
860.724	0.0166869
860.802	0.0166666
860.880	0.0167707
860.958	0.0165992
861.036	0.0165845
861.114	0.0165670
861.192	0.0165173
861.271	0.0166712
861.349	0.0166766
861.427	0.0166054
861.505	0.0164976
861.583	0.0164057
861.661	0.0165334
861.739	0.0167319
861.817	0.0165619
861.896	0.0166792
861.974	0.0167336
862.052	0.0165680
862.130	0.0167652
862.208	0.0167596
862.286	0.0167842
862.364	0.0167993
862.442	0.0168449
862.521	0.0167708
862.599	0.0167482
862.677	0.0167876
862.755	0.0167979
862.833	0.0167828
862.911	0.0169257
862.989	0.0168016
863.067	0.0167356
863.146	0.0168907
863.224	0.0169023
863.302	0.0168759
863.380	0.0169164
863.458	0.0167176
863.536	0.0167850
863.614	0.0168444
863.692	0.0168257
863.771	0.0168977
863.849	0.0168180
863.927	0.0167599
864.005	0.0167774
864.083	0.0167340
864.161	0.0168321
864.239	0.0168736
864.317	0.0167550
864.396	0.0168423
864.474	0.0168115
864.552	0.0167082
864.630	0.0167883
864.708	0.0168821
864.786	0.0167213
864.864	0.0165173
864.942	0.0166834
865.021	0.0166605
865.099	0.0166737
865.177	0.0167729
865.255	0.0165366
865.333	0.0165869
865.411	0.0166293
865.489	0.0164954
865.567	0.0165836
865.646	0.0166383
865.724	0.0165659
865.802	0.0165292
865.880	0.0166120
865.958	0.0166765
866.036	0.0167034
866.114	0.0165471
866.192	0.0166698
866.271	0.0165250
866.349	0.0166642
866.427	0.0168105
866.505	0.0168423
866.583	0.0169253
866.661	0.0167416
866.739	0.0168703
866.817	0.0169613
866.896	0.0167029
866.974	0.0167346
867.052	0.0168790
867.130	0.0168313
867.208	0.0166646
867.286	0.0168008
867.364	0.0169246
867.442	0.0167532
867.521	0.0167802
867.599	0.0167963
867.677	0.0166557
867.755	0.0166645
867.833	0.0167103
867.911	0.0166484
867.989	0.0166368
868.067	0.0166297
868.146	0.0166577
868.224	0.0166585
868.302	0.0165405
868.380	0.0165397
868.458	0.0166024
868.536	0.0165273
868.614	0.0166510
868.692	0.0167184
868.771	0.0167439
868.849	0.0165749
868.927	0.0164989
869.005	0.0165779
869.083	0.0166433
869.161	0.0165727
869.239	0.0166363
869.317	0.0165131
869.396	0.0166121
869.474	0.0164256
869.552	0.0164749
869.630	0.0165041
869.708	0.0163911
869.786	0.0165430
869.864	0.0164980
869.942	0.0164257
