06/03/2022	15:33:46	Ver.	4.1	UNKNOWN
Optical Delay	550.020508	Delta X		0.078125	Sweeps	1	Scan Rate	0/0
Coordinates	Axis 1	NaN	Axis 2	NaN	Axis 3	NaN	Axis 4	NaN	Axis 5	NaN	Axis 6	0.000000
TX Power	0.000000	RX Power	0.000000

550.021	0.0167309
550.099	0.0166635
550.177	0.0167010
550.255	0.0167585
550.333	0.0167373
550.411	0.0167891
550.489	0.0167350
550.567	0.0166905
550.646	0.0168728
550.724	0.0167410
550.802	0.0167328
550.880	0.0168327
550.958	0.0167526
551.036	0.0167194
551.114	0.0167905
551.192	0.0166992
551.271	0.0167651
551.349	0.0166802
551.427	0.0166837
551.505	0.0167565
551.583	0.0167580
551.661	0.0166462
551.739	0.0166002
551.817	0.0165655
551.896	0.0168513
551.974	0.0166788
552.052	0.0167056
552.130	0.0166890
552.208	0.0167579
552.286	0.0168031
552.364	0.0166455
552.442	0.0167174
552.521	0.0167201
552.599	0.0166036
552.677	0.0167431
552.755	0.0166821
552.833	0.0167835
552.911	0.0168988
552.989	0.0168186
553.067	0.0167543
553.146	0.0167539
553.224	0.0166750
553.302	0.0166958
553.380	0.0168665
553.458	0.0167061
553.536	0.0166763
553.614	0.0167382
553.692	0.0167448
553.771	0.0167634
553.849	0.0166636
553.927	0.0167798
554.005	0.0168417
554.083	0.0166990
554.161	0.0167065
554.239	0.0166726
554.317	0.0168044
554.396	0.0167811
554.474	0.0166751
554.552	0.0167442
554.630	0.0167785
554.708	0.0168080
554.786	0.0166547
554.864	0.0167386
554.942	0.0168906
555.021	0.0167991
555.099	0.0167993
555.177	0.0168465
555.255	0.0168173
555.333	0.0166281
555.411	0.0166584
555.489	0.0167837
555.567	0.0168141
555.646	0.0167775
555.724	0.0166363
555.802	0.0168134
555.880	0.0168459
555.958	0.0166247
556.036	0.0167133
556.114	0.0166898
556.192	0.0166966
556.271	0.0167093
556.349	0.0167870
556.427	0.0168166
556.505	0.0166154
556.583	0.0166496
556.661	0.0166940
556.739	0.0168388
556.817	0.0167547
556.896	0.0167375
556.974	0.0167428
557.052	0.0167167
557.130	0.0167792
557.208	0.0166983
557.286	0.0166981
557.364	0.0167824
557.442	0.0169166
557.521	0.0167313
557.599	0.0166847
557.677	0.0166930
557.755	0.0168795
557.833	0.0168182
557.911	0.0166587
557.989	0.0167864
558.067	0.0168006
558.146	0.0167180
558.224	0.0167179
558.302	0.0168964
558.380	0.0168101
558.458	0.0166967
558.536	0.0166486
558.614	0.0167251
558.692	0.0167437
558.771	0.0168161
558.849	0.0168076
558.927	0.0167025
559.005	0.0167805
559.083	0.0168534
559.161	0.0167039
559.239	0.0167885
559.317	0.0167477
559.396	0.0167759
559.474	0.0168066
559.552	0.0167915
559.630	0.0167917
559.708	0.0167857
559.786	0.0168729
559.864	0.0167052
559.942	0.0168221
560.021	0.0167727
560.099	0.0166657
560.177	0.0167355
560.255	0.0167905
560.333	0.0166798
560.411	0.0166965
560.489	0.0166044
560.567	0.0166985
560.646	0.0169474
560.724	0.0167830
560.802	0.0168275
560.880	0.0166850
560.958	0.0166508
561.036	0.0165221
561.114	0.0167791
561.192	0.0167364
561.271	0.0167528
561.349	0.0167880
561.427	0.0168250
561.505	0.0167993
561.583	0.0165961
561.661	0.0167610
561.739	0.0168142
561.817	0.0167619
561.896	0.0166837
561.974	0.0167769
562.052	0.0167159
562.130	0.0167262
562.208	0.0167358
562.286	0.0167147
562.364	0.0167788
562.442	0.0168929
562.521	0.0167244
562.599	0.0167373
562.677	0.0168288
562.755	0.0168356
562.833	0.0168793
562.911	0.0167885
562.989	0.0167059
563.067	0.0166026
563.146	0.0168499
563.224	0.0167639
563.302	0.0167601
563.380	0.0167204
563.458	0.0166415
563.536	0.0167345
563.614	0.0167722
563.692	0.0167185
563.771	0.0167632
563.849	0.0167789
563.927	0.0167395
564.005	0.0166599
564.083	0.0167873
564.161	0.0168056
564.239	0.0166525
564.317	0.0167905
564.396	0.0166515
564.474	0.0166868
564.552	0.0167545
564.630	0.0166576
564.708	0.0166879
564.786	0.0167869
564.864	0.0167982
564.942	0.0167738
565.021	0.0168328
565.099	0.0167282
565.177	0.0168568
565.255	0.0166664
565.333	0.0166888
565.411	0.0167889
565.489	0.0167656
565.567	0.0165068
565.646	0.0167442
565.724	0.0168754
565.802	0.0166823
565.880	0.0167442
565.958	0.0166667
566.036	0.0167849
566.114	0.0167645
566.192	0.0165997
566.271	0.0167881
566.349	0.0168859
566.427	0.0167201
566.505	0.0167075
566.583	0.0167387
566.661	0.0168384
566.739	0.0168319
566.817	0.0169071
566.896	0.0167628
566.974	0.0166976
567.052	0.0166949
567.130	0.0167931
567.208	0.0166856
567.286	0.0168105
567.364	0.0167203
567.442	0.0168518
567.521	0.0169249
567.599	0.0166073
567.677	0.0167854
567.755	0.0167070
567.833	0.0166206
567.911	0.0167635
567.989	0.0167380
568.067	0.0166558
568.146	0.0168147
568.224	0.0167690
568.302	0.0167229
568.380	0.0166837
568.458	0.0168091
568.536	0.0166556
568.614	0.0166882
568.692	0.0166688
568.771	0.0165412
568.849	0.0166820
568.927	0.0167393
569.005	0.0166483
569.083	0.0167053
569.161	0.0167764
569.239	0.0167250
569.317	0.0166944
569.396	0.0166813
569.474	0.0167306
569.552	0.0168397
569.630	0.0168096
569.708	0.0167086
569.786	0.0168112
569.864	0.0168376
569.942	0.0166962
570.021	0.0166502
570.099	0.0167345
570.177	0.0167352
570.255	0.0167466
570.333	0.0166646
570.411	0.0166857
570.489	0.0167514
570.567	0.0166486
570.646	0.0166409
570.724	0.0166938
570.802	0.0167640
570.880	0.0168361
570.958	0.0168186
571.036	0.0165954
571.114	0.0166453
571.192	0.0165827
571.271	0.0167766
571.349	0.0165680
571.427	0.0167404
571.505	0.0167780
571.583	0.0167896
571.661	0.0166489
571.739	0.0167455
571.817	0.0166161
571.896	0.0167644
571.974	0.0166974
572.052	0.0167722
572.130	0.0165590
572.208	0.0166008
572.286	0.0167960
572.364	0.0168391
572.442	0.0167178
572.521	0.0166164
572.599	0.0167300
572.677	0.0167703
572.755	0.0167513
572.833	0.0166549
572.911	0.0167092
572.989	0.0166750
573.067	0.0166976
573.146	0.0167159
573.224	0.0167677
573.302	0.0167828
573.380	0.0167398
573.458	0.0166619
573.536	0.0167271
573.614	0.0167343
573.692	0.0167559
573.771	0.0166953
573.849	0.0166154
573.927	0.0166928
574.005	0.0168158
574.083	0.0168198
574.161	0.0166183
574.239	0.0166545
574.317	0.0168043
574.396	0.0167426
574.474	0.0168282
574.552	0.0166032
574.630	0.0167417
574.708	0.0167840
574.786	0.0168024
574.864	0.0167714
574.942	0.0166673
575.021	0.0167573
575.099	0.0165514
575.177	0.0167406
575.255	0.0166588
575.333	0.0167093
575.411	0.0166621
575.489	0.0167680
575.567	0.0167880
575.646	0.0166548
575.724	0.0167033
575.802	0.0167134
575.880	0.0166248
575.958	0.0167391
576.036	0.0167700
576.114	0.0167886
576.192	0.0166840
576.271	0.0166872
576.349	0.0167159
576.427	0.0167853
576.505	0.0167097
576.583	0.0166649
576.661	0.0167449
576.739	0.0166806
576.817	0.0166176
576.896	0.0166611
576.974	0.0167007
577.052	0.0167730
577.130	0.0167411
577.208	0.0167451
577.286	0.0166595
577.364	0.0166376
577.442	0.0167425
577.521	0.0167371
577.599	0.0166951
577.677	0.0167812
577.755	0.0166998
577.833	0.0167267
577.911	0.0167248
577.989	0.0167175
578.067	0.0167570
578.146	0.0167493
578.224	0.0166879
578.302	0.0167827
578.380	0.0167555
578.458	0.0167960
578.536	0.0167889
578.614	0.0168136
578.692	0.0166486
578.771	0.0166745
578.849	0.0166611
578.927	0.0166870
579.005	0.0169102
579.083	0.0169016
579.161	0.0168131
579.239	0.0166060
579.317	0.0167316
579.396	0.0170182
579.474	0.0167604
579.552	0.0167092
579.630	0.0167181
579.708	0.0167374
579.786	0.0167190
579.864	0.0167387
579.942	0.0167918
580.021	0.0168961
580.099	0.0168038
580.177	0.0165456
580.255	0.0167108
580.333	0.0167065
580.411	0.0168284
580.489	0.0167464
580.567	0.0167850
580.646	0.0168160
580.724	0.0166254
580.802	0.0167012
580.880	0.0167293
580.958	0.0168809
581.036	0.0166958
581.114	0.0167092
581.192	0.0167045
581.271	0.0167124
581.349	0.0166834
581.427	0.0169008
581.505	0.0167498
581.583	0.0166283
581.661	0.0167482
581.739	0.0166857
581.817	0.0166837
581.896	0.0166692
581.974	0.0167252
582.052	0.0168351
582.130	0.0167838
582.208	0.0167838
582.286	0.0167725
582.364	0.0166119
582.442	0.0167140
582.521	0.0167091
582.599	0.0165939
582.677	0.0167281
582.755	0.0167596
582.833	0.0167705
582.911	0.0168237
582.989	0.0166594
583.067	0.0166502
583.146	0.0166604
583.224	0.0167949
583.302	0.0168871
583.380	0.0166064
583.458	0.0166781
583.536	0.0167824
583.614	0.0167795
583.692	0.0167106
583.771	0.0166673
583.849	0.0167491
583.927	0.0167187
584.005	0.0167390
584.083	0.0166784
584.161	0.0168185
584.239	0.0166634
584.317	0.0166862
584.396	0.0167505
584.474	0.0166964
584.552	0.0166659
584.630	0.0166167
584.708	0.0167057
584.786	0.0167204
584.864	0.0166498
584.942	0.0167281
585.021	0.0166915
585.099	0.0167573
585.177	0.0165873
585.255	0.0167264
585.333	0.0165556
585.411	0.0166093
585.489	0.0166769
585.567	0.0166101
585.646	0.0166956
585.724	0.0166592
585.802	0.0167171
585.880	0.0166522
585.958	0.0166555
586.036	0.0167081
586.114	0.0168770
586.192	0.0167540
586.271	0.0165997
586.349	0.0168416
586.427	0.0168516
586.505	0.0166448
586.583	0.0165504
586.661	0.0166508
586.739	0.0166489
586.817	0.0165958
586.896	0.0167321
586.974	0.0167529
587.052	0.0167530
587.130	0.0167092
587.208	0.0166904
587.286	0.0166923
587.364	0.0166743
587.442	0.0166569
587.521	0.0167422
587.599	0.0167700
587.677	0.0167459
587.755	0.0167029
587.833	0.0167141
587.911	0.0167746
587.989	0.0167635
588.067	0.0167031
588.146	0.0167049
588.224	0.0166697
588.302	0.0167770
588.380	0.0165986
588.458	0.0167703
588.536	0.0167732
588.614	0.0167336
588.692	0.0168195
588.771	0.0167310
588.849	0.0166729
588.927	0.0166769
589.005	0.0166804
589.083	0.0167081
589.161	0.0168736
589.239	0.0166814
589.317	0.0166652
589.396	0.0166961
589.474	0.0166953
589.552	0.0165749
589.630	0.0167765
589.708	0.0167744
589.786	0.0167498
589.864	0.0167037
589.942	0.0167625
590.021	0.0167612
590.099	0.0168096
590.177	0.0167267
590.255	0.0166731
590.333	0.0167435
590.411	0.0168221
590.489	0.0167331
590.567	0.0166409
590.646	0.0167945
590.724	0.0167469
590.802	0.0165668
590.880	0.0166470
590.958	0.0165868
591.036	0.0166848
591.114	0.0167984
591.192	0.0167031
591.271	0.0166891
591.349	0.0165837
591.427	0.0166812
591.505	0.0167704
591.583	0.0168721
591.661	0.0167233
591.739	0.0167261
591.817	0.0167661
591.896	0.0169529
591.974	0.0167793
592.052	0.0167204
592.130	0.0165395
592.208	0.0167427
592.286	0.0166850
592.364	0.0166668
592.442	0.0167847
592.521	0.0167632
592.599	0.0167846
592.677	0.0165233
592.755	0.0166689
592.833	0.0167757
592.911	0.0167331
592.989	0.0165974
593.067	0.0167956
593.146	0.0167751
593.224	0.0167511
593.302	0.0166483
593.380	0.0167365
593.458	0.0168526
593.536	0.0166890
593.614	0.0167959
593.692	0.0167951
593.771	0.0166335
593.849	0.0167142
593.927	0.0168005
594.005	0.0168065
594.083	0.0167491
594.161	0.0168336
594.239	0.0166379
594.317	0.0168056
594.396	0.0167416
594.474	0.0168228
594.552	0.0167487
594.630	0.0166689
594.708	0.0168674
594.786	0.0167561
594.864	0.0167197
594.942	0.0167516
595.021	0.0167811
595.099	0.0167462
595.177	0.0168522
595.255	0.0168137
595.333	0.0167651
595.411	0.0166558
595.489	0.0168151
595.567	0.0167956
595.646	0.0167387
595.724	0.0168126
595.802	0.0166056
595.880	0.0166707
595.958	0.0167649
596.036	0.0167439
596.114	0.0168176
596.192	0.0167888
596.271	0.0166833
596.349	0.0167227
596.427	0.0167434
596.505	0.0167626
596.583	0.0168016
596.661	0.0167347
596.739	0.0167914
596.817	0.0166948
596.896	0.0167075
596.974	0.0167639
597.052	0.0167078
597.130	0.0167416
597.208	0.0167778
597.286	0.0167106
597.364	0.0167304
597.442	0.0166888
597.521	0.0166737
597.599	0.0166706
597.677	0.0166764
597.755	0.0167400
597.833	0.0166431
597.911	0.0167958
597.989	0.0168187
598.067	0.0168245
598.146	0.0166828
598.224	0.0167585
598.302	0.0167909
598.380	0.0168272
598.458	0.0167824
598.536	0.0167134
598.614	0.0167912
598.692	0.0166532
598.771	0.0166020
598.849	0.0166329
598.927	0.0167696
599.005	0.0167007
599.083	0.0167010
599.161	0.0168057
599.239	0.0168032
599.317	0.0168399
599.396	0.0168174
599.474	0.0167983
599.552	0.0166871
599.630	0.0167467
599.708	0.0167709
599.786	0.0166698
599.864	0.0166272
599.942	0.0166808
600.021	0.0167975
600.099	0.0166941
600.177	0.0168442
600.255	0.0168056
600.333	0.0167960
600.411	0.0167301
600.489	0.0166918
600.567	0.0166564
600.646	0.0167741
600.724	0.0167065
600.802	0.0167683
600.880	0.0167848
600.958	0.0166598
601.036	0.0166077
601.114	0.0167188
601.192	0.0167614
601.271	0.0166706
601.349	0.0165565
601.427	0.0167005
601.505	0.0168165
601.583	0.0167548
601.661	0.0168561
601.739	0.0167670
601.817	0.0167518
601.896	0.0167120
601.974	0.0166221
602.052	0.0167686
602.130	0.0167096
602.208	0.0166618
602.286	0.0167366
602.364	0.0167545
602.442	0.0167210
602.521	0.0166135
602.599	0.0167163
602.677	0.0167845
602.755	0.0168276
602.833	0.0167646
602.911	0.0166655
602.989	0.0167945
603.067	0.0168593
603.146	0.0167014
603.224	0.0167240
603.302	0.0167642
603.380	0.0166562
603.458	0.0167867
603.536	0.0168281
603.614	0.0168429
603.692	0.0166969
603.771	0.0166760
603.849	0.0168247
603.927	0.0167086
604.005	0.0167062
604.083	0.0166772
604.161	0.0167859
604.239	0.0166498
604.317	0.0169665
604.396	0.0167529
604.474	0.0167086
604.552	0.0167972
604.630	0.0167955
604.708	0.0167334
604.786	0.0167551
604.864	0.0166988
604.942	0.0167172
605.021	0.0167268
605.099	0.0167635
605.177	0.0167484
605.255	0.0167429
605.333	0.0166630
605.411	0.0167578
605.489	0.0168006
605.567	0.0167719
605.646	0.0166887
605.724	0.0167610
605.802	0.0166537
605.880	0.0168049
605.958	0.0167474
606.036	0.0168268
606.114	0.0167172
606.192	0.0165912
606.271	0.0167274
606.349	0.0166871
606.427	0.0166463
606.505	0.0168283
606.583	0.0168238
606.661	0.0167171
606.739	0.0166087
606.817	0.0167307
606.896	0.0168857
606.974	0.0167775
607.052	0.0167869
607.130	0.0167020
607.208	0.0168156
607.286	0.0167113
607.364	0.0167184
607.442	0.0166595
607.521	0.0166520
607.599	0.0166813
607.677	0.0166410
607.755	0.0167971
607.833	0.0167291
607.911	0.0167414
607.989	0.0166541
608.067	0.0166290
608.146	0.0167534
608.224	0.0166857
608.302	0.0167207
608.380	0.0167555
608.458	0.0166901
608.536	0.0167937
608.614	0.0167323
608.692	0.0167096
608.771	0.0167764
608.849	0.0167715
608.927	0.0166489
609.005	0.0167584
609.083	0.0167259
609.161	0.0166788
609.239	0.0167489
609.317	0.0167682
609.396	0.0168247
609.474	0.0167910
609.552	0.0167802
609.630	0.0167634
609.708	0.0165993
609.786	0.0166566
609.864	0.0167768
609.942	0.0166344
610.021	0.0167241
610.099	0.0167597
610.177	0.0166975
610.255	0.0167326
610.333	0.0168728
610.411	0.0167960
610.489	0.0167148
610.567	0.0166341
610.646	0.0166646
610.724	0.0166486
610.802	0.0168025
610.880	0.0167725
610.958	0.0167155
611.036	0.0166896
611.114	0.0167023
611.192	0.0167863
611.271	0.0167113
611.349	0.0166478
611.427	0.0166755
611.505	0.0167007
611.583	0.0167824
611.661	0.0167562
611.739	0.0168868
611.817	0.0166306
611.896	0.0167092
611.974	0.0168292
612.052	0.0165578
612.130	0.0166711
612.208	0.0167301
612.286	0.0166678
612.364	0.0167127
612.442	0.0168213
612.521	0.0167593
612.599	0.0167940
612.677	0.0166680
612.755	0.0167171
612.833	0.0168847
612.911	0.0167265
612.989	0.0166394
613.067	0.0167359
613.146	0.0167825
613.224	0.0166280
613.302	0.0167068
613.380	0.0166747
613.458	0.0168058
613.536	0.0167592
613.614	0.0166929
613.692	0.0167146
613.771	0.0168299
613.849	0.0166785
613.927	0.0167483
614.005	0.0166250
614.083	0.0166670
614.161	0.0166653
614.239	0.0168192
614.317	0.0166595
614.396	0.0166339
614.474	0.0168237
614.552	0.0168261
614.630	0.0168119
614.708	0.0165973
614.786	0.0167152
614.864	0.0168346
614.942	0.0167973
615.021	0.0168724
615.099	0.0167420
615.177	0.0165324
615.255	0.0168584
615.333	0.0167963
615.411	0.0166845
615.489	0.0167064
615.567	0.0168414
615.646	0.0167515
615.724	0.0166089
615.802	0.0167188
615.880	0.0168446
615.958	0.0166942
616.036	0.0166884
616.114	0.0167799
616.192	0.0167056
616.271	0.0167442
616.349	0.0167114
616.427	0.0168348
616.505	0.0168391
616.583	0.0166434
616.661	0.0167693
616.739	0.0167444
616.817	0.0168210
616.896	0.0168641
616.974	0.0166711
617.052	0.0166155
617.130	0.0166818
617.208	0.0167763
617.286	0.0165920
617.364	0.0167421
617.442	0.0167083
617.521	0.0166521
617.599	0.0166714
617.677	0.0166654
617.755	0.0167162
617.833	0.0167227
617.911	0.0167236
617.989	0.0166104
618.067	0.0167594
618.146	0.0167501
618.224	0.0167426
618.302	0.0167338
618.380	0.0166952
618.458	0.0167509
618.536	0.0167197
618.614	0.0167675
618.692	0.0166256
618.771	0.0166383
618.849	0.0166721
618.927	0.0166927
619.005	0.0167250
619.083	0.0167265
619.161	0.0167484
619.239	0.0167134
619.317	0.0166712
619.396	0.0166965
619.474	0.0166479
619.552	0.0168372
619.630	0.0168208
619.708	0.0168165
619.786	0.0165671
619.864	0.0166539
619.942	0.0168064
620.021	0.0166928
620.099	0.0167369
620.177	0.0167049
620.255	0.0167123
620.333	0.0166775
620.411	0.0166975
620.489	0.0167262
620.567	0.0168528
620.646	0.0168581
620.724	0.0167485
620.802	0.0167066
620.880	0.0166383
620.958	0.0167074
621.036	0.0167175
621.114	0.0167911
621.192	0.0167799
621.271	0.0167346
621.349	0.0165878
621.427	0.0166679
621.505	0.0166853
621.583	0.0167171
621.661	0.0168311
621.739	0.0167363
621.817	0.0166219
621.896	0.0168153
621.974	0.0168089
622.052	0.0167296
622.130	0.0167519
622.208	0.0167605
622.286	0.0167229
622.364	0.0167313
622.442	0.0167809
622.521	0.0166098
622.599	0.0167075
622.677	0.0167857
622.755	0.0166746
622.833	0.0167939
622.911	0.0166560
622.989	0.0167310
623.067	0.0166874
623.146	0.0168240
623.224	0.0166538
623.302	0.0167031
623.380	0.0167751
623.458	0.0167175
623.536	0.0167475
623.614	0.0166195
623.692	0.0166003
623.771	0.0167841
623.849	0.0167108
623.927	0.0167017
624.005	0.0166972
624.083	0.0166022
624.161	0.0165962
624.239	0.0166335
624.317	0.0166862
624.396	0.0167204
624.474	0.0167282
624.552	0.0167254
624.630	0.0166244
624.708	0.0167142
624.786	0.0167229
624.864	0.0167487
624.942	0.0167751
625.021	0.0165541
625.099	0.0167022
625.177	0.0166880
625.255	0.0168623
625.333	0.0167952
625.411	0.0166969
625.489	0.0166728
625.567	0.0167368
625.646	0.0168362
625.724	0.0167833
625.802	0.0168663
625.880	0.0167853
625.958	0.0166270
626.036	0.0167376
626.114	0.0167519
626.192	0.0167852
626.271	0.0167790
626.349	0.0166837
626.427	0.0168378
626.505	0.0166459
626.583	0.0169523
626.661	0.0166557
626.739	0.0167425
626.817	0.0167805
626.896	0.0167778
626.974	0.0166960
627.052	0.0166486
627.130	0.0167621
627.208	0.0166083
627.286	0.0167976
627.364	0.0167297
627.442	0.0167578
627.521	0.0168098
627.599	0.0167989
627.677	0.0166965
627.755	0.0167235
627.833	0.0167151
627.911	0.0166501
627.989	0.0167317
628.067	0.0167607
628.146	0.0166189
628.224	0.0168046
628.302	0.0167836
628.380	0.0167017
628.458	0.0167735
628.536	0.0166956
628.614	0.0165599
628.692	0.0167162
628.771	0.0167952
628.849	0.0167458
628.927	0.0166604
629.005	0.0166583
629.083	0.0165576
629.161	0.0166985
629.239	0.0166628
629.317	0.0166875
629.396	0.0167629
629.474	0.0167477
629.552	0.0166840
629.630	0.0167536
629.708	0.0165795
629.786	0.0167409
629.864	0.0167006
629.942	0.0166547
630.021	0.0167772
630.099	0.0166764
630.177	0.0167779
630.255	0.0167449
630.333	0.0168609
630.411	0.0168202
630.489	0.0167696
630.567	0.0167632
630.646	0.0166127
630.724	0.0168625
630.802	0.0167738
630.880	0.0169546
630.958	0.0168407
631.036	0.0168299
631.114	0.0168060
631.192	0.0168846
631.271	0.0169064
631.349	0.0169087
631.427	0.0167940
631.505	0.0167242
631.583	0.0168699
631.661	0.0168272
631.739	0.0167551
631.817	0.0168030
631.896	0.0168652
631.974	0.0167213
632.052	0.0166620
632.130	0.0167905
632.208	0.0169056
632.286	0.0167307
632.364	0.0166735
632.442	0.0166971
632.521	0.0167398
632.599	0.0167776
632.677	0.0166949
632.755	0.0167190
632.833	0.0167219
632.911	0.0166513
632.989	0.0166720
633.067	0.0167319
633.146	0.0167254
633.224	0.0166281
633.302	0.0167348
633.380	0.0166711
633.458	0.0166727
633.536	0.0166971
633.614	0.0167816
633.692	0.0166794
633.771	0.0166988
633.849	0.0167587
633.927	0.0166906
634.005	0.0167234
634.083	0.0167052
634.161	0.0167850
634.239	0.0167749
634.317	0.0167415
634.396	0.0167805
634.474	0.0168272
634.552	0.0167122
634.630	0.0168254
634.708	0.0168286
634.786	0.0169049
634.864	0.0167990
634.942	0.0167243
635.021	0.0168092
635.099	0.0167851
635.177	0.0168434
635.255	0.0168617
635.333	0.0167613
635.411	0.0166705
635.489	0.0168419
635.567	0.0168394
635.646	0.0168578
635.724	0.0167056
635.802	0.0168202
635.880	0.0166990
635.958	0.0168439
636.036	0.0169128
636.114	0.0167453
636.192	0.0167825
636.271	0.0166415
636.349	0.0167019
636.427	0.0167659
636.505	0.0166902
636.583	0.0166624
636.661	0.0167743
636.739	0.0166618
636.817	0.0167840
636.896	0.0167451
636.974	0.0166391
637.052	0.0166891
637.130	0.0165905
637.208	0.0167239
637.286	0.0166750
637.364	0.0165872
637.442	0.0165843
637.521	0.0167057
637.599	0.0167899
637.677	0.0167587
637.755	0.0166985
637.833	0.0167532
637.911	0.0168285
637.989	0.0168083
638.067	0.0167560
638.146	0.0167293
638.224	0.0168401
638.302	0.0168229
638.380	0.0168538
638.458	0.0168243
638.536	0.0167659
638.614	0.0166724
638.692	0.0167897
638.771	0.0168063
638.849	0.0167600
638.927	0.0168771
639.005	0.0168410
639.083	0.0168523
639.161	0.0166676
639.239	0.0168260
639.317	0.0167873
639.396	0.0167388
639.474	0.0167921
639.552	0.0166876
639.630	0.0166869
639.708	0.0167867
639.786	0.0167497
639.864	0.0167500
639.942	0.0167375
640.021	0.0166750
640.099	0.0167133
640.177	0.0167322
640.255	0.0167196
640.333	0.0166948
640.411	0.0167854
640.489	0.0167929
640.567	0.0168224
640.646	0.0167609
640.724	0.0166534
640.802	0.0167264
640.880	0.0166842
640.958	0.0168066
641.036	0.0166937
641.114	0.0167519
641.192	0.0166401
641.271	0.0167116
641.349	0.0167091
641.427	0.0166961
641.505	0.0167850
641.583	0.0166256
641.661	0.0167453
641.739	0.0166258
641.817	0.0167458
641.896	0.0168705
641.974	0.0168298
642.052	0.0167000
642.130	0.0167422
642.208	0.0166889
642.286	0.0168661
642.364	0.0168469
642.442	0.0166911
642.521	0.0167648
642.599	0.0167545
642.677	0.0167615
642.755	0.0167871
642.833	0.0167216
642.911	0.0167410
642.989	0.0167963
643.067	0.0167831
643.146	0.0167355
643.224	0.0167425
643.302	0.0165736
643.380	0.0166661
643.458	0.0167250
643.536	0.0167525
643.614	0.0167087
643.692	0.0166158
643.771	0.0167866
643.849	0.0167684
643.927	0.0166911
644.005	0.0167699
644.083	0.0167433
644.161	0.0167139
644.239	0.0166080
644.317	0.0167609
644.396	0.0167576
644.474	0.0167577
644.552	0.0167622
644.630	0.0167049
644.708	0.0167936
644.786	0.0166558
644.864	0.0167217
644.942	0.0167468
645.021	0.0167189
645.099	0.0168099
645.177	0.0167596
645.255	0.0167741
645.333	0.0167725
645.411	0.0167387
645.489	0.0167015
645.567	0.0167204
645.646	0.0168234
645.724	0.0168152
645.802	0.0168070
645.880	0.0166776
645.958	0.0166964
646.036	0.0166311
646.114	0.0168259
646.192	0.0167548
646.271	0.0166942
646.349	0.0166736
646.427	0.0167356
646.505	0.0166591
646.583	0.0167404
646.661	0.0166915
646.739	0.0167518
646.817	0.0167565
646.896	0.0167458
646.974	0.0167780
647.052	0.0168067
647.130	0.0167714
647.208	0.0166893
647.286	0.0166318
647.364	0.0166428
647.442	0.0167689
647.521	0.0167171
647.599	0.0167508
647.677	0.0166571
647.755	0.0167368
647.833	0.0167696
647.911	0.0168253
647.989	0.0166965
648.067	0.0166020
648.146	0.0166321
648.224	0.0167618
648.302	0.0167221
648.380	0.0167785
648.458	0.0167480
648.536	0.0167003
648.614	0.0168520
648.692	0.0167970
648.771	0.0165845
648.849	0.0167000
648.927	0.0167767
649.005	0.0166203
649.083	0.0168999
649.161	0.0167296
649.239	0.0167371
649.317	0.0166823
649.396	0.0166541
649.474	0.0167056
649.552	0.0167975
649.630	0.0167429
649.708	0.0167632
649.786	0.0166508
649.864	0.0166705
649.942	0.0166352
650.021	0.0167190
650.099	0.0165964
650.177	0.0167831
650.255	0.0167991
650.333	0.0167490
650.411	0.0167442
650.489	0.0166904
650.567	0.0166531
650.646	0.0166811
650.724	0.0168144
650.802	0.0167918
650.880	0.0168851
650.958	0.0168940
651.036	0.0166036
651.114	0.0165849
651.192	0.0167256
651.271	0.0168044
651.349	0.0169120
651.427	0.0165663
651.505	0.0166882
651.583	0.0166510
651.661	0.0168035
651.739	0.0168843
651.817	0.0168398
651.896	0.0167091
651.974	0.0167610
652.052	0.0167842
652.130	0.0167337
652.208	0.0169007
652.286	0.0167580
652.364	0.0166808
652.442	0.0167065
652.521	0.0166754
652.599	0.0167014
652.677	0.0166708
652.755	0.0167849
652.833	0.0167837
652.911	0.0167112
652.989	0.0167416
653.067	0.0167583
653.146	0.0166640
653.224	0.0167037
653.302	0.0166788
653.380	0.0166499
653.458	0.0168162
653.536	0.0166434
653.614	0.0166611
653.692	0.0167804
653.771	0.0167562
653.849	0.0167456
653.927	0.0167533
654.005	0.0166619
654.083	0.0167471
654.161	0.0167116
654.239	0.0167362
654.317	0.0167553
654.396	0.0168195
654.474	0.0167124
654.552	0.0166895
654.630	0.0167608
654.708	0.0167404
654.786	0.0167927
654.864	0.0167307
654.942	0.0168852
655.021	0.0167397
655.099	0.0168053
655.177	0.0168787
655.255	0.0166914
655.333	0.0167488
655.411	0.0168221
655.489	0.0167790
655.567	0.0167587
655.646	0.0166253
655.724	0.0167068
655.802	0.0167439
655.880	0.0168240
655.958	0.0167153
656.036	0.0167631
656.114	0.0167622
656.192	0.0167373
656.271	0.0166644
656.349	0.0166087
656.427	0.0167532
656.505	0.0168665
656.583	0.0166699
656.661	0.0166763
656.739	0.0166996
656.817	0.0166013
656.896	0.0167662
656.974	0.0166428
657.052	0.0167662
657.130	0.0166437
657.208	0.0166811
657.286	0.0167349
657.364	0.0168249
657.442	0.0167593
657.521	0.0168732
657.599	0.0167799
657.677	0.0166508
657.755	0.0167488
657.833	0.0166599
657.911	0.0167940
657.989	0.0166977
658.067	0.0167600
658.146	0.0168018
658.224	0.0168187
658.302	0.0167871
658.380	0.0166993
658.458	0.0167007
658.536	0.0167384
658.614	0.0167950
658.692	0.0166917
658.771	0.0166842
658.849	0.0166578
658.927	0.0168586
659.005	0.0167361
659.083	0.0168288
659.161	0.0167719
659.239	0.0168420
659.317	0.0167631
659.396	0.0166771
659.474	0.0168075
659.552	0.0169007
659.630	0.0168606
659.708	0.0168015
659.786	0.0168616
659.864	0.0167233
659.942	0.0166077
660.021	0.0168793
660.099	0.0168224
660.177	0.0165727
660.255	0.0168105
660.333	0.0168366
660.411	0.0167687
660.489	0.0167508
660.567	0.0167208
660.646	0.0167714
660.724	0.0168270
660.802	0.0167075
660.880	0.0168034
660.958	0.0167567
661.036	0.0168427
661.114	0.0168402
661.192	0.0169308
661.271	0.0167744
661.349	0.0167121
661.427	0.0168234
661.505	0.0167690
661.583	0.0167714
661.661	0.0167011
661.739	0.0168583
661.817	0.0168774
661.896	0.0168069
661.974	0.0166492
662.052	0.0167217
662.130	0.0167471
662.208	0.0167427
662.286	0.0167199
662.364	0.0167970
662.442	0.0167622
662.521	0.0167062
662.599	0.0167672
662.677	0.0168500
662.755	0.0168442
662.833	0.0167223
662.911	0.0167666
662.989	0.0167819
663.067	0.0168404
663.146	0.0167265
663.224	0.0167621
663.302	0.0167007
663.380	0.0167682
663.458	0.0166859
663.536	0.0167351
663.614	0.0166278
663.692	0.0167235
663.771	0.0166486
663.849	0.0167875
663.927	0.0168040
664.005	0.0167442
664.083	0.0168188
664.161	0.0168408
664.239	0.0166427
664.317	0.0167685
664.396	0.0169035
664.474	0.0169526
664.552	0.0168104
664.630	0.0167309
664.708	0.0168282
664.786	0.0167209
664.864	0.0166975
664.942	0.0167610
665.021	0.0166985
665.099	0.0166872
665.177	0.0167542
665.255	0.0167991
665.333	0.0168253
665.411	0.0166986
665.489	0.0168505
665.567	0.0168539
665.646	0.0166307
665.724	0.0167957
665.802	0.0168790
665.880	0.0168195
665.958	0.0167525
666.036	0.0167104
666.114	0.0167223
666.192	0.0169196
666.271	0.0167178
666.349	0.0167316
666.427	0.0167495
666.505	0.0167519
666.583	0.0169089
666.661	0.0168950
666.739	0.0167823
666.817	0.0167955
666.896	0.0166733
666.974	0.0167461
667.052	0.0167587
667.130	0.0167672
667.208	0.0166724
667.286	0.0168371
667.364	0.0167915
667.442	0.0166724
667.521	0.0168517
667.599	0.0168761
667.677	0.0167673
667.755	0.0166473
667.833	0.0166737
667.911	0.0167727
667.989	0.0166959
668.067	0.0167648
668.146	0.0167189
668.224	0.0166710
668.302	0.0167797
668.380	0.0167026
668.458	0.0166888
668.536	0.0168155
668.614	0.0167383
668.692	0.0166768
668.771	0.0167376
668.849	0.0166553
668.927	0.0166943
669.005	0.0167326
669.083	0.0167226
669.161	0.0166750
669.239	0.0168237
669.317	0.0166052
669.396	0.0167443
669.474	0.0167402
669.552	0.0168496
669.630	0.0167016
669.708	0.0168289
669.786	0.0166887
669.864	0.0166856
669.942	0.0167760
670.021	0.0168433
670.099	0.0167178
670.177	0.0166264
670.255	0.0167696
670.333	0.0167663
670.411	0.0167532
670.489	0.0168013
670.567	0.0167106
670.646	0.0166853
670.724	0.0167162
670.802	0.0167690
670.880	0.0167533
670.958	0.0166193
671.036	0.0167230
671.114	0.0167690
671.192	0.0167912
671.271	0.0166249
671.349	0.0167905
671.427	0.0167522
671.505	0.0168523
671.583	0.0167376
671.661	0.0166283
671.739	0.0166734
671.817	0.0167038
671.896	0.0167420
671.974	0.0166812
672.052	0.0168496
672.130	0.0167809
672.208	0.0168551
672.286	0.0166862
672.364	0.0167602
672.442	0.0166521
672.521	0.0167176
672.599	0.0168062
672.677	0.0168526
672.755	0.0167175
672.833	0.0167357
672.911	0.0168179
672.989	0.0167585
673.067	0.0167587
673.146	0.0167817
673.224	0.0166640
673.302	0.0167102
673.380	0.0167655
673.458	0.0166878
673.536	0.0167518
673.614	0.0166815
673.692	0.0167682
673.771	0.0167522
673.849	0.0166607
673.927	0.0166760
674.005	0.0167578
674.083	0.0167410
674.161	0.0166917
674.239	0.0168165
674.317	0.0167262
674.396	0.0167730
674.474	0.0167873
674.552	0.0167586
674.630	0.0168215
674.708	0.0167946
674.786	0.0168611
674.864	0.0167099
674.942	0.0168888
675.021	0.0169279
675.099	0.0168521
675.177	0.0168810
675.255	0.0168640
675.333	0.0166950
675.411	0.0166942
675.489	0.0167188
675.567	0.0167516
675.646	0.0167731
675.724	0.0166681
675.802	0.0167487
675.880	0.0166627
675.958	0.0167636
676.036	0.0167262
676.114	0.0167810
676.192	0.0167101
676.271	0.0168425
676.349	0.0166523
676.427	0.0167819
676.505	0.0167585
676.583	0.0165749
676.661	0.0167957
676.739	0.0168969
676.817	0.0167365
676.896	0.0166490
676.974	0.0167532
677.052	0.0166245
677.130	0.0168233
677.208	0.0168969
677.286	0.0167849
677.364	0.0167687
677.442	0.0167625
677.521	0.0168232
677.599	0.0167387
677.677	0.0166609
677.755	0.0167404
677.833	0.0167721
677.911	0.0166854
677.989	0.0167764
678.067	0.0168804
678.146	0.0168359
678.224	0.0167821
678.302	0.0168277
678.380	0.0168273
678.458	0.0168975
678.536	0.0168960
678.614	0.0165792
678.692	0.0168087
678.771	0.0167150
678.849	0.0167491
678.927	0.0168017
679.005	0.0168264
679.083	0.0168791
679.161	0.0166795
679.239	0.0168050
679.317	0.0168798
679.396	0.0166490
679.474	0.0166330
679.552	0.0168330
679.630	0.0167785
679.708	0.0168182
679.786	0.0168095
679.864	0.0167319
679.942	0.0168033
680.021	0.0166833
680.099	0.0166599
680.177	0.0169003
680.255	0.0167315
680.333	0.0168311
680.411	0.0168727
680.489	0.0167350
680.567	0.0168317
680.646	0.0167058
680.724	0.0168046
680.802	0.0166369
680.880	0.0166720
680.958	0.0166531
681.036	0.0168414
681.114	0.0167832
681.192	0.0166423
681.271	0.0167039
681.349	0.0167805
681.427	0.0167521
681.505	0.0167448
681.583	0.0168539
681.661	0.0168140
681.739	0.0166576
681.817	0.0167145
681.896	0.0168447
681.974	0.0167522
682.052	0.0167665
682.130	0.0168095
682.208	0.0168666
682.286	0.0167744
682.364	0.0166988
682.442	0.0167636
682.521	0.0167925
682.599	0.0167134
682.677	0.0166592
682.755	0.0167622
682.833	0.0167948
682.911	0.0166562
682.989	0.0166483
683.067	0.0167175
683.146	0.0167770
683.224	0.0168466
683.302	0.0167955
683.380	0.0167268
683.458	0.0167413
683.536	0.0167583
683.614	0.0167643
683.692	0.0166770
683.771	0.0166232
683.849	0.0168265
683.927	0.0168168
684.005	0.0166859
684.083	0.0167796
684.161	0.0168511
684.239	0.0166716
684.317	0.0166214
684.396	0.0167931
684.474	0.0169025
684.552	0.0167427
684.630	0.0167693
684.708	0.0166999
684.786	0.0166610
684.864	0.0167110
684.942	0.0168227
685.021	0.0166952
685.099	0.0167443
685.177	0.0167236
685.255	0.0167930
685.333	0.0166733
685.411	0.0166372
685.489	0.0167046
685.567	0.0167808
685.646	0.0168324
685.724	0.0166808
685.802	0.0167567
685.880	0.0167047
685.958	0.0166565
686.036	0.0166682
686.114	0.0168667
686.192	0.0167390
686.271	0.0168308
686.349	0.0167912
686.427	0.0167074
686.505	0.0167693
686.583	0.0167522
686.661	0.0165973
686.739	0.0166216
686.817	0.0166667
686.896	0.0168785
686.974	0.0168810
687.052	0.0167213
687.130	0.0169129
687.208	0.0166489
687.286	0.0166842
687.364	0.0166509
687.442	0.0168722
687.521	0.0166920
687.599	0.0165941
687.677	0.0166728
687.755	0.0166360
687.833	0.0166698
687.911	0.0165878
687.989	0.0168328
688.067	0.0167219
688.146	0.0167432
688.224	0.0167194
688.302	0.0167561
688.380	0.0167558
688.458	0.0166084
688.536	0.0168343
688.614	0.0165765
688.692	0.0168331
688.771	0.0168343
688.849	0.0166099
688.927	0.0166147
689.005	0.0165836
689.083	0.0167010
689.161	0.0166901
689.239	0.0166753
689.317	0.0166794
689.396	0.0166528
689.474	0.0166432
689.552	0.0166534
689.630	0.0167528
689.708	0.0166137
689.786	0.0166962
689.864	0.0167821
689.942	0.0168382
690.021	0.0168753
690.099	0.0166946
690.177	0.0167812
690.255	0.0168969
690.333	0.0167206
690.411	0.0168037
690.489	0.0167764
690.567	0.0166077
690.646	0.0166577
690.724	0.0165849
690.802	0.0164426
690.880	0.0166422
690.958	0.0164418
691.036	0.0165990
691.114	0.0166418
691.192	0.0165681
691.271	0.0167361
691.349	0.0169212
691.427	0.0169222
691.505	0.0170705
691.583	0.0171539
691.661	0.0171318
691.739	0.0170473
691.817	0.0169884
691.896	0.0168980
691.974	0.0168178
692.052	0.0166320
692.130	0.0164540
692.208	0.0163795
692.286	0.0162325
692.364	0.0162077
692.442	0.0162422
692.521	0.0162350
692.599	0.0162433
692.677	0.0164399
692.755	0.0167228
692.833	0.0170969
692.911	0.0172012
692.989	0.0173439
693.067	0.0175296
693.146	0.0176141
693.224	0.0175665
693.302	0.0175227
693.380	0.0171886
693.458	0.0169180
693.536	0.0165602
693.614	0.0162885
693.692	0.0162579
693.771	0.0159053
693.849	0.0158101
693.927	0.0157413
694.005	0.0158819
694.083	0.0159964
694.161	0.0163595
694.239	0.0167118
694.317	0.0169002
694.396	0.0173239
694.474	0.0174477
694.552	0.0176127
694.630	0.0177655
694.708	0.0178499
694.786	0.0174657
694.864	0.0172738
694.942	0.0168546
695.021	0.0165451
695.099	0.0163146
695.177	0.0160297
695.255	0.0157849
695.333	0.0156838
695.411	0.0157899
695.489	0.0160190
695.567	0.0161237
695.646	0.0162804
695.724	0.0166103
695.802	0.0168350
695.880	0.0170280
695.958	0.0172115
696.036	0.0172789
696.114	0.0173988
696.192	0.0174308
696.271	0.0174004
696.349	0.0173220
696.427	0.0171407
696.505	0.0169512
696.583	0.0165855
696.661	0.0164291
696.739	0.0162598
696.817	0.0161043
696.896	0.0158910
696.974	0.0157877
697.052	0.0158815
697.130	0.0159025
697.208	0.0161964
697.286	0.0163363
697.364	0.0164619
697.442	0.0166861
697.521	0.0168748
697.599	0.0171937
697.677	0.0172260
697.755	0.0173946
697.833	0.0174284
697.911	0.0173508
697.989	0.0173322
698.067	0.0171078
698.146	0.0169414
698.224	0.0168240
698.302	0.0166883
698.380	0.0167715
698.458	0.0167065
698.536	0.0168138
698.614	0.0170906
698.692	0.0170876
698.771	0.0172165
698.849	0.0173501
698.927	0.0171636
699.005	0.0172604
699.083	0.0172005
699.161	0.0170383
699.239	0.0169155
699.317	0.0168389
699.396	0.0165754
699.474	0.0164778
699.552	0.0162974
699.630	0.0161013
699.708	0.0159720
699.786	0.0159749
699.864	0.0161555
699.942	0.0159981
700.021	0.0160507
700.099	0.0160365
700.177	0.0161041
700.255	0.0160831
700.333	0.0161449
700.411	0.0159615
700.489	0.0159660
700.567	0.0160320
700.646	0.0158677
700.724	0.0158851
700.802	0.0159979
700.880	0.0162604
700.958	0.0163712
701.036	0.0167255
701.114	0.0168243
701.192	0.0171986
701.271	0.0173230
701.349	0.0175051
701.427	0.0178022
701.505	0.0179075
701.583	0.0180176
701.661	0.0179720
701.739	0.0177906
701.817	0.0174796
701.896	0.0174272
701.974	0.0173394
702.052	0.0171886
702.130	0.0170412
702.208	0.0170317
702.286	0.0171204
702.364	0.0170840
702.442	0.0173776
702.521	0.0176710
702.599	0.0178933
702.677	0.0182346
702.755	0.0183128
702.833	0.0186790
702.911	0.0188607
702.989	0.0186263
703.067	0.0186938
703.146	0.0185262
703.224	0.0181921
703.302	0.0177030
703.380	0.0170852
703.458	0.0167205
703.536	0.0160828
703.614	0.0152879
703.692	0.0147272
703.771	0.0142020
703.849	0.0136511
703.927	0.0132716
704.005	0.0128403
704.083	0.0125708
704.161	0.0123930
704.239	0.0125581
704.317	0.0126849
704.396	0.0127383
704.474	0.0131735
704.552	0.0138183
704.630	0.0142731
704.708	0.0150254
704.786	0.0155872
704.864	0.0163490
704.942	0.0170857
705.021	0.0176486
705.099	0.0183772
705.177	0.0188570
705.255	0.0192506
705.333	0.0197192
705.411	0.0200057
705.489	0.0202589
705.567	0.0202846
705.646	0.0202713
705.724	0.0202741
705.802	0.0201440
705.880	0.0198380
705.958	0.0196931
706.036	0.0191547
706.114	0.0187200
706.192	0.0181143
706.271	0.0177805
706.349	0.0173577
706.427	0.0169465
706.505	0.0168365
706.583	0.0165546
706.661	0.0166882
706.739	0.0167255
706.817	0.0170253
706.896	0.0175569
706.974	0.0181836
707.052	0.0186456
707.130	0.0192966
707.208	0.0197307
707.286	0.0201003
707.364	0.0203322
707.442	0.0203705
707.521	0.0199519
707.599	0.0195448
707.677	0.0187240
707.755	0.0178730
707.833	0.0169323
707.911	0.0155499
707.989	0.0143652
708.067	0.0128468
708.146	0.0116542
708.224	0.0103344
708.302	0.00910454
708.380	0.00816116
708.458	0.00748337
708.536	0.00683258
708.614	0.00666679
708.692	0.00673050
708.771	0.00698639
708.849	0.00769737
708.927	0.00851669
709.005	0.00968086
709.083	0.0108270
709.161	0.0122439
709.239	0.0138160
709.317	0.0152926
709.396	0.0168298
709.474	0.0184284
709.552	0.0199725
709.630	0.0213599
709.708	0.0225404
709.786	0.0234732
709.864	0.0241633
709.942	0.0249375
710.021	0.0251647
710.099	0.0254606
710.177	0.0255261
710.255	0.0253880
710.333	0.0251676
710.411	0.0248939
710.489	0.0246785
710.567	0.0244930
710.646	0.0243775
710.724	0.0243564
710.802	0.0243973
710.880	0.0243045
710.958	0.0242570
711.036	0.0240000
711.114	0.0237540
711.192	0.0232090
711.271	0.0225803
711.349	0.0213649
711.427	0.0199845
711.505	0.0185734
711.583	0.0165888
711.661	0.0146812
711.739	0.0127533
711.817	0.0106535
711.896	0.00887489
711.974	0.00710991
712.052	0.00540680
712.130	0.00440292
712.208	0.00332596
712.286	0.00243706
712.364	0.00200401
712.442	0.00196838
712.521	0.00210594
712.599	0.00269302
712.677	0.00344826
712.755	0.00461166
712.833	0.00611137
712.911	0.00749062
712.989	0.00928993
713.067	0.0111902
713.146	0.0130833
713.224	0.0153489
713.302	0.0172766
713.380	0.0190204
713.458	0.0206185
713.536	0.0219292
713.614	0.0231570
713.692	0.0239843
713.771	0.0248225
713.849	0.0252026
713.927	0.0254483
714.005	0.0256205
714.083	0.0258064
714.161	0.0258902
714.239	0.0257938
714.317	0.0258920
714.396	0.0258064
714.474	0.0259488
714.552	0.0257858
714.630	0.0257474
714.708	0.0256805
714.786	0.0252692
714.864	0.0247506
714.942	0.0244655
715.021	0.0240607
715.099	0.0232266
715.177	0.0223074
715.255	0.0212172
715.333	0.0200679
715.411	0.0188078
715.489	0.0172707
715.567	0.0158147
715.646	0.0139671
715.724	0.0123044
715.802	0.0107238
715.880	0.00907585
715.958	0.00747292
716.036	0.00588821
716.114	0.00481339
716.192	0.00391624
716.271	0.00319077
716.349	0.00300560
716.427	0.00300880
716.505	0.00344131
716.583	0.00432106
716.661	0.00552147
716.739	0.00672981
716.817	0.00826958
716.896	0.0101773
716.974	0.0120403
717.052	0.0140607
717.130	0.0159122
717.208	0.0177991
717.286	0.0195461
717.364	0.0209293
717.442	0.0223759
717.521	0.0236351
717.599	0.0247179
717.677	0.0254390
717.755	0.0259154
717.833	0.0263035
717.911	0.0265725
717.989	0.0265788
718.067	0.0263250
718.146	0.0260284
718.224	0.0254286
718.302	0.0248335
718.380	0.0241900
718.458	0.0232329
718.536	0.0222631
718.614	0.0213052
718.692	0.0201609
718.771	0.0192253
718.849	0.0183558
718.927	0.0174127
719.005	0.0164555
719.083	0.0155468
719.161	0.0147426
719.239	0.0139603
719.317	0.0133849
719.396	0.0125668
719.474	0.0118385
719.552	0.0113657
719.630	0.0108945
719.708	0.0103839
719.786	0.00979973
719.864	0.00970284
719.942	0.00957893
720.021	0.00931847
720.099	0.00941658
720.177	0.00972801
720.255	0.00981705
720.333	0.0101934
720.411	0.0108414
720.489	0.0115205
720.567	0.0121984
720.646	0.0129587
720.724	0.0141322
720.802	0.0151897
720.880	0.0161056
720.958	0.0173586
721.036	0.0185175
721.114	0.0194334
721.192	0.0203744
721.271	0.0212833
721.349	0.0219616
721.427	0.0226142
721.505	0.0231438
721.583	0.0237936
721.661	0.0240474
721.739	0.0241199
721.817	0.0241185
721.896	0.0240873
721.974	0.0240518
722.052	0.0236220
722.130	0.0230743
722.208	0.0226057
722.286	0.0217308
722.364	0.0209236
722.442	0.0200237
722.521	0.0190399
722.599	0.0181575
722.677	0.0172681
722.755	0.0163538
722.833	0.0154774
722.911	0.0146561
722.989	0.0139361
723.067	0.0132887
723.146	0.0128016
723.224	0.0124051
723.302	0.0119933
723.380	0.0118081
723.458	0.0115810
723.536	0.0114854
723.614	0.0115390
723.692	0.0114667
723.771	0.0114828
723.849	0.0116054
723.927	0.0120069
724.005	0.0124294
724.083	0.0127332
724.161	0.0131258
724.239	0.0137648
724.317	0.0143155
724.396	0.0149149
724.474	0.0153485
724.552	0.0160352
724.630	0.0166592
724.708	0.0172945
724.786	0.0176739
724.864	0.0182063
724.942	0.0185853
725.021	0.0189292
725.099	0.0190298
725.177	0.0192953
725.255	0.0193033
725.333	0.0192786
725.411	0.0193842
725.489	0.0195191
725.567	0.0192754
725.646	0.0192882
725.724	0.0193710
725.802	0.0191889
725.880	0.0191707
725.958	0.0190056
726.036	0.0189399
726.114	0.0185966
726.192	0.0184331
726.271	0.0181573
726.349	0.0177740
726.427	0.0173874
726.505	0.0167604
726.583	0.0165305
726.661	0.0160814
726.739	0.0154758
726.817	0.0152313
726.896	0.0148846
726.974	0.0145802
727.052	0.0142999
727.130	0.0140430
727.208	0.0139725
727.286	0.0140971
727.364	0.0142643
727.442	0.0146559
727.521	0.0147913
727.599	0.0150975
727.677	0.0156524
727.755	0.0162395
727.833	0.0165837
727.911	0.0170378
727.989	0.0176447
728.067	0.0179788
728.146	0.0182262
728.224	0.0187251
728.302	0.0189062
728.380	0.0189247
728.458	0.0189964
728.536	0.0190231
728.614	0.0190928
728.692	0.0188483
728.771	0.0187251
728.849	0.0183433
728.927	0.0181274
729.005	0.0178150
729.083	0.0175465
729.161	0.0172268
729.239	0.0169901
729.317	0.0167462
729.396	0.0166240
729.474	0.0165426
729.552	0.0164886
729.630	0.0165588
729.708	0.0163380
729.786	0.0164198
729.864	0.0164365
729.942	0.0164269
730.021	0.0165211
730.099	0.0162589
730.177	0.0163210
730.255	0.0164166
730.333	0.0161272
730.411	0.0158775
730.489	0.0159850
730.567	0.0158912
730.646	0.0155608
730.724	0.0155628
730.802	0.0154298
730.880	0.0151571
730.958	0.0150900
731.036	0.0148755
731.114	0.0148721
731.192	0.0149513
731.271	0.0148260
731.349	0.0150137
731.427	0.0150574
731.505	0.0152941
731.583	0.0155565
731.661	0.0158412
731.739	0.0161047
731.817	0.0163562
731.896	0.0166814
731.974	0.0169926
732.052	0.0172784
732.130	0.0173733
732.208	0.0175057
732.286	0.0178374
732.364	0.0177208
732.442	0.0179563
732.521	0.0180347
732.599	0.0183025
732.677	0.0182136
732.755	0.0184898
732.833	0.0183583
732.911	0.0183594
732.989	0.0182646
733.067	0.0181242
733.146	0.0180528
733.224	0.0180238
733.302	0.0179237
733.380	0.0177175
733.458	0.0176749
733.536	0.0175311
733.614	0.0173963
733.692	0.0174392
733.771	0.0171676
733.849	0.0170816
733.927	0.0172167
734.005	0.0170940
734.083	0.0171606
734.161	0.0172124
734.239	0.0172922
734.317	0.0171656
734.396	0.0170475
734.474	0.0169922
734.552	0.0169885
734.630	0.0167573
734.708	0.0165835
734.786	0.0164921
734.864	0.0162575
734.942	0.0161684
735.021	0.0158968
735.099	0.0156493
735.177	0.0154733
735.255	0.0153293
735.333	0.0151360
735.411	0.0151762
735.489	0.0150858
735.567	0.0149965
735.646	0.0151446
735.724	0.0151283
735.802	0.0151962
735.880	0.0151768
735.958	0.0153929
736.036	0.0155255
736.114	0.0155611
736.192	0.0156445
736.271	0.0157933
736.349	0.0159058
736.427	0.0160660
736.505	0.0161049
736.583	0.0162083
736.661	0.0164483
736.739	0.0166172
736.817	0.0167704
736.896	0.0168529
736.974	0.0172138
737.052	0.0174258
737.130	0.0174470
737.208	0.0176318
737.286	0.0178549
737.364	0.0180843
737.442	0.0181773
737.521	0.0183923
737.599	0.0184625
737.677	0.0185924
737.755	0.0186553
737.833	0.0187872
737.911	0.0187187
737.989	0.0187362
738.067	0.0185528
738.146	0.0186114
738.224	0.0185155
738.302	0.0183620
738.380	0.0179708
738.458	0.0177750
738.536	0.0175913
738.614	0.0171561
738.692	0.0171442
738.771	0.0166806
738.849	0.0164033
738.927	0.0162688
739.005	0.0159852
739.083	0.0158610
739.161	0.0156351
739.239	0.0154544
739.317	0.0154025
739.396	0.0151866
739.474	0.0152378
739.552	0.0151544
739.630	0.0150304
739.708	0.0151896
739.786	0.0152008
739.864	0.0151436
739.942	0.0151549
740.021	0.0153228
740.099	0.0152959
740.177	0.0152865
740.255	0.0154505
740.333	0.0156174
740.411	0.0157037
740.489	0.0157748
740.567	0.0159617
740.646	0.0161269
740.724	0.0161570
740.802	0.0162772
740.880	0.0165038
740.958	0.0167650
741.036	0.0169427
741.114	0.0170413
741.192	0.0172868
741.271	0.0172318
741.349	0.0176660
741.427	0.0177665
741.505	0.0178346
741.583	0.0180851
741.661	0.0180238
741.739	0.0182133
741.817	0.0182726
741.896	0.0183701
741.974	0.0183752
742.052	0.0184457
742.130	0.0186029
742.208	0.0184310
742.286	0.0187138
742.364	0.0184860
742.442	0.0183493
742.521	0.0184177
742.599	0.0183954
742.677	0.0182876
742.755	0.0180880
742.833	0.0176824
742.911	0.0177642
742.989	0.0174036
743.067	0.0172958
743.146	0.0171259
743.224	0.0167437
743.302	0.0163873
743.380	0.0160272
743.458	0.0159862
743.536	0.0157645
743.614	0.0156290
743.692	0.0153709
743.771	0.0150885
743.849	0.0149739
743.927	0.0147385
744.005	0.0148619
744.083	0.0147792
744.161	0.0145944
744.239	0.0145971
744.317	0.0145436
744.396	0.0147078
744.474	0.0149583
744.552	0.0152015
744.630	0.0154209
744.708	0.0156997
744.786	0.0159718
744.864	0.0163921
744.942	0.0165641
745.021	0.0168559
745.099	0.0170371
745.177	0.0172536
745.255	0.0174635
745.333	0.0174699
745.411	0.0175883
745.489	0.0176992
745.567	0.0176949
745.646	0.0175314
745.724	0.0176196
745.802	0.0176857
745.880	0.0175000
745.958	0.0177771
746.036	0.0176723
746.114	0.0177254
746.192	0.0179909
746.271	0.0180467
746.349	0.0180743
746.427	0.0180724
746.505	0.0180325
746.583	0.0179581
746.661	0.0179410
746.739	0.0178095
746.817	0.0174626
746.896	0.0172366
746.974	0.0168731
747.052	0.0166711
747.130	0.0161382
747.208	0.0157546
747.286	0.0154430
747.364	0.0152506
747.442	0.0150335
747.521	0.0147692
747.599	0.0146539
747.677	0.0146120
747.755	0.0146667
747.833	0.0146918
747.911	0.0148512
747.989	0.0149342
748.067	0.0150327
748.146	0.0152792
748.224	0.0155155
748.302	0.0157177
748.380	0.0158456
748.458	0.0161317
748.536	0.0163932
748.614	0.0164193
748.692	0.0166856
748.771	0.0168309
748.849	0.0171149
748.927	0.0173663
749.005	0.0175240
749.083	0.0176172
749.161	0.0176909
749.239	0.0178522
749.317	0.0180723
749.396	0.0180885
749.474	0.0182130
749.552	0.0183434
749.630	0.0183925
749.708	0.0184815
749.786	0.0184149
749.864	0.0183349
749.942	0.0183363
750.021	0.0181848
750.099	0.0183989
750.177	0.0181964
750.255	0.0179741
750.333	0.0179476
750.411	0.0178623
750.489	0.0177570
750.567	0.0177516
750.646	0.0174323
750.724	0.0173184
750.802	0.0172346
750.880	0.0168093
750.958	0.0165327
751.036	0.0163686
751.114	0.0161138
751.192	0.0158823
751.271	0.0155894
751.349	0.0152936
751.427	0.0152465
751.505	0.0150150
751.583	0.0149300
751.661	0.0147294
751.739	0.0146024
751.817	0.0146705
751.896	0.0146974
751.974	0.0147162
752.052	0.0147691
752.130	0.0149672
752.208	0.0150617
752.286	0.0149728
752.364	0.0152473
752.442	0.0155861
752.521	0.0158430
752.599	0.0158936
752.677	0.0160224
752.755	0.0163672
752.833	0.0165795
752.911	0.0168594
752.989	0.0170810
753.067	0.0172038
753.146	0.0174230
753.224	0.0174743
753.302	0.0175579
753.380	0.0177047
753.458	0.0178475
753.536	0.0178283
753.614	0.0177874
753.692	0.0178934
753.771	0.0178859
753.849	0.0179889
753.927	0.0179058
754.005	0.0178229
754.083	0.0179304
754.161	0.0178725
754.239	0.0177573
754.317	0.0177634
754.396	0.0178389
754.474	0.0177675
754.552	0.0176468
754.630	0.0174516
754.708	0.0173384
754.786	0.0173253
754.864	0.0170937
754.942	0.0168358
755.021	0.0167069
755.099	0.0165868
755.177	0.0165584
755.255	0.0164375
755.333	0.0162923
755.411	0.0161282
755.489	0.0159559
755.567	0.0158907
755.646	0.0160556
755.724	0.0158872
755.802	0.0158923
755.880	0.0158808
755.958	0.0161501
756.036	0.0161282
756.114	0.0160983
756.192	0.0161752
756.271	0.0163462
756.349	0.0164478
756.427	0.0164269
756.505	0.0165844
756.583	0.0167850
756.661	0.0167353
756.739	0.0168010
756.817	0.0169370
756.896	0.0169611
756.974	0.0171053
757.052	0.0171318
757.130	0.0171119
757.208	0.0171905
757.286	0.0171963
757.364	0.0172604
757.442	0.0171092
757.521	0.0169977
757.599	0.0168368
757.677	0.0169778
757.755	0.0167830
757.833	0.0166532
757.911	0.0166749
757.989	0.0166839
758.067	0.0165657
758.146	0.0164622
758.224	0.0164820
758.302	0.0164153
758.380	0.0164104
758.458	0.0165038
758.536	0.0166385
758.614	0.0166063
758.692	0.0165821
758.771	0.0165033
758.849	0.0166568
758.927	0.0167527
759.005	0.0167980
759.083	0.0165958
759.161	0.0169504
759.239	0.0168977
759.317	0.0169817
759.396	0.0169619
759.474	0.0168484
759.552	0.0168253
759.630	0.0167525
759.708	0.0167394
759.786	0.0167960
759.864	0.0166694
759.942	0.0167142
760.021	0.0168462
760.099	0.0169019
760.177	0.0166944
760.255	0.0167917
760.333	0.0168511
760.411	0.0169626
760.489	0.0169820
760.567	0.0168964
760.646	0.0167441
760.724	0.0170085
760.802	0.0168536
760.880	0.0169054
760.958	0.0168004
761.036	0.0167512
761.114	0.0166553
761.192	0.0165819
761.271	0.0165915
761.349	0.0166246
761.427	0.0165246
761.505	0.0166285
761.583	0.0166697
761.661	0.0165223
761.739	0.0167466
761.817	0.0166437
761.896	0.0166380
761.974	0.0166969
762.052	0.0168760
762.130	0.0168856
762.208	0.0169557
762.286	0.0169438
762.364	0.0170123
762.442	0.0170903
762.521	0.0170304
762.599	0.0170576
762.677	0.0170473
762.755	0.0170944
762.833	0.0172497
762.911	0.0170747
762.989	0.0169524
763.067	0.0170036
763.146	0.0171193
763.224	0.0168898
763.302	0.0169014
763.380	0.0167666
763.458	0.0168436
763.536	0.0166308
763.614	0.0168438
763.692	0.0166388
763.771	0.0165881
763.849	0.0166757
763.927	0.0165401
764.005	0.0165352
764.083	0.0165147
764.161	0.0166367
764.239	0.0165734
764.317	0.0165126
764.396	0.0164677
764.474	0.0164722
764.552	0.0165121
764.630	0.0163422
764.708	0.0163291
764.786	0.0163240
764.864	0.0164339
764.942	0.0162266
765.021	0.0161486
765.099	0.0163158
765.177	0.0163407
765.255	0.0162760
765.333	0.0162854
765.411	0.0163680
765.489	0.0162701
765.567	0.0164891
765.646	0.0164870
765.724	0.0165704
765.802	0.0168214
765.880	0.0167188
765.958	0.0168066
766.036	0.0169178
766.114	0.0171613
766.192	0.0171745
766.271	0.0171956
766.349	0.0173909
766.427	0.0173479
766.505	0.0174209
766.583	0.0172581
766.661	0.0172830
766.739	0.0172156
766.817	0.0173022
766.896	0.0173421
766.974	0.0172910
767.052	0.0173159
767.130	0.0172124
767.208	0.0171538
767.286	0.0171832
767.364	0.0170404
767.442	0.0170853
767.521	0.0169618
767.599	0.0169368
767.677	0.0168713
767.755	0.0169211
767.833	0.0167266
767.911	0.0166875
767.989	0.0167607
768.067	0.0167901
768.146	0.0167081
768.224	0.0165915
768.302	0.0165469
768.380	0.0165074
768.458	0.0166154
768.536	0.0163274
768.614	0.0163500
768.692	0.0163203
768.771	0.0163012
768.849	0.0161997
768.927	0.0161588
769.005	0.0161507
769.083	0.0161997
769.161	0.0160894
769.239	0.0161239
769.317	0.0160299
769.396	0.0161531
769.474	0.0162291
769.552	0.0162077
769.630	0.0163755
769.708	0.0165110
769.786	0.0166338
769.864	0.0166171
769.942	0.0167355
770.021	0.0169254
770.099	0.0170370
770.177	0.0170132
770.255	0.0169424
770.333	0.0169832
770.411	0.0169920
770.489	0.0169558
770.567	0.0168802
770.646	0.0168140
770.724	0.0167534
770.802	0.0167543
770.880	0.0166518
770.958	0.0165765
771.036	0.0165907
771.114	0.0166331
771.192	0.0165572
771.271	0.0164362
771.349	0.0164283
771.427	0.0166013
771.505	0.0167439
771.583	0.0168526
771.661	0.0167294
771.739	0.0167767
771.817	0.0169324
771.896	0.0168301
771.974	0.0169306
772.052	0.0171100
772.130	0.0170513
772.208	0.0171098
772.286	0.0169842
772.364	0.0170086
772.442	0.0171696
772.521	0.0170863
772.599	0.0169357
772.677	0.0168555
772.755	0.0168820
772.833	0.0169880
772.911	0.0166673
772.989	0.0168752
773.067	0.0167924
773.146	0.0166779
773.224	0.0166831
773.302	0.0165972
773.380	0.0165723
773.458	0.0166886
773.536	0.0166569
773.614	0.0168166
773.692	0.0166170
773.771	0.0165698
773.849	0.0168025
773.927	0.0165368
774.005	0.0166280
774.083	0.0167099
774.161	0.0167442
774.239	0.0166829
774.317	0.0166139
774.396	0.0167629
774.474	0.0165878
774.552	0.0166046
774.630	0.0166566
774.708	0.0167468
774.786	0.0165939
774.864	0.0166966
774.942	0.0165133
775.021	0.0164306
775.099	0.0166519
775.177	0.0167435
775.255	0.0166200
775.333	0.0166322
775.411	0.0166010
775.489	0.0166963
775.567	0.0166412
775.646	0.0164451
775.724	0.0165359
775.802	0.0165701
775.880	0.0164769
775.958	0.0164634
776.036	0.0165069
776.114	0.0166419
776.192	0.0162621
776.271	0.0162301
776.349	0.0163667
776.427	0.0164289
776.505	0.0164832
776.583	0.0166003
776.661	0.0163764
776.739	0.0164702
776.817	0.0163943
776.896	0.0165094
776.974	0.0162989
777.052	0.0163884
777.130	0.0165057
777.208	0.0165868
777.286	0.0165781
777.364	0.0163930
777.442	0.0166978
777.521	0.0167735
777.599	0.0166783
777.677	0.0167941
777.755	0.0168565
777.833	0.0170437
777.911	0.0170133
777.989	0.0171767
778.067	0.0170241
778.146	0.0172742
778.224	0.0172206
778.302	0.0173563
778.380	0.0173073
778.458	0.0173286
778.536	0.0172877
778.614	0.0174698
778.692	0.0173143
778.771	0.0172082
778.849	0.0172551
778.927	0.0173960
779.005	0.0171763
779.083	0.0170258
779.161	0.0170292
779.239	0.0168351
779.317	0.0167413
779.396	0.0166541
779.474	0.0165937
779.552	0.0164272
779.630	0.0162573
779.708	0.0162522
779.786	0.0161566
779.864	0.0160481
779.942	0.0159574
780.021	0.0160384
780.099	0.0159470
780.177	0.0160201
780.255	0.0160597
780.333	0.0159545
780.411	0.0160986
780.489	0.0161681
780.567	0.0162609
780.646	0.0163488
780.724	0.0163799
780.802	0.0165311
780.880	0.0165216
780.958	0.0166565
781.036	0.0167518
781.114	0.0167342
781.192	0.0168355
781.271	0.0168807
781.349	0.0168719
781.427	0.0171174
781.505	0.0170979
781.583	0.0170727
781.661	0.0171254
781.739	0.0172137
781.817	0.0170921
781.896	0.0171897
781.974	0.0172762
782.052	0.0172549
782.130	0.0173395
782.208	0.0173502
782.286	0.0172842
782.364	0.0173680
782.442	0.0173794
782.521	0.0173425
782.599	0.0172834
782.677	0.0171350
782.755	0.0171252
782.833	0.0169318
782.911	0.0167708
782.989	0.0167781
783.067	0.0167751
783.146	0.0167493
783.224	0.0164555
783.302	0.0164687
783.380	0.0163085
783.458	0.0161961
783.536	0.0163507
783.614	0.0163407
783.692	0.0162887
783.771	0.0162482
783.849	0.0162861
783.927	0.0163358
784.005	0.0163963
784.083	0.0164826
784.161	0.0166000
784.239	0.0166080
784.317	0.0164554
784.396	0.0165144
784.474	0.0164922
784.552	0.0165380
784.630	0.0164822
784.708	0.0165079
784.786	0.0165146
784.864	0.0165238
784.942	0.0165250
785.021	0.0165275
785.099	0.0166305
785.177	0.0165620
785.255	0.0166057
785.333	0.0166305
785.411	0.0166158
785.489	0.0168060
785.567	0.0168038
785.646	0.0168330
785.724	0.0170509
785.802	0.0169913
785.880	0.0170243
785.958	0.0169919
786.036	0.0172487
786.114	0.0171460
786.192	0.0170884
786.271	0.0170665
786.349	0.0173176
786.427	0.0171547
786.505	0.0171407
786.583	0.0170211
786.661	0.0171741
786.739	0.0170814
786.817	0.0171104
786.896	0.0171432
786.974	0.0171769
787.052	0.0170060
787.130	0.0168269
787.208	0.0169604
787.286	0.0169239
787.364	0.0169393
787.442	0.0169124
787.521	0.0167150
787.599	0.0166859
787.677	0.0165829
787.755	0.0165252
787.833	0.0163618
787.911	0.0162808
787.989	0.0162543
788.067	0.0162960
788.146	0.0160393
788.224	0.0160471
788.302	0.0160131
788.380	0.0160527
788.458	0.0160403
788.536	0.0159705
788.614	0.0160458
788.692	0.0160798
788.771	0.0160702
788.849	0.0160493
788.927	0.0161804
789.005	0.0164350
789.083	0.0164926
789.161	0.0167288
789.239	0.0167168
789.317	0.0166580
789.396	0.0168845
789.474	0.0169046
789.552	0.0169885
789.630	0.0171494
789.708	0.0170607
789.786	0.0172135
789.864	0.0173289
789.942	0.0174750
790.021	0.0173090
790.099	0.0174160
790.177	0.0173875
790.255	0.0174697
790.333	0.0174863
790.411	0.0174533
790.489	0.0173775
790.567	0.0173956
790.646	0.0173031
790.724	0.0172195
790.802	0.0172325
790.880	0.0171613
790.958	0.0169590
791.036	0.0169985
791.114	0.0169778
791.192	0.0168920
791.271	0.0167785
791.349	0.0167577
791.427	0.0166556
791.505	0.0166777
791.583	0.0165260
791.661	0.0165654
791.739	0.0165276
791.817	0.0162300
791.896	0.0161682
791.974	0.0161745
792.052	0.0160968
792.130	0.0161069
792.208	0.0159777
792.286	0.0159255
792.364	0.0159638
792.442	0.0160574
792.521	0.0160107
792.599	0.0159422
792.677	0.0160606
792.755	0.0161765
792.833	0.0161870
792.911	0.0162394
792.989	0.0163850
793.067	0.0164374
793.146	0.0164928
793.224	0.0165955
793.302	0.0165100
793.380	0.0167343
793.458	0.0168526
793.536	0.0168005
793.614	0.0168481
793.692	0.0170347
793.771	0.0170438
793.849	0.0169357
793.927	0.0172572
794.005	0.0170959
794.083	0.0170715
794.161	0.0171476
794.239	0.0171803
794.317	0.0171352
794.396	0.0173650
794.474	0.0172712
794.552	0.0171048
794.630	0.0173148
794.708	0.0172481
794.786	0.0172678
794.864	0.0173399
794.942	0.0172884
795.021	0.0172241
795.099	0.0171536
795.177	0.0171732
795.255	0.0172135
795.333	0.0170458
795.411	0.0168912
795.489	0.0168494
795.567	0.0168225
795.646	0.0170010
795.724	0.0166634
795.802	0.0164948
795.880	0.0165104
795.958	0.0164844
796.036	0.0163551
796.114	0.0163428
796.192	0.0165376
796.271	0.0163998
796.349	0.0163145
796.427	0.0161314
796.505	0.0162248
796.583	0.0161143
796.661	0.0160706
796.739	0.0161623
796.817	0.0161193
796.896	0.0160105
796.974	0.0160415
797.052	0.0160616
797.130	0.0161419
797.208	0.0160696
797.286	0.0160544
797.364	0.0162246
797.442	0.0162759
797.521	0.0162748
797.599	0.0163850
797.677	0.0163805
797.755	0.0164378
797.833	0.0166475
797.911	0.0165580
797.989	0.0167892
798.067	0.0169741
798.146	0.0169714
798.224	0.0172697
798.302	0.0172138
798.380	0.0174167
798.458	0.0174097
798.536	0.0174564
798.614	0.0176323
798.692	0.0175126
798.771	0.0175861
798.849	0.0175701
798.927	0.0174497
799.005	0.0175105
799.083	0.0173817
799.161	0.0174452
799.239	0.0173125
799.317	0.0172089
799.396	0.0170979
799.474	0.0169657
799.552	0.0169689
799.630	0.0168835
799.708	0.0167841
799.786	0.0167718
799.864	0.0167444
799.942	0.0163963
800.021	0.0164442
800.099	0.0164093
800.177	0.0161850
800.255	0.0160602
800.333	0.0160884
800.411	0.0160028
800.489	0.0157793
800.567	0.0158913
800.646	0.0158240
800.724	0.0158559
800.802	0.0157829
800.880	0.0157412
800.958	0.0158546
801.036	0.0157509
801.114	0.0159227
801.192	0.0159526
801.271	0.0159218
801.349	0.0160345
801.427	0.0160774
801.505	0.0162113
801.583	0.0163298
801.661	0.0165002
801.739	0.0165079
801.817	0.0167431
801.896	0.0167619
801.974	0.0168779
802.052	0.0169798
802.130	0.0170477
802.208	0.0170771
802.286	0.0171268
802.364	0.0173076
802.442	0.0172813
802.521	0.0173808
802.599	0.0175771
802.677	0.0174339
802.755	0.0175559
802.833	0.0174960
802.911	0.0175076
802.989	0.0175276
803.067	0.0175579
803.146	0.0173992
803.224	0.0175282
803.302	0.0175572
803.380	0.0175027
803.458	0.0174089
803.536	0.0173357
803.614	0.0173351
803.692	0.0173378
803.771	0.0171931
803.849	0.0173256
803.927	0.0170755
804.005	0.0169871
804.083	0.0167950
804.161	0.0168034
804.239	0.0164719
804.317	0.0164087
804.396	0.0162133
804.474	0.0161166
804.552	0.0158673
804.630	0.0158889
804.708	0.0157483
804.786	0.0157023
804.864	0.0156056
804.942	0.0155432
805.021	0.0153056
805.099	0.0154207
805.177	0.0154317
805.255	0.0154982
805.333	0.0154379
805.411	0.0157033
805.489	0.0158806
805.567	0.0158775
805.646	0.0158286
805.724	0.0161452
805.802	0.0162994
805.880	0.0163067
805.958	0.0165279
806.036	0.0164991
806.114	0.0168504
806.192	0.0169140
806.271	0.0172225
806.349	0.0172555
806.427	0.0173537
806.505	0.0175184
806.583	0.0174856
806.661	0.0176715
806.739	0.0178403
806.817	0.0179616
806.896	0.0180326
806.974	0.0179643
807.052	0.0182005
807.130	0.0180604
807.208	0.0180949
807.286	0.0180860
807.364	0.0181467
807.442	0.0179707
807.521	0.0179169
807.599	0.0178323
807.677	0.0177525
807.755	0.0176010
807.833	0.0175314
807.911	0.0173698
807.989	0.0171932
808.067	0.0168468
808.146	0.0167912
808.224	0.0168206
808.302	0.0165245
808.380	0.0162564
808.458	0.0160870
808.536	0.0160596
808.614	0.0158333
808.692	0.0155212
808.771	0.0155629
808.849	0.0153864
808.927	0.0151694
809.005	0.0151754
809.083	0.0152072
809.161	0.0152705
809.239	0.0150504
809.317	0.0150904
809.396	0.0151185
809.474	0.0151085
809.552	0.0151051
809.630	0.0152789
809.708	0.0153297
809.786	0.0155540
809.864	0.0157653
809.942	0.0159635
810.021	0.0160586
810.099	0.0162035
810.177	0.0164146
810.255	0.0166143
810.333	0.0168665
810.411	0.0171690
810.489	0.0172733
810.567	0.0175134
810.646	0.0176736
810.724	0.0179272
810.802	0.0179409
810.880	0.0181705
810.958	0.0183103
811.036	0.0184147
811.114	0.0184739
811.192	0.0184881
811.271	0.0183998
811.349	0.0185162
811.427	0.0185811
811.505	0.0185033
811.583	0.0183264
811.661	0.0182161
811.739	0.0180283
811.817	0.0178640
811.896	0.0176910
811.974	0.0177197
812.052	0.0173811
812.130	0.0173669
812.208	0.0170447
812.286	0.0169286
812.364	0.0166466
812.442	0.0164654
812.521	0.0161252
812.599	0.0158974
812.677	0.0159548
812.755	0.0158194
812.833	0.0157880
812.911	0.0156503
812.989	0.0152901
813.067	0.0154787
813.146	0.0153862
813.224	0.0153327
813.302	0.0154321
813.380	0.0153986
813.458	0.0153938
813.536	0.0154130
813.614	0.0153627
813.692	0.0153912
813.771	0.0155446
813.849	0.0155904
813.927	0.0157652
814.005	0.0160924
814.083	0.0160620
814.161	0.0162658
814.239	0.0163167
814.317	0.0166196
814.396	0.0168089
814.474	0.0166895
814.552	0.0171464
814.630	0.0172585
814.708	0.0172812
814.786	0.0175439
814.864	0.0177158
814.942	0.0178560
815.021	0.0178512
815.099	0.0180726
815.177	0.0178434
815.255	0.0178751
815.333	0.0177426
815.411	0.0177272
815.489	0.0178330
815.567	0.0176050
815.646	0.0174629
815.724	0.0173167
815.802	0.0173301
815.880	0.0171784
815.958	0.0169722
816.036	0.0170314
816.114	0.0166978
816.192	0.0166638
816.271	0.0165940
816.349	0.0166026
816.427	0.0164500
816.505	0.0162445
816.583	0.0162572
816.661	0.0161942
816.739	0.0160912
816.817	0.0160163
816.896	0.0160729
816.974	0.0160110
817.052	0.0158826
817.130	0.0160548
817.208	0.0160918
817.286	0.0161447
817.364	0.0161908
817.442	0.0161432
817.521	0.0161253
817.599	0.0163008
817.677	0.0162764
817.755	0.0162840
817.833	0.0164160
817.911	0.0164190
817.989	0.0164492
818.067	0.0167085
818.146	0.0168259
818.224	0.0168110
818.302	0.0168884
818.380	0.0169411
818.458	0.0170396
818.536	0.0170187
818.614	0.0171366
818.692	0.0172175
818.771	0.0171584
818.849	0.0171140
818.927	0.0172221
819.005	0.0173035
819.083	0.0174082
819.161	0.0173779
819.239	0.0173390
819.317	0.0172198
819.396	0.0172929
819.474	0.0172652
819.552	0.0173335
819.630	0.0172536
819.708	0.0172379
819.786	0.0172540
819.864	0.0170490
819.942	0.0170830
820.021	0.0169720
820.099	0.0168124
820.177	0.0167987
820.255	0.0167245
820.333	0.0164920
820.411	0.0164595
820.489	0.0162673
820.567	0.0163626
820.646	0.0162932
820.724	0.0160417
820.802	0.0159849
820.880	0.0158417
820.958	0.0160042
821.036	0.0160068
821.114	0.0157368
821.192	0.0157683
821.271	0.0158459
821.349	0.0157521
821.427	0.0158757
821.505	0.0158659
821.583	0.0159267
821.661	0.0161514
821.739	0.0161655
821.817	0.0163673
821.896	0.0165210
821.974	0.0165734
822.052	0.0168088
822.130	0.0168247
822.208	0.0167561
822.286	0.0168902
822.364	0.0169790
822.442	0.0171516
822.521	0.0170258
822.599	0.0170658
822.677	0.0171725
822.755	0.0171005
822.833	0.0170338
822.911	0.0170673
822.989	0.0171616
823.067	0.0170380
823.146	0.0171227
823.224	0.0170612
823.302	0.0171983
823.380	0.0171364
823.458	0.0172410
823.536	0.0172837
823.614	0.0173221
823.692	0.0173302
823.771	0.0172227
823.849	0.0173203
823.927	0.0173583
824.005	0.0172509
824.083	0.0172301
824.161	0.0171927
824.239	0.0171681
824.317	0.0169297
824.396	0.0168995
824.474	0.0168510
824.552	0.0167290
824.630	0.0166668
824.708	0.0164921
824.786	0.0163360
824.864	0.0163258
824.942	0.0163007
825.021	0.0161953
825.099	0.0160674
825.177	0.0161248
825.255	0.0161204
825.333	0.0161214
825.411	0.0160524
825.489	0.0160995
825.567	0.0160516
825.646	0.0161661
825.724	0.0162507
825.802	0.0162019
825.880	0.0163040
825.958	0.0162575
826.036	0.0164870
826.114	0.0166296
826.192	0.0166080
826.271	0.0164417
826.349	0.0167985
826.427	0.0169509
826.505	0.0167175
826.583	0.0166595
826.661	0.0166708
826.739	0.0166600
826.817	0.0167205
826.896	0.0165881
826.974	0.0166125
827.052	0.0168585
827.130	0.0166563
827.208	0.0165636
827.286	0.0167274
827.364	0.0168362
827.442	0.0168694
827.521	0.0169059
827.599	0.0168806
827.677	0.0170569
827.755	0.0171752
827.833	0.0171683
827.911	0.0171481
827.989	0.0171066
828.067	0.0172614
828.146	0.0173630
828.224	0.0173898
828.302	0.0173157
828.380	0.0172713
828.458	0.0173209
828.536	0.0172018
828.614	0.0172167
828.692	0.0172350
828.771	0.0171712
828.849	0.0169235
828.927	0.0168651
829.005	0.0169014
829.083	0.0168153
829.161	0.0166371
829.239	0.0165170
829.317	0.0165363
829.396	0.0163973
829.474	0.0165151
829.552	0.0164480
829.630	0.0163810
829.708	0.0163786
829.786	0.0163924
829.864	0.0163858
829.942	0.0164156
830.021	0.0164094
830.099	0.0165615
830.177	0.0164850
830.255	0.0165952
830.333	0.0164635
830.411	0.0165473
830.489	0.0164430
830.567	0.0165132
830.646	0.0165985
830.724	0.0165574
830.802	0.0164904
830.880	0.0165159
830.958	0.0165226
831.036	0.0165465
831.114	0.0165747
831.192	0.0165207
831.271	0.0166360
831.349	0.0166148
831.427	0.0165526
831.505	0.0167697
831.583	0.0167590
831.661	0.0167432
831.739	0.0168806
831.817	0.0169193
831.896	0.0168982
831.974	0.0170137
832.052	0.0170831
832.130	0.0171626
832.208	0.0171011
832.286	0.0171142
832.364	0.0172391
832.442	0.0172146
832.521	0.0172289
832.599	0.0171458
832.677	0.0171201
832.755	0.0171286
832.833	0.0170759
832.911	0.0171365
832.989	0.0169627
833.067	0.0168274
833.146	0.0167802
833.224	0.0167535
833.302	0.0168715
833.380	0.0168221
833.458	0.0167577
833.536	0.0166624
833.614	0.0167218
833.692	0.0168639
833.771	0.0168690
833.849	0.0167774
833.927	0.0167312
834.005	0.0168152
834.083	0.0168399
834.161	0.0168694
834.239	0.0167436
834.317	0.0168538
834.396	0.0168107
834.474	0.0169277
834.552	0.0168274
834.630	0.0166319
834.708	0.0167198
834.786	0.0165056
834.864	0.0165775
834.942	0.0165033
835.021	0.0164787
835.099	0.0165144
835.177	0.0165000
835.255	0.0164435
835.333	0.0163953
835.411	0.0164449
835.489	0.0163409
835.567	0.0164681
835.646	0.0163348
835.724	0.0166586
835.802	0.0165014
835.880	0.0166450
835.958	0.0167184
836.036	0.0166939
836.114	0.0167700
836.192	0.0169247
836.271	0.0169269
836.349	0.0170561
836.427	0.0169582
836.505	0.0169073
836.583	0.0171501
836.661	0.0171287
836.739	0.0170874
836.817	0.0173664
836.896	0.0174329
836.974	0.0172207
837.052	0.0170234
837.130	0.0171310
837.208	0.0174369
837.286	0.0172071
837.364	0.0170997
837.442	0.0171057
837.521	0.0170116
837.599	0.0170232
837.677	0.0170659
837.755	0.0169546
837.833	0.0169718
837.911	0.0167495
837.989	0.0166631
838.067	0.0165815
838.146	0.0166687
838.224	0.0167542
838.302	0.0165831
838.380	0.0165265
838.458	0.0165298
838.536	0.0165260
838.614	0.0165054
838.692	0.0165929
838.771	0.0165227
838.849	0.0165838
838.927	0.0164993
839.005	0.0164995
839.083	0.0166079
839.161	0.0167347
839.239	0.0167346
839.317	0.0166557
839.396	0.0167381
839.474	0.0168685
839.552	0.0168745
839.630	0.0168990
839.708	0.0169158
839.786	0.0168165
839.864	0.0169352
839.942	0.0167473
840.021	0.0167055
840.099	0.0166326
840.177	0.0169132
840.255	0.0167112
840.333	0.0167073
840.411	0.0167043
840.489	0.0168039
840.567	0.0167765
840.646	0.0168204
840.724	0.0169682
840.802	0.0167783
840.880	0.0169384
840.958	0.0168308
841.036	0.0167187
841.114	0.0168397
841.192	0.0169102
841.271	0.0168181
841.349	0.0166838
841.427	0.0168093
841.505	0.0168967
841.583	0.0166718
841.661	0.0167029
841.739	0.0166813
841.817	0.0167126
841.896	0.0166333
841.974	0.0165635
842.052	0.0167474
842.130	0.0166595
842.208	0.0164992
842.286	0.0165656
842.364	0.0164367
842.442	0.0165771
842.521	0.0165173
842.599	0.0166168
842.677	0.0167124
842.755	0.0167396
842.833	0.0165942
842.911	0.0166440
842.989	0.0166885
843.067	0.0168291
843.146	0.0168898
843.224	0.0168053
843.302	0.0167908
843.380	0.0168092
843.458	0.0170703
843.536	0.0170070
843.614	0.0169219
843.692	0.0168543
843.771	0.0168549
843.849	0.0170208
843.927	0.0169140
844.005	0.0168103
844.083	0.0169783
844.161	0.0170026
844.239	0.0167855
844.317	0.0167954
844.396	0.0169440
844.474	0.0167135
844.552	0.0167236
844.630	0.0166669
844.708	0.0167324
844.786	0.0168471
844.864	0.0167733
844.942	0.0167221
845.021	0.0166965
845.099	0.0164983
845.177	0.0165987
845.255	0.0165960
845.333	0.0166879
845.411	0.0167950
845.489	0.0166383
845.567	0.0166961
845.646	0.0166505
845.724	0.0166306
845.802	0.0167151
845.880	0.0166040
845.958	0.0167638
846.036	0.0166800
846.114	0.0166673
846.192	0.0167867
846.271	0.0167345
846.349	0.0166769
846.427	0.0167204
846.505	0.0168226
846.583	0.0170317
846.661	0.0168478
846.739	0.0167363
846.817	0.0168260
846.896	0.0167940
846.974	0.0169387
847.052	0.0167863
847.130	0.0168553
847.208	0.0167114
847.286	0.0166599
847.364	0.0167515
847.442	0.0166444
847.521	0.0166333
847.599	0.0167679
847.677	0.0166380
847.755	0.0166029
847.833	0.0167319
847.911	0.0167850
847.989	0.0166064
848.067	0.0166183
848.146	0.0166425
848.224	0.0167670
848.302	0.0167354
848.380	0.0166431
848.458	0.0167002
848.536	0.0166852
848.614	0.0166256
848.692	0.0165874
848.771	0.0166009
848.849	0.0165646
848.927	0.0166740
849.005	0.0166804
849.083	0.0166282
849.161	0.0165932
849.239	0.0167078
849.317	0.0166076
849.396	0.0167412
849.474	0.0167286
849.552	0.0169028
849.630	0.0168407
849.708	0.0167081
849.786	0.0168260
849.864	0.0167569
849.942	0.0169443
850.021	0.0169625
850.099	0.0170280
850.177	0.0170797
850.255	0.0169062
850.333	0.0168564
850.411	0.0168836
850.489	0.0169166
850.567	0.0169744
850.646	0.0169554
850.724	0.0168867
850.802	0.0168221
850.880	0.0167860
850.958	0.0167500
851.036	0.0169575
851.114	0.0168974
851.192	0.0167457
851.271	0.0167976
851.349	0.0167476
851.427	0.0166999
851.505	0.0166860
851.583	0.0166743
851.661	0.0164742
851.739	0.0166150
851.817	0.0165433
851.896	0.0164471
851.974	0.0167010
852.052	0.0165957
852.130	0.0164905
852.208	0.0164816
852.286	0.0165076
852.364	0.0164989
852.442	0.0165070
852.521	0.0166104
852.599	0.0166817
852.677	0.0166750
852.755	0.0167925
852.833	0.0167760
852.911	0.0168061
852.989	0.0167718
853.067	0.0169156
853.146	0.0169418
853.224	0.0170314
853.302	0.0169663
853.380	0.0169785
853.458	0.0170274
853.536	0.0170459
853.614	0.0170852
853.692	0.0170315
853.771	0.0169833
853.849	0.0169724
853.927	0.0168157
854.005	0.0167166
854.083	0.0168163
854.161	0.0168228
854.239	0.0167979
854.317	0.0167627
854.396	0.0166273
854.474	0.0166317
854.552	0.0167282
854.630	0.0166755
854.708	0.0167405
854.786	0.0166714
854.864	0.0167007
854.942	0.0165449
855.021	0.0166003
855.099	0.0166050
855.177	0.0166731
855.255	0.0166967
855.333	0.0166087
855.411	0.0166557
855.489	0.0166486
855.567	0.0166886
855.646	0.0167007
855.724	0.0167873
855.802	0.0167288
855.880	0.0167265
855.958	0.0166476
856.036	0.0167272
856.114	0.0164719
856.192	0.0167246
856.271	0.0167405
856.349	0.0165444
856.427	0.0165759
856.505	0.0166167
856.583	0.0166293
856.661	0.0166675
856.739	0.0165246
856.817	0.0167826
856.896	0.0166727
856.974	0.0167871
857.052	0.0169115
857.130	0.0169398
857.208	0.0169247
857.286	0.0168085
857.364	0.0167764
857.442	0.0169261
857.521	0.0170302
857.599	0.0167508
857.677	0.0167648
857.755	0.0167738
857.833	0.0166428
857.911	0.0167796
857.989	0.0169192
858.067	0.0167081
858.146	0.0167127
858.224	0.0167545
858.302	0.0166837
858.380	0.0167658
858.458	0.0167535
858.536	0.0167191
858.614	0.0167182
858.692	0.0167005
858.771	0.0168139
858.849	0.0168298
858.927	0.0167741
859.005	0.0166525
859.083	0.0167242
859.161	0.0168718
859.239	0.0167896
859.317	0.0168170
859.396	0.0168262
859.474	0.0168215
859.552	0.0169252
859.630	0.0169024
859.708	0.0169947
859.786	0.0168955
859.864	0.0168245
859.942	0.0167862
860.021	0.0168472
860.099	0.0168767
860.177	0.0166959
860.255	0.0168598
860.333	0.0167539
860.411	0.0168286
860.489	0.0166265
860.567	0.0165997
860.646	0.0167188
860.724	0.0166204
860.802	0.0166580
860.880	0.0166199
860.958	0.0165745
861.036	0.0165920
861.114	0.0165886
861.192	0.0166289
861.271	0.0165952
861.349	0.0166315
861.427	0.0165524
861.505	0.0165807
861.583	0.0165949
861.661	0.0165368
861.739	0.0165733
861.817	0.0166055
861.896	0.0166332
861.974	0.0167251
862.052	0.0167087
862.130	0.0166821
862.208	0.0167835
862.286	0.0167722
862.364	0.0168370
862.442	0.0168383
862.521	0.0168281
862.599	0.0167811
862.677	0.0167574
862.755	0.0168398
862.833	0.0168163
862.911	0.0167319
862.989	0.0168087
863.067	0.0167865
863.146	0.0169017
863.224	0.0167868
863.302	0.0168102
863.380	0.0167822
863.458	0.0168828
863.536	0.0168267
863.614	0.0168584
863.692	0.0168829
863.771	0.0169855
863.849	0.0170362
863.927	0.0169865
864.005	0.0169595
864.083	0.0170393
864.161	0.0169704
864.239	0.0169484
864.317	0.0170023
864.396	0.0170815
864.474	0.0167642
864.552	0.0167869
864.630	0.0167809
864.708	0.0168681
864.786	0.0167611
864.864	0.0166964
864.942	0.0166106
865.021	0.0166203
865.099	0.0164400
865.177	0.0163895
865.255	0.0165102
865.333	0.0165234
865.411	0.0164237
865.489	0.0164619
865.567	0.0162714
865.646	0.0165327
865.724	0.0163718
865.802	0.0164984
865.880	0.0164787
865.958	0.0164874
866.036	0.0165072
866.114	0.0165203
866.192	0.0164951
866.271	0.0165954
866.349	0.0166327
866.427	0.0166254
866.505	0.0166247
866.583	0.0167424
866.661	0.0166911
866.739	0.0166508
866.817	0.0168068
866.896	0.0168069
866.974	0.0166830
867.052	0.0166943
867.130	0.0167416
867.208	0.0168795
867.286	0.0166457
867.364	0.0168356
867.442	0.0166597
867.521	0.0167985
867.599	0.0167747
867.677	0.0167455
867.755	0.0167917
867.833	0.0168299
867.911	0.0169220
867.989	0.0168929
868.067	0.0169316
868.146	0.0168131
868.224	0.0167893
868.302	0.0168031
868.380	0.0169273
868.458	0.0167749
868.536	0.0168138
868.614	0.0168365
868.692	0.0168975
868.771	0.0168871
868.849	0.0168638
868.927	0.0167456
869.005	0.0166721
869.083	0.0166709
869.161	0.0165988
869.239	0.0166479
869.317	0.0166303
869.396	0.0166148
869.474	0.0164687
869.552	0.0165819
869.630	0.0165311
869.708	0.0165532
869.786	0.0164236
869.864	0.0166269
869.942	0.0165788
