06/03/2022	15:35:36	Ver.	4.1	UNKNOWN
Optical Delay	550.020508	Delta X		0.078125	Sweeps	1	Scan Rate	0/0
Coordinates	Axis 1	NaN	Axis 2	NaN	Axis 3	NaN	Axis 4	NaN	Axis 5	NaN	Axis 6	0.000000
TX Power	0.000000	RX Power	0.000000

550.021	0.0163979
550.099	0.0164134
550.177	0.0164135
550.255	0.0164552
550.333	0.0164301
550.411	0.0163694
550.489	0.0164205
550.567	0.0162135
550.646	0.0163778
550.724	0.0164217
550.802	0.0163481
550.880	0.0164056
550.958	0.0164661
551.036	0.0165887
551.114	0.0164174
551.192	0.0163790
551.271	0.0164717
551.349	0.0164490
551.427	0.0163565
551.505	0.0165475
551.583	0.0164394
551.661	0.0163505
551.739	0.0164123
551.817	0.0162579
551.896	0.0163892
551.974	0.0165166
552.052	0.0164381
552.130	0.0163831
552.208	0.0163715
552.286	0.0164380
552.364	0.0164812
552.442	0.0164752
552.521	0.0164372
552.599	0.0164986
552.677	0.0165605
552.755	0.0163514
552.833	0.0164391
552.911	0.0164671
552.989	0.0163765
553.067	0.0163612
553.146	0.0164105
553.224	0.0164854
553.302	0.0164187
553.380	0.0162627
553.458	0.0163433
553.536	0.0163511
553.614	0.0163274
553.692	0.0166225
553.771	0.0162788
553.849	0.0162970
553.927	0.0163814
554.005	0.0164680
554.083	0.0165186
554.161	0.0164320
554.239	0.0163525
554.317	0.0163865
554.396	0.0163663
554.474	0.0165446
554.552	0.0163743
554.630	0.0162983
554.708	0.0165159
554.786	0.0163794
554.864	0.0164844
554.942	0.0164746
555.021	0.0163648
555.099	0.0164211
555.177	0.0165317
555.255	0.0163023
555.333	0.0163463
555.411	0.0164243
555.489	0.0164130
555.567	0.0163143
555.646	0.0163784
555.724	0.0162888
555.802	0.0163644
555.880	0.0164418
555.958	0.0164539
556.036	0.0164791
556.114	0.0164410
556.192	0.0164120
556.271	0.0164750
556.349	0.0164829
556.427	0.0163132
556.505	0.0164525
556.583	0.0164178
556.661	0.0164203
556.739	0.0163290
556.817	0.0164585
556.896	0.0165461
556.974	0.0164312
557.052	0.0162882
557.130	0.0164416
557.208	0.0165282
557.286	0.0163573
557.364	0.0162961
557.442	0.0165649
557.521	0.0164019
557.599	0.0163185
557.677	0.0163941
557.755	0.0164310
557.833	0.0163309
557.911	0.0164729
557.989	0.0163406
558.067	0.0164954
558.146	0.0163026
558.224	0.0163709
558.302	0.0164521
558.380	0.0164542
558.458	0.0162724
558.536	0.0164486
558.614	0.0164269
558.692	0.0164842
558.771	0.0164185
558.849	0.0164348
558.927	0.0163885
559.005	0.0164134
559.083	0.0164108
559.161	0.0164510
559.239	0.0164111
559.317	0.0164307
559.396	0.0163601
559.474	0.0164507
559.552	0.0164290
559.630	0.0164283
559.708	0.0164164
559.786	0.0163071
559.864	0.0164217
559.942	0.0163606
560.021	0.0164077
560.099	0.0164163
560.177	0.0164835
560.255	0.0163783
560.333	0.0162647
560.411	0.0163790
560.489	0.0163271
560.567	0.0163351
560.646	0.0164297
560.724	0.0163967
560.802	0.0163498
560.880	0.0164592
560.958	0.0163691
561.036	0.0162318
561.114	0.0164740
561.192	0.0164171
561.271	0.0163806
561.349	0.0165335
561.427	0.0163198
561.505	0.0163432
561.583	0.0164413
561.661	0.0163316
561.739	0.0163941
561.817	0.0164748
561.896	0.0163937
561.974	0.0164135
562.052	0.0164383
562.130	0.0163718
562.208	0.0163185
562.286	0.0162846
562.364	0.0163666
562.442	0.0164732
562.521	0.0163503
562.599	0.0163577
562.677	0.0165932
562.755	0.0164730
562.833	0.0164590
562.911	0.0165000
562.989	0.0163351
563.067	0.0163096
563.146	0.0165025
563.224	0.0164400
563.302	0.0166033
563.380	0.0163538
563.458	0.0163669
563.536	0.0162803
563.614	0.0164455
563.692	0.0163693
563.771	0.0164854
563.849	0.0164659
563.927	0.0164116
564.005	0.0164142
564.083	0.0164838
564.161	0.0163493
564.239	0.0163251
564.317	0.0163435
564.396	0.0162553
564.474	0.0164194
564.552	0.0163216
564.630	0.0164384
564.708	0.0164236
564.786	0.0164946
564.864	0.0164922
564.942	0.0162657
565.021	0.0164053
565.099	0.0164187
565.177	0.0164356
565.255	0.0163354
565.333	0.0163249
565.411	0.0163755
565.489	0.0163941
565.567	0.0163725
565.646	0.0163602
565.724	0.0163821
565.802	0.0164429
565.880	0.0165507
565.958	0.0165742
566.036	0.0163039
566.114	0.0163454
566.192	0.0163712
566.271	0.0164122
566.349	0.0165010
566.427	0.0165166
566.505	0.0164546
566.583	0.0163334
566.661	0.0162914
566.739	0.0164590
566.817	0.0164550
566.896	0.0165087
566.974	0.0163190
567.052	0.0164032
567.130	0.0165160
567.208	0.0164147
567.286	0.0165435
567.364	0.0164375
567.442	0.0163815
567.521	0.0164066
567.599	0.0165154
567.677	0.0164027
567.755	0.0163783
567.833	0.0164071
567.911	0.0163424
567.989	0.0164438
568.067	0.0164046
568.146	0.0163969
568.224	0.0164290
568.302	0.0162618
568.380	0.0163319
568.458	0.0164472
568.536	0.0162623
568.614	0.0164002
568.692	0.0164786
568.771	0.0163843
568.849	0.0163188
568.927	0.0163926
569.005	0.0165530
569.083	0.0163602
569.161	0.0163442
569.239	0.0162862
569.317	0.0165346
569.396	0.0164132
569.474	0.0164320
569.552	0.0163979
569.630	0.0164243
569.708	0.0163128
569.786	0.0162373
569.864	0.0164772
569.942	0.0163992
570.021	0.0165265
570.099	0.0164320
570.177	0.0162336
570.255	0.0163287
570.333	0.0164081
570.411	0.0163908
570.489	0.0163922
570.567	0.0163363
570.646	0.0163972
570.724	0.0163551
570.802	0.0163453
570.880	0.0164458
570.958	0.0165099
571.036	0.0164228
571.114	0.0163416
571.192	0.0164964
571.271	0.0163564
571.349	0.0162414
571.427	0.0162748
571.505	0.0164040
571.583	0.0163815
571.661	0.0162999
571.739	0.0165483
571.817	0.0165840
571.896	0.0162585
571.974	0.0164007
572.052	0.0163412
572.130	0.0163947
572.208	0.0165033
572.286	0.0164771
572.364	0.0164559
572.442	0.0165002
572.521	0.0163558
572.599	0.0164683
572.677	0.0164270
572.755	0.0164987
572.833	0.0164515
572.911	0.0164491
572.989	0.0164354
573.067	0.0163358
573.146	0.0164078
573.224	0.0164619
573.302	0.0164047
573.380	0.0162516
573.458	0.0164098
573.536	0.0163757
573.614	0.0163664
573.692	0.0162917
573.771	0.0162502
573.849	0.0164132
573.927	0.0164313
574.005	0.0164713
574.083	0.0163598
574.161	0.0163516
574.239	0.0163359
574.317	0.0163151
574.396	0.0164130
574.474	0.0164556
574.552	0.0164288
574.630	0.0162753
574.708	0.0162791
574.786	0.0164937
574.864	0.0164160
574.942	0.0164435
575.021	0.0164725
575.099	0.0165072
575.177	0.0164275
575.255	0.0163210
575.333	0.0163497
575.411	0.0164362
575.489	0.0163944
575.567	0.0163702
575.646	0.0163641
575.724	0.0164561
575.802	0.0162167
575.880	0.0164132
575.958	0.0163390
576.036	0.0163280
576.114	0.0165647
576.192	0.0163501
576.271	0.0163146
576.349	0.0164010
576.427	0.0162879
576.505	0.0163708
576.583	0.0164108
576.661	0.0163658
576.739	0.0163002
576.817	0.0163441
576.896	0.0164072
576.974	0.0163738
577.052	0.0163625
577.130	0.0162386
577.208	0.0163803
577.286	0.0163994
577.364	0.0163673
577.442	0.0163218
577.521	0.0164185
577.599	0.0163453
577.677	0.0164193
577.755	0.0164221
577.833	0.0165400
577.911	0.0163063
577.989	0.0162939
578.067	0.0163256
578.146	0.0163956
578.224	0.0163548
578.302	0.0163480
578.380	0.0164654
578.458	0.0162938
578.536	0.0163236
578.614	0.0165753
578.692	0.0164000
578.771	0.0163108
578.849	0.0163693
578.927	0.0164819
579.005	0.0163642
579.083	0.0163908
579.161	0.0164013
579.239	0.0164597
579.317	0.0163723
579.396	0.0164063
579.474	0.0163573
579.552	0.0162824
579.630	0.0164468
579.708	0.0164331
579.786	0.0164812
579.864	0.0162968
579.942	0.0162302
580.021	0.0162926
580.099	0.0163837
580.177	0.0164576
580.255	0.0164977
580.333	0.0163662
580.411	0.0163934
580.489	0.0162522
580.567	0.0163885
580.646	0.0163277
580.724	0.0164407
580.802	0.0164855
580.880	0.0164539
580.958	0.0165637
581.036	0.0163377
581.114	0.0163725
581.192	0.0163699
581.271	0.0162888
581.349	0.0162919
581.427	0.0163795
581.505	0.0164734
581.583	0.0164982
581.661	0.0163072
581.739	0.0164065
581.817	0.0164101
581.896	0.0162994
581.974	0.0164316
582.052	0.0164573
582.130	0.0164468
582.208	0.0164479
582.286	0.0163348
582.364	0.0163001
582.442	0.0165046
582.521	0.0164443
582.599	0.0163823
582.677	0.0163494
582.755	0.0163387
582.833	0.0164064
582.911	0.0164418
582.989	0.0164214
583.067	0.0164143
583.146	0.0164824
583.224	0.0165773
583.302	0.0164996
583.380	0.0164710
583.458	0.0164808
583.536	0.0165529
583.614	0.0165641
583.692	0.0164174
583.771	0.0164630
583.849	0.0165294
583.927	0.0163918
584.005	0.0165092
584.083	0.0163658
584.161	0.0162185
584.239	0.0163526
584.317	0.0164046
584.396	0.0164352
584.474	0.0163899
584.552	0.0163391
584.630	0.0164320
584.708	0.0164390
584.786	0.0163766
584.864	0.0163960
584.942	0.0163183
585.021	0.0164857
585.099	0.0164983
585.177	0.0163878
585.255	0.0163615
585.333	0.0165091
585.411	0.0163411
585.489	0.0162827
585.567	0.0163946
585.646	0.0163679
585.724	0.0164561
585.802	0.0164753
585.880	0.0163124
585.958	0.0163415
586.036	0.0163084
586.114	0.0163673
586.192	0.0164044
586.271	0.0163519
586.349	0.0163806
586.427	0.0165339
586.505	0.0164590
586.583	0.0162715
586.661	0.0163828
586.739	0.0163560
586.817	0.0162749
586.896	0.0163776
586.974	0.0163795
587.052	0.0163557
587.130	0.0163525
587.208	0.0163458
587.286	0.0163239
587.364	0.0163529
587.442	0.0164442
587.521	0.0163876
587.599	0.0164048
587.677	0.0165587
587.755	0.0163258
587.833	0.0164206
587.911	0.0163425
587.989	0.0163693
588.067	0.0163335
588.146	0.0161981
588.224	0.0164446
588.302	0.0164600
588.380	0.0163433
588.458	0.0164371
588.536	0.0164143
588.614	0.0163689
588.692	0.0164794
588.771	0.0162719
588.849	0.0163779
588.927	0.0165216
589.005	0.0164043
589.083	0.0163452
589.161	0.0164222
589.239	0.0163896
589.317	0.0163170
589.396	0.0163437
589.474	0.0164475
589.552	0.0165240
589.630	0.0163740
589.708	0.0163662
589.786	0.0164313
589.864	0.0164828
589.942	0.0165076
590.021	0.0163297
590.099	0.0164559
590.177	0.0163673
590.255	0.0164357
590.333	0.0164082
590.411	0.0162619
590.489	0.0164677
590.567	0.0163706
590.646	0.0163675
590.724	0.0163544
590.802	0.0164935
590.880	0.0164451
590.958	0.0164169
591.036	0.0163546
591.114	0.0163538
591.192	0.0162605
591.271	0.0164520
591.349	0.0163009
591.427	0.0162334
591.505	0.0163829
591.583	0.0163741
591.661	0.0163543
591.739	0.0165225
591.817	0.0163180
591.896	0.0162654
591.974	0.0163037
592.052	0.0163683
592.130	0.0164624
592.208	0.0164734
592.286	0.0163323
592.364	0.0163489
592.442	0.0164504
592.521	0.0164238
592.599	0.0163088
592.677	0.0164471
592.755	0.0164039
592.833	0.0163406
592.911	0.0160421
592.989	0.0163987
593.067	0.0163035
593.146	0.0163937
593.224	0.0165060
593.302	0.0163892
593.380	0.0163313
593.458	0.0162982
593.536	0.0163396
593.614	0.0164043
593.692	0.0163889
593.771	0.0165274
593.849	0.0165305
593.927	0.0163179
594.005	0.0163980
594.083	0.0163878
594.161	0.0162993
594.239	0.0163319
594.317	0.0163447
594.396	0.0163338
594.474	0.0163492
594.552	0.0163518
594.630	0.0164307
594.708	0.0163605
594.786	0.0164127
594.864	0.0164024
594.942	0.0164869
595.021	0.0164788
595.099	0.0163517
595.177	0.0163418
595.255	0.0163587
595.333	0.0163888
595.411	0.0164341
595.489	0.0162417
595.567	0.0162955
595.646	0.0164575
595.724	0.0163428
595.802	0.0163611
595.880	0.0163960
595.958	0.0164437
596.036	0.0162675
596.114	0.0163381
596.192	0.0164552
596.271	0.0163927
596.349	0.0162848
596.427	0.0164323
596.505	0.0163863
596.583	0.0165504
596.661	0.0163899
596.739	0.0163388
596.817	0.0163147
596.896	0.0163911
596.974	0.0163671
597.052	0.0164756
597.130	0.0162846
597.208	0.0164919
597.286	0.0165228
597.364	0.0163146
597.442	0.0163602
597.521	0.0163792
597.599	0.0162494
597.677	0.0163413
597.755	0.0163719
597.833	0.0162783
597.911	0.0163552
597.989	0.0163721
598.067	0.0164999
598.146	0.0162976
598.224	0.0163857
598.302	0.0164456
598.380	0.0162686
598.458	0.0162164
598.536	0.0162780
598.614	0.0164343
598.692	0.0164335
598.771	0.0164378
598.849	0.0164763
598.927	0.0164008
599.005	0.0162959
599.083	0.0163657
599.161	0.0164398
599.239	0.0163543
599.317	0.0163784
599.396	0.0164224
599.474	0.0163791
599.552	0.0164597
599.630	0.0163879
599.708	0.0162698
599.786	0.0163575
599.864	0.0164965
599.942	0.0165563
600.021	0.0162478
600.099	0.0163187
600.177	0.0163689
600.255	0.0162782
600.333	0.0164037
600.411	0.0164056
600.489	0.0163086
600.567	0.0164404
600.646	0.0164285
600.724	0.0164113
600.802	0.0164124
600.880	0.0164497
600.958	0.0163971
601.036	0.0163863
601.114	0.0164287
601.192	0.0164177
601.271	0.0163828
601.349	0.0164568
601.427	0.0164644
601.505	0.0163760
601.583	0.0163671
601.661	0.0164244
601.739	0.0163647
601.817	0.0164125
601.896	0.0163745
601.974	0.0162714
602.052	0.0163383
602.130	0.0163784
602.208	0.0163542
602.286	0.0164966
602.364	0.0163850
602.442	0.0163793
602.521	0.0161855
602.599	0.0163050
602.677	0.0163750
602.755	0.0162836
602.833	0.0163361
602.911	0.0164530
602.989	0.0164851
603.067	0.0162762
603.146	0.0162361
603.224	0.0161977
603.302	0.0162868
603.380	0.0164001
603.458	0.0164056
603.536	0.0164157
603.614	0.0163004
603.692	0.0163108
603.771	0.0163213
603.849	0.0162768
603.927	0.0165850
604.005	0.0164513
604.083	0.0163632
604.161	0.0163689
604.239	0.0163628
604.317	0.0164652
604.396	0.0162492
604.474	0.0163747
604.552	0.0164520
604.630	0.0165485
604.708	0.0164027
604.786	0.0163264
604.864	0.0163924
604.942	0.0163784
605.021	0.0163276
605.099	0.0162247
605.177	0.0164130
605.255	0.0164400
605.333	0.0163042
605.411	0.0163358
605.489	0.0163857
605.567	0.0163246
605.646	0.0164658
605.724	0.0164292
605.802	0.0164325
605.880	0.0163880
605.958	0.0162881
606.036	0.0163835
606.114	0.0163165
606.192	0.0163352
606.271	0.0164385
606.349	0.0163689
606.427	0.0165067
606.505	0.0163296
606.583	0.0163266
606.661	0.0162897
606.739	0.0161713
606.817	0.0163670
606.896	0.0163481
606.974	0.0163315
607.052	0.0164521
607.130	0.0164247
607.208	0.0164375
607.286	0.0163578
607.364	0.0163718
607.442	0.0164985
607.521	0.0163681
607.599	0.0163519
607.677	0.0164403
607.755	0.0165005
607.833	0.0162782
607.911	0.0162116
607.989	0.0163783
608.067	0.0163879
608.146	0.0164116
608.224	0.0163999
608.302	0.0163308
608.380	0.0164619
608.458	0.0164100
608.536	0.0163907
608.614	0.0164098
608.692	0.0163000
608.771	0.0165186
608.849	0.0164816
608.927	0.0162846
609.005	0.0163130
609.083	0.0163283
609.161	0.0164744
609.239	0.0163731
609.317	0.0162774
609.396	0.0165106
609.474	0.0164551
609.552	0.0163958
609.630	0.0163579
609.708	0.0163991
609.786	0.0164166
609.864	0.0163688
609.942	0.0163530
610.021	0.0163683
610.099	0.0162943
610.177	0.0163558
610.255	0.0165250
610.333	0.0164150
610.411	0.0162386
610.489	0.0163690
610.567	0.0162759
610.646	0.0163892
610.724	0.0163450
610.802	0.0164349
610.880	0.0163374
610.958	0.0164312
611.036	0.0164351
611.114	0.0162716
611.192	0.0162672
611.271	0.0162788
611.349	0.0164008
611.427	0.0162823
611.505	0.0163593
611.583	0.0163542
611.661	0.0164103
611.739	0.0163259
611.817	0.0163493
611.896	0.0163024
611.974	0.0164438
612.052	0.0164536
612.130	0.0162358
612.208	0.0163570
612.286	0.0163410
612.364	0.0164056
612.442	0.0164755
612.521	0.0163755
612.599	0.0164547
612.677	0.0164773
612.755	0.0163360
612.833	0.0164372
612.911	0.0163497
612.989	0.0163638
613.067	0.0162450
613.146	0.0163339
613.224	0.0164326
613.302	0.0163800
613.380	0.0163466
613.458	0.0164304
613.536	0.0164082
613.614	0.0164343
613.692	0.0163593
613.771	0.0165190
613.849	0.0163428
613.927	0.0162949
614.005	0.0164491
614.083	0.0163635
614.161	0.0163681
614.239	0.0164660
614.317	0.0164833
614.396	0.0163770
614.474	0.0162494
614.552	0.0163573
614.630	0.0164207
614.708	0.0163937
614.786	0.0164086
614.864	0.0164546
614.942	0.0163058
615.021	0.0163811
615.099	0.0165529
615.177	0.0163982
615.255	0.0163779
615.333	0.0164577
615.411	0.0164616
615.489	0.0163698
615.567	0.0163882
615.646	0.0164042
615.724	0.0164204
615.802	0.0163725
615.880	0.0163995
615.958	0.0162885
616.036	0.0164525
616.114	0.0164096
616.192	0.0162342
616.271	0.0164251
616.349	0.0164043
616.427	0.0164020
616.505	0.0164836
616.583	0.0163618
616.661	0.0162748
616.739	0.0163711
616.817	0.0163596
616.896	0.0165075
616.974	0.0164165
617.052	0.0163849
617.130	0.0163651
617.208	0.0163657
617.286	0.0163551
617.364	0.0162640
617.442	0.0164162
617.521	0.0164262
617.599	0.0163595
617.677	0.0163802
617.755	0.0163435
617.833	0.0164928
617.911	0.0164548
617.989	0.0164097
618.067	0.0162791
618.146	0.0164033
618.224	0.0163868
618.302	0.0162178
618.380	0.0162932
618.458	0.0163409
618.536	0.0163489
618.614	0.0163700
618.692	0.0163232
618.771	0.0162995
618.849	0.0164294
618.927	0.0163718
619.005	0.0163165
619.083	0.0164119
619.161	0.0163943
619.239	0.0163729
619.317	0.0163516
619.396	0.0163180
619.474	0.0164110
619.552	0.0163926
619.630	0.0163747
619.708	0.0163111
619.786	0.0163440
619.864	0.0163187
619.942	0.0164064
620.021	0.0163546
620.099	0.0163853
620.177	0.0163116
620.255	0.0163322
620.333	0.0162875
620.411	0.0164211
620.489	0.0164172
620.567	0.0162620
620.646	0.0163280
620.724	0.0163607
620.802	0.0163869
620.880	0.0162464
620.958	0.0162545
621.036	0.0162699
621.114	0.0163947
621.192	0.0163447
621.271	0.0162284
621.349	0.0164423
621.427	0.0162690
621.505	0.0164203
621.583	0.0163615
621.661	0.0163281
621.739	0.0163554
621.817	0.0164163
621.896	0.0164257
621.974	0.0163791
622.052	0.0161832
622.130	0.0164029
622.208	0.0162721
622.286	0.0163517
622.364	0.0164371
622.442	0.0164471
622.521	0.0164468
622.599	0.0163348
622.677	0.0164822
622.755	0.0163525
622.833	0.0163303
622.911	0.0163922
622.989	0.0163995
623.067	0.0164188
623.146	0.0163731
623.224	0.0163065
623.302	0.0163763
623.380	0.0164022
623.458	0.0164658
623.536	0.0163364
623.614	0.0163156
623.692	0.0164048
623.771	0.0163814
623.849	0.0163345
623.927	0.0162689
624.005	0.0163522
624.083	0.0164213
624.161	0.0162798
624.239	0.0163693
624.317	0.0163202
624.396	0.0164594
624.474	0.0162557
624.552	0.0163106
624.630	0.0163424
624.708	0.0163289
624.786	0.0162916
624.864	0.0162574
624.942	0.0162189
625.021	0.0163549
625.099	0.0163692
625.177	0.0163703
625.255	0.0163863
625.333	0.0164112
625.411	0.0164636
625.489	0.0162807
625.567	0.0163268
625.646	0.0163719
625.724	0.0164739
625.802	0.0164853
625.880	0.0165736
625.958	0.0163947
626.036	0.0162413
626.114	0.0162282
626.192	0.0162663
626.271	0.0165113
626.349	0.0164555
626.427	0.0163853
626.505	0.0162868
626.583	0.0164745
626.661	0.0163415
626.739	0.0163943
626.817	0.0162444
626.896	0.0162791
626.974	0.0163889
627.052	0.0163481
627.130	0.0162620
627.208	0.0164627
627.286	0.0164415
627.364	0.0162743
627.442	0.0163783
627.521	0.0164032
627.599	0.0164294
627.677	0.0164563
627.755	0.0164673
627.833	0.0164320
627.911	0.0163311
627.989	0.0163613
628.067	0.0164204
628.146	0.0163721
628.224	0.0162584
628.302	0.0163507
628.380	0.0163885
628.458	0.0164108
628.536	0.0163985
628.614	0.0163445
628.692	0.0163555
628.771	0.0164400
628.849	0.0163586
628.927	0.0163235
629.005	0.0163332
629.083	0.0164273
629.161	0.0163334
629.239	0.0163213
629.317	0.0163641
629.396	0.0163570
629.474	0.0163879
629.552	0.0162910
629.630	0.0163744
629.708	0.0163399
629.786	0.0164615
629.864	0.0165685
629.942	0.0164329
630.021	0.0164383
630.099	0.0164326
630.177	0.0163670
630.255	0.0163472
630.333	0.0163630
630.411	0.0165360
630.489	0.0164415
630.567	0.0163361
630.646	0.0162278
630.724	0.0164422
630.802	0.0165370
630.880	0.0164209
630.958	0.0164722
631.036	0.0162502
631.114	0.0164135
631.192	0.0163152
631.271	0.0163370
631.349	0.0163194
631.427	0.0164458
631.505	0.0163638
631.583	0.0163264
631.661	0.0163163
631.739	0.0163007
631.817	0.0162675
631.896	0.0162352
631.974	0.0163277
632.052	0.0162942
632.130	0.0163541
632.208	0.0165054
632.286	0.0163496
632.364	0.0161777
632.442	0.0162313
632.521	0.0163307
632.599	0.0163188
632.677	0.0163467
632.755	0.0163321
632.833	0.0163188
632.911	0.0162994
632.989	0.0164279
633.067	0.0161545
633.146	0.0162500
633.224	0.0163377
633.302	0.0163927
633.380	0.0163375
633.458	0.0161307
633.536	0.0162685
633.614	0.0165278
633.692	0.0162869
633.771	0.0162782
633.849	0.0162376
633.927	0.0161254
634.005	0.0164016
634.083	0.0163778
634.161	0.0163935
634.239	0.0162439
634.317	0.0165172
634.396	0.0163354
634.474	0.0163907
634.552	0.0165508
634.630	0.0164319
634.708	0.0163744
634.786	0.0164117
634.864	0.0164599
634.942	0.0164675
635.021	0.0164559
635.099	0.0164874
635.177	0.0164869
635.255	0.0164686
635.333	0.0165674
635.411	0.0165520
635.489	0.0163531
635.567	0.0163307
635.646	0.0163940
635.724	0.0165170
635.802	0.0164742
635.880	0.0164001
635.958	0.0164382
636.036	0.0164895
636.114	0.0162598
636.192	0.0163869
636.271	0.0163009
636.349	0.0163982
636.427	0.0163741
636.505	0.0164043
636.583	0.0164970
636.661	0.0164265
636.739	0.0163412
636.817	0.0163498
636.896	0.0163290
636.974	0.0163203
637.052	0.0162813
637.130	0.0163393
637.208	0.0162103
637.286	0.0164423
637.364	0.0163285
637.442	0.0163776
637.521	0.0162557
637.599	0.0162569
637.677	0.0162582
637.755	0.0162280
637.833	0.0162180
637.911	0.0163946
637.989	0.0163567
638.067	0.0162054
638.146	0.0163532
638.224	0.0164016
638.302	0.0162717
638.380	0.0163226
638.458	0.0164729
638.536	0.0164320
638.614	0.0162811
638.692	0.0164414
638.771	0.0164423
638.849	0.0163689
638.927	0.0165625
639.005	0.0165736
639.083	0.0163496
639.161	0.0165055
639.239	0.0163476
639.317	0.0163538
639.396	0.0164773
639.474	0.0164062
639.552	0.0163737
639.630	0.0163610
639.708	0.0163412
639.786	0.0164695
639.864	0.0164566
639.942	0.0164740
640.021	0.0164559
640.099	0.0163634
640.177	0.0162921
640.255	0.0165160
640.333	0.0165390
640.411	0.0164355
640.489	0.0164633
640.567	0.0164669
640.646	0.0164376
640.724	0.0164433
640.802	0.0163805
640.880	0.0164819
640.958	0.0163340
641.036	0.0164386
641.114	0.0164124
641.192	0.0164360
641.271	0.0163123
641.349	0.0162491
641.427	0.0163791
641.505	0.0164591
641.583	0.0163814
641.661	0.0162446
641.739	0.0163682
641.817	0.0163449
641.896	0.0163428
641.974	0.0163721
642.052	0.0163405
642.130	0.0163464
642.208	0.0165046
642.286	0.0165147
642.364	0.0165224
642.442	0.0163251
642.521	0.0163406
642.599	0.0164034
642.677	0.0163428
642.755	0.0164920
642.833	0.0164067
642.911	0.0164501
642.989	0.0163380
643.067	0.0163889
643.146	0.0164611
643.224	0.0165187
643.302	0.0164731
643.380	0.0164178
643.458	0.0163293
643.536	0.0164311
643.614	0.0164961
643.692	0.0163778
643.771	0.0165890
643.849	0.0165318
643.927	0.0163634
644.005	0.0163493
644.083	0.0164815
644.161	0.0165139
644.239	0.0163134
644.317	0.0164449
644.396	0.0165914
644.474	0.0165434
644.552	0.0163689
644.630	0.0163275
644.708	0.0164193
644.786	0.0164586
644.864	0.0163067
644.942	0.0163704
645.021	0.0164332
645.099	0.0164098
645.177	0.0164996
645.255	0.0163622
645.333	0.0162927
645.411	0.0163491
645.489	0.0165936
645.567	0.0165034
645.646	0.0163725
645.724	0.0163499
645.802	0.0163443
645.880	0.0164185
645.958	0.0162788
646.036	0.0162023
646.114	0.0162335
646.192	0.0163566
646.271	0.0163058
646.349	0.0164019
646.427	0.0164599
646.505	0.0162760
646.583	0.0164208
646.661	0.0163786
646.739	0.0163908
646.817	0.0164202
646.896	0.0163951
646.974	0.0162839
647.052	0.0164368
647.130	0.0164871
647.208	0.0163950
647.286	0.0163213
647.364	0.0165137
647.442	0.0163383
647.521	0.0164557
647.599	0.0163319
647.677	0.0163734
647.755	0.0164565
647.833	0.0164613
647.911	0.0163935
647.989	0.0164107
648.067	0.0163519
648.146	0.0163711
648.224	0.0163850
648.302	0.0164159
648.380	0.0163194
648.458	0.0163483
648.536	0.0163875
648.614	0.0164807
648.692	0.0162505
648.771	0.0163889
648.849	0.0163730
648.927	0.0163654
649.005	0.0164363
649.083	0.0163943
649.161	0.0163169
649.239	0.0165746
649.317	0.0163599
649.396	0.0163803
649.474	0.0165124
649.552	0.0163776
649.630	0.0162370
649.708	0.0163903
649.786	0.0163564
649.864	0.0165743
649.942	0.0164762
650.021	0.0162080
650.099	0.0163879
650.177	0.0164778
650.255	0.0163096
650.333	0.0163133
650.411	0.0165074
650.489	0.0163629
650.567	0.0164232
650.646	0.0163595
650.724	0.0162643
650.802	0.0165577
650.880	0.0163274
650.958	0.0161982
651.036	0.0164230
651.114	0.0164045
651.192	0.0163173
651.271	0.0163938
651.349	0.0163331
651.427	0.0164230
651.505	0.0163972
651.583	0.0163634
651.661	0.0163033
651.739	0.0163791
651.817	0.0163201
651.896	0.0163940
651.974	0.0162870
652.052	0.0162698
652.130	0.0163522
652.208	0.0163183
652.286	0.0162061
652.364	0.0162941
652.442	0.0163330
652.521	0.0164194
652.599	0.0163845
652.677	0.0165047
652.755	0.0164084
652.833	0.0164758
652.911	0.0164366
652.989	0.0164106
653.067	0.0164154
653.146	0.0163608
653.224	0.0164145
653.302	0.0164832
653.380	0.0164556
653.458	0.0165942
653.536	0.0163546
653.614	0.0164242
653.692	0.0164198
653.771	0.0163729
653.849	0.0163036
653.927	0.0165369
654.005	0.0164775
654.083	0.0163839
654.161	0.0163539
654.239	0.0164555
654.317	0.0164738
654.396	0.0165000
654.474	0.0163104
654.552	0.0163904
654.630	0.0164034
654.708	0.0164592
654.786	0.0164146
654.864	0.0164037
654.942	0.0164704
655.021	0.0165001
655.099	0.0164198
655.177	0.0164724
655.255	0.0164642
655.333	0.0163781
655.411	0.0162780
655.489	0.0163551
655.567	0.0163991
655.646	0.0164055
655.724	0.0162111
655.802	0.0164545
655.880	0.0165212
655.958	0.0163451
656.036	0.0164101
656.114	0.0164386
656.192	0.0163210
656.271	0.0163604
656.349	0.0164690
656.427	0.0164590
656.505	0.0164591
656.583	0.0164003
656.661	0.0162951
656.739	0.0162434
656.817	0.0164646
656.896	0.0163795
656.974	0.0164224
657.052	0.0163956
657.130	0.0164860
657.208	0.0163796
657.286	0.0163986
657.364	0.0162688
657.442	0.0163679
657.521	0.0164191
657.599	0.0164323
657.677	0.0165047
657.755	0.0164449
657.833	0.0164248
657.911	0.0163887
657.989	0.0164144
658.067	0.0163350
658.146	0.0163187
658.224	0.0164477
658.302	0.0163700
658.380	0.0164851
658.458	0.0164452
658.536	0.0163221
658.614	0.0163231
658.692	0.0163289
658.771	0.0164542
658.849	0.0164349
658.927	0.0164135
659.005	0.0164904
659.083	0.0164050
659.161	0.0165002
659.239	0.0164562
659.317	0.0164455
659.396	0.0163663
659.474	0.0163166
659.552	0.0163811
659.630	0.0165037
659.708	0.0164664
659.786	0.0163986
659.864	0.0164159
659.942	0.0163770
660.021	0.0164535
660.099	0.0165321
660.177	0.0162675
660.255	0.0161994
660.333	0.0162077
660.411	0.0163256
660.489	0.0164127
660.567	0.0163113
660.646	0.0162885
660.724	0.0163524
660.802	0.0163589
660.880	0.0161970
660.958	0.0163696
661.036	0.0163776
661.114	0.0163754
661.192	0.0164440
661.271	0.0164508
661.349	0.0163411
661.427	0.0164088
661.505	0.0165451
661.583	0.0163763
661.661	0.0162363
661.739	0.0163171
661.817	0.0163967
661.896	0.0163860
661.974	0.0163783
662.052	0.0164474
662.130	0.0163213
662.208	0.0163773
662.286	0.0164301
662.364	0.0164301
662.442	0.0163312
662.521	0.0164258
662.599	0.0163588
662.677	0.0164590
662.755	0.0163501
662.833	0.0164317
662.911	0.0164588
662.989	0.0163627
663.067	0.0163382
663.146	0.0162297
663.224	0.0164185
663.302	0.0165140
663.380	0.0164803
663.458	0.0162711
663.536	0.0163818
663.614	0.0164917
663.692	0.0164034
663.771	0.0164809
663.849	0.0163394
663.927	0.0163853
664.005	0.0163373
664.083	0.0165236
664.161	0.0163206
664.239	0.0163557
664.317	0.0164710
664.396	0.0161238
664.474	0.0163437
664.552	0.0164081
664.630	0.0163332
664.708	0.0164635
664.786	0.0164259
664.864	0.0162656
664.942	0.0163540
665.021	0.0163823
665.099	0.0162144
665.177	0.0163625
665.255	0.0164137
665.333	0.0164090
665.411	0.0164411
665.489	0.0162968
665.567	0.0163503
665.646	0.0163501
665.724	0.0164527
665.802	0.0163946
665.880	0.0162966
665.958	0.0163342
666.036	0.0164480
666.114	0.0163306
666.192	0.0164532
666.271	0.0164005
666.349	0.0164366
666.427	0.0163758
666.505	0.0164185
666.583	0.0164829
666.661	0.0163701
666.739	0.0164364
666.817	0.0161952
666.896	0.0163830
666.974	0.0162679
667.052	0.0164999
667.130	0.0163818
667.208	0.0164621
667.286	0.0162533
667.364	0.0163000
667.442	0.0164204
667.521	0.0164111
667.599	0.0164726
667.677	0.0163749
667.755	0.0162772
667.833	0.0164506
667.911	0.0164037
667.989	0.0162981
668.067	0.0164361
668.146	0.0165965
668.224	0.0163075
668.302	0.0163658
668.380	0.0164232
668.458	0.0163907
668.536	0.0163486
668.614	0.0165075
668.692	0.0163631
668.771	0.0163776
668.849	0.0165276
668.927	0.0163934
669.005	0.0163963
669.083	0.0164410
669.161	0.0163927
669.239	0.0163377
669.317	0.0164186
669.396	0.0163160
669.474	0.0163769
669.552	0.0164594
669.630	0.0163802
669.708	0.0163511
669.786	0.0163775
669.864	0.0164893
669.942	0.0163177
670.021	0.0163377
670.099	0.0163877
670.177	0.0162821
670.255	0.0164500
670.333	0.0164364
670.411	0.0162989
670.489	0.0163269
670.567	0.0165250
670.646	0.0165458
670.724	0.0164247
670.802	0.0163792
670.880	0.0165168
670.958	0.0164922
671.036	0.0162900
671.114	0.0164492
671.192	0.0163718
671.271	0.0164334
671.349	0.0165240
671.427	0.0165252
671.505	0.0163178
671.583	0.0163635
671.661	0.0163676
671.739	0.0164211
671.817	0.0165131
671.896	0.0163926
671.974	0.0163341
672.052	0.0163332
672.130	0.0164027
672.208	0.0163641
672.286	0.0163683
672.364	0.0162977
672.442	0.0163036
672.521	0.0164108
672.599	0.0164105
672.677	0.0164178
672.755	0.0163935
672.833	0.0164875
672.911	0.0163022
672.989	0.0163031
673.067	0.0163000
673.146	0.0162257
673.224	0.0163387
673.302	0.0163361
673.380	0.0163357
673.458	0.0163808
673.536	0.0164546
673.614	0.0165092
673.692	0.0164902
673.771	0.0163952
673.849	0.0164444
673.927	0.0163425
674.005	0.0163653
674.083	0.0163576
674.161	0.0163373
674.239	0.0164081
674.317	0.0163355
674.396	0.0164207
674.474	0.0164116
674.552	0.0163638
674.630	0.0164038
674.708	0.0164057
674.786	0.0163683
674.864	0.0162395
674.942	0.0162907
675.021	0.0163993
675.099	0.0164349
675.177	0.0164516
675.255	0.0164872
675.333	0.0164304
675.411	0.0163126
675.489	0.0163419
675.567	0.0164811
675.646	0.0163226
675.724	0.0164948
675.802	0.0165102
675.880	0.0163109
675.958	0.0163400
676.036	0.0163670
676.114	0.0163409
676.192	0.0163609
676.271	0.0164175
676.349	0.0163892
676.427	0.0165861
676.505	0.0165284
676.583	0.0163322
676.661	0.0163870
676.739	0.0163343
676.817	0.0163939
676.896	0.0164739
676.974	0.0164025
677.052	0.0164027
677.130	0.0163412
677.208	0.0163918
677.286	0.0163242
677.364	0.0164111
677.442	0.0163528
677.521	0.0163621
677.599	0.0164212
677.677	0.0165149
677.755	0.0163937
677.833	0.0163343
677.911	0.0165084
677.989	0.0163954
678.067	0.0162519
678.146	0.0163960
678.224	0.0164256
678.302	0.0163892
678.380	0.0163561
678.458	0.0163928
678.536	0.0163564
678.614	0.0164278
678.692	0.0163590
678.771	0.0164616
678.849	0.0164289
678.927	0.0163590
679.005	0.0164184
679.083	0.0162926
679.161	0.0163522
679.239	0.0164118
679.317	0.0164715
679.396	0.0163394
679.474	0.0163821
679.552	0.0164272
679.630	0.0163328
679.708	0.0165182
679.786	0.0163860
679.864	0.0163560
679.942	0.0165400
680.021	0.0164157
680.099	0.0164083
680.177	0.0164260
680.255	0.0162592
680.333	0.0164029
680.411	0.0163912
680.489	0.0164577
680.567	0.0164865
680.646	0.0164697
680.724	0.0163770
680.802	0.0162934
680.880	0.0163975
680.958	0.0163934
681.036	0.0164166
681.114	0.0162965
681.192	0.0164877
681.271	0.0163683
681.349	0.0164064
681.427	0.0162451
681.505	0.0163715
681.583	0.0163720
681.661	0.0163501
681.739	0.0162865
681.817	0.0163482
681.896	0.0163850
681.974	0.0162811
682.052	0.0163993
682.130	0.0164734
682.208	0.0162858
682.286	0.0163275
682.364	0.0163512
682.442	0.0162941
682.521	0.0163270
682.599	0.0163271
682.677	0.0163094
682.755	0.0162521
682.833	0.0164236
682.911	0.0163882
682.989	0.0164695
683.067	0.0163634
683.146	0.0164530
683.224	0.0163734
683.302	0.0163536
683.380	0.0164767
683.458	0.0163383
683.536	0.0163669
683.614	0.0163808
683.692	0.0164029
683.771	0.0162673
683.849	0.0164045
683.927	0.0163863
684.005	0.0164655
684.083	0.0164431
684.161	0.0163587
684.239	0.0163872
684.317	0.0162897
684.396	0.0165023
684.474	0.0162601
684.552	0.0164582
684.630	0.0164028
684.708	0.0163525
684.786	0.0164334
684.864	0.0162984
684.942	0.0163882
685.021	0.0163509
685.099	0.0163850
685.177	0.0163817
685.255	0.0164501
685.333	0.0163100
685.411	0.0162881
685.489	0.0163863
685.567	0.0162872
685.646	0.0162737
685.724	0.0164200
685.802	0.0163457
685.880	0.0163178
685.958	0.0163660
686.036	0.0162822
686.114	0.0162708
686.192	0.0162576
686.271	0.0162981
686.349	0.0163270
686.427	0.0162843
686.505	0.0163301
686.583	0.0163875
686.661	0.0163481
686.739	0.0163010
686.817	0.0163060
686.896	0.0163200
686.974	0.0162093
687.052	0.0164114
687.130	0.0163956
687.208	0.0164627
687.286	0.0164578
687.364	0.0164953
687.442	0.0164173
687.521	0.0164343
687.599	0.0163554
687.677	0.0163124
687.755	0.0162995
687.833	0.0162369
687.911	0.0162018
687.989	0.0161576
688.067	0.0162212
688.146	0.0160671
688.224	0.0161112
688.302	0.0163605
688.380	0.0164321
688.458	0.0163504
688.536	0.0164874
688.614	0.0166190
688.692	0.0167171
688.771	0.0167414
688.849	0.0166745
688.927	0.0165978
689.005	0.0165891
689.083	0.0164294
689.161	0.0162746
689.239	0.0161394
689.317	0.0160734
689.396	0.0159156
689.474	0.0158208
689.552	0.0157430
689.630	0.0158067
689.708	0.0158656
689.786	0.0160383
689.864	0.0161466
689.942	0.0163647
690.021	0.0166390
690.099	0.0167581
690.177	0.0170657
690.255	0.0170744
690.333	0.0172044
690.411	0.0171886
690.489	0.0169565
690.567	0.0167643
690.646	0.0164436
690.724	0.0161227
690.802	0.0158072
690.880	0.0155486
690.958	0.0154218
691.036	0.0154358
691.114	0.0154411
691.192	0.0156853
691.271	0.0156944
691.349	0.0159943
691.427	0.0163413
691.505	0.0167257
691.583	0.0169284
691.661	0.0171707
691.739	0.0173399
691.817	0.0174316
691.896	0.0174055
691.974	0.0172218
692.052	0.0167688
692.130	0.0165349
692.208	0.0160671
692.286	0.0158900
692.364	0.0155162
692.442	0.0154039
692.521	0.0152991
692.599	0.0152780
692.677	0.0155754
692.755	0.0157281
692.833	0.0159183
692.911	0.0162431
692.989	0.0164745
693.067	0.0166611
693.146	0.0169713
693.224	0.0168607
693.302	0.0170858
693.380	0.0171371
693.458	0.0172115
693.536	0.0170625
693.614	0.0167897
693.692	0.0167804
693.771	0.0165159
693.849	0.0161787
693.927	0.0160175
694.005	0.0160582
694.083	0.0158775
694.161	0.0157247
694.239	0.0158331
694.317	0.0158196
694.396	0.0161059
694.474	0.0162750
694.552	0.0163296
694.630	0.0166399
694.708	0.0169215
694.786	0.0169727
694.864	0.0169872
694.942	0.0170657
695.021	0.0169344
695.099	0.0168117
695.177	0.0167179
695.255	0.0164913
695.333	0.0163081
695.411	0.0160767
695.489	0.0157889
695.567	0.0157162
695.646	0.0157970
695.724	0.0157503
695.802	0.0159163
695.880	0.0159617
695.958	0.0161565
696.036	0.0162950
696.114	0.0162433
696.192	0.0164763
696.271	0.0164429
696.349	0.0164588
696.427	0.0164601
696.505	0.0162349
696.583	0.0165408
696.661	0.0164737
696.739	0.0164023
696.817	0.0164153
696.896	0.0165472
696.974	0.0166378
697.052	0.0167522
697.130	0.0168289
697.208	0.0168607
697.286	0.0170448
697.364	0.0170641
697.442	0.0169791
697.521	0.0169741
697.599	0.0168132
697.677	0.0166950
697.755	0.0165930
697.833	0.0163473
697.911	0.0162374
697.989	0.0160954
698.067	0.0160431
698.146	0.0160065
698.224	0.0160899
698.302	0.0161378
698.380	0.0162061
698.458	0.0162512
698.536	0.0164055
698.614	0.0163985
698.692	0.0163181
698.771	0.0164192
698.849	0.0163700
698.927	0.0161680
699.005	0.0160513
699.083	0.0159905
699.161	0.0158209
699.239	0.0158378
699.317	0.0156808
699.396	0.0158718
699.474	0.0158047
699.552	0.0158066
699.630	0.0160973
699.708	0.0161818
699.786	0.0165105
699.864	0.0165380
699.942	0.0167873
700.021	0.0170064
700.099	0.0168875
700.177	0.0170974
700.255	0.0170445
700.333	0.0169748
700.411	0.0167956
700.489	0.0167317
700.567	0.0167025
700.646	0.0165418
700.724	0.0165839
700.802	0.0164247
700.880	0.0163694
700.958	0.0164087
701.036	0.0163535
701.114	0.0164273
701.192	0.0165025
701.271	0.0166254
701.349	0.0167958
701.427	0.0169868
701.505	0.0170239
701.583	0.0170641
701.661	0.0170956
701.739	0.0172321
701.817	0.0173977
701.896	0.0175056
701.974	0.0176029
702.052	0.0175119
702.130	0.0176317
702.208	0.0175804
702.286	0.0176080
702.364	0.0175452
702.442	0.0171941
702.521	0.0170422
702.599	0.0169334
702.677	0.0164289
702.755	0.0161170
702.833	0.0157243
702.911	0.0152774
702.989	0.0146864
703.067	0.0142777
703.146	0.0141062
703.224	0.0136714
703.302	0.0133314
703.380	0.0132774
703.458	0.0132214
703.536	0.0131835
703.614	0.0133501
703.692	0.0136622
703.771	0.0138469
703.849	0.0142628
703.927	0.0145702
704.005	0.0151756
704.083	0.0157677
704.161	0.0161501
704.239	0.0166486
704.317	0.0171942
704.396	0.0175256
704.474	0.0177759
704.552	0.0181894
704.630	0.0184245
704.708	0.0187852
704.786	0.0190501
704.864	0.0194479
704.942	0.0195786
705.021	0.0198004
705.099	0.0200961
705.177	0.0201343
705.255	0.0199429
705.333	0.0198799
705.411	0.0197036
705.489	0.0193777
705.567	0.0189213
705.646	0.0182872
705.724	0.0177771
705.802	0.0170253
705.880	0.0162891
705.958	0.0155344
706.036	0.0150986
706.114	0.0146330
706.192	0.0142166
706.271	0.0139305
706.349	0.0141056
706.427	0.0141806
706.505	0.0143916
706.583	0.0148882
706.661	0.0152861
706.739	0.0157439
706.817	0.0162547
706.896	0.0167503
706.974	0.0171551
707.052	0.0172588
707.130	0.0173776
707.208	0.0174397
707.286	0.0173517
707.364	0.0170309
707.442	0.0166476
707.521	0.0160552
707.599	0.0156780
707.677	0.0152491
707.755	0.0147144
707.833	0.0143265
707.911	0.0139546
707.989	0.0135567
708.067	0.0132990
708.146	0.0130714
708.224	0.0128002
708.302	0.0124854
708.380	0.0123164
708.458	0.0123200
708.536	0.0125224
708.614	0.0127820
708.692	0.0128554
708.771	0.0132003
708.849	0.0135361
708.927	0.0142716
709.005	0.0148265
709.083	0.0156735
709.161	0.0162865
709.239	0.0170763
709.317	0.0179774
709.396	0.0187235
709.474	0.0193253
709.552	0.0200825
709.630	0.0205739
709.708	0.0210617
709.786	0.0215642
709.864	0.0219067
709.942	0.0221106
710.021	0.0222656
710.099	0.0223505
710.177	0.0221674
710.255	0.0222664
710.333	0.0218623
710.411	0.0213512
710.489	0.0209281
710.567	0.0204082
710.646	0.0196947
710.724	0.0189928
710.802	0.0183209
710.880	0.0177179
710.958	0.0171130
711.036	0.0168345
711.114	0.0165944
711.192	0.0163119
711.271	0.0164354
711.349	0.0165917
711.427	0.0166716
711.505	0.0169878
711.583	0.0169852
711.661	0.0169530
711.739	0.0167999
711.817	0.0163493
711.896	0.0157491
711.974	0.0148896
712.052	0.0140385
712.130	0.0130185
712.208	0.0116692
712.286	0.0102494
712.364	0.00903450
712.442	0.00747742
712.521	0.00648239
712.599	0.00538193
712.677	0.00453110
712.755	0.00388474
712.833	0.00368141
712.911	0.00381310
712.989	0.00442528
713.067	0.00508682
713.146	0.00609711
713.224	0.00741943
713.302	0.00904564
713.380	0.0109863
713.458	0.0129234
713.536	0.0150817
713.614	0.0171824
713.692	0.0193329
713.771	0.0215105
713.849	0.0233855
713.927	0.0251556
714.005	0.0268729
714.083	0.0282581
714.161	0.0292437
714.239	0.0300978
714.317	0.0304365
714.396	0.0303963
714.474	0.0301028
714.552	0.0295584
714.630	0.0286909
714.708	0.0277379
714.786	0.0267197
714.864	0.0257303
714.942	0.0245853
715.021	0.0233869
715.099	0.0223322
715.177	0.0214452
715.255	0.0206957
715.333	0.0199539
715.411	0.0192133
715.489	0.0185251
715.567	0.0179426
715.646	0.0173803
715.724	0.0166379
715.802	0.0159701
715.880	0.0152396
715.958	0.0144814
716.036	0.0133829
716.114	0.0123799
716.192	0.0113007
716.271	0.00997429
716.349	0.00856163
716.427	0.00723000
716.505	0.00605606
716.583	0.00476433
716.661	0.00342850
716.739	0.00251724
716.817	0.00185333
716.896	0.00146248
716.974	0.00121262
717.052	0.00159111
717.130	0.00214577
717.208	0.00315994
717.286	0.00463623
717.364	0.00606247
717.442	0.00815590
717.521	0.0104356
717.599	0.0126332
717.677	0.0148682
717.755	0.0171094
717.833	0.0193977
717.911	0.0214138
717.989	0.0230965
718.067	0.0243222
718.146	0.0256535
718.224	0.0264190
718.302	0.0271039
718.380	0.0274046
718.458	0.0276965
718.536	0.0273404
718.614	0.0271661
718.692	0.0267020
718.771	0.0263164
718.849	0.0258074
718.927	0.0250941
719.005	0.0243227
719.083	0.0235758
719.161	0.0228199
719.239	0.0219747
719.317	0.0213232
719.396	0.0207275
719.474	0.0200943
719.552	0.0194539
719.630	0.0189916
719.708	0.0185046
719.786	0.0182256
719.864	0.0178152
719.942	0.0173227
720.021	0.0168849
720.099	0.0161221
720.177	0.0153620
720.255	0.0146823
720.333	0.0137707
720.411	0.0126923
720.489	0.0114209
720.567	0.0102456
720.646	0.00923531
720.724	0.00822479
720.802	0.00729881
720.880	0.00674973
720.958	0.00640518
721.036	0.00623260
721.114	0.00630775
721.192	0.00669823
721.271	0.00704292
721.349	0.00798859
721.427	0.00898865
721.505	0.0101759
721.583	0.0114516
721.661	0.0127496
721.739	0.0141354
721.817	0.0156197
721.896	0.0173151
721.974	0.0183941
722.052	0.0198902
722.130	0.0210352
722.208	0.0221957
722.286	0.0229140
722.364	0.0233725
722.442	0.0237376
722.521	0.0239363
722.599	0.0236208
722.677	0.0233620
722.755	0.0228631
722.833	0.0221360
722.911	0.0213412
722.989	0.0204950
723.067	0.0197601
723.146	0.0192117
723.224	0.0184081
723.302	0.0176196
723.380	0.0172815
723.458	0.0168754
723.536	0.0164828
723.614	0.0162713
723.692	0.0160387
723.771	0.0157088
723.849	0.0157277
723.927	0.0158290
724.005	0.0156994
724.083	0.0157415
724.161	0.0156935
724.239	0.0157824
724.317	0.0156588
724.396	0.0156963
724.474	0.0154772
724.552	0.0153828
724.630	0.0151181
724.708	0.0148460
724.786	0.0146087
724.864	0.0142536
724.942	0.0139249
725.021	0.0138097
725.099	0.0135194
725.177	0.0133529
725.255	0.0132542
725.333	0.0134238
725.411	0.0134982
725.489	0.0134243
725.567	0.0136896
725.646	0.0139407
725.724	0.0141058
725.802	0.0145054
725.880	0.0149061
725.958	0.0152498
726.036	0.0156538
726.114	0.0161268
726.192	0.0166250
726.271	0.0169276
726.349	0.0174557
726.427	0.0178097
726.505	0.0181341
726.583	0.0184422
726.661	0.0187938
726.739	0.0190536
726.817	0.0190263
726.896	0.0188721
726.974	0.0188441
727.052	0.0186753
727.130	0.0184534
727.208	0.0182882
727.286	0.0180991
727.364	0.0178677
727.442	0.0177248
727.521	0.0178985
727.599	0.0177203
727.677	0.0177170
727.755	0.0178317
727.833	0.0178688
727.911	0.0179951
727.989	0.0180597
728.067	0.0182294
728.146	0.0183367
728.224	0.0183061
728.302	0.0182697
728.380	0.0181399
728.458	0.0179476
728.536	0.0178367
728.614	0.0172872
728.692	0.0170855
728.771	0.0166160
728.849	0.0161911
728.927	0.0158350
729.005	0.0154111
729.083	0.0149268
729.161	0.0146783
729.239	0.0143661
729.317	0.0141985
729.396	0.0139905
729.474	0.0139099
729.552	0.0136742
729.630	0.0136828
729.708	0.0138280
729.786	0.0138390
729.864	0.0140473
729.942	0.0142337
730.021	0.0143306
730.099	0.0147757
730.177	0.0149631
730.255	0.0152297
730.333	0.0152634
730.411	0.0154726
730.489	0.0158743
730.567	0.0159323
730.646	0.0160685
730.724	0.0162349
730.802	0.0163142
730.880	0.0162879
730.958	0.0161902
731.036	0.0162752
731.114	0.0163305
731.192	0.0162321
731.271	0.0162330
731.349	0.0160723
731.427	0.0160411
731.505	0.0161402
731.583	0.0160771
731.661	0.0164127
731.739	0.0167027
731.817	0.0168754
731.896	0.0169347
731.974	0.0171975
732.052	0.0174848
732.130	0.0176756
732.208	0.0179144
732.286	0.0180189
732.364	0.0179238
732.442	0.0178165
732.521	0.0180354
732.599	0.0178779
732.677	0.0177777
732.755	0.0176386
732.833	0.0175858
732.911	0.0174429
732.989	0.0171530
733.067	0.0172423
733.146	0.0169836
733.224	0.0168723
733.302	0.0167854
733.380	0.0167166
733.458	0.0168973
733.536	0.0167643
733.614	0.0168542
733.692	0.0169448
733.771	0.0171110
733.849	0.0170828
733.927	0.0170629
734.005	0.0171881
734.083	0.0170995
734.161	0.0169634
734.239	0.0170611
734.317	0.0168237
734.396	0.0168464
734.474	0.0167369
734.552	0.0166983
734.630	0.0166367
734.708	0.0164268
734.786	0.0160707
734.864	0.0159304
734.942	0.0157353
735.021	0.0155942
735.099	0.0152797
735.177	0.0149988
735.255	0.0148553
735.333	0.0145932
735.411	0.0143513
735.489	0.0142546
735.567	0.0141954
735.646	0.0139549
735.724	0.0140232
735.802	0.0140744
735.880	0.0141763
735.958	0.0144553
736.036	0.0146026
736.114	0.0149564
736.192	0.0152517
736.271	0.0154149
736.349	0.0158637
736.427	0.0162494
736.505	0.0162519
736.583	0.0165688
736.661	0.0167823
736.739	0.0168224
736.817	0.0169869
736.896	0.0170872
736.974	0.0170919
737.052	0.0170058
737.130	0.0169653
737.208	0.0167612
737.286	0.0168000
737.364	0.0167434
737.442	0.0165623
737.521	0.0164292
737.599	0.0166569
737.677	0.0166396
737.755	0.0167525
737.833	0.0169019
737.911	0.0170602
737.989	0.0172964
738.067	0.0175436
738.146	0.0176775
738.224	0.0178105
738.302	0.0180513
738.380	0.0181321
738.458	0.0181265
738.536	0.0182227
738.614	0.0181862
738.692	0.0181824
738.771	0.0180328
738.849	0.0177368
738.927	0.0177172
739.005	0.0174058
739.083	0.0171543
739.161	0.0170706
739.239	0.0167133
739.317	0.0165604
739.396	0.0164244
739.474	0.0159843
739.552	0.0157270
739.630	0.0154811
739.708	0.0152274
739.786	0.0150261
739.864	0.0147990
739.942	0.0145909
740.021	0.0145137
740.099	0.0143746
740.177	0.0143678
740.255	0.0143034
740.333	0.0143880
740.411	0.0144205
740.489	0.0147069
740.567	0.0146674
740.646	0.0148933
740.724	0.0151865
740.802	0.0152106
740.880	0.0153377
740.958	0.0156706
741.036	0.0158545
741.114	0.0158928
741.192	0.0161127
741.271	0.0161585
741.349	0.0162914
741.427	0.0165440
741.505	0.0168380
741.583	0.0169336
741.661	0.0172639
741.739	0.0174355
741.817	0.0175791
741.896	0.0176958
741.974	0.0179575
742.052	0.0180400
742.130	0.0180959
742.208	0.0181149
742.286	0.0180192
742.364	0.0179561
742.442	0.0180540
742.521	0.0180341
742.599	0.0178551
742.677	0.0177394
742.755	0.0176419
742.833	0.0175754
742.911	0.0175569
742.989	0.0174963
743.067	0.0172198
743.146	0.0171558
743.224	0.0170893
743.302	0.0167166
743.380	0.0166743
743.458	0.0165071
743.536	0.0162650
743.614	0.0161920
743.692	0.0158795
743.771	0.0156609
743.849	0.0153812
743.927	0.0151236
744.005	0.0150082
744.083	0.0149522
744.161	0.0149345
744.239	0.0147138
744.317	0.0146111
744.396	0.0145158
744.474	0.0145058
744.552	0.0145175
744.630	0.0145299
744.708	0.0144507
744.786	0.0145416
744.864	0.0147249
744.942	0.0148399
745.021	0.0152188
745.099	0.0154438
745.177	0.0155988
745.255	0.0158922
745.333	0.0161499
745.411	0.0164990
745.489	0.0167074
745.567	0.0169465
745.646	0.0171605
745.724	0.0172437
745.802	0.0174059
745.880	0.0174438
745.958	0.0174354
746.036	0.0175637
746.114	0.0176534
746.192	0.0176123
746.271	0.0175782
746.349	0.0177792
746.427	0.0178142
746.505	0.0178246
746.583	0.0178596
746.661	0.0179754
746.739	0.0180654
746.817	0.0179942
746.896	0.0180350
746.974	0.0179393
747.052	0.0179774
747.130	0.0177335
747.208	0.0174129
747.286	0.0172724
747.364	0.0169182
747.442	0.0167919
747.521	0.0164565
747.599	0.0159117
747.677	0.0156072
747.755	0.0152087
747.833	0.0148498
747.911	0.0144875
747.989	0.0143011
748.067	0.0140656
748.146	0.0142663
748.224	0.0139542
748.302	0.0139929
748.380	0.0141727
748.458	0.0143623
748.536	0.0145438
748.614	0.0147099
748.692	0.0149809
748.771	0.0152834
748.849	0.0154804
748.927	0.0155793
749.005	0.0159387
749.083	0.0162456
749.161	0.0163878
749.239	0.0165367
749.317	0.0167450
749.396	0.0169501
749.474	0.0172395
749.552	0.0174478
749.630	0.0173043
749.708	0.0176077
749.786	0.0178120
749.864	0.0178869
749.942	0.0180235
750.021	0.0181277
750.099	0.0182194
750.177	0.0181846
750.255	0.0181747
750.333	0.0180499
750.411	0.0180663
750.489	0.0181138
750.567	0.0178823
750.646	0.0178867
750.724	0.0178814
750.802	0.0179037
750.880	0.0177342
750.958	0.0176782
751.036	0.0176680
751.114	0.0175448
751.192	0.0173985
751.271	0.0171362
751.349	0.0168465
751.427	0.0165778
751.505	0.0162892
751.583	0.0158745
751.661	0.0154710
751.739	0.0152767
751.817	0.0148663
751.896	0.0145290
751.974	0.0141285
752.052	0.0138727
752.130	0.0136732
752.208	0.0134575
752.286	0.0134843
752.364	0.0134567
752.442	0.0135879
752.521	0.0137126
752.599	0.0137218
752.677	0.0141208
752.755	0.0142652
752.833	0.0144672
752.911	0.0147840
752.989	0.0150935
753.067	0.0154249
753.146	0.0156837
753.224	0.0158627
753.302	0.0161952
753.380	0.0164730
753.458	0.0166521
753.536	0.0169893
753.614	0.0171365
753.692	0.0171367
753.771	0.0172853
753.849	0.0176346
753.927	0.0176638
754.005	0.0177486
754.083	0.0178472
754.161	0.0178190
754.239	0.0178818
754.317	0.0179371
754.396	0.0181142
754.474	0.0180664
754.552	0.0181277
754.630	0.0182553
754.708	0.0181728
754.786	0.0182407
754.864	0.0183244
754.942	0.0184557
755.021	0.0182611
755.099	0.0182207
755.177	0.0180656
755.255	0.0179107
755.333	0.0176073
755.411	0.0175670
755.489	0.0173608
755.567	0.0169568
755.646	0.0167097
755.724	0.0162769
755.802	0.0159812
755.880	0.0155853
755.958	0.0155114
756.036	0.0151817
756.114	0.0149271
756.192	0.0148321
756.271	0.0147911
756.349	0.0145593
756.427	0.0144793
756.505	0.0147797
756.583	0.0148013
756.661	0.0146378
756.739	0.0148233
756.817	0.0148408
756.896	0.0149657
756.974	0.0150462
757.052	0.0153945
757.130	0.0155007
757.208	0.0156739
757.286	0.0157794
757.364	0.0159044
757.442	0.0160684
757.521	0.0161417
757.599	0.0162200
757.677	0.0164413
757.755	0.0166419
757.833	0.0166084
757.911	0.0165801
757.989	0.0164604
758.067	0.0164962
758.146	0.0165608
758.224	0.0166321
758.302	0.0165851
758.380	0.0166289
758.458	0.0167127
758.536	0.0166113
758.614	0.0168026
758.692	0.0168143
758.771	0.0169051
758.849	0.0168345
758.927	0.0170251
759.005	0.0171028
759.083	0.0172374
759.161	0.0173126
759.239	0.0173588
759.317	0.0175171
759.396	0.0174142
759.474	0.0174361
759.552	0.0174001
759.630	0.0172815
759.708	0.0171633
759.786	0.0170146
759.864	0.0169339
759.942	0.0166154
760.021	0.0164462
760.099	0.0162386
760.177	0.0161389
760.255	0.0158151
760.333	0.0157493
760.411	0.0155862
760.489	0.0154593
760.567	0.0154771
760.646	0.0153601
760.724	0.0151251
760.802	0.0152047
760.880	0.0151450
760.958	0.0152635
761.036	0.0151895
761.114	0.0152066
761.192	0.0153828
761.271	0.0155079
761.349	0.0157730
761.427	0.0159116
761.505	0.0160574
761.583	0.0161526
761.661	0.0163122
761.739	0.0164184
761.817	0.0165052
761.896	0.0165804
761.974	0.0164799
762.052	0.0166039
762.130	0.0166531
762.208	0.0166794
762.286	0.0167239
762.364	0.0168240
762.442	0.0167377
762.521	0.0168997
762.599	0.0170586
762.677	0.0171232
762.755	0.0172227
762.833	0.0172652
762.911	0.0174783
762.989	0.0173013
763.067	0.0174958
763.146	0.0174925
763.224	0.0176289
763.302	0.0176418
763.380	0.0175381
763.458	0.0175580
763.536	0.0174688
763.614	0.0173497
763.692	0.0173282
763.771	0.0170813
763.849	0.0168433
763.927	0.0168186
764.005	0.0165328
764.083	0.0164395
764.161	0.0161808
764.239	0.0160017
764.317	0.0158853
764.396	0.0156115
764.474	0.0154020
764.552	0.0152301
764.630	0.0151944
764.708	0.0150286
764.786	0.0149582
764.864	0.0149109
764.942	0.0149564
765.021	0.0150614
765.099	0.0151910
765.177	0.0152118
765.255	0.0153660
765.333	0.0156345
765.411	0.0156397
765.489	0.0158703
765.567	0.0160274
765.646	0.0163280
765.724	0.0162886
765.802	0.0162132
765.880	0.0164254
765.958	0.0164324
766.036	0.0164445
766.114	0.0165015
766.192	0.0166586
766.271	0.0166064
766.349	0.0166135
766.427	0.0166959
766.505	0.0165280
766.583	0.0166115
766.661	0.0167229
766.739	0.0167435
766.817	0.0169195
766.896	0.0169109
766.974	0.0170914
767.052	0.0170104
767.130	0.0170797
767.208	0.0172545
767.286	0.0171490
767.364	0.0170822
767.442	0.0171295
767.521	0.0171712
767.599	0.0172041
767.677	0.0169108
767.755	0.0169190
767.833	0.0166994
767.911	0.0167670
767.989	0.0167948
768.067	0.0166464
768.146	0.0165792
768.224	0.0165778
768.302	0.0164099
768.380	0.0163788
768.458	0.0162517
768.536	0.0161905
768.614	0.0161708
768.692	0.0162010
768.771	0.0162813
768.849	0.0161751
768.927	0.0160691
769.005	0.0161119
769.083	0.0161768
769.161	0.0160503
769.239	0.0160896
769.317	0.0159846
769.396	0.0161192
769.474	0.0159742
769.552	0.0159765
769.630	0.0158630
769.708	0.0158686
769.786	0.0159570
769.864	0.0158995
769.942	0.0158745
770.021	0.0158877
770.099	0.0158933
770.177	0.0159936
770.255	0.0160718
770.333	0.0160097
770.411	0.0161159
770.489	0.0162547
770.567	0.0165347
770.646	0.0165321
770.724	0.0165932
770.802	0.0166030
770.880	0.0167357
770.958	0.0166377
771.036	0.0166680
771.114	0.0167810
771.192	0.0168452
771.271	0.0166859
771.349	0.0166449
771.427	0.0165833
771.505	0.0166933
771.583	0.0165810
771.661	0.0165154
771.739	0.0164843
771.817	0.0166497
771.896	0.0166368
771.974	0.0166235
772.052	0.0166468
772.130	0.0167987
772.208	0.0167720
772.286	0.0169389
772.364	0.0169226
772.442	0.0168321
772.521	0.0168472
772.599	0.0167519
772.677	0.0168403
772.755	0.0168147
772.833	0.0166094
772.911	0.0165998
772.989	0.0164359
773.067	0.0163634
773.146	0.0163261
773.224	0.0162117
773.302	0.0160899
773.380	0.0161071
773.458	0.0160317
773.536	0.0159939
773.614	0.0159245
773.692	0.0159174
773.771	0.0159503
773.849	0.0160422
773.927	0.0159579
774.005	0.0159732
774.083	0.0158258
774.161	0.0158248
774.239	0.0159110
774.317	0.0159530
774.396	0.0159912
774.474	0.0159650
774.552	0.0160126
774.630	0.0161175
774.708	0.0161315
774.786	0.0162025
774.864	0.0163514
774.942	0.0165076
775.021	0.0165110
775.099	0.0165325
775.177	0.0166079
775.255	0.0166433
775.333	0.0166730
775.411	0.0164902
775.489	0.0164326
775.567	0.0166650
775.646	0.0164738
775.724	0.0163223
775.802	0.0164363
775.880	0.0162617
775.958	0.0163946
776.036	0.0161819
776.114	0.0162382
776.192	0.0163743
776.271	0.0162077
776.349	0.0163562
776.427	0.0162979
776.505	0.0163203
776.583	0.0163556
776.661	0.0163403
776.739	0.0163965
776.817	0.0162940
776.896	0.0163563
776.974	0.0164198
777.052	0.0164276
777.130	0.0161680
777.208	0.0163226
777.286	0.0163201
777.364	0.0163353
777.442	0.0162191
777.521	0.0162218
777.599	0.0162424
777.677	0.0162902
777.755	0.0162629
777.833	0.0162335
777.911	0.0162829
777.989	0.0163676
778.067	0.0160923
778.146	0.0160355
778.224	0.0163046
778.302	0.0162153
778.380	0.0162830
778.458	0.0163622
778.536	0.0164999
778.614	0.0166608
778.692	0.0168032
778.771	0.0168123
778.849	0.0168058
778.927	0.0169334
779.005	0.0168816
779.083	0.0167178
779.161	0.0169492
779.239	0.0170135
779.317	0.0168413
779.396	0.0167844
779.474	0.0167935
779.552	0.0166315
779.630	0.0165047
779.708	0.0163956
779.786	0.0162903
779.864	0.0163164
779.942	0.0162406
780.021	0.0160933
780.099	0.0160393
780.177	0.0161825
780.255	0.0161513
780.333	0.0160146
780.411	0.0159521
780.489	0.0160693
780.567	0.0161279
780.646	0.0161038
780.724	0.0161375
780.802	0.0161473
780.880	0.0161014
780.958	0.0162228
781.036	0.0161845
781.114	0.0162795
781.192	0.0162525
781.271	0.0163094
781.349	0.0163148
781.427	0.0163554
781.505	0.0164403
781.583	0.0164194
781.661	0.0163134
781.739	0.0163961
781.817	0.0163619
781.896	0.0165166
781.974	0.0163766
782.052	0.0164568
782.130	0.0163422
782.208	0.0164460
782.286	0.0164773
782.364	0.0164316
782.442	0.0165338
782.521	0.0165802
782.599	0.0165446
782.677	0.0165413
782.755	0.0166106
782.833	0.0166489
782.911	0.0166591
782.989	0.0167412
783.067	0.0166414
783.146	0.0166180
783.224	0.0165845
783.302	0.0164911
783.380	0.0164937
783.458	0.0163983
783.536	0.0163110
783.614	0.0161674
783.692	0.0160372
783.771	0.0160291
783.849	0.0159846
783.927	0.0159464
784.005	0.0158574
784.083	0.0156838
784.161	0.0158628
784.239	0.0158813
784.317	0.0158228
784.396	0.0158159
784.474	0.0159010
784.552	0.0159436
784.630	0.0162267
784.708	0.0161584
784.786	0.0161610
784.864	0.0162906
784.942	0.0162563
785.021	0.0164195
785.099	0.0164037
785.177	0.0165289
785.255	0.0165754
785.333	0.0167125
785.411	0.0164954
785.489	0.0165693
785.567	0.0165438
785.646	0.0166986
785.724	0.0167315
785.802	0.0166444
785.880	0.0167680
785.958	0.0168519
786.036	0.0167718
786.114	0.0167456
786.192	0.0166576
786.271	0.0169116
786.349	0.0168886
786.427	0.0166571
786.505	0.0168533
786.583	0.0166913
786.661	0.0166067
786.739	0.0167258
786.817	0.0168069
786.896	0.0167574
786.974	0.0168071
787.052	0.0167444
787.130	0.0168571
787.208	0.0167796
787.286	0.0167125
787.364	0.0167279
787.442	0.0166771
787.521	0.0166760
787.599	0.0163382
787.677	0.0163710
787.755	0.0162148
787.833	0.0161501
787.911	0.0160851
787.989	0.0158016
788.067	0.0159473
788.146	0.0159673
788.224	0.0158627
788.302	0.0157862
788.380	0.0158165
788.458	0.0158060
788.536	0.0157742
788.614	0.0159145
788.692	0.0158964
788.771	0.0159233
788.849	0.0160779
788.927	0.0160079
789.005	0.0161525
789.083	0.0161691
789.161	0.0160738
789.239	0.0160544
789.317	0.0160958
789.396	0.0162077
789.474	0.0161005
789.552	0.0162511
789.630	0.0162424
789.708	0.0161549
789.786	0.0163012
789.864	0.0163918
789.942	0.0164965
790.021	0.0164964
790.099	0.0165147
790.177	0.0165532
790.255	0.0167809
790.333	0.0168461
790.411	0.0169533
790.489	0.0170969
790.567	0.0172152
790.646	0.0172881
790.724	0.0173914
790.802	0.0174587
790.880	0.0173681
790.958	0.0173388
791.036	0.0174151
791.114	0.0173506
791.192	0.0172646
791.271	0.0170702
791.349	0.0169649
791.427	0.0167924
791.505	0.0167278
791.583	0.0163121
791.661	0.0163491
791.739	0.0161685
791.817	0.0159991
791.896	0.0159473
791.974	0.0158678
792.052	0.0158033
792.130	0.0157545
792.208	0.0155333
792.286	0.0155739
792.364	0.0156521
792.442	0.0156242
792.521	0.0157384
792.599	0.0156629
792.677	0.0157491
792.755	0.0159261
792.833	0.0160564
792.911	0.0160445
792.989	0.0161053
793.067	0.0162824
793.146	0.0162486
793.224	0.0162939
793.302	0.0164225
793.380	0.0163873
793.458	0.0164112
793.536	0.0165108
793.614	0.0165585
793.692	0.0166312
793.771	0.0166780
793.849	0.0165981
793.927	0.0166798
794.005	0.0167772
794.083	0.0167944
794.161	0.0168364
794.239	0.0167651
794.317	0.0168554
794.396	0.0169518
794.474	0.0169601
794.552	0.0169318
794.630	0.0169632
794.708	0.0169714
794.786	0.0171188
794.864	0.0170686
794.942	0.0169813
795.021	0.0169949
795.099	0.0168564
795.177	0.0168942
795.255	0.0169393
795.333	0.0168966
795.411	0.0167170
795.489	0.0166991
795.567	0.0166356
795.646	0.0164523
795.724	0.0164029
795.802	0.0164293
795.880	0.0160882
795.958	0.0162136
796.036	0.0161922
796.114	0.0159818
796.192	0.0159284
796.271	0.0157212
796.349	0.0157447
796.427	0.0157864
796.505	0.0157554
796.583	0.0158437
796.661	0.0157477
796.739	0.0157762
796.817	0.0156987
796.896	0.0156978
796.974	0.0158785
797.052	0.0158690
797.130	0.0158627
797.208	0.0159420
797.286	0.0158838
797.364	0.0158494
797.442	0.0160276
797.521	0.0158916
797.599	0.0159130
797.677	0.0159006
797.755	0.0160722
797.833	0.0162148
797.911	0.0162074
797.989	0.0163435
798.067	0.0164798
798.146	0.0163766
798.224	0.0166350
798.302	0.0166251
798.380	0.0169241
798.458	0.0169958
798.536	0.0169633
798.614	0.0170410
798.692	0.0174981
798.771	0.0174158
798.849	0.0173637
798.927	0.0173839
799.005	0.0175095
799.083	0.0173804
799.161	0.0174247
799.239	0.0174573
799.317	0.0172971
799.396	0.0171776
799.474	0.0170445
799.552	0.0170014
799.630	0.0170213
799.708	0.0169132
799.786	0.0166448
799.864	0.0164526
799.942	0.0165769
800.021	0.0163281
800.099	0.0160567
800.177	0.0158887
800.255	0.0158849
800.333	0.0156583
800.411	0.0157133
800.489	0.0154386
800.567	0.0156039
800.646	0.0155113
800.724	0.0154417
800.802	0.0154108
800.880	0.0153653
800.958	0.0153448
801.036	0.0154831
801.114	0.0154684
801.192	0.0155849
801.271	0.0155296
801.349	0.0156964
801.427	0.0158523
801.505	0.0158118
801.583	0.0160077
801.661	0.0159830
801.739	0.0159902
801.817	0.0159634
801.896	0.0160538
801.974	0.0161756
802.052	0.0164580
802.130	0.0163441
802.208	0.0163073
802.286	0.0165566
802.364	0.0165693
802.442	0.0168180
802.521	0.0168819
802.599	0.0170029
802.677	0.0171007
802.755	0.0172169
802.833	0.0172254
802.911	0.0172781
802.989	0.0175082
803.067	0.0174613
803.146	0.0175471
803.224	0.0174669
803.302	0.0173625
803.380	0.0174481
803.458	0.0173442
803.536	0.0173077
803.614	0.0171159
803.692	0.0170706
803.771	0.0169324
803.849	0.0167904
803.927	0.0167725
804.005	0.0165828
804.083	0.0164811
804.161	0.0163872
804.239	0.0161730
804.317	0.0158850
804.396	0.0157988
804.474	0.0158186
804.552	0.0156438
804.630	0.0153827
804.708	0.0152712
804.786	0.0152893
804.864	0.0151234
804.942	0.0150053
805.021	0.0150226
805.099	0.0151189
805.177	0.0151711
805.255	0.0152163
805.333	0.0152916
805.411	0.0154751
805.489	0.0155607
805.567	0.0155792
805.646	0.0156765
805.724	0.0159386
805.802	0.0160275
805.880	0.0161857
805.958	0.0162038
806.036	0.0161193
806.114	0.0163211
806.192	0.0164663
806.271	0.0166256
806.349	0.0167154
806.427	0.0167776
806.505	0.0169220
806.583	0.0169040
806.661	0.0171498
806.739	0.0172719
806.817	0.0172057
806.896	0.0172817
806.974	0.0174842
807.052	0.0174752
807.130	0.0174927
807.208	0.0175675
807.286	0.0175066
807.364	0.0175645
807.442	0.0175587
807.521	0.0173318
807.599	0.0173857
807.677	0.0173027
807.755	0.0173373
807.833	0.0173576
807.911	0.0172507
807.989	0.0171716
808.067	0.0170645
808.146	0.0170493
808.224	0.0167479
808.302	0.0166761
808.380	0.0164727
808.458	0.0162699
808.536	0.0161353
808.614	0.0158468
808.692	0.0157139
808.771	0.0154292
808.849	0.0152641
808.927	0.0151482
809.005	0.0149234
809.083	0.0147827
809.161	0.0148372
809.239	0.0145949
809.317	0.0145760
809.396	0.0146028
809.474	0.0146194
809.552	0.0145954
809.630	0.0146947
809.708	0.0147964
809.786	0.0148652
809.864	0.0150661
809.942	0.0150772
810.021	0.0154526
810.099	0.0156125
810.177	0.0158438
810.255	0.0160699
810.333	0.0164236
810.411	0.0164236
810.489	0.0166972
810.567	0.0166512
810.646	0.0169891
810.724	0.0173605
810.802	0.0174512
810.880	0.0175534
810.958	0.0177434
811.036	0.0178519
811.114	0.0181162
811.192	0.0181963
811.271	0.0182309
811.349	0.0182951
811.427	0.0184034
811.505	0.0183677
811.583	0.0184009
811.661	0.0183643
811.739	0.0183261
811.817	0.0183810
811.896	0.0181463
811.974	0.0180507
812.052	0.0180276
812.130	0.0179559
812.208	0.0177094
812.286	0.0174649
812.364	0.0172588
812.442	0.0172688
812.521	0.0166930
812.599	0.0165321
812.677	0.0162470
812.755	0.0159833
812.833	0.0157175
812.911	0.0152649
812.989	0.0149670
813.067	0.0148885
813.146	0.0145717
813.224	0.0144680
813.302	0.0142983
813.380	0.0140317
813.458	0.0140668
813.536	0.0140434
813.614	0.0141113
813.692	0.0140154
813.771	0.0140637
813.849	0.0143089
813.927	0.0144652
814.005	0.0145643
814.083	0.0148577
814.161	0.0149865
814.239	0.0153230
814.317	0.0154433
814.396	0.0157811
814.474	0.0159695
814.552	0.0162301
814.630	0.0164278
814.708	0.0165887
814.786	0.0168781
814.864	0.0170213
814.942	0.0171008
815.021	0.0171962
815.099	0.0174882
815.177	0.0174452
815.255	0.0177015
815.333	0.0178113
815.411	0.0179488
815.489	0.0179031
815.567	0.0180930
815.646	0.0180076
815.724	0.0180444
815.802	0.0181563
815.880	0.0179851
815.958	0.0181492
816.036	0.0180782
816.114	0.0181743
816.192	0.0179680
816.271	0.0178301
816.349	0.0176942
816.427	0.0174969
816.505	0.0174504
816.583	0.0172935
816.661	0.0169986
816.739	0.0167534
816.817	0.0165766
816.896	0.0164985
816.974	0.0162005
817.052	0.0159875
817.130	0.0158443
817.208	0.0156320
817.286	0.0154195
817.364	0.0152213
817.442	0.0153051
817.521	0.0150319
817.599	0.0149015
817.677	0.0149677
817.755	0.0149183
817.833	0.0148891
817.911	0.0149151
817.989	0.0150375
818.067	0.0150507
818.146	0.0152154
818.224	0.0152870
818.302	0.0153753
818.380	0.0153908
818.458	0.0156469
818.536	0.0157459
818.614	0.0157627
818.692	0.0157616
818.771	0.0160118
818.849	0.0161180
818.927	0.0163667
819.005	0.0164246
819.083	0.0164225
819.161	0.0165748
819.239	0.0167735
819.317	0.0168793
819.396	0.0169186
819.474	0.0171020
819.552	0.0172574
819.630	0.0171905
819.708	0.0174698
819.786	0.0174308
819.864	0.0173296
819.942	0.0173576
820.021	0.0175412
820.099	0.0174944
820.177	0.0174865
820.255	0.0174338
820.333	0.0173208
820.411	0.0174138
820.489	0.0172747
820.567	0.0173489
820.646	0.0171268
820.724	0.0168765
820.802	0.0168263
820.880	0.0167608
820.958	0.0166711
821.036	0.0164127
821.114	0.0163274
821.192	0.0161377
821.271	0.0159911
821.349	0.0158829
821.427	0.0156686
821.505	0.0157758
821.583	0.0155929
821.661	0.0154932
821.739	0.0154684
821.817	0.0153225
821.896	0.0153806
821.974	0.0152986
822.052	0.0152335
822.130	0.0154095
822.208	0.0154566
822.286	0.0155016
822.364	0.0154931
822.442	0.0156853
822.521	0.0156258
822.599	0.0158458
822.677	0.0160814
822.755	0.0161067
822.833	0.0160724
822.911	0.0162041
822.989	0.0164426
823.067	0.0163928
823.146	0.0165281
823.224	0.0165671
823.302	0.0166539
823.380	0.0166734
823.458	0.0167838
823.536	0.0169294
823.614	0.0169201
823.692	0.0170686
823.771	0.0169929
823.849	0.0170829
823.927	0.0172118
824.005	0.0172935
824.083	0.0172816
824.161	0.0173162
824.239	0.0172798
824.317	0.0172199
824.396	0.0173199
824.474	0.0172329
824.552	0.0169577
824.630	0.0169889
824.708	0.0168533
824.786	0.0168420
824.864	0.0166190
824.942	0.0165582
825.021	0.0163907
825.099	0.0161958
825.177	0.0160734
825.255	0.0159459
825.333	0.0158212
825.411	0.0157809
825.489	0.0157372
825.567	0.0156287
825.646	0.0156608
825.724	0.0156307
825.802	0.0156374
825.880	0.0157137
825.958	0.0156826
826.036	0.0156676
826.114	0.0157230
826.192	0.0156590
826.271	0.0157265
826.349	0.0158879
826.427	0.0158283
826.505	0.0159106
826.583	0.0158796
826.661	0.0160316
826.739	0.0159638
826.817	0.0160755
826.896	0.0162010
826.974	0.0160860
827.052	0.0162035
827.130	0.0162724
827.208	0.0162422
827.286	0.0164433
827.364	0.0165578
827.442	0.0165466
827.521	0.0165836
827.599	0.0167747
827.677	0.0167670
827.755	0.0168007
827.833	0.0168594
827.911	0.0168237
827.989	0.0168823
828.067	0.0170777
828.146	0.0169345
828.224	0.0170910
828.302	0.0171635
828.380	0.0171475
828.458	0.0170964
828.536	0.0169857
828.614	0.0169163
828.692	0.0169598
828.771	0.0168941
828.849	0.0168791
828.927	0.0168902
829.005	0.0170290
829.083	0.0167618
829.161	0.0167426
829.239	0.0167010
829.317	0.0165685
829.396	0.0166069
829.474	0.0164727
829.552	0.0163017
829.630	0.0163183
829.708	0.0162428
829.786	0.0161625
829.864	0.0160519
829.942	0.0158959
830.021	0.0158397
830.099	0.0156501
830.177	0.0157662
830.255	0.0157410
830.333	0.0157939
830.411	0.0157407
830.489	0.0155279
830.567	0.0156989
830.646	0.0159853
830.724	0.0159481
830.802	0.0157987
830.880	0.0159763
830.958	0.0160673
831.036	0.0158359
831.114	0.0161620
831.192	0.0161813
831.271	0.0159979
831.349	0.0160617
831.427	0.0161189
831.505	0.0161554
831.583	0.0161699
831.661	0.0163465
831.739	0.0163647
831.817	0.0163783
831.896	0.0164168
831.974	0.0166046
832.052	0.0165508
832.130	0.0166714
832.208	0.0167751
832.286	0.0168776
832.364	0.0168261
832.442	0.0168555
832.521	0.0167359
832.599	0.0168248
832.677	0.0169864
832.755	0.0169234
832.833	0.0167958
832.911	0.0169161
832.989	0.0168961
833.067	0.0169518
833.146	0.0168291
833.224	0.0168623
833.302	0.0167665
833.380	0.0167789
833.458	0.0169106
833.536	0.0166338
833.614	0.0166173
833.692	0.0166393
833.771	0.0166272
833.849	0.0166132
833.927	0.0164415
834.005	0.0165155
834.083	0.0165850
834.161	0.0164073
834.239	0.0162765
834.317	0.0161948
834.396	0.0161325
834.474	0.0161174
834.552	0.0160188
834.630	0.0160888
834.708	0.0158503
834.786	0.0159067
834.864	0.0158028
834.942	0.0158638
835.021	0.0157536
835.099	0.0157575
835.177	0.0157611
835.255	0.0158259
835.333	0.0158328
835.411	0.0160750
835.489	0.0160351
835.567	0.0161205
835.646	0.0159975
835.724	0.0162222
835.802	0.0162330
835.880	0.0163491
835.958	0.0164632
836.036	0.0163921
836.114	0.0166645
836.192	0.0166305
836.271	0.0166660
836.349	0.0168575
836.427	0.0167861
836.505	0.0167332
836.583	0.0168803
836.661	0.0168767
836.739	0.0169520
836.817	0.0170488
836.896	0.0168713
836.974	0.0169031
837.052	0.0169207
837.130	0.0168761
837.208	0.0169818
837.286	0.0167218
837.364	0.0168243
837.442	0.0167644
837.521	0.0167232
837.599	0.0166772
837.677	0.0167206
837.755	0.0165445
837.833	0.0166905
837.911	0.0165795
837.989	0.0166117
838.067	0.0165568
838.146	0.0164043
838.224	0.0165041
838.302	0.0164726
838.380	0.0164716
838.458	0.0164463
838.536	0.0162792
838.614	0.0161725
838.692	0.0162955
838.771	0.0163300
838.849	0.0161839
838.927	0.0161398
839.005	0.0161890
839.083	0.0160789
839.161	0.0159370
839.239	0.0158866
839.317	0.0159534
839.396	0.0157716
839.474	0.0156956
839.552	0.0156120
839.630	0.0157649
839.708	0.0157492
839.786	0.0157070
839.864	0.0157372
839.942	0.0161340
840.021	0.0158950
840.099	0.0159041
840.177	0.0161554
840.255	0.0162576
840.333	0.0163255
840.411	0.0163823
840.489	0.0165565
840.567	0.0166805
840.646	0.0167281
840.724	0.0166695
840.802	0.0169552
840.880	0.0170468
840.958	0.0170521
841.036	0.0171537
841.114	0.0170169
841.192	0.0170458
841.271	0.0173029
841.349	0.0170994
841.427	0.0169262
841.505	0.0168676
841.583	0.0168393
841.661	0.0167075
841.739	0.0168014
841.817	0.0167821
841.896	0.0165928
841.974	0.0166164
842.052	0.0163936
842.130	0.0164816
842.208	0.0165280
842.286	0.0164859
842.364	0.0164272
842.442	0.0165711
842.521	0.0163971
842.599	0.0164043
842.677	0.0163038
842.755	0.0162067
842.833	0.0162086
842.911	0.0163529
842.989	0.0162030
843.067	0.0161520
843.146	0.0160912
843.224	0.0158774
843.302	0.0160857
843.380	0.0161158
843.458	0.0158699
843.536	0.0160287
843.614	0.0159315
843.692	0.0159055
843.771	0.0159960
843.849	0.0161147
843.927	0.0161342
844.005	0.0160870
844.083	0.0161882
844.161	0.0161246
844.239	0.0163284
844.317	0.0162518
844.396	0.0163017
844.474	0.0162406
844.552	0.0163413
844.630	0.0163530
844.708	0.0163007
844.786	0.0164635
844.864	0.0164745
844.942	0.0164878
845.021	0.0165153
845.099	0.0165894
845.177	0.0165358
845.255	0.0164556
845.333	0.0165182
845.411	0.0164317
845.489	0.0166316
845.567	0.0164407
845.646	0.0166016
845.724	0.0165298
845.802	0.0166868
845.880	0.0165946
845.958	0.0164360
846.036	0.0163863
846.114	0.0163959
846.192	0.0164420
846.271	0.0164790
846.349	0.0164732
846.427	0.0163896
846.505	0.0164799
846.583	0.0164231
846.661	0.0163816
846.739	0.0164238
846.817	0.0164742
846.896	0.0165691
846.974	0.0164728
847.052	0.0164296
847.130	0.0164565
847.208	0.0164287
847.286	0.0163776
847.364	0.0164337
847.442	0.0163626
847.521	0.0164381
847.599	0.0164220
847.677	0.0162135
847.755	0.0162827
847.833	0.0162549
847.911	0.0160742
847.989	0.0161752
848.067	0.0162917
848.146	0.0161153
848.224	0.0161559
848.302	0.0160773
848.380	0.0161700
848.458	0.0162774
848.536	0.0163318
848.614	0.0162028
848.692	0.0163216
848.771	0.0162293
848.849	0.0162343
848.927	0.0163155
849.005	0.0163220
849.083	0.0163536
849.161	0.0162063
849.239	0.0162530
849.317	0.0163155
849.396	0.0161724
849.474	0.0163693
849.552	0.0162309
849.630	0.0162857
849.708	0.0162878
849.786	0.0163681
849.864	0.0161855
849.942	0.0161633
850.021	0.0163489
850.099	0.0161958
850.177	0.0163288
850.255	0.0163062
850.333	0.0162984
850.411	0.0163389
850.489	0.0163710
850.567	0.0164012
850.646	0.0165052
850.724	0.0165358
850.802	0.0165800
850.880	0.0165431
850.958	0.0165312
851.036	0.0166835
851.114	0.0166505
851.192	0.0168068
851.271	0.0167871
851.349	0.0166615
851.427	0.0167722
851.505	0.0167384
851.583	0.0167253
851.661	0.0166211
851.739	0.0166691
851.817	0.0166369
851.896	0.0163712
851.974	0.0163743
852.052	0.0163094
852.130	0.0161978
852.208	0.0161222
852.286	0.0161916
852.364	0.0161681
852.442	0.0159901
852.521	0.0161108
852.599	0.0161351
852.677	0.0161006
852.755	0.0161134
852.833	0.0160706
852.911	0.0160247
852.989	0.0161472
853.067	0.0161053
853.146	0.0162389
853.224	0.0163413
853.302	0.0161462
853.380	0.0161873
853.458	0.0162799
853.536	0.0164217
853.614	0.0165244
853.692	0.0164254
853.771	0.0163861
853.849	0.0164973
853.927	0.0166308
854.005	0.0165601
854.083	0.0165450
854.161	0.0164359
854.239	0.0165433
854.317	0.0165559
854.396	0.0164675
854.474	0.0164707
854.552	0.0164721
854.630	0.0165168
854.708	0.0165550
854.786	0.0164304
854.864	0.0163509
854.942	0.0164341
855.021	0.0163120
855.099	0.0164128
855.177	0.0164505
855.255	0.0164424
855.333	0.0164455
855.411	0.0164125
855.489	0.0163622
855.567	0.0163844
855.646	0.0164177
855.724	0.0162926
855.802	0.0162849
855.880	0.0162589
855.958	0.0163233
856.036	0.0164092
856.114	0.0163081
856.192	0.0162512
856.271	0.0163103
856.349	0.0162936
856.427	0.0162570
856.505	0.0161803
856.583	0.0163303
856.661	0.0164019
856.739	0.0163224
856.817	0.0162805
856.896	0.0162676
856.974	0.0162614
857.052	0.0161211
857.130	0.0162545
857.208	0.0162717
857.286	0.0162926
857.364	0.0163107
857.442	0.0164045
857.521	0.0162967
857.599	0.0163541
857.677	0.0162962
857.755	0.0164674
857.833	0.0165513
857.911	0.0164110
857.989	0.0165267
858.067	0.0165571
858.146	0.0166986
858.224	0.0166634
858.302	0.0165936
858.380	0.0165961
858.458	0.0165720
858.536	0.0165618
858.614	0.0167852
858.692	0.0167630
858.771	0.0166940
858.849	0.0166544
858.927	0.0167207
859.005	0.0165980
859.083	0.0166715
859.161	0.0167369
859.239	0.0166888
859.317	0.0166799
859.396	0.0165454
859.474	0.0166618
859.552	0.0164417
859.630	0.0165476
859.708	0.0164424
859.786	0.0164294
859.864	0.0165387
859.942	0.0163644
860.021	0.0164522
860.099	0.0163786
860.177	0.0162842
860.255	0.0163192
860.333	0.0162637
860.411	0.0161704
860.489	0.0160841
860.567	0.0161015
860.646	0.0161483
860.724	0.0161864
860.802	0.0160986
860.880	0.0161063
860.958	0.0161014
861.036	0.0159818
861.114	0.0159595
861.192	0.0160951
861.271	0.0160733
861.349	0.0159533
861.427	0.0160866
861.505	0.0160698
861.583	0.0161065
861.661	0.0161366
861.739	0.0161382
861.817	0.0160841
861.896	0.0161884
861.974	0.0162013
862.052	0.0161921
862.130	0.0163026
862.208	0.0164193
862.286	0.0163348
862.364	0.0163763
862.442	0.0163383
862.521	0.0163933
862.599	0.0164367
862.677	0.0165077
862.755	0.0167719
862.833	0.0166127
862.911	0.0167683
862.989	0.0167393
863.067	0.0167339
863.146	0.0168033
863.224	0.0167162
863.302	0.0167666
863.380	0.0168775
863.458	0.0168298
863.536	0.0168021
863.614	0.0168006
863.692	0.0168527
863.771	0.0167335
863.849	0.0165808
863.927	0.0166183
864.005	0.0164985
864.083	0.0164194
864.161	0.0165376
864.239	0.0164526
864.317	0.0164607
864.396	0.0164524
864.474	0.0162934
864.552	0.0163093
864.630	0.0163531
864.708	0.0163497
864.786	0.0163600
864.864	0.0162280
864.942	0.0163000
865.021	0.0165456
865.099	0.0163789
865.177	0.0162794
865.255	0.0163373
865.333	0.0163573
865.411	0.0162988
865.489	0.0161928
865.567	0.0163028
865.646	0.0162343
865.724	0.0161379
865.802	0.0163814
865.880	0.0162852
865.958	0.0162086
866.036	0.0162557
866.114	0.0162748
866.192	0.0161080
866.271	0.0162360
866.349	0.0162518
866.427	0.0161161
866.505	0.0162188
866.583	0.0162151
866.661	0.0160776
866.739	0.0161417
866.817	0.0160407
866.896	0.0162193
866.974	0.0161490
867.052	0.0162919
867.130	0.0160997
867.208	0.0162865
867.286	0.0164086
867.364	0.0163395
867.442	0.0162967
867.521	0.0163439
867.599	0.0164655
867.677	0.0165861
867.755	0.0165942
867.833	0.0166866
867.911	0.0168015
867.989	0.0167423
868.067	0.0166796
868.146	0.0167180
868.224	0.0167995
868.302	0.0167783
868.380	0.0165752
868.458	0.0167390
868.536	0.0166713
868.614	0.0166602
868.692	0.0166254
868.771	0.0166628
868.849	0.0167524
868.927	0.0165633
869.005	0.0165917
869.083	0.0163538
869.161	0.0163727
869.239	0.0164008
869.317	0.0162641
869.396	0.0163472
869.474	0.0162437
869.552	0.0162609
869.630	0.0163092
869.708	0.0162706
869.786	0.0163354
869.864	0.0162229
869.942	0.0163705
