06/03/2022	15:36:06	Ver.	4.1	UNKNOWN
Optical Delay	550.020508	Delta X		0.078125	Sweeps	1	Scan Rate	0/0
Coordinates	Axis 1	NaN	Axis 2	NaN	Axis 3	NaN	Axis 4	NaN	Axis 5	NaN	Axis 6	0.000000
TX Power	0.000000	RX Power	0.000000

550.021	0.0164044
550.099	0.0164204
550.177	0.0164500
550.255	0.0163420
550.333	0.0163411
550.411	0.0164289
550.489	0.0163752
550.567	0.0163242
550.646	0.0163589
550.724	0.0165314
550.802	0.0163746
550.880	0.0163946
550.958	0.0164430
551.036	0.0164217
551.114	0.0163708
551.192	0.0165614
551.271	0.0164391
551.349	0.0163100
551.427	0.0166576
551.505	0.0164748
551.583	0.0164533
551.661	0.0164092
551.739	0.0165118
551.817	0.0165791
551.896	0.0165751
551.974	0.0165569
552.052	0.0164111
552.130	0.0165223
552.208	0.0163694
552.286	0.0164793
552.364	0.0165604
552.442	0.0165070
552.521	0.0163281
552.599	0.0164942
552.677	0.0163848
552.755	0.0164835
552.833	0.0164901
552.911	0.0162858
552.989	0.0163579
553.067	0.0164096
553.146	0.0164458
553.224	0.0164880
553.302	0.0163898
553.380	0.0163783
553.458	0.0163148
553.536	0.0165617
553.614	0.0165842
553.692	0.0164040
553.771	0.0166122
553.849	0.0164567
553.927	0.0163626
554.005	0.0163430
554.083	0.0163736
554.161	0.0164642
554.239	0.0163739
554.317	0.0165649
554.396	0.0164194
554.474	0.0164750
554.552	0.0165241
554.630	0.0164890
554.708	0.0164825
554.786	0.0164839
554.864	0.0164803
554.942	0.0164951
555.021	0.0164348
555.099	0.0164091
555.177	0.0163605
555.255	0.0163960
555.333	0.0164143
555.411	0.0164169
555.489	0.0164326
555.567	0.0164078
555.646	0.0164108
555.724	0.0163774
555.802	0.0164484
555.880	0.0164601
555.958	0.0165481
556.036	0.0163956
556.114	0.0164182
556.192	0.0163229
556.271	0.0164803
556.349	0.0165304
556.427	0.0164848
556.505	0.0164851
556.583	0.0164214
556.661	0.0165366
556.739	0.0163725
556.817	0.0163477
556.896	0.0164104
556.974	0.0165033
557.052	0.0163913
557.130	0.0163913
557.208	0.0165706
557.286	0.0164487
557.364	0.0165151
557.442	0.0165568
557.521	0.0163705
557.599	0.0164188
557.677	0.0165421
557.755	0.0165921
557.833	0.0164913
557.911	0.0164249
557.989	0.0166032
558.067	0.0165074
558.146	0.0164027
558.224	0.0163354
558.302	0.0163673
558.380	0.0164759
558.458	0.0164074
558.536	0.0164673
558.614	0.0165434
558.692	0.0164349
558.771	0.0165676
558.849	0.0163825
558.927	0.0162943
559.005	0.0164620
559.083	0.0164364
559.161	0.0163746
559.239	0.0163162
559.317	0.0164123
559.396	0.0163509
559.474	0.0163810
559.552	0.0165597
559.630	0.0164403
559.708	0.0164072
559.786	0.0164883
559.864	0.0163887
559.942	0.0163367
560.021	0.0165057
560.099	0.0166578
560.177	0.0165018
560.255	0.0164957
560.333	0.0163813
560.411	0.0163412
560.489	0.0164466
560.567	0.0163962
560.646	0.0162987
560.724	0.0164587
560.802	0.0164227
560.880	0.0164337
560.958	0.0164318
561.036	0.0163548
561.114	0.0164661
561.192	0.0164676
561.271	0.0164803
561.349	0.0163004
561.427	0.0164040
561.505	0.0164322
561.583	0.0164730
561.661	0.0164337
561.739	0.0164098
561.817	0.0165048
561.896	0.0164848
561.974	0.0163535
562.052	0.0163664
562.130	0.0166949
562.208	0.0164902
562.286	0.0163270
562.364	0.0163753
562.442	0.0165392
562.521	0.0164791
562.599	0.0165159
562.677	0.0164841
562.755	0.0163804
562.833	0.0165206
562.911	0.0165527
562.989	0.0165703
563.067	0.0164500
563.146	0.0164639
563.224	0.0163525
563.302	0.0164896
563.380	0.0164384
563.458	0.0164867
563.536	0.0165003
563.614	0.0164992
563.692	0.0163422
563.771	0.0163987
563.849	0.0164123
563.927	0.0164327
564.005	0.0164666
564.083	0.0164010
564.161	0.0163777
564.239	0.0164047
564.317	0.0165083
564.396	0.0165044
564.474	0.0164800
564.552	0.0164285
564.630	0.0164220
564.708	0.0165243
564.786	0.0164198
564.864	0.0165228
564.942	0.0163337
565.021	0.0163881
565.099	0.0162823
565.177	0.0164311
565.255	0.0165580
565.333	0.0163998
565.411	0.0164131
565.489	0.0163851
565.567	0.0165576
565.646	0.0164707
565.724	0.0163854
565.802	0.0164088
565.880	0.0164144
565.958	0.0164164
566.036	0.0164271
566.114	0.0165163
566.192	0.0164971
566.271	0.0164358
566.349	0.0163718
566.427	0.0164181
566.505	0.0165323
566.583	0.0164435
566.661	0.0163599
566.739	0.0165078
566.817	0.0165377
566.896	0.0163285
566.974	0.0165218
567.052	0.0163508
567.130	0.0164809
567.208	0.0164433
567.286	0.0163596
567.364	0.0165172
567.442	0.0163438
567.521	0.0165008
567.599	0.0164405
567.677	0.0165748
567.755	0.0165087
567.833	0.0163112
567.911	0.0164857
567.989	0.0164654
568.067	0.0165168
568.146	0.0164524
568.224	0.0165133
568.302	0.0165099
568.380	0.0164299
568.458	0.0164516
568.536	0.0164080
568.614	0.0162868
568.692	0.0165314
568.771	0.0164772
568.849	0.0163910
568.927	0.0163298
569.005	0.0165143
569.083	0.0166195
569.161	0.0163925
569.239	0.0163305
569.317	0.0165147
569.396	0.0165331
569.474	0.0164709
569.552	0.0164438
569.630	0.0164930
569.708	0.0164151
569.786	0.0165636
569.864	0.0164597
569.942	0.0163808
570.021	0.0166217
570.099	0.0164167
570.177	0.0163636
570.255	0.0166029
570.333	0.0163728
570.411	0.0163895
570.489	0.0164314
570.567	0.0165141
570.646	0.0164698
570.724	0.0163600
570.802	0.0165249
570.880	0.0164027
570.958	0.0164210
571.036	0.0165739
571.114	0.0165266
571.192	0.0162838
571.271	0.0164345
571.349	0.0164134
571.427	0.0164414
571.505	0.0164843
571.583	0.0163910
571.661	0.0165597
571.739	0.0164522
571.817	0.0162759
571.896	0.0164559
571.974	0.0165448
572.052	0.0163257
572.130	0.0164220
572.208	0.0165007
572.286	0.0164868
572.364	0.0163277
572.442	0.0165622
572.521	0.0165313
572.599	0.0164907
572.677	0.0164726
572.755	0.0164621
572.833	0.0164076
572.911	0.0164243
572.989	0.0165161
573.067	0.0164983
573.146	0.0163288
573.224	0.0165175
573.302	0.0165427
573.380	0.0164621
573.458	0.0165952
573.536	0.0164983
573.614	0.0164747
573.692	0.0165597
573.771	0.0164935
573.849	0.0164196
573.927	0.0165796
574.005	0.0165549
574.083	0.0164291
574.161	0.0163583
574.239	0.0164125
574.317	0.0164525
574.396	0.0164675
574.474	0.0163997
574.552	0.0164299
574.630	0.0164787
574.708	0.0164603
574.786	0.0164689
574.864	0.0164862
574.942	0.0164249
575.021	0.0165520
575.099	0.0164278
575.177	0.0165637
575.255	0.0165043
575.333	0.0164212
575.411	0.0165981
575.489	0.0165047
575.567	0.0164499
575.646	0.0164688
575.724	0.0165659
575.802	0.0165343
575.880	0.0165611
575.958	0.0165651
576.036	0.0166150
576.114	0.0164362
576.192	0.0163355
576.271	0.0164709
576.349	0.0163942
576.427	0.0164594
576.505	0.0164080
576.583	0.0164984
576.661	0.0165302
576.739	0.0164386
576.817	0.0164731
576.896	0.0164201
576.974	0.0164178
577.052	0.0165629
577.130	0.0165110
577.208	0.0164878
577.286	0.0163412
577.364	0.0164437
577.442	0.0163573
577.521	0.0164628
577.599	0.0164584
577.677	0.0164527
577.755	0.0163795
577.833	0.0164297
577.911	0.0164616
577.989	0.0164894
578.067	0.0163828
578.146	0.0164788
578.224	0.0163087
578.302	0.0164809
578.380	0.0164648
578.458	0.0164633
578.536	0.0165298
578.614	0.0165778
578.692	0.0164095
578.771	0.0165530
578.849	0.0163995
578.927	0.0163802
579.005	0.0164303
579.083	0.0164696
579.161	0.0164401
579.239	0.0164906
579.317	0.0165040
579.396	0.0164553
579.474	0.0164465
579.552	0.0164982
579.630	0.0163548
579.708	0.0165964
579.786	0.0164767
579.864	0.0164836
579.942	0.0164400
580.021	0.0165073
580.099	0.0164928
580.177	0.0165125
580.255	0.0164925
580.333	0.0164626
580.411	0.0163906
580.489	0.0164159
580.567	0.0164745
580.646	0.0164318
580.724	0.0164545
580.802	0.0166418
580.880	0.0164618
580.958	0.0164035
581.036	0.0164776
581.114	0.0165030
581.192	0.0164508
581.271	0.0164050
581.349	0.0164626
581.427	0.0165083
581.505	0.0164518
581.583	0.0164838
581.661	0.0164468
581.739	0.0163688
581.817	0.0164554
581.896	0.0164611
581.974	0.0163409
582.052	0.0163558
582.130	0.0164457
582.208	0.0163186
582.286	0.0164669
582.364	0.0165044
582.442	0.0164771
582.521	0.0164633
582.599	0.0164803
582.677	0.0165051
582.755	0.0164165
582.833	0.0165126
582.911	0.0164223
582.989	0.0165141
583.067	0.0162674
583.146	0.0164139
583.224	0.0165090
583.302	0.0163548
583.380	0.0163921
583.458	0.0165348
583.536	0.0163937
583.614	0.0163363
583.692	0.0164416
583.771	0.0165101
583.849	0.0164864
583.927	0.0164483
584.005	0.0164425
584.083	0.0164313
584.161	0.0165321
584.239	0.0164568
584.317	0.0164352
584.396	0.0164418
584.474	0.0164227
584.552	0.0164426
584.630	0.0163184
584.708	0.0163686
584.786	0.0164341
584.864	0.0164993
584.942	0.0164137
585.021	0.0164278
585.099	0.0164754
585.177	0.0164732
585.255	0.0163982
585.333	0.0162491
585.411	0.0164114
585.489	0.0165953
585.567	0.0164732
585.646	0.0164597
585.724	0.0165001
585.802	0.0164108
585.880	0.0162914
585.958	0.0164954
586.036	0.0163517
586.114	0.0164258
586.192	0.0164369
586.271	0.0164524
586.349	0.0165009
586.427	0.0166389
586.505	0.0164999
586.583	0.0163654
586.661	0.0163310
586.739	0.0163826
586.817	0.0164159
586.896	0.0164476
586.974	0.0164883
587.052	0.0164414
587.130	0.0164508
587.208	0.0164250
587.286	0.0165929
587.364	0.0164710
587.442	0.0162180
587.521	0.0164687
587.599	0.0165779
587.677	0.0164956
587.755	0.0164436
587.833	0.0165166
587.911	0.0164459
587.989	0.0164236
588.067	0.0165197
588.146	0.0164947
588.224	0.0164507
588.302	0.0163753
588.380	0.0165116
588.458	0.0165049
588.536	0.0163754
588.614	0.0165889
588.692	0.0165413
588.771	0.0163606
588.849	0.0163921
588.927	0.0164698
589.005	0.0164327
589.083	0.0164132
589.161	0.0164783
589.239	0.0164045
589.317	0.0164736
589.396	0.0164445
589.474	0.0163409
589.552	0.0164012
589.630	0.0164824
589.708	0.0163109
589.786	0.0164857
589.864	0.0164856
589.942	0.0165024
590.021	0.0165472
590.099	0.0164677
590.177	0.0165826
590.255	0.0164857
590.333	0.0164618
590.411	0.0163821
590.489	0.0165772
590.567	0.0164108
590.646	0.0163886
590.724	0.0165176
590.802	0.0164426
590.880	0.0163615
590.958	0.0162791
591.036	0.0163699
591.114	0.0165399
591.192	0.0165591
591.271	0.0163919
591.349	0.0163853
591.427	0.0165435
591.505	0.0165616
591.583	0.0164079
591.661	0.0164598
591.739	0.0164987
591.817	0.0164722
591.896	0.0163379
591.974	0.0165125
592.052	0.0163490
592.130	0.0165350
592.208	0.0164957
592.286	0.0163634
592.364	0.0165562
592.442	0.0164095
592.521	0.0164259
592.599	0.0163979
592.677	0.0164630
592.755	0.0165179
592.833	0.0165436
592.911	0.0164375
592.989	0.0164896
593.067	0.0164791
593.146	0.0165125
593.224	0.0164930
593.302	0.0165686
593.380	0.0165820
593.458	0.0166038
593.536	0.0165221
593.614	0.0164946
593.692	0.0163900
593.771	0.0164010
593.849	0.0163093
593.927	0.0164383
594.005	0.0164197
594.083	0.0165990
594.161	0.0164373
594.239	0.0163792
594.317	0.0164677
594.396	0.0165553
594.474	0.0165447
594.552	0.0163976
594.630	0.0165075
594.708	0.0164558
594.786	0.0165218
594.864	0.0163879
594.942	0.0164056
595.021	0.0165680
595.099	0.0164542
595.177	0.0164404
595.255	0.0163460
595.333	0.0164863
595.411	0.0165990
595.489	0.0164697
595.567	0.0164967
595.646	0.0163798
595.724	0.0165060
595.802	0.0164518
595.880	0.0164368
595.958	0.0164442
596.036	0.0165289
596.114	0.0165052
596.192	0.0164250
596.271	0.0165574
596.349	0.0163983
596.427	0.0163195
596.505	0.0164133
596.583	0.0165385
596.661	0.0165353
596.739	0.0164486
596.817	0.0163824
596.896	0.0163710
596.974	0.0165958
597.052	0.0165202
597.130	0.0164467
597.208	0.0165212
597.286	0.0164658
597.364	0.0165899
597.442	0.0164302
597.521	0.0164175
597.599	0.0164552
597.677	0.0164442
597.755	0.0165274
597.833	0.0163882
597.911	0.0165173
597.989	0.0163707
598.067	0.0164606
598.146	0.0166111
598.224	0.0164656
598.302	0.0164973
598.380	0.0165092
598.458	0.0165279
598.536	0.0165436
598.614	0.0164217
598.692	0.0163692
598.771	0.0164452
598.849	0.0164718
598.927	0.0165280
599.005	0.0164442
599.083	0.0163509
599.161	0.0164057
599.239	0.0165510
599.317	0.0163248
599.396	0.0162871
599.474	0.0163387
599.552	0.0165019
599.630	0.0163802
599.708	0.0165310
599.786	0.0164693
599.864	0.0163881
599.942	0.0165049
600.021	0.0165215
600.099	0.0163692
600.177	0.0164320
600.255	0.0164182
600.333	0.0165573
600.411	0.0164338
600.489	0.0163656
600.567	0.0165446
600.646	0.0165202
600.724	0.0164109
600.802	0.0165004
600.880	0.0163501
600.958	0.0164462
601.036	0.0164276
601.114	0.0165196
601.192	0.0164639
601.271	0.0164307
601.349	0.0164684
601.427	0.0164349
601.505	0.0164825
601.583	0.0164284
601.661	0.0164298
601.739	0.0164709
601.817	0.0166541
601.896	0.0165157
601.974	0.0164503
602.052	0.0164861
602.130	0.0164566
602.208	0.0164207
602.286	0.0162949
602.364	0.0165794
602.442	0.0165280
602.521	0.0164537
602.599	0.0164617
602.677	0.0163341
602.755	0.0163331
602.833	0.0164538
602.911	0.0164223
602.989	0.0163761
603.067	0.0163097
603.146	0.0164533
603.224	0.0164520
603.302	0.0164450
603.380	0.0165248
603.458	0.0164864
603.536	0.0163374
603.614	0.0165392
603.692	0.0163576
603.771	0.0163898
603.849	0.0163877
603.927	0.0163895
604.005	0.0165479
604.083	0.0164108
604.161	0.0164056
604.239	0.0163375
604.317	0.0164696
604.396	0.0164873
604.474	0.0165083
604.552	0.0164896
604.630	0.0163313
604.708	0.0164976
604.786	0.0165209
604.864	0.0163910
604.942	0.0164001
605.021	0.0163757
605.099	0.0164738
605.177	0.0163593
605.255	0.0162812
605.333	0.0164646
605.411	0.0164075
605.489	0.0165070
605.567	0.0163558
605.646	0.0165376
605.724	0.0165833
605.802	0.0164240
605.880	0.0165051
605.958	0.0164695
606.036	0.0163373
606.114	0.0163811
606.192	0.0164472
606.271	0.0164270
606.349	0.0164565
606.427	0.0164207
606.505	0.0164801
606.583	0.0165179
606.661	0.0163892
606.739	0.0165604
606.817	0.0164648
606.896	0.0164224
606.974	0.0163189
607.052	0.0164068
607.130	0.0164438
607.208	0.0165240
607.286	0.0163970
607.364	0.0162701
607.442	0.0162960
607.521	0.0164363
607.599	0.0164672
607.677	0.0164432
607.755	0.0165268
607.833	0.0165072
607.911	0.0164323
607.989	0.0164384
608.067	0.0164468
608.146	0.0163095
608.224	0.0164755
608.302	0.0165524
608.380	0.0163238
608.458	0.0163384
608.536	0.0164704
608.614	0.0164935
608.692	0.0163081
608.771	0.0164828
608.849	0.0164988
608.927	0.0164266
609.005	0.0164257
609.083	0.0164991
609.161	0.0165778
609.239	0.0165257
609.317	0.0165236
609.396	0.0164480
609.474	0.0165370
609.552	0.0165050
609.630	0.0163986
609.708	0.0163305
609.786	0.0164224
609.864	0.0164557
609.942	0.0165033
610.021	0.0165076
610.099	0.0164253
610.177	0.0164331
610.255	0.0164983
610.333	0.0165706
610.411	0.0163969
610.489	0.0165063
610.567	0.0165256
610.646	0.0164078
610.724	0.0164041
610.802	0.0164089
610.880	0.0165189
610.958	0.0164750
611.036	0.0163892
611.114	0.0164188
611.192	0.0163519
611.271	0.0164474
611.349	0.0164851
611.427	0.0165496
611.505	0.0164966
611.583	0.0163260
611.661	0.0164206
611.739	0.0165356
611.817	0.0165402
611.896	0.0165176
611.974	0.0163465
612.052	0.0164999
612.130	0.0163097
612.208	0.0164751
612.286	0.0163571
612.364	0.0164887
612.442	0.0164765
612.521	0.0163955
612.599	0.0163861
612.677	0.0164099
612.755	0.0163603
612.833	0.0164796
612.911	0.0163979
612.989	0.0164413
613.067	0.0163207
613.146	0.0163424
613.224	0.0163765
613.302	0.0164619
613.380	0.0164655
613.458	0.0164897
613.536	0.0163129
613.614	0.0162891
613.692	0.0164266
613.771	0.0164384
613.849	0.0165131
613.927	0.0166644
614.005	0.0164576
614.083	0.0163802
614.161	0.0165745
614.239	0.0163876
614.317	0.0166336
614.396	0.0165327
614.474	0.0164674
614.552	0.0163654
614.630	0.0163947
614.708	0.0164823
614.786	0.0165191
614.864	0.0164095
614.942	0.0164601
615.021	0.0163604
615.099	0.0164861
615.177	0.0165421
615.255	0.0164783
615.333	0.0163973
615.411	0.0164257
615.489	0.0164297
615.567	0.0163879
615.646	0.0165026
615.724	0.0162786
615.802	0.0162193
615.880	0.0163286
615.958	0.0165066
616.036	0.0163837
616.114	0.0165347
616.192	0.0166343
616.271	0.0164285
616.349	0.0164276
616.427	0.0164645
616.505	0.0163745
616.583	0.0164519
616.661	0.0165600
616.739	0.0164714
616.817	0.0163832
616.896	0.0163902
616.974	0.0164477
617.052	0.0164201
617.130	0.0164766
617.208	0.0164564
617.286	0.0163124
617.364	0.0165086
617.442	0.0164654
617.521	0.0165133
617.599	0.0164542
617.677	0.0164580
617.755	0.0164874
617.833	0.0163899
617.911	0.0164777
617.989	0.0164233
618.067	0.0164899
618.146	0.0165445
618.224	0.0165519
618.302	0.0163750
618.380	0.0165116
618.458	0.0165595
618.536	0.0164616
618.614	0.0164147
618.692	0.0163431
618.771	0.0165792
618.849	0.0164379
618.927	0.0163574
619.005	0.0165392
619.083	0.0164039
619.161	0.0165470
619.239	0.0164291
619.317	0.0164557
619.396	0.0164444
619.474	0.0164872
619.552	0.0164883
619.630	0.0164068
619.708	0.0162848
619.786	0.0165843
619.864	0.0163094
619.942	0.0162865
620.021	0.0165188
620.099	0.0165197
620.177	0.0164151
620.255	0.0162941
620.333	0.0164133
620.411	0.0162620
620.489	0.0163447
620.567	0.0164886
620.646	0.0163779
620.724	0.0163760
620.802	0.0162695
620.880	0.0164026
620.958	0.0164059
621.036	0.0164438
621.114	0.0163542
621.192	0.0163034
621.271	0.0164251
621.349	0.0164413
621.427	0.0165121
621.505	0.0164136
621.583	0.0163509
621.661	0.0163747
621.739	0.0164166
621.817	0.0162959
621.896	0.0163766
621.974	0.0164511
622.052	0.0164699
622.130	0.0165176
622.208	0.0164556
622.286	0.0163810
622.364	0.0163403
622.442	0.0165057
622.521	0.0165304
622.599	0.0164432
622.677	0.0164518
622.755	0.0164458
622.833	0.0164796
622.911	0.0164726
622.989	0.0163560
623.067	0.0164504
623.146	0.0165208
623.224	0.0164638
623.302	0.0164331
623.380	0.0164257
623.458	0.0163243
623.536	0.0164790
623.614	0.0164358
623.692	0.0163007
623.771	0.0164125
623.849	0.0164056
623.927	0.0164593
624.005	0.0163946
624.083	0.0164573
624.161	0.0165399
624.239	0.0163434
624.317	0.0165207
624.396	0.0165198
624.474	0.0163204
624.552	0.0166300
624.630	0.0166072
624.708	0.0164579
624.786	0.0163831
624.864	0.0163708
624.942	0.0163764
625.021	0.0164293
625.099	0.0163979
625.177	0.0164787
625.255	0.0165823
625.333	0.0165253
625.411	0.0164149
625.489	0.0165214
625.567	0.0164473
625.646	0.0165441
625.724	0.0165334
625.802	0.0163931
625.880	0.0164303
625.958	0.0165533
626.036	0.0164484
626.114	0.0163560
626.192	0.0164210
626.271	0.0164910
626.349	0.0163838
626.427	0.0163628
626.505	0.0162856
626.583	0.0166061
626.661	0.0163025
626.739	0.0164386
626.817	0.0163666
626.896	0.0164030
626.974	0.0164909
627.052	0.0163735
627.130	0.0164400
627.208	0.0163206
627.286	0.0162421
627.364	0.0163350
627.442	0.0163623
627.521	0.0163010
627.599	0.0163889
627.677	0.0164504
627.755	0.0163450
627.833	0.0163651
627.911	0.0163968
627.989	0.0164501
628.067	0.0163200
628.146	0.0165108
628.224	0.0165706
628.302	0.0163208
628.380	0.0164671
628.458	0.0163987
628.536	0.0164563
628.614	0.0165243
628.692	0.0164140
628.771	0.0163864
628.849	0.0164217
628.927	0.0162604
629.005	0.0163220
629.083	0.0164241
629.161	0.0164296
629.239	0.0164020
629.317	0.0163594
629.396	0.0163374
629.474	0.0164905
629.552	0.0164418
629.630	0.0164198
629.708	0.0163426
629.786	0.0165060
629.864	0.0165372
629.942	0.0163885
630.021	0.0164518
630.099	0.0165598
630.177	0.0164262
630.255	0.0163941
630.333	0.0165404
630.411	0.0164162
630.489	0.0164801
630.567	0.0165615
630.646	0.0164462
630.724	0.0165909
630.802	0.0164675
630.880	0.0164224
630.958	0.0165463
631.036	0.0164460
631.114	0.0165459
631.192	0.0165572
631.271	0.0164433
631.349	0.0163587
631.427	0.0164057
631.505	0.0165321
631.583	0.0164968
631.661	0.0166106
631.739	0.0163831
631.817	0.0165168
631.896	0.0164906
631.974	0.0165221
632.052	0.0164722
632.130	0.0165083
632.208	0.0162749
632.286	0.0164398
632.364	0.0164980
632.442	0.0165096
632.521	0.0165761
632.599	0.0165245
632.677	0.0164677
632.755	0.0164850
632.833	0.0164536
632.911	0.0163933
632.989	0.0163519
633.067	0.0164697
633.146	0.0165854
633.224	0.0164385
633.302	0.0162900
633.380	0.0163089
633.458	0.0164619
633.536	0.0163540
633.614	0.0163638
633.692	0.0163457
633.771	0.0164474
633.849	0.0164679
633.927	0.0163851
634.005	0.0163554
634.083	0.0164782
634.161	0.0163718
634.239	0.0163396
634.317	0.0164902
634.396	0.0164879
634.474	0.0163962
634.552	0.0165451
634.630	0.0166732
634.708	0.0165289
634.786	0.0163600
634.864	0.0164733
634.942	0.0165736
635.021	0.0165179
635.099	0.0164222
635.177	0.0165395
635.255	0.0165933
635.333	0.0165232
635.411	0.0164835
635.489	0.0165158
635.567	0.0163820
635.646	0.0165083
635.724	0.0164495
635.802	0.0165051
635.880	0.0166353
635.958	0.0164783
636.036	0.0163819
636.114	0.0164042
636.192	0.0164524
636.271	0.0164500
636.349	0.0164619
636.427	0.0165064
636.505	0.0162949
636.583	0.0165571
636.661	0.0163689
636.739	0.0164732
636.817	0.0164647
636.896	0.0164793
636.974	0.0164535
637.052	0.0165202
637.130	0.0164662
637.208	0.0164898
637.286	0.0164838
637.364	0.0164540
637.442	0.0164237
637.521	0.0163853
637.599	0.0165714
637.677	0.0164036
637.755	0.0163979
637.833	0.0162771
637.911	0.0164463
637.989	0.0164126
638.067	0.0164266
638.146	0.0164586
638.224	0.0164714
638.302	0.0164198
638.380	0.0163976
638.458	0.0164404
638.536	0.0165058
638.614	0.0164281
638.692	0.0165051
638.771	0.0164255
638.849	0.0164254
638.927	0.0164513
639.005	0.0164956
639.083	0.0165370
639.161	0.0167063
639.239	0.0165431
639.317	0.0164902
639.396	0.0166694
639.474	0.0165749
639.552	0.0166113
639.630	0.0164906
639.708	0.0165993
639.786	0.0165028
639.864	0.0163810
639.942	0.0164635
640.021	0.0166230
640.099	0.0165385
640.177	0.0163873
640.255	0.0164549
640.333	0.0164328
640.411	0.0165563
640.489	0.0166685
640.567	0.0165537
640.646	0.0165598
640.724	0.0165976
640.802	0.0165055
640.880	0.0164872
640.958	0.0165453
641.036	0.0164924
641.114	0.0165885
641.192	0.0163882
641.271	0.0164407
641.349	0.0164256
641.427	0.0164234
641.505	0.0165611
641.583	0.0164517
641.661	0.0164036
641.739	0.0165160
641.817	0.0165140
641.896	0.0165121
641.974	0.0162835
642.052	0.0164195
642.130	0.0164291
642.208	0.0164624
642.286	0.0163966
642.364	0.0163762
642.442	0.0164195
642.521	0.0164397
642.599	0.0164155
642.677	0.0164735
642.755	0.0164389
642.833	0.0165364
642.911	0.0164196
642.989	0.0163921
643.067	0.0166317
643.146	0.0164906
643.224	0.0163850
643.302	0.0164979
643.380	0.0165198
643.458	0.0165276
643.536	0.0165604
643.614	0.0165009
643.692	0.0164955
643.771	0.0164147
643.849	0.0165434
643.927	0.0165004
644.005	0.0165362
644.083	0.0164433
644.161	0.0165391
644.239	0.0164129
644.317	0.0164002
644.396	0.0164655
644.474	0.0164262
644.552	0.0165234
644.630	0.0165505
644.708	0.0164259
644.786	0.0165646
644.864	0.0165272
644.942	0.0162226
645.021	0.0164386
645.099	0.0165603
645.177	0.0164214
645.255	0.0165231
645.333	0.0165023
645.411	0.0164887
645.489	0.0164143
645.567	0.0164191
645.646	0.0165329
645.724	0.0163834
645.802	0.0164262
645.880	0.0165089
645.958	0.0163754
646.036	0.0162801
646.114	0.0163866
646.192	0.0163654
646.271	0.0164902
646.349	0.0164694
646.427	0.0162894
646.505	0.0163496
646.583	0.0164580
646.661	0.0164303
646.739	0.0163269
646.817	0.0164877
646.896	0.0164678
646.974	0.0165927
647.052	0.0164000
647.130	0.0162753
647.208	0.0163905
647.286	0.0164272
647.364	0.0164581
647.442	0.0164227
647.521	0.0163808
647.599	0.0164824
647.677	0.0163993
647.755	0.0164308
647.833	0.0164627
647.911	0.0163956
647.989	0.0163774
648.067	0.0165188
648.146	0.0164044
648.224	0.0163613
648.302	0.0165200
648.380	0.0164847
648.458	0.0164229
648.536	0.0164091
648.614	0.0164111
648.692	0.0165604
648.771	0.0165017
648.849	0.0164673
648.927	0.0165408
649.005	0.0164152
649.083	0.0165309
649.161	0.0164128
649.239	0.0164279
649.317	0.0165015
649.396	0.0164763
649.474	0.0164066
649.552	0.0164870
649.630	0.0164029
649.708	0.0165218
649.786	0.0164677
649.864	0.0164674
649.942	0.0164835
650.021	0.0163335
650.099	0.0164852
650.177	0.0164445
650.255	0.0163154
650.333	0.0164813
650.411	0.0164459
650.489	0.0164828
650.567	0.0164176
650.646	0.0163425
650.724	0.0164569
650.802	0.0164664
650.880	0.0166455
650.958	0.0164582
651.036	0.0163477
651.114	0.0164593
651.192	0.0163435
651.271	0.0163604
651.349	0.0164781
651.427	0.0164113
651.505	0.0163062
651.583	0.0163790
651.661	0.0162798
651.739	0.0164600
651.817	0.0163663
651.896	0.0165433
651.974	0.0164410
652.052	0.0164260
652.130	0.0164741
652.208	0.0163383
652.286	0.0163529
652.364	0.0164034
652.442	0.0163815
652.521	0.0164754
652.599	0.0164326
652.677	0.0163902
652.755	0.0163201
652.833	0.0164639
652.911	0.0163599
652.989	0.0165270
653.067	0.0163245
653.146	0.0164491
653.224	0.0164445
653.302	0.0164237
653.380	0.0164269
653.458	0.0164494
653.536	0.0163574
653.614	0.0163154
653.692	0.0163920
653.771	0.0164135
653.849	0.0163380
653.927	0.0164467
654.005	0.0164726
654.083	0.0162824
654.161	0.0165708
654.239	0.0165331
654.317	0.0164694
654.396	0.0162850
654.474	0.0163081
654.552	0.0164090
654.630	0.0164172
654.708	0.0164202
654.786	0.0165340
654.864	0.0165035
654.942	0.0164749
655.021	0.0163936
655.099	0.0163534
655.177	0.0163239
655.255	0.0164552
655.333	0.0165660
655.411	0.0164677
655.489	0.0163821
655.567	0.0164905
655.646	0.0164715
655.724	0.0164454
655.802	0.0163539
655.880	0.0165207
655.958	0.0163732
656.036	0.0164433
656.114	0.0164790
656.192	0.0164833
656.271	0.0164350
656.349	0.0163083
656.427	0.0163750
656.505	0.0165499
656.583	0.0163770
656.661	0.0165443
656.739	0.0163091
656.817	0.0163971
656.896	0.0164909
656.974	0.0164610
657.052	0.0164420
657.130	0.0164903
657.208	0.0165655
657.286	0.0165286
657.364	0.0164868
657.442	0.0164273
657.521	0.0163967
657.599	0.0166125
657.677	0.0164934
657.755	0.0164134
657.833	0.0164583
657.911	0.0164229
657.989	0.0162983
658.067	0.0163369
658.146	0.0163551
658.224	0.0164011
658.302	0.0165005
658.380	0.0165213
658.458	0.0164668
658.536	0.0165356
658.614	0.0165415
658.692	0.0163897
658.771	0.0164061
658.849	0.0162946
658.927	0.0164671
659.005	0.0163966
659.083	0.0163986
659.161	0.0165104
659.239	0.0164664
659.317	0.0165564
659.396	0.0163679
659.474	0.0164816
659.552	0.0164616
659.630	0.0163909
659.708	0.0164474
659.786	0.0166617
659.864	0.0164445
659.942	0.0165311
660.021	0.0163991
660.099	0.0164133
660.177	0.0165921
660.255	0.0164124
660.333	0.0163897
660.411	0.0164169
660.489	0.0165468
660.567	0.0163891
660.646	0.0164108
660.724	0.0164203
660.802	0.0162885
660.880	0.0163934
660.958	0.0164917
661.036	0.0164592
661.114	0.0164115
661.192	0.0165092
661.271	0.0163693
661.349	0.0164545
661.427	0.0164884
661.505	0.0164297
661.583	0.0164650
661.661	0.0163675
661.739	0.0163450
661.817	0.0165690
661.896	0.0164517
661.974	0.0164485
662.052	0.0163876
662.130	0.0165559
662.208	0.0164814
662.286	0.0165219
662.364	0.0164878
662.442	0.0164884
662.521	0.0164172
662.599	0.0163928
662.677	0.0164084
662.755	0.0165455
662.833	0.0164211
662.911	0.0163770
662.989	0.0164622
663.067	0.0165244
663.146	0.0164732
663.224	0.0164733
663.302	0.0163148
663.380	0.0165275
663.458	0.0163897
663.536	0.0164146
663.614	0.0164367
663.692	0.0162838
663.771	0.0164164
663.849	0.0165081
663.927	0.0165424
664.005	0.0164729
664.083	0.0163657
664.161	0.0164653
664.239	0.0164098
664.317	0.0163609
664.396	0.0162686
664.474	0.0165993
664.552	0.0164336
664.630	0.0165408
664.708	0.0163918
664.786	0.0163472
664.864	0.0163651
664.942	0.0164189
665.021	0.0163609
665.099	0.0164960
665.177	0.0163926
665.255	0.0164542
665.333	0.0163953
665.411	0.0164143
665.489	0.0163909
665.567	0.0165761
665.646	0.0164031
665.724	0.0164238
665.802	0.0163103
665.880	0.0163635
665.958	0.0165551
666.036	0.0163764
666.114	0.0163724
666.192	0.0164228
666.271	0.0163036
666.349	0.0164261
666.427	0.0162292
666.505	0.0164986
666.583	0.0164814
666.661	0.0164635
666.739	0.0164013
666.817	0.0164748
666.896	0.0163419
666.974	0.0165569
667.052	0.0164376
667.130	0.0163140
667.208	0.0164484
667.286	0.0164291
667.364	0.0165082
667.442	0.0163907
667.521	0.0164036
667.599	0.0163456
667.677	0.0163599
667.755	0.0162090
667.833	0.0163534
667.911	0.0165154
667.989	0.0164025
668.067	0.0163548
668.146	0.0163224
668.224	0.0164806
668.302	0.0165151
668.380	0.0163665
668.458	0.0164984
668.536	0.0164568
668.614	0.0162834
668.692	0.0163937
668.771	0.0166106
668.849	0.0163611
668.927	0.0163772
669.005	0.0165121
669.083	0.0164755
669.161	0.0164000
669.239	0.0165632
669.317	0.0163747
669.396	0.0162653
669.474	0.0164665
669.552	0.0164048
669.630	0.0164503
669.708	0.0164754
669.786	0.0165108
669.864	0.0162667
669.942	0.0162415
670.021	0.0164478
670.099	0.0164948
670.177	0.0165295
670.255	0.0164051
670.333	0.0164127
670.411	0.0165546
670.489	0.0165659
670.567	0.0164480
670.646	0.0163457
670.724	0.0162450
670.802	0.0163924
670.880	0.0164134
670.958	0.0165333
671.036	0.0164999
671.114	0.0164863
671.192	0.0164298
671.271	0.0163826
671.349	0.0164762
671.427	0.0165231
671.505	0.0164311
671.583	0.0164381
671.661	0.0164548
671.739	0.0165728
671.817	0.0165721
671.896	0.0164734
671.974	0.0164146
672.052	0.0165780
672.130	0.0166089
672.208	0.0164898
672.286	0.0164814
672.364	0.0165895
672.442	0.0164179
672.521	0.0163928
672.599	0.0164636
672.677	0.0164457
672.755	0.0164514
672.833	0.0163893
672.911	0.0165073
672.989	0.0164304
673.067	0.0164175
673.146	0.0165086
673.224	0.0164395
673.302	0.0163339
673.380	0.0164730
673.458	0.0164620
673.536	0.0163730
673.614	0.0163579
673.692	0.0164712
673.771	0.0164605
673.849	0.0165480
673.927	0.0164627
674.005	0.0163435
674.083	0.0165025
674.161	0.0164875
674.239	0.0164959
674.317	0.0163595
674.396	0.0164749
674.474	0.0164683
674.552	0.0163653
674.630	0.0163527
674.708	0.0164053
674.786	0.0164881
674.864	0.0163260
674.942	0.0165395
675.021	0.0164854
675.099	0.0165424
675.177	0.0163104
675.255	0.0163582
675.333	0.0165037
675.411	0.0164326
675.489	0.0165285
675.567	0.0164041
675.646	0.0165416
675.724	0.0163698
675.802	0.0164960
675.880	0.0165630
675.958	0.0165118
676.036	0.0165915
676.114	0.0165764
676.192	0.0164360
676.271	0.0165082
676.349	0.0165387
676.427	0.0163525
676.505	0.0164471
676.583	0.0164833
676.661	0.0164730
676.739	0.0163905
676.817	0.0166270
676.896	0.0164935
676.974	0.0164764
677.052	0.0163760
677.130	0.0165148
677.208	0.0164026
677.286	0.0163757
677.364	0.0165755
677.442	0.0163935
677.521	0.0163812
677.599	0.0163821
677.677	0.0165839
677.755	0.0164390
677.833	0.0165073
677.911	0.0164320
677.989	0.0164553
678.067	0.0164876
678.146	0.0164078
678.224	0.0164429
678.302	0.0164301
678.380	0.0164468
678.458	0.0164286
678.536	0.0163808
678.614	0.0165466
678.692	0.0164188
678.771	0.0162453
678.849	0.0163304
678.927	0.0165039
679.005	0.0164822
679.083	0.0165328
679.161	0.0164238
679.239	0.0165325
679.317	0.0165581
679.396	0.0165642
679.474	0.0165596
679.552	0.0163432
679.630	0.0164495
679.708	0.0165260
679.786	0.0163727
679.864	0.0164182
679.942	0.0166244
680.021	0.0165314
680.099	0.0164152
680.177	0.0163659
680.255	0.0165005
680.333	0.0165035
680.411	0.0164180
680.489	0.0163916
680.567	0.0164522
680.646	0.0163338
680.724	0.0164370
680.802	0.0164633
680.880	0.0165959
680.958	0.0164016
681.036	0.0164075
681.114	0.0164943
681.192	0.0165472
681.271	0.0164715
681.349	0.0164434
681.427	0.0164105
681.505	0.0163591
681.583	0.0163509
681.661	0.0164720
681.739	0.0164753
681.817	0.0164688
681.896	0.0164282
681.974	0.0163367
682.052	0.0163068
682.130	0.0164616
682.208	0.0165300
682.286	0.0163686
682.364	0.0165432
682.442	0.0164841
682.521	0.0164713
682.599	0.0163940
682.677	0.0164053
682.755	0.0165572
682.833	0.0165221
682.911	0.0163960
682.989	0.0165037
683.067	0.0164816
683.146	0.0164516
683.224	0.0164199
683.302	0.0165602
683.380	0.0165427
683.458	0.0164037
683.536	0.0163744
683.614	0.0165079
683.692	0.0166612
683.771	0.0163989
683.849	0.0165131
683.927	0.0162707
684.005	0.0163303
684.083	0.0163428
684.161	0.0163346
684.239	0.0163216
684.317	0.0165010
684.396	0.0165480
684.474	0.0163887
684.552	0.0164466
684.630	0.0165431
684.708	0.0164101
684.786	0.0164381
684.864	0.0163371
684.942	0.0163979
685.021	0.0163716
685.099	0.0163907
685.177	0.0164747
685.255	0.0163608
685.333	0.0164874
685.411	0.0164007
685.489	0.0165394
685.567	0.0164648
685.646	0.0165368
685.724	0.0163901
685.802	0.0165041
685.880	0.0164304
685.958	0.0163400
686.036	0.0162311
686.114	0.0164704
686.192	0.0164864
686.271	0.0163739
686.349	0.0164848
686.427	0.0163610
686.505	0.0165350
686.583	0.0163796
686.661	0.0165881
686.739	0.0164709
686.817	0.0165103
686.896	0.0165051
686.974	0.0164705
687.052	0.0165957
687.130	0.0165304
687.208	0.0165386
687.286	0.0165231
687.364	0.0162307
687.442	0.0162982
687.521	0.0162383
687.599	0.0162967
687.677	0.0162085
687.755	0.0163667
687.833	0.0163105
687.911	0.0164663
687.989	0.0164599
688.067	0.0166113
688.146	0.0166332
688.224	0.0168008
688.302	0.0167645
688.380	0.0167157
688.458	0.0167167
688.536	0.0166335
688.614	0.0164829
688.692	0.0163580
688.771	0.0163808
688.849	0.0161667
688.927	0.0160923
689.005	0.0158865
689.083	0.0158059
689.161	0.0159177
689.239	0.0159248
689.317	0.0161229
689.396	0.0162408
689.474	0.0164565
689.552	0.0166779
689.630	0.0170009
689.708	0.0170309
689.786	0.0171420
689.864	0.0173096
689.942	0.0173151
690.021	0.0171561
690.099	0.0168433
690.177	0.0164002
690.255	0.0161871
690.333	0.0159672
690.411	0.0157266
690.489	0.0154927
690.567	0.0154671
690.646	0.0154624
690.724	0.0155849
690.802	0.0157723
690.880	0.0161000
690.958	0.0164381
691.036	0.0166496
691.114	0.0168774
691.192	0.0172402
691.271	0.0173783
691.349	0.0173942
691.427	0.0173396
691.505	0.0171864
691.583	0.0169004
691.661	0.0167282
691.739	0.0163183
691.817	0.0158926
691.896	0.0156296
691.974	0.0153284
692.052	0.0152470
692.130	0.0154590
692.208	0.0155202
692.286	0.0158340
692.364	0.0161066
692.442	0.0160400
692.521	0.0165439
692.599	0.0168099
692.677	0.0168367
692.755	0.0170793
692.833	0.0171305
692.911	0.0172891
692.989	0.0172488
693.067	0.0171512
693.146	0.0169691
693.224	0.0167038
693.302	0.0166616
693.380	0.0163114
693.458	0.0160528
693.536	0.0158163
693.614	0.0157372
693.692	0.0157779
693.771	0.0157685
693.849	0.0158720
693.927	0.0159932
694.005	0.0161819
694.083	0.0165615
694.161	0.0166183
694.239	0.0168474
694.317	0.0170731
694.396	0.0173760
694.474	0.0173322
694.552	0.0172093
694.630	0.0171193
694.708	0.0169128
694.786	0.0166936
694.864	0.0164119
694.942	0.0163164
695.021	0.0160728
695.099	0.0161764
695.177	0.0159202
695.255	0.0158219
695.333	0.0158340
695.411	0.0160893
695.489	0.0162212
695.567	0.0164553
695.646	0.0163882
695.724	0.0164090
695.802	0.0164837
695.880	0.0164510
695.958	0.0164603
696.036	0.0162559
696.114	0.0163819
696.192	0.0166035
696.271	0.0164726
696.349	0.0163818
696.427	0.0165474
696.505	0.0165256
696.583	0.0166872
696.661	0.0166775
696.739	0.0167997
696.817	0.0168532
696.896	0.0167144
696.974	0.0168981
697.052	0.0167001
697.130	0.0165234
697.208	0.0167358
697.286	0.0165928
697.364	0.0165395
697.442	0.0164244
697.521	0.0163980
697.599	0.0164472
697.677	0.0165005
697.755	0.0165965
697.833	0.0166633
697.911	0.0167497
697.989	0.0167207
698.067	0.0166989
698.146	0.0166623
698.224	0.0167306
698.302	0.0165598
698.380	0.0163733
698.458	0.0163059
698.536	0.0161613
698.614	0.0158858
698.692	0.0157932
698.771	0.0156534
698.849	0.0156551
698.927	0.0154138
699.005	0.0155325
699.083	0.0157436
699.161	0.0156354
699.239	0.0158749
699.317	0.0161270
699.396	0.0163639
699.474	0.0165304
699.552	0.0167013
699.630	0.0167940
699.708	0.0166572
699.786	0.0169327
699.864	0.0169002
699.942	0.0167260
700.021	0.0165443
700.099	0.0164777
700.177	0.0166542
700.255	0.0163966
700.333	0.0163769
700.411	0.0164252
700.489	0.0164266
700.567	0.0163598
700.646	0.0167078
700.724	0.0167255
700.802	0.0167627
700.880	0.0168414
700.958	0.0168558
701.036	0.0169144
701.114	0.0167937
701.192	0.0167632
701.271	0.0168024
701.349	0.0167598
701.427	0.0167318
701.505	0.0167675
701.583	0.0167833
701.661	0.0167239
701.739	0.0169368
701.817	0.0168520
701.896	0.0171991
701.974	0.0172309
702.052	0.0174557
702.130	0.0176099
702.208	0.0177486
702.286	0.0179718
702.364	0.0177155
702.442	0.0174205
702.521	0.0172063
702.599	0.0168765
702.677	0.0165044
702.755	0.0159574
702.833	0.0155733
702.911	0.0151801
702.989	0.0148105
703.067	0.0143489
703.146	0.0141257
703.224	0.0139915
703.302	0.0136680
703.380	0.0135137
703.458	0.0136920
703.536	0.0140180
703.614	0.0141471
703.692	0.0143051
703.771	0.0143967
703.849	0.0146729
703.927	0.0149764
704.005	0.0152774
704.083	0.0156955
704.161	0.0159045
704.239	0.0163428
704.317	0.0168012
704.396	0.0172247
704.474	0.0174940
704.552	0.0180810
704.630	0.0184399
704.708	0.0188236
704.786	0.0191083
704.864	0.0192477
704.942	0.0194621
705.021	0.0195875
705.099	0.0194866
705.177	0.0196463
705.255	0.0193848
705.333	0.0190720
705.411	0.0187634
705.489	0.0185233
705.567	0.0182977
705.646	0.0179209
705.724	0.0176276
705.802	0.0173490
705.880	0.0169572
705.958	0.0164303
706.036	0.0159909
706.114	0.0157043
706.192	0.0154841
706.271	0.0152259
706.349	0.0149361
706.427	0.0148670
706.505	0.0148180
706.583	0.0148435
706.661	0.0151003
706.739	0.0151449
706.817	0.0154349
706.896	0.0158221
706.974	0.0160571
707.052	0.0162531
707.130	0.0165194
707.208	0.0166700
707.286	0.0167688
707.364	0.0168736
707.442	0.0168614
707.521	0.0166582
707.599	0.0165169
707.677	0.0162405
707.755	0.0156167
707.833	0.0153429
707.911	0.0148937
707.989	0.0142982
708.067	0.0137791
708.146	0.0134892
708.224	0.0131023
708.302	0.0126035
708.380	0.0126516
708.458	0.0126157
708.536	0.0125854
708.614	0.0127955
708.692	0.0130775
708.771	0.0136015
708.849	0.0141546
708.927	0.0146405
709.005	0.0152263
709.083	0.0160191
709.161	0.0164521
709.239	0.0171957
709.317	0.0178463
709.396	0.0185570
709.474	0.0191346
709.552	0.0196851
709.630	0.0201829
709.708	0.0204216
709.786	0.0208337
709.864	0.0210329
709.942	0.0211346
710.021	0.0211382
710.099	0.0211497
710.177	0.0209763
710.255	0.0208379
710.333	0.0205984
710.411	0.0205514
710.489	0.0202338
710.567	0.0198803
710.646	0.0195227
710.724	0.0192441
710.802	0.0187563
710.880	0.0182678
710.958	0.0178275
711.036	0.0173872
711.114	0.0167518
711.192	0.0163065
711.271	0.0160316
711.349	0.0156697
711.427	0.0154734
711.505	0.0153062
711.583	0.0155365
711.661	0.0157945
711.739	0.0159126
711.817	0.0161877
711.896	0.0166009
711.974	0.0165185
712.052	0.0165849
712.130	0.0162428
712.208	0.0157106
712.286	0.0151796
712.364	0.0142000
712.442	0.0129929
712.521	0.0119323
712.599	0.0104916
712.677	0.00925667
712.755	0.00798470
712.833	0.00677704
712.911	0.00593773
712.989	0.00531265
713.067	0.00482651
713.146	0.00477577
713.224	0.00500206
713.302	0.00564880
713.380	0.00669090
713.458	0.00800766
713.536	0.00944984
713.614	0.0114498
713.692	0.0135132
713.771	0.0157555
713.849	0.0177666
713.927	0.0198566
714.005	0.0219084
714.083	0.0236074
714.161	0.0253944
714.239	0.0268134
714.317	0.0279094
714.396	0.0287605
714.474	0.0294102
714.552	0.0296209
714.630	0.0297453
714.708	0.0292810
714.786	0.0288013
714.864	0.0279530
714.942	0.0272954
715.021	0.0263016
715.099	0.0252869
715.177	0.0241071
715.255	0.0228609
715.333	0.0218771
715.411	0.0210207
715.489	0.0199310
715.567	0.0189802
715.646	0.0185451
715.724	0.0177809
715.802	0.0173726
715.880	0.0170148
715.958	0.0164404
716.036	0.0159392
716.114	0.0155643
716.192	0.0149917
716.271	0.0142007
716.349	0.0132751
716.427	0.0125883
716.505	0.0114650
716.583	0.0101961
716.661	0.00919540
716.739	0.00772034
716.817	0.00639885
716.896	0.00528358
716.974	0.00413322
717.052	0.00316666
717.130	0.00253609
717.208	0.00203560
717.286	0.00189331
717.364	0.00214226
717.442	0.00250389
717.521	0.00332886
717.599	0.00464294
717.677	0.00598694
717.755	0.00766838
717.833	0.00964256
717.911	0.0115598
717.989	0.0138822
718.067	0.0160813
718.146	0.0183517
718.224	0.0204698
718.302	0.0225095
718.380	0.0242736
718.458	0.0258167
718.536	0.0270838
718.614	0.0279931
718.692	0.0288889
718.771	0.0290874
718.849	0.0291865
718.927	0.0289436
719.005	0.0283908
719.083	0.0278713
719.161	0.0271309
719.239	0.0261999
719.317	0.0251282
719.396	0.0241326
719.474	0.0234045
719.552	0.0226348
719.630	0.0216412
719.708	0.0209875
719.786	0.0205621
719.864	0.0200082
719.942	0.0193455
720.021	0.0188577
720.099	0.0184953
720.177	0.0181439
720.255	0.0175047
720.333	0.0169749
720.411	0.0162809
720.489	0.0155125
720.567	0.0146025
720.646	0.0137741
720.724	0.0126288
720.802	0.0117084
720.880	0.0106297
720.958	0.00944443
721.036	0.00855965
721.114	0.00768860
721.192	0.00691711
721.271	0.00612617
721.349	0.00577354
721.427	0.00557243
721.505	0.00566521
721.583	0.00596802
721.661	0.00659958
721.739	0.00748497
721.817	0.00851929
721.896	0.00956467
721.974	0.0108374
722.052	0.0122917
722.130	0.0136219
722.208	0.0152639
722.286	0.0167197
722.364	0.0181534
722.442	0.0195692
722.521	0.0208347
722.599	0.0218728
722.677	0.0228796
722.755	0.0234840
722.833	0.0239209
722.911	0.0240794
722.989	0.0239241
723.067	0.0236981
723.146	0.0233587
723.224	0.0226212
723.302	0.0218609
723.380	0.0211830
723.458	0.0203182
723.536	0.0196657
723.614	0.0190978
723.692	0.0183831
723.771	0.0177679
723.849	0.0173764
723.927	0.0172650
724.005	0.0172433
724.083	0.0170254
724.161	0.0171052
724.239	0.0169231
724.317	0.0169904
724.396	0.0170363
724.474	0.0171207
724.552	0.0169245
724.630	0.0169119
724.708	0.0169193
724.786	0.0167160
724.864	0.0164396
724.942	0.0161079
725.021	0.0158005
725.099	0.0153364
725.177	0.0147826
725.255	0.0144107
725.333	0.0137956
725.411	0.0133319
725.489	0.0130060
725.567	0.0126776
725.646	0.0122672
725.724	0.0119075
725.802	0.0118304
725.880	0.0119478
725.958	0.0121252
726.036	0.0121936
726.114	0.0124798
726.192	0.0130560
726.271	0.0133610
726.349	0.0138078
726.427	0.0144610
726.505	0.0150980
726.583	0.0157960
726.661	0.0162910
726.739	0.0170653
726.817	0.0177813
726.896	0.0182813
726.974	0.0187614
727.052	0.0191349
727.130	0.0194289
727.208	0.0197578
727.286	0.0198437
727.364	0.0198153
727.442	0.0196712
727.521	0.0195780
727.599	0.0194019
727.677	0.0191769
727.755	0.0190662
727.833	0.0187194
727.911	0.0184550
727.989	0.0184519
728.067	0.0183936
728.146	0.0183004
728.224	0.0182719
728.302	0.0182437
728.380	0.0184388
728.458	0.0182779
728.536	0.0182360
728.614	0.0182787
728.692	0.0180447
728.771	0.0178271
728.849	0.0177193
728.927	0.0175593
729.005	0.0173171
729.083	0.0169110
729.161	0.0168449
729.239	0.0164863
729.317	0.0160550
729.396	0.0157727
729.474	0.0152743
729.552	0.0148675
729.630	0.0144693
729.708	0.0139790
729.786	0.0136495
729.864	0.0132848
729.942	0.0131119
730.021	0.0129927
730.099	0.0128577
730.177	0.0127797
730.255	0.0129694
730.333	0.0129829
730.411	0.0132114
730.489	0.0137227
730.567	0.0142057
730.646	0.0146210
730.724	0.0148315
730.802	0.0153146
730.880	0.0157922
730.958	0.0160904
731.036	0.0163451
731.114	0.0166381
731.192	0.0169195
731.271	0.0168970
731.349	0.0169331
731.427	0.0168328
731.505	0.0168462
731.583	0.0167325
731.661	0.0167832
731.739	0.0167826
731.817	0.0165076
731.896	0.0165327
731.974	0.0165347
732.052	0.0164469
732.130	0.0166788
732.208	0.0170264
732.286	0.0172906
732.364	0.0173963
732.442	0.0175848
732.521	0.0178389
732.599	0.0179231
732.677	0.0181270
732.755	0.0183085
732.833	0.0182695
732.911	0.0183084
732.989	0.0182162
733.067	0.0182513
733.146	0.0181901
733.224	0.0182059
733.302	0.0180328
733.380	0.0180711
733.458	0.0179713
733.536	0.0177558
733.614	0.0176364
733.692	0.0176156
733.771	0.0174855
733.849	0.0173613
733.927	0.0172358
734.005	0.0170828
734.083	0.0167448
734.161	0.0165969
734.239	0.0164675
734.317	0.0161839
734.396	0.0163139
734.474	0.0160593
734.552	0.0159740
734.630	0.0159167
734.708	0.0157885
734.786	0.0158883
734.864	0.0158678
734.942	0.0158514
735.021	0.0158548
735.099	0.0157945
735.177	0.0157623
735.255	0.0156889
735.333	0.0155676
735.411	0.0154149
735.489	0.0152062
735.567	0.0149760
735.646	0.0147491
735.724	0.0144907
735.802	0.0143744
735.880	0.0142142
735.958	0.0141679
736.036	0.0139833
736.114	0.0140343
736.192	0.0141232
736.271	0.0142631
736.349	0.0145355
736.427	0.0148133
736.505	0.0153086
736.583	0.0155281
736.661	0.0159502
736.739	0.0163842
736.817	0.0166670
736.896	0.0168865
736.974	0.0170488
737.052	0.0174560
737.130	0.0175844
737.208	0.0176598
737.286	0.0177427
737.364	0.0178002
737.442	0.0177219
737.521	0.0177670
737.599	0.0176189
737.677	0.0175324
737.755	0.0173678
737.833	0.0172539
737.911	0.0171603
737.989	0.0170824
738.067	0.0169653
738.146	0.0170742
738.224	0.0171765
738.302	0.0173170
738.380	0.0173872
738.458	0.0174458
738.536	0.0175701
738.614	0.0177895
738.692	0.0177071
738.771	0.0178280
738.849	0.0178193
738.927	0.0179091
739.005	0.0178816
739.083	0.0177912
739.161	0.0176370
739.239	0.0175592
739.317	0.0173113
739.396	0.0171450
739.474	0.0170614
739.552	0.0170549
739.630	0.0168813
739.708	0.0166501
739.786	0.0162842
739.864	0.0160825
739.942	0.0157831
740.021	0.0154298
740.099	0.0152364
740.177	0.0148834
740.255	0.0146533
740.333	0.0143275
740.411	0.0140896
740.489	0.0139621
740.567	0.0139613
740.646	0.0138507
740.724	0.0140348
740.802	0.0140826
740.880	0.0142982
740.958	0.0147100
741.036	0.0149175
741.114	0.0152020
741.192	0.0156771
741.271	0.0159746
741.349	0.0163231
741.427	0.0166473
741.505	0.0170143
741.583	0.0173553
741.661	0.0174236
741.739	0.0176530
741.817	0.0178508
741.896	0.0177638
741.974	0.0179035
742.052	0.0177322
742.130	0.0179443
742.208	0.0177869
742.286	0.0176973
742.364	0.0176028
742.442	0.0176660
742.521	0.0175195
742.599	0.0174394
742.677	0.0173544
742.755	0.0174156
742.833	0.0174165
742.911	0.0173827
742.989	0.0173294
743.067	0.0172738
743.146	0.0174102
743.224	0.0174532
743.302	0.0172997
743.380	0.0172684
743.458	0.0171249
743.536	0.0171049
743.614	0.0169329
743.692	0.0166166
743.771	0.0163499
743.849	0.0161694
743.927	0.0161536
744.005	0.0158622
744.083	0.0156860
744.161	0.0155121
744.239	0.0154085
744.317	0.0153184
744.396	0.0152163
744.474	0.0150881
744.552	0.0149511
744.630	0.0149776
744.708	0.0148518
744.786	0.0148419
744.864	0.0147184
744.942	0.0147778
745.021	0.0146476
745.099	0.0149537
745.177	0.0149847
745.255	0.0150585
745.333	0.0152661
745.411	0.0152892
745.489	0.0156077
745.567	0.0156754
745.646	0.0160808
745.724	0.0165112
745.802	0.0167345
745.880	0.0169196
745.958	0.0171759
746.036	0.0174808
746.114	0.0177689
746.192	0.0178362
746.271	0.0178522
746.349	0.0180147
746.427	0.0180672
746.505	0.0180256
746.583	0.0180145
746.661	0.0180020
746.739	0.0180367
746.817	0.0181398
746.896	0.0181367
746.974	0.0179392
747.052	0.0179777
747.130	0.0177964
747.208	0.0177534
747.286	0.0176415
747.364	0.0175445
747.442	0.0171911
747.521	0.0170145
747.599	0.0170248
747.677	0.0168530
747.755	0.0166013
747.833	0.0161172
747.911	0.0159574
747.989	0.0157771
748.067	0.0153997
748.146	0.0153785
748.224	0.0150055
748.302	0.0147209
748.380	0.0145689
748.458	0.0145588
748.536	0.0144254
748.614	0.0143931
748.692	0.0143502
748.771	0.0144499
748.849	0.0144415
748.927	0.0147034
749.005	0.0149245
749.083	0.0151093
749.161	0.0153564
749.239	0.0154888
749.317	0.0156859
749.396	0.0162481
749.474	0.0163779
749.552	0.0166554
749.630	0.0168752
749.708	0.0169428
749.786	0.0172353
749.864	0.0174010
749.942	0.0174562
750.021	0.0176347
750.099	0.0178779
750.177	0.0179028
750.255	0.0180757
750.333	0.0181514
750.411	0.0181625
750.489	0.0181281
750.567	0.0179767
750.646	0.0181107
750.724	0.0181038
750.802	0.0180927
750.880	0.0180913
750.958	0.0180354
751.036	0.0179310
751.114	0.0179696
751.192	0.0180551
751.271	0.0179237
751.349	0.0177807
751.427	0.0175392
751.505	0.0173884
751.583	0.0171980
751.661	0.0169711
751.739	0.0167367
751.817	0.0163553
751.896	0.0158689
751.974	0.0153760
752.052	0.0151140
752.130	0.0147865
752.208	0.0143001
752.286	0.0140867
752.364	0.0138491
752.442	0.0137199
752.521	0.0136086
752.599	0.0135170
752.677	0.0135975
752.755	0.0137003
752.833	0.0139754
752.911	0.0141428
752.989	0.0142102
753.067	0.0146337
753.146	0.0147592
753.224	0.0150063
753.302	0.0150967
753.380	0.0153818
753.458	0.0156722
753.536	0.0158989
753.614	0.0161668
753.692	0.0163203
753.771	0.0165601
753.849	0.0168661
753.927	0.0170769
754.005	0.0173597
754.083	0.0172969
754.161	0.0174414
754.239	0.0177699
754.317	0.0178950
754.396	0.0180225
754.474	0.0181361
754.552	0.0182499
754.630	0.0184951
754.708	0.0183422
754.786	0.0183218
754.864	0.0182200
754.942	0.0183451
755.021	0.0184084
755.099	0.0181647
755.177	0.0182017
755.255	0.0181481
755.333	0.0178355
755.411	0.0178729
755.489	0.0179216
755.567	0.0177328
755.646	0.0175944
755.724	0.0174917
755.802	0.0172544
755.880	0.0170832
755.958	0.0167577
756.036	0.0164376
756.114	0.0163573
756.192	0.0160226
756.271	0.0158523
756.349	0.0155138
756.427	0.0153881
756.505	0.0151598
756.583	0.0148060
756.661	0.0148895
756.739	0.0147735
756.817	0.0148111
756.896	0.0148751
756.974	0.0146958
757.052	0.0148193
757.130	0.0150647
757.208	0.0150982
757.286	0.0149883
757.364	0.0153695
757.442	0.0152991
757.521	0.0156513
757.599	0.0156731
757.677	0.0157442
757.755	0.0159325
757.833	0.0160374
757.911	0.0162431
757.989	0.0163018
758.067	0.0164921
758.146	0.0165237
758.224	0.0163481
758.302	0.0164649
758.380	0.0164719
758.458	0.0164163
758.536	0.0165701
758.614	0.0166148
758.692	0.0167005
758.771	0.0166521
758.849	0.0166908
758.927	0.0167007
759.005	0.0166949
759.083	0.0168835
759.161	0.0170321
759.239	0.0169807
759.317	0.0170663
759.396	0.0174966
759.474	0.0175452
759.552	0.0175590
759.630	0.0176577
759.708	0.0175539
759.786	0.0176695
759.864	0.0176981
759.942	0.0176294
760.021	0.0175261
760.099	0.0173904
760.177	0.0171761
760.255	0.0171304
760.333	0.0168795
760.411	0.0166165
760.489	0.0161589
760.567	0.0160184
760.646	0.0158376
760.724	0.0157597
760.802	0.0154517
760.880	0.0154122
760.958	0.0153973
761.036	0.0153925
761.114	0.0151998
761.192	0.0151421
761.271	0.0150983
761.349	0.0151464
761.427	0.0154601
761.505	0.0154061
761.583	0.0154899
761.661	0.0157884
761.739	0.0158086
761.817	0.0160558
761.896	0.0160733
761.974	0.0161319
762.052	0.0164960
762.130	0.0165342
762.208	0.0165749
762.286	0.0166831
762.364	0.0167970
762.442	0.0168411
762.521	0.0168845
762.599	0.0170517
762.677	0.0171944
762.755	0.0169753
762.833	0.0170135
762.911	0.0170239
762.989	0.0171785
763.067	0.0172852
763.146	0.0173098
763.224	0.0172413
763.302	0.0172993
763.380	0.0175220
763.458	0.0177537
763.536	0.0175732
763.614	0.0176254
763.692	0.0176780
763.771	0.0176955
763.849	0.0174702
763.927	0.0173882
764.005	0.0172531
764.083	0.0171177
764.161	0.0170039
764.239	0.0166252
764.317	0.0164600
764.396	0.0164845
764.474	0.0163116
764.552	0.0159183
764.630	0.0157945
764.708	0.0156743
764.786	0.0154215
764.864	0.0153841
764.942	0.0152993
765.021	0.0152824
765.099	0.0153946
765.177	0.0153334
765.255	0.0153194
765.333	0.0153630
765.411	0.0153396
765.489	0.0157346
765.567	0.0156186
765.646	0.0158315
765.724	0.0159268
765.802	0.0159229
765.880	0.0162473
765.958	0.0161149
766.036	0.0162579
766.114	0.0162917
766.192	0.0163862
766.271	0.0164482
766.349	0.0165268
766.427	0.0166184
766.505	0.0165839
766.583	0.0166612
766.661	0.0166067
766.739	0.0165671
766.817	0.0167871
766.896	0.0169048
766.974	0.0168476
767.052	0.0169607
767.130	0.0167895
767.208	0.0170156
767.286	0.0170875
767.364	0.0169870
767.442	0.0170264
767.521	0.0170187
767.599	0.0170099
767.677	0.0171830
767.755	0.0171343
767.833	0.0171445
767.911	0.0170977
767.989	0.0169954
768.067	0.0169322
768.146	0.0170144
768.224	0.0169714
768.302	0.0170145
768.380	0.0169784
768.458	0.0169154
768.536	0.0167513
768.614	0.0165131
768.692	0.0168416
768.771	0.0167316
768.849	0.0165220
768.927	0.0165222
769.005	0.0164292
769.083	0.0164244
769.161	0.0164392
769.239	0.0163031
769.317	0.0162063
769.396	0.0161626
769.474	0.0160370
769.552	0.0160788
769.630	0.0159948
769.708	0.0159489
769.786	0.0160518
769.864	0.0159339
769.942	0.0160439
770.021	0.0159837
770.099	0.0158864
770.177	0.0160108
770.255	0.0160867
770.333	0.0161081
770.411	0.0160429
770.489	0.0161382
770.567	0.0161895
770.646	0.0161572
770.724	0.0162748
770.802	0.0163947
770.880	0.0164749
770.958	0.0163844
771.036	0.0165590
771.114	0.0164973
771.192	0.0165449
771.271	0.0167079
771.349	0.0166168
771.427	0.0166286
771.505	0.0165980
771.583	0.0166904
771.661	0.0168671
771.739	0.0166766
771.817	0.0165620
771.896	0.0167377
771.974	0.0166675
772.052	0.0166532
772.130	0.0167551
772.208	0.0165984
772.286	0.0166669
772.364	0.0167999
772.442	0.0166989
772.521	0.0168036
772.599	0.0167957
772.677	0.0167790
772.755	0.0167755
772.833	0.0166690
772.911	0.0167969
772.989	0.0168388
773.067	0.0167760
773.146	0.0167595
773.224	0.0165457
773.302	0.0164229
773.380	0.0165427
773.458	0.0163936
773.536	0.0163599
773.614	0.0162133
773.692	0.0162417
773.771	0.0161852
773.849	0.0160931
773.927	0.0160324
774.005	0.0159805
774.083	0.0159261
774.161	0.0158289
774.239	0.0160165
774.317	0.0159411
774.396	0.0158317
774.474	0.0160332
774.552	0.0159155
774.630	0.0159940
774.708	0.0160004
774.786	0.0160464
774.864	0.0160442
774.942	0.0162405
775.021	0.0164436
775.099	0.0163031
775.177	0.0164091
775.255	0.0164688
775.333	0.0164584
775.411	0.0165036
775.489	0.0165016
775.567	0.0164899
775.646	0.0164194
775.724	0.0164641
775.802	0.0165019
775.880	0.0164141
775.958	0.0164659
776.036	0.0165038
776.114	0.0163028
776.192	0.0163261
776.271	0.0165362
776.349	0.0165030
776.427	0.0165105
776.505	0.0166103
776.583	0.0165215
776.661	0.0166724
776.739	0.0166808
776.817	0.0165530
776.896	0.0166697
776.974	0.0167062
777.052	0.0167202
777.130	0.0166115
777.208	0.0165764
777.286	0.0165546
777.364	0.0165340
777.442	0.0165380
777.521	0.0163940
777.599	0.0163232
777.677	0.0164409
777.755	0.0162548
777.833	0.0163506
777.911	0.0162341
777.989	0.0161497
778.067	0.0162271
778.146	0.0159941
778.224	0.0161353
778.302	0.0160950
778.380	0.0162482
778.458	0.0161595
778.536	0.0161301
778.614	0.0161769
778.692	0.0162112
778.771	0.0163271
778.849	0.0163452
778.927	0.0164341
779.005	0.0165862
779.083	0.0165812
779.161	0.0167277
779.239	0.0168826
779.317	0.0168279
779.396	0.0169157
779.474	0.0168842
779.552	0.0167955
779.630	0.0168108
779.708	0.0167336
779.786	0.0166142
779.864	0.0166228
779.942	0.0166191
780.021	0.0165259
780.099	0.0164346
780.177	0.0165292
780.255	0.0163169
780.333	0.0163667
780.411	0.0161687
780.489	0.0161017
780.567	0.0161507
780.646	0.0160616
780.724	0.0160689
780.802	0.0161550
780.880	0.0161029
780.958	0.0162112
781.036	0.0162630
781.114	0.0162741
781.192	0.0163270
781.271	0.0162230
781.349	0.0163125
781.427	0.0161742
781.505	0.0161662
781.583	0.0163220
781.661	0.0162911
781.739	0.0162572
781.817	0.0162514
781.896	0.0162041
781.974	0.0162654
782.052	0.0162922
782.130	0.0164874
782.208	0.0163900
782.286	0.0163495
782.364	0.0164328
782.442	0.0163940
782.521	0.0164547
782.599	0.0163795
782.677	0.0166122
782.755	0.0165369
782.833	0.0164655
782.911	0.0164796
782.989	0.0165477
783.067	0.0164975
783.146	0.0165107
783.224	0.0166263
783.302	0.0166718
783.380	0.0166543
783.458	0.0164246
783.536	0.0166375
783.614	0.0164845
783.692	0.0165950
783.771	0.0164391
783.849	0.0162760
783.927	0.0162324
784.005	0.0161960
784.083	0.0161745
784.161	0.0160432
784.239	0.0160339
784.317	0.0159765
784.396	0.0159717
784.474	0.0158480
784.552	0.0158564
784.630	0.0157959
784.708	0.0159939
784.786	0.0159729
784.864	0.0159419
784.942	0.0160502
785.021	0.0162321
785.099	0.0164469
785.177	0.0164098
785.255	0.0165794
785.333	0.0167080
785.411	0.0166669
785.489	0.0166968
785.567	0.0167963
785.646	0.0168536
785.724	0.0167904
785.802	0.0167600
785.880	0.0166513
785.958	0.0167643
786.036	0.0166896
786.114	0.0165955
786.192	0.0166508
786.271	0.0166950
786.349	0.0166212
786.427	0.0165946
786.505	0.0166739
786.583	0.0168555
786.661	0.0167869
786.739	0.0167010
786.817	0.0168752
786.896	0.0168359
786.974	0.0169307
787.052	0.0168141
787.130	0.0168622
787.208	0.0167419
787.286	0.0167883
787.364	0.0165580
787.442	0.0166515
787.521	0.0165827
787.599	0.0163592
787.677	0.0164169
787.755	0.0162880
787.833	0.0163493
787.911	0.0162970
787.989	0.0162483
788.067	0.0161276
788.146	0.0161587
788.224	0.0161619
788.302	0.0160452
788.380	0.0160972
788.458	0.0162273
788.536	0.0160099
788.614	0.0161515
788.692	0.0160703
788.771	0.0160896
788.849	0.0159971
788.927	0.0161571
789.005	0.0160342
789.083	0.0161489
789.161	0.0159283
789.239	0.0161617
789.317	0.0161309
789.396	0.0160494
789.474	0.0161227
789.552	0.0162560
789.630	0.0160146
789.708	0.0161574
789.786	0.0162949
789.864	0.0163460
789.942	0.0163376
790.021	0.0163080
790.099	0.0164418
790.177	0.0166351
790.255	0.0166431
790.333	0.0165553
790.411	0.0166956
790.489	0.0167608
790.567	0.0169251
790.646	0.0170194
790.724	0.0170453
790.802	0.0170135
790.880	0.0170809
790.958	0.0171896
791.036	0.0172042
791.114	0.0172608
791.192	0.0172261
791.271	0.0172292
791.349	0.0171442
791.427	0.0171195
791.505	0.0170580
791.583	0.0168562
791.661	0.0167961
791.739	0.0167038
791.817	0.0165955
791.896	0.0165151
791.974	0.0163541
792.052	0.0163371
792.130	0.0160310
792.208	0.0160850
792.286	0.0159984
792.364	0.0158894
792.442	0.0159974
792.521	0.0159481
792.599	0.0158927
792.677	0.0158124
792.755	0.0158642
792.833	0.0159560
792.911	0.0160168
792.989	0.0160376
793.067	0.0161358
793.146	0.0160307
793.224	0.0161702
793.302	0.0161770
793.380	0.0162433
793.458	0.0162211
793.536	0.0164014
793.614	0.0164050
793.692	0.0164738
793.771	0.0165047
793.849	0.0165639
793.927	0.0165777
794.005	0.0167342
794.083	0.0166719
794.161	0.0167012
794.239	0.0167496
794.317	0.0168860
794.396	0.0168062
794.474	0.0167891
794.552	0.0169875
794.630	0.0169537
794.708	0.0169379
794.786	0.0169982
794.864	0.0168754
794.942	0.0168393
795.021	0.0169837
795.099	0.0169640
795.177	0.0168665
795.255	0.0169613
795.333	0.0170779
795.411	0.0168357
795.489	0.0167831
795.567	0.0168845
795.646	0.0166099
795.724	0.0165818
795.802	0.0166305
795.880	0.0164925
795.958	0.0164798
796.036	0.0163199
796.114	0.0162662
796.192	0.0161678
796.271	0.0163051
796.349	0.0160780
796.427	0.0160157
796.505	0.0160625
796.583	0.0160484
796.661	0.0159028
796.739	0.0159000
796.817	0.0158487
796.896	0.0157647
796.974	0.0158552
797.052	0.0157883
797.130	0.0156047
797.208	0.0156720
797.286	0.0156731
797.364	0.0158025
797.442	0.0157053
797.521	0.0157126
797.599	0.0157692
797.677	0.0158827
797.755	0.0157347
797.833	0.0159258
797.911	0.0160557
797.989	0.0161104
798.067	0.0160481
798.146	0.0164137
798.224	0.0165953
798.302	0.0165368
798.380	0.0166204
798.458	0.0167219
798.536	0.0166678
798.614	0.0167695
798.692	0.0169458
798.771	0.0170491
798.849	0.0169782
798.927	0.0170746
799.005	0.0172803
799.083	0.0171257
799.161	0.0172374
799.239	0.0172102
799.317	0.0171679
799.396	0.0172592
799.474	0.0172295
799.552	0.0173116
799.630	0.0172965
799.708	0.0172165
799.786	0.0171378
799.864	0.0170508
799.942	0.0169379
800.021	0.0168886
800.099	0.0167609
800.177	0.0165121
800.255	0.0164288
800.333	0.0164047
800.411	0.0160201
800.489	0.0159159
800.567	0.0158546
800.646	0.0156509
800.724	0.0156609
800.802	0.0156281
800.880	0.0153964
800.958	0.0153546
801.036	0.0154726
801.114	0.0155585
801.192	0.0153712
801.271	0.0154568
801.349	0.0156715
801.427	0.0156047
801.505	0.0156310
801.583	0.0156075
801.661	0.0156455
801.739	0.0159476
801.817	0.0158617
801.896	0.0159897
801.974	0.0160416
802.052	0.0161128
802.130	0.0161991
802.208	0.0163016
802.286	0.0163665
802.364	0.0163716
802.442	0.0164333
802.521	0.0165887
802.599	0.0166064
802.677	0.0165801
802.755	0.0167446
802.833	0.0168661
802.911	0.0169895
802.989	0.0171002
803.067	0.0171473
803.146	0.0171111
803.224	0.0173042
803.302	0.0173093
803.380	0.0173248
803.458	0.0174303
803.536	0.0174560
803.614	0.0173421
803.692	0.0174307
803.771	0.0173561
803.849	0.0173139
803.927	0.0171370
804.005	0.0170878
804.083	0.0169283
804.161	0.0167799
804.239	0.0166577
804.317	0.0165697
804.396	0.0164045
804.474	0.0163147
804.552	0.0161855
804.630	0.0161704
804.708	0.0160531
804.786	0.0158239
804.864	0.0156024
804.942	0.0155933
805.021	0.0155118
805.099	0.0154413
805.177	0.0153999
805.255	0.0154504
805.333	0.0152847
805.411	0.0154279
805.489	0.0153870
805.567	0.0154639
805.646	0.0154997
805.724	0.0155954
805.802	0.0156122
805.880	0.0158199
805.958	0.0160155
806.036	0.0159859
806.114	0.0159929
806.192	0.0161309
806.271	0.0162642
806.349	0.0165094
806.427	0.0164513
806.505	0.0165387
806.583	0.0166366
806.661	0.0167741
806.739	0.0168803
806.817	0.0169784
806.896	0.0169170
806.974	0.0170361
807.052	0.0171223
807.130	0.0172414
807.208	0.0171809
807.286	0.0172705
807.364	0.0173662
807.442	0.0171399
807.521	0.0172897
807.599	0.0173895
807.677	0.0175280
807.755	0.0174113
807.833	0.0174450
807.911	0.0173244
807.989	0.0173795
808.067	0.0174545
808.146	0.0174583
808.224	0.0172076
808.302	0.0171419
808.380	0.0171153
808.458	0.0171043
808.536	0.0167284
808.614	0.0166116
808.692	0.0164574
808.771	0.0162001
808.849	0.0160280
808.927	0.0158872
809.005	0.0156530
809.083	0.0155786
809.161	0.0152452
809.239	0.0150996
809.317	0.0149012
809.396	0.0149111
809.474	0.0148069
809.552	0.0147379
809.630	0.0147907
809.708	0.0146404
809.786	0.0147716
809.864	0.0148572
809.942	0.0149809
810.021	0.0149849
810.099	0.0151656
810.177	0.0154999
810.255	0.0156194
810.333	0.0158386
810.411	0.0160501
810.489	0.0163577
810.567	0.0164902
810.646	0.0166035
810.724	0.0168192
810.802	0.0169889
810.880	0.0172484
810.958	0.0173260
811.036	0.0175187
811.114	0.0175318
811.192	0.0176696
811.271	0.0178130
811.349	0.0178956
811.427	0.0179205
811.505	0.0180633
811.583	0.0181495
811.661	0.0181600
811.739	0.0181850
811.817	0.0181947
811.896	0.0181109
811.974	0.0184075
812.052	0.0183249
812.130	0.0181709
812.208	0.0181039
812.286	0.0181451
812.364	0.0179466
812.442	0.0177647
812.521	0.0175388
812.599	0.0174375
812.677	0.0172085
812.755	0.0169403
812.833	0.0166719
812.911	0.0163577
812.989	0.0162179
813.067	0.0160200
813.146	0.0156819
813.224	0.0153671
813.302	0.0149049
813.380	0.0148895
813.458	0.0146567
813.536	0.0143900
813.614	0.0142766
813.692	0.0142483
813.771	0.0139264
813.849	0.0141975
813.927	0.0141877
814.005	0.0140876
814.083	0.0142033
814.161	0.0145876
814.239	0.0147585
814.317	0.0147422
814.396	0.0149811
814.474	0.0152353
814.552	0.0154751
814.630	0.0156591
814.708	0.0158920
814.786	0.0159655
814.864	0.0164098
814.942	0.0164931
815.021	0.0166650
815.099	0.0168018
815.177	0.0170524
815.255	0.0172649
815.333	0.0174197
815.411	0.0175129
815.489	0.0177573
815.567	0.0176410
815.646	0.0177587
815.724	0.0180366
815.802	0.0181527
815.880	0.0182043
815.958	0.0183998
816.036	0.0182469
816.114	0.0182794
816.192	0.0182070
816.271	0.0182903
816.349	0.0183365
816.427	0.0181989
816.505	0.0181557
816.583	0.0179523
816.661	0.0179752
816.739	0.0176475
816.817	0.0175163
816.896	0.0175428
816.974	0.0172284
817.052	0.0171622
817.130	0.0168945
817.208	0.0164712
817.286	0.0163482
817.364	0.0160657
817.442	0.0159352
817.521	0.0155751
817.599	0.0155474
817.677	0.0152518
817.755	0.0151011
817.833	0.0150822
817.911	0.0148754
817.989	0.0147886
818.067	0.0147928
818.146	0.0145937
818.224	0.0147037
818.302	0.0148749
818.380	0.0148176
818.458	0.0149100
818.536	0.0150466
818.614	0.0152057
818.692	0.0153796
818.771	0.0154852
818.849	0.0156492
818.927	0.0158038
819.005	0.0159573
819.083	0.0161140
819.161	0.0163303
819.239	0.0163438
819.317	0.0163948
819.396	0.0164191
819.474	0.0166380
819.552	0.0167447
819.630	0.0168884
819.708	0.0168959
819.786	0.0169164
819.864	0.0171381
819.942	0.0172496
820.021	0.0170997
820.099	0.0173970
820.177	0.0174531
820.255	0.0176212
820.333	0.0175073
820.411	0.0175948
820.489	0.0175913
820.567	0.0176965
820.646	0.0177538
820.724	0.0176917
820.802	0.0175369
820.880	0.0173690
820.958	0.0173201
821.036	0.0173038
821.114	0.0172564
821.192	0.0169177
821.271	0.0168288
821.349	0.0167175
821.427	0.0164771
821.505	0.0162836
821.583	0.0162315
821.661	0.0161118
821.739	0.0159311
821.817	0.0158374
821.896	0.0158336
821.974	0.0156896
822.052	0.0154760
822.130	0.0155421
822.208	0.0153522
822.286	0.0153881
822.364	0.0155907
822.442	0.0153389
822.521	0.0155206
822.599	0.0155151
822.677	0.0156096
822.755	0.0156413
822.833	0.0156251
822.911	0.0157334
822.989	0.0158448
823.067	0.0160066
823.146	0.0160929
823.224	0.0161186
823.302	0.0163313
823.380	0.0164777
823.458	0.0165693
823.536	0.0165327
823.614	0.0166367
823.692	0.0165646
823.771	0.0169041
823.849	0.0168385
823.927	0.0168793
824.005	0.0169371
824.083	0.0170591
824.161	0.0170955
824.239	0.0171532
824.317	0.0172948
824.396	0.0173006
824.474	0.0171835
824.552	0.0174081
824.630	0.0174474
824.708	0.0171709
824.786	0.0171873
824.864	0.0171297
824.942	0.0170811
825.021	0.0170449
825.099	0.0169626
825.177	0.0168465
825.255	0.0168288
825.333	0.0166328
825.411	0.0164312
825.489	0.0162431
825.567	0.0161688
825.646	0.0160784
825.724	0.0160289
825.802	0.0159766
825.880	0.0158989
825.958	0.0159287
826.036	0.0159357
826.114	0.0159245
826.192	0.0158128
826.271	0.0157109
826.349	0.0158533
826.427	0.0157645
826.505	0.0159604
826.583	0.0158956
826.661	0.0159318
826.739	0.0159195
826.817	0.0159700
826.896	0.0159658
826.974	0.0158944
827.052	0.0161210
827.130	0.0161063
827.208	0.0161366
827.286	0.0161971
827.364	0.0164039
827.442	0.0162183
827.521	0.0162214
827.599	0.0165836
827.677	0.0163816
827.755	0.0164141
827.833	0.0164322
827.911	0.0166870
827.989	0.0165958
828.067	0.0166025
828.146	0.0168327
828.224	0.0169150
828.302	0.0167356
828.380	0.0169030
828.458	0.0168855
828.536	0.0169513
828.614	0.0170882
828.692	0.0169764
828.771	0.0168378
828.849	0.0169296
828.927	0.0169318
829.005	0.0171641
829.083	0.0169996
829.161	0.0169852
829.239	0.0170287
829.317	0.0169862
829.396	0.0168230
829.474	0.0167493
829.552	0.0168739
829.630	0.0168845
829.708	0.0167031
829.786	0.0166314
829.864	0.0164768
829.942	0.0164541
830.021	0.0162726
830.099	0.0161613
830.177	0.0162099
830.255	0.0161414
830.333	0.0159537
830.411	0.0159224
830.489	0.0159455
830.567	0.0158488
830.646	0.0160963
830.724	0.0160182
830.802	0.0157967
830.880	0.0158694
830.958	0.0156954
831.036	0.0158617
831.114	0.0160762
831.192	0.0160106
831.271	0.0159589
831.349	0.0160667
831.427	0.0160024
831.505	0.0160870
831.583	0.0160602
831.661	0.0161187
831.739	0.0161973
831.817	0.0162621
831.896	0.0161967
831.974	0.0164155
832.052	0.0163657
832.130	0.0162745
832.208	0.0164091
832.286	0.0164269
832.364	0.0165341
832.442	0.0166013
832.521	0.0167398
832.599	0.0168443
832.677	0.0168969
832.755	0.0169475
832.833	0.0169140
832.911	0.0168698
832.989	0.0170493
833.067	0.0169938
833.146	0.0171227
833.224	0.0170701
833.302	0.0171716
833.380	0.0172245
833.458	0.0169582
833.536	0.0170602
833.614	0.0169386
833.692	0.0168311
833.771	0.0168918
833.849	0.0169090
833.927	0.0168321
834.005	0.0167838
834.083	0.0169022
834.161	0.0165614
834.239	0.0165006
834.317	0.0164615
834.396	0.0163522
834.474	0.0162244
834.552	0.0163201
834.630	0.0163174
834.708	0.0161740
834.786	0.0159467
834.864	0.0159002
834.942	0.0158921
835.021	0.0158617
835.099	0.0159751
835.177	0.0159714
835.255	0.0157807
835.333	0.0159252
835.411	0.0161406
835.489	0.0159914
835.567	0.0161478
835.646	0.0161482
835.724	0.0160491
835.802	0.0161682
835.880	0.0163052
835.958	0.0163503
836.036	0.0163865
836.114	0.0162714
836.192	0.0164080
836.271	0.0165284
836.349	0.0165818
836.427	0.0165294
836.505	0.0167221
836.583	0.0167274
836.661	0.0167156
836.739	0.0167780
836.817	0.0168602
836.896	0.0168211
836.974	0.0167854
837.052	0.0169833
837.130	0.0168704
837.208	0.0168846
837.286	0.0168497
837.364	0.0168632
837.442	0.0169098
837.521	0.0168651
837.599	0.0168709
837.677	0.0167791
837.755	0.0168073
837.833	0.0166926
837.911	0.0169301
837.989	0.0168260
838.067	0.0167908
838.146	0.0167244
838.224	0.0167361
838.302	0.0168006
838.380	0.0166306
838.458	0.0166164
838.536	0.0167162
838.614	0.0167098
838.692	0.0165078
838.771	0.0165897
838.849	0.0166113
838.927	0.0163712
839.005	0.0163165
839.083	0.0162569
839.161	0.0161576
839.239	0.0160500
839.317	0.0159614
839.396	0.0158764
839.474	0.0158437
839.552	0.0157488
839.630	0.0157453
839.708	0.0156335
839.786	0.0157016
839.864	0.0155747
839.942	0.0156460
840.021	0.0157871
840.099	0.0156355
840.177	0.0157839
840.255	0.0158061
840.333	0.0158628
840.411	0.0158680
840.489	0.0161208
840.567	0.0162731
840.646	0.0163874
840.724	0.0165450
840.802	0.0166360
840.880	0.0168465
840.958	0.0168399
841.036	0.0168934
841.114	0.0169234
841.192	0.0167703
841.271	0.0170263
841.349	0.0169643
841.427	0.0170178
841.505	0.0169070
841.583	0.0170350
841.661	0.0170380
841.739	0.0169313
841.817	0.0170231
841.896	0.0168975
841.974	0.0168414
842.052	0.0169464
842.130	0.0167318
842.208	0.0167197
842.286	0.0166738
842.364	0.0166194
842.442	0.0166940
842.521	0.0166235
842.599	0.0166131
842.677	0.0165075
842.755	0.0164944
842.833	0.0164079
842.911	0.0164526
842.989	0.0163641
843.067	0.0163731
843.146	0.0165097
843.224	0.0162436
843.302	0.0161709
843.380	0.0162064
843.458	0.0161649
843.536	0.0161879
843.614	0.0161089
843.692	0.0161449
843.771	0.0160491
843.849	0.0160430
843.927	0.0160806
844.005	0.0159026
844.083	0.0160635
844.161	0.0160406
844.239	0.0161233
844.317	0.0159355
844.396	0.0161312
844.474	0.0159974
844.552	0.0161282
844.630	0.0161733
844.708	0.0161993
844.786	0.0161861
844.864	0.0163474
844.942	0.0162776
845.021	0.0162873
845.099	0.0163677
845.177	0.0164504
845.255	0.0164967
845.333	0.0164772
845.411	0.0165074
845.489	0.0166142
845.567	0.0167508
845.646	0.0165945
845.724	0.0165833
845.802	0.0165695
845.880	0.0165746
845.958	0.0166964
846.036	0.0165750
846.114	0.0165490
846.192	0.0166670
846.271	0.0165362
846.349	0.0166635
846.427	0.0166338
846.505	0.0165439
846.583	0.0165815
846.661	0.0167100
846.739	0.0166639
846.817	0.0165514
846.896	0.0166230
846.974	0.0166280
847.052	0.0166563
847.130	0.0166479
847.208	0.0166434
847.286	0.0167812
847.364	0.0165656
847.442	0.0166610
847.521	0.0165702
847.599	0.0163665
847.677	0.0165209
847.755	0.0165226
847.833	0.0163367
847.911	0.0165025
847.989	0.0164436
848.067	0.0163494
848.146	0.0162329
848.224	0.0162268
848.302	0.0162041
848.380	0.0161217
848.458	0.0159921
848.536	0.0161645
848.614	0.0161456
848.692	0.0160416
848.771	0.0162073
848.849	0.0161233
848.927	0.0161246
849.005	0.0162469
849.083	0.0163578
849.161	0.0161633
849.239	0.0161323
849.317	0.0163125
849.396	0.0163848
849.474	0.0163441
849.552	0.0163580
849.630	0.0163677
849.708	0.0164232
849.786	0.0163959
849.864	0.0164481
849.942	0.0163735
850.021	0.0163250
850.099	0.0164592
850.177	0.0164628
850.255	0.0164165
850.333	0.0164304
850.411	0.0165105
850.489	0.0164799
850.567	0.0163421
850.646	0.0164798
850.724	0.0165650
850.802	0.0164191
850.880	0.0165677
850.958	0.0166695
851.036	0.0167326
851.114	0.0167038
851.192	0.0166288
851.271	0.0166451
851.349	0.0166653
851.427	0.0167806
851.505	0.0166607
851.583	0.0167485
851.661	0.0168204
851.739	0.0165736
851.817	0.0166000
851.896	0.0165762
851.974	0.0166406
852.052	0.0165798
852.130	0.0163772
852.208	0.0164094
852.286	0.0164352
852.364	0.0163907
852.442	0.0162846
852.521	0.0164098
852.599	0.0163001
852.677	0.0161304
852.755	0.0161940
852.833	0.0161819
852.911	0.0161523
852.989	0.0162149
853.067	0.0161831
853.146	0.0162814
853.224	0.0162125
853.302	0.0162421
853.380	0.0162873
853.458	0.0162182
853.536	0.0163763
853.614	0.0162556
853.692	0.0163390
853.771	0.0163902
853.849	0.0165154
853.927	0.0164891
854.005	0.0166238
854.083	0.0165399
854.161	0.0165735
854.239	0.0166438
854.317	0.0166756
854.396	0.0167223
854.474	0.0166030
854.552	0.0164925
854.630	0.0165638
854.708	0.0165746
854.786	0.0166096
854.864	0.0165477
854.942	0.0165945
855.021	0.0164797
855.099	0.0165286
855.177	0.0164428
855.255	0.0164801
855.333	0.0165055
855.411	0.0165195
855.489	0.0165443
855.567	0.0162760
855.646	0.0164468
855.724	0.0163300
855.802	0.0162189
855.880	0.0162627
855.958	0.0162377
856.036	0.0163094
856.114	0.0162969
856.192	0.0163515
856.271	0.0163374
856.349	0.0163054
856.427	0.0163452
856.505	0.0164478
856.583	0.0163696
856.661	0.0164223
856.739	0.0164238
856.817	0.0163841
856.896	0.0163440
856.974	0.0164493
857.052	0.0163986
857.130	0.0164867
857.208	0.0164635
857.286	0.0162963
857.364	0.0164005
857.442	0.0163700
857.521	0.0163196
857.599	0.0163444
857.677	0.0164846
857.755	0.0164214
857.833	0.0164020
857.911	0.0164497
857.989	0.0164742
858.067	0.0164764
858.146	0.0165562
858.224	0.0166390
858.302	0.0164760
858.380	0.0165737
858.458	0.0166894
858.536	0.0166366
858.614	0.0167744
858.692	0.0165712
858.771	0.0166717
858.849	0.0166821
858.927	0.0166950
859.005	0.0166816
859.083	0.0167790
859.161	0.0167162
859.239	0.0167720
859.317	0.0167978
859.396	0.0166414
859.474	0.0166788
859.552	0.0166815
859.630	0.0165636
859.708	0.0165978
859.786	0.0165543
859.864	0.0165547
859.942	0.0163625
860.021	0.0163975
860.099	0.0163302
860.177	0.0164337
860.255	0.0164328
860.333	0.0163803
860.411	0.0162642
860.489	0.0161362
860.567	0.0162466
860.646	0.0162595
860.724	0.0161065
860.802	0.0160551
860.880	0.0161663
860.958	0.0162066
861.036	0.0161239
861.114	0.0160769
861.192	0.0161134
861.271	0.0160855
861.349	0.0159099
861.427	0.0160040
861.505	0.0161417
861.583	0.0160789
861.661	0.0161030
861.739	0.0160969
861.817	0.0162315
861.896	0.0160960
861.974	0.0163858
862.052	0.0162112
862.130	0.0162560
862.208	0.0165063
862.286	0.0163632
862.364	0.0164909
862.442	0.0165306
862.521	0.0165222
862.599	0.0165547
862.677	0.0165678
862.755	0.0166450
862.833	0.0165781
862.911	0.0166700
862.989	0.0167281
863.067	0.0167220
863.146	0.0166418
863.224	0.0167372
863.302	0.0168198
863.380	0.0169042
863.458	0.0168539
863.536	0.0167648
863.614	0.0167661
863.692	0.0168077
863.771	0.0168980
863.849	0.0166868
863.927	0.0166660
864.005	0.0166673
864.083	0.0168411
864.161	0.0167508
864.239	0.0167280
864.317	0.0167225
864.396	0.0166335
864.474	0.0165914
864.552	0.0165244
864.630	0.0164401
864.708	0.0165152
864.786	0.0163456
864.864	0.0165797
864.942	0.0163208
865.021	0.0163030
865.099	0.0163841
865.177	0.0163878
865.255	0.0164009
865.333	0.0162093
865.411	0.0163486
865.489	0.0163397
865.567	0.0163967
865.646	0.0162603
865.724	0.0162051
865.802	0.0163689
865.880	0.0163083
865.958	0.0164122
866.036	0.0163263
866.114	0.0162593
866.192	0.0162966
866.271	0.0162239
866.349	0.0162979
866.427	0.0163592
866.505	0.0161356
866.583	0.0160556
866.661	0.0161965
866.739	0.0161320
866.817	0.0162897
866.896	0.0161831
866.974	0.0161378
867.052	0.0162164
867.130	0.0159878
867.208	0.0161954
867.286	0.0161420
867.364	0.0162462
867.442	0.0163127
867.521	0.0162902
867.599	0.0163721
867.677	0.0165158
867.755	0.0165339
867.833	0.0165840
867.911	0.0164544
867.989	0.0165678
868.067	0.0165929
868.146	0.0166779
868.224	0.0167195
868.302	0.0167048
868.380	0.0167376
868.458	0.0167544
868.536	0.0168301
868.614	0.0167950
868.692	0.0168172
868.771	0.0169350
868.849	0.0167667
868.927	0.0166458
869.005	0.0166885
869.083	0.0167446
869.161	0.0164988
869.239	0.0166592
869.317	0.0166514
869.396	0.0166168
869.474	0.0166262
869.552	0.0164452
869.630	0.0163781
869.708	0.0164735
869.786	0.0164606
869.864	0.0163400
869.942	0.0163819
