06/03/2022	15:38:06	Ver.	4.1	UNKNOWN
Optical Delay	550.020508	Delta X		0.078125	Sweeps	1	Scan Rate	0/0
Coordinates	Axis 1	NaN	Axis 2	NaN	Axis 3	NaN	Axis 4	NaN	Axis 5	NaN	Axis 6	0.000000
TX Power	0.000000	RX Power	0.000000

550.021	0.0161310
550.099	0.0161517
550.177	0.0160672
550.255	0.0160847
550.333	0.0160212
550.411	0.0162478
550.489	0.0160814
550.567	0.0161940
550.646	0.0161235
550.724	0.0161456
550.802	0.0161109
550.880	0.0160509
550.958	0.0162290
551.036	0.0161780
551.114	0.0161591
551.192	0.0160782
551.271	0.0160036
551.349	0.0161037
551.427	0.0161273
551.505	0.0160749
551.583	0.0162460
551.661	0.0161104
551.739	0.0161275
551.817	0.0160605
551.896	0.0159460
551.974	0.0160548
552.052	0.0161173
552.130	0.0161517
552.208	0.0161114
552.286	0.0160814
552.364	0.0161320
552.442	0.0161787
552.521	0.0161195
552.599	0.0161765
552.677	0.0160748
552.755	0.0160690
552.833	0.0161322
552.911	0.0161200
552.989	0.0162093
553.067	0.0161204
553.146	0.0161270
553.224	0.0161638
553.302	0.0161443
553.380	0.0161896
553.458	0.0161858
553.536	0.0162054
553.614	0.0159850
553.692	0.0160872
553.771	0.0162388
553.849	0.0162240
553.927	0.0162486
554.005	0.0160351
554.083	0.0161826
554.161	0.0161019
554.239	0.0160831
554.317	0.0160630
554.396	0.0162402
554.474	0.0161147
554.552	0.0161123
554.630	0.0162171
554.708	0.0161427
554.786	0.0161267
554.864	0.0162279
554.942	0.0160558
555.021	0.0160704
555.099	0.0161323
555.177	0.0160901
555.255	0.0161668
555.333	0.0160754
555.411	0.0160931
555.489	0.0160864
555.567	0.0162711
555.646	0.0160966
555.724	0.0161554
555.802	0.0159702
555.880	0.0160700
555.958	0.0161143
556.036	0.0161514
556.114	0.0160680
556.192	0.0159757
556.271	0.0160413
556.349	0.0162186
556.427	0.0161764
556.505	0.0160714
556.583	0.0160793
556.661	0.0160154
556.739	0.0162305
556.817	0.0160363
556.896	0.0161366
556.974	0.0159883
557.052	0.0160553
557.130	0.0160505
557.208	0.0162303
557.286	0.0160145
557.364	0.0162012
557.442	0.0162016
557.521	0.0161761
557.599	0.0160332
557.677	0.0163241
557.755	0.0162244
557.833	0.0161346
557.911	0.0160893
557.989	0.0160406
558.067	0.0161923
558.146	0.0162003
558.224	0.0161455
558.302	0.0162532
558.380	0.0161118
558.458	0.0161015
558.536	0.0161044
558.614	0.0161904
558.692	0.0161999
558.771	0.0160975
558.849	0.0161671
558.927	0.0160656
559.005	0.0161312
559.083	0.0161921
559.161	0.0162495
559.239	0.0160760
559.317	0.0161161
559.396	0.0160778
559.474	0.0160273
559.552	0.0161397
559.630	0.0160950
559.708	0.0161114
559.786	0.0161912
559.864	0.0161642
559.942	0.0162473
560.021	0.0161928
560.099	0.0162223
560.177	0.0161691
560.255	0.0162155
560.333	0.0161317
560.411	0.0161559
560.489	0.0162383
560.567	0.0161579
560.646	0.0161019
560.724	0.0161198
560.802	0.0161344
560.880	0.0162885
560.958	0.0161700
561.036	0.0161355
561.114	0.0160632
561.192	0.0162606
561.271	0.0162131
561.349	0.0161081
561.427	0.0160799
561.505	0.0161302
561.583	0.0161707
561.661	0.0161285
561.739	0.0159999
561.817	0.0159888
561.896	0.0160066
561.974	0.0161652
562.052	0.0162270
562.130	0.0161237
562.208	0.0161617
562.286	0.0161285
562.364	0.0159926
562.442	0.0161804
562.521	0.0162113
562.599	0.0161452
562.677	0.0161412
562.755	0.0160374
562.833	0.0160667
562.911	0.0160633
562.989	0.0162235
563.067	0.0160542
563.146	0.0161337
563.224	0.0161937
563.302	0.0161741
563.380	0.0161654
563.458	0.0160960
563.536	0.0161157
563.614	0.0160860
563.692	0.0162056
563.771	0.0160468
563.849	0.0161274
563.927	0.0161852
564.005	0.0162556
564.083	0.0160416
564.161	0.0161886
564.239	0.0160876
564.317	0.0161494
564.396	0.0161490
564.474	0.0162160
564.552	0.0161285
564.630	0.0161353
564.708	0.0160395
564.786	0.0161545
564.864	0.0160789
564.942	0.0161888
565.021	0.0160924
565.099	0.0160741
565.177	0.0160892
565.255	0.0162537
565.333	0.0160571
565.411	0.0160888
565.489	0.0160690
565.567	0.0161108
565.646	0.0159908
565.724	0.0161299
565.802	0.0162635
565.880	0.0160143
565.958	0.0161646
566.036	0.0161004
566.114	0.0160615
566.192	0.0161141
566.271	0.0160912
566.349	0.0161635
566.427	0.0161826
566.505	0.0160705
566.583	0.0161059
566.661	0.0161028
566.739	0.0161147
566.817	0.0162068
566.896	0.0161349
566.974	0.0161051
567.052	0.0162299
567.130	0.0161484
567.208	0.0161475
567.286	0.0161335
567.364	0.0160255
567.442	0.0162084
567.521	0.0162412
567.599	0.0162250
567.677	0.0162122
567.755	0.0162778
567.833	0.0162511
567.911	0.0160370
567.989	0.0161716
568.067	0.0162081
568.146	0.0159575
568.224	0.0162289
568.302	0.0160648
568.380	0.0161259
568.458	0.0161673
568.536	0.0161375
568.614	0.0161914
568.692	0.0161372
568.771	0.0160861
568.849	0.0161273
568.927	0.0160341
569.005	0.0161572
569.083	0.0161641
569.161	0.0161443
569.239	0.0161992
569.317	0.0160548
569.396	0.0161282
569.474	0.0160485
569.552	0.0161600
569.630	0.0161539
569.708	0.0160197
569.786	0.0161732
569.864	0.0161383
569.942	0.0160874
570.021	0.0160032
570.099	0.0161076
570.177	0.0162196
570.255	0.0161840
570.333	0.0160992
570.411	0.0161703
570.489	0.0160402
570.567	0.0161071
570.646	0.0161710
570.724	0.0161234
570.802	0.0160686
570.880	0.0161855
570.958	0.0160586
571.036	0.0160595
571.114	0.0160683
571.192	0.0161709
571.271	0.0161582
571.349	0.0161456
571.427	0.0161401
571.505	0.0160635
571.583	0.0161964
571.661	0.0159931
571.739	0.0161401
571.817	0.0162991
571.896	0.0161510
571.974	0.0161432
572.052	0.0161375
572.130	0.0161214
572.208	0.0163136
572.286	0.0161186
572.364	0.0160625
572.442	0.0159780
572.521	0.0161399
572.599	0.0161274
572.677	0.0161202
572.755	0.0161314
572.833	0.0160729
572.911	0.0161077
572.989	0.0161897
573.067	0.0162540
573.146	0.0161308
573.224	0.0161121
573.302	0.0163000
573.380	0.0161163
573.458	0.0162222
573.536	0.0162425
573.614	0.0160654
573.692	0.0161204
573.771	0.0161200
573.849	0.0160891
573.927	0.0160953
574.005	0.0161069
574.083	0.0161652
574.161	0.0161760
574.239	0.0161246
574.317	0.0162054
574.396	0.0161648
574.474	0.0161753
574.552	0.0161295
574.630	0.0161641
574.708	0.0162259
574.786	0.0162037
574.864	0.0161395
574.942	0.0161092
575.021	0.0161406
575.099	0.0160708
575.177	0.0161214
575.255	0.0161211
575.333	0.0161243
575.411	0.0160120
575.489	0.0161372
575.567	0.0161466
575.646	0.0162219
575.724	0.0162514
575.802	0.0162357
575.880	0.0161337
575.958	0.0161044
576.036	0.0162096
576.114	0.0161806
576.192	0.0160960
576.271	0.0162391
576.349	0.0160630
576.427	0.0161109
576.505	0.0161051
576.583	0.0159699
576.661	0.0161584
576.739	0.0161504
576.817	0.0159808
576.896	0.0161887
576.974	0.0162440
577.052	0.0161334
577.130	0.0160742
577.208	0.0160957
577.286	0.0160348
577.364	0.0160667
577.442	0.0162183
577.521	0.0161641
577.599	0.0161001
577.677	0.0162019
577.755	0.0161644
577.833	0.0159095
577.911	0.0161492
577.989	0.0159869
578.067	0.0159428
578.146	0.0162501
578.224	0.0162686
578.302	0.0161945
578.380	0.0161446
578.458	0.0160030
578.536	0.0160673
578.614	0.0161029
578.692	0.0161916
578.771	0.0161489
578.849	0.0161594
578.927	0.0161393
579.005	0.0160267
579.083	0.0161507
579.161	0.0161636
579.239	0.0159769
579.317	0.0161765
579.396	0.0161773
579.474	0.0160966
579.552	0.0160938
579.630	0.0161614
579.708	0.0160432
579.786	0.0161311
579.864	0.0160535
579.942	0.0161770
580.021	0.0161189
580.099	0.0160403
580.177	0.0162572
580.255	0.0161603
580.333	0.0160792
580.411	0.0160326
580.489	0.0161177
580.567	0.0160909
580.646	0.0161280
580.724	0.0160616
580.802	0.0160130
580.880	0.0162512
580.958	0.0162537
581.036	0.0160121
581.114	0.0161891
581.192	0.0159859
581.271	0.0160971
581.349	0.0161667
581.427	0.0162371
581.505	0.0160278
581.583	0.0161446
581.661	0.0161472
581.739	0.0162024
581.817	0.0161292
581.896	0.0159631
581.974	0.0159682
582.052	0.0160949
582.130	0.0161207
582.208	0.0161732
582.286	0.0159675
582.364	0.0161154
582.442	0.0162151
582.521	0.0161961
582.599	0.0160698
582.677	0.0161159
582.755	0.0160693
582.833	0.0161285
582.911	0.0160631
582.989	0.0162579
583.067	0.0160708
583.146	0.0161788
583.224	0.0159892
583.302	0.0160486
583.380	0.0161571
583.458	0.0162238
583.536	0.0162002
583.614	0.0161578
583.692	0.0161372
583.771	0.0160734
583.849	0.0161618
583.927	0.0161603
584.005	0.0159553
584.083	0.0160973
584.161	0.0161912
584.239	0.0160178
584.317	0.0160747
584.396	0.0162370
584.474	0.0161134
584.552	0.0160252
584.630	0.0160133
584.708	0.0161079
584.786	0.0161829
584.864	0.0161595
584.942	0.0162210
585.021	0.0161182
585.099	0.0161918
585.177	0.0160041
585.255	0.0160633
585.333	0.0161752
585.411	0.0162050
585.489	0.0160572
585.567	0.0160109
585.646	0.0161596
585.724	0.0162164
585.802	0.0160567
585.880	0.0161401
585.958	0.0160732
586.036	0.0160851
586.114	0.0161042
586.192	0.0162163
586.271	0.0162263
586.349	0.0161408
586.427	0.0161049
586.505	0.0160445
586.583	0.0161160
586.661	0.0160962
586.739	0.0161102
586.817	0.0160293
586.896	0.0162611
586.974	0.0162347
587.052	0.0160767
587.130	0.0161362
587.208	0.0161428
587.286	0.0159895
587.364	0.0160811
587.442	0.0162478
587.521	0.0161134
587.599	0.0161458
587.677	0.0161700
587.755	0.0160566
587.833	0.0162150
587.911	0.0161979
587.989	0.0160693
588.067	0.0161176
588.146	0.0161425
588.224	0.0161764
588.302	0.0160905
588.380	0.0161468
588.458	0.0162009
588.536	0.0161385
588.614	0.0161785
588.692	0.0161226
588.771	0.0161504
588.849	0.0161256
588.927	0.0162825
589.005	0.0162037
589.083	0.0162239
589.161	0.0161688
589.239	0.0161810
589.317	0.0160944
589.396	0.0160824
589.474	0.0160678
589.552	0.0161215
589.630	0.0161083
589.708	0.0160056
589.786	0.0162260
589.864	0.0162070
589.942	0.0162082
590.021	0.0160751
590.099	0.0161617
590.177	0.0161572
590.255	0.0161468
590.333	0.0161006
590.411	0.0162378
590.489	0.0161788
590.567	0.0161494
590.646	0.0160024
590.724	0.0160542
590.802	0.0160790
590.880	0.0162189
590.958	0.0160889
591.036	0.0161761
591.114	0.0160902
591.192	0.0161969
591.271	0.0161660
591.349	0.0161510
591.427	0.0162637
591.505	0.0162099
591.583	0.0161623
591.661	0.0161546
591.739	0.0161164
591.817	0.0161693
591.896	0.0161880
591.974	0.0160467
592.052	0.0161156
592.130	0.0161773
592.208	0.0161237
592.286	0.0161164
592.364	0.0160847
592.442	0.0162102
592.521	0.0162495
592.599	0.0162153
592.677	0.0162065
592.755	0.0161813
592.833	0.0162256
592.911	0.0161578
592.989	0.0162125
593.067	0.0162929
593.146	0.0161647
593.224	0.0160226
593.302	0.0161945
593.380	0.0162060
593.458	0.0160564
593.536	0.0160876
593.614	0.0162133
593.692	0.0162035
593.771	0.0161892
593.849	0.0161394
593.927	0.0160934
594.005	0.0161413
594.083	0.0161971
594.161	0.0161848
594.239	0.0161901
594.317	0.0161997
594.396	0.0161971
594.474	0.0161539
594.552	0.0162788
594.630	0.0162677
594.708	0.0161588
594.786	0.0160530
594.864	0.0161935
594.942	0.0161675
595.021	0.0161562
595.099	0.0163008
595.177	0.0162042
595.255	0.0160429
595.333	0.0161222
595.411	0.0161166
595.489	0.0160950
595.567	0.0160789
595.646	0.0161366
595.724	0.0160468
595.802	0.0162492
595.880	0.0161796
595.958	0.0161086
596.036	0.0161933
596.114	0.0161411
596.192	0.0161514
596.271	0.0160785
596.349	0.0160441
596.427	0.0160828
596.505	0.0162013
596.583	0.0163236
596.661	0.0160504
596.739	0.0161566
596.817	0.0160619
596.896	0.0162093
596.974	0.0161924
597.052	0.0160566
597.130	0.0162091
597.208	0.0161556
597.286	0.0162096
597.364	0.0162936
597.442	0.0162251
597.521	0.0160938
597.599	0.0161615
597.677	0.0163058
597.755	0.0161454
597.833	0.0161018
597.911	0.0161600
597.989	0.0162528
598.067	0.0162109
598.146	0.0160945
598.224	0.0160452
598.302	0.0160631
598.380	0.0161209
598.458	0.0161895
598.536	0.0160949
598.614	0.0161708
598.692	0.0161333
598.771	0.0162323
598.849	0.0161344
598.927	0.0160531
599.005	0.0160899
599.083	0.0162793
599.161	0.0162205
599.239	0.0162375
599.317	0.0162794
599.396	0.0162650
599.474	0.0161961
599.552	0.0160637
599.630	0.0161310
599.708	0.0162057
599.786	0.0161763
599.864	0.0161894
599.942	0.0161165
600.021	0.0161569
600.099	0.0161380
600.177	0.0162077
600.255	0.0160104
600.333	0.0161295
600.411	0.0161469
600.489	0.0161702
600.567	0.0162521
600.646	0.0161679
600.724	0.0160461
600.802	0.0161713
600.880	0.0162727
600.958	0.0160905
601.036	0.0160334
601.114	0.0160939
601.192	0.0160098
601.271	0.0161999
601.349	0.0162286
601.427	0.0161677
601.505	0.0161320
601.583	0.0161318
601.661	0.0160126
601.739	0.0161588
601.817	0.0160750
601.896	0.0160996
601.974	0.0161822
602.052	0.0160930
602.130	0.0161172
602.208	0.0160923
602.286	0.0161047
602.364	0.0160935
602.442	0.0161299
602.521	0.0161978
602.599	0.0161993
602.677	0.0162210
602.755	0.0161911
602.833	0.0160980
602.911	0.0160938
602.989	0.0160460
603.067	0.0160711
603.146	0.0161787
603.224	0.0160987
603.302	0.0161549
603.380	0.0161092
603.458	0.0162057
603.536	0.0162105
603.614	0.0161315
603.692	0.0160633
603.771	0.0159697
603.849	0.0161333
603.927	0.0160484
604.005	0.0161864
604.083	0.0162033
604.161	0.0160751
604.239	0.0160742
604.317	0.0162251
604.396	0.0161836
604.474	0.0160165
604.552	0.0159911
604.630	0.0160144
604.708	0.0162006
604.786	0.0161444
604.864	0.0161530
604.942	0.0162171
605.021	0.0160844
605.099	0.0160252
605.177	0.0161846
605.255	0.0161833
605.333	0.0161275
605.411	0.0161043
605.489	0.0160156
605.567	0.0162247
605.646	0.0160870
605.724	0.0162214
605.802	0.0161101
605.880	0.0161995
605.958	0.0160867
606.036	0.0161193
606.114	0.0161240
606.192	0.0160416
606.271	0.0161349
606.349	0.0161559
606.427	0.0161428
606.505	0.0162148
606.583	0.0162189
606.661	0.0161362
606.739	0.0160381
606.817	0.0161691
606.896	0.0160358
606.974	0.0161229
607.052	0.0161285
607.130	0.0160851
607.208	0.0161676
607.286	0.0162267
607.364	0.0160423
607.442	0.0162073
607.521	0.0161349
607.599	0.0160623
607.677	0.0161298
607.755	0.0161678
607.833	0.0162344
607.911	0.0161316
607.989	0.0161488
608.067	0.0160978
608.146	0.0161754
608.224	0.0162336
608.302	0.0161282
608.380	0.0159627
608.458	0.0162171
608.536	0.0160323
608.614	0.0160332
608.692	0.0161246
608.771	0.0161675
608.849	0.0161762
608.927	0.0161433
609.005	0.0161782
609.083	0.0161268
609.161	0.0162142
609.239	0.0160801
609.317	0.0159491
609.396	0.0162795
609.474	0.0161793
609.552	0.0160720
609.630	0.0161900
609.708	0.0161355
609.786	0.0161701
609.864	0.0161162
609.942	0.0160620
610.021	0.0162283
610.099	0.0163316
610.177	0.0161079
610.255	0.0160990
610.333	0.0161125
610.411	0.0160760
610.489	0.0161466
610.567	0.0161391
610.646	0.0161166
610.724	0.0161546
610.802	0.0160575
610.880	0.0161503
610.958	0.0161309
611.036	0.0161480
611.114	0.0162391
611.192	0.0160838
611.271	0.0161129
611.349	0.0161402
611.427	0.0160874
611.505	0.0159608
611.583	0.0160815
611.661	0.0161134
611.739	0.0162233
611.817	0.0162225
611.896	0.0161453
611.974	0.0161503
612.052	0.0161122
612.130	0.0161651
612.208	0.0160741
612.286	0.0160388
612.364	0.0161076
612.442	0.0160542
612.521	0.0161079
612.599	0.0159921
612.677	0.0161034
612.755	0.0161444
612.833	0.0160711
612.911	0.0161537
612.989	0.0161854
613.067	0.0160673
613.146	0.0159385
613.224	0.0161983
613.302	0.0161479
613.380	0.0161214
613.458	0.0161263
613.536	0.0161456
613.614	0.0161217
613.692	0.0160445
613.771	0.0160730
613.849	0.0160110
613.927	0.0160194
614.005	0.0161181
614.083	0.0160394
614.161	0.0160639
614.239	0.0161990
614.317	0.0161695
614.396	0.0161050
614.474	0.0160552
614.552	0.0161133
614.630	0.0160517
614.708	0.0160833
614.786	0.0160677
614.864	0.0162573
614.942	0.0161327
615.021	0.0160693
615.099	0.0161478
615.177	0.0161331
615.255	0.0160854
615.333	0.0160477
615.411	0.0161526
615.489	0.0160424
615.567	0.0160029
615.646	0.0161344
615.724	0.0161250
615.802	0.0161180
615.880	0.0160261
615.958	0.0161626
616.036	0.0161772
616.114	0.0162105
616.192	0.0160941
616.271	0.0161845
616.349	0.0160995
616.427	0.0160376
616.505	0.0161037
616.583	0.0162021
616.661	0.0161311
616.739	0.0162492
616.817	0.0161641
616.896	0.0162903
616.974	0.0161151
617.052	0.0161332
617.130	0.0161903
617.208	0.0161628
617.286	0.0160882
617.364	0.0160680
617.442	0.0161385
617.521	0.0162761
617.599	0.0161244
617.677	0.0160847
617.755	0.0161476
617.833	0.0161160
617.911	0.0161739
617.989	0.0161269
618.067	0.0161282
618.146	0.0161496
618.224	0.0161395
618.302	0.0161321
618.380	0.0162331
618.458	0.0161305
618.536	0.0160309
618.614	0.0161834
618.692	0.0161443
618.771	0.0161008
618.849	0.0160621
618.927	0.0161623
619.005	0.0162331
619.083	0.0161258
619.161	0.0160770
619.239	0.0162283
619.317	0.0162331
619.396	0.0161975
619.474	0.0160755
619.552	0.0160620
619.630	0.0160969
619.708	0.0162115
619.786	0.0161990
619.864	0.0161823
619.942	0.0161440
620.021	0.0161327
620.099	0.0160550
620.177	0.0160513
620.255	0.0162537
620.333	0.0160452
620.411	0.0160517
620.489	0.0160728
620.567	0.0161337
620.646	0.0160622
620.724	0.0160864
620.802	0.0161757
620.880	0.0160860
620.958	0.0160262
621.036	0.0161776
621.114	0.0161381
621.192	0.0161245
621.271	0.0161517
621.349	0.0160925
621.427	0.0161250
621.505	0.0161321
621.583	0.0160856
621.661	0.0161341
621.739	0.0161457
621.817	0.0160703
621.896	0.0161103
621.974	0.0161670
622.052	0.0161041
622.130	0.0161572
622.208	0.0160872
622.286	0.0161269
622.364	0.0161259
622.442	0.0161562
622.521	0.0161114
622.599	0.0161523
622.677	0.0161601
622.755	0.0159722
622.833	0.0161800
622.911	0.0161570
622.989	0.0160381
623.067	0.0161711
623.146	0.0162864
623.224	0.0161577
623.302	0.0159476
623.380	0.0161378
623.458	0.0161918
623.536	0.0161423
623.614	0.0160249
623.692	0.0161213
623.771	0.0161723
623.849	0.0161626
623.927	0.0161906
624.005	0.0160793
624.083	0.0162415
624.161	0.0161116
624.239	0.0160963
624.317	0.0161150
624.396	0.0161508
624.474	0.0161870
624.552	0.0162640
624.630	0.0160934
624.708	0.0158883
624.786	0.0161769
624.864	0.0161845
624.942	0.0162921
625.021	0.0161161
625.099	0.0161759
625.177	0.0160023
625.255	0.0161260
625.333	0.0160809
625.411	0.0161087
625.489	0.0162458
625.567	0.0161602
625.646	0.0162700
625.724	0.0160861
625.802	0.0161303
625.880	0.0161419
625.958	0.0160979
626.036	0.0159574
626.114	0.0160079
626.192	0.0161824
626.271	0.0161163
626.349	0.0160750
626.427	0.0161433
626.505	0.0161983
626.583	0.0160703
626.661	0.0161613
626.739	0.0161626
626.817	0.0160880
626.896	0.0161125
626.974	0.0160686
627.052	0.0160351
627.130	0.0161373
627.208	0.0160495
627.286	0.0160285
627.364	0.0161133
627.442	0.0160686
627.521	0.0161258
627.599	0.0163302
627.677	0.0160952
627.755	0.0160863
627.833	0.0160880
627.911	0.0162014
627.989	0.0162193
628.067	0.0161127
628.146	0.0160605
628.224	0.0161771
628.302	0.0160756
628.380	0.0160492
628.458	0.0161629
628.536	0.0162056
628.614	0.0161659
628.692	0.0161742
628.771	0.0161963
628.849	0.0161085
628.927	0.0161404
629.005	0.0160495
629.083	0.0161420
629.161	0.0161037
629.239	0.0160888
629.317	0.0162152
629.396	0.0161016
629.474	0.0162444
629.552	0.0161639
629.630	0.0162275
629.708	0.0161440
629.786	0.0162806
629.864	0.0164087
629.942	0.0161382
630.021	0.0161445
630.099	0.0161673
630.177	0.0162182
630.255	0.0161462
630.333	0.0162173
630.411	0.0161491
630.489	0.0161972
630.567	0.0162655
630.646	0.0162765
630.724	0.0161889
630.802	0.0162875
630.880	0.0161378
630.958	0.0160877
631.036	0.0160337
631.114	0.0160110
631.192	0.0161073
631.271	0.0161202
631.349	0.0161478
631.427	0.0161046
631.505	0.0160628
631.583	0.0161929
631.661	0.0160551
631.739	0.0160773
631.817	0.0162285
631.896	0.0160242
631.974	0.0161920
632.052	0.0160716
632.130	0.0161378
632.208	0.0160762
632.286	0.0161340
632.364	0.0161494
632.442	0.0159988
632.521	0.0160624
632.599	0.0160741
632.677	0.0161524
632.755	0.0161404
632.833	0.0161871
632.911	0.0161339
632.989	0.0160362
633.067	0.0161050
633.146	0.0160787
633.224	0.0162459
633.302	0.0161025
633.380	0.0162032
633.458	0.0161121
633.536	0.0161224
633.614	0.0161138
633.692	0.0161197
633.771	0.0160833
633.849	0.0161665
633.927	0.0161858
634.005	0.0162428
634.083	0.0159980
634.161	0.0160192
634.239	0.0161414
634.317	0.0160341
634.396	0.0161011
634.474	0.0160917
634.552	0.0160504
634.630	0.0162351
634.708	0.0161286
634.786	0.0161304
634.864	0.0161975
634.942	0.0160634
635.021	0.0160902
635.099	0.0161027
635.177	0.0159674
635.255	0.0161643
635.333	0.0161521
635.411	0.0161863
635.489	0.0161977
635.567	0.0161425
635.646	0.0160914
635.724	0.0161432
635.802	0.0161992
635.880	0.0162804
635.958	0.0162061
636.036	0.0161604
636.114	0.0161189
636.192	0.0162527
636.271	0.0161725
636.349	0.0162107
636.427	0.0161517
636.505	0.0161076
636.583	0.0160529
636.661	0.0160010
636.739	0.0161443
636.817	0.0160695
636.896	0.0160796
636.974	0.0161819
637.052	0.0160493
637.130	0.0160265
637.208	0.0161087
637.286	0.0160612
637.364	0.0161096
637.442	0.0159972
637.521	0.0160857
637.599	0.0160804
637.677	0.0160350
637.755	0.0162486
637.833	0.0160886
637.911	0.0160244
637.989	0.0160822
638.067	0.0161473
638.146	0.0160761
638.224	0.0160209
638.302	0.0160137
638.380	0.0162706
638.458	0.0162047
638.536	0.0160510
638.614	0.0160665
638.692	0.0160321
638.771	0.0161727
638.849	0.0160480
638.927	0.0160149
639.005	0.0161136
639.083	0.0159375
639.161	0.0160937
639.239	0.0160750
639.317	0.0159269
639.396	0.0161035
639.474	0.0160237
639.552	0.0161224
639.630	0.0160071
639.708	0.0160683
639.786	0.0161186
639.864	0.0162262
639.942	0.0161505
640.021	0.0160965
640.099	0.0161692
640.177	0.0161358
640.255	0.0163234
640.333	0.0162569
640.411	0.0161620
640.489	0.0161474
640.567	0.0161749
640.646	0.0162488
640.724	0.0162502
640.802	0.0160989
640.880	0.0162714
640.958	0.0161142
641.036	0.0162676
641.114	0.0161402
641.192	0.0161500
641.271	0.0163655
641.349	0.0161584
641.427	0.0161189
641.505	0.0161114
641.583	0.0160373
641.661	0.0161070
641.739	0.0161514
641.817	0.0162761
641.896	0.0161230
641.974	0.0161076
642.052	0.0162341
642.130	0.0162103
642.208	0.0161185
642.286	0.0161746
642.364	0.0161455
642.442	0.0160289
642.521	0.0161614
642.599	0.0162244
642.677	0.0161407
642.755	0.0161366
642.833	0.0161496
642.911	0.0162550
642.989	0.0162219
643.067	0.0161606
643.146	0.0161315
643.224	0.0161876
643.302	0.0160659
643.380	0.0161443
643.458	0.0160889
643.536	0.0162481
643.614	0.0161124
643.692	0.0161069
643.771	0.0162584
643.849	0.0159914
643.927	0.0160570
644.005	0.0159916
644.083	0.0161096
644.161	0.0161919
644.239	0.0161666
644.317	0.0163403
644.396	0.0163432
644.474	0.0160892
644.552	0.0161879
644.630	0.0161659
644.708	0.0162325
644.786	0.0162982
644.864	0.0162782
644.942	0.0163108
645.021	0.0161634
645.099	0.0161348
645.177	0.0162446
645.255	0.0161541
645.333	0.0163252
645.411	0.0160832
645.489	0.0162247
645.567	0.0164066
645.646	0.0161308
645.724	0.0160934
645.802	0.0161456
645.880	0.0162526
645.958	0.0163090
646.036	0.0161282
646.114	0.0163226
646.192	0.0162052
646.271	0.0161223
646.349	0.0162650
646.427	0.0162234
646.505	0.0161743
646.583	0.0161296
646.661	0.0161259
646.739	0.0161604
646.817	0.0161495
646.896	0.0160714
646.974	0.0161686
647.052	0.0161476
647.130	0.0161956
647.208	0.0161364
647.286	0.0161701
647.364	0.0162849
647.442	0.0160937
647.521	0.0160994
647.599	0.0160789
647.677	0.0163638
647.755	0.0161417
647.833	0.0160703
647.911	0.0161035
647.989	0.0159443
648.067	0.0161192
648.146	0.0162392
648.224	0.0162132
648.302	0.0163190
648.380	0.0160363
648.458	0.0160473
648.536	0.0160702
648.614	0.0160593
648.692	0.0160316
648.771	0.0160956
648.849	0.0158987
648.927	0.0160259
649.005	0.0161495
649.083	0.0162132
649.161	0.0161753
649.239	0.0161528
649.317	0.0162030
649.396	0.0161970
649.474	0.0161982
649.552	0.0161451
649.630	0.0161937
649.708	0.0162321
649.786	0.0161785
649.864	0.0163249
649.942	0.0161206
650.021	0.0161658
650.099	0.0162260
650.177	0.0162492
650.255	0.0161796
650.333	0.0163474
650.411	0.0160488
650.489	0.0161383
650.567	0.0161251
650.646	0.0160760
650.724	0.0161293
650.802	0.0161051
650.880	0.0162415
650.958	0.0161590
651.036	0.0160493
651.114	0.0161100
651.192	0.0160074
651.271	0.0160401
651.349	0.0161177
651.427	0.0161752
651.505	0.0161711
651.583	0.0160303
651.661	0.0160092
651.739	0.0162263
651.817	0.0160878
651.896	0.0160665
651.974	0.0163106
652.052	0.0162000
652.130	0.0160844
652.208	0.0160878
652.286	0.0162282
652.364	0.0161695
652.442	0.0161156
652.521	0.0160807
652.599	0.0161156
652.677	0.0161256
652.755	0.0162988
652.833	0.0161250
652.911	0.0161536
652.989	0.0160048
653.067	0.0161465
653.146	0.0161636
653.224	0.0160042
653.302	0.0161443
653.380	0.0161590
653.458	0.0161048
653.536	0.0161290
653.614	0.0161023
653.692	0.0161230
653.771	0.0160807
653.849	0.0159504
653.927	0.0159683
654.005	0.0162002
654.083	0.0161401
654.161	0.0160873
654.239	0.0160136
654.317	0.0160033
654.396	0.0162489
654.474	0.0160206
654.552	0.0162525
654.630	0.0161839
654.708	0.0161417
654.786	0.0160550
654.864	0.0160873
654.942	0.0160818
655.021	0.0162350
655.099	0.0160868
655.177	0.0160579
655.255	0.0161500
655.333	0.0160852
655.411	0.0161123
655.489	0.0161073
655.567	0.0161395
655.646	0.0160010
655.724	0.0160761
655.802	0.0161512
655.880	0.0161076
655.958	0.0160242
656.036	0.0161758
656.114	0.0160981
656.192	0.0161427
656.271	0.0160904
656.349	0.0160510
656.427	0.0160505
656.505	0.0162068
656.583	0.0160500
656.661	0.0161344
656.739	0.0161349
656.817	0.0160707
656.896	0.0161252
656.974	0.0160022
657.052	0.0160398
657.130	0.0161581
657.208	0.0160844
657.286	0.0162001
657.364	0.0161882
657.442	0.0161584
657.521	0.0160304
657.599	0.0160995
657.677	0.0161462
657.755	0.0162052
657.833	0.0161278
657.911	0.0162060
657.989	0.0161352
658.067	0.0161699
658.146	0.0161076
658.224	0.0160590
658.302	0.0160781
658.380	0.0160226
658.458	0.0162582
658.536	0.0161454
658.614	0.0161549
658.692	0.0161583
658.771	0.0160580
658.849	0.0160912
658.927	0.0160012
659.005	0.0159361
659.083	0.0162186
659.161	0.0160561
659.239	0.0161851
659.317	0.0161792
659.396	0.0160718
659.474	0.0160706
659.552	0.0160892
659.630	0.0160321
659.708	0.0161534
659.786	0.0161388
659.864	0.0160895
659.942	0.0161961
660.021	0.0161312
660.099	0.0160072
660.177	0.0160497
660.255	0.0160859
660.333	0.0162041
660.411	0.0161407
660.489	0.0160973
660.567	0.0162323
660.646	0.0161505
660.724	0.0161008
660.802	0.0160860
660.880	0.0160526
660.958	0.0160458
661.036	0.0161466
661.114	0.0160172
661.192	0.0161671
661.271	0.0162008
661.349	0.0161079
661.427	0.0160199
661.505	0.0159608
661.583	0.0160294
661.661	0.0162656
661.739	0.0161265
661.817	0.0160645
661.896	0.0161007
661.974	0.0161048
662.052	0.0161332
662.130	0.0161922
662.208	0.0160921
662.286	0.0160886
662.364	0.0161905
662.442	0.0161192
662.521	0.0160955
662.599	0.0162683
662.677	0.0160593
662.755	0.0161282
662.833	0.0161543
662.911	0.0161173
662.989	0.0162157
663.067	0.0162000
663.146	0.0163187
663.224	0.0161429
663.302	0.0160530
663.380	0.0161584
663.458	0.0161006
663.536	0.0159802
663.614	0.0159765
663.692	0.0161940
663.771	0.0161606
663.849	0.0161785
663.927	0.0161321
664.005	0.0161314
664.083	0.0161043
664.161	0.0160629
664.239	0.0160454
664.317	0.0161809
664.396	0.0162203
664.474	0.0161248
664.552	0.0161248
664.630	0.0161674
664.708	0.0159043
664.786	0.0161118
664.864	0.0160543
664.942	0.0160522
665.021	0.0162344
665.099	0.0160690
665.177	0.0161615
665.255	0.0162691
665.333	0.0162410
665.411	0.0161300
665.489	0.0160558
665.567	0.0160516
665.646	0.0160456
665.724	0.0160873
665.802	0.0161731
665.880	0.0160873
665.958	0.0161253
666.036	0.0161240
666.114	0.0162304
666.192	0.0160715
666.271	0.0159693
666.349	0.0160951
666.427	0.0162221
666.505	0.0160692
666.583	0.0161810
666.661	0.0163248
666.739	0.0161409
666.817	0.0160577
666.896	0.0160044
666.974	0.0161147
667.052	0.0159715
667.130	0.0159362
667.208	0.0160424
667.286	0.0162313
667.364	0.0161644
667.442	0.0160529
667.521	0.0160889
667.599	0.0162049
667.677	0.0161669
667.755	0.0160861
667.833	0.0162113
667.911	0.0162071
667.989	0.0160419
668.067	0.0161585
668.146	0.0161002
668.224	0.0160667
668.302	0.0163206
668.380	0.0162129
668.458	0.0161388
668.536	0.0160960
668.614	0.0161549
668.692	0.0161412
668.771	0.0160686
668.849	0.0161302
668.927	0.0162193
669.005	0.0161615
669.083	0.0162175
669.161	0.0161745
669.239	0.0161655
669.317	0.0160059
669.396	0.0160680
669.474	0.0161087
669.552	0.0160349
669.630	0.0161648
669.708	0.0161467
669.786	0.0160654
669.864	0.0161008
669.942	0.0160632
670.021	0.0160842
670.099	0.0162418
670.177	0.0162730
670.255	0.0162350
670.333	0.0162171
670.411	0.0160469
670.489	0.0161538
670.567	0.0160722
670.646	0.0160835
670.724	0.0161469
670.802	0.0161182
670.880	0.0159969
670.958	0.0160834
671.036	0.0161802
671.114	0.0161539
671.192	0.0162502
671.271	0.0162598
671.349	0.0161617
671.427	0.0162372
671.505	0.0161201
671.583	0.0160909
671.661	0.0161330
671.739	0.0160972
671.817	0.0160907
671.896	0.0161971
671.974	0.0161026
672.052	0.0161136
672.130	0.0161794
672.208	0.0161802
672.286	0.0161639
672.364	0.0161406
672.442	0.0161438
672.521	0.0162692
672.599	0.0161800
672.677	0.0160692
672.755	0.0161868
672.833	0.0163150
672.911	0.0161424
672.989	0.0161073
673.067	0.0162105
673.146	0.0161697
673.224	0.0160783
673.302	0.0160971
673.380	0.0161520
673.458	0.0162394
673.536	0.0162076
673.614	0.0160658
673.692	0.0160722
673.771	0.0161547
673.849	0.0161677
673.927	0.0160611
674.005	0.0161389
674.083	0.0161951
674.161	0.0160702
674.239	0.0161472
674.317	0.0162079
674.396	0.0161319
674.474	0.0160051
674.552	0.0160533
674.630	0.0160427
674.708	0.0160605
674.786	0.0161629
674.864	0.0161826
674.942	0.0161314
675.021	0.0160709
675.099	0.0161594
675.177	0.0161658
675.255	0.0159223
675.333	0.0161382
675.411	0.0162027
675.489	0.0162136
675.567	0.0162389
675.646	0.0160394
675.724	0.0161175
675.802	0.0162019
675.880	0.0162724
675.958	0.0162039
676.036	0.0160606
676.114	0.0160806
676.192	0.0162156
676.271	0.0162169
676.349	0.0162734
676.427	0.0160038
676.505	0.0160767
676.583	0.0162251
676.661	0.0161665
676.739	0.0161127
676.817	0.0161451
676.896	0.0160556
676.974	0.0161257
677.052	0.0161397
677.130	0.0160176
677.208	0.0160707
677.286	0.0162154
677.364	0.0160387
677.442	0.0160378
677.521	0.0161887
677.599	0.0162733
677.677	0.0161816
677.755	0.0160455
677.833	0.0159991
677.911	0.0160085
677.989	0.0160744
678.067	0.0162054
678.146	0.0160824
678.224	0.0161132
678.302	0.0161579
678.380	0.0160172
678.458	0.0161653
678.536	0.0161618
678.614	0.0161734
678.692	0.0161083
678.771	0.0162064
678.849	0.0161909
678.927	0.0161675
679.005	0.0161488
679.083	0.0161284
679.161	0.0160725
679.239	0.0160485
679.317	0.0159858
679.396	0.0160184
679.474	0.0160468
679.552	0.0159940
679.630	0.0159817
679.708	0.0162514
679.786	0.0160205
679.864	0.0159573
679.942	0.0160176
680.021	0.0161716
680.099	0.0160270
680.177	0.0160801
680.255	0.0161817
680.333	0.0162217
680.411	0.0161424
680.489	0.0160458
680.567	0.0160995
680.646	0.0161243
680.724	0.0161314
680.802	0.0161108
680.880	0.0161668
680.958	0.0162096
681.036	0.0160604
681.114	0.0161189
681.192	0.0161050
681.271	0.0160255
681.349	0.0161674
681.427	0.0162272
681.505	0.0161597
681.583	0.0161520
681.661	0.0161766
681.739	0.0161907
681.817	0.0161946
681.896	0.0162058
681.974	0.0160277
682.052	0.0161591
682.130	0.0160350
682.208	0.0159948
682.286	0.0161350
682.364	0.0161942
682.442	0.0160971
682.521	0.0162731
682.599	0.0161103
682.677	0.0160664
682.755	0.0162317
682.833	0.0162522
682.911	0.0161043
682.989	0.0161071
683.067	0.0161929
683.146	0.0161342
683.224	0.0161227
683.302	0.0161858
683.380	0.0161152
683.458	0.0161342
683.536	0.0160674
683.614	0.0160069
683.692	0.0161521
683.771	0.0163408
683.849	0.0160756
683.927	0.0161650
684.005	0.0161686
684.083	0.0162412
684.161	0.0162341
684.239	0.0162840
684.317	0.0162942
684.396	0.0163061
684.474	0.0162261
684.552	0.0160571
684.630	0.0162462
684.708	0.0162189
684.786	0.0161981
684.864	0.0160188
684.942	0.0160458
685.021	0.0160389
685.099	0.0158844
685.177	0.0159551
685.255	0.0160218
685.333	0.0161704
685.411	0.0163251
685.489	0.0162700
685.567	0.0163573
685.646	0.0164080
685.724	0.0164805
685.802	0.0166426
685.880	0.0165678
685.958	0.0164995
686.036	0.0163185
686.114	0.0162354
686.192	0.0161387
686.271	0.0159534
686.349	0.0157626
686.427	0.0156856
686.505	0.0158178
686.583	0.0157594
686.661	0.0155910
686.739	0.0157711
686.817	0.0158048
686.896	0.0160755
686.974	0.0162455
687.052	0.0164109
687.130	0.0167817
687.208	0.0167953
687.286	0.0171301
687.364	0.0170364
687.442	0.0168606
687.521	0.0167107
687.599	0.0164500
687.677	0.0161646
687.755	0.0157365
687.833	0.0156266
687.911	0.0154082
687.989	0.0152197
688.067	0.0152193
688.146	0.0151657
688.224	0.0154186
688.302	0.0156178
688.380	0.0158208
688.458	0.0161346
688.536	0.0164054
688.614	0.0167425
688.692	0.0169775
688.771	0.0170364
688.849	0.0172221
688.927	0.0169815
689.005	0.0168975
689.083	0.0164685
689.161	0.0161456
689.239	0.0157816
689.317	0.0155261
689.396	0.0153239
689.474	0.0150951
689.552	0.0151463
689.630	0.0152919
689.708	0.0153912
689.786	0.0156695
689.864	0.0157876
689.942	0.0159991
690.021	0.0162429
690.099	0.0163752
690.177	0.0165679
690.255	0.0165849
690.333	0.0167898
690.411	0.0167319
690.489	0.0168975
690.567	0.0165833
690.646	0.0165866
690.724	0.0164454
690.802	0.0161265
690.880	0.0159429
690.958	0.0158075
691.036	0.0156804
691.114	0.0153508
691.192	0.0154444
691.271	0.0155804
691.349	0.0156303
691.427	0.0156384
691.505	0.0159365
691.583	0.0160773
691.661	0.0162321
691.739	0.0165118
691.817	0.0166965
691.896	0.0168249
691.974	0.0167136
692.052	0.0167612
692.130	0.0164789
692.208	0.0166533
692.286	0.0163598
692.364	0.0159515
692.442	0.0158681
692.521	0.0156179
692.599	0.0156441
692.677	0.0156556
692.755	0.0156466
692.833	0.0157332
692.911	0.0158330
692.989	0.0161330
693.067	0.0162939
693.146	0.0163554
693.224	0.0163024
693.302	0.0162019
693.380	0.0162410
693.458	0.0163020
693.536	0.0163039
693.614	0.0161325
693.692	0.0160555
693.771	0.0162385
693.849	0.0161562
693.927	0.0162012
694.005	0.0161317
694.083	0.0161259
694.161	0.0163516
694.239	0.0162514
694.317	0.0162128
694.396	0.0162024
694.474	0.0161328
694.552	0.0160387
694.630	0.0160166
694.708	0.0159012
694.786	0.0156790
694.864	0.0157159
694.942	0.0157996
695.021	0.0156182
695.099	0.0156058
695.177	0.0159597
695.255	0.0160188
695.333	0.0160201
695.411	0.0163662
695.489	0.0164860
695.567	0.0166044
695.646	0.0165511
695.724	0.0166312
695.802	0.0165894
695.880	0.0165557
695.958	0.0164473
696.036	0.0162822
696.114	0.0161903
696.192	0.0160394
696.271	0.0158908
696.349	0.0159357
696.427	0.0159142
696.505	0.0160088
696.583	0.0160270
696.661	0.0162305
696.739	0.0163144
696.817	0.0163984
696.896	0.0165138
696.974	0.0165463
697.052	0.0165514
697.130	0.0165324
697.208	0.0165250
697.286	0.0163733
697.364	0.0162254
697.442	0.0162128
697.521	0.0160515
697.599	0.0159396
697.677	0.0158558
697.755	0.0159505
697.833	0.0156664
697.911	0.0156368
697.989	0.0156581
698.067	0.0156161
698.146	0.0155437
698.224	0.0157699
698.302	0.0157330
698.380	0.0158040
698.458	0.0157276
698.536	0.0157684
698.614	0.0158251
698.692	0.0159887
698.771	0.0158958
698.849	0.0158365
698.927	0.0158727
699.005	0.0159650
699.083	0.0161026
699.161	0.0162254
699.239	0.0161491
699.317	0.0164246
699.396	0.0165603
699.474	0.0166473
699.552	0.0168223
699.630	0.0169106
699.708	0.0168553
699.786	0.0167439
699.864	0.0166994
699.942	0.0166099
700.021	0.0165326
700.099	0.0163358
700.177	0.0162785
700.255	0.0162752
700.333	0.0160755
700.411	0.0160032
700.489	0.0160894
700.567	0.0161531
700.646	0.0162488
700.724	0.0163122
700.802	0.0162507
700.880	0.0163629
700.958	0.0166456
701.036	0.0166416
701.114	0.0166673
701.192	0.0168713
701.271	0.0168776
701.349	0.0169002
701.427	0.0168143
701.505	0.0168089
701.583	0.0165556
701.661	0.0166337
701.739	0.0165110
701.817	0.0165108
701.896	0.0162521
701.974	0.0162788
702.052	0.0162769
702.130	0.0162943
702.208	0.0159787
702.286	0.0159126
702.364	0.0157733
702.442	0.0155183
702.521	0.0151708
702.599	0.0150639
702.677	0.0149052
702.755	0.0147061
702.833	0.0146149
702.911	0.0144968
702.989	0.0142039
703.067	0.0143611
703.146	0.0144266
703.224	0.0145374
703.302	0.0146774
703.380	0.0148752
703.458	0.0151230
703.536	0.0154477
703.614	0.0156689
703.692	0.0161272
703.771	0.0163869
703.849	0.0167359
703.927	0.0171161
704.005	0.0173114
704.083	0.0176194
704.161	0.0175538
704.239	0.0177682
704.317	0.0176240
704.396	0.0176096
704.474	0.0176778
704.552	0.0175001
704.630	0.0174213
704.708	0.0175296
704.786	0.0174188
704.864	0.0174571
704.942	0.0174435
705.021	0.0175850
705.099	0.0174899
705.177	0.0174919
705.255	0.0173577
705.333	0.0173405
705.411	0.0172797
705.489	0.0170080
705.567	0.0166280
705.646	0.0164455
705.724	0.0161041
705.802	0.0157608
705.880	0.0153439
705.958	0.0150432
706.036	0.0147881
706.114	0.0145640
706.192	0.0144249
706.271	0.0142793
706.349	0.0143112
706.427	0.0146115
706.505	0.0147728
706.583	0.0151138
706.661	0.0156194
706.739	0.0160262
706.817	0.0164814
706.896	0.0169860
706.974	0.0173490
707.052	0.0174474
707.130	0.0178114
707.208	0.0178089
707.286	0.0177306
707.364	0.0176091
707.442	0.0173869
707.521	0.0169861
707.599	0.0163240
707.677	0.0158328
707.755	0.0151442
707.833	0.0143633
707.911	0.0137904
707.989	0.0131059
708.067	0.0125573
708.146	0.0120435
708.224	0.0118382
708.302	0.0117068
708.380	0.0115965
708.458	0.0117315
708.536	0.0119361
708.614	0.0124215
708.692	0.0129755
708.771	0.0138382
708.849	0.0146913
708.927	0.0153654
709.005	0.0161967
709.083	0.0172604
709.161	0.0181250
709.239	0.0189721
709.317	0.0197779
709.396	0.0206217
709.474	0.0211151
709.552	0.0214066
709.630	0.0217894
709.708	0.0219730
709.786	0.0218621
709.864	0.0218835
709.942	0.0214752
710.021	0.0212032
710.099	0.0207433
710.177	0.0201959
710.255	0.0196360
710.333	0.0189697
710.411	0.0182782
710.489	0.0176393
710.567	0.0169661
710.646	0.0164845
710.724	0.0158829
710.802	0.0152294
710.880	0.0149368
710.958	0.0145565
711.036	0.0140782
711.114	0.0137097
711.192	0.0132803
711.271	0.0128252
711.349	0.0125928
711.427	0.0123606
711.505	0.0122717
711.583	0.0122162
711.661	0.0122643
711.739	0.0122688
711.817	0.0126456
711.896	0.0129025
711.974	0.0134000
712.052	0.0140525
712.130	0.0145502
712.208	0.0152489
712.286	0.0160090
712.364	0.0166342
712.442	0.0172268
712.521	0.0174313
712.599	0.0179090
712.677	0.0178968
712.755	0.0179939
712.833	0.0177380
712.911	0.0173562
712.989	0.0168041
713.067	0.0159929
713.146	0.0152022
713.224	0.0143787
713.302	0.0135260
713.380	0.0124773
713.458	0.0118297
713.536	0.0111217
713.614	0.0106475
713.692	0.0105428
713.771	0.0104016
713.849	0.0106358
713.927	0.0110966
714.005	0.0117857
714.083	0.0125520
714.161	0.0136620
714.239	0.0146928
714.317	0.0160485
714.396	0.0173557
714.474	0.0186053
714.552	0.0198608
714.630	0.0210683
714.708	0.0220956
714.786	0.0229147
714.864	0.0234924
714.942	0.0241622
715.021	0.0243993
715.099	0.0245631
715.177	0.0243199
715.255	0.0242094
715.333	0.0240190
715.411	0.0233871
715.489	0.0226859
715.567	0.0221927
715.646	0.0215327
715.724	0.0206438
715.802	0.0197992
715.880	0.0189252
715.958	0.0182156
716.036	0.0174514
716.114	0.0165490
716.192	0.0157629
716.271	0.0151087
716.349	0.0145724
716.427	0.0139618
716.505	0.0134713
716.583	0.0131805
716.661	0.0130100
716.739	0.0129248
716.817	0.0128376
716.896	0.0130344
716.974	0.0132171
717.052	0.0135596
717.130	0.0136997
717.208	0.0138752
717.286	0.0140701
717.364	0.0139338
717.442	0.0136882
717.521	0.0132041
717.599	0.0125980
717.677	0.0117781
717.755	0.0108676
717.833	0.00989777
717.911	0.00856033
717.989	0.00739090
718.067	0.00623711
718.146	0.00535957
718.224	0.00448235
718.302	0.00391823
718.380	0.00362549
718.458	0.00382698
718.536	0.00441780
718.614	0.00543694
718.692	0.00669632
718.771	0.00850403
718.849	0.0106558
718.927	0.0129469
719.005	0.0152365
719.083	0.0178795
719.161	0.0201883
719.239	0.0226057
719.317	0.0249254
719.396	0.0266621
719.474	0.0284550
719.552	0.0298964
719.630	0.0310809
719.708	0.0318130
719.786	0.0322935
719.864	0.0323057
719.942	0.0321951
720.021	0.0316360
720.099	0.0309463
720.177	0.0300069
720.255	0.0288680
720.333	0.0273725
720.411	0.0258619
720.489	0.0244151
720.567	0.0227428
720.646	0.0208103
720.724	0.0191914
720.802	0.0179522
720.880	0.0163394
720.958	0.0150385
721.036	0.0139151
721.114	0.0128848
721.192	0.0121441
721.271	0.0117024
721.349	0.0114363
721.427	0.0110161
721.505	0.0107964
721.583	0.0105467
721.661	0.0105940
721.739	0.0104490
721.817	0.0102359
721.896	0.00991028
721.974	0.00959015
722.052	0.00931938
722.130	0.00888824
722.208	0.00842331
722.286	0.00789894
722.364	0.00739388
722.442	0.00697754
722.521	0.00657097
722.599	0.00618034
722.677	0.00599846
722.755	0.00559959
722.833	0.00575417
722.911	0.00603546
722.989	0.00644356
723.067	0.00715721
723.146	0.00805046
723.224	0.00929161
723.302	0.0106174
723.380	0.0119463
723.458	0.0135014
723.536	0.0153479
723.614	0.0170031
723.692	0.0188633
723.771	0.0204219
723.849	0.0222351
723.927	0.0234911
724.005	0.0247253
724.083	0.0258790
724.161	0.0268745
724.239	0.0272890
724.317	0.0277302
724.396	0.0278909
724.474	0.0277956
724.552	0.0272958
724.630	0.0267153
724.708	0.0259419
724.786	0.0251308
724.864	0.0242576
724.942	0.0233440
725.021	0.0221677
725.099	0.0211295
725.177	0.0203314
725.255	0.0193892
725.333	0.0184636
725.411	0.0177410
725.489	0.0169873
725.567	0.0163739
725.646	0.0158303
725.724	0.0154575
725.802	0.0149532
725.880	0.0145969
725.958	0.0142034
726.036	0.0139899
726.114	0.0138347
726.192	0.0133497
726.271	0.0132621
726.349	0.0131725
726.427	0.0129230
726.505	0.0126340
726.583	0.0123004
726.661	0.0120127
726.739	0.0116818
726.817	0.0113207
726.896	0.0110986
726.974	0.0107576
727.052	0.0103222
727.130	0.00993340
727.208	0.00986420
727.286	0.00984505
727.364	0.00982498
727.442	0.00979080
727.521	0.0102410
727.599	0.0105450
727.677	0.0111053
727.755	0.0118838
727.833	0.0126762
727.911	0.0135670
727.989	0.0145982
728.067	0.0152978
728.146	0.0160708
728.224	0.0169561
728.302	0.0176753
728.380	0.0183527
728.458	0.0186975
728.536	0.0191311
728.614	0.0195580
728.692	0.0197083
728.771	0.0199058
728.849	0.0201456
728.927	0.0203677
729.005	0.0201936
729.083	0.0200661
729.161	0.0200270
729.239	0.0198876
729.317	0.0199794
729.396	0.0198219
729.474	0.0196879
729.552	0.0196115
729.630	0.0196304
729.708	0.0194283
729.786	0.0193761
729.864	0.0192452
729.942	0.0191838
730.021	0.0190549
730.099	0.0188400
730.177	0.0184295
730.255	0.0183065
730.333	0.0179855
730.411	0.0176696
730.489	0.0172908
730.567	0.0170689
730.646	0.0164821
730.724	0.0161679
730.802	0.0158148
730.880	0.0153975
730.958	0.0150645
731.036	0.0147367
731.114	0.0143750
731.192	0.0139243
731.271	0.0136247
731.349	0.0132798
731.427	0.0128833
731.505	0.0126653
731.583	0.0122326
731.661	0.0118470
731.739	0.0117207
731.817	0.0115369
731.896	0.0113919
731.974	0.0114193
732.052	0.0114837
732.130	0.0115575
732.208	0.0118483
732.286	0.0123163
732.364	0.0125214
732.442	0.0131776
732.521	0.0137159
732.599	0.0143501
732.677	0.0147779
732.755	0.0154151
732.833	0.0159862
732.911	0.0166600
732.989	0.0170480
733.067	0.0175119
733.146	0.0180066
733.224	0.0183316
733.302	0.0187903
733.380	0.0191000
733.458	0.0194600
733.536	0.0195115
733.614	0.0196346
733.692	0.0198036
733.771	0.0197459
733.849	0.0196371
733.927	0.0194666
734.005	0.0193855
734.083	0.0193502
734.161	0.0190552
734.239	0.0188985
734.317	0.0189018
734.396	0.0186860
734.474	0.0185584
734.552	0.0186045
734.630	0.0184962
734.708	0.0185956
734.786	0.0184462
734.864	0.0185027
734.942	0.0184344
735.021	0.0183920
735.099	0.0179626
735.177	0.0178740
735.255	0.0174694
735.333	0.0172019
735.411	0.0168873
735.489	0.0162787
735.567	0.0160751
735.646	0.0152788
735.724	0.0149133
735.802	0.0145000
735.880	0.0140170
735.958	0.0135185
736.036	0.0132907
736.114	0.0129062
736.192	0.0127254
736.271	0.0124751
736.349	0.0124189
736.427	0.0123072
736.505	0.0119558
736.583	0.0120238
736.661	0.0121275
736.739	0.0120752
736.817	0.0122851
736.896	0.0124051
736.974	0.0125640
737.052	0.0129731
737.130	0.0133277
737.208	0.0135101
737.286	0.0136767
737.364	0.0142132
737.442	0.0147243
737.521	0.0152068
737.599	0.0154934
737.677	0.0158179
737.755	0.0159320
737.833	0.0164227
737.911	0.0167678
737.989	0.0171539
738.067	0.0174647
738.146	0.0178081
738.224	0.0180391
738.302	0.0183391
738.380	0.0186247
738.458	0.0188225
738.536	0.0189190
738.614	0.0191169
738.692	0.0190800
738.771	0.0190723
738.849	0.0192466
738.927	0.0192231
739.005	0.0190162
739.083	0.0190736
739.161	0.0189354
739.239	0.0188204
739.317	0.0188452
739.396	0.0186169
739.474	0.0184610
739.552	0.0183572
739.630	0.0180792
739.708	0.0178394
739.786	0.0177071
739.864	0.0173319
739.942	0.0169929
740.021	0.0168478
740.099	0.0166584
740.177	0.0161728
740.255	0.0159560
740.333	0.0156838
740.411	0.0154314
740.489	0.0152325
740.567	0.0151382
740.646	0.0147785
740.724	0.0145970
740.802	0.0145052
740.880	0.0143932
740.958	0.0141966
741.036	0.0140217
741.114	0.0141085
741.192	0.0139516
741.271	0.0139359
741.349	0.0140273
741.427	0.0141196
741.505	0.0140456
741.583	0.0142114
741.661	0.0142686
741.739	0.0145476
741.817	0.0147124
741.896	0.0147355
741.974	0.0149277
742.052	0.0152141
742.130	0.0151841
742.208	0.0153788
742.286	0.0155483
742.364	0.0156294
742.442	0.0154974
742.521	0.0157108
742.599	0.0156706
742.677	0.0156237
742.755	0.0156442
742.833	0.0155894
742.911	0.0155464
742.989	0.0155785
743.067	0.0159262
743.146	0.0159340
743.224	0.0159993
743.302	0.0161923
743.380	0.0166773
743.458	0.0169572
743.536	0.0172007
743.614	0.0176939
743.692	0.0179128
743.771	0.0182288
743.849	0.0183053
743.927	0.0185373
744.005	0.0186449
744.083	0.0186603
744.161	0.0185632
744.239	0.0185703
744.317	0.0183167
744.396	0.0180894
744.474	0.0177680
744.552	0.0174829
744.630	0.0173096
744.708	0.0169254
744.786	0.0165879
744.864	0.0163572
744.942	0.0161476
745.021	0.0157092
745.099	0.0154910
745.177	0.0151855
745.255	0.0150640
745.333	0.0148807
745.411	0.0147656
745.489	0.0145330
745.567	0.0145124
745.646	0.0143965
745.724	0.0143366
745.802	0.0142679
745.880	0.0141673
745.958	0.0141676
746.036	0.0142186
746.114	0.0143785
746.192	0.0142616
746.271	0.0144927
746.349	0.0147339
746.427	0.0148853
746.505	0.0150751
746.583	0.0153339
746.661	0.0157006
746.739	0.0159299
746.817	0.0161365
746.896	0.0164796
746.974	0.0168193
747.052	0.0169415
747.130	0.0172751
747.208	0.0173287
747.286	0.0174575
747.364	0.0175505
747.442	0.0176039
747.521	0.0174242
747.599	0.0173625
747.677	0.0172470
747.755	0.0170119
747.833	0.0169403
747.911	0.0167644
747.989	0.0167500
748.067	0.0165853
748.146	0.0163543
748.224	0.0164131
748.302	0.0164601
748.380	0.0164656
748.458	0.0164783
748.536	0.0165344
748.614	0.0166332
748.692	0.0165855
748.771	0.0168176
748.849	0.0167809
748.927	0.0166457
749.005	0.0166374
749.083	0.0165708
749.161	0.0163782
749.239	0.0162593
749.317	0.0161169
749.396	0.0159803
749.474	0.0157925
749.552	0.0154706
749.630	0.0153786
749.708	0.0151987
749.786	0.0149985
749.864	0.0150162
749.942	0.0150150
750.021	0.0149083
750.099	0.0150046
750.177	0.0150174
750.255	0.0150198
750.333	0.0149475
750.411	0.0148493
750.489	0.0149628
750.567	0.0151795
750.646	0.0150050
750.724	0.0152017
750.802	0.0153139
750.880	0.0154699
750.958	0.0156612
751.036	0.0157536
751.114	0.0161713
751.192	0.0162621
751.271	0.0165213
751.349	0.0167146
751.427	0.0168819
751.505	0.0170248
751.583	0.0170977
751.661	0.0172133
751.739	0.0173634
751.817	0.0173736
751.896	0.0174874
751.974	0.0173736
752.052	0.0174246
752.130	0.0171934
752.208	0.0172957
752.286	0.0170120
752.364	0.0168604
752.442	0.0167556
752.521	0.0166277
752.599	0.0165095
752.677	0.0162797
752.755	0.0163444
752.833	0.0161694
752.911	0.0160732
752.989	0.0161547
753.067	0.0159601
753.146	0.0158738
753.224	0.0159441
753.302	0.0158627
753.380	0.0155556
753.458	0.0155027
753.536	0.0154536
753.614	0.0154488
753.692	0.0154186
753.771	0.0154858
753.849	0.0153719
753.927	0.0154264
754.005	0.0155124
754.083	0.0154461
754.161	0.0154916
754.239	0.0156259
754.317	0.0157621
754.396	0.0157838
754.474	0.0158434
754.552	0.0158548
754.630	0.0159130
754.708	0.0161016
754.786	0.0160776
754.864	0.0159460
754.942	0.0160152
755.021	0.0160269
755.099	0.0161042
755.177	0.0160739
755.255	0.0159703
755.333	0.0159939
755.411	0.0160053
755.489	0.0160049
755.567	0.0159948
755.646	0.0160603
755.724	0.0163059
755.802	0.0163939
755.880	0.0163620
755.958	0.0166994
756.036	0.0168369
756.114	0.0168951
756.192	0.0168910
756.271	0.0170719
756.349	0.0171822
756.427	0.0171951
756.505	0.0171653
756.583	0.0173161
756.661	0.0172913
756.739	0.0172002
756.817	0.0170702
756.896	0.0170237
756.974	0.0169552
757.052	0.0167316
757.130	0.0166664
757.208	0.0168333
757.286	0.0165338
757.364	0.0164548
757.442	0.0162534
757.521	0.0161495
757.599	0.0162144
757.677	0.0160438
757.755	0.0158644
757.833	0.0157439
757.911	0.0154395
757.989	0.0154969
758.067	0.0152616
758.146	0.0152321
758.224	0.0151089
758.302	0.0151141
758.380	0.0150566
758.458	0.0150692
758.536	0.0149567
758.614	0.0149004
758.692	0.0150750
758.771	0.0151104
758.849	0.0151892
758.927	0.0153785
759.005	0.0152127
759.083	0.0153524
759.161	0.0154813
759.239	0.0156349
759.317	0.0158717
759.396	0.0159517
759.474	0.0158590
759.552	0.0159995
759.630	0.0160787
759.708	0.0162533
759.786	0.0164045
759.864	0.0163512
759.942	0.0162502
760.021	0.0164074
760.099	0.0164296
760.177	0.0165280
760.255	0.0164464
760.333	0.0167020
760.411	0.0166612
760.489	0.0166451
760.567	0.0167046
760.646	0.0167025
760.724	0.0166725
760.802	0.0169708
760.880	0.0169766
760.958	0.0168037
761.036	0.0169389
761.114	0.0169940
761.192	0.0167490
761.271	0.0168153
761.349	0.0166823
761.427	0.0166473
761.505	0.0164741
761.583	0.0163425
761.661	0.0160774
761.739	0.0161031
761.817	0.0160448
761.896	0.0159877
761.974	0.0157232
762.052	0.0157103
762.130	0.0155960
762.208	0.0158071
762.286	0.0158057
762.364	0.0156770
762.442	0.0157236
762.521	0.0157789
762.599	0.0157688
762.677	0.0157271
762.755	0.0157582
762.833	0.0157475
762.911	0.0159815
762.989	0.0158997
763.067	0.0158503
763.146	0.0158823
763.224	0.0159792
763.302	0.0161007
763.380	0.0161618
763.458	0.0160590
763.536	0.0162138
763.614	0.0161400
763.692	0.0162772
763.771	0.0163761
763.849	0.0163438
763.927	0.0164918
764.005	0.0164640
764.083	0.0164685
764.161	0.0165870
764.239	0.0166256
764.317	0.0165676
764.396	0.0163426
764.474	0.0165377
764.552	0.0165482
764.630	0.0164768
764.708	0.0165049
764.786	0.0165221
764.864	0.0164708
764.942	0.0164287
765.021	0.0163534
765.099	0.0163713
765.177	0.0161201
765.255	0.0162326
765.333	0.0162532
765.411	0.0160912
765.489	0.0159367
765.567	0.0158799
765.646	0.0157433
765.724	0.0158294
765.802	0.0156889
765.880	0.0154790
765.958	0.0155897
766.036	0.0154813
766.114	0.0153838
766.192	0.0152699
766.271	0.0152052
766.349	0.0151696
766.427	0.0151908
766.505	0.0152442
766.583	0.0152655
766.661	0.0154748
766.739	0.0154746
766.817	0.0156010
766.896	0.0155499
766.974	0.0158393
767.052	0.0158892
767.130	0.0161929
767.208	0.0161050
767.286	0.0160969
767.364	0.0162807
767.442	0.0164498
767.521	0.0163334
767.599	0.0165148
767.677	0.0164954
767.755	0.0164438
767.833	0.0164561
767.911	0.0164719
767.989	0.0164796
768.067	0.0164497
768.146	0.0164759
768.224	0.0164075
768.302	0.0163646
768.380	0.0164642
768.458	0.0164841
768.536	0.0164043
768.614	0.0164099
768.692	0.0164927
768.771	0.0164567
768.849	0.0164981
768.927	0.0165817
769.005	0.0164211
769.083	0.0165244
769.161	0.0165742
769.239	0.0165546
769.317	0.0165623
769.396	0.0166753
769.474	0.0166564
769.552	0.0166084
769.630	0.0164655
769.708	0.0165295
769.786	0.0166247
769.864	0.0164433
769.942	0.0163700
770.021	0.0164349
770.099	0.0163342
770.177	0.0162389
770.255	0.0161488
770.333	0.0161573
770.411	0.0159851
770.489	0.0158430
770.567	0.0158189
770.646	0.0157409
770.724	0.0156118
770.802	0.0155386
770.880	0.0156346
770.958	0.0154500
771.036	0.0154320
771.114	0.0155253
771.192	0.0153673
771.271	0.0153409
771.349	0.0155331
771.427	0.0155479
771.505	0.0155749
771.583	0.0155453
771.661	0.0156410
771.739	0.0157812
771.817	0.0157806
771.896	0.0158740
771.974	0.0159589
772.052	0.0158748
772.130	0.0159174
772.208	0.0160138
772.286	0.0159607
772.364	0.0158463
772.442	0.0160650
772.521	0.0162050
772.599	0.0160551
772.677	0.0160338
772.755	0.0160841
772.833	0.0161735
772.911	0.0162010
772.989	0.0161362
773.067	0.0162695
773.146	0.0162351
773.224	0.0162484
773.302	0.0163992
773.380	0.0163773
773.458	0.0164494
773.536	0.0164269
773.614	0.0164819
773.692	0.0167143
773.771	0.0165861
773.849	0.0167051
773.927	0.0168063
774.005	0.0167052
774.083	0.0167670
774.161	0.0168385
774.239	0.0167302
774.317	0.0166726
774.396	0.0164480
774.474	0.0165221
774.552	0.0164644
774.630	0.0164317
774.708	0.0163263
774.786	0.0162256
774.864	0.0160859
774.942	0.0160336
775.021	0.0160271
775.099	0.0160077
775.177	0.0157872
775.255	0.0156532
775.333	0.0155578
775.411	0.0155630
775.489	0.0155358
775.567	0.0155321
775.646	0.0153814
775.724	0.0154605
775.802	0.0151780
775.880	0.0154374
775.958	0.0155163
776.036	0.0153689
776.114	0.0155819
776.192	0.0157128
776.271	0.0158797
776.349	0.0159408
776.427	0.0161409
776.505	0.0160942
776.583	0.0162093
776.661	0.0164505
776.739	0.0165651
776.817	0.0163897
776.896	0.0164870
776.974	0.0164594
777.052	0.0164509
777.130	0.0164817
777.208	0.0164930
777.286	0.0165018
777.364	0.0162485
777.442	0.0164369
777.521	0.0162810
777.599	0.0162811
777.677	0.0162894
777.755	0.0164008
777.833	0.0163835
777.911	0.0164400
777.989	0.0163995
778.067	0.0164307
778.146	0.0163573
778.224	0.0164714
778.302	0.0165334
778.380	0.0162495
778.458	0.0163291
778.536	0.0163105
778.614	0.0162502
778.692	0.0162949
778.771	0.0161885
778.849	0.0161358
778.927	0.0162048
779.005	0.0160311
779.083	0.0160393
779.161	0.0159795
779.239	0.0159493
779.317	0.0158960
779.396	0.0156853
779.474	0.0158888
779.552	0.0158666
779.630	0.0156361
779.708	0.0156560
779.786	0.0158828
779.864	0.0159241
779.942	0.0159769
780.021	0.0159797
780.099	0.0159975
780.177	0.0159251
780.255	0.0161018
780.333	0.0160888
780.411	0.0161288
780.489	0.0162931
780.567	0.0164466
780.646	0.0164435
780.724	0.0165768
780.802	0.0165141
780.880	0.0165760
780.958	0.0166403
781.036	0.0166204
781.114	0.0166313
781.192	0.0164966
781.271	0.0164761
781.349	0.0164083
781.427	0.0162615
781.505	0.0160305
781.583	0.0160036
781.661	0.0160905
781.739	0.0158997
781.817	0.0158642
781.896	0.0157327
781.974	0.0156841
782.052	0.0157567
782.130	0.0157168
782.208	0.0155803
782.286	0.0157764
782.364	0.0158333
782.442	0.0158788
782.521	0.0160046
782.599	0.0159219
782.677	0.0161553
782.755	0.0162235
782.833	0.0163203
782.911	0.0165433
782.989	0.0163902
783.067	0.0165815
783.146	0.0165948
783.224	0.0165363
783.302	0.0165230
783.380	0.0165197
783.458	0.0165055
783.536	0.0164675
783.614	0.0162862
783.692	0.0163281
783.771	0.0162238
783.849	0.0160716
783.927	0.0159562
784.005	0.0160834
784.083	0.0160069
784.161	0.0160572
784.239	0.0160061
784.317	0.0161283
784.396	0.0160936
784.474	0.0159376
784.552	0.0161478
784.630	0.0161421
784.708	0.0159624
784.786	0.0161243
784.864	0.0161134
784.942	0.0160653
785.021	0.0161132
785.099	0.0161053
785.177	0.0160441
785.255	0.0160251
785.333	0.0162155
785.411	0.0162405
785.489	0.0160020
785.567	0.0160414
785.646	0.0162434
785.724	0.0162643
785.802	0.0161088
785.880	0.0160657
785.958	0.0161732
786.036	0.0161823
786.114	0.0161534
786.192	0.0163503
786.271	0.0162210
786.349	0.0161308
786.427	0.0161826
786.505	0.0161376
786.583	0.0160994
786.661	0.0162901
786.739	0.0161498
786.817	0.0161442
786.896	0.0162080
786.974	0.0161718
787.052	0.0162058
787.130	0.0162305
787.208	0.0163077
787.286	0.0162476
787.364	0.0162620
787.442	0.0161967
787.521	0.0162586
787.599	0.0161961
787.677	0.0161697
787.755	0.0162067
787.833	0.0159746
787.911	0.0162358
787.989	0.0161671
788.067	0.0159620
788.146	0.0161018
788.224	0.0160915
788.302	0.0161364
788.380	0.0160773
788.458	0.0161433
788.536	0.0160209
788.614	0.0162862
788.692	0.0160490
788.771	0.0160155
788.849	0.0162228
788.927	0.0160585
789.005	0.0160439
789.083	0.0161270
789.161	0.0160896
789.239	0.0160173
789.317	0.0159318
789.396	0.0159539
789.474	0.0158070
789.552	0.0158248
789.630	0.0158278
789.708	0.0159005
789.786	0.0157942
789.864	0.0157388
789.942	0.0157856
790.021	0.0157381
790.099	0.0158520
790.177	0.0158704
790.255	0.0160173
790.333	0.0158876
790.411	0.0160902
790.489	0.0159603
790.567	0.0159502
790.646	0.0160867
790.724	0.0160532
790.802	0.0160652
790.880	0.0160886
790.958	0.0160841
791.036	0.0160585
791.114	0.0161118
791.192	0.0162021
791.271	0.0161470
791.349	0.0160780
791.427	0.0162154
791.505	0.0162128
791.583	0.0161398
791.661	0.0161932
791.739	0.0162065
791.817	0.0162306
791.896	0.0162291
791.974	0.0162894
792.052	0.0164015
792.130	0.0162385
792.208	0.0161833
792.286	0.0161785
792.364	0.0161703
792.442	0.0161825
792.521	0.0162623
792.599	0.0161937
792.677	0.0161475
792.755	0.0162341
792.833	0.0161096
792.911	0.0161504
792.989	0.0162356
793.067	0.0161622
793.146	0.0161658
793.224	0.0162827
793.302	0.0161327
793.380	0.0161052
793.458	0.0162450
793.536	0.0162008
793.614	0.0161134
793.692	0.0161229
793.771	0.0162244
793.849	0.0161993
793.927	0.0160992
794.005	0.0161175
794.083	0.0161243
794.161	0.0161403
794.239	0.0161331
794.317	0.0161002
794.396	0.0159777
794.474	0.0160284
794.552	0.0160128
794.630	0.0160556
794.708	0.0160222
794.786	0.0159348
794.864	0.0159686
794.942	0.0160635
795.021	0.0159647
795.099	0.0160098
795.177	0.0160004
795.255	0.0160802
795.333	0.0159762
795.411	0.0158585
795.489	0.0160203
795.567	0.0160689
795.646	0.0159754
795.724	0.0160394
795.802	0.0161770
795.880	0.0162685
795.958	0.0162180
796.036	0.0162214
796.114	0.0165901
796.192	0.0164787
796.271	0.0164722
796.349	0.0165282
796.427	0.0164375
796.505	0.0164863
796.583	0.0165961
796.661	0.0164601
796.739	0.0164187
796.817	0.0164924
796.896	0.0164140
796.974	0.0163068
797.052	0.0162973
797.130	0.0161040
797.208	0.0160202
797.286	0.0159531
797.364	0.0159010
797.442	0.0157284
797.521	0.0158036
797.599	0.0156667
797.677	0.0155832
797.755	0.0155973
797.833	0.0156814
797.911	0.0155204
797.989	0.0155936
798.067	0.0156636
798.146	0.0156757
798.224	0.0158465
798.302	0.0157822
798.380	0.0159203
798.458	0.0157207
798.536	0.0159414
798.614	0.0160308
798.692	0.0160371
798.771	0.0160388
798.849	0.0162137
798.927	0.0161432
799.005	0.0160403
799.083	0.0161617
799.161	0.0161810
799.239	0.0162258
799.317	0.0161997
799.396	0.0164149
799.474	0.0163940
799.552	0.0163056
799.630	0.0163127
799.708	0.0164014
799.786	0.0164145
799.864	0.0164483
799.942	0.0162621
800.021	0.0164455
800.099	0.0164675
800.177	0.0164521
800.255	0.0165452
800.333	0.0164244
800.411	0.0164401
800.489	0.0165750
800.567	0.0165668
800.646	0.0166286
800.724	0.0166255
800.802	0.0165892
800.880	0.0165798
800.958	0.0164481
801.036	0.0165326
801.114	0.0166208
801.192	0.0165887
801.271	0.0164230
801.349	0.0162424
801.427	0.0161987
801.505	0.0161055
801.583	0.0159544
801.661	0.0159343
801.739	0.0159213
801.817	0.0156823
801.896	0.0158217
801.974	0.0157835
802.052	0.0157003
802.130	0.0156990
802.208	0.0157265
802.286	0.0157180
802.364	0.0155485
802.442	0.0154913
802.521	0.0156845
802.599	0.0156597
802.677	0.0157401
802.755	0.0156911
802.833	0.0157673
802.911	0.0157107
802.989	0.0156828
803.067	0.0157796
803.146	0.0159509
803.224	0.0158753
803.302	0.0158793
803.380	0.0159686
803.458	0.0158769
803.536	0.0160693
803.614	0.0159678
803.692	0.0162001
803.771	0.0160773
803.849	0.0160914
803.927	0.0161756
804.005	0.0161337
804.083	0.0162289
804.161	0.0161893
804.239	0.0164062
804.317	0.0165611
804.396	0.0164143
804.474	0.0163620
804.552	0.0165217
804.630	0.0165627
804.708	0.0165932
804.786	0.0166026
804.864	0.0165976
804.942	0.0166931
805.021	0.0166218
805.099	0.0166181
805.177	0.0166396
805.255	0.0166889
805.333	0.0165695
805.411	0.0164651
805.489	0.0165475
805.567	0.0163602
805.646	0.0163345
805.724	0.0162958
805.802	0.0161954
805.880	0.0161781
805.958	0.0161456
806.036	0.0159550
806.114	0.0158762
806.192	0.0159037
806.271	0.0156667
806.349	0.0156641
806.427	0.0156786
806.505	0.0156084
806.583	0.0156351
806.661	0.0155770
806.739	0.0156483
806.817	0.0155963
806.896	0.0155280
806.974	0.0157945
807.052	0.0158787
807.130	0.0157445
807.208	0.0156599
807.286	0.0158544
807.364	0.0159146
807.442	0.0158727
807.521	0.0160402
807.599	0.0159837
807.677	0.0160683
807.755	0.0162215
807.833	0.0162952
807.911	0.0161990
807.989	0.0162186
808.067	0.0162514
808.146	0.0162236
808.224	0.0162551
808.302	0.0163300
808.380	0.0162013
808.458	0.0163721
808.536	0.0163946
808.614	0.0163932
808.692	0.0163824
808.771	0.0163921
808.849	0.0162802
808.927	0.0163892
809.005	0.0164484
809.083	0.0163800
809.161	0.0162318
809.239	0.0164558
809.317	0.0165177
809.396	0.0163761
809.474	0.0161909
809.552	0.0163273
809.630	0.0162934
809.708	0.0162309
809.786	0.0161290
809.864	0.0161530
809.942	0.0161004
810.021	0.0160217
810.099	0.0159696
810.177	0.0159159
810.255	0.0159415
810.333	0.0159921
810.411	0.0157747
810.489	0.0157021
810.567	0.0157746
810.646	0.0158474
810.724	0.0157985
810.802	0.0158900
810.880	0.0158811
810.958	0.0157832
811.036	0.0159348
811.114	0.0160454
811.192	0.0160237
811.271	0.0159256
811.349	0.0161333
811.427	0.0161772
811.505	0.0161402
811.583	0.0161175
811.661	0.0162906
811.739	0.0163192
811.817	0.0161793
811.896	0.0163486
811.974	0.0164221
812.052	0.0163337
812.130	0.0162454
812.208	0.0164537
812.286	0.0164429
812.364	0.0164319
812.442	0.0165462
812.521	0.0165211
812.599	0.0166227
812.677	0.0165400
812.755	0.0165495
812.833	0.0167326
812.911	0.0166679
812.989	0.0167268
813.067	0.0166025
813.146	0.0166410
813.224	0.0165049
813.302	0.0166215
813.380	0.0165115
813.458	0.0163270
813.536	0.0164590
813.614	0.0164522
813.692	0.0162798
813.771	0.0160774
813.849	0.0160577
813.927	0.0159123
814.005	0.0156382
814.083	0.0156451
814.161	0.0156599
814.239	0.0152594
814.317	0.0151672
814.396	0.0150098
814.474	0.0149590
814.552	0.0148682
814.630	0.0147071
814.708	0.0147403
814.786	0.0147652
814.864	0.0146343
814.942	0.0147362
815.021	0.0147575
815.099	0.0147968
815.177	0.0149300
815.255	0.0150092
815.333	0.0151940
815.411	0.0153609
815.489	0.0154847
815.567	0.0156142
815.646	0.0159155
815.724	0.0159498
815.802	0.0160442
815.880	0.0163213
815.958	0.0166099
816.036	0.0167546
816.114	0.0168507
816.192	0.0170679
816.271	0.0171139
816.349	0.0173518
816.427	0.0174047
816.505	0.0177190
816.583	0.0176843
816.661	0.0177200
816.739	0.0179156
816.817	0.0179195
816.896	0.0176673
816.974	0.0176950
817.052	0.0177657
817.130	0.0177231
817.208	0.0177666
817.286	0.0175430
817.364	0.0172901
817.442	0.0171674
817.521	0.0170518
817.599	0.0169543
817.677	0.0170405
817.755	0.0166644
817.833	0.0165731
817.911	0.0165053
817.989	0.0163255
818.067	0.0160154
818.146	0.0158540
818.224	0.0157793
818.302	0.0155475
818.380	0.0153076
818.458	0.0152355
818.536	0.0150910
818.614	0.0147362
818.692	0.0147698
818.771	0.0145001
818.849	0.0144154
818.927	0.0143926
819.005	0.0142121
819.083	0.0141265
819.161	0.0139574
819.239	0.0142820
819.317	0.0141699
819.396	0.0142747
819.474	0.0145557
819.552	0.0144265
819.630	0.0147167
819.708	0.0148492
819.786	0.0149187
819.864	0.0151168
819.942	0.0153690
820.021	0.0153980
820.099	0.0156622
820.177	0.0158438
820.255	0.0158496
820.333	0.0162546
820.411	0.0162636
820.489	0.0163024
820.567	0.0164391
820.646	0.0166328
820.724	0.0168869
820.802	0.0167468
820.880	0.0168776
820.958	0.0170665
821.036	0.0172326
821.114	0.0171539
821.192	0.0172559
821.271	0.0174563
821.349	0.0174126
821.427	0.0175397
821.505	0.0177642
821.583	0.0175523
821.661	0.0177017
821.739	0.0177856
821.817	0.0177760
821.896	0.0178019
821.974	0.0177253
822.052	0.0177283
822.130	0.0175597
822.208	0.0174040
822.286	0.0171777
822.364	0.0171329
822.442	0.0170499
822.521	0.0167206
822.599	0.0165856
822.677	0.0163317
822.755	0.0162150
822.833	0.0159270
822.911	0.0158394
822.989	0.0155824
823.067	0.0153918
823.146	0.0153417
823.224	0.0151568
823.302	0.0150736
823.380	0.0149475
823.458	0.0148605
823.536	0.0147205
823.614	0.0147538
823.692	0.0146832
823.771	0.0146051
823.849	0.0145147
823.927	0.0144682
824.005	0.0148589
824.083	0.0148818
824.161	0.0148695
824.239	0.0150527
824.317	0.0153249
824.396	0.0154008
824.474	0.0155974
824.552	0.0156937
824.630	0.0158028
824.708	0.0158067
824.786	0.0159055
824.864	0.0160835
824.942	0.0159989
825.021	0.0161269
825.099	0.0161681
825.177	0.0162049
825.255	0.0160839
825.333	0.0164234
825.411	0.0161946
825.489	0.0163606
825.567	0.0165129
825.646	0.0164806
825.724	0.0165456
825.802	0.0168239
825.880	0.0167323
825.958	0.0167793
826.036	0.0169611
826.114	0.0171181
826.192	0.0170889
826.271	0.0170776
826.349	0.0172012
826.427	0.0172130
826.505	0.0172015
826.583	0.0171478
826.661	0.0170526
826.739	0.0169422
826.817	0.0170860
826.896	0.0168642
826.974	0.0167751
827.052	0.0166386
827.130	0.0166502
827.208	0.0165350
827.286	0.0164771
827.364	0.0162805
827.442	0.0162582
827.521	0.0159994
827.599	0.0160725
827.677	0.0159412
827.755	0.0158836
827.833	0.0158802
827.911	0.0157188
827.989	0.0156621
828.067	0.0156324
828.146	0.0154456
828.224	0.0154567
828.302	0.0155064
828.380	0.0153342
828.458	0.0152157
828.536	0.0153720
828.614	0.0155423
828.692	0.0153777
828.771	0.0153838
828.849	0.0155553
828.927	0.0155906
829.005	0.0156991
829.083	0.0158012
829.161	0.0158354
829.239	0.0161092
829.317	0.0160833
829.396	0.0161815
829.474	0.0162927
829.552	0.0162092
829.630	0.0163451
829.708	0.0164688
829.786	0.0164381
829.864	0.0165439
829.942	0.0164385
830.021	0.0164787
830.099	0.0164593
830.177	0.0165486
830.255	0.0164745
830.333	0.0164303
830.411	0.0165999
830.489	0.0164864
830.567	0.0164350
830.646	0.0166289
830.724	0.0166644
830.802	0.0164708
830.880	0.0164865
830.958	0.0165596
831.036	0.0164613
831.114	0.0164698
831.192	0.0165228
831.271	0.0165137
831.349	0.0164476
831.427	0.0162966
831.505	0.0164207
831.583	0.0164092
831.661	0.0163727
831.739	0.0163464
831.817	0.0162098
831.896	0.0161758
831.974	0.0161126
832.052	0.0162602
832.130	0.0160888
832.208	0.0161093
832.286	0.0158562
832.364	0.0159475
832.442	0.0157729
832.521	0.0158531
832.599	0.0158099
832.677	0.0156756
832.755	0.0156564
832.833	0.0156165
832.911	0.0156290
832.989	0.0154503
833.067	0.0157980
833.146	0.0155902
833.224	0.0155882
833.302	0.0157544
833.380	0.0159035
833.458	0.0160984
833.536	0.0161393
833.614	0.0160613
833.692	0.0163164
833.771	0.0163648
833.849	0.0163716
833.927	0.0165289
834.005	0.0165643
834.083	0.0167019
834.161	0.0166683
834.239	0.0164980
834.317	0.0163817
834.396	0.0165253
834.474	0.0165170
834.552	0.0164235
834.630	0.0163740
834.708	0.0162638
834.786	0.0164900
834.864	0.0162486
834.942	0.0162148
835.021	0.0162319
835.099	0.0161726
835.177	0.0161025
835.255	0.0161288
835.333	0.0160972
835.411	0.0160933
835.489	0.0162022
835.567	0.0161346
835.646	0.0161334
835.724	0.0161676
835.802	0.0163513
835.880	0.0163586
835.958	0.0163126
836.036	0.0162666
836.114	0.0162106
836.192	0.0162817
836.271	0.0164295
836.349	0.0163011
836.427	0.0162398
836.505	0.0161164
836.583	0.0160517
836.661	0.0159586
836.739	0.0159159
836.817	0.0158740
836.896	0.0159100
836.974	0.0159027
837.052	0.0157986
837.130	0.0156229
837.208	0.0156364
837.286	0.0157026
837.364	0.0158114
837.442	0.0158500
837.521	0.0158976
837.599	0.0157545
837.677	0.0158974
837.755	0.0160246
837.833	0.0160116
837.911	0.0161823
837.989	0.0161166
838.067	0.0162622
838.146	0.0162597
838.224	0.0162501
838.302	0.0164304
838.380	0.0164285
838.458	0.0165616
838.536	0.0165130
838.614	0.0164870
838.692	0.0165255
838.771	0.0166079
838.849	0.0164165
838.927	0.0164088
839.005	0.0165294
839.083	0.0164158
839.161	0.0164273
839.239	0.0163849
839.317	0.0162440
839.396	0.0162168
839.474	0.0163108
839.552	0.0160223
839.630	0.0159486
839.708	0.0158745
839.786	0.0159869
839.864	0.0158160
839.942	0.0156464
840.021	0.0157301
840.099	0.0156496
840.177	0.0154922
840.255	0.0156370
840.333	0.0155265
840.411	0.0155288
840.489	0.0155904
840.567	0.0156033
840.646	0.0155818
840.724	0.0156296
840.802	0.0156622
840.880	0.0157982
840.958	0.0158437
841.036	0.0159679
841.114	0.0159108
841.192	0.0160265
841.271	0.0160307
841.349	0.0159840
841.427	0.0160296
841.505	0.0162572
841.583	0.0162876
841.661	0.0162288
841.739	0.0162663
841.817	0.0163901
841.896	0.0164661
841.974	0.0162908
842.052	0.0164542
842.130	0.0164571
842.208	0.0165287
842.286	0.0165300
842.364	0.0164539
842.442	0.0164154
842.521	0.0164755
842.599	0.0164881
842.677	0.0165584
842.755	0.0165855
842.833	0.0164626
842.911	0.0164334
842.989	0.0164141
843.067	0.0162830
843.146	0.0163035
843.224	0.0163379
843.302	0.0161544
843.380	0.0161249
843.458	0.0160589
843.536	0.0161752
843.614	0.0161952
843.692	0.0160337
843.771	0.0160020
843.849	0.0161015
843.927	0.0159990
844.005	0.0160323
844.083	0.0160831
844.161	0.0161781
844.239	0.0159377
844.317	0.0157797
844.396	0.0160792
844.474	0.0159467
844.552	0.0157899
844.630	0.0157340
844.708	0.0157633
844.786	0.0157703
844.864	0.0156992
844.942	0.0156915
845.021	0.0156090
845.099	0.0154106
845.177	0.0155152
845.255	0.0154940
845.333	0.0154673
845.411	0.0156630
845.489	0.0157665
845.567	0.0158346
845.646	0.0157615
845.724	0.0157542
845.802	0.0158284
845.880	0.0158565
845.958	0.0158861
846.036	0.0161320
846.114	0.0161121
846.192	0.0161731
846.271	0.0160280
846.349	0.0163737
846.427	0.0163974
846.505	0.0164037
846.583	0.0165017
846.661	0.0163998
846.739	0.0164669
846.817	0.0164825
846.896	0.0165919
846.974	0.0165345
847.052	0.0165325
847.130	0.0165610
847.208	0.0163621
847.286	0.0164388
847.364	0.0164731
847.442	0.0163714
847.521	0.0163411
847.599	0.0165163
847.677	0.0164646
847.755	0.0163542
847.833	0.0162581
847.911	0.0162540
847.989	0.0161309
848.067	0.0162083
848.146	0.0161983
848.224	0.0162418
848.302	0.0162500
848.380	0.0161787
848.458	0.0161259
848.536	0.0160530
848.614	0.0161254
848.692	0.0159478
848.771	0.0158820
848.849	0.0159447
848.927	0.0158752
849.005	0.0157927
849.083	0.0158836
849.161	0.0157509
849.239	0.0158088
849.317	0.0157829
849.396	0.0157265
849.474	0.0157749
849.552	0.0156905
849.630	0.0156496
849.708	0.0158649
849.786	0.0158352
849.864	0.0158971
849.942	0.0158660
850.021	0.0159720
850.099	0.0160550
850.177	0.0159134
850.255	0.0158631
850.333	0.0160292
850.411	0.0160885
850.489	0.0158713
850.567	0.0159744
850.646	0.0160764
850.724	0.0159395
850.802	0.0159458
850.880	0.0160328
850.958	0.0159644
851.036	0.0160249
851.114	0.0162479
851.192	0.0160313
851.271	0.0160497
851.349	0.0162251
851.427	0.0162254
851.505	0.0162579
851.583	0.0163715
851.661	0.0164291
851.739	0.0163930
851.817	0.0163545
851.896	0.0162869
851.974	0.0163852
852.052	0.0163419
852.130	0.0166364
852.208	0.0164575
852.286	0.0162606
852.364	0.0162141
852.442	0.0163110
852.521	0.0163353
852.599	0.0162180
852.677	0.0162182
852.755	0.0162695
852.833	0.0163651
852.911	0.0162463
852.989	0.0161983
853.067	0.0163728
853.146	0.0163006
853.224	0.0162712
853.302	0.0163967
853.380	0.0164468
853.458	0.0162967
853.536	0.0162708
853.614	0.0163459
853.692	0.0161579
853.771	0.0161926
853.849	0.0162512
853.927	0.0161668
854.005	0.0161057
854.083	0.0159502
854.161	0.0159953
854.239	0.0159901
854.317	0.0159280
854.396	0.0159467
854.474	0.0157571
854.552	0.0158754
854.630	0.0157689
854.708	0.0157366
854.786	0.0156704
854.864	0.0156712
854.942	0.0157976
855.021	0.0158538
855.099	0.0158054
855.177	0.0157630
855.255	0.0159627
855.333	0.0157997
855.411	0.0159225
855.489	0.0159811
855.567	0.0160523
855.646	0.0159726
855.724	0.0160570
855.802	0.0160180
855.880	0.0162296
855.958	0.0162155
856.036	0.0163091
856.114	0.0160657
856.192	0.0161830
856.271	0.0162791
856.349	0.0163158
856.427	0.0162155
856.505	0.0162660
856.583	0.0162251
856.661	0.0162679
856.739	0.0164431
856.817	0.0163714
856.896	0.0163052
856.974	0.0161662
857.052	0.0163814
857.130	0.0164535
857.208	0.0163213
857.286	0.0164974
857.364	0.0163742
857.442	0.0162507
857.521	0.0162932
857.599	0.0163493
857.677	0.0163724
857.755	0.0162758
857.833	0.0163879
857.911	0.0163246
857.989	0.0162777
858.067	0.0163201
858.146	0.0162779
858.224	0.0161918
858.302	0.0161271
858.380	0.0161620
858.458	0.0161618
858.536	0.0162498
858.614	0.0162193
858.692	0.0160804
858.771	0.0160762
858.849	0.0160924
858.927	0.0160439
859.005	0.0161540
859.083	0.0162100
859.161	0.0161195
859.239	0.0162151
859.317	0.0161679
859.396	0.0161759
859.474	0.0161290
859.552	0.0160857
859.630	0.0162085
859.708	0.0161117
859.786	0.0161656
859.864	0.0161186
859.942	0.0161273
860.021	0.0161850
860.099	0.0161539
860.177	0.0161201
860.255	0.0161282
860.333	0.0162019
860.411	0.0162646
860.489	0.0160313
860.567	0.0160387
860.646	0.0162299
860.724	0.0160675
860.802	0.0160519
860.880	0.0160044
860.958	0.0160748
861.036	0.0160096
861.114	0.0159444
861.192	0.0159972
861.271	0.0159336
861.349	0.0158390
861.427	0.0159422
861.505	0.0160510
861.583	0.0160855
861.661	0.0160784
861.739	0.0160738
861.817	0.0160999
861.896	0.0161382
861.974	0.0160571
862.052	0.0160922
862.130	0.0162130
862.208	0.0162143
862.286	0.0161730
862.364	0.0160835
862.442	0.0161044
862.521	0.0161747
862.599	0.0160543
862.677	0.0160861
862.755	0.0160636
862.833	0.0161166
862.911	0.0161185
862.989	0.0161781
863.067	0.0159832
863.146	0.0161593
863.224	0.0160938
863.302	0.0160851
863.380	0.0162186
863.458	0.0162366
863.536	0.0162463
863.614	0.0161386
863.692	0.0162468
863.771	0.0162229
863.849	0.0161501
863.927	0.0162006
864.005	0.0162850
864.083	0.0161966
864.161	0.0163210
864.239	0.0163140
864.317	0.0162663
864.396	0.0161643
864.474	0.0161977
864.552	0.0163676
864.630	0.0161993
864.708	0.0161549
864.786	0.0162633
864.864	0.0163445
864.942	0.0163387
865.021	0.0162546
865.099	0.0161931
865.177	0.0161485
865.255	0.0160948
865.333	0.0162294
865.411	0.0162405
865.489	0.0162817
865.567	0.0161774
865.646	0.0160703
865.724	0.0160435
865.802	0.0161343
865.880	0.0161091
865.958	0.0161221
866.036	0.0161407
866.114	0.0160281
866.192	0.0159655
866.271	0.0160811
866.349	0.0160738
866.427	0.0160886
866.505	0.0160809
866.583	0.0159798
866.661	0.0159895
866.739	0.0160242
866.817	0.0160491
866.896	0.0159802
866.974	0.0160159
867.052	0.0158942
867.130	0.0159451
867.208	0.0159735
867.286	0.0160226
867.364	0.0158930
867.442	0.0158695
867.521	0.0158546
867.599	0.0156947
867.677	0.0158841
867.755	0.0158819
867.833	0.0158130
867.911	0.0158723
867.989	0.0160094
868.067	0.0159689
868.146	0.0159205
868.224	0.0159641
868.302	0.0160425
868.380	0.0161649
868.458	0.0161714
868.536	0.0163026
868.614	0.0162926
868.692	0.0162155
868.771	0.0162250
868.849	0.0163693
868.927	0.0163149
869.005	0.0163290
869.083	0.0162808
869.161	0.0163799
869.239	0.0163470
869.317	0.0163246
869.396	0.0164835
869.474	0.0163239
869.552	0.0162611
869.630	0.0164431
869.708	0.0163666
869.786	0.0162769
869.864	0.0163398
869.942	0.0163145
