06/03/2022	15:38:21	Ver.	4.1	UNKNOWN
Optical Delay	550.020508	Delta X		0.078125	Sweeps	1	Scan Rate	0/0
Coordinates	Axis 1	NaN	Axis 2	NaN	Axis 3	NaN	Axis 4	NaN	Axis 5	NaN	Axis 6	0.000000
TX Power	0.000000	RX Power	0.000000

550.021	0.0164997
550.099	0.0164752
550.177	0.0163117
550.255	0.0165273
550.333	0.0164338
550.411	0.0165078
550.489	0.0165387
550.567	0.0164335
550.646	0.0164341
550.724	0.0165030
550.802	0.0164694
550.880	0.0164411
550.958	0.0164136
551.036	0.0164592
551.114	0.0165509
551.192	0.0166209
551.271	0.0164971
551.349	0.0162502
551.427	0.0165139
551.505	0.0165090
551.583	0.0164460
551.661	0.0163944
551.739	0.0164295
551.817	0.0163929
551.896	0.0164420
551.974	0.0165471
552.052	0.0166573
552.130	0.0165849
552.208	0.0164330
552.286	0.0164179
552.364	0.0165102
552.442	0.0165229
552.521	0.0164581
552.599	0.0165566
552.677	0.0164745
552.755	0.0164471
552.833	0.0166210
552.911	0.0164104
552.989	0.0164633
553.067	0.0165119
553.146	0.0164021
553.224	0.0165017
553.302	0.0165293
553.380	0.0164986
553.458	0.0163767
553.536	0.0163968
553.614	0.0165002
553.692	0.0165729
553.771	0.0165692
553.849	0.0165530
553.927	0.0164426
554.005	0.0164747
554.083	0.0164605
554.161	0.0164435
554.239	0.0164449
554.317	0.0164378
554.396	0.0163732
554.474	0.0165644
554.552	0.0164005
554.630	0.0163617
554.708	0.0163786
554.786	0.0163739
554.864	0.0165236
554.942	0.0165915
555.021	0.0165757
555.099	0.0164963
555.177	0.0164417
555.255	0.0164804
555.333	0.0165424
555.411	0.0164521
555.489	0.0163819
555.567	0.0163858
555.646	0.0165513
555.724	0.0165491
555.802	0.0165804
555.880	0.0166010
555.958	0.0163940
556.036	0.0165005
556.114	0.0165221
556.192	0.0166972
556.271	0.0165531
556.349	0.0163628
556.427	0.0163435
556.505	0.0165025
556.583	0.0164294
556.661	0.0163651
556.739	0.0164709
556.817	0.0165276
556.896	0.0166103
556.974	0.0165065
557.052	0.0164082
557.130	0.0164977
557.208	0.0165619
557.286	0.0164742
557.364	0.0165950
557.442	0.0163416
557.521	0.0164944
557.599	0.0166309
557.677	0.0165435
557.755	0.0165966
557.833	0.0164970
557.911	0.0164730
557.989	0.0164805
558.067	0.0164906
558.146	0.0163892
558.224	0.0166477
558.302	0.0165498
558.380	0.0164809
558.458	0.0165359
558.536	0.0166376
558.614	0.0164994
558.692	0.0164866
558.771	0.0165477
558.849	0.0164545
558.927	0.0164519
559.005	0.0165944
559.083	0.0164847
559.161	0.0163670
559.239	0.0164503
559.317	0.0165178
559.396	0.0164990
559.474	0.0165320
559.552	0.0164339
559.630	0.0164615
559.708	0.0165046
559.786	0.0164742
559.864	0.0165923
559.942	0.0165404
560.021	0.0166286
560.099	0.0164433
560.177	0.0165039
560.255	0.0165206
560.333	0.0164851
560.411	0.0165675
560.489	0.0164176
560.567	0.0165623
560.646	0.0164625
560.724	0.0165608
560.802	0.0166267
560.880	0.0165752
560.958	0.0164592
561.036	0.0164539
561.114	0.0165921
561.192	0.0164903
561.271	0.0164145
561.349	0.0164674
561.427	0.0165488
561.505	0.0166277
561.583	0.0165854
561.661	0.0164307
561.739	0.0163777
561.817	0.0164632
561.896	0.0165318
561.974	0.0164806
562.052	0.0165054
562.130	0.0165295
562.208	0.0163921
562.286	0.0164337
562.364	0.0165878
562.442	0.0165174
562.521	0.0165173
562.599	0.0164565
562.677	0.0164600
562.755	0.0166341
562.833	0.0164931
562.911	0.0163751
562.989	0.0165598
563.067	0.0164727
563.146	0.0164700
563.224	0.0165475
563.302	0.0164837
563.380	0.0164944
563.458	0.0164464
563.536	0.0165361
563.614	0.0165159
563.692	0.0165829
563.771	0.0165923
563.849	0.0165363
563.927	0.0164981
564.005	0.0164340
564.083	0.0164413
564.161	0.0164029
564.239	0.0165246
564.317	0.0165739
564.396	0.0165125
564.474	0.0164635
564.552	0.0163896
564.630	0.0164515
564.708	0.0163773
564.786	0.0164880
564.864	0.0164725
564.942	0.0165867
565.021	0.0166737
565.099	0.0165831
565.177	0.0164800
565.255	0.0164283
565.333	0.0164894
565.411	0.0164349
565.489	0.0162963
565.567	0.0165916
565.646	0.0164308
565.724	0.0165975
565.802	0.0165368
565.880	0.0163929
565.958	0.0165092
566.036	0.0165844
566.114	0.0165334
566.192	0.0165248
566.271	0.0164906
566.349	0.0165820
566.427	0.0164500
566.505	0.0164584
566.583	0.0164354
566.661	0.0165144
566.739	0.0165924
566.817	0.0164846
566.896	0.0164663
566.974	0.0163174
567.052	0.0164782
567.130	0.0165408
567.208	0.0164903
567.286	0.0165664
567.364	0.0165734
567.442	0.0163901
567.521	0.0165190
567.599	0.0164811
567.677	0.0165406
567.755	0.0165585
567.833	0.0164240
567.911	0.0165459
567.989	0.0164445
568.067	0.0165327
568.146	0.0165909
568.224	0.0164458
568.302	0.0164346
568.380	0.0165832
568.458	0.0165826
568.536	0.0164948
568.614	0.0163981
568.692	0.0166012
568.771	0.0164370
568.849	0.0164715
568.927	0.0165617
569.005	0.0165608
569.083	0.0164834
569.161	0.0164002
569.239	0.0166431
569.317	0.0166412
569.396	0.0164119
569.474	0.0165742
569.552	0.0163998
569.630	0.0165392
569.708	0.0165175
569.786	0.0165438
569.864	0.0165398
569.942	0.0165314
570.021	0.0164515
570.099	0.0165201
570.177	0.0165157
570.255	0.0165023
570.333	0.0165411
570.411	0.0166783
570.489	0.0163692
570.567	0.0164415
570.646	0.0165853
570.724	0.0165588
570.802	0.0165341
570.880	0.0164626
570.958	0.0165810
571.036	0.0164952
571.114	0.0164361
571.192	0.0165184
571.271	0.0164230
571.349	0.0164061
571.427	0.0164793
571.505	0.0163524
571.583	0.0165993
571.661	0.0166153
571.739	0.0165582
571.817	0.0165298
571.896	0.0164459
571.974	0.0165189
572.052	0.0163872
572.130	0.0163870
572.208	0.0165601
572.286	0.0165968
572.364	0.0164351
572.442	0.0164093
572.521	0.0164360
572.599	0.0164841
572.677	0.0165790
572.755	0.0163902
572.833	0.0165932
572.911	0.0165421
572.989	0.0164723
573.067	0.0165224
573.146	0.0166085
573.224	0.0164490
573.302	0.0165156
573.380	0.0164566
573.458	0.0165336
573.536	0.0166003
573.614	0.0165062
573.692	0.0164397
573.771	0.0165143
573.849	0.0163641
573.927	0.0164984
574.005	0.0164946
574.083	0.0164936
574.161	0.0164376
574.239	0.0165510
574.317	0.0165436
574.396	0.0164956
574.474	0.0165183
574.552	0.0164928
574.630	0.0164268
574.708	0.0165207
574.786	0.0166396
574.864	0.0165279
574.942	0.0165386
575.021	0.0164631
575.099	0.0164630
575.177	0.0164227
575.255	0.0164502
575.333	0.0165413
575.411	0.0164897
575.489	0.0164851
575.567	0.0165232
575.646	0.0164204
575.724	0.0166541
575.802	0.0164684
575.880	0.0165364
575.958	0.0165660
576.036	0.0166114
576.114	0.0164205
576.192	0.0164410
576.271	0.0167120
576.349	0.0166279
576.427	0.0163892
576.505	0.0165604
576.583	0.0165710
576.661	0.0164750
576.739	0.0164528
576.817	0.0163733
576.896	0.0165617
576.974	0.0166148
577.052	0.0163582
577.130	0.0164028
577.208	0.0166273
577.286	0.0164291
577.364	0.0165498
577.442	0.0164490
577.521	0.0164617
577.599	0.0164318
577.677	0.0165373
577.755	0.0164655
577.833	0.0164505
577.911	0.0164851
577.989	0.0165144
578.067	0.0165166
578.146	0.0165085
578.224	0.0166410
578.302	0.0165002
578.380	0.0165275
578.458	0.0165308
578.536	0.0164778
578.614	0.0165031
578.692	0.0165194
578.771	0.0166335
578.849	0.0165806
578.927	0.0163728
579.005	0.0165439
579.083	0.0164855
579.161	0.0165387
579.239	0.0164491
579.317	0.0163849
579.396	0.0165833
579.474	0.0164318
579.552	0.0164314
579.630	0.0165017
579.708	0.0164895
579.786	0.0164787
579.864	0.0164022
579.942	0.0165086
580.021	0.0165879
580.099	0.0164429
580.177	0.0163548
580.255	0.0164159
580.333	0.0165570
580.411	0.0165211
580.489	0.0164845
580.567	0.0164819
580.646	0.0164877
580.724	0.0164538
580.802	0.0165151
580.880	0.0164699
580.958	0.0164684
581.036	0.0165534
581.114	0.0164972
581.192	0.0165230
581.271	0.0165306
581.349	0.0164526
581.427	0.0165595
581.505	0.0165475
581.583	0.0164569
581.661	0.0165388
581.739	0.0164922
581.817	0.0164952
581.896	0.0164960
581.974	0.0164558
582.052	0.0165350
582.130	0.0165542
582.208	0.0165043
582.286	0.0164302
582.364	0.0165128
582.442	0.0165150
582.521	0.0165166
582.599	0.0164364
582.677	0.0165479
582.755	0.0165562
582.833	0.0165162
582.911	0.0165938
582.989	0.0164584
583.067	0.0163625
583.146	0.0164958
583.224	0.0165215
583.302	0.0164275
583.380	0.0165465
583.458	0.0164819
583.536	0.0164783
583.614	0.0165174
583.692	0.0164974
583.771	0.0166041
583.849	0.0164153
583.927	0.0163675
584.005	0.0164407
584.083	0.0164728
584.161	0.0164866
584.239	0.0165189
584.317	0.0164148
584.396	0.0164597
584.474	0.0163848
584.552	0.0165981
584.630	0.0164824
584.708	0.0165091
584.786	0.0165894
584.864	0.0164493
584.942	0.0165384
585.021	0.0164859
585.099	0.0164143
585.177	0.0166113
585.255	0.0165273
585.333	0.0165232
585.411	0.0166358
585.489	0.0165185
585.567	0.0165189
585.646	0.0165131
585.724	0.0166327
585.802	0.0165043
585.880	0.0164502
585.958	0.0165135
586.036	0.0164871
586.114	0.0165451
586.192	0.0165278
586.271	0.0166195
586.349	0.0165746
586.427	0.0166276
586.505	0.0164715
586.583	0.0165343
586.661	0.0165138
586.739	0.0164771
586.817	0.0164806
586.896	0.0163995
586.974	0.0164414
587.052	0.0164391
587.130	0.0165400
587.208	0.0165955
587.286	0.0165366
587.364	0.0163836
587.442	0.0165203
587.521	0.0165292
587.599	0.0164563
587.677	0.0164197
587.755	0.0163782
587.833	0.0166003
587.911	0.0165773
587.989	0.0165265
588.067	0.0163496
588.146	0.0164525
588.224	0.0164968
588.302	0.0164642
588.380	0.0165151
588.458	0.0165808
588.536	0.0164967
588.614	0.0165781
588.692	0.0165557
588.771	0.0164117
588.849	0.0164411
588.927	0.0164755
589.005	0.0165193
589.083	0.0165463
589.161	0.0165108
589.239	0.0164397
589.317	0.0163337
589.396	0.0165742
589.474	0.0164989
589.552	0.0162863
589.630	0.0165391
589.708	0.0166045
589.786	0.0164104
589.864	0.0164394
589.942	0.0165717
590.021	0.0164483
590.099	0.0164857
590.177	0.0164562
590.255	0.0164441
590.333	0.0163855
590.411	0.0164287
590.489	0.0165428
590.567	0.0165977
590.646	0.0165860
590.724	0.0164795
590.802	0.0164938
590.880	0.0166602
590.958	0.0164881
591.036	0.0164651
591.114	0.0164131
591.192	0.0164772
591.271	0.0165463
591.349	0.0165204
591.427	0.0164640
591.505	0.0164511
591.583	0.0164539
591.661	0.0164772
591.739	0.0163034
591.817	0.0164539
591.896	0.0165141
591.974	0.0164129
592.052	0.0163639
592.130	0.0164951
592.208	0.0164522
592.286	0.0164483
592.364	0.0165718
592.442	0.0164646
592.521	0.0163527
592.599	0.0165134
592.677	0.0163693
592.755	0.0164768
592.833	0.0165238
592.911	0.0163956
592.989	0.0164202
593.067	0.0165801
593.146	0.0165117
593.224	0.0164783
593.302	0.0165553
593.380	0.0165627
593.458	0.0163461
593.536	0.0165028
593.614	0.0165741
593.692	0.0164920
593.771	0.0164458
593.849	0.0163589
593.927	0.0165237
594.005	0.0165739
594.083	0.0164837
594.161	0.0164926
594.239	0.0165491
594.317	0.0165430
594.396	0.0163294
594.474	0.0164704
594.552	0.0164833
594.630	0.0164991
594.708	0.0165473
594.786	0.0164964
594.864	0.0165582
594.942	0.0164175
595.021	0.0164926
595.099	0.0164345
595.177	0.0165721
595.255	0.0165263
595.333	0.0163273
595.411	0.0164630
595.489	0.0165020
595.567	0.0164922
595.646	0.0166505
595.724	0.0165875
595.802	0.0164253
595.880	0.0165765
595.958	0.0165727
596.036	0.0164552
596.114	0.0165993
596.192	0.0162883
596.271	0.0165165
596.349	0.0165626
596.427	0.0163198
596.505	0.0164756
596.583	0.0165288
596.661	0.0165765
596.739	0.0165455
596.817	0.0164011
596.896	0.0164979
596.974	0.0165451
597.052	0.0165569
597.130	0.0163670
597.208	0.0163610
597.286	0.0164632
597.364	0.0165571
597.442	0.0164079
597.521	0.0163454
597.599	0.0164973
597.677	0.0164478
597.755	0.0164355
597.833	0.0164053
597.911	0.0165545
597.989	0.0164362
598.067	0.0163809
598.146	0.0165228
598.224	0.0165974
598.302	0.0165923
598.380	0.0165380
598.458	0.0164735
598.536	0.0163923
598.614	0.0164234
598.692	0.0165002
598.771	0.0165575
598.849	0.0163968
598.927	0.0164709
599.005	0.0166403
599.083	0.0165081
599.161	0.0164902
599.239	0.0162952
599.317	0.0165402
599.396	0.0164876
599.474	0.0165184
599.552	0.0164115
599.630	0.0164805
599.708	0.0164822
599.786	0.0165887
599.864	0.0165523
599.942	0.0165625
600.021	0.0164285
600.099	0.0165808
600.177	0.0165361
600.255	0.0165086
600.333	0.0163784
600.411	0.0164619
600.489	0.0165263
600.567	0.0164473
600.646	0.0165932
600.724	0.0165644
600.802	0.0166296
600.880	0.0163762
600.958	0.0163692
601.036	0.0164130
601.114	0.0163992
601.192	0.0164980
601.271	0.0164874
601.349	0.0164125
601.427	0.0166531
601.505	0.0166307
601.583	0.0165111
601.661	0.0166547
601.739	0.0163899
601.817	0.0162957
601.896	0.0163815
601.974	0.0165671
602.052	0.0164864
602.130	0.0165857
602.208	0.0164081
602.286	0.0163834
602.364	0.0166151
602.442	0.0164687
602.521	0.0164691
602.599	0.0163823
602.677	0.0165948
602.755	0.0165637
602.833	0.0164580
602.911	0.0165354
602.989	0.0164803
603.067	0.0163892
603.146	0.0164030
603.224	0.0166689
603.302	0.0164319
603.380	0.0164880
603.458	0.0164687
603.536	0.0165200
603.614	0.0165495
603.692	0.0165000
603.771	0.0164690
603.849	0.0164881
603.927	0.0164304
604.005	0.0164375
604.083	0.0164320
604.161	0.0165178
604.239	0.0164914
604.317	0.0163644
604.396	0.0165273
604.474	0.0165938
604.552	0.0164425
604.630	0.0164940
604.708	0.0165048
604.786	0.0163727
604.864	0.0165640
604.942	0.0164687
605.021	0.0165034
605.099	0.0164509
605.177	0.0165508
605.255	0.0164553
605.333	0.0164484
605.411	0.0166127
605.489	0.0163268
605.567	0.0164833
605.646	0.0164306
605.724	0.0166579
605.802	0.0164737
605.880	0.0164091
605.958	0.0164746
606.036	0.0165566
606.114	0.0164632
606.192	0.0164201
606.271	0.0163908
606.349	0.0165450
606.427	0.0165664
606.505	0.0164913
606.583	0.0164222
606.661	0.0164338
606.739	0.0165907
606.817	0.0165889
606.896	0.0164648
606.974	0.0163963
607.052	0.0164244
607.130	0.0164626
607.208	0.0164683
607.286	0.0164291
607.364	0.0165075
607.442	0.0164989
607.521	0.0164954
607.599	0.0166807
607.677	0.0166150
607.755	0.0164888
607.833	0.0164370
607.911	0.0164094
607.989	0.0164555
608.067	0.0165238
608.146	0.0164811
608.224	0.0164355
608.302	0.0163948
608.380	0.0164134
608.458	0.0166013
608.536	0.0163477
608.614	0.0165046
608.692	0.0164326
608.771	0.0163973
608.849	0.0164983
608.927	0.0164396
609.005	0.0164419
609.083	0.0163861
609.161	0.0164649
609.239	0.0164082
609.317	0.0165288
609.396	0.0163905
609.474	0.0164761
609.552	0.0164583
609.630	0.0165141
609.708	0.0165156
609.786	0.0165356
609.864	0.0164243
609.942	0.0164709
610.021	0.0163016
610.099	0.0164252
610.177	0.0164640
610.255	0.0164590
610.333	0.0164321
610.411	0.0164906
610.489	0.0165603
610.567	0.0165455
610.646	0.0164571
610.724	0.0165390
610.802	0.0163886
610.880	0.0165040
610.958	0.0164967
611.036	0.0165127
611.114	0.0164333
611.192	0.0165146
611.271	0.0166799
611.349	0.0165792
611.427	0.0163578
611.505	0.0164674
611.583	0.0164624
611.661	0.0165418
611.739	0.0164787
611.817	0.0165229
611.896	0.0165435
611.974	0.0166438
612.052	0.0164201
612.130	0.0163712
612.208	0.0164388
612.286	0.0165314
612.364	0.0163759
612.442	0.0164978
612.521	0.0165674
612.599	0.0165432
612.677	0.0164267
612.755	0.0165017
612.833	0.0164548
612.911	0.0165451
612.989	0.0165314
613.067	0.0165129
613.146	0.0164745
613.224	0.0163902
613.302	0.0162897
613.380	0.0165287
613.458	0.0165618
613.536	0.0164075
613.614	0.0165397
613.692	0.0164751
613.771	0.0165782
613.849	0.0165484
613.927	0.0165423
614.005	0.0166367
614.083	0.0165935
614.161	0.0164307
614.239	0.0165538
614.317	0.0165224
614.396	0.0165094
614.474	0.0164768
614.552	0.0164617
614.630	0.0165096
614.708	0.0164064
614.786	0.0164065
614.864	0.0166368
614.942	0.0164523
615.021	0.0165104
615.099	0.0164977
615.177	0.0164819
615.255	0.0165054
615.333	0.0165266
615.411	0.0164507
615.489	0.0165250
615.567	0.0165822
615.646	0.0165228
615.724	0.0164760
615.802	0.0164800
615.880	0.0162645
615.958	0.0164965
616.036	0.0164998
616.114	0.0164230
616.192	0.0163595
616.271	0.0163921
616.349	0.0165583
616.427	0.0166211
616.505	0.0164941
616.583	0.0164280
616.661	0.0164957
616.739	0.0164220
616.817	0.0164300
616.896	0.0165163
616.974	0.0164876
617.052	0.0165250
617.130	0.0163917
617.208	0.0164259
617.286	0.0164349
617.364	0.0164166
617.442	0.0164949
617.521	0.0163184
617.599	0.0164552
617.677	0.0164149
617.755	0.0163470
617.833	0.0163181
617.911	0.0164844
617.989	0.0165763
618.067	0.0163741
618.146	0.0165266
618.224	0.0164155
618.302	0.0165185
618.380	0.0164742
618.458	0.0163822
618.536	0.0165189
618.614	0.0164603
618.692	0.0166429
618.771	0.0164826
618.849	0.0164519
618.927	0.0165182
619.005	0.0164323
619.083	0.0165678
619.161	0.0164351
619.239	0.0164262
619.317	0.0164719
619.396	0.0165341
619.474	0.0164672
619.552	0.0164230
619.630	0.0165144
619.708	0.0164033
619.786	0.0164124
619.864	0.0165211
619.942	0.0164937
620.021	0.0164887
620.099	0.0163985
620.177	0.0163692
620.255	0.0164445
620.333	0.0164702
620.411	0.0165112
620.489	0.0165020
620.567	0.0165187
620.646	0.0166272
620.724	0.0165697
620.802	0.0163779
620.880	0.0164697
620.958	0.0164651
621.036	0.0165495
621.114	0.0164193
621.192	0.0165878
621.271	0.0164312
621.349	0.0163831
621.427	0.0165088
621.505	0.0164982
621.583	0.0164944
621.661	0.0165484
621.739	0.0165646
621.817	0.0165248
621.896	0.0164765
621.974	0.0165914
622.052	0.0165205
622.130	0.0163672
622.208	0.0165166
622.286	0.0165110
622.364	0.0163725
622.442	0.0165204
622.521	0.0165161
622.599	0.0164498
622.677	0.0165898
622.755	0.0164389
622.833	0.0164725
622.911	0.0164859
622.989	0.0165118
623.067	0.0165009
623.146	0.0164898
623.224	0.0165791
623.302	0.0164359
623.380	0.0164121
623.458	0.0164138
623.536	0.0164249
623.614	0.0165713
623.692	0.0165169
623.771	0.0165352
623.849	0.0165564
623.927	0.0164990
624.005	0.0163739
624.083	0.0164301
624.161	0.0164402
624.239	0.0163979
624.317	0.0165646
624.396	0.0166161
624.474	0.0164197
624.552	0.0164831
624.630	0.0164552
624.708	0.0163604
624.786	0.0163554
624.864	0.0165025
624.942	0.0163995
625.021	0.0164964
625.099	0.0165406
625.177	0.0164496
625.255	0.0165219
625.333	0.0164397
625.411	0.0165716
625.489	0.0163999
625.567	0.0165064
625.646	0.0165715
625.724	0.0164664
625.802	0.0165099
625.880	0.0164661
625.958	0.0165386
626.036	0.0164442
626.114	0.0163534
626.192	0.0164360
626.271	0.0163839
626.349	0.0164038
626.427	0.0163785
626.505	0.0163380
626.583	0.0165874
626.661	0.0163338
626.739	0.0163850
626.817	0.0163838
626.896	0.0163453
626.974	0.0163285
627.052	0.0163497
627.130	0.0165147
627.208	0.0164468
627.286	0.0165588
627.364	0.0163846
627.442	0.0167046
627.521	0.0164027
627.599	0.0164973
627.677	0.0164049
627.755	0.0165171
627.833	0.0166027
627.911	0.0164766
627.989	0.0165115
628.067	0.0164496
628.146	0.0165275
628.224	0.0165332
628.302	0.0164258
628.380	0.0165818
628.458	0.0166116
628.536	0.0164383
628.614	0.0163889
628.692	0.0164841
628.771	0.0164351
628.849	0.0164977
628.927	0.0164245
629.005	0.0164684
629.083	0.0165438
629.161	0.0165209
629.239	0.0163902
629.317	0.0163155
629.396	0.0163548
629.474	0.0165055
629.552	0.0164165
629.630	0.0164841
629.708	0.0163853
629.786	0.0164047
629.864	0.0164838
629.942	0.0164309
630.021	0.0164645
630.099	0.0166176
630.177	0.0164841
630.255	0.0163615
630.333	0.0164807
630.411	0.0165510
630.489	0.0165600
630.567	0.0165153
630.646	0.0163332
630.724	0.0165524
630.802	0.0164560
630.880	0.0164719
630.958	0.0164600
631.036	0.0165364
631.114	0.0164534
631.192	0.0164807
631.271	0.0164639
631.349	0.0164910
631.427	0.0164256
631.505	0.0163129
631.583	0.0164906
631.661	0.0164756
631.739	0.0164214
631.817	0.0164604
631.896	0.0164416
631.974	0.0165401
632.052	0.0164051
632.130	0.0164485
632.208	0.0165334
632.286	0.0164619
632.364	0.0164775
632.442	0.0163549
632.521	0.0164241
632.599	0.0164497
632.677	0.0164004
632.755	0.0163673
632.833	0.0164352
632.911	0.0165163
632.989	0.0164666
633.067	0.0165376
633.146	0.0164937
633.224	0.0164809
633.302	0.0164079
633.380	0.0165150
633.458	0.0165051
633.536	0.0166352
633.614	0.0164311
633.692	0.0164439
633.771	0.0166299
633.849	0.0165179
633.927	0.0165022
634.005	0.0162592
634.083	0.0164755
634.161	0.0163757
634.239	0.0165310
634.317	0.0165084
634.396	0.0165299
634.474	0.0164438
634.552	0.0164960
634.630	0.0165147
634.708	0.0165882
634.786	0.0164159
634.864	0.0165296
634.942	0.0164079
635.021	0.0164444
635.099	0.0165165
635.177	0.0165137
635.255	0.0164249
635.333	0.0166671
635.411	0.0166222
635.489	0.0165343
635.567	0.0165365
635.646	0.0165590
635.724	0.0165270
635.802	0.0164557
635.880	0.0165929
635.958	0.0164212
636.036	0.0165361
636.114	0.0165481
636.192	0.0165408
636.271	0.0164769
636.349	0.0165676
636.427	0.0164040
636.505	0.0165137
636.583	0.0167200
636.661	0.0164877
636.739	0.0163898
636.817	0.0165651
636.896	0.0166061
636.974	0.0164540
637.052	0.0165198
637.130	0.0164520
637.208	0.0164602
637.286	0.0165166
637.364	0.0164310
637.442	0.0164968
637.521	0.0165166
637.599	0.0164420
637.677	0.0165839
637.755	0.0165816
637.833	0.0165182
637.911	0.0165033
637.989	0.0163751
638.067	0.0165090
638.146	0.0165529
638.224	0.0165563
638.302	0.0165253
638.380	0.0164469
638.458	0.0164547
638.536	0.0164172
638.614	0.0164563
638.692	0.0166639
638.771	0.0164055
638.849	0.0164698
638.927	0.0165454
639.005	0.0164254
639.083	0.0166412
639.161	0.0165307
639.239	0.0165663
639.317	0.0164458
639.396	0.0164591
639.474	0.0165527
639.552	0.0165517
639.630	0.0162986
639.708	0.0163882
639.786	0.0166003
639.864	0.0165262
639.942	0.0164912
640.021	0.0164765
640.099	0.0165347
640.177	0.0166682
640.255	0.0166119
640.333	0.0166511
640.411	0.0165262
640.489	0.0165790
640.567	0.0166444
640.646	0.0166856
640.724	0.0166126
640.802	0.0165121
640.880	0.0165281
640.958	0.0164889
641.036	0.0166115
641.114	0.0165334
641.192	0.0165794
641.271	0.0164626
641.349	0.0166147
641.427	0.0165718
641.505	0.0165072
641.583	0.0164939
641.661	0.0165250
641.739	0.0165989
641.817	0.0165356
641.896	0.0164325
641.974	0.0163919
642.052	0.0165394
642.130	0.0165248
642.208	0.0165069
642.286	0.0163808
642.364	0.0165482
642.442	0.0164600
642.521	0.0164993
642.599	0.0164616
642.677	0.0165179
642.755	0.0164189
642.833	0.0164269
642.911	0.0164942
642.989	0.0165163
643.067	0.0164197
643.146	0.0164037
643.224	0.0165186
643.302	0.0164815
643.380	0.0164520
643.458	0.0163576
643.536	0.0165025
643.614	0.0164510
643.692	0.0165188
643.771	0.0165475
643.849	0.0164041
643.927	0.0164883
644.005	0.0164547
644.083	0.0164253
644.161	0.0164382
644.239	0.0164513
644.317	0.0164694
644.396	0.0165008
644.474	0.0165538
644.552	0.0165332
644.630	0.0165755
644.708	0.0163245
644.786	0.0165903
644.864	0.0165759
644.942	0.0166267
645.021	0.0165865
645.099	0.0165829
645.177	0.0164861
645.255	0.0166550
645.333	0.0165218
645.411	0.0164820
645.489	0.0165720
645.567	0.0165446
645.646	0.0165900
645.724	0.0164619
645.802	0.0164098
645.880	0.0165819
645.958	0.0164404
646.036	0.0164935
646.114	0.0164915
646.192	0.0164442
646.271	0.0165267
646.349	0.0165113
646.427	0.0163176
646.505	0.0164928
646.583	0.0165359
646.661	0.0164352
646.739	0.0165732
646.817	0.0163526
646.896	0.0164410
646.974	0.0165058
647.052	0.0164671
647.130	0.0164955
647.208	0.0163995
647.286	0.0165511
647.364	0.0164070
647.442	0.0163882
647.521	0.0164762
647.599	0.0165482
647.677	0.0164938
647.755	0.0164920
647.833	0.0163589
647.911	0.0163597
647.989	0.0164587
648.067	0.0164201
648.146	0.0164946
648.224	0.0164806
648.302	0.0164318
648.380	0.0164726
648.458	0.0165823
648.536	0.0164912
648.614	0.0164575
648.692	0.0163509
648.771	0.0165283
648.849	0.0164700
648.927	0.0165430
649.005	0.0164118
649.083	0.0163911
649.161	0.0164536
649.239	0.0163877
649.317	0.0165228
649.396	0.0164395
649.474	0.0163931
649.552	0.0165536
649.630	0.0163898
649.708	0.0163956
649.786	0.0165245
649.864	0.0164677
649.942	0.0164225
650.021	0.0165465
650.099	0.0164866
650.177	0.0165453
650.255	0.0163990
650.333	0.0163375
650.411	0.0164819
650.489	0.0166272
650.567	0.0165841
650.646	0.0163440
650.724	0.0165825
650.802	0.0166454
650.880	0.0165952
650.958	0.0164270
651.036	0.0163754
651.114	0.0163629
651.192	0.0164005
651.271	0.0165094
651.349	0.0165685
651.427	0.0164214
651.505	0.0163438
651.583	0.0163823
651.661	0.0164189
651.739	0.0164854
651.817	0.0164359
651.896	0.0163435
651.974	0.0164768
652.052	0.0164401
652.130	0.0164339
652.208	0.0164072
652.286	0.0164006
652.364	0.0164057
652.442	0.0164726
652.521	0.0165224
652.599	0.0164162
652.677	0.0164027
652.755	0.0164438
652.833	0.0163458
652.911	0.0165807
652.989	0.0163825
653.067	0.0163692
653.146	0.0164030
653.224	0.0164841
653.302	0.0164654
653.380	0.0164935
653.458	0.0163618
653.536	0.0165214
653.614	0.0164437
653.692	0.0163674
653.771	0.0163770
653.849	0.0164086
653.927	0.0164764
654.005	0.0164929
654.083	0.0164211
654.161	0.0164432
654.239	0.0162978
654.317	0.0164564
654.396	0.0164058
654.474	0.0165656
654.552	0.0164902
654.630	0.0163248
654.708	0.0165005
654.786	0.0164888
654.864	0.0164770
654.942	0.0165972
655.021	0.0164057
655.099	0.0164574
655.177	0.0165680
655.255	0.0164873
655.333	0.0164226
655.411	0.0164336
655.489	0.0164529
655.567	0.0164787
655.646	0.0164413
655.724	0.0165707
655.802	0.0164467
655.880	0.0164494
655.958	0.0165308
656.036	0.0164359
656.114	0.0164663
656.192	0.0165097
656.271	0.0164410
656.349	0.0164070
656.427	0.0165723
656.505	0.0165259
656.583	0.0165501
656.661	0.0164302
656.739	0.0165895
656.817	0.0164444
656.896	0.0164103
656.974	0.0164795
657.052	0.0165402
657.130	0.0165403
657.208	0.0164294
657.286	0.0165107
657.364	0.0164548
657.442	0.0163532
657.521	0.0164020
657.599	0.0164784
657.677	0.0164375
657.755	0.0163227
657.833	0.0163806
657.911	0.0164716
657.989	0.0164056
658.067	0.0164733
658.146	0.0165043
658.224	0.0164674
658.302	0.0164397
658.380	0.0164455
658.458	0.0165945
658.536	0.0165000
658.614	0.0164307
658.692	0.0165440
658.771	0.0165842
658.849	0.0164571
658.927	0.0164995
659.005	0.0164262
659.083	0.0162203
659.161	0.0164880
659.239	0.0164931
659.317	0.0164346
659.396	0.0166064
659.474	0.0164385
659.552	0.0164941
659.630	0.0164796
659.708	0.0165834
659.786	0.0165004
659.864	0.0165432
659.942	0.0164938
660.021	0.0165120
660.099	0.0164378
660.177	0.0165532
660.255	0.0165574
660.333	0.0165254
660.411	0.0165425
660.489	0.0165244
660.567	0.0165459
660.646	0.0164172
660.724	0.0164706
660.802	0.0165331
660.880	0.0165696
660.958	0.0164967
661.036	0.0164851
661.114	0.0165258
661.192	0.0164540
661.271	0.0164395
661.349	0.0164629
661.427	0.0165285
661.505	0.0165039
661.583	0.0165543
661.661	0.0166483
661.739	0.0164774
661.817	0.0165201
661.896	0.0164539
661.974	0.0165180
662.052	0.0165193
662.130	0.0163313
662.208	0.0165057
662.286	0.0165011
662.364	0.0164893
662.442	0.0164479
662.521	0.0163376
662.599	0.0163791
662.677	0.0164271
662.755	0.0163916
662.833	0.0165388
662.911	0.0164722
662.989	0.0164526
663.067	0.0165067
663.146	0.0165295
663.224	0.0164664
663.302	0.0165257
663.380	0.0164126
663.458	0.0164310
663.536	0.0165209
663.614	0.0163573
663.692	0.0164125
663.771	0.0166025
663.849	0.0163741
663.927	0.0163515
664.005	0.0164873
664.083	0.0165512
664.161	0.0164697
664.239	0.0164793
664.317	0.0165278
664.396	0.0164853
664.474	0.0164998
664.552	0.0163251
664.630	0.0163599
664.708	0.0165306
664.786	0.0164350
664.864	0.0164609
664.942	0.0163776
665.021	0.0164137
665.099	0.0165215
665.177	0.0164365
665.255	0.0165250
665.333	0.0164751
665.411	0.0163934
665.489	0.0163692
665.567	0.0166231
665.646	0.0164473
665.724	0.0164410
665.802	0.0164722
665.880	0.0163807
665.958	0.0164121
666.036	0.0165317
666.114	0.0163137
666.192	0.0164202
666.271	0.0164855
666.349	0.0164487
666.427	0.0164438
666.505	0.0163316
666.583	0.0165884
666.661	0.0165676
666.739	0.0163713
666.817	0.0163797
666.896	0.0165453
666.974	0.0165095
667.052	0.0165128
667.130	0.0163826
667.208	0.0165321
667.286	0.0164715
667.364	0.0165819
667.442	0.0164704
667.521	0.0165327
667.599	0.0164963
667.677	0.0165158
667.755	0.0165479
667.833	0.0165111
667.911	0.0164118
667.989	0.0165311
668.067	0.0164357
668.146	0.0165805
668.224	0.0165840
668.302	0.0165248
668.380	0.0165174
668.458	0.0164917
668.536	0.0165413
668.614	0.0166328
668.692	0.0164619
668.771	0.0164565
668.849	0.0166174
668.927	0.0164167
669.005	0.0163721
669.083	0.0165040
669.161	0.0165657
669.239	0.0164935
669.317	0.0163863
669.396	0.0163688
669.474	0.0164846
669.552	0.0165683
669.630	0.0165184
669.708	0.0164605
669.786	0.0164257
669.864	0.0163503
669.942	0.0164812
670.021	0.0164533
670.099	0.0164908
670.177	0.0165712
670.255	0.0165146
670.333	0.0164554
670.411	0.0163279
670.489	0.0164196
670.567	0.0165575
670.646	0.0164332
670.724	0.0163720
670.802	0.0164454
670.880	0.0164773
670.958	0.0165050
671.036	0.0165510
671.114	0.0164944
671.192	0.0163869
671.271	0.0164509
671.349	0.0163655
671.427	0.0164899
671.505	0.0165218
671.583	0.0165577
671.661	0.0163525
671.739	0.0163428
671.817	0.0164068
671.896	0.0165086
671.974	0.0165573
672.052	0.0165140
672.130	0.0164368
672.208	0.0163869
672.286	0.0164909
672.364	0.0164476
672.442	0.0164085
672.521	0.0163490
672.599	0.0164106
672.677	0.0164450
672.755	0.0165491
672.833	0.0164365
672.911	0.0166611
672.989	0.0163432
673.067	0.0164949
673.146	0.0166054
673.224	0.0164751
673.302	0.0165450
673.380	0.0166044
673.458	0.0165503
673.536	0.0163427
673.614	0.0164360
673.692	0.0165143
673.771	0.0166090
673.849	0.0164787
673.927	0.0165322
674.005	0.0165783
674.083	0.0163896
674.161	0.0164120
674.239	0.0165789
674.317	0.0164114
674.396	0.0164380
674.474	0.0164666
674.552	0.0165291
674.630	0.0165678
674.708	0.0164012
674.786	0.0163792
674.864	0.0164105
674.942	0.0163929
675.021	0.0164904
675.099	0.0164031
675.177	0.0164587
675.255	0.0164949
675.333	0.0165608
675.411	0.0165134
675.489	0.0164447
675.567	0.0163577
675.646	0.0164926
675.724	0.0164192
675.802	0.0164052
675.880	0.0163526
675.958	0.0166116
676.036	0.0163860
676.114	0.0164097
676.192	0.0164541
676.271	0.0164420
676.349	0.0165083
676.427	0.0165089
676.505	0.0165189
676.583	0.0163147
676.661	0.0163599
676.739	0.0164819
676.817	0.0164948
676.896	0.0165414
676.974	0.0164330
677.052	0.0163834
677.130	0.0163212
677.208	0.0164006
677.286	0.0164587
677.364	0.0164241
677.442	0.0163902
677.521	0.0163665
677.599	0.0165179
677.677	0.0164855
677.755	0.0164490
677.833	0.0164283
677.911	0.0164664
677.989	0.0164994
678.067	0.0163642
678.146	0.0164011
678.224	0.0164544
678.302	0.0165028
678.380	0.0164958
678.458	0.0164321
678.536	0.0164798
678.614	0.0165431
678.692	0.0164837
678.771	0.0165791
678.849	0.0163459
678.927	0.0165407
679.005	0.0163981
679.083	0.0163739
679.161	0.0164825
679.239	0.0164929
679.317	0.0165905
679.396	0.0164172
679.474	0.0164449
679.552	0.0164266
679.630	0.0164558
679.708	0.0165229
679.786	0.0165238
679.864	0.0164488
679.942	0.0164860
680.021	0.0163527
680.099	0.0164353
680.177	0.0164986
680.255	0.0164442
680.333	0.0165480
680.411	0.0165816
680.489	0.0164227
680.567	0.0165083
680.646	0.0165222
680.724	0.0163763
680.802	0.0164867
680.880	0.0164521
680.958	0.0164417
681.036	0.0163204
681.114	0.0163678
681.192	0.0165298
681.271	0.0164636
681.349	0.0165450
681.427	0.0163905
681.505	0.0165089
681.583	0.0165313
681.661	0.0164978
681.739	0.0163509
681.817	0.0164838
681.896	0.0164408
681.974	0.0164574
682.052	0.0164355
682.130	0.0165488
682.208	0.0164043
682.286	0.0164858
682.364	0.0163897
682.442	0.0163141
682.521	0.0163597
682.599	0.0163316
682.677	0.0163722
682.755	0.0163380
682.833	0.0163237
682.911	0.0163007
682.989	0.0163760
683.067	0.0163947
683.146	0.0165362
683.224	0.0166154
683.302	0.0166012
683.380	0.0164501
683.458	0.0165255
683.536	0.0166515
683.614	0.0165227
683.692	0.0164703
683.771	0.0164344
683.849	0.0164539
683.927	0.0165068
684.005	0.0162334
684.083	0.0163303
684.161	0.0163895
684.239	0.0163860
684.317	0.0162674
684.396	0.0162988
684.474	0.0162373
684.552	0.0164233
684.630	0.0164896
684.708	0.0166227
684.786	0.0167291
684.864	0.0167238
684.942	0.0168075
685.021	0.0168353
685.099	0.0167683
685.177	0.0167512
685.255	0.0166024
685.333	0.0164066
685.411	0.0163120
685.489	0.0161349
685.567	0.0160937
685.646	0.0159397
685.724	0.0159357
685.802	0.0158600
685.880	0.0159821
685.958	0.0160455
686.036	0.0160711
686.114	0.0163330
686.192	0.0166951
686.271	0.0168363
686.349	0.0170708
686.427	0.0171773
686.505	0.0173157
686.583	0.0171037
686.661	0.0171054
686.739	0.0169907
686.817	0.0165967
686.896	0.0162962
686.974	0.0159843
687.052	0.0157076
687.130	0.0157146
687.208	0.0154953
687.286	0.0155020
687.364	0.0156848
687.442	0.0157836
687.521	0.0159602
687.599	0.0161290
687.677	0.0165328
687.755	0.0169227
687.833	0.0171749
687.911	0.0173300
687.989	0.0174990
688.067	0.0174781
688.146	0.0172130
688.224	0.0170001
688.302	0.0166267
688.380	0.0162296
688.458	0.0159517
688.536	0.0157536
688.614	0.0155185
688.692	0.0154991
688.771	0.0155715
688.849	0.0153837
688.927	0.0155952
689.005	0.0159509
689.083	0.0161960
689.161	0.0164544
689.239	0.0166064
689.317	0.0169008
689.396	0.0169934
689.474	0.0170134
689.552	0.0171831
689.630	0.0172856
689.708	0.0171405
689.786	0.0170618
689.864	0.0168724
689.942	0.0166255
690.021	0.0164967
690.099	0.0161566
690.177	0.0158705
690.255	0.0158983
690.333	0.0157364
690.411	0.0158724
690.489	0.0159263
690.567	0.0159674
690.646	0.0160252
690.724	0.0163550
690.802	0.0164685
690.880	0.0166354
690.958	0.0167282
691.036	0.0169151
691.114	0.0170216
691.192	0.0171523
691.271	0.0171494
691.349	0.0169167
691.427	0.0167931
691.505	0.0166579
691.583	0.0164165
691.661	0.0161268
691.739	0.0161411
691.817	0.0160645
691.896	0.0160109
691.974	0.0160066
692.052	0.0162587
692.130	0.0161897
692.208	0.0162586
692.286	0.0165150
692.364	0.0165352
692.442	0.0165175
692.521	0.0163949
692.599	0.0164739
692.677	0.0164719
692.755	0.0165325
692.833	0.0164171
692.911	0.0164613
692.989	0.0163424
693.067	0.0164232
693.146	0.0164796
693.224	0.0165689
693.302	0.0167229
693.380	0.0167152
693.458	0.0168819
693.536	0.0166314
693.614	0.0167670
693.692	0.0166982
693.771	0.0165331
693.849	0.0164912
693.927	0.0163798
694.005	0.0161132
694.083	0.0158481
694.161	0.0160191
694.239	0.0160148
694.317	0.0159800
694.396	0.0162997
694.474	0.0164281
694.552	0.0164482
694.630	0.0166656
694.708	0.0167628
694.786	0.0166288
694.864	0.0167049
694.942	0.0168815
695.021	0.0169010
695.099	0.0167130
695.177	0.0165769
695.255	0.0164749
695.333	0.0164130
695.411	0.0164121
695.489	0.0161598
695.567	0.0161826
695.646	0.0162448
695.724	0.0161428
695.802	0.0162252
695.880	0.0164034
695.958	0.0166338
696.036	0.0168501
696.114	0.0168831
696.192	0.0169351
696.271	0.0170418
696.349	0.0171232
696.427	0.0168967
696.505	0.0168292
696.583	0.0166672
696.661	0.0166967
696.739	0.0166434
696.817	0.0164648
696.896	0.0162995
696.974	0.0164674
697.052	0.0163823
697.130	0.0162254
697.208	0.0163567
697.286	0.0163093
697.364	0.0163288
697.442	0.0163177
697.521	0.0163567
697.599	0.0164068
697.677	0.0163284
697.755	0.0161458
697.833	0.0162027
697.911	0.0160810
697.989	0.0159842
698.067	0.0160024
698.146	0.0159988
698.224	0.0160078
698.302	0.0160814
698.380	0.0161427
698.458	0.0162168
698.536	0.0162801
698.614	0.0164297
698.692	0.0166499
698.771	0.0167184
698.849	0.0169621
698.927	0.0168248
699.005	0.0168752
699.083	0.0170388
699.161	0.0169185
699.239	0.0169005
699.317	0.0167911
699.396	0.0167656
699.474	0.0168687
699.552	0.0167475
699.630	0.0166838
699.708	0.0168655
699.786	0.0166811
699.864	0.0168539
699.942	0.0169321
700.021	0.0169793
700.099	0.0169306
700.177	0.0169846
700.255	0.0170972
700.333	0.0169511
700.411	0.0168987
700.489	0.0168058
700.567	0.0165060
700.646	0.0165441
700.724	0.0165260
700.802	0.0163831
700.880	0.0164471
700.958	0.0162707
701.036	0.0164520
701.114	0.0164555
701.192	0.0166220
701.271	0.0169592
701.349	0.0171705
701.427	0.0173009
701.505	0.0172973
701.583	0.0173479
701.661	0.0173351
701.739	0.0172624
701.817	0.0171669
701.896	0.0169098
701.974	0.0165182
702.052	0.0162356
702.130	0.0158059
702.208	0.0154615
702.286	0.0151814
702.364	0.0146735
702.442	0.0143896
702.521	0.0143554
702.599	0.0144424
702.677	0.0143941
702.755	0.0144945
702.833	0.0148514
702.911	0.0151073
702.989	0.0154230
703.067	0.0157462
703.146	0.0162827
703.224	0.0165659
703.302	0.0168520
703.380	0.0169704
703.458	0.0170638
703.536	0.0174355
703.614	0.0173207
703.692	0.0172350
703.771	0.0175058
703.849	0.0173889
703.927	0.0174004
704.005	0.0176197
704.083	0.0175772
704.161	0.0175887
704.239	0.0177736
704.317	0.0177800
704.396	0.0178561
704.474	0.0178176
704.552	0.0177932
704.630	0.0177235
704.708	0.0177505
704.786	0.0176295
704.864	0.0174789
704.942	0.0173431
705.021	0.0171749
705.099	0.0169074
705.177	0.0169266
705.255	0.0168259
705.333	0.0166688
705.411	0.0165002
705.489	0.0163309
705.567	0.0164010
705.646	0.0162975
705.724	0.0159714
705.802	0.0157838
705.880	0.0155579
705.958	0.0152650
706.036	0.0153533
706.114	0.0151904
706.192	0.0149866
706.271	0.0150564
706.349	0.0153448
706.427	0.0152972
706.505	0.0155610
706.583	0.0159674
706.661	0.0161913
706.739	0.0167788
706.817	0.0170599
706.896	0.0175265
706.974	0.0179771
707.052	0.0181346
707.130	0.0181596
707.208	0.0180649
707.286	0.0178716
707.364	0.0174913
707.442	0.0169944
707.521	0.0164723
707.599	0.0157410
707.677	0.0150498
707.755	0.0143651
707.833	0.0136458
707.911	0.0130572
707.989	0.0125045
708.067	0.0123855
708.146	0.0120362
708.224	0.0121651
708.302	0.0122236
708.380	0.0124086
708.458	0.0129987
708.536	0.0137212
708.614	0.0142234
708.692	0.0150347
708.771	0.0157874
708.849	0.0167569
708.927	0.0175853
709.005	0.0183199
709.083	0.0191987
709.161	0.0198579
709.239	0.0205544
709.317	0.0211318
709.396	0.0216681
709.474	0.0220282
709.552	0.0222353
709.630	0.0225227
709.708	0.0223624
709.786	0.0222471
709.864	0.0219210
709.942	0.0215329
710.021	0.0210486
710.099	0.0202778
710.177	0.0195642
710.255	0.0187769
710.333	0.0180029
710.411	0.0171361
710.489	0.0163878
710.567	0.0156164
710.646	0.0150497
710.724	0.0144965
710.802	0.0140102
710.880	0.0133943
710.958	0.0131197
711.036	0.0129654
711.114	0.0127236
711.192	0.0124860
711.271	0.0124387
711.349	0.0123755
711.427	0.0122478
711.505	0.0124160
711.583	0.0125316
711.661	0.0127726
711.739	0.0132012
711.817	0.0137907
711.896	0.0142949
711.974	0.0149745
712.052	0.0156803
712.130	0.0162968
712.208	0.0170262
712.286	0.0175034
712.364	0.0178316
712.442	0.0181904
712.521	0.0183443
712.599	0.0183041
712.677	0.0179755
712.755	0.0176521
712.833	0.0170902
712.911	0.0164669
712.989	0.0159365
713.067	0.0154237
713.146	0.0144563
713.224	0.0139391
713.302	0.0136620
713.380	0.0132097
713.458	0.0129190
713.536	0.0127769
713.614	0.0129241
713.692	0.0131280
713.771	0.0135152
713.849	0.0139072
713.927	0.0144851
714.005	0.0151810
714.083	0.0158564
714.161	0.0163357
714.239	0.0171265
714.317	0.0178462
714.396	0.0184971
714.474	0.0192503
714.552	0.0198388
714.630	0.0203424
714.708	0.0211124
714.786	0.0220036
714.864	0.0224424
714.942	0.0230000
715.021	0.0234386
715.099	0.0236295
715.177	0.0238208
715.255	0.0235429
715.333	0.0232083
715.411	0.0228120
715.489	0.0220426
715.567	0.0214436
715.646	0.0205048
715.724	0.0196172
715.802	0.0187164
715.880	0.0177259
715.958	0.0169333
716.036	0.0161790
716.114	0.0153402
716.192	0.0146490
716.271	0.0141909
716.349	0.0137076
716.427	0.0133036
716.505	0.0130597
716.583	0.0128973
716.661	0.0129916
716.739	0.0129083
716.817	0.0130876
716.896	0.0134541
716.974	0.0137804
717.052	0.0141485
717.130	0.0146238
717.208	0.0148601
717.286	0.0149319
717.364	0.0151191
717.442	0.0151701
717.521	0.0149729
717.599	0.0144122
717.677	0.0137202
717.755	0.0129299
717.833	0.0119224
717.911	0.0106901
717.989	0.00961624
718.067	0.00831268
718.146	0.00732559
718.224	0.00647575
718.302	0.00591835
718.380	0.00541855
718.458	0.00544426
718.536	0.00567619
718.614	0.00647224
718.692	0.00754997
718.771	0.00907867
718.849	0.0108791
718.927	0.0128912
719.005	0.0149638
719.083	0.0172614
719.161	0.0197602
719.239	0.0220627
719.317	0.0242824
719.396	0.0264333
719.474	0.0282787
719.552	0.0298380
719.630	0.0310144
719.708	0.0318517
719.786	0.0322569
719.864	0.0323120
719.942	0.0320673
720.021	0.0314686
720.099	0.0305882
720.177	0.0296077
720.255	0.0283047
720.333	0.0270860
720.411	0.0256173
720.489	0.0242300
720.567	0.0226860
720.646	0.0212299
720.724	0.0198196
720.802	0.0184130
720.880	0.0168147
720.958	0.0155676
721.036	0.0145348
721.114	0.0132957
721.192	0.0124893
721.271	0.0118132
721.349	0.0113639
721.427	0.0108054
721.505	0.0103731
721.583	0.0105278
721.661	0.0103535
721.739	0.0101077
721.817	0.0102235
721.896	0.0103575
721.974	0.0101896
722.052	0.0101742
722.130	0.00988579
722.208	0.00963890
722.286	0.00941895
722.364	0.00901962
722.442	0.00858376
722.521	0.00832016
722.599	0.00780602
722.677	0.00739090
722.755	0.00715858
722.833	0.00687325
722.911	0.00679611
722.989	0.00693565
723.067	0.00727783
723.146	0.00762787
723.224	0.00836166
723.302	0.00926544
723.380	0.0104644
723.458	0.0118632
723.536	0.0132389
723.614	0.0149287
723.692	0.0168187
723.771	0.0185114
723.849	0.0203857
723.927	0.0220898
724.005	0.0236602
724.083	0.0252423
724.161	0.0264575
724.239	0.0274343
724.317	0.0284425
724.396	0.0288857
724.474	0.0289959
724.552	0.0290976
724.630	0.0287027
724.708	0.0284320
724.786	0.0276127
724.864	0.0268962
724.942	0.0260706
725.021	0.0250433
725.099	0.0238074
725.177	0.0226612
725.255	0.0214946
725.333	0.0202460
725.411	0.0190965
725.489	0.0180244
725.567	0.0170286
725.646	0.0161057
725.724	0.0152994
725.802	0.0147211
725.880	0.0143391
725.958	0.0138970
726.036	0.0137214
726.114	0.0137314
726.192	0.0137056
726.271	0.0136189
726.349	0.0137330
726.427	0.0136269
726.505	0.0136391
726.583	0.0137106
726.661	0.0135397
726.739	0.0133015
726.817	0.0130563
726.896	0.0126414
726.974	0.0122002
727.052	0.0118147
727.130	0.0115544
727.208	0.0111044
727.286	0.0108079
727.364	0.0104788
727.442	0.0102176
727.521	0.0100116
727.599	0.00995529
727.677	0.0101315
727.755	0.0103361
727.833	0.0107608
727.911	0.0111564
727.989	0.0116939
728.067	0.0124377
728.146	0.0131627
728.224	0.0138561
728.302	0.0149599
728.380	0.0157911
728.458	0.0165974
728.536	0.0173348
728.614	0.0180804
728.692	0.0189587
728.771	0.0195278
728.849	0.0202330
728.927	0.0207675
729.005	0.0212138
729.083	0.0214718
729.161	0.0217707
729.239	0.0219370
729.317	0.0219889
729.396	0.0221025
729.474	0.0221249
729.552	0.0220290
729.630	0.0217851
729.708	0.0216309
729.786	0.0216963
729.864	0.0213425
729.942	0.0211272
730.021	0.0207768
730.099	0.0204749
730.177	0.0201437
730.255	0.0195200
730.333	0.0191095
730.411	0.0188665
730.489	0.0183055
730.567	0.0178323
730.646	0.0173588
730.724	0.0166811
730.802	0.0163335
730.880	0.0158570
730.958	0.0153777
731.036	0.0149479
731.114	0.0146461
731.192	0.0144090
731.271	0.0140866
731.349	0.0138298
731.427	0.0136668
731.505	0.0134018
731.583	0.0130817
731.661	0.0127196
731.739	0.0126861
731.817	0.0123968
731.896	0.0121609
731.974	0.0118149
732.052	0.0116386
732.130	0.0116743
732.208	0.0117466
732.286	0.0117834
732.364	0.0121474
732.442	0.0123557
732.521	0.0127032
732.599	0.0132344
732.677	0.0135995
732.755	0.0140845
732.833	0.0148330
732.911	0.0153637
732.989	0.0159019
733.067	0.0166096
733.146	0.0169609
733.224	0.0176295
733.302	0.0179906
733.380	0.0184438
733.458	0.0188965
733.536	0.0192352
733.614	0.0196262
733.692	0.0198624
733.771	0.0201260
733.849	0.0203390
733.927	0.0203004
734.005	0.0202862
734.083	0.0203156
734.161	0.0202888
734.239	0.0200747
734.317	0.0200752
734.396	0.0198766
734.474	0.0197789
734.552	0.0196629
734.630	0.0193501
734.708	0.0194540
734.786	0.0192717
734.864	0.0191860
734.942	0.0189234
735.021	0.0186115
735.099	0.0183342
735.177	0.0182523
735.255	0.0178774
735.333	0.0175644
735.411	0.0171086
735.489	0.0166676
735.567	0.0163573
735.646	0.0160083
735.724	0.0158289
735.802	0.0154534
735.880	0.0151402
735.958	0.0148430
736.036	0.0145387
736.114	0.0142058
736.192	0.0140685
736.271	0.0136993
736.349	0.0135423
736.427	0.0130453
736.505	0.0128405
736.583	0.0123812
736.661	0.0122239
736.739	0.0121524
736.817	0.0120474
736.896	0.0118567
736.974	0.0120232
737.052	0.0121093
737.130	0.0123857
737.208	0.0124733
737.286	0.0130365
737.364	0.0133961
737.442	0.0138984
737.521	0.0143800
737.599	0.0151108
737.677	0.0156135
737.755	0.0160553
737.833	0.0166843
737.911	0.0172928
737.989	0.0176523
738.067	0.0180210
738.146	0.0184118
738.224	0.0186970
738.302	0.0189702
738.380	0.0190942
738.458	0.0193806
738.536	0.0192885
738.614	0.0194353
738.692	0.0194478
738.771	0.0194234
738.849	0.0194042
738.927	0.0193812
739.005	0.0191019
739.083	0.0189711
739.161	0.0190624
739.239	0.0189462
739.317	0.0187214
739.396	0.0186355
739.474	0.0185248
739.552	0.0184764
739.630	0.0183619
739.708	0.0181737
739.786	0.0180084
739.864	0.0178075
739.942	0.0176524
740.021	0.0176183
740.099	0.0174751
740.177	0.0172596
740.255	0.0171368
740.333	0.0169901
740.411	0.0168202
740.489	0.0167032
740.567	0.0165109
740.646	0.0161909
740.724	0.0159964
740.802	0.0157191
740.880	0.0157420
740.958	0.0154942
741.036	0.0152496
741.114	0.0151321
741.192	0.0147117
741.271	0.0145115
741.349	0.0144427
741.427	0.0142790
741.505	0.0142621
741.583	0.0140360
741.661	0.0139304
741.739	0.0142139
741.817	0.0142321
741.896	0.0142726
741.974	0.0143506
742.052	0.0144905
742.130	0.0146363
742.208	0.0147649
742.286	0.0148438
742.364	0.0147852
742.442	0.0148903
742.521	0.0149984
742.599	0.0151014
742.677	0.0152426
742.755	0.0152902
742.833	0.0153418
742.911	0.0154086
742.989	0.0157137
743.067	0.0159575
743.146	0.0161948
743.224	0.0163731
743.302	0.0167142
743.380	0.0169875
743.458	0.0172454
743.536	0.0175709
743.614	0.0180441
743.692	0.0182408
743.771	0.0184302
743.849	0.0187542
743.927	0.0190080
744.005	0.0190694
744.083	0.0192235
744.161	0.0192886
744.239	0.0194150
744.317	0.0191973
744.396	0.0190817
744.474	0.0190350
744.552	0.0187821
744.630	0.0184720
744.708	0.0182175
744.786	0.0179479
744.864	0.0175090
744.942	0.0172653
745.021	0.0168928
745.099	0.0165475
745.177	0.0161305
745.255	0.0159218
745.333	0.0155016
745.411	0.0154333
745.489	0.0152217
745.567	0.0149990
745.646	0.0149352
745.724	0.0148090
745.802	0.0146616
745.880	0.0146541
745.958	0.0146828
746.036	0.0147211
746.114	0.0147128
746.192	0.0147807
746.271	0.0148381
746.349	0.0149422
746.427	0.0151159
746.505	0.0150728
746.583	0.0153963
746.661	0.0155964
746.739	0.0158071
746.817	0.0160524
746.896	0.0162862
746.974	0.0164688
747.052	0.0166374
747.130	0.0168967
747.208	0.0171729
747.286	0.0172741
747.364	0.0173159
747.442	0.0173817
747.521	0.0173523
747.599	0.0173589
747.677	0.0172855
747.755	0.0171313
747.833	0.0170829
747.911	0.0170492
747.989	0.0168056
748.067	0.0168585
748.146	0.0167168
748.224	0.0166821
748.302	0.0167039
748.380	0.0167688
748.458	0.0167825
748.536	0.0170711
748.614	0.0172023
748.692	0.0170654
748.771	0.0171247
748.849	0.0174583
748.927	0.0175751
749.005	0.0174311
749.083	0.0173362
749.161	0.0174117
749.239	0.0172903
749.317	0.0172207
749.396	0.0171048
749.474	0.0170338
749.552	0.0169599
749.630	0.0165297
749.708	0.0164561
749.786	0.0162856
749.864	0.0160540
749.942	0.0158131
750.021	0.0157594
750.099	0.0155748
750.177	0.0152139
750.255	0.0152222
750.333	0.0152865
750.411	0.0150755
750.489	0.0149657
750.567	0.0150172
750.646	0.0150247
750.724	0.0150159
750.802	0.0151313
750.880	0.0152546
750.958	0.0154253
751.036	0.0153113
751.114	0.0158321
751.192	0.0161176
751.271	0.0163456
751.349	0.0164672
751.427	0.0167182
751.505	0.0170121
751.583	0.0171541
751.661	0.0172865
751.739	0.0174078
751.817	0.0176172
751.896	0.0175047
751.974	0.0174023
752.052	0.0174690
752.130	0.0174527
752.208	0.0172939
752.286	0.0174581
752.364	0.0174010
752.442	0.0173174
752.521	0.0172813
752.599	0.0171360
752.677	0.0171284
752.755	0.0171250
752.833	0.0169963
752.911	0.0169765
752.989	0.0168108
753.067	0.0166821
753.146	0.0166993
753.224	0.0166037
753.302	0.0163275
753.380	0.0164474
753.458	0.0164668
753.536	0.0162244
753.614	0.0161729
753.692	0.0160919
753.771	0.0162637
753.849	0.0162566
753.927	0.0161356
754.005	0.0162680
754.083	0.0162934
754.161	0.0163839
754.239	0.0162668
754.317	0.0164652
754.396	0.0162442
754.474	0.0162433
754.552	0.0163495
754.630	0.0164665
754.708	0.0162029
754.786	0.0161518
754.864	0.0161816
754.942	0.0161732
755.021	0.0160118
755.099	0.0160176
755.177	0.0160681
755.255	0.0159983
755.333	0.0160166
755.411	0.0161704
755.489	0.0161402
755.567	0.0161118
755.646	0.0161349
755.724	0.0162566
755.802	0.0162856
755.880	0.0164951
755.958	0.0166289
756.036	0.0165926
756.114	0.0167483
756.192	0.0169675
756.271	0.0169853
756.349	0.0172525
756.427	0.0173911
756.505	0.0176765
756.583	0.0176477
756.661	0.0176406
756.739	0.0178235
756.817	0.0176277
756.896	0.0174583
756.974	0.0174361
757.052	0.0173993
757.130	0.0172362
757.208	0.0171150
757.286	0.0168273
757.364	0.0166916
757.442	0.0165956
757.521	0.0164516
757.599	0.0164222
757.677	0.0162334
757.755	0.0161745
757.833	0.0161944
757.911	0.0160694
757.989	0.0158880
758.067	0.0158225
758.146	0.0158958
758.224	0.0157831
758.302	0.0156763
758.380	0.0157956
758.458	0.0155700
758.536	0.0155577
758.614	0.0156729
758.692	0.0156023
758.771	0.0155721
758.849	0.0155425
758.927	0.0154399
759.005	0.0155978
759.083	0.0156173
759.161	0.0158579
759.239	0.0160611
759.317	0.0161779
759.396	0.0162278
759.474	0.0162328
759.552	0.0164718
759.630	0.0167397
759.708	0.0165941
759.786	0.0166808
759.864	0.0167130
759.942	0.0168328
760.021	0.0169910
760.099	0.0169045
760.177	0.0168082
760.255	0.0169321
760.333	0.0168455
760.411	0.0167860
760.489	0.0168371
760.567	0.0168903
760.646	0.0168547
760.724	0.0168344
760.802	0.0168616
760.880	0.0169868
760.958	0.0167709
761.036	0.0167010
761.114	0.0169706
761.192	0.0169227
761.271	0.0170097
761.349	0.0170068
761.427	0.0167876
761.505	0.0168800
761.583	0.0170517
761.661	0.0170950
761.739	0.0168302
761.817	0.0166883
761.896	0.0168426
761.974	0.0166390
762.052	0.0164618
762.130	0.0165016
762.208	0.0164177
762.286	0.0162735
762.364	0.0160803
762.442	0.0161172
762.521	0.0158900
762.599	0.0158434
762.677	0.0159709
762.755	0.0158551
762.833	0.0159742
762.911	0.0158353
762.989	0.0160336
763.067	0.0161404
763.146	0.0161726
763.224	0.0163882
763.302	0.0162064
763.380	0.0163359
763.458	0.0164417
763.536	0.0164492
763.614	0.0165303
763.692	0.0166228
763.771	0.0166883
763.849	0.0166933
763.927	0.0167197
764.005	0.0168510
764.083	0.0167486
764.161	0.0168295
764.239	0.0167833
764.317	0.0168143
764.396	0.0165900
764.474	0.0169730
764.552	0.0168893
764.630	0.0168450
764.708	0.0167592
764.786	0.0168224
764.864	0.0169322
764.942	0.0168602
765.021	0.0167138
765.099	0.0167681
765.177	0.0167961
765.255	0.0166794
765.333	0.0166249
765.411	0.0166600
765.489	0.0165071
765.567	0.0165432
765.646	0.0163219
765.724	0.0162574
765.802	0.0160143
765.880	0.0158038
765.958	0.0157336
766.036	0.0155586
766.114	0.0155988
766.192	0.0155897
766.271	0.0155727
766.349	0.0154158
766.427	0.0153010
766.505	0.0152364
766.583	0.0154121
766.661	0.0155796
766.739	0.0156853
766.817	0.0156757
766.896	0.0159366
766.974	0.0161639
767.052	0.0163393
767.130	0.0163787
767.208	0.0165048
767.286	0.0167738
767.364	0.0166647
767.442	0.0167535
767.521	0.0169562
767.599	0.0168729
767.677	0.0169690
767.755	0.0171513
767.833	0.0171050
767.911	0.0170026
767.989	0.0168958
768.067	0.0168524
768.146	0.0168927
768.224	0.0168243
768.302	0.0168533
768.380	0.0168467
768.458	0.0167435
768.536	0.0169391
768.614	0.0166888
768.692	0.0168603
768.771	0.0169326
768.849	0.0168406
768.927	0.0168219
769.005	0.0167338
769.083	0.0167114
769.161	0.0167658
769.239	0.0168109
769.317	0.0167097
769.396	0.0167757
769.474	0.0167283
769.552	0.0166669
769.630	0.0167757
769.708	0.0166792
769.786	0.0166939
769.864	0.0168896
769.942	0.0167721
770.021	0.0167852
770.099	0.0167937
770.177	0.0168986
770.255	0.0167583
770.333	0.0168510
770.411	0.0168465
770.489	0.0165591
770.567	0.0164981
770.646	0.0164339
770.724	0.0163362
770.802	0.0162151
770.880	0.0161689
770.958	0.0160265
771.036	0.0158732
771.114	0.0158539
771.192	0.0156895
771.271	0.0157658
771.349	0.0157288
771.427	0.0155635
771.505	0.0157980
771.583	0.0157265
771.661	0.0156505
771.739	0.0156828
771.817	0.0158235
771.896	0.0159122
771.974	0.0160268
772.052	0.0161929
772.130	0.0162798
772.208	0.0162553
772.286	0.0161884
772.364	0.0161898
772.442	0.0163572
772.521	0.0163895
772.599	0.0163480
772.677	0.0163241
772.755	0.0163403
772.833	0.0163113
772.911	0.0164278
772.989	0.0164616
773.067	0.0165809
773.146	0.0165428
773.224	0.0166087
773.302	0.0166566
773.380	0.0166798
773.458	0.0168469
773.536	0.0169230
773.614	0.0169028
773.692	0.0169839
773.771	0.0169527
773.849	0.0170164
773.927	0.0171687
774.005	0.0171431
774.083	0.0170079
774.161	0.0170403
774.239	0.0170251
774.317	0.0171249
774.396	0.0169744
774.474	0.0168333
774.552	0.0168456
774.630	0.0167657
774.708	0.0167552
774.786	0.0166328
774.864	0.0165932
774.942	0.0164320
775.021	0.0163105
775.099	0.0163214
775.177	0.0161507
775.255	0.0161536
775.333	0.0162505
775.411	0.0160494
775.489	0.0160394
775.567	0.0160595
775.646	0.0159620
775.724	0.0159520
775.802	0.0160255
775.880	0.0158873
775.958	0.0159023
776.036	0.0159937
776.114	0.0159972
776.192	0.0160014
776.271	0.0160490
776.349	0.0161926
776.427	0.0163213
776.505	0.0163401
776.583	0.0164149
776.661	0.0163747
776.739	0.0166100
776.817	0.0168398
776.896	0.0167426
776.974	0.0169482
777.052	0.0170282
777.130	0.0168921
777.208	0.0168758
777.286	0.0167895
777.364	0.0169218
777.442	0.0168887
777.521	0.0168645
777.599	0.0167157
777.677	0.0166725
777.755	0.0166580
777.833	0.0165782
777.911	0.0166195
777.989	0.0164346
778.067	0.0165401
778.146	0.0164111
778.224	0.0163816
778.302	0.0165946
778.380	0.0165603
778.458	0.0163487
778.536	0.0163419
778.614	0.0163315
778.692	0.0163540
778.771	0.0165004
778.849	0.0163812
778.927	0.0164812
779.005	0.0163649
779.083	0.0164864
779.161	0.0164040
779.239	0.0162436
779.317	0.0162549
779.396	0.0162347
779.474	0.0162742
779.552	0.0160532
779.630	0.0162981
779.708	0.0163023
779.786	0.0161813
779.864	0.0163168
779.942	0.0162376
780.021	0.0162987
780.099	0.0164989
780.177	0.0164135
780.255	0.0165212
780.333	0.0164864
780.411	0.0166412
780.489	0.0165123
780.567	0.0167636
780.646	0.0167946
780.724	0.0167014
780.802	0.0168582
780.880	0.0167246
780.958	0.0168610
781.036	0.0168478
781.114	0.0167883
781.192	0.0167660
781.271	0.0167802
781.349	0.0165992
781.427	0.0165365
781.505	0.0164970
781.583	0.0164268
781.661	0.0163836
781.739	0.0164529
781.817	0.0162827
781.896	0.0163718
781.974	0.0162405
782.052	0.0163293
782.130	0.0163447
782.208	0.0163907
782.286	0.0163833
782.364	0.0164387
782.442	0.0164516
782.521	0.0164178
782.599	0.0164177
782.677	0.0163813
782.755	0.0165623
782.833	0.0164965
782.911	0.0165572
782.989	0.0165739
783.067	0.0165986
783.146	0.0165700
783.224	0.0165845
783.302	0.0166039
783.380	0.0165439
783.458	0.0165845
783.536	0.0165932
783.614	0.0165412
783.692	0.0166434
783.771	0.0164951
783.849	0.0164584
783.927	0.0163535
784.005	0.0162457
784.083	0.0162543
784.161	0.0163375
784.239	0.0162728
784.317	0.0163535
784.396	0.0162511
784.474	0.0163560
784.552	0.0163183
784.630	0.0163562
784.708	0.0164620
784.786	0.0164433
784.864	0.0165260
784.942	0.0165231
785.021	0.0165282
785.099	0.0166361
785.177	0.0165128
785.255	0.0166531
785.333	0.0164183
785.411	0.0165174
785.489	0.0166929
785.567	0.0166383
785.646	0.0164093
785.724	0.0166058
785.802	0.0166263
785.880	0.0164856
785.958	0.0165672
786.036	0.0165167
786.114	0.0164651
786.192	0.0163721
786.271	0.0163490
786.349	0.0164504
786.427	0.0165524
786.505	0.0164572
786.583	0.0162293
786.661	0.0164234
786.739	0.0165049
786.817	0.0163464
786.896	0.0163483
786.974	0.0164555
787.052	0.0164389
787.130	0.0163844
787.208	0.0164356
787.286	0.0166432
787.364	0.0165716
787.442	0.0165153
787.521	0.0166430
787.599	0.0166805
787.677	0.0166320
787.755	0.0164465
787.833	0.0165872
787.911	0.0165073
787.989	0.0166090
788.067	0.0167200
788.146	0.0164970
788.224	0.0164970
788.302	0.0165049
788.380	0.0164024
788.458	0.0165316
788.536	0.0165926
788.614	0.0165858
788.692	0.0165477
788.771	0.0165756
788.849	0.0165173
788.927	0.0165926
789.005	0.0164587
789.083	0.0162884
789.161	0.0164230
789.239	0.0164620
789.317	0.0162294
789.396	0.0162730
789.474	0.0161378
789.552	0.0161659
789.630	0.0160276
789.708	0.0161565
789.786	0.0161725
789.864	0.0161140
789.942	0.0159566
790.021	0.0162611
790.099	0.0162440
790.177	0.0163152
790.255	0.0162913
790.333	0.0163326
790.411	0.0165213
790.489	0.0165739
790.567	0.0166895
790.646	0.0165046
790.724	0.0165962
790.802	0.0166524
790.880	0.0167025
790.958	0.0167210
791.036	0.0166341
791.114	0.0165976
791.192	0.0165847
791.271	0.0166270
791.349	0.0164725
791.427	0.0163860
791.505	0.0164252
791.583	0.0165041
791.661	0.0163976
791.739	0.0164790
791.817	0.0164188
791.896	0.0163347
791.974	0.0164431
792.052	0.0164120
792.130	0.0164661
792.208	0.0165165
792.286	0.0165413
792.364	0.0165392
792.442	0.0163991
792.521	0.0165220
792.599	0.0165575
792.677	0.0166831
792.755	0.0166623
792.833	0.0165595
792.911	0.0165961
792.989	0.0166254
793.067	0.0167622
793.146	0.0166742
793.224	0.0166275
793.302	0.0166286
793.380	0.0167706
793.458	0.0168626
793.536	0.0168560
793.614	0.0169297
793.692	0.0167980
793.771	0.0168262
793.849	0.0168429
793.927	0.0166082
794.005	0.0165762
794.083	0.0164973
794.161	0.0164668
794.239	0.0165318
794.317	0.0163644
794.396	0.0163470
794.474	0.0161913
794.552	0.0163383
794.630	0.0162913
794.708	0.0163370
794.786	0.0162275
794.864	0.0161554
794.942	0.0160381
795.021	0.0161784
795.099	0.0162762
795.177	0.0162018
795.255	0.0162119
795.333	0.0162319
795.411	0.0163953
795.489	0.0164849
795.567	0.0163713
795.646	0.0163617
795.724	0.0164017
795.802	0.0165425
795.880	0.0166092
795.958	0.0166590
796.036	0.0166854
796.114	0.0167362
796.192	0.0167500
796.271	0.0167519
796.349	0.0168005
796.427	0.0168272
796.505	0.0167593
796.583	0.0169251
796.661	0.0169105
796.739	0.0168002
796.817	0.0167321
796.896	0.0165726
796.974	0.0166886
797.052	0.0166750
797.130	0.0166673
797.208	0.0164658
797.286	0.0163944
797.364	0.0162965
797.442	0.0162920
797.521	0.0162103
797.599	0.0160735
797.677	0.0159660
797.755	0.0159012
797.833	0.0160162
797.911	0.0160954
797.989	0.0159756
798.067	0.0160098
798.146	0.0161015
798.224	0.0160789
798.302	0.0161734
798.380	0.0162756
798.458	0.0163798
798.536	0.0163951
798.614	0.0164974
798.692	0.0165047
798.771	0.0165846
798.849	0.0166314
798.927	0.0165945
799.005	0.0166148
799.083	0.0167627
799.161	0.0167004
799.239	0.0167246
799.317	0.0167182
799.396	0.0167150
799.474	0.0167838
799.552	0.0166011
799.630	0.0167655
799.708	0.0167143
799.786	0.0165948
799.864	0.0166562
799.942	0.0166064
800.021	0.0167247
800.099	0.0166083
800.177	0.0168582
800.255	0.0167316
800.333	0.0167194
800.411	0.0166656
800.489	0.0167263
800.567	0.0165968
800.646	0.0169556
800.724	0.0166361
800.802	0.0167840
800.880	0.0167120
800.958	0.0168105
801.036	0.0167658
801.114	0.0169371
801.192	0.0167896
801.271	0.0167423
801.349	0.0166138
801.427	0.0166830
801.505	0.0166953
801.583	0.0165913
801.661	0.0165305
801.739	0.0165604
801.817	0.0164265
801.896	0.0162115
801.974	0.0161374
802.052	0.0162261
802.130	0.0162756
802.208	0.0161378
802.286	0.0160426
802.364	0.0160169
802.442	0.0159497
802.521	0.0159432
802.599	0.0158993
802.677	0.0158820
802.755	0.0160441
802.833	0.0160829
802.911	0.0160348
802.989	0.0159255
803.067	0.0160473
803.146	0.0161468
803.224	0.0161650
803.302	0.0162736
803.380	0.0161919
803.458	0.0164065
803.536	0.0164263
803.614	0.0164124
803.692	0.0163291
803.771	0.0164254
803.849	0.0163677
803.927	0.0163738
804.005	0.0163386
804.083	0.0165578
804.161	0.0166039
804.239	0.0166549
804.317	0.0167471
804.396	0.0166785
804.474	0.0167155
804.552	0.0169077
804.630	0.0170332
804.708	0.0169867
804.786	0.0169486
804.864	0.0170347
804.942	0.0170424
805.021	0.0170606
805.099	0.0170913
805.177	0.0171462
805.255	0.0171127
805.333	0.0170393
805.411	0.0170079
805.489	0.0168548
805.567	0.0169145
805.646	0.0166935
805.724	0.0168230
805.802	0.0167522
805.880	0.0165196
805.958	0.0164414
806.036	0.0164616
806.114	0.0164188
806.192	0.0162925
806.271	0.0161186
806.349	0.0161635
806.427	0.0161637
806.505	0.0159214
806.583	0.0160043
806.661	0.0160390
806.739	0.0158471
806.817	0.0158078
806.896	0.0159383
806.974	0.0159448
807.052	0.0159536
807.130	0.0160368
807.208	0.0161743
807.286	0.0162370
807.364	0.0163319
807.442	0.0163004
807.521	0.0165305
807.599	0.0164909
807.677	0.0164029
807.755	0.0164391
807.833	0.0163771
807.911	0.0163931
807.989	0.0165404
808.067	0.0164417
808.146	0.0164188
808.224	0.0164083
808.302	0.0164383
808.380	0.0164059
808.458	0.0163170
808.536	0.0164529
808.614	0.0164084
808.692	0.0165137
808.771	0.0166330
808.849	0.0164912
808.927	0.0166544
809.005	0.0166901
809.083	0.0165360
809.161	0.0165681
809.239	0.0167125
809.317	0.0167147
809.396	0.0167099
809.474	0.0167145
809.552	0.0167254
809.630	0.0165530
809.708	0.0168375
809.786	0.0167916
809.864	0.0168193
809.942	0.0167207
810.021	0.0167031
810.099	0.0167230
810.177	0.0167136
810.255	0.0166271
810.333	0.0166286
810.411	0.0165679
810.489	0.0164845
810.567	0.0164331
810.646	0.0165946
810.724	0.0164483
810.802	0.0164658
810.880	0.0163768
810.958	0.0162764
811.036	0.0163340
811.114	0.0162479
811.192	0.0163465
811.271	0.0161933
811.349	0.0162702
811.427	0.0162917
811.505	0.0162479
811.583	0.0163795
811.661	0.0163297
811.739	0.0164978
811.817	0.0165540
811.896	0.0164482
811.974	0.0164876
812.052	0.0166150
812.130	0.0165802
812.208	0.0167149
812.286	0.0166251
812.364	0.0166754
812.442	0.0167030
812.521	0.0167489
812.599	0.0166761
812.677	0.0167923
812.755	0.0167117
812.833	0.0167193
812.911	0.0168396
812.989	0.0168593
813.067	0.0168925
813.146	0.0167363
813.224	0.0167570
813.302	0.0167827
813.380	0.0167357
813.458	0.0167422
813.536	0.0167498
813.614	0.0165814
813.692	0.0164062
813.771	0.0164717
813.849	0.0164404
813.927	0.0162206
814.005	0.0161172
814.083	0.0162284
814.161	0.0160480
814.239	0.0158158
814.317	0.0156811
814.396	0.0156577
814.474	0.0155604
814.552	0.0154216
814.630	0.0154014
814.708	0.0153548
814.786	0.0153696
814.864	0.0153132
814.942	0.0153721
815.021	0.0154326
815.099	0.0154803
815.177	0.0157260
815.255	0.0156451
815.333	0.0158824
815.411	0.0159075
815.489	0.0161032
815.567	0.0162164
815.646	0.0163175
815.724	0.0164145
815.802	0.0166465
815.880	0.0168004
815.958	0.0169704
816.036	0.0170185
816.114	0.0172073
816.192	0.0172778
816.271	0.0174722
816.349	0.0175179
816.427	0.0175829
816.505	0.0177123
816.583	0.0176441
816.661	0.0178688
816.739	0.0178428
816.817	0.0178471
816.896	0.0179327
816.974	0.0179434
817.052	0.0180188
817.130	0.0178688
817.208	0.0177586
817.286	0.0177120
817.364	0.0177235
817.442	0.0175894
817.521	0.0173505
817.599	0.0171889
817.677	0.0172678
817.755	0.0170425
817.833	0.0169277
817.911	0.0167201
817.989	0.0165280
818.067	0.0163845
818.146	0.0163039
818.224	0.0162891
818.302	0.0160807
818.380	0.0158519
818.458	0.0157938
818.536	0.0155505
818.614	0.0154291
818.692	0.0154191
818.771	0.0152744
818.849	0.0149970
818.927	0.0149150
819.005	0.0149058
819.083	0.0146693
819.161	0.0147195
819.239	0.0146523
819.317	0.0147187
819.396	0.0148354
819.474	0.0147903
819.552	0.0148327
819.630	0.0151398
819.708	0.0152546
819.786	0.0153032
819.864	0.0153869
819.942	0.0155811
820.021	0.0158755
820.099	0.0160918
820.177	0.0160976
820.255	0.0162751
820.333	0.0164716
820.411	0.0165836
820.489	0.0167286
820.567	0.0169418
820.646	0.0168559
820.724	0.0170940
820.802	0.0172514
820.880	0.0173857
820.958	0.0175639
821.036	0.0175589
821.114	0.0175704
821.192	0.0178178
821.271	0.0177007
821.349	0.0179469
821.427	0.0179031
821.505	0.0180550
821.583	0.0182348
821.661	0.0181505
821.739	0.0181786
821.817	0.0180164
821.896	0.0180797
821.974	0.0180711
822.052	0.0180025
822.130	0.0179423
822.208	0.0177889
822.286	0.0176183
822.364	0.0175343
822.442	0.0173634
822.521	0.0174072
822.599	0.0172558
822.677	0.0168780
822.755	0.0167758
822.833	0.0165878
822.911	0.0163807
822.989	0.0163509
823.067	0.0160175
823.146	0.0158770
823.224	0.0157574
823.302	0.0155816
823.380	0.0154182
823.458	0.0153582
823.536	0.0152758
823.614	0.0151151
823.692	0.0149544
823.771	0.0150758
823.849	0.0149634
823.927	0.0150734
824.005	0.0151308
824.083	0.0149985
824.161	0.0152837
824.239	0.0152000
824.317	0.0152531
824.396	0.0154838
824.474	0.0154664
824.552	0.0157192
824.630	0.0157603
824.708	0.0159325
824.786	0.0159652
824.864	0.0159813
824.942	0.0161880
825.021	0.0161337
825.099	0.0161915
825.177	0.0164351
825.255	0.0165377
825.333	0.0165018
825.411	0.0164700
825.489	0.0166539
825.567	0.0168748
825.646	0.0170474
825.724	0.0170072
825.802	0.0171764
825.880	0.0172253
825.958	0.0172549
826.036	0.0174527
826.114	0.0175000
826.192	0.0175663
826.271	0.0177585
826.349	0.0178917
826.427	0.0178616
826.505	0.0176250
826.583	0.0177248
826.661	0.0178220
826.739	0.0177776
826.817	0.0177368
826.896	0.0174621
826.974	0.0176629
827.052	0.0173679
827.130	0.0173341
827.208	0.0172274
827.286	0.0171441
827.364	0.0170374
827.442	0.0169259
827.521	0.0168432
827.599	0.0165988
827.677	0.0165610
827.755	0.0164836
827.833	0.0162929
827.911	0.0161279
827.989	0.0160837
828.067	0.0158144
828.146	0.0158929
828.224	0.0159195
828.302	0.0156861
828.380	0.0153851
828.458	0.0154268
828.536	0.0154333
828.614	0.0153963
828.692	0.0153113
828.771	0.0154710
828.849	0.0155408
828.927	0.0156734
829.005	0.0156098
829.083	0.0158820
829.161	0.0158173
829.239	0.0160670
829.317	0.0161923
829.396	0.0161832
829.474	0.0164280
829.552	0.0165075
829.630	0.0165563
829.708	0.0165366
829.786	0.0167186
829.864	0.0168932
829.942	0.0167163
830.021	0.0168450
830.099	0.0169708
830.177	0.0168336
830.255	0.0168098
830.333	0.0169781
830.411	0.0167673
830.489	0.0167689
830.567	0.0167016
830.646	0.0168600
830.724	0.0167780
830.802	0.0168680
830.880	0.0168253
830.958	0.0169747
831.036	0.0167361
831.114	0.0168491
831.192	0.0169746
831.271	0.0169160
831.349	0.0170216
831.427	0.0169509
831.505	0.0169425
831.583	0.0170366
831.661	0.0169749
831.739	0.0168416
831.817	0.0168892
831.896	0.0167912
831.974	0.0167981
832.052	0.0166558
832.130	0.0165556
832.208	0.0164944
832.286	0.0163826
832.364	0.0163998
832.442	0.0161587
832.521	0.0160733
832.599	0.0161402
832.677	0.0162748
832.755	0.0161028
832.833	0.0159164
832.911	0.0159024
832.989	0.0159360
833.067	0.0157969
833.146	0.0157510
833.224	0.0158989
833.302	0.0160057
833.380	0.0160394
833.458	0.0162128
833.536	0.0161660
833.614	0.0162907
833.692	0.0162900
833.771	0.0164005
833.849	0.0166061
833.927	0.0165546
834.005	0.0166749
834.083	0.0168250
834.161	0.0166663
834.239	0.0168203
834.317	0.0166807
834.396	0.0168109
834.474	0.0168410
834.552	0.0168010
834.630	0.0166500
834.708	0.0166136
834.786	0.0164360
834.864	0.0166677
834.942	0.0165343
835.021	0.0165134
835.099	0.0163976
835.177	0.0164880
835.255	0.0165743
835.333	0.0167079
835.411	0.0165923
835.489	0.0165457
835.567	0.0165121
835.646	0.0166652
835.724	0.0167155
835.802	0.0168401
835.880	0.0165237
835.958	0.0165463
836.036	0.0167248
836.114	0.0166914
836.192	0.0166019
836.271	0.0165294
836.349	0.0165942
836.427	0.0164492
836.505	0.0165211
836.583	0.0164195
836.661	0.0164510
836.739	0.0163762
836.817	0.0162604
836.896	0.0161996
836.974	0.0162209
837.052	0.0162775
837.130	0.0161779
837.208	0.0162820
837.286	0.0161983
837.364	0.0162343
837.442	0.0162700
837.521	0.0161786
837.599	0.0162717
837.677	0.0161338
837.755	0.0164564
837.833	0.0163617
837.911	0.0163523
837.989	0.0165186
838.067	0.0166243
838.146	0.0165866
838.224	0.0166278
838.302	0.0165878
838.380	0.0168261
838.458	0.0167626
838.536	0.0167471
838.614	0.0168890
838.692	0.0169000
838.771	0.0168002
838.849	0.0168391
838.927	0.0167992
839.005	0.0166801
839.083	0.0166753
839.161	0.0166759
839.239	0.0165122
839.317	0.0164857
839.396	0.0164584
839.474	0.0163030
839.552	0.0163106
839.630	0.0162492
839.708	0.0162137
839.786	0.0162177
839.864	0.0162138
839.942	0.0162090
840.021	0.0161938
840.099	0.0160713
840.177	0.0161971
840.255	0.0161786
840.333	0.0161253
840.411	0.0163286
840.489	0.0162399
840.567	0.0161837
840.646	0.0161295
840.724	0.0161975
840.802	0.0162842
840.880	0.0163905
840.958	0.0164910
841.036	0.0163427
841.114	0.0164679
841.192	0.0164831
841.271	0.0164455
841.349	0.0164242
841.427	0.0165508
841.505	0.0166435
841.583	0.0163776
841.661	0.0165726
841.739	0.0166387
841.817	0.0166859
841.896	0.0168258
841.974	0.0166953
842.052	0.0169077
842.130	0.0168726
842.208	0.0166737
842.286	0.0168230
842.364	0.0167969
842.442	0.0167796
842.521	0.0167924
842.599	0.0167638
842.677	0.0167255
842.755	0.0166415
842.833	0.0167691
842.911	0.0166804
842.989	0.0166716
843.067	0.0165457
843.146	0.0164993
843.224	0.0165089
843.302	0.0165627
843.380	0.0165109
843.458	0.0165130
843.536	0.0164700
843.614	0.0164236
843.692	0.0164442
843.771	0.0164619
843.849	0.0164964
843.927	0.0165913
844.005	0.0165795
844.083	0.0164629
844.161	0.0162794
844.239	0.0163715
844.317	0.0164113
844.396	0.0163368
844.474	0.0163077
844.552	0.0162451
844.630	0.0162550
844.708	0.0161366
844.786	0.0162878
844.864	0.0160575
844.942	0.0161248
845.021	0.0161804
845.099	0.0160500
845.177	0.0160680
845.255	0.0160485
845.333	0.0161076
845.411	0.0160385
845.489	0.0162141
845.567	0.0160220
845.646	0.0161086
845.724	0.0162412
845.802	0.0163248
845.880	0.0162598
845.958	0.0163732
846.036	0.0164624
846.114	0.0165204
846.192	0.0164567
846.271	0.0164966
846.349	0.0167276
846.427	0.0168092
846.505	0.0166638
846.583	0.0167356
846.661	0.0166621
846.739	0.0168259
846.817	0.0168918
846.896	0.0167018
846.974	0.0168151
847.052	0.0167365
847.130	0.0167067
847.208	0.0165936
847.286	0.0167445
847.364	0.0167989
847.442	0.0167133
847.521	0.0167429
847.599	0.0166040
847.677	0.0166656
847.755	0.0165996
847.833	0.0166833
847.911	0.0165266
847.989	0.0166320
848.067	0.0166904
848.146	0.0165046
848.224	0.0164675
848.302	0.0165341
848.380	0.0164652
848.458	0.0164106
848.536	0.0164687
848.614	0.0164783
848.692	0.0164471
848.771	0.0163734
848.849	0.0163869
848.927	0.0162264
849.005	0.0162382
849.083	0.0163294
849.161	0.0163881
849.239	0.0162379
849.317	0.0162901
849.396	0.0162840
849.474	0.0162263
849.552	0.0161881
849.630	0.0161144
849.708	0.0162212
849.786	0.0161124
849.864	0.0160864
849.942	0.0161417
850.021	0.0162345
850.099	0.0161898
850.177	0.0162003
850.255	0.0162918
850.333	0.0162554
850.411	0.0162597
850.489	0.0163895
850.567	0.0163940
850.646	0.0165174
850.724	0.0164441
850.802	0.0163930
850.880	0.0163808
850.958	0.0164388
851.036	0.0165158
851.114	0.0166299
851.192	0.0165480
851.271	0.0166077
851.349	0.0165941
851.427	0.0164792
851.505	0.0166579
851.583	0.0167815
851.661	0.0168101
851.739	0.0166653
851.817	0.0166985
851.896	0.0168279
851.974	0.0166765
852.052	0.0166667
852.130	0.0166720
852.208	0.0166643
852.286	0.0168173
852.364	0.0168149
852.442	0.0167600
852.521	0.0166851
852.599	0.0166913
852.677	0.0166450
852.755	0.0166014
852.833	0.0167400
852.911	0.0165739
852.989	0.0166541
853.067	0.0168319
853.146	0.0167632
853.224	0.0168771
853.302	0.0168892
853.380	0.0167844
853.458	0.0167567
853.536	0.0167067
853.614	0.0166134
853.692	0.0167078
853.771	0.0164923
853.849	0.0165474
853.927	0.0164262
854.005	0.0163832
854.083	0.0162893
854.161	0.0162340
854.239	0.0161570
854.317	0.0160448
854.396	0.0160591
854.474	0.0159869
854.552	0.0160574
854.630	0.0159715
854.708	0.0159899
854.786	0.0160065
854.864	0.0160283
854.942	0.0160151
855.021	0.0160275
855.099	0.0161742
855.177	0.0160770
855.255	0.0162633
855.333	0.0161988
855.411	0.0162595
855.489	0.0162148
855.567	0.0163306
855.646	0.0165608
855.724	0.0165143
855.802	0.0164467
855.880	0.0164324
855.958	0.0165414
856.036	0.0165971
856.114	0.0167039
856.192	0.0166565
856.271	0.0165392
856.349	0.0166414
856.427	0.0166705
856.505	0.0167712
856.583	0.0167052
856.661	0.0166060
856.739	0.0167247
856.817	0.0167422
856.896	0.0166346
856.974	0.0167330
857.052	0.0167159
857.130	0.0166769
857.208	0.0166837
857.286	0.0166582
857.364	0.0167239
857.442	0.0167725
857.521	0.0167368
857.599	0.0168073
857.677	0.0167560
857.755	0.0168621
857.833	0.0167527
857.911	0.0167006
857.989	0.0166281
858.067	0.0167739
858.146	0.0167297
858.224	0.0165988
858.302	0.0168043
858.380	0.0166557
858.458	0.0165582
858.536	0.0166270
858.614	0.0164497
858.692	0.0166104
858.771	0.0164388
858.849	0.0163525
858.927	0.0164980
859.005	0.0165015
859.083	0.0164439
859.161	0.0165060
859.239	0.0163100
859.317	0.0163891
859.396	0.0164449
859.474	0.0163670
859.552	0.0161673
859.630	0.0164394
859.708	0.0163707
859.786	0.0163509
859.864	0.0164865
859.942	0.0164527
860.021	0.0163206
860.099	0.0163061
860.177	0.0161749
860.255	0.0162823
860.333	0.0164960
860.411	0.0164269
860.489	0.0164214
860.567	0.0163398
860.646	0.0164728
860.724	0.0163938
860.802	0.0163655
860.880	0.0163870
860.958	0.0163229
861.036	0.0162314
861.114	0.0164312
861.192	0.0163850
861.271	0.0164396
861.349	0.0164639
861.427	0.0164617
861.505	0.0162489
861.583	0.0163076
861.661	0.0164696
861.739	0.0164012
861.817	0.0163539
861.896	0.0164956
861.974	0.0164316
862.052	0.0165784
862.130	0.0166579
862.208	0.0166077
862.286	0.0165578
862.364	0.0165826
862.442	0.0166310
862.521	0.0167019
862.599	0.0167038
862.677	0.0165593
862.755	0.0165510
862.833	0.0165977
862.911	0.0165492
862.989	0.0164503
863.067	0.0165085
863.146	0.0164639
863.224	0.0164719
863.302	0.0166028
863.380	0.0164391
863.458	0.0164584
863.536	0.0164523
863.614	0.0164474
863.692	0.0165421
863.771	0.0164947
863.849	0.0163979
863.927	0.0166085
864.005	0.0165318
864.083	0.0164465
864.161	0.0165725
864.239	0.0166028
864.317	0.0164659
864.396	0.0166285
864.474	0.0167422
864.552	0.0165575
864.630	0.0165166
864.708	0.0165067
864.786	0.0166043
864.864	0.0165144
864.942	0.0164790
865.021	0.0166147
865.099	0.0165328
865.177	0.0164917
865.255	0.0165101
865.333	0.0165100
865.411	0.0164596
865.489	0.0165698
865.567	0.0163365
865.646	0.0164643
865.724	0.0163832
865.802	0.0165381
865.880	0.0165822
865.958	0.0164547
866.036	0.0163361
866.114	0.0165240
866.192	0.0163881
866.271	0.0163748
866.349	0.0163993
866.427	0.0164328
866.505	0.0163223
866.583	0.0163958
866.661	0.0163105
866.739	0.0164140
866.817	0.0162627
866.896	0.0163504
866.974	0.0163689
867.052	0.0164797
867.130	0.0164599
867.208	0.0163522
867.286	0.0163458
867.364	0.0163204
867.442	0.0162703
867.521	0.0163241
867.599	0.0163413
867.677	0.0164004
867.755	0.0161642
867.833	0.0163449
867.911	0.0163884
867.989	0.0162823
868.067	0.0162626
868.146	0.0164783
868.224	0.0164943
868.302	0.0163451
868.380	0.0163720
868.458	0.0165002
868.536	0.0164841
868.614	0.0165229
868.692	0.0165509
868.771	0.0165422
868.849	0.0165673
868.927	0.0166463
869.005	0.0165255
869.083	0.0166084
869.161	0.0167020
869.239	0.0166946
869.317	0.0165366
869.396	0.0165333
869.474	0.0165253
869.552	0.0167272
869.630	0.0167556
869.708	0.0166107
869.786	0.0166360
869.864	0.0166679
869.942	0.0165295
