06/03/2022	15:39:41	Ver.	4.1	UNKNOWN
Optical Delay	550.020508	Delta X		0.078125	Sweeps	1	Scan Rate	0/0
Coordinates	Axis 1	NaN	Axis 2	NaN	Axis 3	NaN	Axis 4	NaN	Axis 5	NaN	Axis 6	0.000000
TX Power	0.000000	RX Power	0.000000

550.021	0.0162680
550.099	0.0163159
550.177	0.0162878
550.255	0.0161916
550.333	0.0163519
550.411	0.0163228
550.489	0.0163126
550.567	0.0162658
550.646	0.0163256
550.724	0.0162702
550.802	0.0164130
550.880	0.0163818
550.958	0.0162859
551.036	0.0162627
551.114	0.0161593
551.192	0.0162251
551.271	0.0163126
551.349	0.0162760
551.427	0.0163113
551.505	0.0162819
551.583	0.0163147
551.661	0.0163178
551.739	0.0162517
551.817	0.0162633
551.896	0.0164059
551.974	0.0163194
552.052	0.0162148
552.130	0.0162700
552.208	0.0162450
552.286	0.0162488
552.364	0.0162001
552.442	0.0162786
552.521	0.0163226
552.599	0.0163236
552.677	0.0162242
552.755	0.0162787
552.833	0.0162473
552.911	0.0163358
552.989	0.0163101
553.067	0.0162325
553.146	0.0163374
553.224	0.0163351
553.302	0.0163442
553.380	0.0162586
553.458	0.0163047
553.536	0.0163145
553.614	0.0162696
553.692	0.0163093
553.771	0.0163364
553.849	0.0162676
553.927	0.0164600
554.005	0.0162315
554.083	0.0163587
554.161	0.0163321
554.239	0.0161866
554.317	0.0162555
554.396	0.0164515
554.474	0.0162259
554.552	0.0163239
554.630	0.0164214
554.708	0.0163992
554.786	0.0163260
554.864	0.0162615
554.942	0.0162113
555.021	0.0161990
555.099	0.0163799
555.177	0.0163705
555.255	0.0162414
555.333	0.0162370
555.411	0.0164383
555.489	0.0163499
555.567	0.0163615
555.646	0.0164137
555.724	0.0163245
555.802	0.0163944
555.880	0.0163128
555.958	0.0163140
556.036	0.0162319
556.114	0.0162804
556.192	0.0163386
556.271	0.0160622
556.349	0.0162431
556.427	0.0164132
556.505	0.0162595
556.583	0.0163078
556.661	0.0162112
556.739	0.0162407
556.817	0.0162692
556.896	0.0161479
556.974	0.0162290
557.052	0.0163110
557.130	0.0163714
557.208	0.0164942
557.286	0.0162863
557.364	0.0162832
557.442	0.0162915
557.521	0.0161823
557.599	0.0163205
557.677	0.0164442
557.755	0.0162679
557.833	0.0163433
557.911	0.0162580
557.989	0.0162670
558.067	0.0162989
558.146	0.0162682
558.224	0.0163766
558.302	0.0162074
558.380	0.0161608
558.458	0.0162838
558.536	0.0163694
558.614	0.0163024
558.692	0.0161781
558.771	0.0163527
558.849	0.0163034
558.927	0.0163393
559.005	0.0163441
559.083	0.0162308
559.161	0.0162471
559.239	0.0163463
559.317	0.0162310
559.396	0.0163879
559.474	0.0163554
559.552	0.0162894
559.630	0.0161742
559.708	0.0161864
559.786	0.0162534
559.864	0.0163214
559.942	0.0162878
560.021	0.0162127
560.099	0.0163455
560.177	0.0163215
560.255	0.0162089
560.333	0.0162329
560.411	0.0162106
560.489	0.0164198
560.567	0.0162790
560.646	0.0161740
560.724	0.0163382
560.802	0.0162094
560.880	0.0162291
560.958	0.0162548
561.036	0.0162935
561.114	0.0162639
561.192	0.0163844
561.271	0.0162734
561.349	0.0162749
561.427	0.0162372
561.505	0.0161543
561.583	0.0162998
561.661	0.0162842
561.739	0.0162492
561.817	0.0162879
561.896	0.0163889
561.974	0.0164891
562.052	0.0162228
562.130	0.0161697
562.208	0.0164453
562.286	0.0163050
562.364	0.0161382
562.442	0.0163514
562.521	0.0164121
562.599	0.0162440
562.677	0.0161975
562.755	0.0162746
562.833	0.0161765
562.911	0.0163418
562.989	0.0162486
563.067	0.0162068
563.146	0.0161668
563.224	0.0162959
563.302	0.0163713
563.380	0.0162705
563.458	0.0163297
563.536	0.0161693
563.614	0.0161829
563.692	0.0162302
563.771	0.0163251
563.849	0.0162523
563.927	0.0162632
564.005	0.0161279
564.083	0.0162183
564.161	0.0163064
564.239	0.0163921
564.317	0.0162785
564.396	0.0163595
564.474	0.0163874
564.552	0.0163595
564.630	0.0162882
564.708	0.0163406
564.786	0.0163256
564.864	0.0163084
564.942	0.0162914
565.021	0.0161403
565.099	0.0163182
565.177	0.0162439
565.255	0.0162055
565.333	0.0161842
565.411	0.0162972
565.489	0.0163914
565.567	0.0162431
565.646	0.0161684
565.724	0.0163362
565.802	0.0162777
565.880	0.0161835
565.958	0.0161799
566.036	0.0162830
566.114	0.0162584
566.192	0.0161561
566.271	0.0163189
566.349	0.0161727
566.427	0.0163402
566.505	0.0163563
566.583	0.0163411
566.661	0.0162100
566.739	0.0162621
566.817	0.0162347
566.896	0.0162644
566.974	0.0163165
567.052	0.0162991
567.130	0.0164063
567.208	0.0162886
567.286	0.0162726
567.364	0.0162272
567.442	0.0162834
567.521	0.0162615
567.599	0.0162024
567.677	0.0163753
567.755	0.0162923
567.833	0.0161771
567.911	0.0162176
567.989	0.0162655
568.067	0.0163403
568.146	0.0163385
568.224	0.0162942
568.302	0.0161610
568.380	0.0163221
568.458	0.0162178
568.536	0.0164040
568.614	0.0163499
568.692	0.0163268
568.771	0.0162841
568.849	0.0163759
568.927	0.0162740
569.005	0.0162512
569.083	0.0161977
569.161	0.0162965
569.239	0.0163354
569.317	0.0163575
569.396	0.0162693
569.474	0.0162515
569.552	0.0162151
569.630	0.0162062
569.708	0.0162207
569.786	0.0163378
569.864	0.0162185
569.942	0.0161634
570.021	0.0162856
570.099	0.0162820
570.177	0.0164207
570.255	0.0161637
570.333	0.0162566
570.411	0.0162650
570.489	0.0161703
570.567	0.0163331
570.646	0.0162157
570.724	0.0162619
570.802	0.0161906
570.880	0.0162791
570.958	0.0162933
571.036	0.0162505
571.114	0.0162489
571.192	0.0163232
571.271	0.0162216
571.349	0.0162151
571.427	0.0162354
571.505	0.0162233
571.583	0.0163025
571.661	0.0162517
571.739	0.0162977
571.817	0.0162469
571.896	0.0163448
571.974	0.0162495
572.052	0.0162034
572.130	0.0162935
572.208	0.0162831
572.286	0.0160963
572.364	0.0162867
572.442	0.0163827
572.521	0.0164156
572.599	0.0161326
572.677	0.0161336
572.755	0.0161829
572.833	0.0161086
572.911	0.0162363
572.989	0.0162279
573.067	0.0162600
573.146	0.0163638
573.224	0.0162075
573.302	0.0162264
573.380	0.0163984
573.458	0.0163451
573.536	0.0162553
573.614	0.0163142
573.692	0.0161934
573.771	0.0163162
573.849	0.0162820
573.927	0.0161860
574.005	0.0162342
574.083	0.0161924
574.161	0.0163050
574.239	0.0161768
574.317	0.0162640
574.396	0.0162088
574.474	0.0161778
574.552	0.0162907
574.630	0.0161435
574.708	0.0163246
574.786	0.0162633
574.864	0.0162437
574.942	0.0162640
575.021	0.0162985
575.099	0.0161864
575.177	0.0163913
575.255	0.0162639
575.333	0.0162395
575.411	0.0162725
575.489	0.0162988
575.567	0.0163038
575.646	0.0162936
575.724	0.0162558
575.802	0.0163168
575.880	0.0162118
575.958	0.0163192
576.036	0.0163016
576.114	0.0161938
576.192	0.0162541
576.271	0.0164532
576.349	0.0162057
576.427	0.0162624
576.505	0.0163101
576.583	0.0163079
576.661	0.0162471
576.739	0.0161302
576.817	0.0161656
576.896	0.0163934
576.974	0.0162140
577.052	0.0161797
577.130	0.0162011
577.208	0.0162033
577.286	0.0161636
577.364	0.0161990
577.442	0.0163449
577.521	0.0161891
577.599	0.0162360
577.677	0.0162964
577.755	0.0164047
577.833	0.0161481
577.911	0.0161021
577.989	0.0163397
578.067	0.0162527
578.146	0.0161995
578.224	0.0163190
578.302	0.0163406
578.380	0.0163945
578.458	0.0162483
578.536	0.0162016
578.614	0.0163126
578.692	0.0163754
578.771	0.0162874
578.849	0.0162691
578.927	0.0162808
579.005	0.0161843
579.083	0.0161472
579.161	0.0161860
579.239	0.0163556
579.317	0.0163470
579.396	0.0163583
579.474	0.0163834
579.552	0.0161798
579.630	0.0163264
579.708	0.0163618
579.786	0.0163649
579.864	0.0163445
579.942	0.0162623
580.021	0.0162448
580.099	0.0164034
580.177	0.0162659
580.255	0.0162560
580.333	0.0164227
580.411	0.0162829
580.489	0.0163579
580.567	0.0162976
580.646	0.0163178
580.724	0.0163902
580.802	0.0162508
580.880	0.0162079
580.958	0.0162980
581.036	0.0162124
581.114	0.0161720
581.192	0.0162558
581.271	0.0163813
581.349	0.0163701
581.427	0.0163377
581.505	0.0162506
581.583	0.0163593
581.661	0.0163047
581.739	0.0163280
581.817	0.0163198
581.896	0.0164114
581.974	0.0163013
582.052	0.0163428
582.130	0.0163406
582.208	0.0162893
582.286	0.0163602
582.364	0.0163156
582.442	0.0163660
582.521	0.0163788
582.599	0.0162593
582.677	0.0163983
582.755	0.0163556
582.833	0.0162922
582.911	0.0162339
582.989	0.0161366
583.067	0.0162960
583.146	0.0162272
583.224	0.0161152
583.302	0.0162868
583.380	0.0163412
583.458	0.0162807
583.536	0.0163684
583.614	0.0162904
583.692	0.0163307
583.771	0.0162733
583.849	0.0163452
583.927	0.0162297
584.005	0.0163364
584.083	0.0164463
584.161	0.0164052
584.239	0.0161568
584.317	0.0162985
584.396	0.0163920
584.474	0.0163300
584.552	0.0162408
584.630	0.0162222
584.708	0.0163740
584.786	0.0163609
584.864	0.0163144
584.942	0.0162863
585.021	0.0164509
585.099	0.0162077
585.177	0.0163773
585.255	0.0163373
585.333	0.0163451
585.411	0.0162228
585.489	0.0162714
585.567	0.0163414
585.646	0.0162392
585.724	0.0164297
585.802	0.0162541
585.880	0.0162039
585.958	0.0163110
586.036	0.0162788
586.114	0.0163543
586.192	0.0162248
586.271	0.0163361
586.349	0.0162300
586.427	0.0162831
586.505	0.0162910
586.583	0.0163256
586.661	0.0162344
586.739	0.0162679
586.817	0.0161946
586.896	0.0162196
586.974	0.0162782
587.052	0.0161439
587.130	0.0163846
587.208	0.0162393
587.286	0.0162290
587.364	0.0164204
587.442	0.0162910
587.521	0.0163240
587.599	0.0161719
587.677	0.0163204
587.755	0.0162995
587.833	0.0163223
587.911	0.0163664
587.989	0.0162048
588.067	0.0162038
588.146	0.0162241
588.224	0.0161961
588.302	0.0162750
588.380	0.0163664
588.458	0.0162367
588.536	0.0162424
588.614	0.0163656
588.692	0.0163148
588.771	0.0164053
588.849	0.0162902
588.927	0.0162738
589.005	0.0163531
589.083	0.0162736
589.161	0.0164088
589.239	0.0162852
589.317	0.0162605
589.396	0.0163274
589.474	0.0163374
589.552	0.0163005
589.630	0.0162711
589.708	0.0161849
589.786	0.0162270
589.864	0.0163577
589.942	0.0162642
590.021	0.0161876
590.099	0.0162636
590.177	0.0162284
590.255	0.0163421
590.333	0.0164518
590.411	0.0162887
590.489	0.0162888
590.567	0.0163424
590.646	0.0162038
590.724	0.0161711
590.802	0.0162613
590.880	0.0163380
590.958	0.0162911
591.036	0.0163167
591.114	0.0164374
591.192	0.0162612
591.271	0.0162034
591.349	0.0162956
591.427	0.0162132
591.505	0.0161732
591.583	0.0162775
591.661	0.0163643
591.739	0.0162359
591.817	0.0163443
591.896	0.0161758
591.974	0.0162202
592.052	0.0161986
592.130	0.0162975
592.208	0.0163316
592.286	0.0162786
592.364	0.0163178
592.442	0.0163109
592.521	0.0162000
592.599	0.0161585
592.677	0.0163744
592.755	0.0164255
592.833	0.0163270
592.911	0.0163232
592.989	0.0163122
593.067	0.0163023
593.146	0.0163495
593.224	0.0163332
593.302	0.0162394
593.380	0.0162276
593.458	0.0163322
593.536	0.0162350
593.614	0.0161691
593.692	0.0162999
593.771	0.0162491
593.849	0.0162529
593.927	0.0163123
594.005	0.0163622
594.083	0.0161928
594.161	0.0162272
594.239	0.0162277
594.317	0.0163628
594.396	0.0163071
594.474	0.0163535
594.552	0.0163876
594.630	0.0162215
594.708	0.0162764
594.786	0.0161842
594.864	0.0162620
594.942	0.0163206
595.021	0.0162534
595.099	0.0162670
595.177	0.0163746
595.255	0.0162296
595.333	0.0162295
595.411	0.0162759
595.489	0.0165532
595.567	0.0162944
595.646	0.0162612
595.724	0.0162499
595.802	0.0162309
595.880	0.0160956
595.958	0.0162482
596.036	0.0164330
596.114	0.0162990
596.192	0.0163110
596.271	0.0164043
596.349	0.0162181
596.427	0.0161950
596.505	0.0163579
596.583	0.0163592
596.661	0.0162522
596.739	0.0162276
596.817	0.0163494
596.896	0.0162633
596.974	0.0162860
597.052	0.0163215
597.130	0.0163203
597.208	0.0162696
597.286	0.0163610
597.364	0.0162082
597.442	0.0162048
597.521	0.0162903
597.599	0.0163715
597.677	0.0162600
597.755	0.0162115
597.833	0.0163272
597.911	0.0163422
597.989	0.0161981
598.067	0.0162358
598.146	0.0163429
598.224	0.0162602
598.302	0.0162019
598.380	0.0161861
598.458	0.0163520
598.536	0.0162856
598.614	0.0162247
598.692	0.0163094
598.771	0.0161584
598.849	0.0162223
598.927	0.0162580
599.005	0.0163930
599.083	0.0163705
599.161	0.0162951
599.239	0.0161767
599.317	0.0163195
599.396	0.0162612
599.474	0.0161340
599.552	0.0162864
599.630	0.0162251
599.708	0.0161207
599.786	0.0162083
599.864	0.0162960
599.942	0.0163118
600.021	0.0162121
600.099	0.0161871
600.177	0.0163242
600.255	0.0163226
600.333	0.0162830
600.411	0.0163010
600.489	0.0162551
600.567	0.0163266
600.646	0.0162740
600.724	0.0162411
600.802	0.0163683
600.880	0.0162789
600.958	0.0163281
601.036	0.0162694
601.114	0.0162595
601.192	0.0163180
601.271	0.0162206
601.349	0.0162038
601.427	0.0161997
601.505	0.0163760
601.583	0.0162939
601.661	0.0161877
601.739	0.0163073
601.817	0.0161935
601.896	0.0162427
601.974	0.0163157
602.052	0.0162814
602.130	0.0163521
602.208	0.0163351
602.286	0.0163280
602.364	0.0163435
602.442	0.0162553
602.521	0.0162087
602.599	0.0163227
602.677	0.0162062
602.755	0.0163071
602.833	0.0164153
602.911	0.0162241
602.989	0.0162167
603.067	0.0161423
603.146	0.0161627
603.224	0.0162054
603.302	0.0162579
603.380	0.0163315
603.458	0.0162393
603.536	0.0161552
603.614	0.0161639
603.692	0.0162774
603.771	0.0163709
603.849	0.0163695
603.927	0.0162833
604.005	0.0162164
604.083	0.0163126
604.161	0.0163021
604.239	0.0162513
604.317	0.0162711
604.396	0.0163054
604.474	0.0163143
604.552	0.0161430
604.630	0.0162102
604.708	0.0162925
604.786	0.0162607
604.864	0.0163826
604.942	0.0162915
605.021	0.0163142
605.099	0.0162703
605.177	0.0162088
605.255	0.0162461
605.333	0.0163689
605.411	0.0163345
605.489	0.0163097
605.567	0.0163458
605.646	0.0163723
605.724	0.0162675
605.802	0.0162856
605.880	0.0163589
605.958	0.0162965
606.036	0.0163614
606.114	0.0162925
606.192	0.0162282
606.271	0.0161868
606.349	0.0161633
606.427	0.0162215
606.505	0.0163232
606.583	0.0163450
606.661	0.0163218
606.739	0.0162302
606.817	0.0162687
606.896	0.0163219
606.974	0.0163184
607.052	0.0162785
607.130	0.0162671
607.208	0.0161247
607.286	0.0162437
607.364	0.0161375
607.442	0.0161605
607.521	0.0162407
607.599	0.0162209
607.677	0.0162263
607.755	0.0161730
607.833	0.0162049
607.911	0.0161977
607.989	0.0163290
608.067	0.0163022
608.146	0.0162386
608.224	0.0161173
608.302	0.0161649
608.380	0.0162678
608.458	0.0163376
608.536	0.0162802
608.614	0.0163942
608.692	0.0162598
608.771	0.0162070
608.849	0.0162224
608.927	0.0162232
609.005	0.0162137
609.083	0.0163388
609.161	0.0161320
609.239	0.0163554
609.317	0.0164247
609.396	0.0163410
609.474	0.0162968
609.552	0.0162537
609.630	0.0161755
609.708	0.0162787
609.786	0.0163064
609.864	0.0163245
609.942	0.0160313
610.021	0.0163452
610.099	0.0163641
610.177	0.0162292
610.255	0.0162590
610.333	0.0162666
610.411	0.0163474
610.489	0.0162663
610.567	0.0161870
610.646	0.0162437
610.724	0.0162660
610.802	0.0163560
610.880	0.0161750
610.958	0.0162965
611.036	0.0162179
611.114	0.0163467
611.192	0.0163140
611.271	0.0162793
611.349	0.0162998
611.427	0.0162804
611.505	0.0162173
611.583	0.0162009
611.661	0.0162946
611.739	0.0162120
611.817	0.0163512
611.896	0.0161999
611.974	0.0162792
612.052	0.0161744
612.130	0.0162691
612.208	0.0162702
612.286	0.0162505
612.364	0.0162901
612.442	0.0161736
612.521	0.0162073
612.599	0.0162028
612.677	0.0164520
612.755	0.0161768
612.833	0.0162624
612.911	0.0162661
612.989	0.0162435
613.067	0.0161987
613.146	0.0162407
613.224	0.0163319
613.302	0.0162597
613.380	0.0164390
613.458	0.0162488
613.536	0.0163931
613.614	0.0162555
613.692	0.0162929
613.771	0.0163406
613.849	0.0163728
613.927	0.0163960
614.005	0.0162813
614.083	0.0161558
614.161	0.0163421
614.239	0.0161790
614.317	0.0162054
614.396	0.0163692
614.474	0.0162485
614.552	0.0162691
614.630	0.0162906
614.708	0.0162514
614.786	0.0163222
614.864	0.0162650
614.942	0.0162119
615.021	0.0162800
615.099	0.0163061
615.177	0.0162366
615.255	0.0162326
615.333	0.0162767
615.411	0.0162830
615.489	0.0162141
615.567	0.0163695
615.646	0.0163294
615.724	0.0163510
615.802	0.0162833
615.880	0.0163329
615.958	0.0162179
616.036	0.0162974
616.114	0.0163224
616.192	0.0162394
616.271	0.0163004
616.349	0.0163011
616.427	0.0163718
616.505	0.0163113
616.583	0.0163344
616.661	0.0163670
616.739	0.0162891
616.817	0.0162872
616.896	0.0162283
616.974	0.0161583
617.052	0.0163596
617.130	0.0162392
617.208	0.0162959
617.286	0.0161155
617.364	0.0162700
617.442	0.0162287
617.521	0.0162105
617.599	0.0162063
617.677	0.0162446
617.755	0.0162586
617.833	0.0162148
617.911	0.0161545
617.989	0.0163243
618.067	0.0162945
618.146	0.0161411
618.224	0.0162776
618.302	0.0162480
618.380	0.0161593
618.458	0.0162440
618.536	0.0162436
618.614	0.0163042
618.692	0.0161621
618.771	0.0163342
618.849	0.0163266
618.927	0.0164043
619.005	0.0162827
619.083	0.0163375
619.161	0.0162914
619.239	0.0162365
619.317	0.0162975
619.396	0.0162324
619.474	0.0163074
619.552	0.0162246
619.630	0.0163177
619.708	0.0162988
619.786	0.0162237
619.864	0.0162579
619.942	0.0163405
620.021	0.0161959
620.099	0.0162411
620.177	0.0162609
620.255	0.0163779
620.333	0.0163353
620.411	0.0163581
620.489	0.0162505
620.567	0.0161876
620.646	0.0162141
620.724	0.0163134
620.802	0.0163512
620.880	0.0163294
620.958	0.0163410
621.036	0.0163308
621.114	0.0162881
621.192	0.0161214
621.271	0.0162122
621.349	0.0161568
621.427	0.0162915
621.505	0.0162886
621.583	0.0163263
621.661	0.0162852
621.739	0.0162807
621.817	0.0162419
621.896	0.0161858
621.974	0.0162152
622.052	0.0162761
622.130	0.0162061
622.208	0.0161120
622.286	0.0162133
622.364	0.0163379
622.442	0.0161915
622.521	0.0162367
622.599	0.0161964
622.677	0.0162450
622.755	0.0161912
622.833	0.0162035
622.911	0.0161839
622.989	0.0162639
623.067	0.0163141
623.146	0.0161743
623.224	0.0162775
623.302	0.0162238
623.380	0.0161506
623.458	0.0161629
623.536	0.0161042
623.614	0.0163152
623.692	0.0161786
623.771	0.0161292
623.849	0.0162031
623.927	0.0161541
624.005	0.0163371
624.083	0.0162439
624.161	0.0162233
624.239	0.0162333
624.317	0.0163643
624.396	0.0162797
624.474	0.0161217
624.552	0.0162232
624.630	0.0162820
624.708	0.0162954
624.786	0.0163021
624.864	0.0162483
624.942	0.0162910
625.021	0.0161836
625.099	0.0161874
625.177	0.0162698
625.255	0.0161578
625.333	0.0162966
625.411	0.0162065
625.489	0.0161445
625.567	0.0162120
625.646	0.0163570
625.724	0.0162607
625.802	0.0160637
625.880	0.0161842
625.958	0.0162117
626.036	0.0161777
626.114	0.0162165
626.192	0.0162859
626.271	0.0162003
626.349	0.0162299
626.427	0.0163737
626.505	0.0161913
626.583	0.0161945
626.661	0.0162782
626.739	0.0162865
626.817	0.0163120
626.896	0.0161555
626.974	0.0161477
627.052	0.0162107
627.130	0.0161993
627.208	0.0163268
627.286	0.0161086
627.364	0.0162630
627.442	0.0163286
627.521	0.0161843
627.599	0.0162354
627.677	0.0162614
627.755	0.0164283
627.833	0.0162357
627.911	0.0161855
627.989	0.0161985
628.067	0.0163358
628.146	0.0162401
628.224	0.0162339
628.302	0.0161288
628.380	0.0162992
628.458	0.0162527
628.536	0.0163485
628.614	0.0162710
628.692	0.0161694
628.771	0.0162421
628.849	0.0162868
628.927	0.0162396
629.005	0.0162749
629.083	0.0162724
629.161	0.0163029
629.239	0.0162083
629.317	0.0161907
629.396	0.0161774
629.474	0.0162420
629.552	0.0162822
629.630	0.0162636
629.708	0.0164121
629.786	0.0162737
629.864	0.0162113
629.942	0.0161865
630.021	0.0163613
630.099	0.0162426
630.177	0.0162304
630.255	0.0162415
630.333	0.0162968
630.411	0.0162292
630.489	0.0161066
630.567	0.0161514
630.646	0.0163542
630.724	0.0162935
630.802	0.0161317
630.880	0.0161891
630.958	0.0162009
631.036	0.0163079
631.114	0.0161349
631.192	0.0162173
631.271	0.0161225
631.349	0.0163178
631.427	0.0161572
631.505	0.0162254
631.583	0.0163185
631.661	0.0163648
631.739	0.0162910
631.817	0.0162444
631.896	0.0162700
631.974	0.0163313
632.052	0.0161957
632.130	0.0162495
632.208	0.0163139
632.286	0.0161430
632.364	0.0162558
632.442	0.0162252
632.521	0.0163409
632.599	0.0163503
632.677	0.0162540
632.755	0.0161662
632.833	0.0162650
632.911	0.0162088
632.989	0.0162426
633.067	0.0162151
633.146	0.0162531
633.224	0.0162295
633.302	0.0162555
633.380	0.0163264
633.458	0.0160988
633.536	0.0161945
633.614	0.0162444
633.692	0.0162968
633.771	0.0162766
633.849	0.0161576
633.927	0.0161578
634.005	0.0160880
634.083	0.0162686
634.161	0.0162169
634.239	0.0161752
634.317	0.0162432
634.396	0.0162659
634.474	0.0162656
634.552	0.0162318
634.630	0.0162190
634.708	0.0160959
634.786	0.0161855
634.864	0.0162601
634.942	0.0162147
635.021	0.0162684
635.099	0.0163715
635.177	0.0163227
635.255	0.0163019
635.333	0.0161872
635.411	0.0162225
635.489	0.0161594
635.567	0.0163694
635.646	0.0161513
635.724	0.0163741
635.802	0.0162748
635.880	0.0161916
635.958	0.0162128
636.036	0.0162164
636.114	0.0163470
636.192	0.0160608
636.271	0.0162432
636.349	0.0163395
636.427	0.0161360
636.505	0.0162049
636.583	0.0162921
636.661	0.0163205
636.739	0.0162546
636.817	0.0161402
636.896	0.0162484
636.974	0.0163397
637.052	0.0163551
637.130	0.0162638
637.208	0.0161739
637.286	0.0163149
637.364	0.0162213
637.442	0.0161213
637.521	0.0163923
637.599	0.0162081
637.677	0.0161559
637.755	0.0161899
637.833	0.0163834
637.911	0.0163190
637.989	0.0161610
638.067	0.0161935
638.146	0.0162302
638.224	0.0162752
638.302	0.0162846
638.380	0.0162713
638.458	0.0160883
638.536	0.0161904
638.614	0.0162777
638.692	0.0163132
638.771	0.0161533
638.849	0.0162160
638.927	0.0162653
639.005	0.0162459
639.083	0.0163046
639.161	0.0162650
639.239	0.0162047
639.317	0.0162977
639.396	0.0162910
639.474	0.0162499
639.552	0.0161771
639.630	0.0161279
639.708	0.0161310
639.786	0.0162988
639.864	0.0161688
639.942	0.0162435
640.021	0.0164034
640.099	0.0162636
640.177	0.0163191
640.255	0.0163229
640.333	0.0163160
640.411	0.0163618
640.489	0.0162939
640.567	0.0163452
640.646	0.0161997
640.724	0.0163428
640.802	0.0164378
640.880	0.0162260
640.958	0.0163035
641.036	0.0162572
641.114	0.0162730
641.192	0.0163210
641.271	0.0162789
641.349	0.0163487
641.427	0.0163475
641.505	0.0161771
641.583	0.0163246
641.661	0.0162509
641.739	0.0162463
641.817	0.0163116
641.896	0.0161723
641.974	0.0162408
642.052	0.0161936
642.130	0.0163697
642.208	0.0161946
642.286	0.0161579
642.364	0.0162293
642.442	0.0162417
642.521	0.0161214
642.599	0.0162634
642.677	0.0163918
642.755	0.0162476
642.833	0.0160450
642.911	0.0162127
642.989	0.0162103
643.067	0.0161995
643.146	0.0161599
643.224	0.0162545
643.302	0.0160892
643.380	0.0161420
643.458	0.0163178
643.536	0.0160368
643.614	0.0162027
643.692	0.0161722
643.771	0.0161250
643.849	0.0160212
643.927	0.0160626
644.005	0.0161839
644.083	0.0163554
644.161	0.0162702
644.239	0.0161533
644.317	0.0160499
644.396	0.0162445
644.474	0.0162700
644.552	0.0161920
644.630	0.0162424
644.708	0.0161892
644.786	0.0162431
644.864	0.0161681
644.942	0.0162367
645.021	0.0162023
645.099	0.0162292
645.177	0.0162871
645.255	0.0162395
645.333	0.0162858
645.411	0.0162486
645.489	0.0163857
645.567	0.0163596
645.646	0.0163525
645.724	0.0163819
645.802	0.0163374
645.880	0.0162830
645.958	0.0163380
646.036	0.0161415
646.114	0.0163505
646.192	0.0164230
646.271	0.0162357
646.349	0.0162776
646.427	0.0162860
646.505	0.0162619
646.583	0.0162494
646.661	0.0162868
646.739	0.0162623
646.817	0.0161981
646.896	0.0163773
646.974	0.0162160
647.052	0.0162457
647.130	0.0162625
647.208	0.0163315
647.286	0.0163472
647.364	0.0162859
647.442	0.0161682
647.521	0.0161161
647.599	0.0162451
647.677	0.0162878
647.755	0.0161764
647.833	0.0162170
647.911	0.0162807
647.989	0.0161830
648.067	0.0162337
648.146	0.0162923
648.224	0.0161358
648.302	0.0161648
648.380	0.0162457
648.458	0.0163299
648.536	0.0162610
648.614	0.0161711
648.692	0.0162151
648.771	0.0161330
648.849	0.0162543
648.927	0.0161465
649.005	0.0163262
649.083	0.0163306
649.161	0.0161999
649.239	0.0163437
649.317	0.0162007
649.396	0.0162397
649.474	0.0162035
649.552	0.0161483
649.630	0.0162437
649.708	0.0162699
649.786	0.0162755
649.864	0.0163379
649.942	0.0163034
650.021	0.0163072
650.099	0.0163350
650.177	0.0162566
650.255	0.0163601
650.333	0.0163295
650.411	0.0162233
650.489	0.0162693
650.567	0.0163023
650.646	0.0163078
650.724	0.0163107
650.802	0.0162142
650.880	0.0162266
650.958	0.0163927
651.036	0.0162378
651.114	0.0161987
651.192	0.0163303
651.271	0.0163221
651.349	0.0162912
651.427	0.0162266
651.505	0.0162742
651.583	0.0162022
651.661	0.0161761
651.739	0.0161372
651.817	0.0162806
651.896	0.0162955
651.974	0.0161813
652.052	0.0160982
652.130	0.0162135
652.208	0.0162351
652.286	0.0162257
652.364	0.0162923
652.442	0.0162988
652.521	0.0163151
652.599	0.0162804
652.677	0.0163172
652.755	0.0163451
652.833	0.0163413
652.911	0.0162356
652.989	0.0161681
653.067	0.0163611
653.146	0.0162022
653.224	0.0161717
653.302	0.0163250
653.380	0.0161076
653.458	0.0161427
653.536	0.0162089
653.614	0.0162223
653.692	0.0161430
653.771	0.0162675
653.849	0.0163844
653.927	0.0161444
654.005	0.0162564
654.083	0.0162634
654.161	0.0162045
654.239	0.0163315
654.317	0.0163041
654.396	0.0162084
654.474	0.0161821
654.552	0.0161655
654.630	0.0161344
654.708	0.0163933
654.786	0.0161853
654.864	0.0161808
654.942	0.0162883
655.021	0.0162040
655.099	0.0162157
655.177	0.0162242
655.255	0.0164035
655.333	0.0163156
655.411	0.0162460
655.489	0.0162658
655.567	0.0162985
655.646	0.0162996
655.724	0.0162624
655.802	0.0162076
655.880	0.0163259
655.958	0.0163009
656.036	0.0161459
656.114	0.0162221
656.192	0.0161810
656.271	0.0161488
656.349	0.0163741
656.427	0.0162894
656.505	0.0162501
656.583	0.0162277
656.661	0.0163614
656.739	0.0162582
656.817	0.0161985
656.896	0.0162778
656.974	0.0162357
657.052	0.0161246
657.130	0.0162087
657.208	0.0162420
657.286	0.0162612
657.364	0.0163338
657.442	0.0162926
657.521	0.0163772
657.599	0.0161916
657.677	0.0161553
657.755	0.0163724
657.833	0.0162608
657.911	0.0162661
657.989	0.0162796
658.067	0.0162639
658.146	0.0161057
658.224	0.0161996
658.302	0.0162804
658.380	0.0164151
658.458	0.0162456
658.536	0.0161903
658.614	0.0162667
658.692	0.0161240
658.771	0.0162300
658.849	0.0162482
658.927	0.0162676
659.005	0.0164178
659.083	0.0163663
659.161	0.0162183
659.239	0.0162537
659.317	0.0163290
659.396	0.0162135
659.474	0.0159943
659.552	0.0163457
659.630	0.0163877
659.708	0.0161083
659.786	0.0162009
659.864	0.0162723
659.942	0.0161882
660.021	0.0162077
660.099	0.0160982
660.177	0.0163116
660.255	0.0163630
660.333	0.0162840
660.411	0.0162434
660.489	0.0161406
660.567	0.0163522
660.646	0.0162785
660.724	0.0161935
660.802	0.0162550
660.880	0.0162530
660.958	0.0162806
661.036	0.0162980
661.114	0.0163455
661.192	0.0163418
661.271	0.0163181
661.349	0.0161818
661.427	0.0162673
661.505	0.0162717
661.583	0.0163483
661.661	0.0163493
661.739	0.0162695
661.817	0.0161880
661.896	0.0163877
661.974	0.0161732
662.052	0.0162971
662.130	0.0163930
662.208	0.0161902
662.286	0.0162560
662.364	0.0162085
662.442	0.0161837
662.521	0.0162251
662.599	0.0161737
662.677	0.0160910
662.755	0.0162305
662.833	0.0162186
662.911	0.0161980
662.989	0.0162659
663.067	0.0162237
663.146	0.0162363
663.224	0.0160155
663.302	0.0161931
663.380	0.0163702
663.458	0.0161761
663.536	0.0160660
663.614	0.0160847
663.692	0.0161866
663.771	0.0163817
663.849	0.0163084
663.927	0.0162212
664.005	0.0161538
664.083	0.0161898
664.161	0.0164082
664.239	0.0163161
664.317	0.0161361
664.396	0.0163411
664.474	0.0164106
664.552	0.0162359
664.630	0.0162699
664.708	0.0162196
664.786	0.0160500
664.864	0.0162240
664.942	0.0162344
665.021	0.0162576
665.099	0.0160880
665.177	0.0162320
665.255	0.0163145
665.333	0.0163283
665.411	0.0163941
665.489	0.0163066
665.567	0.0161888
665.646	0.0163499
665.724	0.0162831
665.802	0.0162621
665.880	0.0161964
665.958	0.0161849
666.036	0.0162747
666.114	0.0162260
666.192	0.0161716
666.271	0.0162685
666.349	0.0161423
666.427	0.0162480
666.505	0.0161655
666.583	0.0163345
666.661	0.0163136
666.739	0.0162084
666.817	0.0161717
666.896	0.0161494
666.974	0.0164033
667.052	0.0162072
667.130	0.0163536
667.208	0.0162395
667.286	0.0161510
667.364	0.0162517
667.442	0.0161606
667.521	0.0161851
667.599	0.0161877
667.677	0.0162141
667.755	0.0163217
667.833	0.0162286
667.911	0.0162165
667.989	0.0162012
668.067	0.0162331
668.146	0.0160935
668.224	0.0162138
668.302	0.0163315
668.380	0.0163676
668.458	0.0162814
668.536	0.0161205
668.614	0.0162090
668.692	0.0164991
668.771	0.0162605
668.849	0.0160839
668.927	0.0161498
669.005	0.0162154
669.083	0.0162231
669.161	0.0162664
669.239	0.0163364
669.317	0.0163081
669.396	0.0161998
669.474	0.0163049
669.552	0.0163916
669.630	0.0163039
669.708	0.0162563
669.786	0.0162841
669.864	0.0162725
669.942	0.0163509
670.021	0.0162463
670.099	0.0161716
670.177	0.0163277
670.255	0.0161833
670.333	0.0163365
670.411	0.0162186
670.489	0.0163275
670.567	0.0161878
670.646	0.0163928
670.724	0.0162120
670.802	0.0162826
670.880	0.0161879
670.958	0.0162843
671.036	0.0162710
671.114	0.0161990
671.192	0.0163216
671.271	0.0163013
671.349	0.0163449
671.427	0.0162644
671.505	0.0163585
671.583	0.0162486
671.661	0.0163808
671.739	0.0163004
671.817	0.0163099
671.896	0.0162330
671.974	0.0162395
672.052	0.0161986
672.130	0.0162521
672.208	0.0161971
672.286	0.0162391
672.364	0.0162277
672.442	0.0163545
672.521	0.0163060
672.599	0.0163788
672.677	0.0163816
672.755	0.0162680
672.833	0.0163449
672.911	0.0162119
672.989	0.0162281
673.067	0.0163363
673.146	0.0162967
673.224	0.0164359
673.302	0.0163722
673.380	0.0162421
673.458	0.0161988
673.536	0.0162935
673.614	0.0162515
673.692	0.0162707
673.771	0.0161946
673.849	0.0163736
673.927	0.0163854
674.005	0.0162321
674.083	0.0162566
674.161	0.0161803
674.239	0.0163763
674.317	0.0161663
674.396	0.0162420
674.474	0.0163406
674.552	0.0163058
674.630	0.0162541
674.708	0.0162423
674.786	0.0161924
674.864	0.0162746
674.942	0.0162892
675.021	0.0162108
675.099	0.0162582
675.177	0.0163719
675.255	0.0162904
675.333	0.0162952
675.411	0.0162041
675.489	0.0162654
675.567	0.0163048
675.646	0.0163121
675.724	0.0161439
675.802	0.0162180
675.880	0.0161544
675.958	0.0162439
676.036	0.0161983
676.114	0.0162579
676.192	0.0162125
676.271	0.0161433
676.349	0.0160780
676.427	0.0161512
676.505	0.0161648
676.583	0.0162081
676.661	0.0162805
676.739	0.0159918
676.817	0.0162601
676.896	0.0163884
676.974	0.0162462
677.052	0.0162702
677.130	0.0162535
677.208	0.0161537
677.286	0.0162261
677.364	0.0162605
677.442	0.0162152
677.521	0.0162843
677.599	0.0162051
677.677	0.0162194
677.755	0.0162763
677.833	0.0162982
677.911	0.0162372
677.989	0.0162399
678.067	0.0163049
678.146	0.0163623
678.224	0.0163284
678.302	0.0162320
678.380	0.0163351
678.458	0.0163533
678.536	0.0161240
678.614	0.0161486
678.692	0.0162199
678.771	0.0161597
678.849	0.0160870
678.927	0.0162091
679.005	0.0162215
679.083	0.0161687
679.161	0.0163492
679.239	0.0162903
679.317	0.0162022
679.396	0.0162394
679.474	0.0161852
679.552	0.0162685
679.630	0.0162601
679.708	0.0162666
679.786	0.0161464
679.864	0.0162288
679.942	0.0162014
680.021	0.0161939
680.099	0.0163960
680.177	0.0161435
680.255	0.0161839
680.333	0.0161739
680.411	0.0162572
680.489	0.0162462
680.567	0.0160641
680.646	0.0162015
680.724	0.0161374
680.802	0.0161938
680.880	0.0160453
680.958	0.0162343
681.036	0.0161222
681.114	0.0161895
681.192	0.0161728
681.271	0.0162267
681.349	0.0162350
681.427	0.0163956
681.505	0.0163092
681.583	0.0164042
681.661	0.0163779
681.739	0.0164071
681.817	0.0163010
681.896	0.0163091
681.974	0.0163277
682.052	0.0163991
682.130	0.0162141
682.208	0.0162036
682.286	0.0160242
682.364	0.0159930
682.442	0.0159450
682.521	0.0160667
682.599	0.0161013
682.677	0.0161349
682.755	0.0161839
682.833	0.0163958
682.911	0.0163801
682.989	0.0164236
683.067	0.0166698
683.146	0.0166636
683.224	0.0165746
683.302	0.0165583
683.380	0.0164684
683.458	0.0162644
683.536	0.0162279
683.614	0.0161990
683.692	0.0160092
683.771	0.0157806
683.849	0.0158306
683.927	0.0157410
684.005	0.0156498
684.083	0.0157625
684.161	0.0159116
684.239	0.0161028
684.317	0.0162112
684.396	0.0164633
684.474	0.0166126
684.552	0.0169961
684.630	0.0171072
684.708	0.0170354
684.786	0.0170727
684.864	0.0168633
684.942	0.0164895
685.021	0.0164999
685.099	0.0160787
685.177	0.0158016
685.255	0.0157024
685.333	0.0153922
685.411	0.0153806
685.489	0.0153323
685.567	0.0154478
685.646	0.0156958
685.724	0.0159861
685.802	0.0160305
685.880	0.0165333
685.958	0.0167374
686.036	0.0170342
686.114	0.0172987
686.192	0.0172424
686.271	0.0170245
686.349	0.0168763
686.427	0.0166941
686.505	0.0164306
686.583	0.0161497
686.661	0.0157732
686.739	0.0156219
686.817	0.0153665
686.896	0.0153041
686.974	0.0154857
687.052	0.0154536
687.130	0.0155779
687.208	0.0158086
687.286	0.0159717
687.364	0.0163139
687.442	0.0163756
687.521	0.0166400
687.599	0.0168536
687.677	0.0169511
687.755	0.0169574
687.833	0.0171116
687.911	0.0168557
687.989	0.0168147
688.067	0.0166795
688.146	0.0164082
688.224	0.0162590
688.302	0.0158241
688.380	0.0159156
688.458	0.0157415
688.536	0.0156754
688.614	0.0156386
688.692	0.0155954
688.771	0.0158913
688.849	0.0160002
688.927	0.0161288
689.005	0.0163679
689.083	0.0166071
689.161	0.0166599
689.239	0.0169023
689.317	0.0168919
689.396	0.0169826
689.474	0.0168478
689.552	0.0166709
689.630	0.0163740
689.708	0.0164460
689.786	0.0161096
689.864	0.0159756
689.942	0.0159693
690.021	0.0158605
690.099	0.0157268
690.177	0.0159464
690.255	0.0160207
690.333	0.0162806
690.411	0.0163177
690.489	0.0162138
690.567	0.0162793
690.646	0.0163024
690.724	0.0163188
690.802	0.0162954
690.880	0.0163224
690.958	0.0163676
691.036	0.0162916
691.114	0.0162656
691.192	0.0163931
691.271	0.0163873
691.349	0.0162930
691.427	0.0164703
691.505	0.0163551
691.583	0.0163342
691.661	0.0163760
691.739	0.0163246
691.817	0.0162893
691.896	0.0162699
691.974	0.0161640
692.052	0.0159895
692.130	0.0160876
692.208	0.0159760
692.286	0.0159166
692.364	0.0160428
692.442	0.0160773
692.521	0.0162881
692.599	0.0163187
692.677	0.0163820
692.755	0.0166078
692.833	0.0165871
692.911	0.0166401
692.989	0.0167195
693.067	0.0167364
693.146	0.0166404
693.224	0.0165537
693.302	0.0164144
693.380	0.0162341
693.458	0.0160607
693.536	0.0159989
693.614	0.0158639
693.692	0.0158781
693.771	0.0157921
693.849	0.0158500
693.927	0.0158626
694.005	0.0160448
694.083	0.0160626
694.161	0.0161873
694.239	0.0164017
694.317	0.0166679
694.396	0.0164459
694.474	0.0166187
694.552	0.0166385
694.630	0.0165138
694.708	0.0165121
694.786	0.0164745
694.864	0.0163475
694.942	0.0161130
695.021	0.0162153
695.099	0.0163115
695.177	0.0162314
695.255	0.0161960
695.333	0.0162167
695.411	0.0162849
695.489	0.0164822
695.567	0.0165112
695.646	0.0166404
695.724	0.0167640
695.802	0.0166951
695.880	0.0168008
695.958	0.0166279
696.036	0.0164414
696.114	0.0162264
696.192	0.0162290
696.271	0.0162355
696.349	0.0161658
696.427	0.0161545
696.505	0.0161380
696.583	0.0160197
696.661	0.0159190
696.739	0.0159054
696.817	0.0160978
696.896	0.0161482
696.974	0.0160915
697.052	0.0162133
697.130	0.0162513
697.208	0.0162097
697.286	0.0163096
697.364	0.0161066
697.442	0.0161471
697.521	0.0160265
697.599	0.0158408
697.677	0.0159839
697.755	0.0161126
697.833	0.0159825
697.911	0.0160468
697.989	0.0160976
698.067	0.0160529
698.146	0.0161678
698.224	0.0163200
698.302	0.0163227
698.380	0.0165672
698.458	0.0166393
698.536	0.0167204
698.614	0.0168170
698.692	0.0167442
698.771	0.0166607
698.849	0.0165458
698.927	0.0164217
699.005	0.0164213
699.083	0.0164552
699.161	0.0163525
699.239	0.0164191
699.317	0.0162618
699.396	0.0162983
699.474	0.0163793
699.552	0.0164500
699.630	0.0165318
699.708	0.0164817
699.786	0.0164537
699.864	0.0165224
699.942	0.0165813
700.021	0.0164489
700.099	0.0164005
700.177	0.0163141
700.255	0.0161695
700.333	0.0161316
700.411	0.0163410
700.489	0.0162314
700.567	0.0161315
700.646	0.0161977
700.724	0.0163046
700.802	0.0162957
700.880	0.0165202
700.958	0.0163132
701.036	0.0162924
701.114	0.0165098
701.192	0.0164314
701.271	0.0162806
701.349	0.0163504
701.427	0.0162321
701.505	0.0159171
701.583	0.0156636
701.661	0.0155850
701.739	0.0153188
701.817	0.0151414
701.896	0.0149005
701.974	0.0147430
702.052	0.0147017
702.130	0.0148297
702.208	0.0148951
702.286	0.0149791
702.364	0.0151315
702.442	0.0152729
702.521	0.0156348
702.599	0.0158950
702.677	0.0161228
702.755	0.0164574
702.833	0.0165826
702.911	0.0168118
702.989	0.0169522
703.067	0.0172724
703.146	0.0172535
703.224	0.0174501
703.302	0.0173259
703.380	0.0176262
703.458	0.0176828
703.536	0.0175355
703.614	0.0175537
703.692	0.0175443
703.771	0.0173297
703.849	0.0172968
703.927	0.0172434
704.005	0.0171387
704.083	0.0169857
704.161	0.0167320
704.239	0.0165969
704.317	0.0166828
704.396	0.0165166
704.474	0.0163364
704.552	0.0163338
704.630	0.0160532
704.708	0.0159677
704.786	0.0159021
704.864	0.0157259
704.942	0.0155400
705.021	0.0153959
705.099	0.0154050
705.177	0.0154527
705.255	0.0155455
705.333	0.0155621
705.411	0.0155708
705.489	0.0156250
705.567	0.0159079
705.646	0.0160189
705.724	0.0160699
705.802	0.0163435
705.880	0.0166690
705.958	0.0167936
706.036	0.0167326
706.114	0.0167593
706.192	0.0165631
706.271	0.0165649
706.349	0.0164336
706.427	0.0163854
706.505	0.0162360
706.583	0.0161253
706.661	0.0161153
706.739	0.0160230
706.817	0.0158543
706.896	0.0158122
706.974	0.0156599
707.052	0.0156798
707.130	0.0154540
707.208	0.0152230
707.286	0.0150832
707.364	0.0149603
707.442	0.0145979
707.521	0.0145560
707.599	0.0145020
707.677	0.0144140
707.755	0.0143901
707.833	0.0144802
707.911	0.0145167
707.989	0.0145284
708.067	0.0146423
708.146	0.0149570
708.224	0.0152036
708.302	0.0154028
708.380	0.0159423
708.458	0.0162528
708.536	0.0167892
708.614	0.0173019
708.692	0.0177357
708.771	0.0182494
708.849	0.0188409
708.927	0.0193057
709.005	0.0196679
709.083	0.0199606
709.161	0.0203288
709.239	0.0204230
709.317	0.0202828
709.396	0.0203420
709.474	0.0203001
709.552	0.0199673
709.630	0.0195540
709.708	0.0191951
709.786	0.0188723
709.864	0.0185231
709.942	0.0181046
710.021	0.0176408
710.099	0.0171934
710.177	0.0167077
710.255	0.0161309
710.333	0.0155225
710.411	0.0150153
710.489	0.0146454
710.567	0.0141356
710.646	0.0136026
710.724	0.0131392
710.802	0.0127462
710.880	0.0125295
710.958	0.0121839
711.036	0.0118827
711.114	0.0120211
711.192	0.0120872
711.271	0.0121436
711.349	0.0124395
711.427	0.0128951
711.505	0.0132423
711.583	0.0137616
711.661	0.0143849
711.739	0.0150304
711.817	0.0156149
711.896	0.0161386
711.974	0.0168793
712.052	0.0172123
712.130	0.0177427
712.208	0.0180463
712.286	0.0181761
712.364	0.0181907
712.442	0.0179230
712.521	0.0175588
712.599	0.0173775
712.677	0.0169504
712.755	0.0164480
712.833	0.0157793
712.911	0.0150926
712.989	0.0145192
713.067	0.0141212
713.146	0.0138065
713.224	0.0138321
713.302	0.0137180
713.380	0.0138055
713.458	0.0140882
713.536	0.0146034
713.614	0.0150375
713.692	0.0156655
713.771	0.0163831
713.849	0.0169215
713.927	0.0175746
714.005	0.0183605
714.083	0.0189429
714.161	0.0192832
714.239	0.0199113
714.317	0.0203498
714.396	0.0206075
714.474	0.0207017
714.552	0.0209138
714.630	0.0210474
714.708	0.0209698
714.786	0.0209453
714.864	0.0208539
714.942	0.0204996
715.021	0.0201556
715.099	0.0195801
715.177	0.0190836
715.255	0.0187511
715.333	0.0179742
715.411	0.0172580
715.489	0.0167438
715.567	0.0161161
715.646	0.0156181
715.724	0.0151734
715.802	0.0149377
715.880	0.0145018
715.958	0.0141301
716.036	0.0138781
716.114	0.0135200
716.192	0.0133327
716.271	0.0130596
716.349	0.0129363
716.427	0.0128179
716.505	0.0126248
716.583	0.0125471
716.661	0.0126118
716.739	0.0127471
716.817	0.0129708
716.896	0.0133185
716.974	0.0138062
717.052	0.0142445
717.130	0.0147623
717.208	0.0152230
717.286	0.0156435
717.364	0.0161950
717.442	0.0163839
717.521	0.0167165
717.599	0.0166502
717.677	0.0164738
717.755	0.0162024
717.833	0.0155825
717.911	0.0148765
717.989	0.0138756
718.067	0.0130855
718.146	0.0123400
718.224	0.0113999
718.302	0.0106030
718.380	0.00990723
718.458	0.00966988
718.536	0.00949600
718.614	0.00979782
718.692	0.0101542
718.771	0.0107214
718.849	0.0117120
718.927	0.0128702
719.005	0.0142506
719.083	0.0156013
719.161	0.0171019
719.239	0.0186104
719.317	0.0200300
719.396	0.0214247
719.474	0.0229188
719.552	0.0240141
719.630	0.0249265
719.708	0.0257525
719.786	0.0264141
719.864	0.0268702
719.942	0.0273763
720.021	0.0275109
720.099	0.0275403
720.177	0.0274277
720.255	0.0271684
720.333	0.0265874
720.411	0.0259571
720.489	0.0252682
720.567	0.0242113
720.646	0.0230881
720.724	0.0218559
720.802	0.0206071
720.880	0.0191485
720.958	0.0176421
721.036	0.0162031
721.114	0.0148011
721.192	0.0134056
721.271	0.0121336
721.349	0.0111231
721.427	0.0101907
721.505	0.00921448
721.583	0.00887535
721.661	0.00859444
721.739	0.00848396
721.817	0.00865921
721.896	0.00879990
721.974	0.00915794
722.052	0.00967094
722.130	0.0101363
722.208	0.0105415
722.286	0.0110424
722.364	0.0116189
722.442	0.0118505
722.521	0.0121655
722.599	0.0122328
722.677	0.0122359
722.755	0.0120383
722.833	0.0114919
722.911	0.0110488
722.989	0.0106059
723.067	0.00982246
723.146	0.00938438
723.224	0.00867455
723.302	0.00832253
723.380	0.00800758
723.458	0.00804337
723.536	0.00837509
723.614	0.00909447
723.692	0.0101492
723.771	0.0112476
723.849	0.0128921
723.927	0.0147553
724.005	0.0167587
724.083	0.0187508
724.161	0.0208065
724.239	0.0227776
724.317	0.0244800
724.396	0.0260403
724.474	0.0272713
724.552	0.0284871
724.630	0.0292335
724.708	0.0295597
724.786	0.0297833
724.864	0.0297093
724.942	0.0294505
725.021	0.0290427
725.099	0.0282443
725.177	0.0273763
725.255	0.0263457
725.333	0.0251600
725.411	0.0239722
725.489	0.0227345
725.567	0.0214124
725.646	0.0201915
725.724	0.0188716
725.802	0.0175923
725.880	0.0166658
725.958	0.0156679
726.036	0.0146524
726.114	0.0140101
726.192	0.0131781
726.271	0.0126369
726.349	0.0123058
726.427	0.0120945
726.505	0.0119468
726.583	0.0117369
726.661	0.0117535
726.739	0.0118127
726.817	0.0119531
726.896	0.0118709
726.974	0.0118342
727.052	0.0117752
727.130	0.0117679
727.208	0.0118140
727.286	0.0115710
727.364	0.0115816
727.442	0.0115154
727.521	0.0112703
727.599	0.0109586
727.677	0.0106500
727.755	0.0103797
727.833	0.0100362
727.911	0.00954529
727.989	0.00921013
728.067	0.00876503
728.146	0.00844597
728.224	0.00843315
728.302	0.00869827
728.380	0.00877914
728.458	0.00929642
728.536	0.0100503
728.614	0.0110510
728.692	0.0120451
728.771	0.0133636
728.849	0.0148132
728.927	0.0162836
729.005	0.0178888
729.083	0.0192173
729.161	0.0205707
729.239	0.0219640
729.317	0.0229974
729.396	0.0239954
729.474	0.0248110
729.552	0.0254755
729.630	0.0258892
729.708	0.0261349
729.786	0.0263628
729.864	0.0263197
729.942	0.0259346
730.021	0.0256154
730.099	0.0250868
730.177	0.0243462
730.255	0.0236182
730.333	0.0228396
730.411	0.0219055
730.489	0.0208541
730.567	0.0198643
730.646	0.0189120
730.724	0.0179614
730.802	0.0169263
730.880	0.0162093
730.958	0.0151796
731.036	0.0145839
731.114	0.0141292
731.192	0.0137772
731.271	0.0133868
731.349	0.0131875
731.427	0.0132224
731.505	0.0130227
731.583	0.0130786
731.661	0.0131973
731.739	0.0133098
731.817	0.0133368
731.896	0.0135074
731.974	0.0134793
732.052	0.0133791
732.130	0.0131126
732.208	0.0129647
732.286	0.0129102
732.364	0.0128302
732.442	0.0125035
732.521	0.0125218
732.599	0.0123569
732.677	0.0121376
732.755	0.0122731
732.833	0.0120476
732.911	0.0120711
732.989	0.0121486
733.067	0.0122731
733.146	0.0125074
733.224	0.0126746
733.302	0.0131213
733.380	0.0134576
733.458	0.0137710
733.536	0.0142726
733.614	0.0148186
733.692	0.0155360
733.771	0.0161519
733.849	0.0166800
733.927	0.0173286
734.005	0.0181339
734.083	0.0188075
734.161	0.0192413
734.239	0.0199874
734.317	0.0204139
734.396	0.0207734
734.474	0.0210899
734.552	0.0212877
734.630	0.0214786
734.708	0.0215509
734.786	0.0214381
734.864	0.0213246
734.942	0.0211649
735.021	0.0209715
735.099	0.0204809
735.177	0.0202644
735.255	0.0199877
735.333	0.0195743
735.411	0.0190887
735.489	0.0186629
735.567	0.0180103
735.646	0.0174828
735.724	0.0167966
735.802	0.0162201
735.880	0.0157152
735.958	0.0152035
736.036	0.0147256
736.114	0.0144890
736.192	0.0141403
736.271	0.0137697
736.349	0.0137147
736.427	0.0135496
736.505	0.0135775
736.583	0.0133447
736.661	0.0132274
736.739	0.0130981
736.817	0.0134519
736.896	0.0132866
736.974	0.0132858
737.052	0.0132792
737.130	0.0134560
737.208	0.0135550
737.286	0.0135671
737.364	0.0135072
737.442	0.0136893
737.521	0.0138784
737.599	0.0140769
737.677	0.0142109
737.755	0.0145186
737.833	0.0146724
737.911	0.0149498
737.989	0.0154597
738.067	0.0154738
738.146	0.0157919
738.224	0.0158053
738.302	0.0160564
738.380	0.0161803
738.458	0.0161738
738.536	0.0162533
738.614	0.0163917
738.692	0.0165143
738.771	0.0165300
738.849	0.0167483
738.927	0.0168285
739.005	0.0171129
739.083	0.0173807
739.161	0.0173848
739.239	0.0177229
739.317	0.0180135
739.396	0.0181580
739.474	0.0183613
739.552	0.0184737
739.630	0.0187632
739.708	0.0188054
739.786	0.0188375
739.864	0.0190124
739.942	0.0190517
740.021	0.0192561
740.099	0.0191245
740.177	0.0191525
740.255	0.0191387
740.333	0.0191019
740.411	0.0189716
740.489	0.0187625
740.567	0.0184776
740.646	0.0182982
740.724	0.0179634
740.802	0.0177322
740.880	0.0175574
740.958	0.0171415
741.036	0.0168416
741.114	0.0165930
741.192	0.0163655
741.271	0.0159682
741.349	0.0156409
741.427	0.0153873
741.505	0.0151447
741.583	0.0148837
741.661	0.0145024
741.739	0.0140301
741.817	0.0140629
741.896	0.0137260
741.974	0.0133254
742.052	0.0131207
742.130	0.0128403
742.208	0.0126392
742.286	0.0124432
742.364	0.0124110
742.442	0.0123048
742.521	0.0123454
742.599	0.0124695
742.677	0.0126664
742.755	0.0128275
742.833	0.0132257
742.911	0.0134855
742.989	0.0138003
743.067	0.0142939
743.146	0.0147029
743.224	0.0151992
743.302	0.0157043
743.380	0.0160460
743.458	0.0163444
743.536	0.0169660
743.614	0.0173381
743.692	0.0174780
743.771	0.0178839
743.849	0.0181991
743.927	0.0182781
744.005	0.0185669
744.083	0.0187212
744.161	0.0189227
744.239	0.0189841
744.317	0.0190495
744.396	0.0189088
744.474	0.0192292
744.552	0.0190540
744.630	0.0188265
744.708	0.0188546
744.786	0.0186385
744.864	0.0185438
744.942	0.0183300
745.021	0.0180481
745.099	0.0177733
745.177	0.0175757
745.255	0.0172410
745.333	0.0171415
745.411	0.0169871
745.489	0.0167298
745.567	0.0166140
745.646	0.0164878
745.724	0.0161024
745.802	0.0160435
745.880	0.0160619
745.958	0.0160700
746.036	0.0157546
746.114	0.0157734
746.192	0.0155509
746.271	0.0155540
746.349	0.0155306
746.427	0.0152559
746.505	0.0153775
746.583	0.0152024
746.661	0.0151429
746.739	0.0153094
746.817	0.0151559
746.896	0.0150992
746.974	0.0150218
747.052	0.0149940
747.130	0.0150025
747.208	0.0148738
747.286	0.0150789
747.364	0.0150231
747.442	0.0149732
747.521	0.0152098
747.599	0.0152132
747.677	0.0152789
747.755	0.0154347
747.833	0.0156058
747.911	0.0155798
747.989	0.0157745
748.067	0.0157693
748.146	0.0159925
748.224	0.0164803
748.302	0.0163602
748.380	0.0167300
748.458	0.0168827
748.536	0.0170607
748.614	0.0171555
748.692	0.0171969
748.771	0.0172848
748.849	0.0173940
748.927	0.0174221
749.005	0.0176225
749.083	0.0172666
749.161	0.0173533
749.239	0.0173416
749.317	0.0173877
749.396	0.0172164
749.474	0.0172200
749.552	0.0171776
749.630	0.0169720
749.708	0.0167527
749.786	0.0165842
749.864	0.0165528
749.942	0.0161729
750.021	0.0161900
750.099	0.0159407
750.177	0.0158710
750.255	0.0157124
750.333	0.0155447
750.411	0.0154858
750.489	0.0155867
750.567	0.0153836
750.646	0.0151585
750.724	0.0152160
750.802	0.0152277
750.880	0.0152146
750.958	0.0150382
751.036	0.0152133
751.114	0.0153101
751.192	0.0152984
751.271	0.0153094
751.349	0.0154503
751.427	0.0156102
751.505	0.0157645
751.583	0.0157742
751.661	0.0160577
751.739	0.0162234
751.817	0.0163615
751.896	0.0165437
751.974	0.0167220
752.052	0.0171024
752.130	0.0172089
752.208	0.0170950
752.286	0.0173260
752.364	0.0172992
752.442	0.0173894
752.521	0.0171560
752.599	0.0171781
752.677	0.0169892
752.755	0.0169971
752.833	0.0169566
752.911	0.0166574
752.989	0.0166714
753.067	0.0166734
753.146	0.0164146
753.224	0.0163207
753.302	0.0165662
753.380	0.0164069
753.458	0.0160332
753.536	0.0162232
753.614	0.0164466
753.692	0.0162495
753.771	0.0163011
753.849	0.0161929
753.927	0.0163339
754.005	0.0164832
754.083	0.0164882
754.161	0.0165409
754.239	0.0163125
754.317	0.0163948
754.396	0.0162554
754.474	0.0162628
754.552	0.0162076
754.630	0.0160233
754.708	0.0162384
754.786	0.0160363
754.864	0.0160006
754.942	0.0156866
755.021	0.0157204
755.099	0.0156447
755.177	0.0156281
755.255	0.0154292
755.333	0.0155916
755.411	0.0154884
755.489	0.0154457
755.567	0.0156713
755.646	0.0156542
755.724	0.0157861
755.802	0.0158266
755.880	0.0160793
755.958	0.0160443
756.036	0.0162870
756.114	0.0163686
756.192	0.0164795
756.271	0.0165956
756.349	0.0165232
756.427	0.0166527
756.505	0.0167052
756.583	0.0166740
756.661	0.0167641
756.739	0.0169363
756.817	0.0169859
756.896	0.0169968
756.974	0.0169062
757.052	0.0168933
757.130	0.0168873
757.208	0.0167881
757.286	0.0164942
757.364	0.0165880
757.442	0.0165418
757.521	0.0165549
757.599	0.0163160
757.677	0.0162550
757.755	0.0162134
757.833	0.0160836
757.911	0.0158410
757.989	0.0159348
758.067	0.0157607
758.146	0.0157346
758.224	0.0156036
758.302	0.0156202
758.380	0.0154327
758.458	0.0154993
758.536	0.0155167
758.614	0.0154240
758.692	0.0156341
758.771	0.0154283
758.849	0.0155753
758.927	0.0157972
759.005	0.0157919
759.083	0.0157841
759.161	0.0160017
759.239	0.0161118
759.317	0.0161230
759.396	0.0162926
759.474	0.0165118
759.552	0.0166661
759.630	0.0166324
759.708	0.0166812
759.786	0.0166563
759.864	0.0166486
759.942	0.0166991
760.021	0.0165409
760.099	0.0166175
760.177	0.0165884
760.255	0.0164851
760.333	0.0164101
760.411	0.0164610
760.489	0.0163591
760.567	0.0162966
760.646	0.0163403
760.724	0.0164480
760.802	0.0162164
760.880	0.0163449
760.958	0.0164491
761.036	0.0164494
761.114	0.0166590
761.192	0.0167441
761.271	0.0167297
761.349	0.0166778
761.427	0.0168401
761.505	0.0168155
761.583	0.0168324
761.661	0.0167757
761.739	0.0167500
761.817	0.0167676
761.896	0.0166290
761.974	0.0166529
762.052	0.0166389
762.130	0.0163388
762.208	0.0163196
762.286	0.0160053
762.364	0.0159774
762.442	0.0158040
762.521	0.0156331
762.599	0.0155871
762.677	0.0154301
762.755	0.0153237
762.833	0.0155276
762.911	0.0154685
762.989	0.0156173
763.067	0.0157192
763.146	0.0155669
763.224	0.0154949
763.302	0.0156785
763.380	0.0157565
763.458	0.0157107
763.536	0.0158416
763.614	0.0158073
763.692	0.0159357
763.771	0.0161287
763.849	0.0162308
763.927	0.0161852
764.005	0.0162908
764.083	0.0165474
764.161	0.0165701
764.239	0.0167346
764.317	0.0168886
764.396	0.0170936
764.474	0.0171556
764.552	0.0171685
764.630	0.0172802
764.708	0.0172324
764.786	0.0172007
764.864	0.0173146
764.942	0.0171155
765.021	0.0171545
765.099	0.0170107
765.177	0.0169194
765.255	0.0167435
765.333	0.0166274
765.411	0.0164764
765.489	0.0162421
765.567	0.0161205
765.646	0.0157471
765.724	0.0156844
765.802	0.0157127
765.880	0.0154850
765.958	0.0154292
766.036	0.0152993
766.114	0.0152855
766.192	0.0153152
766.271	0.0153090
766.349	0.0152856
766.427	0.0154083
766.505	0.0156036
766.583	0.0155455
766.661	0.0157217
766.739	0.0158118
766.817	0.0157620
766.896	0.0158463
766.974	0.0159952
767.052	0.0160260
767.130	0.0160587
767.208	0.0159101
767.286	0.0160138
767.364	0.0162438
767.442	0.0163121
767.521	0.0164624
767.599	0.0164143
767.677	0.0162924
767.755	0.0165141
767.833	0.0166668
767.911	0.0167268
767.989	0.0166035
768.067	0.0167362
768.146	0.0168108
768.224	0.0167159
768.302	0.0167144
768.380	0.0165739
768.458	0.0166041
768.536	0.0165648
768.614	0.0164700
768.692	0.0164275
768.771	0.0162772
768.849	0.0159824
768.927	0.0160632
769.005	0.0160992
769.083	0.0162150
769.161	0.0162196
769.239	0.0161188
769.317	0.0162821
769.396	0.0162127
769.474	0.0163408
769.552	0.0165185
769.630	0.0166324
769.708	0.0168567
769.786	0.0167783
769.864	0.0168926
769.942	0.0170242
770.021	0.0169670
770.099	0.0169817
770.177	0.0169995
770.255	0.0170885
770.333	0.0171159
770.411	0.0170441
770.489	0.0169334
770.567	0.0168175
770.646	0.0167528
770.724	0.0165086
770.802	0.0165315
770.880	0.0163727
770.958	0.0163367
771.036	0.0161987
771.114	0.0160969
771.192	0.0158693
771.271	0.0157587
771.349	0.0156874
771.427	0.0157367
771.505	0.0155901
771.583	0.0155817
771.661	0.0154530
771.739	0.0153633
771.817	0.0153294
771.896	0.0153928
771.974	0.0152818
772.052	0.0153855
772.130	0.0153840
772.208	0.0153763
772.286	0.0155070
772.364	0.0155573
772.442	0.0156239
772.521	0.0155296
772.599	0.0158542
772.677	0.0157896
772.755	0.0157813
772.833	0.0159045
772.911	0.0159451
772.989	0.0160541
773.067	0.0162191
773.146	0.0159832
773.224	0.0161774
773.302	0.0162890
773.380	0.0162599
773.458	0.0164155
773.536	0.0164429
773.614	0.0165126
773.692	0.0164986
773.771	0.0166214
773.849	0.0166409
773.927	0.0165894
774.005	0.0166899
774.083	0.0167321
774.161	0.0167451
774.239	0.0169051
774.317	0.0167477
774.396	0.0168499
774.474	0.0168339
774.552	0.0166451
774.630	0.0167981
774.708	0.0165613
774.786	0.0165964
774.864	0.0165897
774.942	0.0165127
775.021	0.0164706
775.099	0.0163466
775.177	0.0164027
775.255	0.0163377
775.333	0.0162070
775.411	0.0160630
775.489	0.0161372
775.567	0.0160745
775.646	0.0161467
775.724	0.0161549
775.802	0.0160903
775.880	0.0160266
775.958	0.0159750
776.036	0.0161565
776.114	0.0159187
776.192	0.0160260
776.271	0.0161670
776.349	0.0161671
776.427	0.0163024
776.505	0.0161896
776.583	0.0162112
776.661	0.0162888
776.739	0.0164153
776.817	0.0164947
776.896	0.0164751
776.974	0.0163908
777.052	0.0165212
777.130	0.0168179
777.208	0.0166010
777.286	0.0165052
777.364	0.0166434
777.442	0.0166890
777.521	0.0165941
777.599	0.0165002
777.677	0.0164483
777.755	0.0161385
777.833	0.0162212
777.911	0.0162114
777.989	0.0160219
778.067	0.0159444
778.146	0.0158098
778.224	0.0158281
778.302	0.0157433
778.380	0.0157831
778.458	0.0156824
778.536	0.0156374
778.614	0.0157057
778.692	0.0156885
778.771	0.0158152
778.849	0.0158517
778.927	0.0159134
779.005	0.0158782
779.083	0.0159573
779.161	0.0161038
779.239	0.0160079
779.317	0.0160051
779.396	0.0161595
779.474	0.0161292
779.552	0.0161383
779.630	0.0159843
779.708	0.0161098
779.786	0.0160823
779.864	0.0160162
779.942	0.0160382
780.021	0.0161488
780.099	0.0161035
780.177	0.0161996
780.255	0.0161354
780.333	0.0161720
780.411	0.0162582
780.489	0.0162272
780.567	0.0162305
780.646	0.0162580
780.724	0.0164281
780.802	0.0163928
780.880	0.0162506
780.958	0.0163043
781.036	0.0163367
781.114	0.0164780
781.192	0.0164574
781.271	0.0162683
781.349	0.0163975
781.427	0.0164332
781.505	0.0165205
781.583	0.0164124
781.661	0.0164865
781.739	0.0165080
781.817	0.0165471
781.896	0.0166102
781.974	0.0166317
782.052	0.0165453
782.130	0.0165469
782.208	0.0165707
782.286	0.0164552
782.364	0.0163430
782.442	0.0163715
782.521	0.0163744
782.599	0.0164060
782.677	0.0162916
782.755	0.0162537
782.833	0.0162917
782.911	0.0161829
782.989	0.0161495
783.067	0.0161421
783.146	0.0159613
783.224	0.0160296
783.302	0.0160301
783.380	0.0158523
783.458	0.0158973
783.536	0.0158671
783.614	0.0158556
783.692	0.0157479
783.771	0.0158215
783.849	0.0159325
783.927	0.0158211
784.005	0.0158587
784.083	0.0160760
784.161	0.0161021
784.239	0.0160709
784.317	0.0161465
784.396	0.0162459
784.474	0.0162199
784.552	0.0163254
784.630	0.0163748
784.708	0.0164782
784.786	0.0164981
784.864	0.0165388
784.942	0.0165850
785.021	0.0166608
785.099	0.0166935
785.177	0.0165295
785.255	0.0165801
785.333	0.0167029
785.411	0.0166241
785.489	0.0164474
785.567	0.0164530
785.646	0.0163966
785.724	0.0163035
785.802	0.0161385
785.880	0.0159998
785.958	0.0160457
786.036	0.0159917
786.114	0.0160313
786.192	0.0160145
786.271	0.0158224
786.349	0.0157660
786.427	0.0157270
786.505	0.0158385
786.583	0.0158192
786.661	0.0157645
786.739	0.0158527
786.817	0.0159059
786.896	0.0159466
786.974	0.0158838
787.052	0.0160725
787.130	0.0160783
787.208	0.0160368
787.286	0.0161131
787.364	0.0163431
787.442	0.0163830
787.521	0.0165204
787.599	0.0164375
787.677	0.0167094
787.755	0.0165518
787.833	0.0168825
787.911	0.0168644
787.989	0.0167703
788.067	0.0167641
788.146	0.0167483
788.224	0.0167681
788.302	0.0166689
788.380	0.0167057
788.458	0.0165395
788.536	0.0165208
788.614	0.0165498
788.692	0.0164945
788.771	0.0163882
788.849	0.0162687
788.927	0.0163328
789.005	0.0162450
789.083	0.0161149
789.161	0.0159747
789.239	0.0160086
789.317	0.0160305
789.396	0.0158690
789.474	0.0159318
789.552	0.0159892
789.630	0.0159768
789.708	0.0159069
789.786	0.0159539
789.864	0.0159425
789.942	0.0160635
790.021	0.0161403
790.099	0.0161520
790.177	0.0162949
790.255	0.0162978
790.333	0.0164065
790.411	0.0164922
790.489	0.0164677
790.567	0.0164664
790.646	0.0165026
790.724	0.0163479
790.802	0.0163445
790.880	0.0163350
790.958	0.0164135
791.036	0.0164471
791.114	0.0163349
791.192	0.0162490
791.271	0.0162721
791.349	0.0162196
791.427	0.0161541
791.505	0.0160873
791.583	0.0161868
791.661	0.0161935
791.739	0.0160886
791.817	0.0159435
791.896	0.0159647
791.974	0.0159547
792.052	0.0158861
792.130	0.0157639
792.208	0.0159074
792.286	0.0158155
792.364	0.0160768
792.442	0.0161430
792.521	0.0161835
792.599	0.0162711
792.677	0.0164619
792.755	0.0163854
792.833	0.0166399
792.911	0.0166425
792.989	0.0168032
793.067	0.0167980
793.146	0.0167267
793.224	0.0169636
793.302	0.0168203
793.380	0.0170091
793.458	0.0170622
793.536	0.0168940
793.614	0.0168485
793.692	0.0168893
793.771	0.0167481
793.849	0.0166743
793.927	0.0166846
794.005	0.0165377
794.083	0.0164174
794.161	0.0165294
794.239	0.0163793
794.317	0.0161571
794.396	0.0160569
794.474	0.0158418
794.552	0.0157738
794.630	0.0157651
794.708	0.0156791
794.786	0.0155291
794.864	0.0157523
794.942	0.0156316
795.021	0.0154649
795.099	0.0157014
795.177	0.0156229
795.255	0.0158263
795.333	0.0158134
795.411	0.0159076
795.489	0.0160393
795.567	0.0161287
795.646	0.0162633
795.724	0.0163562
795.802	0.0162912
795.880	0.0163332
795.958	0.0165393
796.036	0.0165019
796.114	0.0165182
796.192	0.0164221
796.271	0.0165083
796.349	0.0165652
796.427	0.0164758
796.505	0.0164929
796.583	0.0164688
796.661	0.0164699
796.739	0.0164850
796.817	0.0164290
796.896	0.0164161
796.974	0.0163291
797.052	0.0162485
797.130	0.0164440
797.208	0.0161222
797.286	0.0162214
797.364	0.0160828
797.442	0.0161606
797.521	0.0161094
797.599	0.0160795
797.677	0.0160123
797.755	0.0160477
797.833	0.0159927
797.911	0.0159706
797.989	0.0159438
798.067	0.0160528
798.146	0.0161501
798.224	0.0160966
798.302	0.0162264
798.380	0.0162579
798.458	0.0163065
798.536	0.0162735
798.614	0.0163242
798.692	0.0163612
798.771	0.0163624
798.849	0.0164600
798.927	0.0164205
799.005	0.0165980
799.083	0.0164516
799.161	0.0163489
799.239	0.0164659
799.317	0.0163972
799.396	0.0163757
799.474	0.0164408
799.552	0.0161290
799.630	0.0161340
799.708	0.0160896
799.786	0.0161224
799.864	0.0160515
799.942	0.0159292
800.021	0.0161270
800.099	0.0158791
800.177	0.0159888
800.255	0.0158982
800.333	0.0159882
800.411	0.0161427
800.489	0.0161211
800.567	0.0161112
800.646	0.0162231
800.724	0.0162908
800.802	0.0163062
800.880	0.0164058
800.958	0.0165453
801.036	0.0164942
801.114	0.0165325
801.192	0.0166502
801.271	0.0165877
801.349	0.0165293
801.427	0.0166683
801.505	0.0167387
801.583	0.0165702
801.661	0.0164548
801.739	0.0165029
801.817	0.0163692
801.896	0.0163114
801.974	0.0162850
802.052	0.0161932
802.130	0.0159657
802.208	0.0158877
802.286	0.0158871
802.364	0.0158002
802.442	0.0156900
802.521	0.0156199
802.599	0.0155878
802.677	0.0156338
802.755	0.0155839
802.833	0.0155572
802.911	0.0154936
802.989	0.0155018
803.067	0.0156725
803.146	0.0157571
803.224	0.0157097
803.302	0.0158512
803.380	0.0158556
803.458	0.0159671
803.536	0.0158363
803.614	0.0160789
803.692	0.0161815
803.771	0.0162062
803.849	0.0162679
803.927	0.0163438
804.005	0.0163223
804.083	0.0164561
804.161	0.0164822
804.239	0.0165061
804.317	0.0164607
804.396	0.0166620
804.474	0.0165970
804.552	0.0166917
804.630	0.0165997
804.708	0.0164757
804.786	0.0166314
804.864	0.0167319
804.942	0.0166799
805.021	0.0166422
805.099	0.0166933
805.177	0.0166183
805.255	0.0166245
805.333	0.0167606
805.411	0.0166842
805.489	0.0165851
805.567	0.0165438
805.646	0.0167487
805.724	0.0166354
805.802	0.0165029
805.880	0.0163749
805.958	0.0166238
806.036	0.0164558
806.114	0.0163018
806.192	0.0162431
806.271	0.0163286
806.349	0.0161704
806.427	0.0160533
806.505	0.0161946
806.583	0.0161547
806.661	0.0160007
806.739	0.0160152
806.817	0.0160898
806.896	0.0159486
806.974	0.0158668
807.052	0.0158724
807.130	0.0157594
807.208	0.0158517
807.286	0.0158823
807.364	0.0156757
807.442	0.0157166
807.521	0.0157731
807.599	0.0157961
807.677	0.0157537
807.755	0.0156642
807.833	0.0155978
807.911	0.0156717
807.989	0.0157738
808.067	0.0157682
808.146	0.0158172
808.224	0.0158620
808.302	0.0158733
808.380	0.0159351
808.458	0.0159443
808.536	0.0160307
808.614	0.0159253
808.692	0.0159586
808.771	0.0161082
808.849	0.0162704
808.927	0.0161784
809.005	0.0161890
809.083	0.0162592
809.161	0.0164513
809.239	0.0165623
809.317	0.0164724
809.396	0.0166500
809.474	0.0167003
809.552	0.0166379
809.630	0.0167873
809.708	0.0168996
809.786	0.0169778
809.864	0.0169694
809.942	0.0169216
810.021	0.0170627
810.099	0.0170551
810.177	0.0171027
810.255	0.0171015
810.333	0.0171036
810.411	0.0170029
810.489	0.0169418
810.567	0.0168887
810.646	0.0166823
810.724	0.0168551
810.802	0.0166834
810.880	0.0164237
810.958	0.0163441
811.036	0.0164176
811.114	0.0162310
811.192	0.0161041
811.271	0.0160388
811.349	0.0159655
811.427	0.0159789
811.505	0.0160323
811.583	0.0159029
811.661	0.0157683
811.739	0.0157549
811.817	0.0158856
811.896	0.0157730
811.974	0.0157117
812.052	0.0158716
812.130	0.0158971
812.208	0.0159694
812.286	0.0158672
812.364	0.0160492
812.442	0.0160730
812.521	0.0161444
812.599	0.0162915
812.677	0.0162028
812.755	0.0160464
812.833	0.0162171
812.911	0.0161728
812.989	0.0161021
813.067	0.0161802
813.146	0.0160407
813.224	0.0160437
813.302	0.0160757
813.380	0.0159796
813.458	0.0160127
813.536	0.0159707
813.614	0.0159750
813.692	0.0161649
813.771	0.0161383
813.849	0.0161367
813.927	0.0160516
814.005	0.0161147
814.083	0.0161859
814.161	0.0160503
814.239	0.0159562
814.317	0.0160740
814.396	0.0161001
814.474	0.0160305
814.552	0.0159935
814.630	0.0161347
814.708	0.0159222
814.786	0.0159105
814.864	0.0160886
814.942	0.0161900
815.021	0.0160979
815.099	0.0162039
815.177	0.0161713
815.255	0.0162957
815.333	0.0163306
815.411	0.0165126
815.489	0.0165706
815.567	0.0167269
815.646	0.0165947
815.724	0.0166057
815.802	0.0166306
815.880	0.0165710
815.958	0.0168317
816.036	0.0167244
816.114	0.0166978
816.192	0.0167763
816.271	0.0167804
816.349	0.0166712
816.427	0.0167188
816.505	0.0168021
816.583	0.0167966
816.661	0.0167798
816.739	0.0168336
816.817	0.0169164
816.896	0.0167763
816.974	0.0168002
817.052	0.0168879
817.130	0.0168169
817.208	0.0167574
817.286	0.0168170
817.364	0.0169907
817.442	0.0168331
817.521	0.0167723
817.599	0.0167746
817.677	0.0166016
817.755	0.0166650
817.833	0.0165752
817.911	0.0164963
817.989	0.0165026
818.067	0.0164272
818.146	0.0162447
818.224	0.0160626
818.302	0.0160620
818.380	0.0159351
818.458	0.0158488
818.536	0.0157383
818.614	0.0155157
818.692	0.0154706
818.771	0.0152505
818.849	0.0152813
818.927	0.0150453
819.005	0.0150717
819.083	0.0149039
819.161	0.0147422
819.239	0.0146493
819.317	0.0147675
819.396	0.0145869
819.474	0.0146167
819.552	0.0146781
819.630	0.0147318
819.708	0.0148046
819.786	0.0151613
819.864	0.0152488
819.942	0.0151398
820.021	0.0154120
820.099	0.0154391
820.177	0.0158366
820.255	0.0160181
820.333	0.0162021
820.411	0.0164638
820.489	0.0165546
820.567	0.0166649
820.646	0.0169534
820.724	0.0170202
820.802	0.0169568
820.880	0.0170990
820.958	0.0172640
821.036	0.0173061
821.114	0.0174284
821.192	0.0175879
821.271	0.0175469
821.349	0.0176959
821.427	0.0175418
821.505	0.0175759
821.583	0.0175719
821.661	0.0176495
821.739	0.0177168
821.817	0.0175616
821.896	0.0176116
821.974	0.0175216
822.052	0.0175291
822.130	0.0174483
822.208	0.0173696
822.286	0.0172598
822.364	0.0171674
822.442	0.0170644
822.521	0.0170052
822.599	0.0167696
822.677	0.0164706
822.755	0.0164778
822.833	0.0164904
822.911	0.0164522
822.989	0.0161963
823.067	0.0161748
823.146	0.0158200
823.224	0.0159086
823.302	0.0158598
823.380	0.0157297
823.458	0.0156001
823.536	0.0154508
823.614	0.0154267
823.692	0.0153168
823.771	0.0152405
823.849	0.0150434
823.927	0.0151630
824.005	0.0149575
824.083	0.0146605
824.161	0.0146869
824.239	0.0145219
824.317	0.0145028
824.396	0.0143855
824.474	0.0144148
824.552	0.0144250
824.630	0.0144236
824.708	0.0146227
824.786	0.0146462
824.864	0.0147846
824.942	0.0148831
825.021	0.0151399
825.099	0.0153220
825.177	0.0154873
825.255	0.0157172
825.333	0.0160756
825.411	0.0162611
825.489	0.0163211
825.567	0.0166892
825.646	0.0167642
825.724	0.0169564
825.802	0.0172344
825.880	0.0172285
825.958	0.0174264
826.036	0.0174707
826.114	0.0175697
826.192	0.0176237
826.271	0.0176385
826.349	0.0176760
826.427	0.0179047
826.505	0.0178444
826.583	0.0177393
826.661	0.0177775
826.739	0.0177899
826.817	0.0177138
826.896	0.0176155
826.974	0.0175191
827.052	0.0175871
827.130	0.0172977
827.208	0.0172736
827.286	0.0172629
827.364	0.0171128
827.442	0.0168919
827.521	0.0167526
827.599	0.0166409
827.677	0.0164637
827.755	0.0164643
827.833	0.0163480
827.911	0.0162283
827.989	0.0161257
828.067	0.0157755
828.146	0.0157689
828.224	0.0157411
828.302	0.0156054
828.380	0.0153828
828.458	0.0152991
828.536	0.0151561
828.614	0.0151866
828.692	0.0149992
828.771	0.0149657
828.849	0.0150507
828.927	0.0150029
829.005	0.0150054
829.083	0.0151261
829.161	0.0151338
829.239	0.0151759
829.317	0.0151455
829.396	0.0153072
829.474	0.0154546
829.552	0.0155340
829.630	0.0156095
829.708	0.0157086
829.786	0.0157817
829.864	0.0159475
829.942	0.0159375
830.021	0.0160182
830.099	0.0161608
830.177	0.0161369
830.255	0.0163403
830.333	0.0164880
830.411	0.0164057
830.489	0.0164523
830.567	0.0164833
830.646	0.0166695
830.724	0.0166479
830.802	0.0166262
830.880	0.0167359
830.958	0.0166867
831.036	0.0165963
831.114	0.0168026
831.192	0.0168521
831.271	0.0168741
831.349	0.0168214
831.427	0.0167979
831.505	0.0170114
831.583	0.0170034
831.661	0.0169233
831.739	0.0170313
831.817	0.0171156
831.896	0.0170600
831.974	0.0171445
832.052	0.0171323
832.130	0.0169681
832.208	0.0169490
832.286	0.0168700
832.364	0.0167255
832.442	0.0166424
832.521	0.0165167
832.599	0.0166457
832.677	0.0164120
832.755	0.0161787
832.833	0.0161068
832.911	0.0160831
832.989	0.0159992
833.067	0.0159239
833.146	0.0157667
833.224	0.0156766
833.302	0.0156939
833.380	0.0156631
833.458	0.0154783
833.536	0.0155450
833.614	0.0154411
833.692	0.0155946
833.771	0.0155541
833.849	0.0154631
833.927	0.0154817
834.005	0.0157177
834.083	0.0156787
834.161	0.0159724
834.239	0.0159695
834.317	0.0159325
834.396	0.0160944
834.474	0.0162898
834.552	0.0162563
834.630	0.0163071
834.708	0.0164008
834.786	0.0164391
834.864	0.0163737
834.942	0.0162685
835.021	0.0164220
835.099	0.0164770
835.177	0.0164587
835.255	0.0163175
835.333	0.0164158
835.411	0.0163746
835.489	0.0162402
835.567	0.0162614
835.646	0.0162970
835.724	0.0162550
835.802	0.0161237
835.880	0.0162646
835.958	0.0162794
836.036	0.0161989
836.114	0.0162252
836.192	0.0163065
836.271	0.0163590
836.349	0.0163676
836.427	0.0163575
836.505	0.0167042
836.583	0.0165607
836.661	0.0164672
836.739	0.0165960
836.817	0.0166379
836.896	0.0167234
836.974	0.0166048
837.052	0.0164738
837.130	0.0165616
837.208	0.0166078
837.286	0.0165554
837.364	0.0165439
837.442	0.0166088
837.521	0.0162923
837.599	0.0161372
837.677	0.0161916
837.755	0.0162106
837.833	0.0162145
837.911	0.0163021
837.989	0.0162163
838.067	0.0161688
838.146	0.0160828
838.224	0.0159106
838.302	0.0159752
838.380	0.0160156
838.458	0.0158907
838.536	0.0160088
838.614	0.0160506
838.692	0.0159437
838.771	0.0159467
838.849	0.0161021
838.927	0.0159639
839.005	0.0159366
839.083	0.0160452
839.161	0.0160090
839.239	0.0158459
839.317	0.0160304
839.396	0.0160101
839.474	0.0159797
839.552	0.0160706
839.630	0.0160734
839.708	0.0158737
839.786	0.0160844
839.864	0.0159403
839.942	0.0158769
840.021	0.0159976
840.099	0.0160585
840.177	0.0160603
840.255	0.0161453
840.333	0.0160199
840.411	0.0162192
840.489	0.0163480
840.567	0.0163241
840.646	0.0163240
840.724	0.0163853
840.802	0.0163904
840.880	0.0165401
840.958	0.0165808
841.036	0.0165639
841.114	0.0165613
841.192	0.0165720
841.271	0.0165594
841.349	0.0165781
841.427	0.0164482
841.505	0.0164032
841.583	0.0163637
841.661	0.0163035
841.739	0.0163023
841.817	0.0163306
841.896	0.0163145
841.974	0.0163355
842.052	0.0163079
842.130	0.0162315
842.208	0.0163935
842.286	0.0163255
842.364	0.0162191
842.442	0.0162898
842.521	0.0162657
842.599	0.0164610
842.677	0.0164346
842.755	0.0163237
842.833	0.0162719
842.911	0.0162307
842.989	0.0161897
843.067	0.0161775
843.146	0.0162535
843.224	0.0161618
843.302	0.0161507
843.380	0.0160786
843.458	0.0161919
843.536	0.0162033
843.614	0.0162365
843.692	0.0161749
843.771	0.0163103
843.849	0.0161356
843.927	0.0161806
844.005	0.0161336
844.083	0.0162297
844.161	0.0161369
844.239	0.0160028
844.317	0.0160271
844.396	0.0161881
844.474	0.0159436
844.552	0.0159903
844.630	0.0160406
844.708	0.0160416
844.786	0.0158906
844.864	0.0159960
844.942	0.0158736
845.021	0.0158293
845.099	0.0160315
845.177	0.0158746
845.255	0.0159100
845.333	0.0159595
845.411	0.0159171
845.489	0.0160314
845.567	0.0160006
845.646	0.0160913
845.724	0.0160814
845.802	0.0162049
845.880	0.0161485
845.958	0.0162155
846.036	0.0161320
846.114	0.0162231
846.192	0.0162895
846.271	0.0161720
846.349	0.0162236
846.427	0.0161732
846.505	0.0163470
846.583	0.0161991
846.661	0.0162637
846.739	0.0162995
846.817	0.0162819
846.896	0.0163249
846.974	0.0164188
847.052	0.0162700
847.130	0.0163895
847.208	0.0165149
847.286	0.0165965
847.364	0.0165189
847.442	0.0164401
847.521	0.0165092
847.599	0.0166126
847.677	0.0165540
847.755	0.0164251
847.833	0.0164185
847.911	0.0165788
847.989	0.0165384
848.067	0.0164539
848.146	0.0164233
848.224	0.0163428
848.302	0.0162618
848.380	0.0163144
848.458	0.0161921
848.536	0.0161785
848.614	0.0160599
848.692	0.0160330
848.771	0.0162038
848.849	0.0161552
848.927	0.0160123
849.005	0.0160925
849.083	0.0160108
849.161	0.0161813
849.239	0.0160751
849.317	0.0159968
849.396	0.0160799
849.474	0.0160041
849.552	0.0160324
849.630	0.0160401
849.708	0.0160031
849.786	0.0158656
849.864	0.0158775
849.942	0.0159541
850.021	0.0159487
850.099	0.0160283
850.177	0.0161466
850.255	0.0161271
850.333	0.0160133
850.411	0.0159885
850.489	0.0160082
850.567	0.0161009
850.646	0.0160806
850.724	0.0160092
850.802	0.0160420
850.880	0.0161792
850.958	0.0162898
851.036	0.0163485
851.114	0.0163251
851.192	0.0163222
851.271	0.0163457
851.349	0.0163045
851.427	0.0165163
851.505	0.0164069
851.583	0.0164993
851.661	0.0165804
851.739	0.0164314
851.817	0.0164399
851.896	0.0165366
851.974	0.0166274
852.052	0.0166706
852.130	0.0164579
852.208	0.0166721
852.286	0.0166495
852.364	0.0164693
852.442	0.0166041
852.521	0.0165484
852.599	0.0165700
852.677	0.0165578
852.755	0.0165056
852.833	0.0165575
852.911	0.0166624
852.989	0.0165220
853.067	0.0162663
853.146	0.0166099
853.224	0.0165392
853.302	0.0163717
853.380	0.0163248
853.458	0.0164240
853.536	0.0165335
853.614	0.0164571
853.692	0.0162700
853.771	0.0162902
853.849	0.0161311
853.927	0.0162229
854.005	0.0161330
854.083	0.0160226
854.161	0.0160482
854.239	0.0161252
854.317	0.0159341
854.396	0.0159482
854.474	0.0160338
854.552	0.0158920
854.630	0.0157284
854.708	0.0157765
854.786	0.0159035
854.864	0.0160251
854.942	0.0156947
855.021	0.0156882
855.099	0.0157886
855.177	0.0158719
855.255	0.0158800
855.333	0.0158617
855.411	0.0158566
855.489	0.0159373
855.567	0.0161317
855.646	0.0160045
855.724	0.0161664
855.802	0.0160702
855.880	0.0163223
855.958	0.0163113
856.036	0.0165104
856.114	0.0164897
856.192	0.0165079
856.271	0.0165200
856.349	0.0164911
856.427	0.0165018
856.505	0.0167221
856.583	0.0166702
856.661	0.0166256
856.739	0.0166444
856.817	0.0164534
856.896	0.0165979
856.974	0.0165266
857.052	0.0164696
857.130	0.0165088
857.208	0.0166047
857.286	0.0166077
857.364	0.0165273
857.442	0.0166086
857.521	0.0163467
857.599	0.0165125
857.677	0.0164377
857.755	0.0165353
857.833	0.0164956
857.911	0.0164916
857.989	0.0165219
858.067	0.0165519
858.146	0.0164307
858.224	0.0165008
858.302	0.0163186
858.380	0.0162260
858.458	0.0164223
858.536	0.0163911
858.614	0.0162737
858.692	0.0162787
858.771	0.0163297
858.849	0.0163452
858.927	0.0161846
859.005	0.0161691
859.083	0.0161517
859.161	0.0161577
859.239	0.0161277
859.317	0.0160332
859.396	0.0161733
859.474	0.0160960
859.552	0.0159274
859.630	0.0157852
859.708	0.0158993
859.786	0.0158453
859.864	0.0157490
859.942	0.0158150
860.021	0.0157205
860.099	0.0157719
860.177	0.0158138
860.255	0.0158618
860.333	0.0159121
860.411	0.0159417
860.489	0.0159913
860.567	0.0159150
860.646	0.0161011
860.724	0.0161758
860.802	0.0160202
860.880	0.0162225
860.958	0.0161722
861.036	0.0164268
861.114	0.0163344
861.192	0.0161876
861.271	0.0163955
861.349	0.0164145
861.427	0.0163703
861.505	0.0164833
861.583	0.0164419
861.661	0.0163317
861.739	0.0163937
861.817	0.0163737
861.896	0.0163266
861.974	0.0164181
862.052	0.0163747
862.130	0.0165585
862.208	0.0164267
862.286	0.0164220
862.364	0.0164930
862.442	0.0164739
862.521	0.0165883
862.599	0.0164327
862.677	0.0164944
862.755	0.0165421
862.833	0.0164124
862.911	0.0163944
862.989	0.0163788
863.067	0.0164170
863.146	0.0163271
863.224	0.0163261
863.302	0.0163432
863.380	0.0163291
863.458	0.0163898
863.536	0.0164214
863.614	0.0162712
863.692	0.0162883
863.771	0.0162235
863.849	0.0164056
863.927	0.0163782
864.005	0.0161771
864.083	0.0162514
864.161	0.0162962
864.239	0.0163341
864.317	0.0161587
864.396	0.0161661
864.474	0.0161229
864.552	0.0160854
864.630	0.0163070
864.708	0.0162174
864.786	0.0161647
864.864	0.0161469
864.942	0.0159768
865.021	0.0160474
865.099	0.0161562
865.177	0.0160497
865.255	0.0161678
865.333	0.0160801
865.411	0.0160893
865.489	0.0160947
865.567	0.0161674
865.646	0.0161527
865.724	0.0161635
865.802	0.0160997
865.880	0.0160699
865.958	0.0161375
866.036	0.0160829
866.114	0.0161415
866.192	0.0161154
866.271	0.0161748
866.349	0.0161543
866.427	0.0160774
866.505	0.0160509
866.583	0.0161044
866.661	0.0161617
866.739	0.0160806
866.817	0.0160854
866.896	0.0163210
866.974	0.0162170
867.052	0.0164029
867.130	0.0162930
867.208	0.0164098
867.286	0.0164252
867.364	0.0163255
867.442	0.0163452
867.521	0.0163412
867.599	0.0163732
867.677	0.0164950
867.755	0.0163515
867.833	0.0164033
867.911	0.0163155
867.989	0.0160741
868.067	0.0162019
868.146	0.0162836
868.224	0.0161992
868.302	0.0161331
868.380	0.0161937
868.458	0.0161353
868.536	0.0160748
868.614	0.0163561
868.692	0.0162930
868.771	0.0161418
868.849	0.0162345
868.927	0.0161195
869.005	0.0162433
869.083	0.0162202
869.161	0.0162317
869.239	0.0164852
869.317	0.0164261
869.396	0.0163605
869.474	0.0162881
869.552	0.0163603
869.630	0.0163992
869.708	0.0163194
869.786	0.0162700
869.864	0.0164201
869.942	0.0163960
