06/03/2022	15:41:16	Ver.	4.1	UNKNOWN
Optical Delay	550.020508	Delta X		0.078125	Sweeps	1	Scan Rate	0/0
Coordinates	Axis 1	NaN	Axis 2	NaN	Axis 3	NaN	Axis 4	NaN	Axis 5	NaN	Axis 6	0.000000
TX Power	0.000000	RX Power	0.000000

550.021	0.0159969
550.099	0.0159411
550.177	0.0160838
550.255	0.0161257
550.333	0.0159854
550.411	0.0159769
550.489	0.0159955
550.567	0.0159328
550.646	0.0160474
550.724	0.0159094
550.802	0.0159463
550.880	0.0160612
550.958	0.0159309
551.036	0.0159810
551.114	0.0160251
551.192	0.0160324
551.271	0.0160834
551.349	0.0159346
551.427	0.0160222
551.505	0.0159335
551.583	0.0160214
551.661	0.0161023
551.739	0.0159433
551.817	0.0160340
551.896	0.0160568
551.974	0.0159805
552.052	0.0159430
552.130	0.0160628
552.208	0.0160226
552.286	0.0160706
552.364	0.0161293
552.442	0.0159974
552.521	0.0159957
552.599	0.0160702
552.677	0.0159480
552.755	0.0160507
552.833	0.0158998
552.911	0.0159598
552.989	0.0160598
553.067	0.0160129
553.146	0.0161325
553.224	0.0159477
553.302	0.0159470
553.380	0.0159846
553.458	0.0160156
553.536	0.0159937
553.614	0.0160122
553.692	0.0158786
553.771	0.0159113
553.849	0.0161072
553.927	0.0159692
554.005	0.0160562
554.083	0.0160369
554.161	0.0159257
554.239	0.0158997
554.317	0.0159676
554.396	0.0160776
554.474	0.0159808
554.552	0.0160061
554.630	0.0160306
554.708	0.0158969
554.786	0.0159451
554.864	0.0158813
554.942	0.0159824
555.021	0.0159896
555.099	0.0161437
555.177	0.0159329
555.255	0.0160083
555.333	0.0159471
555.411	0.0158607
555.489	0.0161638
555.567	0.0158641
555.646	0.0160650
555.724	0.0159782
555.802	0.0159277
555.880	0.0158066
555.958	0.0160269
556.036	0.0159169
556.114	0.0160648
556.192	0.0159256
556.271	0.0158049
556.349	0.0158946
556.427	0.0160115
556.505	0.0159081
556.583	0.0159055
556.661	0.0159182
556.739	0.0160498
556.817	0.0160017
556.896	0.0161478
556.974	0.0159078
557.052	0.0160701
557.130	0.0160329
557.208	0.0159624
557.286	0.0160171
557.364	0.0160556
557.442	0.0160523
557.521	0.0160730
557.599	0.0159421
557.677	0.0160371
557.755	0.0161153
557.833	0.0160346
557.911	0.0159966
557.989	0.0159354
558.067	0.0158730
558.146	0.0160316
558.224	0.0159416
558.302	0.0158258
558.380	0.0159983
558.458	0.0161892
558.536	0.0159394
558.614	0.0158515
558.692	0.0158862
558.771	0.0160031
558.849	0.0159317
558.927	0.0158746
559.005	0.0159730
559.083	0.0159671
559.161	0.0159486
559.239	0.0159033
559.317	0.0160479
559.396	0.0159383
559.474	0.0160950
559.552	0.0160763
559.630	0.0160579
559.708	0.0160104
559.786	0.0160425
559.864	0.0160535
559.942	0.0160314
560.021	0.0159824
560.099	0.0160818
560.177	0.0161731
560.255	0.0160223
560.333	0.0159476
560.411	0.0160600
560.489	0.0159379
560.567	0.0159874
560.646	0.0159671
560.724	0.0160311
560.802	0.0160597
560.880	0.0159805
560.958	0.0159545
561.036	0.0160137
561.114	0.0159255
561.192	0.0158078
561.271	0.0160285
561.349	0.0161415
561.427	0.0160263
561.505	0.0159917
561.583	0.0159720
561.661	0.0159485
561.739	0.0158842
561.817	0.0160715
561.896	0.0160849
561.974	0.0159700
562.052	0.0159701
562.130	0.0161150
562.208	0.0160399
562.286	0.0160011
562.364	0.0159183
562.442	0.0161340
562.521	0.0160157
562.599	0.0160728
562.677	0.0158833
562.755	0.0159102
562.833	0.0161321
562.911	0.0159170
562.989	0.0159969
563.067	0.0160152
563.146	0.0160213
563.224	0.0159435
563.302	0.0160035
563.380	0.0160687
563.458	0.0160010
563.536	0.0161012
563.614	0.0159034
563.692	0.0158994
563.771	0.0157551
563.849	0.0160952
563.927	0.0159710
564.005	0.0158157
564.083	0.0158864
564.161	0.0160104
564.239	0.0159232
564.317	0.0159615
564.396	0.0159650
564.474	0.0159005
564.552	0.0160255
564.630	0.0160293
564.708	0.0159787
564.786	0.0159790
564.864	0.0159698
564.942	0.0159502
565.021	0.0159802
565.099	0.0158080
565.177	0.0158968
565.255	0.0158691
565.333	0.0159912
565.411	0.0158821
565.489	0.0160001
565.567	0.0160310
565.646	0.0159646
565.724	0.0159713
565.802	0.0160555
565.880	0.0160703
565.958	0.0160024
566.036	0.0158160
566.114	0.0159712
566.192	0.0160825
566.271	0.0159299
566.349	0.0160036
566.427	0.0159306
566.505	0.0158881
566.583	0.0160844
566.661	0.0159636
566.739	0.0160193
566.817	0.0158582
566.896	0.0160361
566.974	0.0159888
567.052	0.0161195
567.130	0.0160281
567.208	0.0159940
567.286	0.0159600
567.364	0.0160262
567.442	0.0158890
567.521	0.0158160
567.599	0.0160728
567.677	0.0160355
567.755	0.0158444
567.833	0.0160286
567.911	0.0161173
567.989	0.0160146
568.067	0.0159245
568.146	0.0160356
568.224	0.0160353
568.302	0.0160138
568.380	0.0159790
568.458	0.0158423
568.536	0.0161720
568.614	0.0160220
568.692	0.0159831
568.771	0.0158710
568.849	0.0159871
568.927	0.0158976
569.005	0.0160771
569.083	0.0158917
569.161	0.0160076
569.239	0.0160515
569.317	0.0158084
569.396	0.0159019
569.474	0.0161084
569.552	0.0160161
569.630	0.0159896
569.708	0.0159859
569.786	0.0160284
569.864	0.0160094
569.942	0.0159830
570.021	0.0159039
570.099	0.0160166
570.177	0.0160386
570.255	0.0159148
570.333	0.0158886
570.411	0.0160355
570.489	0.0161028
570.567	0.0159708
570.646	0.0159771
570.724	0.0159364
570.802	0.0158245
570.880	0.0158875
570.958	0.0158418
571.036	0.0158481
571.114	0.0158966
571.192	0.0158621
571.271	0.0159801
571.349	0.0159595
571.427	0.0157964
571.505	0.0160726
571.583	0.0160750
571.661	0.0161347
571.739	0.0160297
571.817	0.0159121
571.896	0.0159465
571.974	0.0158753
572.052	0.0159267
572.130	0.0159212
572.208	0.0160668
572.286	0.0161109
572.364	0.0161433
572.442	0.0158826
572.521	0.0159743
572.599	0.0159664
572.677	0.0160200
572.755	0.0160030
572.833	0.0159434
572.911	0.0160213
572.989	0.0158704
573.067	0.0161149
573.146	0.0159939
573.224	0.0160373
573.302	0.0160179
573.380	0.0159492
573.458	0.0159507
573.536	0.0160508
573.614	0.0160036
573.692	0.0159092
573.771	0.0158830
573.849	0.0159812
573.927	0.0160277
574.005	0.0158861
574.083	0.0159685
574.161	0.0159646
574.239	0.0160550
574.317	0.0161720
574.396	0.0160824
574.474	0.0160089
574.552	0.0160827
574.630	0.0160479
574.708	0.0160481
574.786	0.0159590
574.864	0.0160249
574.942	0.0159188
575.021	0.0160901
575.099	0.0159344
575.177	0.0160435
575.255	0.0159390
575.333	0.0158459
575.411	0.0160329
575.489	0.0161337
575.567	0.0160247
575.646	0.0161047
575.724	0.0161228
575.802	0.0160022
575.880	0.0159967
575.958	0.0160707
576.036	0.0160802
576.114	0.0160178
576.192	0.0160818
576.271	0.0159747
576.349	0.0159529
576.427	0.0160101
576.505	0.0159249
576.583	0.0158665
576.661	0.0161083
576.739	0.0159712
576.817	0.0161333
576.896	0.0160050
576.974	0.0159889
577.052	0.0161024
577.130	0.0159315
577.208	0.0160910
577.286	0.0159462
577.364	0.0159904
577.442	0.0159566
577.521	0.0159811
577.599	0.0161130
577.677	0.0160131
577.755	0.0159090
577.833	0.0160235
577.911	0.0159536
577.989	0.0159845
578.067	0.0160038
578.146	0.0160468
578.224	0.0160641
578.302	0.0159867
578.380	0.0161055
578.458	0.0159007
578.536	0.0159564
578.614	0.0159410
578.692	0.0158502
578.771	0.0159434
578.849	0.0161691
578.927	0.0159998
579.005	0.0160398
579.083	0.0160135
579.161	0.0160628
579.239	0.0159394
579.317	0.0160098
579.396	0.0158356
579.474	0.0158816
579.552	0.0159375
579.630	0.0160139
579.708	0.0159808
579.786	0.0159882
579.864	0.0160754
579.942	0.0159250
580.021	0.0160414
580.099	0.0160185
580.177	0.0160134
580.255	0.0160050
580.333	0.0160170
580.411	0.0160555
580.489	0.0161178
580.567	0.0160275
580.646	0.0159333
580.724	0.0159826
580.802	0.0160263
580.880	0.0160451
580.958	0.0159466
581.036	0.0158943
581.114	0.0161272
581.192	0.0160773
581.271	0.0159980
581.349	0.0158879
581.427	0.0160465
581.505	0.0159764
581.583	0.0160135
581.661	0.0161749
581.739	0.0160414
581.817	0.0160745
581.896	0.0158471
581.974	0.0160298
582.052	0.0158850
582.130	0.0159974
582.208	0.0160561
582.286	0.0159476
582.364	0.0160294
582.442	0.0158828
582.521	0.0160331
582.599	0.0159284
582.677	0.0159866
582.755	0.0158792
582.833	0.0159544
582.911	0.0160016
582.989	0.0159023
583.067	0.0158672
583.146	0.0159221
583.224	0.0157996
583.302	0.0158598
583.380	0.0160074
583.458	0.0159301
583.536	0.0158639
583.614	0.0157117
583.692	0.0159433
583.771	0.0159802
583.849	0.0160073
583.927	0.0158913
584.005	0.0158482
584.083	0.0160748
584.161	0.0158782
584.239	0.0159546
584.317	0.0158900
584.396	0.0159795
584.474	0.0160377
584.552	0.0159547
584.630	0.0160298
584.708	0.0160044
584.786	0.0160461
584.864	0.0159908
584.942	0.0159732
585.021	0.0160426
585.099	0.0160269
585.177	0.0159799
585.255	0.0160101
585.333	0.0158807
585.411	0.0159559
585.489	0.0159787
585.567	0.0160226
585.646	0.0159985
585.724	0.0159262
585.802	0.0159061
585.880	0.0160616
585.958	0.0160596
586.036	0.0159048
586.114	0.0160615
586.192	0.0160275
586.271	0.0160158
586.349	0.0158291
586.427	0.0160610
586.505	0.0160072
586.583	0.0158718
586.661	0.0159241
586.739	0.0159359
586.817	0.0159954
586.896	0.0159837
586.974	0.0159212
587.052	0.0160353
587.130	0.0159280
587.208	0.0160095
587.286	0.0159371
587.364	0.0159801
587.442	0.0160142
587.521	0.0160548
587.599	0.0158633
587.677	0.0159860
587.755	0.0159370
587.833	0.0158790
587.911	0.0159838
587.989	0.0157936
588.067	0.0160378
588.146	0.0159431
588.224	0.0160830
588.302	0.0159650
588.380	0.0159895
588.458	0.0158955
588.536	0.0160245
588.614	0.0159200
588.692	0.0159848
588.771	0.0160319
588.849	0.0159789
588.927	0.0158923
589.005	0.0158961
589.083	0.0159612
589.161	0.0158271
589.239	0.0158517
589.317	0.0159958
589.396	0.0160908
589.474	0.0159695
589.552	0.0160158
589.630	0.0158485
589.708	0.0159212
589.786	0.0160432
589.864	0.0159238
589.942	0.0159225
590.021	0.0159908
590.099	0.0159789
590.177	0.0159554
590.255	0.0160902
590.333	0.0159777
590.411	0.0160314
590.489	0.0159542
590.567	0.0158493
590.646	0.0160093
590.724	0.0160279
590.802	0.0160310
590.880	0.0158926
590.958	0.0159086
591.036	0.0159711
591.114	0.0160282
591.192	0.0160081
591.271	0.0159892
591.349	0.0159425
591.427	0.0158020
591.505	0.0159434
591.583	0.0160561
591.661	0.0158517
591.739	0.0160107
591.817	0.0159764
591.896	0.0158293
591.974	0.0160168
592.052	0.0159012
592.130	0.0160625
592.208	0.0160583
592.286	0.0160531
592.364	0.0160116
592.442	0.0161032
592.521	0.0161222
592.599	0.0159621
592.677	0.0160182
592.755	0.0160159
592.833	0.0160145
592.911	0.0159894
592.989	0.0159344
593.067	0.0159985
593.146	0.0160673
593.224	0.0161446
593.302	0.0159792
593.380	0.0159625
593.458	0.0159377
593.536	0.0159751
593.614	0.0159962
593.692	0.0161642
593.771	0.0160989
593.849	0.0160382
593.927	0.0160054
594.005	0.0160286
594.083	0.0159418
594.161	0.0159485
594.239	0.0158874
594.317	0.0158646
594.396	0.0159692
594.474	0.0160204
594.552	0.0159247
594.630	0.0159636
594.708	0.0160400
594.786	0.0160624
594.864	0.0159862
594.942	0.0160696
595.021	0.0160330
595.099	0.0159759
595.177	0.0159772
595.255	0.0158907
595.333	0.0159605
595.411	0.0159351
595.489	0.0159703
595.567	0.0158660
595.646	0.0160154
595.724	0.0159599
595.802	0.0159587
595.880	0.0160218
595.958	0.0159218
596.036	0.0160030
596.114	0.0160168
596.192	0.0158823
596.271	0.0158247
596.349	0.0160612
596.427	0.0159469
596.505	0.0159994
596.583	0.0158881
596.661	0.0160698
596.739	0.0158717
596.817	0.0160739
596.896	0.0159420
596.974	0.0158766
597.052	0.0159254
597.130	0.0160572
597.208	0.0159727
597.286	0.0159881
597.364	0.0159454
597.442	0.0161131
597.521	0.0159041
597.599	0.0158837
597.677	0.0159815
597.755	0.0159711
597.833	0.0159646
597.911	0.0159632
597.989	0.0160524
598.067	0.0159779
598.146	0.0158995
598.224	0.0158231
598.302	0.0160680
598.380	0.0159131
598.458	0.0158606
598.536	0.0160149
598.614	0.0159221
598.692	0.0160906
598.771	0.0159571
598.849	0.0159958
598.927	0.0158743
599.005	0.0159102
599.083	0.0159945
599.161	0.0161225
599.239	0.0158708
599.317	0.0159583
599.396	0.0160708
599.474	0.0160129
599.552	0.0159144
599.630	0.0159328
599.708	0.0160317
599.786	0.0160983
599.864	0.0160085
599.942	0.0159265
600.021	0.0159978
600.099	0.0160068
600.177	0.0160740
600.255	0.0160616
600.333	0.0159332
600.411	0.0159942
600.489	0.0159976
600.567	0.0159720
600.646	0.0160465
600.724	0.0159956
600.802	0.0160585
600.880	0.0158998
600.958	0.0159055
601.036	0.0159830
601.114	0.0158708
601.192	0.0159138
601.271	0.0160475
601.349	0.0159772
601.427	0.0159444
601.505	0.0158615
601.583	0.0159126
601.661	0.0159426
601.739	0.0159823
601.817	0.0160072
601.896	0.0158926
601.974	0.0159616
602.052	0.0159852
602.130	0.0160111
602.208	0.0160518
602.286	0.0159700
602.364	0.0160854
602.442	0.0159785
602.521	0.0160438
602.599	0.0159998
602.677	0.0159955
602.755	0.0159174
602.833	0.0160017
602.911	0.0159643
602.989	0.0160397
603.067	0.0159396
603.146	0.0160226
603.224	0.0160149
603.302	0.0159618
603.380	0.0158840
603.458	0.0159979
603.536	0.0160519
603.614	0.0159155
603.692	0.0159113
603.771	0.0161106
603.849	0.0159634
603.927	0.0159411
604.005	0.0159498
604.083	0.0159588
604.161	0.0158569
604.239	0.0160323
604.317	0.0159387
604.396	0.0159872
604.474	0.0159699
604.552	0.0160071
604.630	0.0159052
604.708	0.0160006
604.786	0.0160437
604.864	0.0159557
604.942	0.0159306
605.021	0.0160609
605.099	0.0160788
605.177	0.0160083
605.255	0.0159057
605.333	0.0159969
605.411	0.0159702
605.489	0.0160896
605.567	0.0160310
605.646	0.0159577
605.724	0.0159894
605.802	0.0159257
605.880	0.0160288
605.958	0.0159628
606.036	0.0160764
606.114	0.0161007
606.192	0.0159227
606.271	0.0160167
606.349	0.0160394
606.427	0.0159727
606.505	0.0159296
606.583	0.0160780
606.661	0.0158646
606.739	0.0159676
606.817	0.0161843
606.896	0.0161004
606.974	0.0159636
607.052	0.0159164
607.130	0.0158875
607.208	0.0160132
607.286	0.0159730
607.364	0.0159538
607.442	0.0159176
607.521	0.0159279
607.599	0.0160120
607.677	0.0160183
607.755	0.0159602
607.833	0.0159190
607.911	0.0158515
607.989	0.0159724
608.067	0.0159021
608.146	0.0160572
608.224	0.0158374
608.302	0.0159760
608.380	0.0159271
608.458	0.0159899
608.536	0.0159887
608.614	0.0159764
608.692	0.0160039
608.771	0.0159251
608.849	0.0159984
608.927	0.0159161
609.005	0.0159959
609.083	0.0159538
609.161	0.0159709
609.239	0.0159740
609.317	0.0159520
609.396	0.0159225
609.474	0.0160864
609.552	0.0160866
609.630	0.0159745
609.708	0.0158206
609.786	0.0160164
609.864	0.0161646
609.942	0.0158866
610.021	0.0159863
610.099	0.0160201
610.177	0.0159734
610.255	0.0160372
610.333	0.0160114
610.411	0.0159237
610.489	0.0159148
610.567	0.0159872
610.646	0.0160192
610.724	0.0159620
610.802	0.0158931
610.880	0.0159396
610.958	0.0159818
611.036	0.0159539
611.114	0.0159003
611.192	0.0159459
611.271	0.0160345
611.349	0.0160033
611.427	0.0161240
611.505	0.0159788
611.583	0.0160312
611.661	0.0159604
611.739	0.0159518
611.817	0.0159702
611.896	0.0160147
611.974	0.0160997
612.052	0.0158657
612.130	0.0159998
612.208	0.0160253
612.286	0.0160305
612.364	0.0159337
612.442	0.0160768
612.521	0.0161430
612.599	0.0159560
612.677	0.0160295
612.755	0.0158997
612.833	0.0158736
612.911	0.0159962
612.989	0.0160747
613.067	0.0160032
613.146	0.0159049
613.224	0.0160229
613.302	0.0159091
613.380	0.0160229
613.458	0.0160106
613.536	0.0160117
613.614	0.0159847
613.692	0.0159543
613.771	0.0159528
613.849	0.0159601
613.927	0.0159135
614.005	0.0159707
614.083	0.0160580
614.161	0.0160745
614.239	0.0159933
614.317	0.0159115
614.396	0.0159503
614.474	0.0159367
614.552	0.0159871
614.630	0.0160059
614.708	0.0160123
614.786	0.0161263
614.864	0.0160544
614.942	0.0158709
615.021	0.0160726
615.099	0.0159557
615.177	0.0158870
615.255	0.0159796
615.333	0.0158488
615.411	0.0159544
615.489	0.0160262
615.567	0.0158633
615.646	0.0159367
615.724	0.0158742
615.802	0.0159646
615.880	0.0159402
615.958	0.0160043
616.036	0.0159152
616.114	0.0158990
616.192	0.0161096
616.271	0.0159798
616.349	0.0159077
616.427	0.0160052
616.505	0.0158448
616.583	0.0159375
616.661	0.0158892
616.739	0.0159594
616.817	0.0159353
616.896	0.0158714
616.974	0.0159872
617.052	0.0159101
617.130	0.0159265
617.208	0.0159818
617.286	0.0159145
617.364	0.0159820
617.442	0.0160538
617.521	0.0159576
617.599	0.0160257
617.677	0.0160054
617.755	0.0159220
617.833	0.0159378
617.911	0.0160461
617.989	0.0159129
618.067	0.0160560
618.146	0.0160937
618.224	0.0160548
618.302	0.0159803
618.380	0.0159301
618.458	0.0160398
618.536	0.0159180
618.614	0.0160078
618.692	0.0158591
618.771	0.0159908
618.849	0.0160201
618.927	0.0161100
619.005	0.0160738
619.083	0.0159925
619.161	0.0159418
619.239	0.0160605
619.317	0.0160560
619.396	0.0161923
619.474	0.0159347
619.552	0.0158472
619.630	0.0161016
619.708	0.0160191
619.786	0.0159077
619.864	0.0160237
619.942	0.0159683
620.021	0.0159615
620.099	0.0160007
620.177	0.0160030
620.255	0.0160472
620.333	0.0159367
620.411	0.0160297
620.489	0.0159418
620.567	0.0160763
620.646	0.0160836
620.724	0.0160244
620.802	0.0158816
620.880	0.0158794
620.958	0.0160321
621.036	0.0159122
621.114	0.0160830
621.192	0.0158717
621.271	0.0159922
621.349	0.0159511
621.427	0.0160701
621.505	0.0158886
621.583	0.0160912
621.661	0.0159491
621.739	0.0160190
621.817	0.0160007
621.896	0.0158815
621.974	0.0159529
622.052	0.0159547
622.130	0.0161092
622.208	0.0160752
622.286	0.0161037
622.364	0.0160004
622.442	0.0161506
622.521	0.0160181
622.599	0.0159734
622.677	0.0160751
622.755	0.0160951
622.833	0.0160792
622.911	0.0160203
622.989	0.0159332
623.067	0.0160674
623.146	0.0160032
623.224	0.0159738
623.302	0.0160268
623.380	0.0159124
623.458	0.0160301
623.536	0.0160448
623.614	0.0159681
623.692	0.0159908
623.771	0.0160520
623.849	0.0159335
623.927	0.0159676
624.005	0.0159546
624.083	0.0160426
624.161	0.0160441
624.239	0.0160073
624.317	0.0158736
624.396	0.0160368
624.474	0.0160056
624.552	0.0158965
624.630	0.0158344
624.708	0.0158826
624.786	0.0159144
624.864	0.0161274
624.942	0.0160184
625.021	0.0160208
625.099	0.0158894
625.177	0.0160750
625.255	0.0158981
625.333	0.0159578
625.411	0.0160694
625.489	0.0160215
625.567	0.0159427
625.646	0.0159309
625.724	0.0159576
625.802	0.0160270
625.880	0.0158894
625.958	0.0160062
626.036	0.0159615
626.114	0.0160091
626.192	0.0160062
626.271	0.0159252
626.349	0.0159064
626.427	0.0160339
626.505	0.0160442
626.583	0.0159982
626.661	0.0159582
626.739	0.0159731
626.817	0.0159694
626.896	0.0160725
626.974	0.0159776
627.052	0.0160791
627.130	0.0160279
627.208	0.0159619
627.286	0.0160328
627.364	0.0160857
627.442	0.0159451
627.521	0.0159902
627.599	0.0158846
627.677	0.0160422
627.755	0.0159966
627.833	0.0159742
627.911	0.0160045
627.989	0.0161964
628.067	0.0160113
628.146	0.0159429
628.224	0.0159919
628.302	0.0160410
628.380	0.0160721
628.458	0.0161153
628.536	0.0160314
628.614	0.0160054
628.692	0.0159102
628.771	0.0160175
628.849	0.0160581
628.927	0.0158589
629.005	0.0159815
629.083	0.0159578
629.161	0.0159454
629.239	0.0159286
629.317	0.0159449
629.396	0.0161227
629.474	0.0159481
629.552	0.0160750
629.630	0.0159087
629.708	0.0160332
629.786	0.0160785
629.864	0.0160918
629.942	0.0159674
630.021	0.0160574
630.099	0.0159393
630.177	0.0159696
630.255	0.0159750
630.333	0.0158640
630.411	0.0160204
630.489	0.0159035
630.567	0.0159420
630.646	0.0161075
630.724	0.0159558
630.802	0.0160921
630.880	0.0161058
630.958	0.0159618
631.036	0.0158959
631.114	0.0160574
631.192	0.0159672
631.271	0.0159869
631.349	0.0159161
631.427	0.0159811
631.505	0.0159708
631.583	0.0160302
631.661	0.0159144
631.739	0.0160419
631.817	0.0160069
631.896	0.0159641
631.974	0.0160078
632.052	0.0158939
632.130	0.0160509
632.208	0.0160493
632.286	0.0159870
632.364	0.0159929
632.442	0.0159475
632.521	0.0159806
632.599	0.0159148
632.677	0.0159367
632.755	0.0160085
632.833	0.0160194
632.911	0.0159000
632.989	0.0159904
633.067	0.0158632
633.146	0.0158997
633.224	0.0159157
633.302	0.0158423
633.380	0.0159762
633.458	0.0160055
633.536	0.0160610
633.614	0.0160242
633.692	0.0159565
633.771	0.0159378
633.849	0.0160646
633.927	0.0158278
634.005	0.0158613
634.083	0.0159158
634.161	0.0160802
634.239	0.0158517
634.317	0.0161205
634.396	0.0159504
634.474	0.0159576
634.552	0.0159728
634.630	0.0158627
634.708	0.0158932
634.786	0.0160128
634.864	0.0159281
634.942	0.0159546
635.021	0.0160427
635.099	0.0159582
635.177	0.0158926
635.255	0.0159657
635.333	0.0158406
635.411	0.0159242
635.489	0.0159270
635.567	0.0160136
635.646	0.0159446
635.724	0.0159589
635.802	0.0159850
635.880	0.0160237
635.958	0.0159113
636.036	0.0160843
636.114	0.0159643
636.192	0.0159878
636.271	0.0159639
636.349	0.0160450
636.427	0.0160085
636.505	0.0159306
636.583	0.0158395
636.661	0.0158967
636.739	0.0159222
636.817	0.0158921
636.896	0.0158457
636.974	0.0158862
637.052	0.0159357
637.130	0.0160133
637.208	0.0159404
637.286	0.0160799
637.364	0.0160441
637.442	0.0160027
637.521	0.0159136
637.599	0.0160900
637.677	0.0160210
637.755	0.0160538
637.833	0.0160642
637.911	0.0158356
637.989	0.0158136
638.067	0.0159710
638.146	0.0161102
638.224	0.0158923
638.302	0.0161048
638.380	0.0158331
638.458	0.0160065
638.536	0.0161285
638.614	0.0160524
638.692	0.0159996
638.771	0.0160007
638.849	0.0159955
638.927	0.0160851
639.005	0.0159853
639.083	0.0159325
639.161	0.0160264
639.239	0.0159300
639.317	0.0158112
639.396	0.0159354
639.474	0.0158995
639.552	0.0160777
639.630	0.0159823
639.708	0.0158826
639.786	0.0158978
639.864	0.0160538
639.942	0.0159685
640.021	0.0159597
640.099	0.0159693
640.177	0.0160638
640.255	0.0160339
640.333	0.0159336
640.411	0.0160563
640.489	0.0159343
640.567	0.0160494
640.646	0.0160230
640.724	0.0160518
640.802	0.0159552
640.880	0.0159298
640.958	0.0160193
641.036	0.0160624
641.114	0.0159872
641.192	0.0159845
641.271	0.0159998
641.349	0.0159207
641.427	0.0160960
641.505	0.0160239
641.583	0.0158511
641.661	0.0159130
641.739	0.0160548
641.817	0.0158980
641.896	0.0159468
641.974	0.0160321
642.052	0.0159299
642.130	0.0159322
642.208	0.0159071
642.286	0.0160027
642.364	0.0160575
642.442	0.0159090
642.521	0.0159909
642.599	0.0159324
642.677	0.0159300
642.755	0.0159478
642.833	0.0159030
642.911	0.0159494
642.989	0.0159734
643.067	0.0159043
643.146	0.0159210
643.224	0.0158777
643.302	0.0159581
643.380	0.0158075
643.458	0.0159782
643.536	0.0158868
643.614	0.0159678
643.692	0.0159106
643.771	0.0160022
643.849	0.0157306
643.927	0.0158680
644.005	0.0158591
644.083	0.0159092
644.161	0.0157587
644.239	0.0159684
644.317	0.0159299
644.396	0.0161519
644.474	0.0159781
644.552	0.0159519
644.630	0.0159444
644.708	0.0159913
644.786	0.0160667
644.864	0.0159283
644.942	0.0159723
645.021	0.0159790
645.099	0.0160086
645.177	0.0160686
645.255	0.0160278
645.333	0.0160666
645.411	0.0160680
645.489	0.0160667
645.567	0.0159894
645.646	0.0160598
645.724	0.0160260
645.802	0.0160387
645.880	0.0160585
645.958	0.0159587
646.036	0.0159562
646.114	0.0160611
646.192	0.0161478
646.271	0.0160515
646.349	0.0161153
646.427	0.0162233
646.505	0.0158686
646.583	0.0159425
646.661	0.0160509
646.739	0.0159622
646.817	0.0159814
646.896	0.0159451
646.974	0.0159702
647.052	0.0160440
647.130	0.0159966
647.208	0.0158867
647.286	0.0158857
647.364	0.0159026
647.442	0.0158923
647.521	0.0159651
647.599	0.0159380
647.677	0.0158492
647.755	0.0158655
647.833	0.0160421
647.911	0.0160685
647.989	0.0159165
648.067	0.0159576
648.146	0.0158450
648.224	0.0159919
648.302	0.0160292
648.380	0.0158221
648.458	0.0159718
648.536	0.0159864
648.614	0.0159029
648.692	0.0158669
648.771	0.0159959
648.849	0.0159534
648.927	0.0158958
649.005	0.0160005
649.083	0.0159991
649.161	0.0158697
649.239	0.0159680
649.317	0.0159052
649.396	0.0159350
649.474	0.0157931
649.552	0.0158036
649.630	0.0159692
649.708	0.0159774
649.786	0.0158092
649.864	0.0159108
649.942	0.0160835
650.021	0.0158944
650.099	0.0159411
650.177	0.0160197
650.255	0.0160526
650.333	0.0159099
650.411	0.0160118
650.489	0.0161550
650.567	0.0160111
650.646	0.0157910
650.724	0.0160418
650.802	0.0159448
650.880	0.0160389
650.958	0.0161285
651.036	0.0159059
651.114	0.0160104
651.192	0.0160336
651.271	0.0160503
651.349	0.0158839
651.427	0.0160123
651.505	0.0159550
651.583	0.0158958
651.661	0.0159313
651.739	0.0160044
651.817	0.0159392
651.896	0.0158833
651.974	0.0158896
652.052	0.0159111
652.130	0.0159629
652.208	0.0159479
652.286	0.0159044
652.364	0.0159679
652.442	0.0159098
652.521	0.0159882
652.599	0.0160011
652.677	0.0159747
652.755	0.0159109
652.833	0.0159290
652.911	0.0160647
652.989	0.0160620
653.067	0.0160347
653.146	0.0159577
653.224	0.0160400
653.302	0.0160281
653.380	0.0158657
653.458	0.0160707
653.536	0.0160329
653.614	0.0159399
653.692	0.0158584
653.771	0.0159823
653.849	0.0159407
653.927	0.0160053
654.005	0.0159240
654.083	0.0159490
654.161	0.0158156
654.239	0.0159158
654.317	0.0160480
654.396	0.0159392
654.474	0.0160083
654.552	0.0160406
654.630	0.0159961
654.708	0.0160258
654.786	0.0158669
654.864	0.0160665
654.942	0.0160443
655.021	0.0159145
655.099	0.0158678
655.177	0.0160059
655.255	0.0160597
655.333	0.0161034
655.411	0.0160504
655.489	0.0159167
655.567	0.0160030
655.646	0.0160726
655.724	0.0159244
655.802	0.0160415
655.880	0.0160123
655.958	0.0160073
656.036	0.0159623
656.114	0.0161576
656.192	0.0159673
656.271	0.0160445
656.349	0.0158929
656.427	0.0158761
656.505	0.0160556
656.583	0.0159922
656.661	0.0160035
656.739	0.0160634
656.817	0.0159428
656.896	0.0160000
656.974	0.0160078
657.052	0.0161134
657.130	0.0159657
657.208	0.0159415
657.286	0.0160059
657.364	0.0157985
657.442	0.0159950
657.521	0.0159045
657.599	0.0159456
657.677	0.0159659
657.755	0.0159331
657.833	0.0161422
657.911	0.0159092
657.989	0.0160165
658.067	0.0160683
658.146	0.0160262
658.224	0.0159364
658.302	0.0158746
658.380	0.0160130
658.458	0.0159705
658.536	0.0159673
658.614	0.0160224
658.692	0.0160132
658.771	0.0158537
658.849	0.0160524
658.927	0.0160278
659.005	0.0159457
659.083	0.0158324
659.161	0.0159402
659.239	0.0159220
659.317	0.0160452
659.396	0.0160903
659.474	0.0159461
659.552	0.0159303
659.630	0.0159194
659.708	0.0159896
659.786	0.0159937
659.864	0.0160093
659.942	0.0156850
660.021	0.0158430
660.099	0.0159637
660.177	0.0160201
660.255	0.0160099
660.333	0.0160151
660.411	0.0158100
660.489	0.0159606
660.567	0.0161118
660.646	0.0159519
660.724	0.0160284
660.802	0.0160489
660.880	0.0160410
660.958	0.0160652
661.036	0.0158829
661.114	0.0159146
661.192	0.0159696
661.271	0.0160487
661.349	0.0160345
661.427	0.0160536
661.505	0.0159288
661.583	0.0160686
661.661	0.0160545
661.739	0.0160004
661.817	0.0159690
661.896	0.0158572
661.974	0.0160871
662.052	0.0160286
662.130	0.0158133
662.208	0.0160389
662.286	0.0160153
662.364	0.0159702
662.442	0.0160298
662.521	0.0159424
662.599	0.0160191
662.677	0.0160046
662.755	0.0160334
662.833	0.0159763
662.911	0.0160069
662.989	0.0158199
663.067	0.0159707
663.146	0.0157980
663.224	0.0160683
663.302	0.0160349
663.380	0.0159406
663.458	0.0159335
663.536	0.0159000
663.614	0.0159818
663.692	0.0159899
663.771	0.0161337
663.849	0.0160688
663.927	0.0159976
664.005	0.0160851
664.083	0.0160473
664.161	0.0159383
664.239	0.0159242
664.317	0.0159244
664.396	0.0159998
664.474	0.0160332
664.552	0.0159507
664.630	0.0159685
664.708	0.0159312
664.786	0.0159856
664.864	0.0159232
664.942	0.0160849
665.021	0.0159093
665.099	0.0161058
665.177	0.0160647
665.255	0.0161424
665.333	0.0159943
665.411	0.0159953
665.489	0.0160163
665.567	0.0161165
665.646	0.0158321
665.724	0.0157969
665.802	0.0160661
665.880	0.0160431
665.958	0.0160806
666.036	0.0159309
666.114	0.0159282
666.192	0.0160995
666.271	0.0160970
666.349	0.0160372
666.427	0.0160773
666.505	0.0160404
666.583	0.0160248
666.661	0.0158595
666.739	0.0159821
666.817	0.0160498
666.896	0.0159252
666.974	0.0159841
667.052	0.0160367
667.130	0.0161050
667.208	0.0159656
667.286	0.0159557
667.364	0.0160521
667.442	0.0160202
667.521	0.0159565
667.599	0.0159407
667.677	0.0159849
667.755	0.0160485
667.833	0.0159503
667.911	0.0159534
667.989	0.0160987
668.067	0.0157679
668.146	0.0160752
668.224	0.0160611
668.302	0.0161485
668.380	0.0160902
668.458	0.0159984
668.536	0.0160117
668.614	0.0159963
668.692	0.0159520
668.771	0.0159637
668.849	0.0160523
668.927	0.0159954
669.005	0.0160385
669.083	0.0160004
669.161	0.0161076
669.239	0.0159963
669.317	0.0160125
669.396	0.0161374
669.474	0.0159263
669.552	0.0158551
669.630	0.0159438
669.708	0.0159601
669.786	0.0158810
669.864	0.0160188
669.942	0.0159435
670.021	0.0159926
670.099	0.0160493
670.177	0.0160855
670.255	0.0161524
670.333	0.0159464
670.411	0.0159129
670.489	0.0160743
670.567	0.0160639
670.646	0.0159317
670.724	0.0159400
670.802	0.0160459
670.880	0.0158337
670.958	0.0160502
671.036	0.0159354
671.114	0.0158409
671.192	0.0159328
671.271	0.0158834
671.349	0.0160229
671.427	0.0159573
671.505	0.0160662
671.583	0.0159827
671.661	0.0159830
671.739	0.0160556
671.817	0.0161253
671.896	0.0160165
671.974	0.0159291
672.052	0.0159643
672.130	0.0160745
672.208	0.0159186
672.286	0.0161080
672.364	0.0160958
672.442	0.0160217
672.521	0.0159339
672.599	0.0159216
672.677	0.0159609
672.755	0.0160988
672.833	0.0159920
672.911	0.0160273
672.989	0.0160680
673.067	0.0159654
673.146	0.0159514
673.224	0.0159247
673.302	0.0160007
673.380	0.0160945
673.458	0.0159375
673.536	0.0159938
673.614	0.0159118
673.692	0.0159718
673.771	0.0159886
673.849	0.0159602
673.927	0.0160072
674.005	0.0158182
674.083	0.0160168
674.161	0.0159261
674.239	0.0159499
674.317	0.0159415
674.396	0.0159394
674.474	0.0158899
674.552	0.0159797
674.630	0.0158222
674.708	0.0159523
674.786	0.0159909
674.864	0.0160307
674.942	0.0159779
675.021	0.0160131
675.099	0.0160078
675.177	0.0159954
675.255	0.0160947
675.333	0.0160468
675.411	0.0159706
675.489	0.0159534
675.567	0.0160408
675.646	0.0158826
675.724	0.0158906
675.802	0.0160226
675.880	0.0159900
675.958	0.0158403
676.036	0.0160142
676.114	0.0160039
676.192	0.0160052
676.271	0.0160186
676.349	0.0159478
676.427	0.0160036
676.505	0.0158746
676.583	0.0158927
676.661	0.0160583
676.739	0.0158813
676.817	0.0158904
676.896	0.0158889
676.974	0.0158908
677.052	0.0159498
677.130	0.0158589
677.208	0.0159409
677.286	0.0160114
677.364	0.0160715
677.442	0.0160104
677.521	0.0158633
677.599	0.0159229
677.677	0.0158707
677.755	0.0159244
677.833	0.0158231
677.911	0.0158945
677.989	0.0161363
678.067	0.0159496
678.146	0.0159385
678.224	0.0159918
678.302	0.0160082
678.380	0.0160445
678.458	0.0158305
678.536	0.0158284
678.614	0.0159417
678.692	0.0159648
678.771	0.0159048
678.849	0.0159389
678.927	0.0159128
679.005	0.0158335
679.083	0.0160113
679.161	0.0159196
679.239	0.0159483
679.317	0.0158906
679.396	0.0159351
679.474	0.0160379
679.552	0.0159709
679.630	0.0159251
679.708	0.0159239
679.786	0.0159524
679.864	0.0159960
679.942	0.0160284
680.021	0.0160132
680.099	0.0161094
680.177	0.0160821
680.255	0.0160755
680.333	0.0160526
680.411	0.0160981
680.489	0.0159519
680.567	0.0159875
680.646	0.0160285
680.724	0.0158577
680.802	0.0158705
680.880	0.0159364
680.958	0.0158778
681.036	0.0156813
681.114	0.0157845
681.192	0.0159378
681.271	0.0160501
681.349	0.0160851
681.427	0.0160847
681.505	0.0161457
681.583	0.0162195
681.661	0.0161458
681.739	0.0163113
681.817	0.0163499
681.896	0.0162789
681.974	0.0160638
682.052	0.0160344
682.130	0.0159187
682.208	0.0158732
682.286	0.0158728
682.364	0.0156902
682.442	0.0155952
682.521	0.0155481
682.599	0.0157038
682.677	0.0155443
682.755	0.0158407
682.833	0.0159200
682.911	0.0160838
682.989	0.0162741
683.067	0.0164482
683.146	0.0166525
683.224	0.0167659
683.302	0.0168285
683.380	0.0164758
683.458	0.0163619
683.536	0.0162720
683.614	0.0158890
683.692	0.0157310
683.771	0.0154750
683.849	0.0154691
683.927	0.0152924
684.005	0.0151534
684.083	0.0152032
684.161	0.0153163
684.239	0.0155513
684.317	0.0157071
684.396	0.0159415
684.474	0.0163597
684.552	0.0165926
684.630	0.0168540
684.708	0.0167809
684.786	0.0167085
684.864	0.0167862
684.942	0.0165105
685.021	0.0163282
685.099	0.0160170
685.177	0.0156904
685.255	0.0153499
685.333	0.0153410
685.411	0.0152718
685.489	0.0151245
685.567	0.0151862
685.646	0.0153111
685.724	0.0154516
685.802	0.0157549
685.880	0.0158326
685.958	0.0160979
686.036	0.0161758
686.114	0.0164942
686.192	0.0165122
686.271	0.0166728
686.349	0.0165785
686.427	0.0166149
686.505	0.0165764
686.583	0.0163857
686.661	0.0162208
686.739	0.0161482
686.817	0.0160087
686.896	0.0156261
686.974	0.0154620
687.052	0.0153950
687.130	0.0154517
687.208	0.0154462
687.286	0.0155234
687.364	0.0155952
687.442	0.0157587
687.521	0.0160303
687.599	0.0162411
687.677	0.0163396
687.755	0.0164497
687.833	0.0164265
687.911	0.0165836
687.989	0.0166652
688.067	0.0165276
688.146	0.0162300
688.224	0.0162432
688.302	0.0160647
688.380	0.0158675
688.458	0.0157708
688.536	0.0158591
688.614	0.0156727
688.692	0.0157704
688.771	0.0157253
688.849	0.0158369
688.927	0.0160603
689.005	0.0160545
689.083	0.0158907
689.161	0.0159898
689.239	0.0160043
689.317	0.0160060
689.396	0.0159624
689.474	0.0159901
689.552	0.0159550
689.630	0.0159925
689.708	0.0158529
689.786	0.0160116
689.864	0.0160167
689.942	0.0160818
690.021	0.0162287
690.099	0.0161404
690.177	0.0162127
690.255	0.0163232
690.333	0.0162273
690.411	0.0160960
690.489	0.0159023
690.567	0.0158630
690.646	0.0157706
690.724	0.0156943
690.802	0.0156914
690.880	0.0155667
690.958	0.0155493
691.036	0.0157600
691.114	0.0158001
691.192	0.0158457
691.271	0.0160270
691.349	0.0162428
691.427	0.0162720
691.505	0.0163036
691.583	0.0164653
691.661	0.0165033
691.739	0.0164155
691.817	0.0163627
691.896	0.0163272
691.974	0.0161016
692.052	0.0159743
692.130	0.0157985
692.208	0.0156183
692.286	0.0156105
692.364	0.0154877
692.442	0.0154017
692.521	0.0156239
692.599	0.0157231
692.677	0.0157196
692.755	0.0158009
692.833	0.0160754
692.911	0.0161156
692.989	0.0161191
693.067	0.0161257
693.146	0.0161467
693.224	0.0161092
693.302	0.0160389
693.380	0.0158983
693.458	0.0158656
693.536	0.0158903
693.614	0.0157269
693.692	0.0157660
693.771	0.0157050
693.849	0.0157759
693.927	0.0156724
694.005	0.0157530
694.083	0.0159543
694.161	0.0160623
694.239	0.0161305
694.317	0.0163061
694.396	0.0160651
694.474	0.0162293
694.552	0.0162296
694.630	0.0162379
694.708	0.0162708
694.786	0.0161009
694.864	0.0162128
694.942	0.0162473
695.021	0.0159941
695.099	0.0160519
695.177	0.0160098
695.255	0.0160593
695.333	0.0161092
695.411	0.0161091
695.489	0.0160936
695.567	0.0160042
695.646	0.0159704
695.724	0.0160314
695.802	0.0159249
695.880	0.0160363
695.958	0.0159756
696.036	0.0157970
696.114	0.0157488
696.192	0.0157282
696.271	0.0156785
696.349	0.0157349
696.427	0.0156969
696.505	0.0158121
696.583	0.0158199
696.661	0.0157356
696.739	0.0159102
696.817	0.0158834
696.896	0.0158923
696.974	0.0159238
697.052	0.0160370
697.130	0.0160386
697.208	0.0160018
697.286	0.0158687
697.364	0.0158813
697.442	0.0158951
697.521	0.0157497
697.599	0.0159119
697.677	0.0159869
697.755	0.0158558
697.833	0.0157458
697.911	0.0159732
697.989	0.0160358
698.067	0.0162038
698.146	0.0163148
698.224	0.0163628
698.302	0.0164506
698.380	0.0165434
698.458	0.0164517
698.536	0.0163346
698.614	0.0162946
698.692	0.0162637
698.771	0.0164243
698.849	0.0161385
698.927	0.0159406
699.005	0.0159325
699.083	0.0159945
699.161	0.0159481
699.239	0.0158572
699.317	0.0158747
699.396	0.0159630
699.474	0.0160529
699.552	0.0160355
699.630	0.0162121
699.708	0.0163300
699.786	0.0163586
699.864	0.0162157
699.942	0.0163617
700.021	0.0164230
700.099	0.0162915
700.177	0.0162394
700.255	0.0161003
700.333	0.0158632
700.411	0.0158201
700.489	0.0156261
700.567	0.0156199
700.646	0.0156519
700.724	0.0154865
700.802	0.0154374
700.880	0.0155025
700.958	0.0155065
701.036	0.0155241
701.114	0.0154751
701.192	0.0154628
701.271	0.0152859
701.349	0.0153879
701.427	0.0152798
701.505	0.0152453
701.583	0.0153394
701.661	0.0154654
701.739	0.0153877
701.817	0.0154702
701.896	0.0155503
701.974	0.0155443
702.052	0.0156017
702.130	0.0158798
702.208	0.0158495
702.286	0.0162061
702.364	0.0163023
702.442	0.0164497
702.521	0.0164977
702.599	0.0167579
702.677	0.0168150
702.755	0.0168942
702.833	0.0170288
702.911	0.0167734
702.989	0.0169300
703.067	0.0170280
703.146	0.0170577
703.224	0.0168732
703.302	0.0167332
703.380	0.0166820
703.458	0.0166847
703.536	0.0166545
703.614	0.0164621
703.692	0.0164199
703.771	0.0164097
703.849	0.0162273
703.927	0.0162981
704.005	0.0160480
704.083	0.0160143
704.161	0.0157927
704.239	0.0157133
704.317	0.0156326
704.396	0.0155915
704.474	0.0154755
704.552	0.0153748
704.630	0.0151883
704.708	0.0153731
704.786	0.0152113
704.864	0.0151698
704.942	0.0151434
705.021	0.0150682
705.099	0.0153270
705.177	0.0154072
705.255	0.0153963
705.333	0.0155029
705.411	0.0157137
705.489	0.0159477
705.567	0.0161386
705.646	0.0164214
705.724	0.0166203
705.802	0.0166363
705.880	0.0168402
705.958	0.0169583
706.036	0.0170516
706.114	0.0170589
706.192	0.0170005
706.271	0.0166825
706.349	0.0163780
706.427	0.0160763
706.505	0.0156990
706.583	0.0152479
706.661	0.0149387
706.739	0.0144554
706.817	0.0140939
706.896	0.0139331
706.974	0.0137492
707.052	0.0134933
707.130	0.0136191
707.208	0.0136039
707.286	0.0136839
707.364	0.0140456
707.442	0.0143645
707.521	0.0144219
707.599	0.0149310
707.677	0.0153190
707.755	0.0156779
707.833	0.0161060
707.911	0.0165075
707.989	0.0170365
708.067	0.0173721
708.146	0.0178377
708.224	0.0181834
708.302	0.0184441
708.380	0.0186843
708.458	0.0187339
708.536	0.0188168
708.614	0.0188447
708.692	0.0188812
708.771	0.0186684
708.849	0.0184977
708.927	0.0184293
709.005	0.0181464
709.083	0.0181154
709.161	0.0179193
709.239	0.0177876
709.317	0.0174956
709.396	0.0173104
709.474	0.0171233
709.552	0.0167325
709.630	0.0165695
709.708	0.0162817
709.786	0.0158481
709.864	0.0155069
709.942	0.0151490
710.021	0.0148720
710.099	0.0145491
710.177	0.0143353
710.255	0.0140681
710.333	0.0139663
710.411	0.0137270
710.489	0.0137452
710.567	0.0135413
710.646	0.0136577
710.724	0.0134167
710.802	0.0133148
710.880	0.0134258
710.958	0.0133515
711.036	0.0133896
711.114	0.0135128
711.192	0.0136321
711.271	0.0139719
711.349	0.0143829
711.427	0.0146803
711.505	0.0151579
711.583	0.0155392
711.661	0.0160045
711.739	0.0163924
711.817	0.0167891
711.896	0.0168725
711.974	0.0169125
712.052	0.0170964
712.130	0.0169874
712.208	0.0168855
712.286	0.0165386
712.364	0.0162586
712.442	0.0158582
712.521	0.0154655
712.599	0.0150935
712.677	0.0146683
712.755	0.0143822
712.833	0.0143360
712.911	0.0139919
712.989	0.0139707
713.067	0.0141211
713.146	0.0142438
713.224	0.0146335
713.302	0.0149821
713.380	0.0154058
713.458	0.0160123
713.536	0.0167100
713.614	0.0173617
713.692	0.0181342
713.771	0.0187637
713.849	0.0192838
713.927	0.0197198
714.005	0.0201425
714.083	0.0205438
714.161	0.0207750
714.239	0.0207849
714.317	0.0208488
714.396	0.0206473
714.474	0.0204029
714.552	0.0201371
714.630	0.0199498
714.708	0.0195274
714.786	0.0191148
714.864	0.0186852
714.942	0.0182970
715.021	0.0177701
715.099	0.0171371
715.177	0.0165674
715.255	0.0161523
715.333	0.0155029
715.411	0.0147691
715.489	0.0141858
715.567	0.0134971
715.646	0.0129086
715.724	0.0125367
715.802	0.0123811
715.880	0.0118980
715.958	0.0115218
716.036	0.0113086
716.114	0.0111389
716.192	0.0112194
716.271	0.0112474
716.349	0.0113243
716.427	0.0115257
716.505	0.0117669
716.583	0.0121525
716.661	0.0125961
716.739	0.0130197
716.817	0.0135632
716.896	0.0141148
716.974	0.0149311
717.052	0.0157197
717.130	0.0163008
717.208	0.0169596
717.286	0.0177365
717.364	0.0181869
717.442	0.0184128
717.521	0.0187009
717.599	0.0188281
717.677	0.0187167
717.755	0.0184198
717.833	0.0180779
717.911	0.0172767
717.989	0.0164629
718.067	0.0155276
718.146	0.0145478
718.224	0.0135606
718.302	0.0127928
718.380	0.0120107
718.458	0.0115502
718.536	0.0113371
718.614	0.0112014
718.692	0.0111777
718.771	0.0118340
718.849	0.0123898
718.927	0.0133178
719.005	0.0142990
719.083	0.0153772
719.161	0.0165874
719.239	0.0180630
719.317	0.0190816
719.396	0.0201907
719.474	0.0210497
719.552	0.0218211
719.630	0.0225715
719.708	0.0231842
719.786	0.0235542
719.864	0.0236170
719.942	0.0236700
720.021	0.0238696
720.099	0.0236230
720.177	0.0235581
720.255	0.0230666
720.333	0.0229157
720.411	0.0223236
720.489	0.0216704
720.567	0.0209503
720.646	0.0201842
720.724	0.0194744
720.802	0.0184798
720.880	0.0176237
720.958	0.0168403
721.036	0.0160841
721.114	0.0151893
721.192	0.0144476
721.271	0.0137557
721.349	0.0129919
721.427	0.0124010
721.505	0.0114903
721.583	0.0112183
721.661	0.0104997
721.739	0.0100724
721.817	0.00982498
721.896	0.00945457
721.974	0.00925362
722.052	0.00931808
722.130	0.00942375
722.208	0.00962486
722.286	0.0100763
722.364	0.0106168
722.442	0.0111528
722.521	0.0118200
722.599	0.0123747
722.677	0.0126865
722.755	0.0131290
722.833	0.0133583
722.911	0.0130902
722.989	0.0129652
723.067	0.0126363
723.146	0.0120467
723.224	0.0113414
723.302	0.0106335
723.380	0.00988289
723.458	0.00938423
723.536	0.00923744
723.614	0.00925346
723.692	0.00931938
723.771	0.00986458
723.849	0.0108382
723.927	0.0120319
724.005	0.0136494
724.083	0.0152038
724.161	0.0169787
724.239	0.0188912
724.317	0.0209198
724.396	0.0226735
724.474	0.0242346
724.552	0.0256807
724.630	0.0270217
724.708	0.0281875
724.786	0.0287990
724.864	0.0290807
724.942	0.0293708
725.021	0.0291613
725.099	0.0288884
725.177	0.0284936
725.255	0.0277299
725.333	0.0268847
725.411	0.0258524
725.489	0.0248656
725.567	0.0235134
725.646	0.0222512
725.724	0.0209893
725.802	0.0197832
725.880	0.0185777
725.958	0.0173600
726.036	0.0162697
726.114	0.0150373
726.192	0.0140272
726.271	0.0132377
726.349	0.0125819
726.427	0.0118158
726.505	0.0111884
726.583	0.0105918
726.661	0.0101482
726.739	0.00964241
726.817	0.00924355
726.896	0.00909431
726.974	0.00905731
727.052	0.00902878
727.130	0.00889168
727.208	0.00922867
727.286	0.00925430
727.364	0.00963417
727.442	0.00984428
727.521	0.0103144
727.599	0.0106301
727.677	0.0107680
727.755	0.0108416
727.833	0.0111204
727.911	0.0110886
727.989	0.0111186
728.067	0.0109626
728.146	0.0106113
728.224	0.0102151
728.302	0.0100649
728.380	0.00984772
728.458	0.00961349
728.536	0.00948715
728.614	0.00980789
728.692	0.0102436
728.771	0.0108799
728.849	0.0117348
728.927	0.0127673
729.005	0.0139747
729.083	0.0155047
729.161	0.0169745
729.239	0.0185142
729.317	0.0200632
729.396	0.0214998
729.474	0.0229026
729.552	0.0240924
729.630	0.0249438
729.708	0.0256321
729.786	0.0263544
729.864	0.0266909
729.942	0.0267150
730.021	0.0268077
730.099	0.0265052
730.177	0.0260734
730.255	0.0254778
730.333	0.0249067
730.411	0.0240251
730.489	0.0231962
730.567	0.0223032
730.646	0.0213503
730.724	0.0204343
730.802	0.0194442
730.880	0.0184764
730.958	0.0176344
731.036	0.0166401
731.114	0.0158982
731.192	0.0149969
731.271	0.0142207
731.349	0.0138454
731.427	0.0133790
731.505	0.0130222
731.583	0.0128671
731.661	0.0125377
731.739	0.0124862
731.817	0.0125507
731.896	0.0124538
731.974	0.0124235
732.052	0.0124138
732.130	0.0125481
732.208	0.0126898
732.286	0.0125013
732.364	0.0126734
732.442	0.0126268
732.521	0.0125790
732.599	0.0124052
732.677	0.0123230
732.755	0.0123988
732.833	0.0124266
732.911	0.0121810
732.989	0.0119564
733.067	0.0116695
733.146	0.0114510
733.224	0.0112239
733.302	0.0110790
733.380	0.0108684
733.458	0.0106312
733.536	0.0107011
733.614	0.0110293
733.692	0.0112810
733.771	0.0118151
733.849	0.0124280
733.927	0.0130794
734.005	0.0140533
734.083	0.0149382
734.161	0.0161902
734.239	0.0170405
734.317	0.0182365
734.396	0.0192504
734.474	0.0202305
734.552	0.0208541
734.630	0.0215233
734.708	0.0221085
734.786	0.0224538
734.864	0.0226023
734.942	0.0227682
735.021	0.0228571
735.099	0.0226694
735.177	0.0223683
735.255	0.0220426
735.333	0.0217459
735.411	0.0211876
735.489	0.0208147
735.567	0.0202164
735.646	0.0195105
735.724	0.0187265
735.802	0.0181213
735.880	0.0174175
735.958	0.0167445
736.036	0.0160250
736.114	0.0155090
736.192	0.0149932
736.271	0.0144841
736.349	0.0140878
736.427	0.0138118
736.505	0.0135684
736.583	0.0134318
736.661	0.0133336
736.739	0.0135135
736.817	0.0137114
736.896	0.0136535
736.974	0.0138947
737.052	0.0140514
737.130	0.0141672
737.208	0.0141653
737.286	0.0143626
737.364	0.0143810
737.442	0.0145703
737.521	0.0144764
737.599	0.0145544
737.677	0.0145146
737.755	0.0145623
737.833	0.0147771
737.911	0.0147012
737.989	0.0144632
738.067	0.0144597
738.146	0.0143092
738.224	0.0141529
738.302	0.0139989
738.380	0.0137642
738.458	0.0134523
738.536	0.0134663
738.614	0.0132217
738.692	0.0130858
738.771	0.0131173
738.849	0.0131336
738.927	0.0132884
739.005	0.0134770
739.083	0.0140697
739.161	0.0144970
739.239	0.0150360
739.317	0.0157353
739.396	0.0164341
739.474	0.0171755
739.552	0.0179035
739.630	0.0184836
739.708	0.0190143
739.786	0.0195197
739.864	0.0197767
739.942	0.0203170
740.021	0.0205253
740.099	0.0209229
740.177	0.0209448
740.255	0.0210882
740.333	0.0211069
740.411	0.0209740
740.489	0.0208402
740.567	0.0204862
740.646	0.0200829
740.724	0.0196484
740.802	0.0191576
740.880	0.0186226
740.958	0.0181430
741.036	0.0177301
741.114	0.0171239
741.192	0.0166616
741.271	0.0161030
741.349	0.0157740
741.427	0.0151727
741.505	0.0147694
741.583	0.0146143
741.661	0.0142043
741.739	0.0137554
741.817	0.0135352
741.896	0.0134868
741.974	0.0131039
742.052	0.0128978
742.130	0.0128718
742.208	0.0128400
742.286	0.0126367
742.364	0.0125476
742.442	0.0126940
742.521	0.0125352
742.599	0.0126907
742.677	0.0128995
742.755	0.0130389
742.833	0.0132043
742.911	0.0134735
742.989	0.0136755
743.067	0.0138729
743.146	0.0143362
743.224	0.0145215
743.302	0.0146497
743.380	0.0148880
743.458	0.0150437
743.536	0.0153109
743.614	0.0155015
743.692	0.0155240
743.771	0.0156977
743.849	0.0159444
743.927	0.0161932
744.005	0.0163350
744.083	0.0164352
744.161	0.0168401
744.239	0.0170672
744.317	0.0173137
744.396	0.0176002
744.474	0.0178870
744.552	0.0180867
744.630	0.0183915
744.708	0.0185303
744.786	0.0186146
744.864	0.0187883
744.942	0.0187471
745.021	0.0186758
745.099	0.0185532
745.177	0.0185458
745.255	0.0183475
745.333	0.0181715
745.411	0.0179212
745.489	0.0178265
745.567	0.0176695
745.646	0.0173872
745.724	0.0170192
745.802	0.0169733
745.880	0.0167136
745.958	0.0165533
746.036	0.0164271
746.114	0.0162995
746.192	0.0160735
746.271	0.0161306
746.349	0.0158478
746.427	0.0159445
746.505	0.0156129
746.583	0.0156015
746.661	0.0154632
746.739	0.0152856
746.817	0.0150541
746.896	0.0149513
746.974	0.0148368
747.052	0.0147923
747.130	0.0147041
747.208	0.0144878
747.286	0.0144260
747.364	0.0143624
747.442	0.0143701
747.521	0.0143536
747.599	0.0143446
747.677	0.0144926
747.755	0.0145950
747.833	0.0147945
747.911	0.0147969
747.989	0.0148880
748.067	0.0149976
748.146	0.0150580
748.224	0.0154230
748.302	0.0155457
748.380	0.0156673
748.458	0.0157704
748.536	0.0159015
748.614	0.0161776
748.692	0.0162548
748.771	0.0163300
748.849	0.0166224
748.927	0.0164687
749.005	0.0168022
749.083	0.0167671
749.161	0.0167960
749.239	0.0166429
749.317	0.0165996
749.396	0.0164488
749.474	0.0161122
749.552	0.0161271
749.630	0.0160933
749.708	0.0159941
749.786	0.0158849
749.864	0.0157959
749.942	0.0156351
750.021	0.0157973
750.099	0.0157421
750.177	0.0156981
750.255	0.0156972
750.333	0.0157189
750.411	0.0157650
750.489	0.0158024
750.567	0.0157030
750.646	0.0155868
750.724	0.0156096
750.802	0.0155969
750.880	0.0156742
750.958	0.0154454
751.036	0.0156019
751.114	0.0155399
751.192	0.0157140
751.271	0.0156576
751.349	0.0157896
751.427	0.0158189
751.505	0.0159927
751.583	0.0161827
751.661	0.0163481
751.739	0.0165543
751.817	0.0165450
751.896	0.0168491
751.974	0.0168514
752.052	0.0169117
752.130	0.0170155
752.208	0.0169958
752.286	0.0170554
752.364	0.0169692
752.442	0.0168879
752.521	0.0169645
752.599	0.0168306
752.677	0.0168116
752.755	0.0166812
752.833	0.0164555
752.911	0.0161546
752.989	0.0159558
753.067	0.0157942
753.146	0.0154597
753.224	0.0152313
753.302	0.0151476
753.380	0.0152892
753.458	0.0150407
753.536	0.0149220
753.614	0.0153179
753.692	0.0154352
753.771	0.0153810
753.849	0.0154994
753.927	0.0158078
754.005	0.0160265
754.083	0.0161559
754.161	0.0161936
754.239	0.0162662
754.317	0.0163528
754.396	0.0162594
754.474	0.0162054
754.552	0.0160864
754.630	0.0160052
754.708	0.0160465
754.786	0.0158871
754.864	0.0158015
754.942	0.0158246
755.021	0.0155826
755.099	0.0155573
755.177	0.0156073
755.255	0.0156601
755.333	0.0156143
755.411	0.0154509
755.489	0.0155611
755.567	0.0155950
755.646	0.0157388
755.724	0.0157006
755.802	0.0158078
755.880	0.0158706
755.958	0.0157640
756.036	0.0159569
756.114	0.0158338
756.192	0.0159027
756.271	0.0158835
756.349	0.0159654
756.427	0.0159721
756.505	0.0160618
756.583	0.0159013
756.661	0.0157470
756.739	0.0160379
756.817	0.0160940
756.896	0.0161343
756.974	0.0161994
757.052	0.0163051
757.130	0.0163286
757.208	0.0164211
757.286	0.0165150
757.364	0.0163878
757.442	0.0164584
757.521	0.0165268
757.599	0.0165254
757.677	0.0164612
757.755	0.0162964
757.833	0.0161862
757.911	0.0161930
757.989	0.0157817
758.067	0.0156947
758.146	0.0157483
758.224	0.0153294
758.302	0.0151503
758.380	0.0150820
758.458	0.0150611
758.536	0.0150698
758.614	0.0149718
758.692	0.0150188
758.771	0.0151540
758.849	0.0152696
758.927	0.0155509
759.005	0.0157146
759.083	0.0158319
759.161	0.0159613
759.239	0.0162858
759.317	0.0162766
759.396	0.0164948
759.474	0.0165736
759.552	0.0166171
759.630	0.0166705
759.708	0.0167284
759.786	0.0165158
759.864	0.0166129
759.942	0.0165127
760.021	0.0165611
760.099	0.0165741
760.177	0.0166175
760.255	0.0164616
760.333	0.0164367
760.411	0.0163418
760.489	0.0162289
760.567	0.0160774
760.646	0.0162080
760.724	0.0161524
760.802	0.0161138
760.880	0.0160696
760.958	0.0160653
761.036	0.0160061
761.114	0.0161667
761.192	0.0161790
761.271	0.0162402
761.349	0.0163532
761.427	0.0164179
761.505	0.0162859
761.583	0.0161545
761.661	0.0163266
761.739	0.0162112
761.817	0.0162549
761.896	0.0161646
761.974	0.0161552
762.052	0.0160546
762.130	0.0158405
762.208	0.0159473
762.286	0.0159080
762.364	0.0157661
762.442	0.0157083
762.521	0.0157540
762.599	0.0155022
762.677	0.0155688
762.755	0.0156324
762.833	0.0155680
762.911	0.0153344
762.989	0.0155374
763.067	0.0155656
763.146	0.0154305
763.224	0.0153855
763.302	0.0153501
763.380	0.0153133
763.458	0.0153277
763.536	0.0153325
763.614	0.0154478
763.692	0.0156347
763.771	0.0154390
763.849	0.0155774
763.927	0.0158469
764.005	0.0160020
764.083	0.0160589
764.161	0.0161969
764.239	0.0163635
764.317	0.0163813
764.396	0.0165818
764.474	0.0167164
764.552	0.0166921
764.630	0.0168669
764.708	0.0170099
764.786	0.0170302
764.864	0.0170575
764.942	0.0168595
765.021	0.0169391
765.099	0.0169878
765.177	0.0167677
765.255	0.0164491
765.333	0.0164778
765.411	0.0163685
765.489	0.0161327
765.567	0.0159107
765.646	0.0156654
765.724	0.0155762
765.802	0.0154197
765.880	0.0153538
765.958	0.0151500
766.036	0.0150697
766.114	0.0150478
766.192	0.0149912
766.271	0.0151180
766.349	0.0151953
766.427	0.0154404
766.505	0.0155166
766.583	0.0156432
766.661	0.0156466
766.739	0.0157208
766.817	0.0159780
766.896	0.0159899
766.974	0.0159303
767.052	0.0161230
767.130	0.0162466
767.208	0.0161571
767.286	0.0161818
767.364	0.0162410
767.442	0.0162016
767.521	0.0161894
767.599	0.0161020
767.677	0.0161650
767.755	0.0161456
767.833	0.0162166
767.911	0.0163039
767.989	0.0163012
768.067	0.0163102
768.146	0.0160965
768.224	0.0162028
768.302	0.0161284
768.380	0.0160523
768.458	0.0159362
768.536	0.0158920
768.614	0.0158326
768.692	0.0157320
768.771	0.0157899
768.849	0.0156834
768.927	0.0155775
769.005	0.0156491
769.083	0.0156555
769.161	0.0156186
769.239	0.0155956
769.317	0.0157860
769.396	0.0158772
769.474	0.0159729
769.552	0.0161835
769.630	0.0162742
769.708	0.0163728
769.786	0.0165297
769.864	0.0167046
769.942	0.0168341
770.021	0.0168966
770.099	0.0168395
770.177	0.0170341
770.255	0.0169880
770.333	0.0169839
770.411	0.0168947
770.489	0.0167551
770.567	0.0168468
770.646	0.0164470
770.724	0.0163984
770.802	0.0163036
770.880	0.0162983
770.958	0.0161152
771.036	0.0159894
771.114	0.0158188
771.192	0.0156416
771.271	0.0156864
771.349	0.0155191
771.427	0.0153635
771.505	0.0153805
771.583	0.0152892
771.661	0.0152974
771.739	0.0152155
771.817	0.0152827
771.896	0.0152672
771.974	0.0152708
772.052	0.0151224
772.130	0.0153391
772.208	0.0154145
772.286	0.0154672
772.364	0.0154216
772.442	0.0153915
772.521	0.0154272
772.599	0.0153288
772.677	0.0153807
772.755	0.0155485
772.833	0.0155750
772.911	0.0155698
772.989	0.0155183
773.067	0.0157816
773.146	0.0158057
773.224	0.0158057
773.302	0.0157246
773.380	0.0158729
773.458	0.0159439
773.536	0.0158141
773.614	0.0159843
773.692	0.0160046
773.771	0.0160340
773.849	0.0159521
773.927	0.0161305
774.005	0.0160841
774.083	0.0162207
774.161	0.0162945
774.239	0.0162368
774.317	0.0162653
774.396	0.0163577
774.474	0.0163283
774.552	0.0162434
774.630	0.0162626
774.708	0.0161520
774.786	0.0163556
774.864	0.0163108
774.942	0.0161584
775.021	0.0161901
775.099	0.0161808
775.177	0.0162656
775.255	0.0161157
775.333	0.0160452
775.411	0.0163258
775.489	0.0161057
775.567	0.0161148
775.646	0.0162773
775.724	0.0163271
775.802	0.0162394
775.880	0.0160994
775.958	0.0160851
776.036	0.0162090
776.114	0.0161988
776.192	0.0161708
776.271	0.0161445
776.349	0.0161592
776.427	0.0161723
776.505	0.0162256
776.583	0.0161945
776.661	0.0160899
776.739	0.0161295
776.817	0.0162061
776.896	0.0161866
776.974	0.0164121
777.052	0.0162444
777.130	0.0162257
777.208	0.0163972
777.286	0.0162180
777.364	0.0162071
777.442	0.0161559
777.521	0.0161967
777.599	0.0161385
777.677	0.0161791
777.755	0.0160125
777.833	0.0159949
777.911	0.0157500
777.989	0.0156226
778.067	0.0155887
778.146	0.0153912
778.224	0.0153922
778.302	0.0154111
778.380	0.0152972
778.458	0.0152706
778.536	0.0152665
778.614	0.0152519
778.692	0.0153791
778.771	0.0153560
778.849	0.0154468
778.927	0.0153775
779.005	0.0155558
779.083	0.0155134
779.161	0.0157349
779.239	0.0159095
779.317	0.0157920
779.396	0.0158553
779.474	0.0159483
779.552	0.0159687
779.630	0.0158462
779.708	0.0159138
779.786	0.0160488
779.864	0.0159462
779.942	0.0160631
780.021	0.0159087
780.099	0.0159901
780.177	0.0160167
780.255	0.0160392
780.333	0.0158807
780.411	0.0159803
780.489	0.0160561
780.567	0.0160601
780.646	0.0159912
780.724	0.0160344
780.802	0.0160249
780.880	0.0160402
780.958	0.0160923
781.036	0.0161703
781.114	0.0162592
781.192	0.0161795
781.271	0.0162925
781.349	0.0162527
781.427	0.0162285
781.505	0.0165054
781.583	0.0163907
781.661	0.0163039
781.739	0.0164063
781.817	0.0165198
781.896	0.0164086
781.974	0.0164668
782.052	0.0165870
782.130	0.0164911
782.208	0.0164840
782.286	0.0163643
782.364	0.0163236
782.442	0.0163647
782.521	0.0161613
782.599	0.0161928
782.677	0.0161418
782.755	0.0160372
782.833	0.0161546
782.911	0.0158730
782.989	0.0159283
783.067	0.0158537
783.146	0.0156927
783.224	0.0156518
783.302	0.0155601
783.380	0.0156198
783.458	0.0156219
783.536	0.0156566
783.614	0.0155809
783.692	0.0155797
783.771	0.0156815
783.849	0.0156190
783.927	0.0156530
784.005	0.0159471
784.083	0.0159147
784.161	0.0157269
784.239	0.0159447
784.317	0.0160748
784.396	0.0162107
784.474	0.0162013
784.552	0.0163026
784.630	0.0162999
784.708	0.0165105
784.786	0.0164156
784.864	0.0164900
784.942	0.0164981
785.021	0.0163082
785.099	0.0163657
785.177	0.0165269
785.255	0.0162971
785.333	0.0163156
785.411	0.0161369
785.489	0.0160345
785.567	0.0161034
785.646	0.0158626
785.724	0.0158998
785.802	0.0157783
785.880	0.0155630
785.958	0.0155238
786.036	0.0154852
786.114	0.0154438
786.192	0.0153529
786.271	0.0152706
786.349	0.0152814
786.427	0.0152508
786.505	0.0152711
786.583	0.0152418
786.661	0.0153101
786.739	0.0155993
786.817	0.0155372
786.896	0.0156227
786.974	0.0156651
787.052	0.0158447
787.130	0.0160490
787.208	0.0160013
787.286	0.0161662
787.364	0.0164269
787.442	0.0164568
787.521	0.0165071
787.599	0.0165862
787.677	0.0166010
787.755	0.0167310
787.833	0.0167728
787.911	0.0166362
787.989	0.0166393
788.067	0.0166045
788.146	0.0165787
788.224	0.0164548
788.302	0.0164748
788.380	0.0164867
788.458	0.0164015
788.536	0.0162524
788.614	0.0161813
788.692	0.0160291
788.771	0.0160023
788.849	0.0159547
788.927	0.0158604
789.005	0.0158028
789.083	0.0156357
789.161	0.0156170
789.239	0.0156229
789.317	0.0155992
789.396	0.0156392
789.474	0.0155747
789.552	0.0157246
789.630	0.0157075
789.708	0.0159720
789.786	0.0159599
789.864	0.0159995
789.942	0.0159898
790.021	0.0160400
790.099	0.0162303
790.177	0.0161498
790.255	0.0161188
790.333	0.0160963
790.411	0.0161465
790.489	0.0162595
790.567	0.0161926
790.646	0.0161680
790.724	0.0161378
790.802	0.0161472
790.880	0.0161438
790.958	0.0160928
791.036	0.0158929
791.114	0.0160185
791.192	0.0159493
791.271	0.0158347
791.349	0.0159113
791.427	0.0158025
791.505	0.0156581
791.583	0.0155962
791.661	0.0155793
791.739	0.0154537
791.817	0.0155873
791.896	0.0154976
791.974	0.0154170
792.052	0.0154086
792.130	0.0153255
792.208	0.0155376
792.286	0.0155656
792.364	0.0157031
792.442	0.0158834
792.521	0.0157539
792.599	0.0160187
792.677	0.0161866
792.755	0.0162289
792.833	0.0162313
792.911	0.0162817
792.989	0.0163600
793.067	0.0165396
793.146	0.0165842
793.224	0.0166209
793.302	0.0165656
793.380	0.0165038
793.458	0.0166003
793.536	0.0166361
793.614	0.0164307
793.692	0.0165113
793.771	0.0164674
793.849	0.0164119
793.927	0.0163307
794.005	0.0161184
794.083	0.0160355
794.161	0.0159630
794.239	0.0159587
794.317	0.0159210
794.396	0.0156754
794.474	0.0156582
794.552	0.0155275
794.630	0.0155946
794.708	0.0154629
794.786	0.0154954
794.864	0.0154369
794.942	0.0154753
795.021	0.0154668
795.099	0.0155824
795.177	0.0155260
795.255	0.0156226
795.333	0.0158313
795.411	0.0158717
795.489	0.0158817
795.567	0.0158751
795.646	0.0161581
795.724	0.0161967
795.802	0.0161510
795.880	0.0161674
795.958	0.0161764
796.036	0.0161768
796.114	0.0160964
796.192	0.0160658
796.271	0.0160805
796.349	0.0160773
796.427	0.0160095
796.505	0.0160126
796.583	0.0160952
796.661	0.0160370
796.739	0.0160024
796.817	0.0158858
796.896	0.0159307
796.974	0.0158245
797.052	0.0158299
797.130	0.0158099
797.208	0.0157158
797.286	0.0156802
797.364	0.0156226
797.442	0.0156336
797.521	0.0157204
797.599	0.0158571
797.677	0.0157386
797.755	0.0157169
797.833	0.0158517
797.911	0.0159814
797.989	0.0160096
798.067	0.0159944
798.146	0.0161301
798.224	0.0162569
798.302	0.0162255
798.380	0.0162374
798.458	0.0163036
798.536	0.0161357
798.614	0.0163034
798.692	0.0162361
798.771	0.0162836
798.849	0.0163240
798.927	0.0162796
799.005	0.0161964
799.083	0.0161024
799.161	0.0161219
799.239	0.0161179
799.317	0.0158769
799.396	0.0158872
799.474	0.0158370
799.552	0.0157590
799.630	0.0157677
799.708	0.0154746
799.786	0.0156076
799.864	0.0156020
799.942	0.0155452
800.021	0.0155170
800.099	0.0156102
800.177	0.0154401
800.255	0.0155830
800.333	0.0156315
800.411	0.0156886
800.489	0.0159169
800.567	0.0161269
800.646	0.0159104
800.724	0.0161297
800.802	0.0161928
800.880	0.0162621
800.958	0.0163612
801.036	0.0163181
801.114	0.0162857
801.192	0.0164561
801.271	0.0164473
801.349	0.0164017
801.427	0.0164934
801.505	0.0164331
801.583	0.0161229
801.661	0.0161808
801.739	0.0160499
801.817	0.0160857
801.896	0.0160286
801.974	0.0159605
802.052	0.0157318
802.130	0.0159273
802.208	0.0156664
802.286	0.0155140
802.364	0.0155289
802.442	0.0155936
802.521	0.0154419
802.599	0.0153375
802.677	0.0155506
802.755	0.0155358
802.833	0.0153600
802.911	0.0153597
802.989	0.0154092
803.067	0.0155345
803.146	0.0154617
803.224	0.0156058
803.302	0.0158154
803.380	0.0158363
803.458	0.0158778
803.536	0.0158755
803.614	0.0159795
803.692	0.0160287
803.771	0.0162577
803.849	0.0162497
803.927	0.0163220
804.005	0.0164209
804.083	0.0164657
804.161	0.0164053
804.239	0.0164103
804.317	0.0163928
804.396	0.0163886
804.474	0.0163673
804.552	0.0164903
804.630	0.0162779
804.708	0.0162533
804.786	0.0162633
804.864	0.0161074
804.942	0.0160796
805.021	0.0162924
805.099	0.0160638
805.177	0.0159575
805.255	0.0159545
805.333	0.0161465
805.411	0.0160548
805.489	0.0160979
805.567	0.0160649
805.646	0.0162151
805.724	0.0162136
805.802	0.0161962
805.880	0.0162269
805.958	0.0162073
806.036	0.0162275
806.114	0.0162878
806.192	0.0164519
806.271	0.0162924
806.349	0.0163577
806.427	0.0162611
806.505	0.0162476
806.583	0.0161837
806.661	0.0160722
806.739	0.0161542
806.817	0.0160782
806.896	0.0159502
806.974	0.0158012
807.052	0.0156957
807.130	0.0156876
807.208	0.0156576
807.286	0.0156953
807.364	0.0153748
807.442	0.0154224
807.521	0.0153628
807.599	0.0154049
807.677	0.0152428
807.755	0.0151764
807.833	0.0151458
807.911	0.0152412
807.989	0.0152477
808.067	0.0152622
808.146	0.0152291
808.224	0.0152345
808.302	0.0151936
808.380	0.0154031
808.458	0.0156659
808.536	0.0157122
808.614	0.0155836
808.692	0.0157858
808.771	0.0159971
808.849	0.0159879
808.927	0.0159903
809.005	0.0160454
809.083	0.0163483
809.161	0.0163924
809.239	0.0164628
809.317	0.0164990
809.396	0.0166739
809.474	0.0168233
809.552	0.0168433
809.630	0.0169218
809.708	0.0169392
809.786	0.0170270
809.864	0.0170969
809.942	0.0169746
810.021	0.0170575
810.099	0.0171342
810.177	0.0169642
810.255	0.0169339
810.333	0.0168470
810.411	0.0167957
810.489	0.0166676
810.567	0.0167054
810.646	0.0166433
810.724	0.0164791
810.802	0.0163391
810.880	0.0162193
810.958	0.0161555
811.036	0.0161398
811.114	0.0159460
811.192	0.0158376
811.271	0.0157791
811.349	0.0155692
811.427	0.0157684
811.505	0.0153830
811.583	0.0155476
811.661	0.0155026
811.739	0.0154317
811.817	0.0155153
811.896	0.0155334
811.974	0.0154494
812.052	0.0154792
812.130	0.0155790
812.208	0.0155902
812.286	0.0156226
812.364	0.0156112
812.442	0.0156754
812.521	0.0156251
812.599	0.0156625
812.677	0.0158029
812.755	0.0158342
812.833	0.0156775
812.911	0.0156244
812.989	0.0154770
813.067	0.0154058
813.146	0.0155836
813.224	0.0156525
813.302	0.0156213
813.380	0.0155840
813.458	0.0153918
813.536	0.0156113
813.614	0.0155172
813.692	0.0155206
813.771	0.0156602
813.849	0.0157237
813.927	0.0157740
814.005	0.0158794
814.083	0.0158537
814.161	0.0160422
814.239	0.0161583
814.317	0.0161043
814.396	0.0161416
814.474	0.0162762
814.552	0.0162547
814.630	0.0163780
814.708	0.0164111
814.786	0.0164952
814.864	0.0164555
814.942	0.0165597
815.021	0.0164408
815.099	0.0164923
815.177	0.0166490
815.255	0.0165843
815.333	0.0165207
815.411	0.0163954
815.489	0.0164281
815.567	0.0164325
815.646	0.0163773
815.724	0.0164145
815.802	0.0163136
815.880	0.0164117
815.958	0.0162926
816.036	0.0163428
816.114	0.0162059
816.192	0.0161445
816.271	0.0162444
816.349	0.0163046
816.427	0.0161915
816.505	0.0160677
816.583	0.0161621
816.661	0.0159952
816.739	0.0159191
816.817	0.0160373
816.896	0.0161821
816.974	0.0160384
817.052	0.0159378
817.130	0.0160924
817.208	0.0160256
817.286	0.0160749
817.364	0.0161119
817.442	0.0161067
817.521	0.0161863
817.599	0.0162498
817.677	0.0162164
817.755	0.0161951
817.833	0.0163510
817.911	0.0162851
817.989	0.0163464
818.067	0.0161971
818.146	0.0160509
818.224	0.0159903
818.302	0.0158974
818.380	0.0157738
818.458	0.0156252
818.536	0.0155476
818.614	0.0155688
818.692	0.0153541
818.771	0.0153279
818.849	0.0151352
818.927	0.0150692
819.005	0.0150340
819.083	0.0147108
819.161	0.0147908
819.239	0.0147920
819.317	0.0146847
819.396	0.0148069
819.474	0.0147983
819.552	0.0147983
819.630	0.0146201
819.708	0.0147173
819.786	0.0149654
819.864	0.0149718
819.942	0.0151302
820.021	0.0150686
820.099	0.0154118
820.177	0.0157356
820.255	0.0158779
820.333	0.0160784
820.411	0.0161925
820.489	0.0163985
820.567	0.0165680
820.646	0.0167512
820.724	0.0168317
820.802	0.0170070
820.880	0.0170470
820.958	0.0171163
821.036	0.0172316
821.114	0.0171560
821.192	0.0172447
821.271	0.0172801
821.349	0.0173608
821.427	0.0172036
821.505	0.0172057
821.583	0.0171790
821.661	0.0171456
821.739	0.0172205
821.817	0.0170074
821.896	0.0170979
821.974	0.0170695
822.052	0.0168208
822.130	0.0170036
822.208	0.0169501
822.286	0.0167040
822.364	0.0166686
822.442	0.0166463
822.521	0.0165838
822.599	0.0165689
822.677	0.0164052
822.755	0.0163078
822.833	0.0161129
822.911	0.0161768
822.989	0.0160250
823.067	0.0159351
823.146	0.0157849
823.224	0.0157605
823.302	0.0155400
823.380	0.0155441
823.458	0.0154578
823.536	0.0152580
823.614	0.0151614
823.692	0.0151376
823.771	0.0149146
823.849	0.0147994
823.927	0.0146835
824.005	0.0145007
824.083	0.0145406
824.161	0.0144247
824.239	0.0143259
824.317	0.0143272
824.396	0.0141193
824.474	0.0141936
824.552	0.0141607
824.630	0.0142728
824.708	0.0142836
824.786	0.0143367
824.864	0.0145382
824.942	0.0146354
825.021	0.0148286
825.099	0.0149891
825.177	0.0152130
825.255	0.0154696
825.333	0.0155712
825.411	0.0158969
825.489	0.0160547
825.567	0.0163393
825.646	0.0165662
825.724	0.0167165
825.802	0.0169745
825.880	0.0170520
825.958	0.0171545
826.036	0.0172393
826.114	0.0172943
826.192	0.0175374
826.271	0.0176510
826.349	0.0175504
826.427	0.0175698
826.505	0.0175912
826.583	0.0176292
826.661	0.0175723
826.739	0.0176451
826.817	0.0175336
826.896	0.0174171
826.974	0.0174698
827.052	0.0173833
827.130	0.0171905
827.208	0.0170304
827.286	0.0169321
827.364	0.0167557
827.442	0.0166310
827.521	0.0164200
827.599	0.0164146
827.677	0.0162338
827.755	0.0160881
827.833	0.0160973
827.911	0.0159426
827.989	0.0158382
828.067	0.0157161
828.146	0.0155929
828.224	0.0155083
828.302	0.0154890
828.380	0.0153738
828.458	0.0154692
828.536	0.0153682
828.614	0.0153159
828.692	0.0151892
828.771	0.0151275
828.849	0.0150705
828.927	0.0150185
829.005	0.0149562
829.083	0.0148717
829.161	0.0148694
829.239	0.0148551
829.317	0.0148501
829.396	0.0148876
829.474	0.0146694
829.552	0.0148273
829.630	0.0147401
829.708	0.0148512
829.786	0.0147542
829.864	0.0149088
829.942	0.0151399
830.021	0.0151308
830.099	0.0152281
830.177	0.0155074
830.255	0.0154604
830.333	0.0156551
830.411	0.0158024
830.489	0.0159735
830.567	0.0160268
830.646	0.0162381
830.724	0.0163546
830.802	0.0163654
830.880	0.0164585
830.958	0.0167121
831.036	0.0167783
831.114	0.0167551
831.192	0.0167767
831.271	0.0168324
831.349	0.0168430
831.427	0.0168615
831.505	0.0169167
831.583	0.0169515
831.661	0.0169661
831.739	0.0169491
831.817	0.0168423
831.896	0.0168855
831.974	0.0168502
832.052	0.0169296
832.130	0.0168315
832.208	0.0167339
832.286	0.0167568
832.364	0.0165937
832.442	0.0165204
832.521	0.0163979
832.599	0.0164404
832.677	0.0163450
832.755	0.0160896
832.833	0.0160781
832.911	0.0161636
832.989	0.0160619
833.067	0.0158434
833.146	0.0157115
833.224	0.0156378
833.302	0.0157137
833.380	0.0156555
833.458	0.0154848
833.536	0.0154216
833.614	0.0153735
833.692	0.0154205
833.771	0.0154287
833.849	0.0153374
833.927	0.0153441
834.005	0.0153883
834.083	0.0153519
834.161	0.0152913
834.239	0.0153435
834.317	0.0153883
834.396	0.0155996
834.474	0.0154751
834.552	0.0155007
834.630	0.0156354
834.708	0.0156507
834.786	0.0157290
834.864	0.0158810
834.942	0.0157666
835.021	0.0158319
835.099	0.0158063
835.177	0.0158502
835.255	0.0158550
835.333	0.0158524
835.411	0.0156862
835.489	0.0157613
835.567	0.0159553
835.646	0.0157974
835.724	0.0158712
835.802	0.0160327
835.880	0.0158889
835.958	0.0159724
836.036	0.0161490
836.114	0.0161883
836.192	0.0161398
836.271	0.0163052
836.349	0.0162120
836.427	0.0163840
836.505	0.0164954
836.583	0.0163669
836.661	0.0163902
836.739	0.0164642
836.817	0.0164940
836.896	0.0166325
836.974	0.0165131
837.052	0.0164258
837.130	0.0164091
837.208	0.0164084
837.286	0.0164232
837.364	0.0163657
837.442	0.0162505
837.521	0.0162050
837.599	0.0161617
837.677	0.0162379
837.755	0.0162385
837.833	0.0162145
837.911	0.0159247
837.989	0.0158586
838.067	0.0158655
838.146	0.0158788
838.224	0.0159002
838.302	0.0158390
838.380	0.0157748
838.458	0.0156957
838.536	0.0156905
838.614	0.0155165
838.692	0.0155473
838.771	0.0156078
838.849	0.0156828
838.927	0.0154324
839.005	0.0153896
839.083	0.0154005
839.161	0.0155479
839.239	0.0155335
839.317	0.0153596
839.396	0.0154358
839.474	0.0155672
839.552	0.0156474
839.630	0.0156976
839.708	0.0155447
839.786	0.0157476
839.864	0.0157493
839.942	0.0158257
840.021	0.0159647
840.099	0.0159537
840.177	0.0158463
840.255	0.0160254
840.333	0.0161579
840.411	0.0160139
840.489	0.0160581
840.567	0.0162396
840.646	0.0162644
840.724	0.0162825
840.802	0.0161706
840.880	0.0163722
840.958	0.0162748
841.036	0.0162094
841.114	0.0163387
841.192	0.0162773
841.271	0.0162522
841.349	0.0161718
841.427	0.0160921
841.505	0.0160493
841.583	0.0162140
841.661	0.0158684
841.739	0.0159558
841.817	0.0158859
841.896	0.0159245
841.974	0.0158944
842.052	0.0158723
842.130	0.0158705
842.208	0.0157146
842.286	0.0158470
842.364	0.0158480
842.442	0.0158778
842.521	0.0158828
842.599	0.0158617
842.677	0.0160476
842.755	0.0159711
842.833	0.0160487
842.911	0.0160695
842.989	0.0161318
843.067	0.0160952
843.146	0.0160923
843.224	0.0161043
843.302	0.0161398
843.380	0.0160709
843.458	0.0161061
843.536	0.0161530
843.614	0.0159462
843.692	0.0161668
843.771	0.0160336
843.849	0.0157565
843.927	0.0157308
844.005	0.0159423
844.083	0.0158619
844.161	0.0157277
844.239	0.0157664
844.317	0.0156996
844.396	0.0157168
844.474	0.0156098
844.552	0.0156340
844.630	0.0155077
844.708	0.0155157
844.786	0.0155432
844.864	0.0154673
844.942	0.0154920
845.021	0.0155348
845.099	0.0155092
845.177	0.0155115
845.255	0.0156751
845.333	0.0157626
845.411	0.0158358
845.489	0.0156822
845.567	0.0157130
845.646	0.0158360
845.724	0.0159047
845.802	0.0158741
845.880	0.0159208
845.958	0.0160039
846.036	0.0161087
846.114	0.0160947
846.192	0.0160880
846.271	0.0161995
846.349	0.0162207
846.427	0.0161790
846.505	0.0162229
846.583	0.0161977
846.661	0.0161919
846.739	0.0161628
846.817	0.0162041
846.896	0.0161026
846.974	0.0161263
847.052	0.0162281
847.130	0.0161977
847.208	0.0161603
847.286	0.0160635
847.364	0.0161833
847.442	0.0162607
847.521	0.0160264
847.599	0.0160746
847.677	0.0162873
847.755	0.0161332
847.833	0.0161525
847.911	0.0161883
847.989	0.0160803
848.067	0.0161185
848.146	0.0161002
848.224	0.0161567
848.302	0.0161700
848.380	0.0160341
848.458	0.0161849
848.536	0.0160749
848.614	0.0160645
848.692	0.0160035
848.771	0.0159621
848.849	0.0159791
848.927	0.0158598
849.005	0.0158340
849.083	0.0158672
849.161	0.0160063
849.239	0.0159422
849.317	0.0159886
849.396	0.0159387
849.474	0.0160014
849.552	0.0156851
849.630	0.0157118
849.708	0.0155942
849.786	0.0157446
849.864	0.0156924
849.942	0.0156148
850.021	0.0156120
850.099	0.0154856
850.177	0.0155885
850.255	0.0156516
850.333	0.0155619
850.411	0.0156663
850.489	0.0154977
850.567	0.0156325
850.646	0.0158901
850.724	0.0156990
850.802	0.0157545
850.880	0.0158823
850.958	0.0158974
851.036	0.0158538
851.114	0.0160397
851.192	0.0160791
851.271	0.0160583
851.349	0.0160886
851.427	0.0161108
851.505	0.0161936
851.583	0.0161127
851.661	0.0159735
851.739	0.0161407
851.817	0.0160449
851.896	0.0160648
851.974	0.0161113
852.052	0.0162015
852.130	0.0162004
852.208	0.0160553
852.286	0.0162573
852.364	0.0161669
852.442	0.0162331
852.521	0.0161147
852.599	0.0161219
852.677	0.0161477
852.755	0.0163313
852.833	0.0162640
852.911	0.0162216
852.989	0.0162309
853.067	0.0161935
853.146	0.0161251
853.224	0.0161174
853.302	0.0161282
853.380	0.0160279
853.458	0.0160498
853.536	0.0160230
853.614	0.0160727
853.692	0.0161313
853.771	0.0159666
853.849	0.0159876
853.927	0.0158753
854.005	0.0159251
854.083	0.0158147
854.161	0.0159077
854.239	0.0158386
854.317	0.0157772
854.396	0.0157495
854.474	0.0156267
854.552	0.0157658
854.630	0.0157083
854.708	0.0157198
854.786	0.0156464
854.864	0.0157237
854.942	0.0157587
855.021	0.0157239
855.099	0.0156477
855.177	0.0157782
855.255	0.0156830
855.333	0.0157431
855.411	0.0156367
855.489	0.0156113
855.567	0.0156913
855.646	0.0157526
855.724	0.0156166
855.802	0.0156116
855.880	0.0158159
855.958	0.0158383
856.036	0.0160056
856.114	0.0159644
856.192	0.0160716
856.271	0.0160607
856.349	0.0161497
856.427	0.0161810
856.505	0.0162460
856.583	0.0162785
856.661	0.0163599
856.739	0.0164429
856.817	0.0164167
856.896	0.0163110
856.974	0.0162840
857.052	0.0164836
857.130	0.0162981
857.208	0.0162784
857.286	0.0162355
857.364	0.0162620
857.442	0.0162261
857.521	0.0161343
857.599	0.0161935
857.677	0.0161278
857.755	0.0162453
857.833	0.0162213
857.911	0.0163480
857.989	0.0161137
858.067	0.0161598
858.146	0.0162041
858.224	0.0161906
858.302	0.0162348
858.380	0.0162128
858.458	0.0160907
858.536	0.0161610
858.614	0.0160530
858.692	0.0162157
858.771	0.0159991
858.849	0.0159431
858.927	0.0158582
859.005	0.0157668
859.083	0.0157854
859.161	0.0156606
859.239	0.0157375
859.317	0.0156086
859.396	0.0155196
859.474	0.0155865
859.552	0.0155969
859.630	0.0155894
859.708	0.0156837
859.786	0.0157561
859.864	0.0155635
859.942	0.0156334
860.021	0.0155679
860.099	0.0155615
860.177	0.0155822
860.255	0.0155924
860.333	0.0155936
860.411	0.0156316
860.489	0.0157527
860.567	0.0158608
860.646	0.0157758
860.724	0.0158777
860.802	0.0158524
860.880	0.0157800
860.958	0.0158115
861.036	0.0159341
861.114	0.0160619
861.192	0.0160207
861.271	0.0159332
861.349	0.0160712
861.427	0.0161664
861.505	0.0162096
861.583	0.0161252
861.661	0.0160845
861.739	0.0159792
861.817	0.0161947
861.896	0.0159941
861.974	0.0161731
862.052	0.0161597
862.130	0.0161747
862.208	0.0161288
862.286	0.0162534
862.364	0.0160296
862.442	0.0161312
862.521	0.0162714
862.599	0.0161837
862.677	0.0162471
862.755	0.0162022
862.833	0.0161127
862.911	0.0162028
862.989	0.0161163
863.067	0.0161477
863.146	0.0161533
863.224	0.0161559
863.302	0.0160548
863.380	0.0160981
863.458	0.0162828
863.536	0.0161117
863.614	0.0162173
863.692	0.0160963
863.771	0.0161659
863.849	0.0162169
863.927	0.0161727
864.005	0.0159675
864.083	0.0160298
864.161	0.0158653
864.239	0.0158516
864.317	0.0159314
864.396	0.0158777
864.474	0.0157656
864.552	0.0159058
864.630	0.0157895
864.708	0.0157324
864.786	0.0158743
864.864	0.0157217
864.942	0.0155490
865.021	0.0157432
865.099	0.0156113
865.177	0.0156320
865.255	0.0155534
865.333	0.0155427
865.411	0.0155648
865.489	0.0157928
865.567	0.0157477
865.646	0.0156357
865.724	0.0158522
865.802	0.0157436
865.880	0.0157767
865.958	0.0156853
866.036	0.0158093
866.114	0.0158201
866.192	0.0158208
866.271	0.0159843
866.349	0.0158003
866.427	0.0157841
866.505	0.0159322
866.583	0.0159895
866.661	0.0158480
866.739	0.0157764
866.817	0.0159098
866.896	0.0160365
866.974	0.0161234
867.052	0.0161500
867.130	0.0161621
867.208	0.0161582
867.286	0.0160947
867.364	0.0162318
867.442	0.0162888
867.521	0.0162316
867.599	0.0161498
867.677	0.0162148
867.755	0.0162629
867.833	0.0162399
867.911	0.0162398
867.989	0.0162196
868.067	0.0163163
868.146	0.0160477
868.224	0.0161504
868.302	0.0159916
868.380	0.0160615
868.458	0.0161255
868.536	0.0160738
868.614	0.0159483
868.692	0.0160838
868.771	0.0160958
868.849	0.0159077
868.927	0.0160488
869.005	0.0160741
869.083	0.0160356
869.161	0.0161098
869.239	0.0159623
869.317	0.0159439
869.396	0.0161456
869.474	0.0160436
869.552	0.0159838
869.630	0.0159430
869.708	0.0159832
869.786	0.0158854
869.864	0.0159433
869.942	0.0158578
