06/03/2022	15:43:41	Ver.	4.1	UNKNOWN
Optical Delay	550.020508	Delta X		0.078125	Sweeps	1	Scan Rate	0/0
Coordinates	Axis 1	NaN	Axis 2	NaN	Axis 3	NaN	Axis 4	NaN	Axis 5	NaN	Axis 6	0.000000
TX Power	0.000000	RX Power	0.000000

550.021	0.0161208
550.099	0.0161514
550.177	0.0161572
550.255	0.0160913
550.333	0.0162296
550.411	0.0161571
550.489	0.0160518
550.567	0.0160859
550.646	0.0162151
550.724	0.0161270
550.802	0.0160396
550.880	0.0160614
550.958	0.0162645
551.036	0.0160814
551.114	0.0162041
551.192	0.0162106
551.271	0.0162017
551.349	0.0161553
551.427	0.0162329
551.505	0.0161980
551.583	0.0161640
551.661	0.0162200
551.739	0.0161396
551.817	0.0161530
551.896	0.0160660
551.974	0.0162660
552.052	0.0160857
552.130	0.0161404
552.208	0.0162634
552.286	0.0163091
552.364	0.0161108
552.442	0.0161919
552.521	0.0161290
552.599	0.0160778
552.677	0.0161195
552.755	0.0160842
552.833	0.0162128
552.911	0.0160195
552.989	0.0160720
553.067	0.0162789
553.146	0.0161874
553.224	0.0161457
553.302	0.0159958
553.380	0.0161909
553.458	0.0160847
553.536	0.0160477
553.614	0.0161652
553.692	0.0162746
553.771	0.0161076
553.849	0.0160055
553.927	0.0161169
554.005	0.0161888
554.083	0.0160917
554.161	0.0160831
554.239	0.0160632
554.317	0.0160221
554.396	0.0159883
554.474	0.0160902
554.552	0.0160628
554.630	0.0159875
554.708	0.0161932
554.786	0.0162483
554.864	0.0160648
554.942	0.0161329
555.021	0.0160229
555.099	0.0161580
555.177	0.0160241
555.255	0.0160691
555.333	0.0162453
555.411	0.0162633
555.489	0.0160660
555.567	0.0160729
555.646	0.0161890
555.724	0.0161471
555.802	0.0160427
555.880	0.0160829
555.958	0.0160499
556.036	0.0161420
556.114	0.0162067
556.192	0.0161273
556.271	0.0160781
556.349	0.0162103
556.427	0.0160088
556.505	0.0160606
556.583	0.0161045
556.661	0.0161983
556.739	0.0162568
556.817	0.0161210
556.896	0.0161052
556.974	0.0161237
557.052	0.0161570
557.130	0.0161959
557.208	0.0162810
557.286	0.0161869
557.364	0.0160731
557.442	0.0160535
557.521	0.0160566
557.599	0.0161871
557.677	0.0160518
557.755	0.0161464
557.833	0.0161130
557.911	0.0161517
557.989	0.0163116
558.067	0.0161315
558.146	0.0162568
558.224	0.0161994
558.302	0.0161323
558.380	0.0161375
558.458	0.0159850
558.536	0.0162086
558.614	0.0160930
558.692	0.0160518
558.771	0.0162157
558.849	0.0161839
558.927	0.0161234
559.005	0.0162844
559.083	0.0161481
559.161	0.0161031
559.239	0.0161385
559.317	0.0162124
559.396	0.0160751
559.474	0.0161071
559.552	0.0162692
559.630	0.0162006
559.708	0.0161176
559.786	0.0161378
559.864	0.0161449
559.942	0.0161980
560.021	0.0160133
560.099	0.0160004
560.177	0.0161105
560.255	0.0161761
560.333	0.0160493
560.411	0.0160914
560.489	0.0162238
560.567	0.0161591
560.646	0.0160789
560.724	0.0162326
560.802	0.0162052
560.880	0.0161778
560.958	0.0160610
561.036	0.0161517
561.114	0.0161778
561.192	0.0162106
561.271	0.0161941
561.349	0.0162452
561.427	0.0161864
561.505	0.0161369
561.583	0.0161554
561.661	0.0161509
561.739	0.0161212
561.817	0.0162318
561.896	0.0161944
561.974	0.0160355
562.052	0.0161532
562.130	0.0161473
562.208	0.0160886
562.286	0.0160619
562.364	0.0161372
562.442	0.0160580
562.521	0.0161584
562.599	0.0161452
562.677	0.0160774
562.755	0.0161057
562.833	0.0162256
562.911	0.0161723
562.989	0.0161965
563.067	0.0160765
563.146	0.0160467
563.224	0.0161929
563.302	0.0161691
563.380	0.0161152
563.458	0.0161130
563.536	0.0160584
563.614	0.0161293
563.692	0.0161176
563.771	0.0161899
563.849	0.0160320
563.927	0.0161327
564.005	0.0161983
564.083	0.0160748
564.161	0.0161372
564.239	0.0162164
564.317	0.0161452
564.396	0.0161831
564.474	0.0160349
564.552	0.0160625
564.630	0.0161080
564.708	0.0160977
564.786	0.0161822
564.864	0.0159119
564.942	0.0161128
565.021	0.0160725
565.099	0.0160568
565.177	0.0161042
565.255	0.0160896
565.333	0.0160404
565.411	0.0160086
565.489	0.0162457
565.567	0.0161434
565.646	0.0161477
565.724	0.0160734
565.802	0.0162070
565.880	0.0162066
565.958	0.0161229
566.036	0.0160069
566.114	0.0162088
566.192	0.0160799
566.271	0.0161530
566.349	0.0160943
566.427	0.0160758
566.505	0.0161742
566.583	0.0160847
566.661	0.0161121
566.739	0.0160664
566.817	0.0162243
566.896	0.0160670
566.974	0.0161376
567.052	0.0163047
567.130	0.0161164
567.208	0.0161494
567.286	0.0159988
567.364	0.0161252
567.442	0.0161517
567.521	0.0160300
567.599	0.0160894
567.677	0.0162373
567.755	0.0161102
567.833	0.0160718
567.911	0.0160066
567.989	0.0161230
568.067	0.0161876
568.146	0.0160704
568.224	0.0162225
568.302	0.0162055
568.380	0.0161754
568.458	0.0160197
568.536	0.0160553
568.614	0.0160364
568.692	0.0161613
568.771	0.0160194
568.849	0.0159640
568.927	0.0161889
569.005	0.0161457
569.083	0.0160515
569.161	0.0160451
569.239	0.0161279
569.317	0.0161934
569.396	0.0161035
569.474	0.0162325
569.552	0.0161763
569.630	0.0160390
569.708	0.0161419
569.786	0.0159868
569.864	0.0160877
569.942	0.0162656
570.021	0.0161610
570.099	0.0161175
570.177	0.0161564
570.255	0.0160630
570.333	0.0162613
570.411	0.0160929
570.489	0.0162113
570.567	0.0161089
570.646	0.0161269
570.724	0.0160003
570.802	0.0160412
570.880	0.0160384
570.958	0.0161691
571.036	0.0162098
571.114	0.0161732
571.192	0.0161478
571.271	0.0161219
571.349	0.0159708
571.427	0.0161423
571.505	0.0160821
571.583	0.0161311
571.661	0.0162403
571.739	0.0160368
571.817	0.0160892
571.896	0.0160944
571.974	0.0159989
572.052	0.0161385
572.130	0.0160665
572.208	0.0161418
572.286	0.0161497
572.364	0.0160910
572.442	0.0161449
572.521	0.0160444
572.599	0.0161982
572.677	0.0160583
572.755	0.0161993
572.833	0.0161857
572.911	0.0160837
572.989	0.0160929
573.067	0.0161520
573.146	0.0161083
573.224	0.0161282
573.302	0.0162228
573.380	0.0162527
573.458	0.0161276
573.536	0.0160355
573.614	0.0161489
573.692	0.0162089
573.771	0.0162273
573.849	0.0161710
573.927	0.0160671
574.005	0.0163027
574.083	0.0162132
574.161	0.0161086
574.239	0.0159667
574.317	0.0161836
574.396	0.0161495
574.474	0.0162540
574.552	0.0162104
574.630	0.0162090
574.708	0.0161143
574.786	0.0160815
574.864	0.0161182
574.942	0.0161633
575.021	0.0161086
575.099	0.0161959
575.177	0.0162194
575.255	0.0162543
575.333	0.0161494
575.411	0.0161399
575.489	0.0160049
575.567	0.0161257
575.646	0.0161102
575.724	0.0160508
575.802	0.0161934
575.880	0.0161693
575.958	0.0162172
576.036	0.0161517
576.114	0.0161535
576.192	0.0161488
576.271	0.0161373
576.349	0.0160397
576.427	0.0161404
576.505	0.0160450
576.583	0.0161086
576.661	0.0161352
576.739	0.0161258
576.817	0.0160926
576.896	0.0160863
576.974	0.0160526
577.052	0.0161815
577.130	0.0160973
577.208	0.0160164
577.286	0.0160334
577.364	0.0161251
577.442	0.0161906
577.521	0.0161348
577.599	0.0161005
577.677	0.0161064
577.755	0.0162600
577.833	0.0161463
577.911	0.0160458
577.989	0.0161548
578.067	0.0161822
578.146	0.0161755
578.224	0.0159592
578.302	0.0161110
578.380	0.0160642
578.458	0.0161207
578.536	0.0162396
578.614	0.0161568
578.692	0.0161563
578.771	0.0161829
578.849	0.0162424
578.927	0.0161983
579.005	0.0161710
579.083	0.0160069
579.161	0.0161895
579.239	0.0162749
579.317	0.0162141
579.396	0.0161218
579.474	0.0161674
579.552	0.0162711
579.630	0.0160630
579.708	0.0161485
579.786	0.0160612
579.864	0.0159495
579.942	0.0161924
580.021	0.0161780
580.099	0.0160590
580.177	0.0161807
580.255	0.0161599
580.333	0.0161468
580.411	0.0162044
580.489	0.0162143
580.567	0.0160403
580.646	0.0161016
580.724	0.0160942
580.802	0.0161738
580.880	0.0162107
580.958	0.0161182
581.036	0.0161148
581.114	0.0160729
581.192	0.0161304
581.271	0.0161657
581.349	0.0161525
581.427	0.0161368
581.505	0.0161510
581.583	0.0161439
581.661	0.0161599
581.739	0.0161694
581.817	0.0160166
581.896	0.0161453
581.974	0.0161279
582.052	0.0161011
582.130	0.0161047
582.208	0.0160939
582.286	0.0162045
582.364	0.0161464
582.442	0.0161485
582.521	0.0162269
582.599	0.0161237
582.677	0.0161066
582.755	0.0160609
582.833	0.0161130
582.911	0.0161443
582.989	0.0160805
583.067	0.0160404
583.146	0.0161652
583.224	0.0161824
583.302	0.0162582
583.380	0.0161900
583.458	0.0161235
583.536	0.0161448
583.614	0.0160834
583.692	0.0162114
583.771	0.0161619
583.849	0.0161002
583.927	0.0161304
584.005	0.0162485
584.083	0.0160684
584.161	0.0160733
584.239	0.0161408
584.317	0.0160310
584.396	0.0161219
584.474	0.0161455
584.552	0.0162939
584.630	0.0160707
584.708	0.0160624
584.786	0.0163094
584.864	0.0162772
584.942	0.0160851
585.021	0.0161994
585.099	0.0162582
585.177	0.0161134
585.255	0.0162578
585.333	0.0161552
585.411	0.0160711
585.489	0.0160836
585.567	0.0163349
585.646	0.0161584
585.724	0.0161374
585.802	0.0161161
585.880	0.0160736
585.958	0.0160847
586.036	0.0161244
586.114	0.0161357
586.192	0.0161752
586.271	0.0161832
586.349	0.0162405
586.427	0.0161636
586.505	0.0162021
586.583	0.0161820
586.661	0.0161402
586.739	0.0160400
586.817	0.0162150
586.896	0.0160831
586.974	0.0159834
587.052	0.0161198
587.130	0.0161694
587.208	0.0160989
587.286	0.0159759
587.364	0.0159863
587.442	0.0160509
587.521	0.0160550
587.599	0.0160782
587.677	0.0162670
587.755	0.0160665
587.833	0.0160656
587.911	0.0162650
587.989	0.0160912
588.067	0.0160953
588.146	0.0162452
588.224	0.0161742
588.302	0.0161668
588.380	0.0161004
588.458	0.0161151
588.536	0.0161258
588.614	0.0161713
588.692	0.0160612
588.771	0.0160200
588.849	0.0162038
588.927	0.0161828
589.005	0.0160525
589.083	0.0160220
589.161	0.0161411
589.239	0.0161187
589.317	0.0160922
589.396	0.0161369
589.474	0.0161606
589.552	0.0160699
589.630	0.0160581
589.708	0.0161519
589.786	0.0161412
589.864	0.0161211
589.942	0.0160639
590.021	0.0161785
590.099	0.0161304
590.177	0.0160546
590.255	0.0161021
590.333	0.0160581
590.411	0.0160232
590.489	0.0160200
590.567	0.0161026
590.646	0.0160516
590.724	0.0160968
590.802	0.0161176
590.880	0.0160114
590.958	0.0160139
591.036	0.0161769
591.114	0.0161128
591.192	0.0161353
591.271	0.0161204
591.349	0.0160519
591.427	0.0160280
591.505	0.0160699
591.583	0.0160820
591.661	0.0161467
591.739	0.0161805
591.817	0.0160707
591.896	0.0160643
591.974	0.0162579
592.052	0.0160651
592.130	0.0160860
592.208	0.0161505
592.286	0.0161456
592.364	0.0159754
592.442	0.0162388
592.521	0.0160470
592.599	0.0161201
592.677	0.0162246
592.755	0.0161699
592.833	0.0160562
592.911	0.0162086
592.989	0.0162210
593.067	0.0162067
593.146	0.0161678
593.224	0.0160863
593.302	0.0161295
593.380	0.0162031
593.458	0.0161224
593.536	0.0160737
593.614	0.0161327
593.692	0.0161821
593.771	0.0161111
593.849	0.0161135
593.927	0.0160096
594.005	0.0161195
594.083	0.0161813
594.161	0.0160561
594.239	0.0159890
594.317	0.0160648
594.396	0.0161011
594.474	0.0162107
594.552	0.0161362
594.630	0.0159696
594.708	0.0161906
594.786	0.0160907
594.864	0.0160914
594.942	0.0161184
595.021	0.0161313
595.099	0.0160254
595.177	0.0160256
595.255	0.0161070
595.333	0.0160537
595.411	0.0162019
595.489	0.0159686
595.567	0.0160515
595.646	0.0161022
595.724	0.0161168
595.802	0.0159988
595.880	0.0161928
595.958	0.0161654
596.036	0.0161279
596.114	0.0160766
596.192	0.0162272
596.271	0.0161227
596.349	0.0161622
596.427	0.0161293
596.505	0.0161287
596.583	0.0161278
596.661	0.0161264
596.739	0.0160909
596.817	0.0161347
596.896	0.0161544
596.974	0.0161272
597.052	0.0160107
597.130	0.0160788
597.208	0.0161490
597.286	0.0161020
597.364	0.0159943
597.442	0.0160401
597.521	0.0160770
597.599	0.0160276
597.677	0.0161340
597.755	0.0161332
597.833	0.0160224
597.911	0.0161319
597.989	0.0161961
598.067	0.0161334
598.146	0.0161476
598.224	0.0162036
598.302	0.0161439
598.380	0.0159904
598.458	0.0162083
598.536	0.0161079
598.614	0.0161533
598.692	0.0162270
598.771	0.0161133
598.849	0.0161185
598.927	0.0162722
599.005	0.0161320
599.083	0.0159566
599.161	0.0160702
599.239	0.0163085
599.317	0.0159258
599.396	0.0161417
599.474	0.0161587
599.552	0.0161378
599.630	0.0161317
599.708	0.0161342
599.786	0.0161685
599.864	0.0160870
599.942	0.0160368
600.021	0.0162215
600.099	0.0160625
600.177	0.0159241
600.255	0.0160798
600.333	0.0160870
600.411	0.0160564
600.489	0.0161552
600.567	0.0161279
600.646	0.0161205
600.724	0.0161107
600.802	0.0161342
600.880	0.0161285
600.958	0.0160805
601.036	0.0161921
601.114	0.0161372
601.192	0.0162849
601.271	0.0161852
601.349	0.0161059
601.427	0.0161405
601.505	0.0161126
601.583	0.0160766
601.661	0.0161034
601.739	0.0161652
601.817	0.0161465
601.896	0.0162455
601.974	0.0161103
602.052	0.0160261
602.130	0.0161747
602.208	0.0161902
602.286	0.0162899
602.364	0.0159918
602.442	0.0162028
602.521	0.0161596
602.599	0.0161099
602.677	0.0160544
602.755	0.0160236
602.833	0.0160136
602.911	0.0161610
602.989	0.0161626
603.067	0.0161844
603.146	0.0160992
603.224	0.0161189
603.302	0.0161110
603.380	0.0161717
603.458	0.0161597
603.536	0.0160609
603.614	0.0160777
603.692	0.0161039
603.771	0.0160458
603.849	0.0160752
603.927	0.0161598
604.005	0.0161301
604.083	0.0159968
604.161	0.0161093
604.239	0.0160442
604.317	0.0160633
604.396	0.0161723
604.474	0.0161440
604.552	0.0161232
604.630	0.0160881
604.708	0.0160202
604.786	0.0161430
604.864	0.0161987
604.942	0.0161126
605.021	0.0161178
605.099	0.0160771
605.177	0.0161433
605.255	0.0160865
605.333	0.0161377
605.411	0.0160037
605.489	0.0161835
605.567	0.0161204
605.646	0.0160281
605.724	0.0160506
605.802	0.0161112
605.880	0.0160447
605.958	0.0161545
606.036	0.0161974
606.114	0.0161436
606.192	0.0161189
606.271	0.0160381
606.349	0.0160630
606.427	0.0160413
606.505	0.0160765
606.583	0.0161566
606.661	0.0161372
606.739	0.0159812
606.817	0.0161337
606.896	0.0161605
606.974	0.0161786
607.052	0.0161420
607.130	0.0161459
607.208	0.0160497
607.286	0.0161086
607.364	0.0161487
607.442	0.0160590
607.521	0.0160678
607.599	0.0161064
607.677	0.0161533
607.755	0.0160241
607.833	0.0159819
607.911	0.0161034
607.989	0.0161571
608.067	0.0160610
608.146	0.0160020
608.224	0.0160465
608.302	0.0161206
608.380	0.0160677
608.458	0.0161249
608.536	0.0160297
608.614	0.0161749
608.692	0.0161026
608.771	0.0161777
608.849	0.0161647
608.927	0.0160261
609.005	0.0161388
609.083	0.0159940
609.161	0.0161240
609.239	0.0160122
609.317	0.0161234
609.396	0.0159753
609.474	0.0160695
609.552	0.0160783
609.630	0.0160346
609.708	0.0160788
609.786	0.0161869
609.864	0.0162160
609.942	0.0161456
610.021	0.0160103
610.099	0.0160777
610.177	0.0161349
610.255	0.0161154
610.333	0.0160608
610.411	0.0161807
610.489	0.0160323
610.567	0.0161561
610.646	0.0161469
610.724	0.0161295
610.802	0.0160828
610.880	0.0159058
610.958	0.0160325
611.036	0.0160917
611.114	0.0160854
611.192	0.0160142
611.271	0.0161417
611.349	0.0161723
611.427	0.0160198
611.505	0.0160003
611.583	0.0161208
611.661	0.0160744
611.739	0.0162138
611.817	0.0160880
611.896	0.0160020
611.974	0.0161728
612.052	0.0161172
612.130	0.0160552
612.208	0.0161381
612.286	0.0162967
612.364	0.0161731
612.442	0.0160893
612.521	0.0161681
612.599	0.0160815
612.677	0.0162106
612.755	0.0161977
612.833	0.0161906
612.911	0.0160799
612.989	0.0160275
613.067	0.0159836
613.146	0.0161098
613.224	0.0162077
613.302	0.0161051
613.380	0.0161570
613.458	0.0160235
613.536	0.0161024
613.614	0.0161500
613.692	0.0161839
613.771	0.0160040
613.849	0.0161387
613.927	0.0161220
614.005	0.0161546
614.083	0.0161220
614.161	0.0158646
614.239	0.0160523
614.317	0.0160938
614.396	0.0161182
614.474	0.0159813
614.552	0.0160397
614.630	0.0160497
614.708	0.0161225
614.786	0.0161321
614.864	0.0160623
614.942	0.0162119
615.021	0.0161411
615.099	0.0160687
615.177	0.0162039
615.255	0.0162285
615.333	0.0161121
615.411	0.0160040
615.489	0.0160494
615.567	0.0160683
615.646	0.0163101
615.724	0.0160944
615.802	0.0160285
615.880	0.0160866
615.958	0.0161820
616.036	0.0161926
616.114	0.0160146
616.192	0.0160923
616.271	0.0161506
616.349	0.0161285
616.427	0.0161205
616.505	0.0160514
616.583	0.0161834
616.661	0.0160596
616.739	0.0160843
616.817	0.0160217
616.896	0.0160890
616.974	0.0160814
617.052	0.0160503
617.130	0.0162637
617.208	0.0162204
617.286	0.0161855
617.364	0.0159794
617.442	0.0161092
617.521	0.0161655
617.599	0.0159851
617.677	0.0160992
617.755	0.0161172
617.833	0.0161570
617.911	0.0161410
617.989	0.0161051
618.067	0.0160846
618.146	0.0160165
618.224	0.0161264
618.302	0.0161712
618.380	0.0159884
618.458	0.0161110
618.536	0.0160449
618.614	0.0162049
618.692	0.0162193
618.771	0.0161446
618.849	0.0161181
618.927	0.0162833
619.005	0.0162410
619.083	0.0161199
619.161	0.0160470
619.239	0.0159791
619.317	0.0161089
619.396	0.0160076
619.474	0.0161517
619.552	0.0162109
619.630	0.0161128
619.708	0.0161046
619.786	0.0160732
619.864	0.0160146
619.942	0.0161314
620.021	0.0161631
620.099	0.0161884
620.177	0.0161450
620.255	0.0161732
620.333	0.0161623
620.411	0.0161271
620.489	0.0161829
620.567	0.0160396
620.646	0.0161012
620.724	0.0160938
620.802	0.0160846
620.880	0.0161262
620.958	0.0161741
621.036	0.0161832
621.114	0.0160914
621.192	0.0161604
621.271	0.0159743
621.349	0.0160995
621.427	0.0160851
621.505	0.0161063
621.583	0.0160867
621.661	0.0161378
621.739	0.0161094
621.817	0.0162484
621.896	0.0161508
621.974	0.0160233
622.052	0.0162067
622.130	0.0161552
622.208	0.0161274
622.286	0.0160988
622.364	0.0161047
622.442	0.0160788
622.521	0.0161923
622.599	0.0161277
622.677	0.0160854
622.755	0.0161719
622.833	0.0161786
622.911	0.0161319
622.989	0.0161090
623.067	0.0162354
623.146	0.0161243
623.224	0.0161046
623.302	0.0163018
623.380	0.0160259
623.458	0.0161040
623.536	0.0161303
623.614	0.0161433
623.692	0.0160513
623.771	0.0161838
623.849	0.0160793
623.927	0.0161012
624.005	0.0161465
624.083	0.0161109
624.161	0.0160931
624.239	0.0160418
624.317	0.0160327
624.396	0.0161676
624.474	0.0161663
624.552	0.0160177
624.630	0.0159720
624.708	0.0160849
624.786	0.0162502
624.864	0.0162856
624.942	0.0161456
625.021	0.0160994
625.099	0.0162407
625.177	0.0160580
625.255	0.0159621
625.333	0.0160167
625.411	0.0160928
625.489	0.0161025
625.567	0.0162132
625.646	0.0161503
625.724	0.0160023
625.802	0.0160949
625.880	0.0160808
625.958	0.0160491
626.036	0.0160985
626.114	0.0160172
626.192	0.0161356
626.271	0.0162337
626.349	0.0160711
626.427	0.0161143
626.505	0.0161931
626.583	0.0160287
626.661	0.0162244
626.739	0.0161038
626.817	0.0160587
626.896	0.0161554
626.974	0.0161298
627.052	0.0160148
627.130	0.0160881
627.208	0.0161532
627.286	0.0160689
627.364	0.0161214
627.442	0.0160101
627.521	0.0160977
627.599	0.0161246
627.677	0.0160813
627.755	0.0161330
627.833	0.0159475
627.911	0.0160973
627.989	0.0161954
628.067	0.0161038
628.146	0.0161018
628.224	0.0161815
628.302	0.0161424
628.380	0.0160905
628.458	0.0160656
628.536	0.0161694
628.614	0.0162040
628.692	0.0160249
628.771	0.0160264
628.849	0.0161601
628.927	0.0161526
629.005	0.0161754
629.083	0.0159631
629.161	0.0160897
629.239	0.0162357
629.317	0.0160852
629.396	0.0161716
629.474	0.0161681
629.552	0.0160748
629.630	0.0160915
629.708	0.0162069
629.786	0.0161630
629.864	0.0161713
629.942	0.0161194
630.021	0.0159971
630.099	0.0160708
630.177	0.0161633
630.255	0.0160858
630.333	0.0161292
630.411	0.0161870
630.489	0.0161671
630.567	0.0161558
630.646	0.0159632
630.724	0.0161101
630.802	0.0161736
630.880	0.0161546
630.958	0.0160706
631.036	0.0162486
631.114	0.0162159
631.192	0.0160705
631.271	0.0161555
631.349	0.0161600
631.427	0.0162790
631.505	0.0160444
631.583	0.0161196
631.661	0.0161532
631.739	0.0160449
631.817	0.0161866
631.896	0.0161428
631.974	0.0159502
632.052	0.0161581
632.130	0.0160345
632.208	0.0160587
632.286	0.0161074
632.364	0.0161803
632.442	0.0161330
632.521	0.0161333
632.599	0.0160507
632.677	0.0162074
632.755	0.0160745
632.833	0.0161607
632.911	0.0162357
632.989	0.0162152
633.067	0.0160908
633.146	0.0160595
633.224	0.0160261
633.302	0.0160600
633.380	0.0161597
633.458	0.0161455
633.536	0.0160390
633.614	0.0161314
633.692	0.0161621
633.771	0.0162070
633.849	0.0161322
633.927	0.0161991
634.005	0.0160355
634.083	0.0162025
634.161	0.0161708
634.239	0.0161533
634.317	0.0162328
634.396	0.0161895
634.474	0.0161051
634.552	0.0161884
634.630	0.0161460
634.708	0.0162163
634.786	0.0161496
634.864	0.0162656
634.942	0.0161771
635.021	0.0162597
635.099	0.0162247
635.177	0.0160428
635.255	0.0160934
635.333	0.0160498
635.411	0.0160751
635.489	0.0161790
635.567	0.0162714
635.646	0.0161358
635.724	0.0161276
635.802	0.0161648
635.880	0.0159799
635.958	0.0161336
636.036	0.0161370
636.114	0.0161956
636.192	0.0162307
636.271	0.0160939
636.349	0.0162039
636.427	0.0160973
636.505	0.0161461
636.583	0.0160690
636.661	0.0160903
636.739	0.0160450
636.817	0.0160950
636.896	0.0160020
636.974	0.0161722
637.052	0.0161512
637.130	0.0161687
637.208	0.0161488
637.286	0.0162003
637.364	0.0162129
637.442	0.0160673
637.521	0.0160269
637.599	0.0160390
637.677	0.0161411
637.755	0.0162597
637.833	0.0162064
637.911	0.0161405
637.989	0.0161877
638.067	0.0163026
638.146	0.0162330
638.224	0.0162085
638.302	0.0161357
638.380	0.0160964
638.458	0.0161250
638.536	0.0161955
638.614	0.0161480
638.692	0.0161790
638.771	0.0161336
638.849	0.0162617
638.927	0.0161745
639.005	0.0160795
639.083	0.0160914
639.161	0.0162637
639.239	0.0161086
639.317	0.0161625
639.396	0.0161354
639.474	0.0160511
639.552	0.0162017
639.630	0.0161909
639.708	0.0161696
639.786	0.0161646
639.864	0.0161306
639.942	0.0161741
640.021	0.0161366
640.099	0.0160898
640.177	0.0161119
640.255	0.0161883
640.333	0.0161761
640.411	0.0161491
640.489	0.0161068
640.567	0.0160980
640.646	0.0161722
640.724	0.0161178
640.802	0.0161331
640.880	0.0160902
640.958	0.0162189
641.036	0.0162125
641.114	0.0162595
641.192	0.0161801
641.271	0.0162233
641.349	0.0161069
641.427	0.0161778
641.505	0.0161671
641.583	0.0161471
641.661	0.0161136
641.739	0.0160191
641.817	0.0160686
641.896	0.0161387
641.974	0.0161831
642.052	0.0160852
642.130	0.0160036
642.208	0.0163076
642.286	0.0161250
642.364	0.0161050
642.442	0.0161881
642.521	0.0160672
642.599	0.0161616
642.677	0.0160209
642.755	0.0160100
642.833	0.0162752
642.911	0.0161874
642.989	0.0160815
643.067	0.0160733
643.146	0.0160715
643.224	0.0160741
643.302	0.0160928
643.380	0.0160861
643.458	0.0160938
643.536	0.0159568
643.614	0.0160697
643.692	0.0161572
643.771	0.0160848
643.849	0.0162358
643.927	0.0161347
644.005	0.0159831
644.083	0.0161172
644.161	0.0160271
644.239	0.0161364
644.317	0.0160606
644.396	0.0160339
644.474	0.0160336
644.552	0.0159241
644.630	0.0161221
644.708	0.0161359
644.786	0.0161245
644.864	0.0159830
644.942	0.0161013
645.021	0.0159939
645.099	0.0161089
645.177	0.0161080
645.255	0.0160414
645.333	0.0161008
645.411	0.0161344
645.489	0.0161916
645.567	0.0161304
645.646	0.0161166
645.724	0.0160391
645.802	0.0160783
645.880	0.0161726
645.958	0.0160461
646.036	0.0161298
646.114	0.0160846
646.192	0.0160627
646.271	0.0160705
646.349	0.0160608
646.427	0.0160864
646.505	0.0159605
646.583	0.0160886
646.661	0.0161575
646.739	0.0161024
646.817	0.0160106
646.896	0.0160683
646.974	0.0162294
647.052	0.0159920
647.130	0.0160000
647.208	0.0161347
647.286	0.0160433
647.364	0.0159484
647.442	0.0160962
647.521	0.0160450
647.599	0.0159241
647.677	0.0160545
647.755	0.0161540
647.833	0.0160944
647.911	0.0161835
647.989	0.0160150
648.067	0.0159123
648.146	0.0161307
648.224	0.0161225
648.302	0.0160037
648.380	0.0160778
648.458	0.0160952
648.536	0.0160921
648.614	0.0160564
648.692	0.0161559
648.771	0.0160641
648.849	0.0160934
648.927	0.0160774
649.005	0.0161803
649.083	0.0161851
649.161	0.0160902
649.239	0.0159859
649.317	0.0160277
649.396	0.0160820
649.474	0.0160475
649.552	0.0160509
649.630	0.0160416
649.708	0.0160103
649.786	0.0162003
649.864	0.0160921
649.942	0.0160864
650.021	0.0160744
650.099	0.0161510
650.177	0.0159651
650.255	0.0159814
650.333	0.0161559
650.411	0.0160384
650.489	0.0160403
650.567	0.0161207
650.646	0.0160895
650.724	0.0161650
650.802	0.0162066
650.880	0.0159516
650.958	0.0161250
651.036	0.0161011
651.114	0.0161360
651.192	0.0160654
651.271	0.0161423
651.349	0.0160689
651.427	0.0160928
651.505	0.0161802
651.583	0.0161256
651.661	0.0160848
651.739	0.0162045
651.817	0.0160921
651.896	0.0161496
651.974	0.0161159
652.052	0.0162200
652.130	0.0161470
652.208	0.0161259
652.286	0.0162207
652.364	0.0161290
652.442	0.0162369
652.521	0.0161155
652.599	0.0160809
652.677	0.0161790
652.755	0.0160984
652.833	0.0160537
652.911	0.0160514
652.989	0.0161081
653.067	0.0160129
653.146	0.0161215
653.224	0.0161670
653.302	0.0161145
653.380	0.0160295
653.458	0.0160313
653.536	0.0161815
653.614	0.0161295
653.692	0.0160311
653.771	0.0161746
653.849	0.0161143
653.927	0.0160686
654.005	0.0161591
654.083	0.0160434
654.161	0.0160435
654.239	0.0161737
654.317	0.0162585
654.396	0.0160719
654.474	0.0161000
654.552	0.0160993
654.630	0.0161672
654.708	0.0161329
654.786	0.0160957
654.864	0.0160904
654.942	0.0161223
655.021	0.0161615
655.099	0.0161577
655.177	0.0161903
655.255	0.0161720
655.333	0.0161816
655.411	0.0162140
655.489	0.0162625
655.567	0.0161996
655.646	0.0161539
655.724	0.0162160
655.802	0.0160330
655.880	0.0161620
655.958	0.0163045
656.036	0.0161382
656.114	0.0161644
656.192	0.0161410
656.271	0.0162741
656.349	0.0162251
656.427	0.0162137
656.505	0.0162225
656.583	0.0163705
656.661	0.0161061
656.739	0.0161333
656.817	0.0162991
656.896	0.0161274
656.974	0.0162286
657.052	0.0162802
657.130	0.0161303
657.208	0.0162521
657.286	0.0160397
657.364	0.0162625
657.442	0.0161656
657.521	0.0161485
657.599	0.0161597
657.677	0.0161806
657.755	0.0162577
657.833	0.0161510
657.911	0.0161450
657.989	0.0161765
658.067	0.0161935
658.146	0.0161695
658.224	0.0161937
658.302	0.0161550
658.380	0.0161287
658.458	0.0162181
658.536	0.0161359
658.614	0.0160807
658.692	0.0160635
658.771	0.0161878
658.849	0.0162066
658.927	0.0160174
659.005	0.0159219
659.083	0.0161391
659.161	0.0161983
659.239	0.0161523
659.317	0.0159898
659.396	0.0161306
659.474	0.0161922
659.552	0.0161746
659.630	0.0160960
659.708	0.0160646
659.786	0.0160608
659.864	0.0161063
659.942	0.0160854
660.021	0.0160769
660.099	0.0160585
660.177	0.0162693
660.255	0.0161119
660.333	0.0160914
660.411	0.0160986
660.489	0.0159798
660.567	0.0162343
660.646	0.0161645
660.724	0.0161425
660.802	0.0162026
660.880	0.0161058
660.958	0.0162477
661.036	0.0161870
661.114	0.0161263
661.192	0.0159689
661.271	0.0161858
661.349	0.0164431
661.427	0.0162070
661.505	0.0162090
661.583	0.0162207
661.661	0.0162354
661.739	0.0160074
661.817	0.0161659
661.896	0.0161787
661.974	0.0162417
662.052	0.0161688
662.130	0.0162403
662.208	0.0161643
662.286	0.0161762
662.364	0.0162750
662.442	0.0161966
662.521	0.0161584
662.599	0.0161430
662.677	0.0163033
662.755	0.0163828
662.833	0.0161476
662.911	0.0160587
662.989	0.0162933
663.067	0.0162854
663.146	0.0161258
663.224	0.0162060
663.302	0.0162585
663.380	0.0163024
663.458	0.0160951
663.536	0.0160944
663.614	0.0161137
663.692	0.0162492
663.771	0.0163139
663.849	0.0161408
663.927	0.0162283
664.005	0.0162057
664.083	0.0159986
664.161	0.0159928
664.239	0.0161405
664.317	0.0162613
664.396	0.0161689
664.474	0.0160816
664.552	0.0162604
664.630	0.0160707
664.708	0.0160754
664.786	0.0161021
664.864	0.0160565
664.942	0.0162589
665.021	0.0162045
665.099	0.0160772
665.177	0.0160718
665.255	0.0160920
665.333	0.0162711
665.411	0.0162462
665.489	0.0161773
665.567	0.0162489
665.646	0.0161602
665.724	0.0160577
665.802	0.0161608
665.880	0.0160545
665.958	0.0161843
666.036	0.0161698
666.114	0.0161855
666.192	0.0161533
666.271	0.0160536
666.349	0.0160992
666.427	0.0161194
666.505	0.0160927
666.583	0.0161989
666.661	0.0160052
666.739	0.0160336
666.817	0.0162383
666.896	0.0163290
666.974	0.0161311
667.052	0.0160953
667.130	0.0161554
667.208	0.0160759
667.286	0.0161113
667.364	0.0159959
667.442	0.0161940
667.521	0.0162396
667.599	0.0159499
667.677	0.0161172
667.755	0.0161626
667.833	0.0161324
667.911	0.0162334
667.989	0.0160491
668.067	0.0161353
668.146	0.0162264
668.224	0.0159810
668.302	0.0160767
668.380	0.0160779
668.458	0.0159874
668.536	0.0160800
668.614	0.0161630
668.692	0.0161716
668.771	0.0160650
668.849	0.0160867
668.927	0.0160645
669.005	0.0160001
669.083	0.0160918
669.161	0.0159681
669.239	0.0161694
669.317	0.0161900
669.396	0.0161160
669.474	0.0160995
669.552	0.0160312
669.630	0.0160835
669.708	0.0161422
669.786	0.0161692
669.864	0.0161087
669.942	0.0161256
670.021	0.0161230
670.099	0.0160078
670.177	0.0161427
670.255	0.0160733
670.333	0.0160775
670.411	0.0160112
670.489	0.0160002
670.567	0.0161108
670.646	0.0160759
670.724	0.0161162
670.802	0.0160970
670.880	0.0160637
670.958	0.0160289
671.036	0.0161225
671.114	0.0160629
671.192	0.0160160
671.271	0.0161011
671.349	0.0161226
671.427	0.0159615
671.505	0.0160478
671.583	0.0161629
671.661	0.0161044
671.739	0.0160089
671.817	0.0159680
671.896	0.0159801
671.974	0.0161909
672.052	0.0161640
672.130	0.0160049
672.208	0.0161720
672.286	0.0160178
672.364	0.0160975
672.442	0.0161942
672.521	0.0160942
672.599	0.0159647
672.677	0.0159838
672.755	0.0160635
672.833	0.0161387
672.911	0.0161504
672.989	0.0158943
673.067	0.0159499
673.146	0.0159871
673.224	0.0161248
673.302	0.0160857
673.380	0.0161092
673.458	0.0160002
673.536	0.0160120
673.614	0.0160944
673.692	0.0161032
673.771	0.0160860
673.849	0.0161653
673.927	0.0161809
674.005	0.0159684
674.083	0.0160462
674.161	0.0160704
674.239	0.0159878
674.317	0.0160349
674.396	0.0160735
674.474	0.0161237
674.552	0.0161239
674.630	0.0161229
674.708	0.0161315
674.786	0.0161450
674.864	0.0161050
674.942	0.0161261
675.021	0.0161636
675.099	0.0162026
675.177	0.0162250
675.255	0.0162402
675.333	0.0161584
675.411	0.0162826
675.489	0.0162821
675.567	0.0161523
675.646	0.0161363
675.724	0.0160641
675.802	0.0160051
675.880	0.0160095
675.958	0.0159901
676.036	0.0159333
676.114	0.0159982
676.192	0.0160419
676.271	0.0160461
676.349	0.0160999
676.427	0.0161638
676.505	0.0162059
676.583	0.0163288
676.661	0.0165101
676.739	0.0163204
676.817	0.0164660
676.896	0.0163907
676.974	0.0162569
677.052	0.0162145
677.130	0.0161946
677.208	0.0160495
677.286	0.0160046
677.364	0.0159862
677.442	0.0157307
677.521	0.0158041
677.599	0.0157339
677.677	0.0157059
677.755	0.0157677
677.833	0.0159943
677.911	0.0160350
677.989	0.0161765
678.067	0.0165247
678.146	0.0168026
678.224	0.0167735
678.302	0.0167091
678.380	0.0165424
678.458	0.0167123
678.536	0.0165762
678.614	0.0162794
678.692	0.0160649
678.771	0.0158628
678.849	0.0156342
678.927	0.0156648
679.005	0.0155575
679.083	0.0154186
679.161	0.0155135
679.239	0.0156458
679.317	0.0158340
679.396	0.0160699
679.474	0.0163755
679.552	0.0164919
679.630	0.0165506
679.708	0.0167036
679.786	0.0169229
679.864	0.0168351
679.942	0.0165884
680.021	0.0163951
680.099	0.0163990
680.177	0.0161565
680.255	0.0159093
680.333	0.0156361
680.411	0.0155440
680.489	0.0154674
680.567	0.0155741
680.646	0.0155947
680.724	0.0156279
680.802	0.0158994
680.880	0.0159137
680.958	0.0160974
681.036	0.0160857
681.114	0.0161511
681.192	0.0164798
681.271	0.0164158
681.349	0.0164285
681.427	0.0166338
681.505	0.0165130
681.583	0.0164930
681.661	0.0165402
681.739	0.0161551
681.817	0.0162128
681.896	0.0160602
681.974	0.0159968
682.052	0.0158041
682.130	0.0156758
682.208	0.0157676
682.286	0.0157597
682.364	0.0156945
682.442	0.0159724
682.521	0.0159953
682.599	0.0159259
682.677	0.0162363
682.755	0.0162771
682.833	0.0163905
682.911	0.0164467
682.989	0.0166127
683.067	0.0165763
683.146	0.0164553
683.224	0.0163850
683.302	0.0162809
683.380	0.0160593
683.458	0.0161747
683.536	0.0160129
683.614	0.0159873
683.692	0.0160366
683.771	0.0160365
683.849	0.0161333
683.927	0.0160694
684.005	0.0161337
684.083	0.0159692
684.161	0.0160897
684.239	0.0160041
684.317	0.0161205
684.396	0.0160210
684.474	0.0161082
684.552	0.0160106
684.630	0.0160633
684.708	0.0161085
684.786	0.0162412
684.864	0.0161153
684.942	0.0160613
685.021	0.0161981
685.099	0.0163797
685.177	0.0164384
685.255	0.0163442
685.333	0.0162748
685.411	0.0163572
685.489	0.0163491
685.567	0.0160531
685.646	0.0159419
685.724	0.0159333
685.802	0.0159896
685.880	0.0157766
685.958	0.0159391
686.036	0.0159576
686.114	0.0158920
686.192	0.0159187
686.271	0.0159779
686.349	0.0162645
686.427	0.0163105
686.505	0.0164816
686.583	0.0165761
686.661	0.0165228
686.739	0.0165348
686.817	0.0164632
686.896	0.0164008
686.974	0.0163242
687.052	0.0161816
687.130	0.0160666
687.208	0.0159027
687.286	0.0158075
687.364	0.0159078
687.442	0.0158298
687.521	0.0157495
687.599	0.0157375
687.677	0.0159543
687.755	0.0160894
687.833	0.0162550
687.911	0.0163003
687.989	0.0164563
688.067	0.0163532
688.146	0.0163177
688.224	0.0163836
688.302	0.0163118
688.380	0.0161623
688.458	0.0160151
688.536	0.0160450
688.614	0.0160181
688.692	0.0159899
688.771	0.0159716
688.849	0.0158722
688.927	0.0158324
689.005	0.0160363
689.083	0.0160343
689.161	0.0160892
689.239	0.0160807
689.317	0.0161916
689.396	0.0162231
689.474	0.0162030
689.552	0.0162203
689.630	0.0160596
689.708	0.0161273
689.786	0.0160914
689.864	0.0161270
689.942	0.0161668
690.021	0.0159953
690.099	0.0161342
690.177	0.0161745
690.255	0.0162463
690.333	0.0161346
690.411	0.0161143
690.489	0.0161901
690.567	0.0160716
690.646	0.0161252
690.724	0.0161676
690.802	0.0161014
690.880	0.0159746
690.958	0.0160346
691.036	0.0159270
691.114	0.0159268
691.192	0.0157655
691.271	0.0158817
691.349	0.0157780
691.427	0.0159419
691.505	0.0159037
691.583	0.0159444
691.661	0.0160700
691.739	0.0160158
691.817	0.0163176
691.896	0.0163740
691.974	0.0163280
692.052	0.0163346
692.130	0.0164281
692.208	0.0164822
692.286	0.0162473
692.364	0.0161536
692.442	0.0160752
692.521	0.0160704
692.599	0.0159945
692.677	0.0159344
692.755	0.0159897
692.833	0.0160349
692.911	0.0159983
692.989	0.0160002
693.067	0.0161367
693.146	0.0162450
693.224	0.0162398
693.302	0.0163150
693.380	0.0163525
693.458	0.0165984
693.536	0.0164671
693.614	0.0162884
693.692	0.0162936
693.771	0.0163318
693.849	0.0161177
693.927	0.0160721
694.005	0.0159202
694.083	0.0159000
694.161	0.0157429
694.239	0.0157294
694.317	0.0155912
694.396	0.0156718
694.474	0.0157755
694.552	0.0158163
694.630	0.0158279
694.708	0.0158349
694.786	0.0159418
694.864	0.0160771
694.942	0.0161130
695.021	0.0161399
695.099	0.0161089
695.177	0.0160120
695.255	0.0159835
695.333	0.0160760
695.411	0.0160606
695.489	0.0159612
695.567	0.0159890
695.646	0.0159567
695.724	0.0160488
695.802	0.0160968
695.880	0.0160307
695.958	0.0160492
696.036	0.0160857
696.114	0.0162571
696.192	0.0161829
696.271	0.0163747
696.349	0.0164433
696.427	0.0164124
696.505	0.0163613
696.583	0.0164840
696.661	0.0163886
696.739	0.0163012
696.817	0.0162734
696.896	0.0162660
696.974	0.0162322
697.052	0.0161449
697.130	0.0162847
697.208	0.0161355
697.286	0.0160376
697.364	0.0162204
697.442	0.0162317
697.521	0.0161981
697.599	0.0163623
697.677	0.0163619
697.755	0.0162894
697.833	0.0162556
697.911	0.0162556
697.989	0.0162393
698.067	0.0162349
698.146	0.0163167
698.224	0.0162626
698.302	0.0162535
698.380	0.0161493
698.458	0.0161794
698.536	0.0161647
698.614	0.0161187
698.692	0.0160056
698.771	0.0160220
698.849	0.0158060
698.927	0.0159960
699.005	0.0157538
699.083	0.0158240
699.161	0.0157462
699.239	0.0156181
699.317	0.0153902
699.396	0.0153258
699.474	0.0153952
699.552	0.0155824
699.630	0.0154313
699.708	0.0153096
699.786	0.0154734
699.864	0.0155138
699.942	0.0156246
700.021	0.0156364
700.099	0.0158790
700.177	0.0160934
700.255	0.0163339
700.333	0.0164547
700.411	0.0166259
700.489	0.0168134
700.567	0.0168900
700.646	0.0168579
700.724	0.0169344
700.802	0.0169794
700.880	0.0170486
700.958	0.0170254
701.036	0.0168558
701.114	0.0167648
701.192	0.0168597
701.271	0.0165471
701.349	0.0166471
701.427	0.0165384
701.505	0.0164075
701.583	0.0164700
701.661	0.0162622
701.739	0.0161021
701.817	0.0161649
701.896	0.0160081
701.974	0.0160661
702.052	0.0160488
702.130	0.0160548
702.208	0.0161402
702.286	0.0160425
702.364	0.0160942
702.442	0.0160581
702.521	0.0158542
702.599	0.0159208
702.677	0.0160500
702.755	0.0159303
702.833	0.0160793
702.911	0.0160078
702.989	0.0159071
703.067	0.0157680
703.146	0.0159646
703.224	0.0159511
703.302	0.0158490
703.380	0.0158131
703.458	0.0157810
703.536	0.0158524
703.614	0.0158456
703.692	0.0159184
703.771	0.0158363
703.849	0.0159547
703.927	0.0161064
704.005	0.0161645
704.083	0.0163867
704.161	0.0166147
704.239	0.0164646
704.317	0.0165577
704.396	0.0166824
704.474	0.0165212
704.552	0.0166315
704.630	0.0166125
704.708	0.0165028
704.786	0.0162093
704.864	0.0160703
704.942	0.0158873
705.021	0.0157885
705.099	0.0155243
705.177	0.0152987
705.255	0.0151970
705.333	0.0150488
705.411	0.0148849
705.489	0.0149097
705.567	0.0148705
705.646	0.0147531
705.724	0.0149010
705.802	0.0150062
705.880	0.0150793
705.958	0.0154153
706.036	0.0156564
706.114	0.0158639
706.192	0.0162749
706.271	0.0166852
706.349	0.0168659
706.427	0.0172758
706.505	0.0175559
706.583	0.0177814
706.661	0.0178830
706.739	0.0178759
706.817	0.0178332
706.896	0.0179902
706.974	0.0177843
707.052	0.0174967
707.130	0.0172062
707.208	0.0170238
707.286	0.0166722
707.364	0.0163895
707.442	0.0161572
707.521	0.0158610
707.599	0.0158353
707.677	0.0157323
707.755	0.0156660
707.833	0.0157362
707.911	0.0158610
707.989	0.0160001
708.067	0.0161796
708.146	0.0161148
708.224	0.0163702
708.302	0.0164253
708.380	0.0163004
708.458	0.0164317
708.536	0.0164195
708.614	0.0163440
708.692	0.0164591
708.771	0.0162336
708.849	0.0161083
708.927	0.0158967
709.005	0.0157968
709.083	0.0156156
709.161	0.0153825
709.239	0.0152866
709.317	0.0150507
709.396	0.0147913
709.474	0.0147524
709.552	0.0145569
709.630	0.0144930
709.708	0.0143356
709.786	0.0144005
709.864	0.0144019
709.942	0.0144187
710.021	0.0145122
710.099	0.0146046
710.177	0.0147996
710.255	0.0150428
710.333	0.0151617
710.411	0.0155167
710.489	0.0158130
710.567	0.0160036
710.646	0.0161964
710.724	0.0165984
710.802	0.0169424
710.880	0.0170862
710.958	0.0174498
711.036	0.0175607
711.114	0.0175876
711.192	0.0176801
711.271	0.0176946
711.349	0.0177243
711.427	0.0175420
711.505	0.0171672
711.583	0.0168724
711.661	0.0166335
711.739	0.0162601
711.817	0.0158289
711.896	0.0155249
711.974	0.0152038
712.052	0.0149837
712.130	0.0146150
712.208	0.0145702
712.286	0.0146106
712.364	0.0146339
712.442	0.0147950
712.521	0.0148429
712.599	0.0151883
712.677	0.0154420
712.755	0.0158929
712.833	0.0164211
712.911	0.0167468
712.989	0.0172449
713.067	0.0177052
713.146	0.0182540
713.224	0.0187538
713.302	0.0191222
713.380	0.0192030
713.458	0.0195666
713.536	0.0195642
713.614	0.0194981
713.692	0.0193361
713.771	0.0190511
713.849	0.0187099
713.927	0.0183297
714.005	0.0178911
714.083	0.0175539
714.161	0.0169517
714.239	0.0166055
714.317	0.0161935
714.396	0.0158109
714.474	0.0153028
714.552	0.0149496
714.630	0.0148116
714.708	0.0144366
714.786	0.0140356
714.864	0.0138686
714.942	0.0136224
715.021	0.0133807
715.099	0.0131506
715.177	0.0128780
715.255	0.0126684
715.333	0.0124980
715.411	0.0123565
715.489	0.0122638
715.567	0.0122892
715.646	0.0124776
715.724	0.0125688
715.802	0.0126456
715.880	0.0129349
715.958	0.0133558
716.036	0.0138370
716.114	0.0140376
716.192	0.0144093
716.271	0.0149223
716.349	0.0154253
716.427	0.0158678
716.505	0.0166101
716.583	0.0171216
716.661	0.0176187
716.739	0.0181656
716.817	0.0186951
716.896	0.0189363
716.974	0.0191640
717.052	0.0192776
717.130	0.0195802
717.208	0.0193937
717.286	0.0192602
717.364	0.0188737
717.442	0.0185812
717.521	0.0181670
717.599	0.0176748
717.677	0.0171822
717.755	0.0169656
717.833	0.0165294
717.911	0.0161761
717.989	0.0160419
718.067	0.0158418
718.146	0.0156453
718.224	0.0155991
718.302	0.0154642
718.380	0.0154366
718.458	0.0156277
718.536	0.0157159
718.614	0.0156606
718.692	0.0159418
718.771	0.0160767
718.849	0.0164568
718.927	0.0167580
719.005	0.0171657
719.083	0.0176630
719.161	0.0180029
719.239	0.0185030
719.317	0.0188800
719.396	0.0192068
719.474	0.0193827
719.552	0.0196324
719.630	0.0194609
719.708	0.0194120
719.786	0.0192838
719.864	0.0189550
719.942	0.0183168
720.021	0.0178418
720.099	0.0172025
720.177	0.0165282
720.255	0.0158709
720.333	0.0151861
720.411	0.0145995
720.489	0.0141885
720.567	0.0137174
720.646	0.0134771
720.724	0.0130688
720.802	0.0129368
720.880	0.0126939
720.958	0.0126895
721.036	0.0125391
721.114	0.0124235
721.192	0.0124902
721.271	0.0124832
721.349	0.0125510
721.427	0.0124429
721.505	0.0126136
721.583	0.0127797
721.661	0.0129341
721.739	0.0130111
721.817	0.0130423
721.896	0.0133011
721.974	0.0136398
722.052	0.0137737
722.130	0.0140190
722.208	0.0142387
722.286	0.0146257
722.364	0.0150316
722.442	0.0154971
722.521	0.0159308
722.599	0.0165043
722.677	0.0169862
722.755	0.0176864
722.833	0.0181711
722.911	0.0187310
722.989	0.0191074
723.067	0.0194897
723.146	0.0196789
723.224	0.0198245
723.302	0.0197072
723.380	0.0197190
723.458	0.0192932
723.536	0.0189255
723.614	0.0184654
723.692	0.0179365
723.771	0.0171749
723.849	0.0167705
723.927	0.0162944
724.005	0.0158335
724.083	0.0151837
724.161	0.0149339
724.239	0.0147099
724.317	0.0145055
724.396	0.0145219
724.474	0.0147063
724.552	0.0147276
724.630	0.0149892
724.708	0.0153625
724.786	0.0157166
724.864	0.0163172
724.942	0.0171479
725.021	0.0177390
725.099	0.0185705
725.177	0.0191787
725.255	0.0199700
725.333	0.0206579
725.411	0.0212039
725.489	0.0216154
725.567	0.0218328
725.646	0.0219369
725.724	0.0218884
725.802	0.0216354
725.880	0.0210905
725.958	0.0205370
726.036	0.0198794
726.114	0.0191356
726.192	0.0180912
726.271	0.0173015
726.349	0.0165498
726.427	0.0156546
726.505	0.0150626
726.583	0.0143568
726.661	0.0136535
726.739	0.0131619
726.817	0.0126871
726.896	0.0122128
726.974	0.0118503
727.052	0.0113250
727.130	0.0111180
727.208	0.0108261
727.286	0.0106362
727.364	0.0104814
727.442	0.0104668
727.521	0.0102258
727.599	0.0101983
727.677	0.0101960
727.755	0.0101761
727.833	0.0103807
727.911	0.0107060
727.989	0.0110352
728.067	0.0114347
728.146	0.0118802
728.224	0.0127179
728.302	0.0134093
728.380	0.0140589
728.458	0.0148064
728.536	0.0154601
728.614	0.0161271
728.692	0.0168711
728.771	0.0174453
728.849	0.0176610
728.927	0.0178669
729.005	0.0176322
729.083	0.0175762
729.161	0.0172431
729.239	0.0166172
729.317	0.0160301
729.396	0.0156046
729.474	0.0151642
729.552	0.0148125
729.630	0.0145914
729.708	0.0147282
729.786	0.0150848
729.864	0.0153773
729.942	0.0161239
730.021	0.0171052
730.099	0.0180428
730.177	0.0190154
730.255	0.0200500
730.333	0.0210345
730.411	0.0219655
730.489	0.0226738
730.567	0.0233458
730.646	0.0239159
730.724	0.0242281
730.802	0.0243620
730.880	0.0245303
730.958	0.0246581
731.036	0.0246275
731.114	0.0244159
731.192	0.0240204
731.271	0.0236915
731.349	0.0231515
731.427	0.0224728
731.505	0.0218163
731.583	0.0210207
731.661	0.0199645
731.739	0.0189085
731.817	0.0180010
731.896	0.0168196
731.974	0.0157662
732.052	0.0146492
732.130	0.0135146
732.208	0.0126099
732.286	0.0117783
732.364	0.0108418
732.442	0.0102994
732.521	0.00963768
732.599	0.00911438
732.677	0.00882393
732.755	0.00855370
732.833	0.00821205
732.911	0.00823975
732.989	0.00828171
733.067	0.00833946
733.146	0.00836998
733.224	0.00852669
733.302	0.00879616
733.380	0.00927414
733.458	0.00950401
733.536	0.0101368
733.614	0.0107198
733.692	0.0114273
733.771	0.0120387
733.849	0.0126847
733.927	0.0133309
734.005	0.0139361
734.083	0.0144730
734.161	0.0150146
734.239	0.0153260
734.317	0.0154902
734.396	0.0157499
734.474	0.0157886
734.552	0.0158751
734.630	0.0158997
734.708	0.0158423
734.786	0.0158044
734.864	0.0155164
734.942	0.0158678
735.021	0.0159058
735.099	0.0160444
735.177	0.0165875
735.255	0.0170509
735.333	0.0175401
735.411	0.0182471
735.489	0.0188590
735.567	0.0197465
735.646	0.0205448
735.724	0.0211910
735.802	0.0218539
735.880	0.0225697
735.958	0.0229762
736.036	0.0233183
736.114	0.0236250
736.192	0.0237582
736.271	0.0236568
736.349	0.0235503
736.427	0.0233518
736.505	0.0229026
736.583	0.0225703
736.661	0.0221410
736.739	0.0216907
736.817	0.0212949
736.896	0.0206380
736.974	0.0200480
737.052	0.0193964
737.130	0.0186808
737.208	0.0179120
737.286	0.0174238
737.364	0.0167382
737.442	0.0159484
737.521	0.0151005
737.599	0.0145261
737.677	0.0140965
737.755	0.0136639
737.833	0.0129777
737.911	0.0126289
737.989	0.0123284
738.067	0.0119939
738.146	0.0118376
738.224	0.0114951
738.302	0.0112307
738.380	0.0110376
738.458	0.0109663
738.536	0.0108060
738.614	0.0107643
738.692	0.0106538
738.771	0.0107434
738.849	0.0107806
738.927	0.0110045
739.005	0.0112380
739.083	0.0115966
739.161	0.0120705
739.239	0.0123670
739.317	0.0129890
739.396	0.0134104
739.474	0.0137829
739.552	0.0140562
739.630	0.0145400
739.708	0.0146640
739.786	0.0148099
739.864	0.0147298
739.942	0.0148171
740.021	0.0147665
740.099	0.0146021
740.177	0.0145879
740.255	0.0147078
740.333	0.0148227
740.411	0.0149219
740.489	0.0152840
740.567	0.0155730
740.646	0.0161620
740.724	0.0167100
740.802	0.0173481
740.880	0.0180909
740.958	0.0186855
741.036	0.0194036
741.114	0.0198281
741.192	0.0203950
741.271	0.0208401
741.349	0.0211322
741.427	0.0212995
741.505	0.0214761
741.583	0.0213189
741.661	0.0213471
741.739	0.0211205
741.817	0.0208016
741.896	0.0205252
741.974	0.0202936
742.052	0.0199242
742.130	0.0197799
742.208	0.0194321
742.286	0.0189307
742.364	0.0187299
742.442	0.0185867
742.521	0.0183873
742.599	0.0179074
742.677	0.0177380
742.755	0.0174345
742.833	0.0170946
742.911	0.0166323
742.989	0.0161273
743.067	0.0158890
743.146	0.0155598
743.224	0.0152450
743.302	0.0147878
743.380	0.0143401
743.458	0.0140324
743.536	0.0136159
743.614	0.0134159
743.692	0.0131704
743.771	0.0129664
743.849	0.0127457
743.927	0.0126600
744.005	0.0126324
744.083	0.0124905
744.161	0.0124072
744.239	0.0124011
744.317	0.0124982
744.396	0.0124504
744.474	0.0124543
744.552	0.0126576
744.630	0.0128776
744.708	0.0130705
744.786	0.0132207
744.864	0.0136446
744.942	0.0138010
745.021	0.0139941
745.099	0.0142679
745.177	0.0144329
745.255	0.0148303
745.333	0.0151305
745.411	0.0153835
745.489	0.0156472
745.567	0.0158571
745.646	0.0163451
745.724	0.0165939
745.802	0.0169825
745.880	0.0172828
745.958	0.0176881
746.036	0.0179874
746.114	0.0184216
746.192	0.0188869
746.271	0.0191856
746.349	0.0194466
746.427	0.0196481
746.505	0.0199697
746.583	0.0202065
746.661	0.0200114
746.739	0.0199604
746.817	0.0196571
746.896	0.0194149
746.974	0.0191522
747.052	0.0186903
747.130	0.0181332
747.208	0.0177917
747.286	0.0174165
747.364	0.0167472
747.442	0.0162668
747.521	0.0161845
747.599	0.0158521
747.677	0.0155723
747.755	0.0154359
747.833	0.0153246
747.911	0.0152997
747.989	0.0153310
748.067	0.0154137
748.146	0.0155882
748.224	0.0156190
748.302	0.0158118
748.380	0.0156258
748.458	0.0159020
748.536	0.0159383
748.614	0.0158942
748.692	0.0158056
748.771	0.0157241
748.849	0.0158810
748.927	0.0156881
749.005	0.0155844
749.083	0.0154823
749.161	0.0153826
749.239	0.0150704
749.317	0.0148096
749.396	0.0147587
749.474	0.0147114
749.552	0.0144596
749.630	0.0144686
749.708	0.0143957
749.786	0.0141373
749.864	0.0142916
749.942	0.0141601
750.021	0.0141108
750.099	0.0142633
750.177	0.0142792
750.255	0.0143121
750.333	0.0142482
750.411	0.0144173
750.489	0.0143980
750.567	0.0145928
750.646	0.0147073
750.724	0.0149528
750.802	0.0151649
750.880	0.0154801
750.958	0.0157222
751.036	0.0161202
751.114	0.0165836
751.192	0.0170395
751.271	0.0174369
751.349	0.0177516
751.427	0.0179932
751.505	0.0183652
751.583	0.0184589
751.661	0.0187215
751.739	0.0190093
751.817	0.0189920
751.896	0.0190054
751.974	0.0187881
752.052	0.0188298
752.130	0.0186620
752.208	0.0185712
752.286	0.0181854
752.364	0.0177922
752.442	0.0174612
752.521	0.0171986
752.599	0.0168227
752.677	0.0165938
752.755	0.0163076
752.833	0.0158800
752.911	0.0157412
752.989	0.0155047
753.067	0.0153783
753.146	0.0153694
753.224	0.0151823
753.302	0.0151078
753.380	0.0150225
753.458	0.0151816
753.536	0.0154949
753.614	0.0155910
753.692	0.0156372
753.771	0.0158049
753.849	0.0160069
753.927	0.0161713
754.005	0.0164138
754.083	0.0164459
754.161	0.0166375
754.239	0.0168265
754.317	0.0168935
754.396	0.0169299
754.474	0.0171161
754.552	0.0168878
754.630	0.0169745
754.708	0.0169436
754.786	0.0169354
754.864	0.0167748
754.942	0.0165185
755.021	0.0164841
755.099	0.0161839
755.177	0.0157952
755.255	0.0156614
755.333	0.0151905
755.411	0.0147282
755.489	0.0142833
755.567	0.0140495
755.646	0.0138077
755.724	0.0135183
755.802	0.0131647
755.880	0.0131731
755.958	0.0129351
756.036	0.0128513
756.114	0.0131149
756.192	0.0131058
756.271	0.0133944
756.349	0.0136377
756.427	0.0138087
756.505	0.0142036
756.583	0.0145580
756.661	0.0150008
756.739	0.0153656
756.817	0.0158119
756.896	0.0161280
756.974	0.0166731
757.052	0.0170591
757.130	0.0172414
757.208	0.0176860
757.286	0.0179385
757.364	0.0180823
757.442	0.0183510
757.521	0.0185292
757.599	0.0186585
757.677	0.0186205
757.755	0.0187981
757.833	0.0187473
757.911	0.0185715
757.989	0.0185492
758.067	0.0184155
758.146	0.0181983
758.224	0.0179612
758.302	0.0177061
758.380	0.0176263
758.458	0.0173276
758.536	0.0170255
758.614	0.0166742
758.692	0.0165224
758.771	0.0160371
758.849	0.0159261
758.927	0.0155401
759.005	0.0153349
759.083	0.0151917
759.161	0.0150471
759.239	0.0150134
759.317	0.0150057
759.396	0.0151786
759.474	0.0152348
759.552	0.0153542
759.630	0.0155158
759.708	0.0158342
759.786	0.0160255
759.864	0.0164123
759.942	0.0165430
760.021	0.0167935
760.099	0.0170486
760.177	0.0172076
760.255	0.0171969
760.333	0.0172147
760.411	0.0171667
760.489	0.0171280
760.567	0.0170097
760.646	0.0167717
760.724	0.0164079
760.802	0.0162150
760.880	0.0159846
760.958	0.0156982
761.036	0.0154433
761.114	0.0151944
761.192	0.0149284
761.271	0.0147618
761.349	0.0146415
761.427	0.0146837
761.505	0.0144972
761.583	0.0143648
761.661	0.0145490
761.739	0.0144840
761.817	0.0144930
761.896	0.0145765
761.974	0.0146598
762.052	0.0146873
762.130	0.0148335
762.208	0.0149129
762.286	0.0152648
762.364	0.0154993
762.442	0.0155805
762.521	0.0156813
762.599	0.0159065
762.677	0.0162845
762.755	0.0165255
762.833	0.0167178
762.911	0.0168568
762.989	0.0171308
763.067	0.0171689
763.146	0.0173615
763.224	0.0173746
763.302	0.0175479
763.380	0.0177232
763.458	0.0175378
763.536	0.0175389
763.614	0.0174745
763.692	0.0171098
763.771	0.0172037
763.849	0.0168970
763.927	0.0165372
764.005	0.0164046
764.083	0.0162647
764.161	0.0159879
764.239	0.0156760
764.317	0.0154310
764.396	0.0152824
764.474	0.0151022
764.552	0.0148273
764.630	0.0149042
764.708	0.0148466
764.786	0.0148040
764.864	0.0148730
764.942	0.0150644
765.021	0.0154377
765.099	0.0154483
765.177	0.0158817
765.255	0.0160107
765.333	0.0161842
765.411	0.0165909
765.489	0.0167072
765.567	0.0168710
765.646	0.0170901
765.724	0.0171298
765.802	0.0173042
765.880	0.0174529
765.958	0.0173903
766.036	0.0173872
766.114	0.0173031
766.192	0.0172250
766.271	0.0171064
766.349	0.0169765
766.427	0.0168399
766.505	0.0168201
766.583	0.0167209
766.661	0.0165835
766.739	0.0163472
766.817	0.0161829
766.896	0.0162318
766.974	0.0160802
767.052	0.0159457
767.130	0.0159658
767.208	0.0158142
767.286	0.0155589
767.364	0.0156860
767.442	0.0156933
767.521	0.0156062
767.599	0.0154840
767.677	0.0155238
767.755	0.0156134
767.833	0.0156477
767.911	0.0155180
767.989	0.0154329
768.067	0.0155680
768.146	0.0155515
768.224	0.0155589
768.302	0.0155649
768.380	0.0156277
768.458	0.0156508
768.536	0.0156856
768.614	0.0158083
768.692	0.0158463
768.771	0.0159216
768.849	0.0159864
768.927	0.0160841
769.005	0.0162479
769.083	0.0161972
769.161	0.0163656
769.239	0.0165225
769.317	0.0164278
769.396	0.0163789
769.474	0.0163560
769.552	0.0163471
769.630	0.0161523
769.708	0.0159990
769.786	0.0160311
769.864	0.0157327
769.942	0.0157423
770.021	0.0155921
770.099	0.0155029
770.177	0.0154937
770.255	0.0156042
770.333	0.0154573
770.411	0.0156183
770.489	0.0156779
770.567	0.0158654
770.646	0.0160065
770.724	0.0159911
770.802	0.0160738
770.880	0.0163772
770.958	0.0163688
771.036	0.0163945
771.114	0.0165144
771.192	0.0164500
771.271	0.0164723
771.349	0.0162834
771.427	0.0164104
771.505	0.0163878
771.583	0.0162964
771.661	0.0163229
771.739	0.0163200
771.817	0.0162331
771.896	0.0161395
771.974	0.0162359
772.052	0.0162282
772.130	0.0161079
772.208	0.0161578
772.286	0.0162094
772.364	0.0162430
772.442	0.0161253
772.521	0.0161627
772.599	0.0161788
772.677	0.0161163
772.755	0.0159619
772.833	0.0159852
772.911	0.0159010
772.989	0.0158348
773.067	0.0157629
773.146	0.0159138
773.224	0.0156917
773.302	0.0155507
773.380	0.0155618
773.458	0.0155354
773.536	0.0157195
773.614	0.0156827
773.692	0.0156997
773.771	0.0156892
773.849	0.0158083
773.927	0.0159272
774.005	0.0160030
774.083	0.0160901
774.161	0.0161208
774.239	0.0162875
774.317	0.0163901
774.396	0.0165923
774.474	0.0164735
774.552	0.0166068
774.630	0.0167030
774.708	0.0166853
774.786	0.0166858
774.864	0.0167313
774.942	0.0166595
775.021	0.0166451
775.099	0.0165117
775.177	0.0164490
775.255	0.0164957
775.333	0.0164268
775.411	0.0163483
775.489	0.0164249
775.567	0.0162648
775.646	0.0162713
775.724	0.0162984
775.802	0.0161620
775.880	0.0161591
775.958	0.0161745
776.036	0.0160612
776.114	0.0161541
776.192	0.0160976
776.271	0.0160939
776.349	0.0160825
776.427	0.0158396
776.505	0.0158060
776.583	0.0159650
776.661	0.0155685
776.739	0.0154874
776.817	0.0154359
776.896	0.0154736
776.974	0.0153671
777.052	0.0154245
777.130	0.0153983
777.208	0.0153490
777.286	0.0153336
777.364	0.0154156
777.442	0.0155501
777.521	0.0155834
777.599	0.0157606
777.677	0.0159791
777.755	0.0159822
777.833	0.0160384
777.911	0.0162282
777.989	0.0162395
778.067	0.0163591
778.146	0.0164754
778.224	0.0165813
778.302	0.0167627
778.380	0.0168053
778.458	0.0168227
778.536	0.0167394
778.614	0.0166191
778.692	0.0165871
778.771	0.0164169
778.849	0.0164251
778.927	0.0163454
779.005	0.0163058
779.083	0.0161483
779.161	0.0159801
779.239	0.0160344
779.317	0.0158932
779.396	0.0158006
779.474	0.0156409
779.552	0.0155669
779.630	0.0154755
779.708	0.0156292
779.786	0.0156747
779.864	0.0154987
779.942	0.0156322
780.021	0.0156857
780.099	0.0157420
780.177	0.0158065
780.255	0.0157900
780.333	0.0159261
780.411	0.0158511
780.489	0.0159782
780.567	0.0161374
780.646	0.0162060
780.724	0.0161820
780.802	0.0163681
780.880	0.0163222
780.958	0.0163568
781.036	0.0165141
781.114	0.0167113
781.192	0.0166348
781.271	0.0168949
781.349	0.0168610
781.427	0.0170289
781.505	0.0169936
781.583	0.0169048
781.661	0.0169891
781.739	0.0169481
781.817	0.0167345
781.896	0.0168184
781.974	0.0167589
782.052	0.0165546
782.130	0.0166129
782.208	0.0164245
782.286	0.0161607
782.364	0.0161850
782.442	0.0160402
782.521	0.0160059
782.599	0.0157275
782.677	0.0158135
782.755	0.0157095
782.833	0.0157923
782.911	0.0158557
782.989	0.0156383
783.067	0.0156445
783.146	0.0157171
783.224	0.0158380
783.302	0.0157485
783.380	0.0158998
783.458	0.0158247
783.536	0.0159499
783.614	0.0158854
783.692	0.0159017
783.771	0.0159094
783.849	0.0159853
783.927	0.0159206
784.005	0.0160068
784.083	0.0159805
784.161	0.0160259
784.239	0.0160420
784.317	0.0160297
784.396	0.0161999
784.474	0.0161393
784.552	0.0161031
784.630	0.0161141
784.708	0.0161807
784.786	0.0160989
784.864	0.0160860
784.942	0.0160381
785.021	0.0162363
785.099	0.0160294
785.177	0.0159811
785.255	0.0161160
785.333	0.0159300
785.411	0.0158784
785.489	0.0159273
785.567	0.0159470
785.646	0.0159151
785.724	0.0157603
785.802	0.0158408
785.880	0.0157392
785.958	0.0158527
786.036	0.0159003
786.114	0.0159045
786.192	0.0159314
786.271	0.0160233
786.349	0.0160638
786.427	0.0161129
786.505	0.0163419
786.583	0.0163721
786.661	0.0164876
786.739	0.0164660
786.817	0.0165712
786.896	0.0165688
786.974	0.0166881
787.052	0.0166442
787.130	0.0167510
787.208	0.0165952
787.286	0.0165135
787.364	0.0164335
787.442	0.0163036
787.521	0.0162221
787.599	0.0161095
787.677	0.0160475
787.755	0.0159669
787.833	0.0159595
787.911	0.0158784
787.989	0.0159573
788.067	0.0158331
788.146	0.0158784
788.224	0.0157478
788.302	0.0158582
788.380	0.0159149
788.458	0.0160580
788.536	0.0160154
788.614	0.0159641
788.692	0.0159959
788.771	0.0161286
788.849	0.0160973
788.927	0.0159597
789.005	0.0161528
789.083	0.0162067
789.161	0.0161472
789.239	0.0161367
789.317	0.0162065
789.396	0.0161633
789.474	0.0161889
789.552	0.0161632
789.630	0.0161251
789.708	0.0163385
789.786	0.0163781
789.864	0.0163076
789.942	0.0162240
790.021	0.0163447
790.099	0.0163746
790.177	0.0162395
790.255	0.0163195
790.333	0.0164584
790.411	0.0163532
790.489	0.0165080
790.567	0.0163165
790.646	0.0163534
790.724	0.0164032
790.802	0.0163276
790.880	0.0162299
790.958	0.0161657
791.036	0.0159995
791.114	0.0160852
791.192	0.0160592
791.271	0.0158456
791.349	0.0157571
791.427	0.0157230
791.505	0.0157073
791.583	0.0156419
791.661	0.0157619
791.739	0.0154841
791.817	0.0156574
791.896	0.0157751
791.974	0.0159028
792.052	0.0158687
792.130	0.0161372
792.208	0.0159824
792.286	0.0159820
792.364	0.0161553
792.442	0.0163083
792.521	0.0161831
792.599	0.0163194
792.677	0.0161636
792.755	0.0162599
792.833	0.0163085
792.911	0.0162453
792.989	0.0161351
793.067	0.0161210
793.146	0.0160590
793.224	0.0161833
793.302	0.0159638
793.380	0.0158147
793.458	0.0159739
793.536	0.0159361
793.614	0.0160062
793.692	0.0160302
793.771	0.0158746
793.849	0.0159142
793.927	0.0159461
794.005	0.0159896
794.083	0.0159180
794.161	0.0159998
794.239	0.0159761
794.317	0.0160017
794.396	0.0160380
794.474	0.0161160
794.552	0.0162080
794.630	0.0160978
794.708	0.0161855
794.786	0.0162027
794.864	0.0161338
794.942	0.0160478
795.021	0.0161660
795.099	0.0161734
795.177	0.0161777
795.255	0.0160690
795.333	0.0161698
795.411	0.0161378
795.489	0.0161790
795.567	0.0162185
795.646	0.0161056
795.724	0.0162101
795.802	0.0161326
795.880	0.0164782
795.958	0.0163018
796.036	0.0164459
796.114	0.0163272
796.192	0.0162924
796.271	0.0162928
796.349	0.0162785
796.427	0.0163081
796.505	0.0161280
796.583	0.0161880
796.661	0.0159248
796.739	0.0160726
796.817	0.0158791
796.896	0.0158181
796.974	0.0159724
797.052	0.0157667
797.130	0.0158214
797.208	0.0157793
797.286	0.0158736
797.364	0.0158887
797.442	0.0159834
797.521	0.0160801
797.599	0.0160645
797.677	0.0160768
797.755	0.0162814
797.833	0.0164339
797.911	0.0163388
797.989	0.0162788
798.067	0.0165589
798.146	0.0166225
798.224	0.0164854
798.302	0.0166053
798.380	0.0166841
798.458	0.0166602
798.536	0.0166193
798.614	0.0167323
798.692	0.0167368
798.771	0.0165964
798.849	0.0164196
798.927	0.0164317
799.005	0.0164214
799.083	0.0163994
799.161	0.0163632
799.239	0.0161838
799.317	0.0161626
799.396	0.0159797
799.474	0.0160655
799.552	0.0157977
799.630	0.0157284
799.708	0.0156425
799.786	0.0155191
799.864	0.0156197
799.942	0.0154919
800.021	0.0154330
800.099	0.0152476
800.177	0.0153759
800.255	0.0153912
800.333	0.0150906
800.411	0.0151975
800.489	0.0153103
800.567	0.0154369
800.646	0.0153613
800.724	0.0155007
800.802	0.0155445
800.880	0.0156889
800.958	0.0157603
801.036	0.0159125
801.114	0.0161721
801.192	0.0161867
801.271	0.0161387
801.349	0.0163816
801.427	0.0165560
801.505	0.0165315
801.583	0.0165332
801.661	0.0165610
801.739	0.0166686
801.817	0.0166727
801.896	0.0165746
801.974	0.0165919
802.052	0.0165037
802.130	0.0164458
802.208	0.0164423
802.286	0.0164254
802.364	0.0162198
802.442	0.0162053
802.521	0.0161902
802.599	0.0161800
802.677	0.0160897
802.755	0.0161847
802.833	0.0162041
802.911	0.0161362
802.989	0.0158984
803.067	0.0160425
803.146	0.0159485
803.224	0.0160560
803.302	0.0160795
803.380	0.0160509
803.458	0.0158620
803.536	0.0159332
803.614	0.0161234
803.692	0.0161043
803.771	0.0161228
803.849	0.0161536
803.927	0.0162057
804.005	0.0162994
804.083	0.0164890
804.161	0.0164307
804.239	0.0164103
804.317	0.0164709
804.396	0.0166504
804.474	0.0165755
804.552	0.0165453
804.630	0.0164697
804.708	0.0164508
804.786	0.0163996
804.864	0.0164490
804.942	0.0165374
805.021	0.0164648
805.099	0.0163231
805.177	0.0163077
805.255	0.0160891
805.333	0.0160193
805.411	0.0159600
805.489	0.0157444
805.567	0.0157526
805.646	0.0156043
805.724	0.0155377
805.802	0.0155531
805.880	0.0155003
805.958	0.0156710
806.036	0.0154380
806.114	0.0154797
806.192	0.0156062
806.271	0.0155804
806.349	0.0156140
806.427	0.0156590
806.505	0.0158791
806.583	0.0159949
806.661	0.0159170
806.739	0.0162245
806.817	0.0162082
806.896	0.0163450
806.974	0.0163140
807.052	0.0163538
807.130	0.0163149
807.208	0.0164369
807.286	0.0164404
807.364	0.0164402
807.442	0.0164708
807.521	0.0163671
807.599	0.0162566
807.677	0.0162377
807.755	0.0161962
807.833	0.0163157
807.911	0.0162262
807.989	0.0161591
808.067	0.0160851
808.146	0.0160108
808.224	0.0158796
808.302	0.0157452
808.380	0.0157508
808.458	0.0158871
808.536	0.0158724
808.614	0.0157034
808.692	0.0157349
808.771	0.0158279
808.849	0.0158086
808.927	0.0157934
809.005	0.0158368
809.083	0.0160307
809.161	0.0162056
809.239	0.0160467
809.317	0.0160803
809.396	0.0162167
809.474	0.0162878
809.552	0.0163945
809.630	0.0164133
809.708	0.0164573
809.786	0.0165384
809.864	0.0165697
809.942	0.0165228
810.021	0.0165697
810.099	0.0166438
810.177	0.0164319
810.255	0.0165400
810.333	0.0165489
810.411	0.0165649
810.489	0.0166383
810.567	0.0165394
810.646	0.0164082
810.724	0.0163943
810.802	0.0163940
810.880	0.0162341
810.958	0.0161230
811.036	0.0160429
811.114	0.0160589
811.192	0.0159946
811.271	0.0158966
811.349	0.0158163
811.427	0.0157410
811.505	0.0157327
811.583	0.0156638
811.661	0.0156761
811.739	0.0156376
811.817	0.0155883
811.896	0.0156111
811.974	0.0156959
812.052	0.0157803
812.130	0.0157030
812.208	0.0156480
812.286	0.0158431
812.364	0.0157887
812.442	0.0158626
812.521	0.0159664
812.599	0.0159518
812.677	0.0159138
812.755	0.0158929
812.833	0.0159121
812.911	0.0158867
812.989	0.0159800
813.067	0.0160074
813.146	0.0160075
813.224	0.0160484
813.302	0.0159616
813.380	0.0160510
813.458	0.0159468
813.536	0.0159770
813.614	0.0160151
813.692	0.0158530
813.771	0.0158671
813.849	0.0158685
813.927	0.0159332
814.005	0.0158536
814.083	0.0158366
814.161	0.0159274
814.239	0.0159509
814.317	0.0158793
814.396	0.0160297
814.474	0.0160152
814.552	0.0160996
814.630	0.0164602
814.708	0.0164728
814.786	0.0167561
814.864	0.0166271
814.942	0.0167678
815.021	0.0168884
815.099	0.0168938
815.177	0.0170522
815.255	0.0169930
815.333	0.0169774
815.411	0.0172239
815.489	0.0169592
815.567	0.0170219
815.646	0.0169560
815.724	0.0167854
815.802	0.0167234
815.880	0.0167082
815.958	0.0166623
816.036	0.0165448
816.114	0.0163528
816.192	0.0162774
816.271	0.0163151
816.349	0.0160390
816.427	0.0161029
816.505	0.0159020
816.583	0.0157143
816.661	0.0156254
816.739	0.0156438
816.817	0.0155227
816.896	0.0154885
816.974	0.0153795
817.052	0.0154926
817.130	0.0155228
817.208	0.0154700
817.286	0.0155212
817.364	0.0156432
817.442	0.0155999
817.521	0.0155990
817.599	0.0157108
817.677	0.0157284
817.755	0.0157664
817.833	0.0157548
817.911	0.0156860
817.989	0.0156015
818.067	0.0157950
818.146	0.0158449
818.224	0.0157397
818.302	0.0156568
818.380	0.0158262
818.458	0.0158447
818.536	0.0158322
818.614	0.0158516
818.692	0.0159009
818.771	0.0158361
818.849	0.0158086
818.927	0.0158266
819.005	0.0159517
819.083	0.0158819
819.161	0.0159366
819.239	0.0162016
819.317	0.0160045
819.396	0.0161583
819.474	0.0162588
819.552	0.0161213
819.630	0.0162436
819.708	0.0162142
819.786	0.0164282
819.864	0.0163899
819.942	0.0163684
820.021	0.0163932
820.099	0.0165376
820.177	0.0165743
820.255	0.0165981
820.333	0.0166026
820.411	0.0166739
820.489	0.0166707
820.567	0.0168544
820.646	0.0167663
820.724	0.0168307
820.802	0.0169743
820.880	0.0169632
820.958	0.0168866
821.036	0.0169125
821.114	0.0170688
821.192	0.0169324
821.271	0.0167933
821.349	0.0168385
821.427	0.0167271
821.505	0.0165909
821.583	0.0166163
821.661	0.0165421
821.739	0.0163554
821.817	0.0163655
821.896	0.0163834
821.974	0.0160715
822.052	0.0161264
822.130	0.0160618
822.208	0.0158999
822.286	0.0160361
822.364	0.0158908
822.442	0.0158519
822.521	0.0157370
822.599	0.0157203
822.677	0.0157917
822.755	0.0158923
822.833	0.0159352
822.911	0.0158627
822.989	0.0159188
823.067	0.0159515
823.146	0.0159785
823.224	0.0160049
823.302	0.0158973
823.380	0.0158514
823.458	0.0159529
823.536	0.0159499
823.614	0.0158790
823.692	0.0159240
823.771	0.0159438
823.849	0.0159044
823.927	0.0158431
824.005	0.0157201
824.083	0.0157049
824.161	0.0156522
824.239	0.0155096
824.317	0.0154839
824.396	0.0154176
824.474	0.0153659
824.552	0.0155028
824.630	0.0153179
824.708	0.0152445
824.786	0.0151752
824.864	0.0151328
824.942	0.0152271
825.021	0.0153462
825.099	0.0152734
825.177	0.0153645
825.255	0.0153826
825.333	0.0153867
825.411	0.0156026
825.489	0.0157804
825.567	0.0158233
825.646	0.0157645
825.724	0.0161283
825.802	0.0163638
825.880	0.0164783
825.958	0.0166293
826.036	0.0167554
826.114	0.0168491
826.192	0.0170656
826.271	0.0169958
826.349	0.0171898
826.427	0.0172995
826.505	0.0173014
826.583	0.0172779
826.661	0.0172997
826.739	0.0172150
826.817	0.0172775
826.896	0.0172707
826.974	0.0172649
827.052	0.0171555
827.130	0.0169131
827.208	0.0170618
827.286	0.0169061
827.364	0.0168430
827.442	0.0167386
827.521	0.0166150
827.599	0.0165141
827.677	0.0165383
827.755	0.0166574
827.833	0.0165303
827.911	0.0163148
827.989	0.0163464
828.067	0.0163640
828.146	0.0162704
828.224	0.0161687
828.302	0.0161559
828.380	0.0161684
828.458	0.0160470
828.536	0.0160041
828.614	0.0159411
828.692	0.0159544
828.771	0.0158573
828.849	0.0157858
828.927	0.0157985
829.005	0.0156690
829.083	0.0156023
829.161	0.0155590
829.239	0.0154945
829.317	0.0153411
829.396	0.0153969
829.474	0.0151936
829.552	0.0151797
829.630	0.0152161
829.708	0.0149947
829.786	0.0149509
829.864	0.0148341
829.942	0.0147727
830.021	0.0147987
830.099	0.0147208
830.177	0.0148081
830.255	0.0147477
830.333	0.0148314
830.411	0.0148706
830.489	0.0149008
830.567	0.0150513
830.646	0.0150000
830.724	0.0150619
830.802	0.0152698
830.880	0.0153255
830.958	0.0154994
831.036	0.0156215
831.114	0.0158216
831.192	0.0160603
831.271	0.0162177
831.349	0.0163184
831.427	0.0165962
831.505	0.0168229
831.583	0.0168600
831.661	0.0171668
831.739	0.0172604
831.817	0.0173750
831.896	0.0174976
831.974	0.0175266
832.052	0.0176147
832.130	0.0176488
832.208	0.0176871
832.286	0.0176640
832.364	0.0175997
832.442	0.0175326
832.521	0.0173817
832.599	0.0173778
832.677	0.0171238
832.755	0.0169951
832.833	0.0170408
832.911	0.0170033
832.989	0.0166850
833.067	0.0165115
833.146	0.0164397
833.224	0.0162859
833.302	0.0162835
833.380	0.0161625
833.458	0.0161864
833.536	0.0160227
833.614	0.0158922
833.692	0.0159550
833.771	0.0159200
833.849	0.0158383
833.927	0.0158756
834.005	0.0158254
834.083	0.0159502
834.161	0.0158080
834.239	0.0157145
834.317	0.0158376
834.396	0.0157919
834.474	0.0156486
834.552	0.0156379
834.630	0.0155977
834.708	0.0155524
834.786	0.0156426
834.864	0.0155076
834.942	0.0154477
835.021	0.0154922
835.099	0.0152973
835.177	0.0154016
835.255	0.0151756
835.333	0.0153258
835.411	0.0152998
835.489	0.0151796
835.567	0.0151961
835.646	0.0151063
835.724	0.0150960
835.802	0.0152513
835.880	0.0153236
835.958	0.0151498
836.036	0.0152645
836.114	0.0153668
836.192	0.0154913
836.271	0.0154358
836.349	0.0154448
836.427	0.0155375
836.505	0.0155413
836.583	0.0158249
836.661	0.0159288
836.739	0.0159054
836.817	0.0161182
836.896	0.0162649
836.974	0.0164047
837.052	0.0165461
837.130	0.0167052
837.208	0.0167659
837.286	0.0168124
837.364	0.0168139
837.442	0.0169917
837.521	0.0169118
837.599	0.0169106
837.677	0.0168813
837.755	0.0169990
837.833	0.0170892
837.911	0.0168302
837.989	0.0168494
838.067	0.0168435
838.146	0.0169055
838.224	0.0167392
838.302	0.0167372
838.380	0.0167574
838.458	0.0165845
838.536	0.0165488
838.614	0.0165330
838.692	0.0164638
838.771	0.0164394
838.849	0.0164889
838.927	0.0163583
839.005	0.0161643
839.083	0.0162437
839.161	0.0161708
839.239	0.0160541
839.317	0.0159798
839.396	0.0159666
839.474	0.0160592
839.552	0.0160251
839.630	0.0160653
839.708	0.0159556
839.786	0.0158357
839.864	0.0159335
839.942	0.0159747
840.021	0.0160157
840.099	0.0158561
840.177	0.0158543
840.255	0.0160605
840.333	0.0160655
840.411	0.0159616
840.489	0.0158961
840.567	0.0158221
840.646	0.0159681
840.724	0.0158344
840.802	0.0157054
840.880	0.0156441
840.958	0.0156414
841.036	0.0155924
841.114	0.0155850
841.192	0.0156689
841.271	0.0155125
841.349	0.0155556
841.427	0.0155780
841.505	0.0155179
841.583	0.0156224
841.661	0.0156670
841.739	0.0157390
841.817	0.0157339
841.896	0.0157206
841.974	0.0158743
842.052	0.0158978
842.130	0.0162439
842.208	0.0159818
842.286	0.0161453
842.364	0.0163069
842.442	0.0162155
842.521	0.0163897
842.599	0.0164255
842.677	0.0165213
842.755	0.0163813
842.833	0.0164017
842.911	0.0163248
842.989	0.0165197
843.067	0.0165439
843.146	0.0164379
843.224	0.0166360
843.302	0.0163560
843.380	0.0164262
843.458	0.0163792
843.536	0.0163721
843.614	0.0164256
843.692	0.0163901
843.771	0.0163190
843.849	0.0161900
843.927	0.0163535
844.005	0.0163602
844.083	0.0164290
844.161	0.0163110
844.239	0.0163976
844.317	0.0163153
844.396	0.0162684
844.474	0.0163656
844.552	0.0161916
844.630	0.0162368
844.708	0.0160756
844.786	0.0161587
844.864	0.0161172
844.942	0.0159520
845.021	0.0159624
845.099	0.0160364
845.177	0.0159636
845.255	0.0160432
845.333	0.0159622
845.411	0.0159868
845.489	0.0159148
845.567	0.0160275
845.646	0.0161485
845.724	0.0161002
845.802	0.0160551
845.880	0.0160096
845.958	0.0160114
846.036	0.0159413
846.114	0.0161310
846.192	0.0160204
846.271	0.0161124
846.349	0.0160567
846.427	0.0158740
846.505	0.0160101
846.583	0.0159364
846.661	0.0160654
846.739	0.0159194
846.817	0.0158282
846.896	0.0159152
846.974	0.0159419
847.052	0.0159763
847.130	0.0159214
847.208	0.0159016
847.286	0.0159811
847.364	0.0157864
847.442	0.0159628
847.521	0.0161185
847.599	0.0161232
847.677	0.0161239
847.755	0.0160978
847.833	0.0162405
847.911	0.0161575
847.989	0.0160975
848.067	0.0160236
848.146	0.0162605
848.224	0.0162392
848.302	0.0161471
848.380	0.0162354
848.458	0.0161830
848.536	0.0160959
848.614	0.0162156
848.692	0.0161574
848.771	0.0163490
848.849	0.0163557
848.927	0.0162675
849.005	0.0161654
849.083	0.0162008
849.161	0.0162043
849.239	0.0163288
849.317	0.0163044
849.396	0.0162999
849.474	0.0164012
849.552	0.0162775
849.630	0.0163256
849.708	0.0162826
849.786	0.0162502
849.864	0.0163531
849.942	0.0161663
850.021	0.0160126
850.099	0.0161729
850.177	0.0161583
850.255	0.0160890
850.333	0.0159557
850.411	0.0160733
850.489	0.0159396
850.567	0.0158772
850.646	0.0159710
850.724	0.0158701
850.802	0.0158298
850.880	0.0159233
850.958	0.0160378
851.036	0.0159816
851.114	0.0159801
851.192	0.0161607
851.271	0.0160487
851.349	0.0161071
851.427	0.0162202
851.505	0.0163561
851.583	0.0163136
851.661	0.0162929
851.739	0.0164513
851.817	0.0164072
851.896	0.0163593
851.974	0.0161720
852.052	0.0162446
852.130	0.0163992
852.208	0.0161586
852.286	0.0162101
852.364	0.0162693
852.442	0.0162012
852.521	0.0162356
852.599	0.0161574
852.677	0.0159778
852.755	0.0160317
852.833	0.0161849
852.911	0.0159247
852.989	0.0159393
853.067	0.0159305
853.146	0.0160362
853.224	0.0160342
853.302	0.0160291
853.380	0.0160078
853.458	0.0159937
853.536	0.0159467
853.614	0.0159808
853.692	0.0159637
853.771	0.0160490
853.849	0.0159583
853.927	0.0158707
854.005	0.0161025
854.083	0.0160568
854.161	0.0161626
854.239	0.0162349
854.317	0.0162428
854.396	0.0160929
854.474	0.0162106
854.552	0.0162421
854.630	0.0163512
854.708	0.0164742
854.786	0.0163557
854.864	0.0162809
854.942	0.0162175
855.021	0.0163640
855.099	0.0164533
855.177	0.0162712
855.255	0.0161619
855.333	0.0161668
855.411	0.0161475
855.489	0.0160639
855.567	0.0160783
855.646	0.0160236
855.724	0.0160509
855.802	0.0159165
855.880	0.0158726
855.958	0.0159845
856.036	0.0159481
856.114	0.0159082
856.192	0.0160918
856.271	0.0160341
856.349	0.0160155
856.427	0.0161075
856.505	0.0161182
856.583	0.0161752
856.661	0.0160612
856.739	0.0160220
856.817	0.0162379
856.896	0.0161518
856.974	0.0163669
857.052	0.0163613
857.130	0.0162325
857.208	0.0162434
857.286	0.0163206
857.364	0.0163799
857.442	0.0163672
857.521	0.0163361
857.599	0.0162708
857.677	0.0164079
857.755	0.0163201
857.833	0.0164218
857.911	0.0163550
857.989	0.0162838
858.067	0.0162160
858.146	0.0162184
858.224	0.0161758
858.302	0.0160393
858.380	0.0160304
858.458	0.0161543
858.536	0.0160267
858.614	0.0158212
858.692	0.0159878
858.771	0.0159258
858.849	0.0159595
858.927	0.0160028
859.005	0.0160074
859.083	0.0159143
859.161	0.0158991
859.239	0.0159061
859.317	0.0158765
859.396	0.0159988
859.474	0.0158776
859.552	0.0159652
859.630	0.0158618
859.708	0.0159186
859.786	0.0160207
859.864	0.0158846
859.942	0.0159064
860.021	0.0158958
860.099	0.0159407
860.177	0.0160630
860.255	0.0159438
860.333	0.0159909
860.411	0.0160502
860.489	0.0160119
860.567	0.0159698
860.646	0.0159730
860.724	0.0159148
860.802	0.0160302
860.880	0.0160648
860.958	0.0159088
861.036	0.0159957
861.114	0.0158039
861.192	0.0159340
861.271	0.0159718
861.349	0.0159553
861.427	0.0158997
861.505	0.0160543
861.583	0.0160491
861.661	0.0159390
861.739	0.0160629
861.817	0.0161233
861.896	0.0161470
861.974	0.0162942
862.052	0.0161753
862.130	0.0161992
862.208	0.0162292
862.286	0.0163451
862.364	0.0161885
862.442	0.0163401
862.521	0.0164999
862.599	0.0162735
862.677	0.0163947
862.755	0.0164519
862.833	0.0164857
862.911	0.0165646
862.989	0.0163809
863.067	0.0165608
863.146	0.0166481
863.224	0.0165052
863.302	0.0165495
863.380	0.0165517
863.458	0.0164801
863.536	0.0165359
863.614	0.0164772
863.692	0.0163565
863.771	0.0163871
863.849	0.0163571
863.927	0.0162826
864.005	0.0161748
864.083	0.0161570
864.161	0.0161022
864.239	0.0161021
864.317	0.0160080
864.396	0.0159515
864.474	0.0159407
864.552	0.0157780
864.630	0.0157921
864.708	0.0157413
864.786	0.0157949
864.864	0.0156885
864.942	0.0157398
865.021	0.0157901
865.099	0.0155530
865.177	0.0156959
865.255	0.0155503
865.333	0.0157320
865.411	0.0158074
865.489	0.0157293
865.567	0.0158337
865.646	0.0158646
865.724	0.0157677
865.802	0.0158300
865.880	0.0158935
865.958	0.0157397
866.036	0.0159340
866.114	0.0159312
866.192	0.0158454
866.271	0.0159167
866.349	0.0159894
866.427	0.0159153
866.505	0.0159419
866.583	0.0159649
866.661	0.0160389
866.739	0.0160410
866.817	0.0160689
866.896	0.0160518
866.974	0.0161201
867.052	0.0159653
867.130	0.0161710
867.208	0.0161488
867.286	0.0161677
867.364	0.0161478
867.442	0.0161811
867.521	0.0162170
867.599	0.0161739
867.677	0.0162094
867.755	0.0163357
867.833	0.0163200
867.911	0.0162782
867.989	0.0164850
868.067	0.0164699
868.146	0.0164072
868.224	0.0165554
868.302	0.0165330
868.380	0.0163995
868.458	0.0164517
868.536	0.0164989
868.614	0.0165134
868.692	0.0165031
868.771	0.0163355
868.849	0.0163388
868.927	0.0164558
869.005	0.0163053
869.083	0.0163330
869.161	0.0162395
869.239	0.0162097
869.317	0.0162340
869.396	0.0161829
869.474	0.0162255
869.552	0.0161090
869.630	0.0162171
869.708	0.0161485
869.786	0.0160782
869.864	0.0162463
869.942	0.0161340
