06/03/2022	15:45:01	Ver.	4.1	UNKNOWN
Optical Delay	550.020508	Delta X		0.078125	Sweeps	1	Scan Rate	0/0
Coordinates	Axis 1	NaN	Axis 2	NaN	Axis 3	NaN	Axis 4	NaN	Axis 5	NaN	Axis 6	0.000000
TX Power	0.000000	RX Power	0.000000

550.021	0.0162952
550.099	0.0162927
550.177	0.0162775
550.255	0.0163853
550.333	0.0162896
550.411	0.0162261
550.489	0.0163409
550.567	0.0164921
550.646	0.0163444
550.724	0.0163406
550.802	0.0162264
550.880	0.0163041
550.958	0.0163866
551.036	0.0163728
551.114	0.0163882
551.192	0.0163281
551.271	0.0164190
551.349	0.0163194
551.427	0.0162856
551.505	0.0162519
551.583	0.0164238
551.661	0.0163541
551.739	0.0163457
551.817	0.0164320
551.896	0.0163507
551.974	0.0162569
552.052	0.0162278
552.130	0.0163123
552.208	0.0163303
552.286	0.0163124
552.364	0.0163248
552.442	0.0162703
552.521	0.0163779
552.599	0.0162295
552.677	0.0162467
552.755	0.0163786
552.833	0.0162713
552.911	0.0161850
552.989	0.0162423
553.067	0.0163247
553.146	0.0162401
553.224	0.0163064
553.302	0.0164572
553.380	0.0164050
553.458	0.0163717
553.536	0.0163464
553.614	0.0162238
553.692	0.0162540
553.771	0.0164294
553.849	0.0163090
553.927	0.0163571
554.005	0.0162339
554.083	0.0163020
554.161	0.0162901
554.239	0.0162578
554.317	0.0163749
554.396	0.0161109
554.474	0.0163278
554.552	0.0163785
554.630	0.0163680
554.708	0.0164057
554.786	0.0163780
554.864	0.0164220
554.942	0.0163043
555.021	0.0163502
555.099	0.0163715
555.177	0.0164816
555.255	0.0163928
555.333	0.0162395
555.411	0.0163579
555.489	0.0162923
555.567	0.0162636
555.646	0.0162426
555.724	0.0163038
555.802	0.0163351
555.880	0.0163099
555.958	0.0162915
556.036	0.0163358
556.114	0.0162920
556.192	0.0163192
556.271	0.0162902
556.349	0.0163038
556.427	0.0164620
556.505	0.0162070
556.583	0.0161780
556.661	0.0164725
556.739	0.0162061
556.817	0.0162223
556.896	0.0163384
556.974	0.0162987
557.052	0.0162717
557.130	0.0163195
557.208	0.0162015
557.286	0.0163229
557.364	0.0162801
557.442	0.0162971
557.521	0.0163587
557.599	0.0162975
557.677	0.0162743
557.755	0.0163695
557.833	0.0162612
557.911	0.0163746
557.989	0.0163161
558.067	0.0163311
558.146	0.0163789
558.224	0.0162231
558.302	0.0163205
558.380	0.0163433
558.458	0.0164075
558.536	0.0162541
558.614	0.0163428
558.692	0.0163354
558.771	0.0162664
558.849	0.0162670
558.927	0.0163480
559.005	0.0162874
559.083	0.0162605
559.161	0.0164066
559.239	0.0163725
559.317	0.0164071
559.396	0.0163734
559.474	0.0162326
559.552	0.0164380
559.630	0.0162978
559.708	0.0163710
559.786	0.0163493
559.864	0.0163295
559.942	0.0163523
560.021	0.0162550
560.099	0.0162868
560.177	0.0163107
560.255	0.0163770
560.333	0.0162418
560.411	0.0162978
560.489	0.0163313
560.567	0.0161977
560.646	0.0162927
560.724	0.0162533
560.802	0.0163371
560.880	0.0163070
560.958	0.0162283
561.036	0.0162776
561.114	0.0162072
561.192	0.0162780
561.271	0.0163130
561.349	0.0163583
561.427	0.0163570
561.505	0.0162231
561.583	0.0163556
561.661	0.0164282
561.739	0.0163264
561.817	0.0162093
561.896	0.0162567
561.974	0.0163180
562.052	0.0162260
562.130	0.0164178
562.208	0.0162576
562.286	0.0163120
562.364	0.0163323
562.442	0.0164061
562.521	0.0162692
562.599	0.0163715
562.677	0.0162830
562.755	0.0163481
562.833	0.0163293
562.911	0.0164124
562.989	0.0161397
563.067	0.0162757
563.146	0.0162478
563.224	0.0162578
563.302	0.0163003
563.380	0.0163272
563.458	0.0163840
563.536	0.0162054
563.614	0.0162009
563.692	0.0162899
563.771	0.0162558
563.849	0.0162989
563.927	0.0162299
564.005	0.0162175
564.083	0.0161738
564.161	0.0163919
564.239	0.0163419
564.317	0.0163069
564.396	0.0163480
564.474	0.0162231
564.552	0.0162910
564.630	0.0163731
564.708	0.0163704
564.786	0.0163875
564.864	0.0162930
564.942	0.0161897
565.021	0.0163420
565.099	0.0163983
565.177	0.0164231
565.255	0.0165010
565.333	0.0164722
565.411	0.0163812
565.489	0.0162386
565.567	0.0162762
565.646	0.0163015
565.724	0.0163014
565.802	0.0162218
565.880	0.0163648
565.958	0.0162905
566.036	0.0163621
566.114	0.0163982
566.192	0.0164889
566.271	0.0163533
566.349	0.0163693
566.427	0.0162775
566.505	0.0163669
566.583	0.0163700
566.661	0.0162283
566.739	0.0163252
566.817	0.0162734
566.896	0.0163148
566.974	0.0163368
567.052	0.0161725
567.130	0.0162734
567.208	0.0163624
567.286	0.0163543
567.364	0.0162846
567.442	0.0162779
567.521	0.0162440
567.599	0.0162629
567.677	0.0164594
567.755	0.0162182
567.833	0.0162669
567.911	0.0163223
567.989	0.0162702
568.067	0.0163451
568.146	0.0162256
568.224	0.0163785
568.302	0.0163434
568.380	0.0163170
568.458	0.0163828
568.536	0.0163538
568.614	0.0163593
568.692	0.0163058
568.771	0.0163190
568.849	0.0163798
568.927	0.0162900
569.005	0.0162564
569.083	0.0163391
569.161	0.0162615
569.239	0.0163511
569.317	0.0163050
569.396	0.0163029
569.474	0.0163784
569.552	0.0163874
569.630	0.0161687
569.708	0.0162271
569.786	0.0163309
569.864	0.0163293
569.942	0.0162202
570.021	0.0163519
570.099	0.0163456
570.177	0.0163122
570.255	0.0164026
570.333	0.0163940
570.411	0.0163309
570.489	0.0163220
570.567	0.0163801
570.646	0.0163058
570.724	0.0163453
570.802	0.0162740
570.880	0.0162455
570.958	0.0163551
571.036	0.0164066
571.114	0.0162759
571.192	0.0162724
571.271	0.0163962
571.349	0.0164293
571.427	0.0164627
571.505	0.0164308
571.583	0.0162453
571.661	0.0162775
571.739	0.0163083
571.817	0.0162933
571.896	0.0163352
571.974	0.0162534
572.052	0.0163770
572.130	0.0164346
572.208	0.0161699
572.286	0.0163514
572.364	0.0164547
572.442	0.0163277
572.521	0.0163840
572.599	0.0163406
572.677	0.0163436
572.755	0.0163292
572.833	0.0163477
572.911	0.0163233
572.989	0.0163512
573.067	0.0163157
573.146	0.0164135
573.224	0.0163278
573.302	0.0162325
573.380	0.0162227
573.458	0.0162833
573.536	0.0163455
573.614	0.0163052
573.692	0.0163882
573.771	0.0162458
573.849	0.0163004
573.927	0.0163336
574.005	0.0162220
574.083	0.0163632
574.161	0.0163456
574.239	0.0162971
574.317	0.0163770
574.396	0.0163564
574.474	0.0162553
574.552	0.0163570
574.630	0.0163123
574.708	0.0163444
574.786	0.0163496
574.864	0.0162717
574.942	0.0164359
575.021	0.0164241
575.099	0.0164999
575.177	0.0163412
575.255	0.0162721
575.333	0.0163104
575.411	0.0163410
575.489	0.0164037
575.567	0.0163792
575.646	0.0162708
575.724	0.0162858
575.802	0.0162776
575.880	0.0163745
575.958	0.0162962
576.036	0.0161132
576.114	0.0163862
576.192	0.0162371
576.271	0.0163624
576.349	0.0163007
576.427	0.0163063
576.505	0.0163174
576.583	0.0162612
576.661	0.0163898
576.739	0.0164128
576.817	0.0163155
576.896	0.0162970
576.974	0.0162276
577.052	0.0163480
577.130	0.0163329
577.208	0.0163268
577.286	0.0163086
577.364	0.0161912
577.442	0.0162328
577.521	0.0163367
577.599	0.0163242
577.677	0.0163430
577.755	0.0162514
577.833	0.0163873
577.911	0.0163204
577.989	0.0162309
578.067	0.0162752
578.146	0.0162944
578.224	0.0162479
578.302	0.0162626
578.380	0.0163011
578.458	0.0163757
578.536	0.0163263
578.614	0.0162982
578.692	0.0164156
578.771	0.0163271
578.849	0.0163243
578.927	0.0163689
579.005	0.0162926
579.083	0.0163854
579.161	0.0163302
579.239	0.0163441
579.317	0.0160915
579.396	0.0162416
579.474	0.0165362
579.552	0.0163927
579.630	0.0163538
579.708	0.0163045
579.786	0.0163055
579.864	0.0163622
579.942	0.0163877
580.021	0.0163622
580.099	0.0163657
580.177	0.0164109
580.255	0.0163615
580.333	0.0162245
580.411	0.0162130
580.489	0.0163246
580.567	0.0163000
580.646	0.0164127
580.724	0.0164029
580.802	0.0162096
580.880	0.0163060
580.958	0.0163908
581.036	0.0162067
581.114	0.0162324
581.192	0.0163348
581.271	0.0163287
581.349	0.0163628
581.427	0.0163289
581.505	0.0162418
581.583	0.0162474
581.661	0.0162870
581.739	0.0163734
581.817	0.0162800
581.896	0.0162698
581.974	0.0161155
582.052	0.0162812
582.130	0.0161436
582.208	0.0163374
582.286	0.0163005
582.364	0.0163271
582.442	0.0162913
582.521	0.0163581
582.599	0.0164452
582.677	0.0164005
582.755	0.0163409
582.833	0.0162297
582.911	0.0162393
582.989	0.0163712
583.067	0.0163358
583.146	0.0162502
583.224	0.0163686
583.302	0.0164196
583.380	0.0162029
583.458	0.0163041
583.536	0.0163708
583.614	0.0163231
583.692	0.0162312
583.771	0.0163578
583.849	0.0164674
583.927	0.0162719
584.005	0.0163430
584.083	0.0163395
584.161	0.0162737
584.239	0.0162634
584.317	0.0163783
584.396	0.0164119
584.474	0.0164668
584.552	0.0164108
584.630	0.0163752
584.708	0.0163089
584.786	0.0162575
584.864	0.0162753
584.942	0.0163340
585.021	0.0165002
585.099	0.0163233
585.177	0.0163999
585.255	0.0162587
585.333	0.0162431
585.411	0.0161760
585.489	0.0163799
585.567	0.0163499
585.646	0.0162054
585.724	0.0164296
585.802	0.0163342
585.880	0.0163759
585.958	0.0163786
586.036	0.0162720
586.114	0.0163142
586.192	0.0162684
586.271	0.0163110
586.349	0.0163445
586.427	0.0163557
586.505	0.0163501
586.583	0.0163904
586.661	0.0162096
586.739	0.0164090
586.817	0.0163238
586.896	0.0161493
586.974	0.0162453
587.052	0.0162652
587.130	0.0165241
587.208	0.0163625
587.286	0.0163260
587.364	0.0162923
587.442	0.0163706
587.521	0.0163071
587.599	0.0164077
587.677	0.0162812
587.755	0.0162756
587.833	0.0163474
587.911	0.0163631
587.989	0.0163955
588.067	0.0163799
588.146	0.0162685
588.224	0.0163722
588.302	0.0164577
588.380	0.0164085
588.458	0.0163137
588.536	0.0163334
588.614	0.0163728
588.692	0.0162891
588.771	0.0163280
588.849	0.0162812
588.927	0.0163239
589.005	0.0163564
589.083	0.0163916
589.161	0.0163321
589.239	0.0163634
589.317	0.0163557
589.396	0.0163934
589.474	0.0164233
589.552	0.0162500
589.630	0.0163382
589.708	0.0165242
589.786	0.0164811
589.864	0.0163425
589.942	0.0163108
590.021	0.0163732
590.099	0.0162953
590.177	0.0163443
590.255	0.0162720
590.333	0.0162709
590.411	0.0163428
590.489	0.0163185
590.567	0.0163470
590.646	0.0164342
590.724	0.0163889
590.802	0.0163197
590.880	0.0164144
590.958	0.0164658
591.036	0.0164002
591.114	0.0162769
591.192	0.0163657
591.271	0.0164606
591.349	0.0164162
591.427	0.0162586
591.505	0.0162833
591.583	0.0163651
591.661	0.0162897
591.739	0.0163256
591.817	0.0164001
591.896	0.0163295
591.974	0.0164848
592.052	0.0163570
592.130	0.0163491
592.208	0.0162858
592.286	0.0164184
592.364	0.0163545
592.442	0.0163123
592.521	0.0162851
592.599	0.0164351
592.677	0.0165279
592.755	0.0162608
592.833	0.0162312
592.911	0.0162319
592.989	0.0163291
593.067	0.0165288
593.146	0.0163380
593.224	0.0162974
593.302	0.0164510
593.380	0.0164024
593.458	0.0162567
593.536	0.0164342
593.614	0.0163551
593.692	0.0163618
593.771	0.0164185
593.849	0.0164795
593.927	0.0163721
594.005	0.0162779
594.083	0.0163380
594.161	0.0164308
594.239	0.0162508
594.317	0.0163138
594.396	0.0163594
594.474	0.0163100
594.552	0.0162239
594.630	0.0164003
594.708	0.0162250
594.786	0.0162483
594.864	0.0163859
594.942	0.0163634
595.021	0.0162284
595.099	0.0162923
595.177	0.0163460
595.255	0.0163599
595.333	0.0163665
595.411	0.0163267
595.489	0.0164425
595.567	0.0162178
595.646	0.0164310
595.724	0.0163051
595.802	0.0162434
595.880	0.0163943
595.958	0.0163542
596.036	0.0163763
596.114	0.0162476
596.192	0.0162390
596.271	0.0163584
596.349	0.0163014
596.427	0.0164261
596.505	0.0162187
596.583	0.0163667
596.661	0.0163836
596.739	0.0162499
596.817	0.0162906
596.896	0.0163412
596.974	0.0162652
597.052	0.0162549
597.130	0.0162142
597.208	0.0163613
597.286	0.0164345
597.364	0.0161949
597.442	0.0163153
597.521	0.0163730
597.599	0.0162788
597.677	0.0162759
597.755	0.0162790
597.833	0.0162973
597.911	0.0163352
597.989	0.0164552
598.067	0.0163494
598.146	0.0163209
598.224	0.0163967
598.302	0.0163601
598.380	0.0162492
598.458	0.0164259
598.536	0.0165210
598.614	0.0162148
598.692	0.0163862
598.771	0.0163767
598.849	0.0162936
598.927	0.0163248
599.005	0.0164063
599.083	0.0163396
599.161	0.0162952
599.239	0.0163826
599.317	0.0164148
599.396	0.0163686
599.474	0.0163868
599.552	0.0163183
599.630	0.0163393
599.708	0.0163385
599.786	0.0163469
599.864	0.0162477
599.942	0.0164026
600.021	0.0162999
600.099	0.0164468
600.177	0.0163828
600.255	0.0163075
600.333	0.0162498
600.411	0.0163477
600.489	0.0163306
600.567	0.0163945
600.646	0.0162653
600.724	0.0163998
600.802	0.0163813
600.880	0.0164436
600.958	0.0163303
601.036	0.0161637
601.114	0.0163870
601.192	0.0163814
601.271	0.0163355
601.349	0.0163484
601.427	0.0163758
601.505	0.0162807
601.583	0.0163148
601.661	0.0163280
601.739	0.0162749
601.817	0.0164695
601.896	0.0163412
601.974	0.0163379
602.052	0.0164413
602.130	0.0163541
602.208	0.0163149
602.286	0.0162840
602.364	0.0162765
602.442	0.0163295
602.521	0.0164371
602.599	0.0164515
602.677	0.0163377
602.755	0.0161629
602.833	0.0164148
602.911	0.0163200
602.989	0.0162589
603.067	0.0164504
603.146	0.0164032
603.224	0.0163333
603.302	0.0163704
603.380	0.0163420
603.458	0.0163076
603.536	0.0163026
603.614	0.0164208
603.692	0.0164603
603.771	0.0163447
603.849	0.0163306
603.927	0.0163020
604.005	0.0161836
604.083	0.0162690
604.161	0.0163828
604.239	0.0164585
604.317	0.0163605
604.396	0.0163389
604.474	0.0163822
604.552	0.0163658
604.630	0.0163709
604.708	0.0163220
604.786	0.0163031
604.864	0.0163367
604.942	0.0162904
605.021	0.0164068
605.099	0.0163517
605.177	0.0163152
605.255	0.0163048
605.333	0.0162469
605.411	0.0162873
605.489	0.0162830
605.567	0.0164275
605.646	0.0162609
605.724	0.0163368
605.802	0.0163206
605.880	0.0163327
605.958	0.0162331
606.036	0.0162743
606.114	0.0162916
606.192	0.0164410
606.271	0.0162237
606.349	0.0160618
606.427	0.0163554
606.505	0.0163176
606.583	0.0163648
606.661	0.0163927
606.739	0.0163150
606.817	0.0163821
606.896	0.0162449
606.974	0.0162986
607.052	0.0163096
607.130	0.0162816
607.208	0.0163321
607.286	0.0164450
607.364	0.0163754
607.442	0.0163186
607.521	0.0163196
607.599	0.0163921
607.677	0.0164185
607.755	0.0161616
607.833	0.0162264
607.911	0.0164247
607.989	0.0162281
608.067	0.0162752
608.146	0.0162777
608.224	0.0163355
608.302	0.0163940
608.380	0.0163529
608.458	0.0163139
608.536	0.0162978
608.614	0.0164912
608.692	0.0163939
608.771	0.0162389
608.849	0.0163050
608.927	0.0163921
609.005	0.0163387
609.083	0.0161612
609.161	0.0162926
609.239	0.0162389
609.317	0.0163764
609.396	0.0162530
609.474	0.0162513
609.552	0.0163259
609.630	0.0161985
609.708	0.0162856
609.786	0.0163483
609.864	0.0162684
609.942	0.0162600
610.021	0.0162343
610.099	0.0162820
610.177	0.0162506
610.255	0.0162837
610.333	0.0164184
610.411	0.0162051
610.489	0.0162657
610.567	0.0162414
610.646	0.0162708
610.724	0.0163805
610.802	0.0163493
610.880	0.0161369
610.958	0.0162114
611.036	0.0163736
611.114	0.0164086
611.192	0.0163552
611.271	0.0163319
611.349	0.0162667
611.427	0.0162888
611.505	0.0164185
611.583	0.0162894
611.661	0.0164346
611.739	0.0164130
611.817	0.0163226
611.896	0.0163147
611.974	0.0162600
612.052	0.0162750
612.130	0.0163679
612.208	0.0162655
612.286	0.0162503
612.364	0.0162713
612.442	0.0163084
612.521	0.0162885
612.599	0.0162510
612.677	0.0162910
612.755	0.0164822
612.833	0.0163420
612.911	0.0163413
612.989	0.0162817
613.067	0.0163433
613.146	0.0162522
613.224	0.0162235
613.302	0.0163094
613.380	0.0162627
613.458	0.0162960
613.536	0.0161888
613.614	0.0162238
613.692	0.0163785
613.771	0.0162236
613.849	0.0162485
613.927	0.0163099
614.005	0.0163673
614.083	0.0162000
614.161	0.0163289
614.239	0.0163975
614.317	0.0164667
614.396	0.0163800
614.474	0.0163480
614.552	0.0162740
614.630	0.0163083
614.708	0.0163030
614.786	0.0163548
614.864	0.0164041
614.942	0.0163365
615.021	0.0162078
615.099	0.0162798
615.177	0.0163835
615.255	0.0162043
615.333	0.0164485
615.411	0.0163661
615.489	0.0162383
615.567	0.0164275
615.646	0.0164887
615.724	0.0163929
615.802	0.0163420
615.880	0.0162827
615.958	0.0163766
616.036	0.0163290
616.114	0.0162888
616.192	0.0162991
616.271	0.0163550
616.349	0.0162828
616.427	0.0161958
616.505	0.0162737
616.583	0.0162897
616.661	0.0163890
616.739	0.0164048
616.817	0.0163499
616.896	0.0163626
616.974	0.0165005
617.052	0.0164656
617.130	0.0163478
617.208	0.0164310
617.286	0.0163690
617.364	0.0163148
617.442	0.0162951
617.521	0.0163307
617.599	0.0163676
617.677	0.0162093
617.755	0.0164651
617.833	0.0163066
617.911	0.0161897
617.989	0.0162878
618.067	0.0162543
618.146	0.0164108
618.224	0.0163072
618.302	0.0163135
618.380	0.0163625
618.458	0.0162769
618.536	0.0164158
618.614	0.0163055
618.692	0.0163032
618.771	0.0163268
618.849	0.0164171
618.927	0.0163357
619.005	0.0163122
619.083	0.0163408
619.161	0.0162677
619.239	0.0163531
619.317	0.0162920
619.396	0.0163119
619.474	0.0163194
619.552	0.0162231
619.630	0.0163593
619.708	0.0164529
619.786	0.0165306
619.864	0.0164641
619.942	0.0162143
620.021	0.0163490
620.099	0.0163152
620.177	0.0162402
620.255	0.0165289
620.333	0.0163828
620.411	0.0163380
620.489	0.0162981
620.567	0.0163709
620.646	0.0162598
620.724	0.0162126
620.802	0.0162761
620.880	0.0164833
620.958	0.0163199
621.036	0.0163328
621.114	0.0163202
621.192	0.0163621
621.271	0.0163198
621.349	0.0163023
621.427	0.0163053
621.505	0.0163257
621.583	0.0163198
621.661	0.0162713
621.739	0.0163339
621.817	0.0163096
621.896	0.0162907
621.974	0.0163857
622.052	0.0162372
622.130	0.0162993
622.208	0.0163187
622.286	0.0163753
622.364	0.0163425
622.442	0.0163026
622.521	0.0164552
622.599	0.0163627
622.677	0.0163131
622.755	0.0163174
622.833	0.0163757
622.911	0.0164540
622.989	0.0162254
623.067	0.0163845
623.146	0.0163214
623.224	0.0162206
623.302	0.0163428
623.380	0.0164159
623.458	0.0162482
623.536	0.0162727
623.614	0.0163267
623.692	0.0163235
623.771	0.0162990
623.849	0.0163268
623.927	0.0162307
624.005	0.0162580
624.083	0.0162167
624.161	0.0162959
624.239	0.0162222
624.317	0.0163234
624.396	0.0163519
624.474	0.0163583
624.552	0.0162917
624.630	0.0163440
624.708	0.0163341
624.786	0.0163118
624.864	0.0163461
624.942	0.0162631
625.021	0.0163682
625.099	0.0162751
625.177	0.0163418
625.255	0.0162171
625.333	0.0163198
625.411	0.0163133
625.489	0.0162833
625.567	0.0163233
625.646	0.0163562
625.724	0.0163762
625.802	0.0163067
625.880	0.0163042
625.958	0.0161951
626.036	0.0164613
626.114	0.0164547
626.192	0.0163556
626.271	0.0163941
626.349	0.0164210
626.427	0.0163048
626.505	0.0163322
626.583	0.0164303
626.661	0.0163508
626.739	0.0162356
626.817	0.0162892
626.896	0.0163223
626.974	0.0163896
627.052	0.0163969
627.130	0.0162520
627.208	0.0163491
627.286	0.0163368
627.364	0.0164590
627.442	0.0162467
627.521	0.0162064
627.599	0.0164087
627.677	0.0162712
627.755	0.0163264
627.833	0.0163506
627.911	0.0163277
627.989	0.0163084
628.067	0.0162206
628.146	0.0163114
628.224	0.0163089
628.302	0.0163548
628.380	0.0162494
628.458	0.0163291
628.536	0.0163299
628.614	0.0162355
628.692	0.0163409
628.771	0.0163972
628.849	0.0162975
628.927	0.0163452
629.005	0.0163808
629.083	0.0163536
629.161	0.0163637
629.239	0.0162482
629.317	0.0163059
629.396	0.0162531
629.474	0.0163088
629.552	0.0162453
629.630	0.0163431
629.708	0.0163847
629.786	0.0163217
629.864	0.0161797
629.942	0.0162495
630.021	0.0164059
630.099	0.0162732
630.177	0.0163163
630.255	0.0163569
630.333	0.0162188
630.411	0.0161714
630.489	0.0163069
630.567	0.0163260
630.646	0.0162833
630.724	0.0162467
630.802	0.0163793
630.880	0.0164314
630.958	0.0163481
631.036	0.0164120
631.114	0.0164613
631.192	0.0163609
631.271	0.0163007
631.349	0.0162552
631.427	0.0164188
631.505	0.0164291
631.583	0.0162059
631.661	0.0164616
631.739	0.0163461
631.817	0.0163086
631.896	0.0163037
631.974	0.0162293
632.052	0.0163353
632.130	0.0163837
632.208	0.0163338
632.286	0.0162960
632.364	0.0163861
632.442	0.0163503
632.521	0.0164330
632.599	0.0162471
632.677	0.0163375
632.755	0.0163567
632.833	0.0163143
632.911	0.0164222
632.989	0.0164197
633.067	0.0161485
633.146	0.0161710
633.224	0.0162267
633.302	0.0162949
633.380	0.0163180
633.458	0.0162758
633.536	0.0163339
633.614	0.0163132
633.692	0.0163764
633.771	0.0163297
633.849	0.0163046
633.927	0.0164178
634.005	0.0163410
634.083	0.0163786
634.161	0.0161926
634.239	0.0162245
634.317	0.0163464
634.396	0.0163384
634.474	0.0163557
634.552	0.0162699
634.630	0.0163508
634.708	0.0163293
634.786	0.0163260
634.864	0.0161475
634.942	0.0162965
635.021	0.0164021
635.099	0.0161480
635.177	0.0162450
635.255	0.0162511
635.333	0.0162136
635.411	0.0163262
635.489	0.0163822
635.567	0.0162785
635.646	0.0161406
635.724	0.0161678
635.802	0.0162272
635.880	0.0162922
635.958	0.0162507
636.036	0.0163365
636.114	0.0162320
636.192	0.0162701
636.271	0.0162253
636.349	0.0163023
636.427	0.0162821
636.505	0.0162152
636.583	0.0162440
636.661	0.0162045
636.739	0.0162312
636.817	0.0162395
636.896	0.0163263
636.974	0.0161098
637.052	0.0162052
637.130	0.0163353
637.208	0.0161521
637.286	0.0162634
637.364	0.0163569
637.442	0.0164509
637.521	0.0161485
637.599	0.0162921
637.677	0.0162321
637.755	0.0163152
637.833	0.0162717
637.911	0.0163126
637.989	0.0162752
638.067	0.0163401
638.146	0.0163237
638.224	0.0162376
638.302	0.0162662
638.380	0.0162144
638.458	0.0163079
638.536	0.0163282
638.614	0.0162744
638.692	0.0162202
638.771	0.0162880
638.849	0.0163084
638.927	0.0162865
639.005	0.0161758
639.083	0.0162622
639.161	0.0162931
639.239	0.0162690
639.317	0.0162456
639.396	0.0163663
639.474	0.0162661
639.552	0.0163038
639.630	0.0163378
639.708	0.0162706
639.786	0.0162473
639.864	0.0163184
639.942	0.0163248
640.021	0.0162151
640.099	0.0163473
640.177	0.0162875
640.255	0.0163493
640.333	0.0161632
640.411	0.0163255
640.489	0.0163701
640.567	0.0162325
640.646	0.0162097
640.724	0.0163313
640.802	0.0161033
640.880	0.0162543
640.958	0.0163137
641.036	0.0163609
641.114	0.0161557
641.192	0.0163297
641.271	0.0163002
641.349	0.0162850
641.427	0.0161779
641.505	0.0164438
641.583	0.0163389
641.661	0.0163277
641.739	0.0162247
641.817	0.0160474
641.896	0.0161317
641.974	0.0161961
642.052	0.0163114
642.130	0.0162559
642.208	0.0163422
642.286	0.0162811
642.364	0.0162584
642.442	0.0162334
642.521	0.0161964
642.599	0.0162756
642.677	0.0162040
642.755	0.0162486
642.833	0.0164711
642.911	0.0162885
642.989	0.0162307
643.067	0.0162296
643.146	0.0163946
643.224	0.0162007
643.302	0.0163049
643.380	0.0162627
643.458	0.0162185
643.536	0.0162122
643.614	0.0161186
643.692	0.0163679
643.771	0.0162787
643.849	0.0162294
643.927	0.0162664
644.005	0.0163631
644.083	0.0163811
644.161	0.0161798
644.239	0.0163156
644.317	0.0161736
644.396	0.0163887
644.474	0.0163990
644.552	0.0162307
644.630	0.0161526
644.708	0.0163298
644.786	0.0164034
644.864	0.0161947
644.942	0.0163564
645.021	0.0163142
645.099	0.0162832
645.177	0.0163118
645.255	0.0161909
645.333	0.0162469
645.411	0.0163081
645.489	0.0163960
645.567	0.0164159
645.646	0.0163786
645.724	0.0163241
645.802	0.0162543
645.880	0.0162928
645.958	0.0164392
646.036	0.0162817
646.114	0.0162135
646.192	0.0164088
646.271	0.0163898
646.349	0.0162924
646.427	0.0162756
646.505	0.0163830
646.583	0.0164301
646.661	0.0164675
646.739	0.0162753
646.817	0.0164275
646.896	0.0165769
646.974	0.0162769
647.052	0.0163814
647.130	0.0165536
647.208	0.0163546
647.286	0.0163417
647.364	0.0163386
647.442	0.0163132
647.521	0.0164348
647.599	0.0164785
647.677	0.0163582
647.755	0.0163438
647.833	0.0163443
647.911	0.0164135
647.989	0.0161419
648.067	0.0164339
648.146	0.0163609
648.224	0.0163457
648.302	0.0163486
648.380	0.0163515
648.458	0.0164120
648.536	0.0163089
648.614	0.0164347
648.692	0.0164305
648.771	0.0162903
648.849	0.0163111
648.927	0.0161835
649.005	0.0162209
649.083	0.0164185
649.161	0.0163139
649.239	0.0162782
649.317	0.0164463
649.396	0.0164224
649.474	0.0163220
649.552	0.0163527
649.630	0.0163831
649.708	0.0162681
649.786	0.0163422
649.864	0.0163500
649.942	0.0165344
650.021	0.0163949
650.099	0.0163020
650.177	0.0164787
650.255	0.0164758
650.333	0.0162967
650.411	0.0163505
650.489	0.0163145
650.567	0.0163277
650.646	0.0163500
650.724	0.0163620
650.802	0.0161228
650.880	0.0163773
650.958	0.0164362
651.036	0.0163313
651.114	0.0164326
651.192	0.0163465
651.271	0.0164114
651.349	0.0163393
651.427	0.0165105
651.505	0.0163551
651.583	0.0164716
651.661	0.0162621
651.739	0.0163084
651.817	0.0164143
651.896	0.0164658
651.974	0.0163982
652.052	0.0164804
652.130	0.0163835
652.208	0.0164046
652.286	0.0164056
652.364	0.0161549
652.442	0.0164426
652.521	0.0163334
652.599	0.0164012
652.677	0.0163350
652.755	0.0164601
652.833	0.0164490
652.911	0.0163427
652.989	0.0162965
653.067	0.0163532
653.146	0.0162924
653.224	0.0162997
653.302	0.0163020
653.380	0.0165112
653.458	0.0162583
653.536	0.0163547
653.614	0.0162621
653.692	0.0163163
653.771	0.0163558
653.849	0.0162867
653.927	0.0163896
654.005	0.0161494
654.083	0.0163152
654.161	0.0162094
654.239	0.0162818
654.317	0.0162982
654.396	0.0162534
654.474	0.0163136
654.552	0.0162305
654.630	0.0163395
654.708	0.0163126
654.786	0.0163531
654.864	0.0163380
654.942	0.0162267
655.021	0.0162747
655.099	0.0164696
655.177	0.0164262
655.255	0.0163299
655.333	0.0163113
655.411	0.0161774
655.489	0.0164477
655.567	0.0162608
655.646	0.0162845
655.724	0.0163290
655.802	0.0164142
655.880	0.0163364
655.958	0.0165305
656.036	0.0162728
656.114	0.0162606
656.192	0.0163642
656.271	0.0162751
656.349	0.0164445
656.427	0.0162322
656.505	0.0162865
656.583	0.0165123
656.661	0.0162868
656.739	0.0163718
656.817	0.0162916
656.896	0.0162446
656.974	0.0162682
657.052	0.0163889
657.130	0.0165422
657.208	0.0163261
657.286	0.0163094
657.364	0.0163243
657.442	0.0162942
657.521	0.0163969
657.599	0.0163510
657.677	0.0161769
657.755	0.0163093
657.833	0.0163297
657.911	0.0163271
657.989	0.0162961
658.067	0.0164427
658.146	0.0163812
658.224	0.0162547
658.302	0.0163542
658.380	0.0164034
658.458	0.0164011
658.536	0.0163084
658.614	0.0163934
658.692	0.0161909
658.771	0.0161668
658.849	0.0162819
658.927	0.0161958
659.005	0.0163092
659.083	0.0162846
659.161	0.0162347
659.239	0.0162556
659.317	0.0162267
659.396	0.0163091
659.474	0.0162144
659.552	0.0163215
659.630	0.0162952
659.708	0.0162687
659.786	0.0162513
659.864	0.0162190
659.942	0.0163274
660.021	0.0163808
660.099	0.0161990
660.177	0.0163242
660.255	0.0162765
660.333	0.0163731
660.411	0.0163184
660.489	0.0162977
660.567	0.0163696
660.646	0.0163647
660.724	0.0163171
660.802	0.0163538
660.880	0.0161311
660.958	0.0162633
661.036	0.0163155
661.114	0.0163554
661.192	0.0164164
661.271	0.0161681
661.349	0.0162480
661.427	0.0162534
661.505	0.0164938
661.583	0.0163293
661.661	0.0162254
661.739	0.0161800
661.817	0.0163036
661.896	0.0164307
661.974	0.0164085
662.052	0.0162444
662.130	0.0161736
662.208	0.0162419
662.286	0.0161949
662.364	0.0161760
662.442	0.0163094
662.521	0.0162669
662.599	0.0163323
662.677	0.0164010
662.755	0.0163345
662.833	0.0163569
662.911	0.0162007
662.989	0.0163585
663.067	0.0162321
663.146	0.0163355
663.224	0.0163934
663.302	0.0163545
663.380	0.0162823
663.458	0.0164321
663.536	0.0163498
663.614	0.0162502
663.692	0.0162904
663.771	0.0164439
663.849	0.0161818
663.927	0.0162971
664.005	0.0163132
664.083	0.0162671
664.161	0.0162046
664.239	0.0164051
664.317	0.0162913
664.396	0.0163922
664.474	0.0163808
664.552	0.0162580
664.630	0.0164015
664.708	0.0162914
664.786	0.0163028
664.864	0.0162796
664.942	0.0163072
665.021	0.0162859
665.099	0.0163194
665.177	0.0163184
665.255	0.0162637
665.333	0.0162630
665.411	0.0163504
665.489	0.0164239
665.567	0.0162598
665.646	0.0161982
665.724	0.0162691
665.802	0.0163364
665.880	0.0162312
665.958	0.0163517
666.036	0.0161999
666.114	0.0162981
666.192	0.0162394
666.271	0.0163069
666.349	0.0162561
666.427	0.0162910
666.505	0.0162849
666.583	0.0163797
666.661	0.0162505
666.739	0.0163730
666.817	0.0164158
666.896	0.0162670
666.974	0.0164831
667.052	0.0163322
667.130	0.0162968
667.208	0.0164088
667.286	0.0163859
667.364	0.0162669
667.442	0.0163597
667.521	0.0164184
667.599	0.0163877
667.677	0.0162405
667.755	0.0162704
667.833	0.0163216
667.911	0.0164610
667.989	0.0163190
668.067	0.0161932
668.146	0.0163269
668.224	0.0163873
668.302	0.0162013
668.380	0.0162948
668.458	0.0162453
668.536	0.0162348
668.614	0.0163649
668.692	0.0162563
668.771	0.0162733
668.849	0.0163160
668.927	0.0164003
669.005	0.0162503
669.083	0.0164213
669.161	0.0164690
669.239	0.0163015
669.317	0.0163693
669.396	0.0162990
669.474	0.0162804
669.552	0.0163889
669.630	0.0163123
669.708	0.0163668
669.786	0.0162549
669.864	0.0162945
669.942	0.0161469
670.021	0.0162601
670.099	0.0162453
670.177	0.0164590
670.255	0.0163280
670.333	0.0164383
670.411	0.0164256
670.489	0.0163515
670.567	0.0163023
670.646	0.0164209
670.724	0.0162933
670.802	0.0163305
670.880	0.0164339
670.958	0.0163313
671.036	0.0163871
671.114	0.0162348
671.192	0.0164023
671.271	0.0163033
671.349	0.0163209
671.427	0.0163861
671.505	0.0163909
671.583	0.0163512
671.661	0.0162959
671.739	0.0163707
671.817	0.0163330
671.896	0.0162794
671.974	0.0162509
672.052	0.0162513
672.130	0.0162875
672.208	0.0164194
672.286	0.0162485
672.364	0.0162903
672.442	0.0164057
672.521	0.0163779
672.599	0.0163728
672.677	0.0163187
672.755	0.0162753
672.833	0.0163626
672.911	0.0162608
672.989	0.0163041
673.067	0.0162112
673.146	0.0162482
673.224	0.0162995
673.302	0.0163840
673.380	0.0163219
673.458	0.0163586
673.536	0.0164355
673.614	0.0164344
673.692	0.0165044
673.771	0.0165038
673.849	0.0164066
673.927	0.0164187
674.005	0.0164319
674.083	0.0163461
674.161	0.0162500
674.239	0.0164342
674.317	0.0164245
674.396	0.0161305
674.474	0.0161800
674.552	0.0162140
674.630	0.0162991
674.708	0.0162627
674.786	0.0163357
674.864	0.0162932
674.942	0.0163139
675.021	0.0165194
675.099	0.0166652
675.177	0.0165738
675.255	0.0166277
675.333	0.0165934
675.411	0.0166277
675.489	0.0163711
675.567	0.0164314
675.646	0.0163621
675.724	0.0163657
675.802	0.0162998
675.880	0.0161470
675.958	0.0158900
676.036	0.0159447
676.114	0.0159250
676.192	0.0159477
676.271	0.0160785
676.349	0.0162881
676.427	0.0164474
676.505	0.0165135
676.583	0.0166763
676.661	0.0167775
676.739	0.0169137
676.817	0.0169579
676.896	0.0169125
676.974	0.0167527
677.052	0.0166469
677.130	0.0164690
677.208	0.0161939
677.286	0.0160036
677.364	0.0158765
677.442	0.0157726
677.521	0.0158282
677.599	0.0157562
677.677	0.0158642
677.755	0.0159228
677.833	0.0160346
677.911	0.0163569
677.989	0.0165858
678.067	0.0167191
678.146	0.0169463
678.224	0.0170834
678.302	0.0169029
678.380	0.0168874
678.458	0.0167635
678.536	0.0165237
678.614	0.0162987
678.692	0.0160788
678.771	0.0160297
678.849	0.0158051
678.927	0.0158749
679.005	0.0157202
679.083	0.0158096
679.161	0.0157816
679.239	0.0158199
679.317	0.0159373
679.396	0.0160499
679.474	0.0161671
679.552	0.0162957
679.630	0.0165531
679.708	0.0166511
679.786	0.0167706
679.864	0.0166167
679.942	0.0167392
680.021	0.0166261
680.099	0.0165411
680.177	0.0165584
680.255	0.0164590
680.333	0.0162675
680.411	0.0161947
680.489	0.0161462
680.567	0.0159411
680.646	0.0158627
680.724	0.0159143
680.802	0.0159089
680.880	0.0160138
680.958	0.0160745
681.036	0.0162253
681.114	0.0161920
681.192	0.0165141
681.271	0.0165354
681.349	0.0166766
681.427	0.0167869
681.505	0.0166029
681.583	0.0166758
681.661	0.0164804
681.739	0.0164010
681.817	0.0164108
681.896	0.0163090
681.974	0.0161766
682.052	0.0160963
682.130	0.0162360
682.208	0.0162097
682.286	0.0161700
682.364	0.0162174
682.442	0.0161562
682.521	0.0162501
682.599	0.0163239
682.677	0.0162379
682.755	0.0162663
682.833	0.0162572
682.911	0.0162143
682.989	0.0162154
683.067	0.0162589
683.146	0.0161900
683.224	0.0163320
683.302	0.0163155
683.380	0.0162830
683.458	0.0164562
683.536	0.0163286
683.614	0.0164278
683.692	0.0165533
683.771	0.0165495
683.849	0.0165575
683.927	0.0163790
684.005	0.0163521
684.083	0.0161668
684.161	0.0160749
684.239	0.0161153
684.317	0.0161034
684.396	0.0158356
684.474	0.0159740
684.552	0.0160636
684.630	0.0161972
684.708	0.0161897
684.786	0.0163074
684.864	0.0164451
684.942	0.0164298
685.021	0.0165334
685.099	0.0165517
685.177	0.0165479
685.255	0.0167128
685.333	0.0166176
685.411	0.0163500
685.489	0.0163852
685.567	0.0162590
685.646	0.0162254
685.724	0.0161175
685.802	0.0159422
685.880	0.0158445
685.958	0.0158923
686.036	0.0161234
686.114	0.0160592
686.192	0.0161645
686.271	0.0162553
686.349	0.0164635
686.427	0.0165609
686.505	0.0165205
686.583	0.0166121
686.661	0.0165363
686.739	0.0163800
686.817	0.0164549
686.896	0.0164462
686.974	0.0163893
687.052	0.0164133
687.130	0.0161926
687.208	0.0160902
687.286	0.0161672
687.364	0.0161627
687.442	0.0162387
687.521	0.0161612
687.599	0.0163422
687.677	0.0163615
687.755	0.0162383
687.833	0.0164793
687.911	0.0164502
687.989	0.0164442
688.067	0.0163136
688.146	0.0163077
688.224	0.0161794
688.302	0.0161427
688.380	0.0160397
688.458	0.0160723
688.536	0.0161662
688.614	0.0162120
688.692	0.0161417
688.771	0.0163179
688.849	0.0162177
688.927	0.0163155
689.005	0.0162157
689.083	0.0163435
689.161	0.0165033
689.239	0.0163813
689.317	0.0163607
689.396	0.0162592
689.474	0.0164893
689.552	0.0163431
689.630	0.0159734
689.708	0.0162140
689.786	0.0161645
689.864	0.0161761
689.942	0.0160962
690.021	0.0161771
690.099	0.0162474
690.177	0.0163922
690.255	0.0163605
690.333	0.0163883
690.411	0.0164449
690.489	0.0163990
690.567	0.0164084
690.646	0.0165230
690.724	0.0164935
690.802	0.0164020
690.880	0.0163593
690.958	0.0162410
691.036	0.0160841
691.114	0.0161642
691.192	0.0161248
691.271	0.0161177
691.349	0.0161683
691.427	0.0161732
691.505	0.0162285
691.583	0.0163375
691.661	0.0163613
691.739	0.0164061
691.817	0.0165157
691.896	0.0165971
691.974	0.0165588
692.052	0.0165931
692.130	0.0166446
692.208	0.0165714
692.286	0.0164876
692.364	0.0164988
692.442	0.0165726
692.521	0.0163573
692.599	0.0163358
692.677	0.0162311
692.755	0.0163131
692.833	0.0162440
692.911	0.0160709
692.989	0.0162903
693.067	0.0161006
693.146	0.0163449
693.224	0.0164790
693.302	0.0164767
693.380	0.0164946
693.458	0.0165431
693.536	0.0164532
693.614	0.0164680
693.692	0.0164675
693.771	0.0163581
693.849	0.0162642
693.927	0.0162653
694.005	0.0162390
694.083	0.0162415
694.161	0.0161400
694.239	0.0160085
694.317	0.0161826
694.396	0.0160964
694.474	0.0161872
694.552	0.0162459
694.630	0.0162708
694.708	0.0162548
694.786	0.0162434
694.864	0.0163610
694.942	0.0164647
695.021	0.0164017
695.099	0.0164983
695.177	0.0163029
695.255	0.0163648
695.333	0.0164071
695.411	0.0162856
695.489	0.0164906
695.567	0.0165694
695.646	0.0165063
695.724	0.0166494
695.802	0.0167527
695.880	0.0165183
695.958	0.0165959
696.036	0.0167110
696.114	0.0167576
696.192	0.0165150
696.271	0.0165915
696.349	0.0165611
696.427	0.0164863
696.505	0.0164725
696.583	0.0165993
696.661	0.0163973
696.739	0.0164857
696.817	0.0164128
696.896	0.0163599
696.974	0.0163510
697.052	0.0163237
697.130	0.0162860
697.208	0.0164565
697.286	0.0164490
697.364	0.0164797
697.442	0.0164395
697.521	0.0165641
697.599	0.0165230
697.677	0.0166144
697.755	0.0165728
697.833	0.0164037
697.911	0.0162861
697.989	0.0164700
698.067	0.0163873
698.146	0.0161555
698.224	0.0162082
698.302	0.0159817
698.380	0.0159906
698.458	0.0157722
698.536	0.0159431
698.614	0.0160574
698.692	0.0159159
698.771	0.0158965
698.849	0.0160073
698.927	0.0159064
699.005	0.0158331
699.083	0.0160715
699.161	0.0159123
699.239	0.0159762
699.317	0.0158853
699.396	0.0158588
699.474	0.0159725
699.552	0.0160907
699.630	0.0158616
699.708	0.0160505
699.786	0.0161635
699.864	0.0162010
699.942	0.0162845
700.021	0.0163196
700.099	0.0164500
700.177	0.0165784
700.255	0.0167455
700.333	0.0167699
700.411	0.0168208
700.489	0.0169983
700.567	0.0169143
700.646	0.0169218
700.724	0.0169806
700.802	0.0169657
700.880	0.0170361
700.958	0.0170238
701.036	0.0169624
701.114	0.0169721
701.192	0.0168893
701.271	0.0167371
701.349	0.0165817
701.427	0.0164719
701.505	0.0165723
701.583	0.0163537
701.661	0.0162551
701.739	0.0160770
701.817	0.0162618
701.896	0.0160017
701.974	0.0161267
702.052	0.0158924
702.130	0.0158699
702.208	0.0158878
702.286	0.0159225
702.364	0.0159004
702.442	0.0160641
702.521	0.0158987
702.599	0.0160617
702.677	0.0161940
702.755	0.0161566
702.833	0.0161880
702.911	0.0162322
702.989	0.0162920
703.067	0.0162384
703.146	0.0161962
703.224	0.0162333
703.302	0.0162374
703.380	0.0163931
703.458	0.0165148
703.536	0.0163867
703.614	0.0164044
703.692	0.0163518
703.771	0.0161901
703.849	0.0163713
703.927	0.0162361
704.005	0.0161504
704.083	0.0162103
704.161	0.0161192
704.239	0.0161102
704.317	0.0160635
704.396	0.0159526
704.474	0.0160203
704.552	0.0160674
704.630	0.0161736
704.708	0.0162210
704.786	0.0162852
704.864	0.0162894
704.942	0.0163044
705.021	0.0163801
705.099	0.0163057
705.177	0.0161416
705.255	0.0161829
705.333	0.0160162
705.411	0.0159910
705.489	0.0158063
705.567	0.0158902
705.646	0.0157969
705.724	0.0157520
705.802	0.0156760
705.880	0.0157441
705.958	0.0156809
706.036	0.0157452
706.114	0.0159270
706.192	0.0159637
706.271	0.0163481
706.349	0.0164561
706.427	0.0167809
706.505	0.0169290
706.583	0.0172063
706.661	0.0172718
706.739	0.0176146
706.817	0.0178760
706.896	0.0181812
706.974	0.0181766
707.052	0.0181676
707.130	0.0182390
707.208	0.0181419
707.286	0.0179901
707.364	0.0178255
707.442	0.0175310
707.521	0.0171889
707.599	0.0168120
707.677	0.0164902
707.755	0.0161486
707.833	0.0157664
707.911	0.0156708
707.989	0.0151215
708.067	0.0149729
708.146	0.0149265
708.224	0.0147515
708.302	0.0147902
708.380	0.0148618
708.458	0.0150169
708.536	0.0151286
708.614	0.0151671
708.692	0.0152723
708.771	0.0154566
708.849	0.0154220
708.927	0.0154375
709.005	0.0156836
709.083	0.0157687
709.161	0.0157925
709.239	0.0159967
709.317	0.0160068
709.396	0.0161752
709.474	0.0160143
709.552	0.0160776
709.630	0.0162612
709.708	0.0163367
709.786	0.0163108
709.864	0.0163574
709.942	0.0164088
710.021	0.0165447
710.099	0.0167812
710.177	0.0167204
710.255	0.0167321
710.333	0.0168076
710.411	0.0170049
710.489	0.0168740
710.567	0.0167459
710.646	0.0166706
710.724	0.0164526
710.802	0.0163245
710.880	0.0162888
710.958	0.0161598
711.036	0.0158471
711.114	0.0158004
711.192	0.0155985
711.271	0.0157650
711.349	0.0157899
711.427	0.0156979
711.505	0.0158586
711.583	0.0159487
711.661	0.0161227
711.739	0.0161612
711.817	0.0161269
711.896	0.0162926
711.974	0.0164126
712.052	0.0162988
712.130	0.0165184
712.208	0.0165178
712.286	0.0168027
712.364	0.0167426
712.442	0.0167458
712.521	0.0169577
712.599	0.0172363
712.677	0.0171973
712.755	0.0173485
712.833	0.0177002
712.911	0.0178505
712.989	0.0178636
713.067	0.0180792
713.146	0.0182796
713.224	0.0183751
713.302	0.0182776
713.380	0.0182534
713.458	0.0182043
713.536	0.0181803
713.614	0.0181084
713.692	0.0177570
713.771	0.0174935
713.849	0.0172908
713.927	0.0170521
714.005	0.0167799
714.083	0.0165916
714.161	0.0163053
714.239	0.0161810
714.317	0.0158691
714.396	0.0156151
714.474	0.0152565
714.552	0.0150352
714.630	0.0148450
714.708	0.0145769
714.786	0.0143597
714.864	0.0139976
714.942	0.0138260
715.021	0.0136582
715.099	0.0132906
715.177	0.0131908
715.255	0.0130257
715.333	0.0129034
715.411	0.0129945
715.489	0.0131369
715.567	0.0133035
715.646	0.0134666
715.724	0.0136233
715.802	0.0141456
715.880	0.0145473
715.958	0.0151497
716.036	0.0156855
716.114	0.0161934
716.192	0.0167706
716.271	0.0172994
716.349	0.0178926
716.427	0.0183578
716.505	0.0188801
716.583	0.0190929
716.661	0.0193185
716.739	0.0194825
716.817	0.0196320
716.896	0.0195018
716.974	0.0192236
717.052	0.0190217
717.130	0.0186549
717.208	0.0182524
717.286	0.0179684
717.364	0.0175114
717.442	0.0174018
717.521	0.0167780
717.599	0.0163970
717.677	0.0162227
717.755	0.0158652
717.833	0.0155806
717.911	0.0152457
717.989	0.0152585
718.067	0.0150509
718.146	0.0147983
718.224	0.0147730
718.302	0.0148006
718.380	0.0147903
718.458	0.0148814
718.536	0.0151864
718.614	0.0154301
718.692	0.0158101
718.771	0.0159960
718.849	0.0166374
718.927	0.0170798
719.005	0.0176399
719.083	0.0181569
719.161	0.0186781
719.239	0.0189652
719.317	0.0194218
719.396	0.0198637
719.474	0.0200004
719.552	0.0200666
719.630	0.0202100
719.708	0.0202702
719.786	0.0199651
719.864	0.0197801
719.942	0.0193899
720.021	0.0189079
720.099	0.0183022
720.177	0.0178484
720.255	0.0172746
720.333	0.0166239
720.411	0.0161925
720.489	0.0157444
720.567	0.0150813
720.646	0.0145314
720.724	0.0140672
720.802	0.0135328
720.880	0.0130035
720.958	0.0126800
721.036	0.0121355
721.114	0.0117442
721.192	0.0114399
721.271	0.0110797
721.349	0.0108409
721.427	0.0107063
721.505	0.0105608
721.583	0.0105603
721.661	0.0106148
721.739	0.0109211
721.817	0.0112282
721.896	0.0116694
721.974	0.0123440
722.052	0.0130183
722.130	0.0137164
722.208	0.0143999
722.286	0.0151414
722.364	0.0159540
722.442	0.0168871
722.521	0.0177064
722.599	0.0183585
722.677	0.0191357
722.755	0.0195143
722.833	0.0200523
722.911	0.0204259
722.989	0.0208231
723.067	0.0210004
723.146	0.0211288
723.224	0.0212558
723.302	0.0213022
723.380	0.0210141
723.458	0.0208551
723.536	0.0206109
723.614	0.0203176
723.692	0.0198727
723.771	0.0192549
723.849	0.0188851
723.927	0.0184034
724.005	0.0180871
724.083	0.0175618
724.161	0.0171803
724.239	0.0167338
724.317	0.0163731
724.396	0.0160772
724.474	0.0156416
724.552	0.0153240
724.630	0.0151453
724.708	0.0150548
724.786	0.0149445
724.864	0.0146920
724.942	0.0141665
725.021	0.0143779
725.099	0.0145699
725.177	0.0146329
725.255	0.0147476
725.333	0.0152547
725.411	0.0153934
725.489	0.0159521
725.567	0.0164264
725.646	0.0168549
725.724	0.0173889
725.802	0.0178648
725.880	0.0181464
725.958	0.0184566
726.036	0.0188138
726.114	0.0191831
726.192	0.0192319
726.271	0.0188799
726.349	0.0188949
726.427	0.0186993
726.505	0.0184635
726.583	0.0179523
726.661	0.0176144
726.739	0.0174368
726.817	0.0167939
726.896	0.0163551
726.974	0.0159746
727.052	0.0155677
727.130	0.0152253
727.208	0.0148760
727.286	0.0143575
727.364	0.0139395
727.442	0.0136366
727.521	0.0131654
727.599	0.0126228
727.677	0.0121486
727.755	0.0117489
727.833	0.0114301
727.911	0.0112802
727.989	0.0111486
728.067	0.0110075
728.146	0.0111713
728.224	0.0112575
728.302	0.0114413
728.380	0.0119759
728.458	0.0124390
728.536	0.0128959
728.614	0.0137180
728.692	0.0143737
728.771	0.0150513
728.849	0.0158499
728.927	0.0167378
729.005	0.0176166
729.083	0.0180831
729.161	0.0188631
729.239	0.0193303
729.317	0.0195475
729.396	0.0196584
729.474	0.0198218
729.552	0.0194744
729.630	0.0193079
729.708	0.0189847
729.786	0.0183122
729.864	0.0177838
729.942	0.0175307
730.021	0.0169253
730.099	0.0165598
730.177	0.0162212
730.255	0.0160876
730.333	0.0161578
730.411	0.0163181
730.489	0.0164969
730.567	0.0167953
730.646	0.0172137
730.724	0.0175121
730.802	0.0179655
730.880	0.0185578
730.958	0.0189810
731.036	0.0196628
731.114	0.0201604
731.192	0.0204224
731.271	0.0210247
731.349	0.0214335
731.427	0.0215601
731.505	0.0217861
731.583	0.0221008
731.661	0.0221063
731.739	0.0217997
731.817	0.0218693
731.896	0.0216049
731.974	0.0211018
732.052	0.0206787
732.130	0.0200336
732.208	0.0192393
732.286	0.0185919
732.364	0.0176733
732.442	0.0168409
732.521	0.0159030
732.599	0.0150038
732.677	0.0142960
732.755	0.0134763
732.833	0.0126480
732.911	0.0118952
732.989	0.0114294
733.067	0.0108559
733.146	0.0104150
733.224	0.00982880
733.302	0.00954239
733.380	0.00934624
733.458	0.00910149
733.536	0.00912498
733.614	0.00909843
733.692	0.00913216
733.771	0.00933235
733.849	0.00951942
733.927	0.00991714
734.005	0.0101688
734.083	0.0105215
734.161	0.0109859
734.239	0.0117840
734.317	0.0123450
734.396	0.0131826
734.474	0.0141058
734.552	0.0148144
734.630	0.0155777
734.708	0.0165078
734.786	0.0172742
734.864	0.0178319
734.942	0.0181557
735.021	0.0185765
735.099	0.0186736
735.177	0.0187827
735.255	0.0185753
735.333	0.0184190
735.411	0.0180486
735.489	0.0178287
735.567	0.0174050
735.646	0.0171190
735.724	0.0170505
735.802	0.0168248
735.880	0.0169209
735.958	0.0171774
736.036	0.0175153
736.114	0.0180568
736.192	0.0187386
736.271	0.0192348
736.349	0.0199900
736.427	0.0206696
736.505	0.0213533
736.583	0.0217768
736.661	0.0223439
736.739	0.0228490
736.817	0.0230854
736.896	0.0231855
736.974	0.0232146
737.052	0.0231911
737.130	0.0229611
737.208	0.0228492
737.286	0.0224746
737.364	0.0222277
737.442	0.0218332
737.521	0.0214803
737.599	0.0207285
737.677	0.0198547
737.755	0.0194444
737.833	0.0186372
737.911	0.0177412
737.989	0.0169122
738.067	0.0161311
738.146	0.0152037
738.224	0.0145720
738.302	0.0138277
738.380	0.0132812
738.458	0.0127202
738.536	0.0121427
738.614	0.0117372
738.692	0.0115003
738.771	0.0111826
738.849	0.0108868
738.927	0.0108394
739.005	0.0106180
739.083	0.0104720
739.161	0.0103986
739.239	0.0103179
739.317	0.0103673
739.396	0.0107019
739.474	0.0107696
739.552	0.0108055
739.630	0.0111425
739.708	0.0115452
739.786	0.0120390
739.864	0.0123154
739.942	0.0127310
740.021	0.0133846
740.099	0.0137335
740.177	0.0141189
740.255	0.0146078
740.333	0.0151241
740.411	0.0152765
740.489	0.0154308
740.567	0.0156223
740.646	0.0155994
740.724	0.0156748
740.802	0.0157780
740.880	0.0157515
740.958	0.0158762
741.036	0.0159277
741.114	0.0159418
741.192	0.0160616
741.271	0.0163117
741.349	0.0164717
741.427	0.0167825
741.505	0.0172378
741.583	0.0175682
741.661	0.0180568
741.739	0.0187088
741.817	0.0192628
741.896	0.0197324
741.974	0.0205028
742.052	0.0211971
742.130	0.0216051
742.208	0.0220818
742.286	0.0224444
742.364	0.0228006
742.442	0.0228290
742.521	0.0228958
742.599	0.0227144
742.677	0.0225643
742.755	0.0222073
742.833	0.0218159
742.911	0.0216255
742.989	0.0210847
743.067	0.0204944
743.146	0.0201221
743.224	0.0195972
743.302	0.0189307
743.380	0.0183250
743.458	0.0176878
743.536	0.0171595
743.614	0.0163580
743.692	0.0158527
743.771	0.0152355
743.849	0.0147726
743.927	0.0140805
744.005	0.0135230
744.083	0.0132576
744.161	0.0129967
744.239	0.0126779
744.317	0.0124574
744.396	0.0122566
744.474	0.0120692
744.552	0.0120430
744.630	0.0119877
744.708	0.0119487
744.786	0.0119868
744.864	0.0119556
744.942	0.0120900
745.021	0.0121138
745.099	0.0124107
745.177	0.0126645
745.255	0.0128510
745.333	0.0131119
745.411	0.0133671
745.489	0.0137949
745.567	0.0142196
745.646	0.0145731
745.724	0.0147614
745.802	0.0151879
745.880	0.0156160
745.958	0.0158475
746.036	0.0159785
746.114	0.0161304
746.192	0.0163699
746.271	0.0164137
746.349	0.0164378
746.427	0.0164963
746.505	0.0165228
746.583	0.0167210
746.661	0.0168349
746.739	0.0170294
746.817	0.0171033
746.896	0.0172997
746.974	0.0175889
747.052	0.0177243
747.130	0.0179629
747.208	0.0184010
747.286	0.0184081
747.364	0.0186047
747.442	0.0186418
747.521	0.0187798
747.599	0.0189346
747.677	0.0187936
747.755	0.0189716
747.833	0.0188633
747.911	0.0187393
747.989	0.0187296
748.067	0.0186366
748.146	0.0183918
748.224	0.0181734
748.302	0.0181734
748.380	0.0180634
748.458	0.0178111
748.536	0.0178583
748.614	0.0175903
748.692	0.0176598
748.771	0.0175629
748.849	0.0174804
748.927	0.0173419
749.005	0.0173692
749.083	0.0171468
749.161	0.0169555
749.239	0.0166056
749.317	0.0164165
749.396	0.0162765
749.474	0.0158860
749.552	0.0156763
749.630	0.0153595
749.708	0.0152206
749.786	0.0149927
749.864	0.0146808
749.942	0.0144703
750.021	0.0144427
750.099	0.0143507
750.177	0.0141354
750.255	0.0140479
750.333	0.0140983
750.411	0.0140817
750.489	0.0139473
750.567	0.0140929
750.646	0.0141741
750.724	0.0141479
750.802	0.0142290
750.880	0.0144310
750.958	0.0146051
751.036	0.0147950
751.114	0.0149706
751.192	0.0152309
751.271	0.0153960
751.349	0.0155329
751.427	0.0158899
751.505	0.0161558
751.583	0.0163061
751.661	0.0165930
751.739	0.0166493
751.817	0.0168011
751.896	0.0168598
751.974	0.0170522
752.052	0.0170601
752.130	0.0172128
752.208	0.0173347
752.286	0.0174731
752.364	0.0173659
752.442	0.0174928
752.521	0.0176161
752.599	0.0177274
752.677	0.0179798
752.755	0.0178248
752.833	0.0177344
752.911	0.0177578
752.989	0.0178349
753.067	0.0177435
753.146	0.0176171
753.224	0.0174855
753.302	0.0173612
753.380	0.0173154
753.458	0.0171542
753.536	0.0169331
753.614	0.0168709
753.692	0.0168767
753.771	0.0165926
753.849	0.0166224
753.927	0.0166536
754.005	0.0166683
754.083	0.0167328
754.161	0.0165676
754.239	0.0166668
754.317	0.0168237
754.396	0.0168890
754.474	0.0171049
754.552	0.0168935
754.630	0.0170142
754.708	0.0171333
754.786	0.0170356
754.864	0.0172113
754.942	0.0169390
755.021	0.0169464
755.099	0.0167582
755.177	0.0166640
755.255	0.0167324
755.333	0.0165250
755.411	0.0164827
755.489	0.0162000
755.567	0.0159851
755.646	0.0157207
755.724	0.0153278
755.802	0.0152586
755.880	0.0150799
755.958	0.0144122
756.036	0.0143256
756.114	0.0140334
756.192	0.0136359
756.271	0.0136144
756.349	0.0134498
756.427	0.0133424
756.505	0.0133219
756.583	0.0133206
756.661	0.0135217
756.739	0.0136101
756.817	0.0139688
756.896	0.0140945
756.974	0.0144214
757.052	0.0147224
757.130	0.0151031
757.208	0.0155250
757.286	0.0158076
757.364	0.0161804
757.442	0.0163763
757.521	0.0167139
757.599	0.0171951
757.677	0.0175410
757.755	0.0177002
757.833	0.0180752
757.911	0.0183555
757.989	0.0185274
758.067	0.0186365
758.146	0.0187033
758.224	0.0188017
758.302	0.0189487
758.380	0.0188744
758.458	0.0189557
758.536	0.0187793
758.614	0.0186304
758.692	0.0185251
758.771	0.0182037
758.849	0.0180031
758.927	0.0176539
759.005	0.0173132
759.083	0.0169899
759.161	0.0168604
759.239	0.0165636
759.317	0.0163900
759.396	0.0161482
759.474	0.0160154
759.552	0.0159208
759.630	0.0159045
759.708	0.0156738
759.786	0.0158665
759.864	0.0158920
759.942	0.0158247
760.021	0.0159750
760.099	0.0160890
760.177	0.0162209
760.255	0.0160983
760.333	0.0163197
760.411	0.0165253
760.489	0.0167275
760.567	0.0167320
760.646	0.0168931
760.724	0.0169314
760.802	0.0170065
760.880	0.0171581
760.958	0.0169952
761.036	0.0168203
761.114	0.0168658
761.192	0.0167501
761.271	0.0163807
761.349	0.0162762
761.427	0.0161177
761.505	0.0157530
761.583	0.0156343
761.661	0.0151448
761.739	0.0151786
761.817	0.0149887
761.896	0.0147797
761.974	0.0148260
762.052	0.0146278
762.130	0.0144690
762.208	0.0144870
762.286	0.0143805
762.364	0.0143209
762.442	0.0143533
762.521	0.0144241
762.599	0.0144413
762.677	0.0145002
762.755	0.0147440
762.833	0.0148444
762.911	0.0150449
762.989	0.0153558
763.067	0.0155412
763.146	0.0158439
763.224	0.0159909
763.302	0.0163896
763.380	0.0166237
763.458	0.0169308
763.536	0.0172212
763.614	0.0174892
763.692	0.0175238
763.771	0.0177641
763.849	0.0179192
763.927	0.0179376
764.005	0.0177919
764.083	0.0178961
764.161	0.0178756
764.239	0.0176717
764.317	0.0175069
764.396	0.0173631
764.474	0.0171632
764.552	0.0167931
764.630	0.0166364
764.708	0.0164968
764.786	0.0162516
764.864	0.0160895
764.942	0.0158698
765.021	0.0156923
765.099	0.0156155
765.177	0.0155090
765.255	0.0156748
765.333	0.0156643
765.411	0.0155809
765.489	0.0157648
765.567	0.0158951
765.646	0.0160187
765.724	0.0161551
765.802	0.0164137
765.880	0.0166711
765.958	0.0167909
766.036	0.0172713
766.114	0.0174540
766.192	0.0176076
766.271	0.0176875
766.349	0.0178058
766.427	0.0178220
766.505	0.0179723
766.583	0.0180482
766.661	0.0179032
766.739	0.0177666
766.817	0.0177806
766.896	0.0174636
766.974	0.0172405
767.052	0.0169526
767.130	0.0166574
767.208	0.0165157
767.286	0.0163472
767.364	0.0160472
767.442	0.0157403
767.521	0.0157470
767.599	0.0154479
767.677	0.0152916
767.755	0.0151917
767.833	0.0150499
767.911	0.0149281
767.989	0.0147531
768.067	0.0148846
768.146	0.0148759
768.224	0.0147776
768.302	0.0147979
768.380	0.0149739
768.458	0.0151474
768.536	0.0149644
768.614	0.0152383
768.692	0.0153609
768.771	0.0156704
768.849	0.0159056
768.927	0.0160211
769.005	0.0161456
769.083	0.0161240
769.161	0.0163834
769.239	0.0165046
769.317	0.0166623
769.396	0.0168988
769.474	0.0168448
769.552	0.0169661
769.630	0.0169511
769.708	0.0170914
769.786	0.0169838
769.864	0.0170345
769.942	0.0168694
770.021	0.0167616
770.099	0.0168522
770.177	0.0165729
770.255	0.0164642
770.333	0.0162059
770.411	0.0159828
770.489	0.0160056
770.567	0.0156882
770.646	0.0156750
770.724	0.0154234
770.802	0.0153732
770.880	0.0152852
770.958	0.0154518
771.036	0.0155449
771.114	0.0154453
771.192	0.0156567
771.271	0.0158086
771.349	0.0158298
771.427	0.0162167
771.505	0.0165094
771.583	0.0167667
771.661	0.0167918
771.739	0.0172058
771.817	0.0173272
771.896	0.0176044
771.974	0.0175813
772.052	0.0177226
772.130	0.0178118
772.208	0.0177596
772.286	0.0177930
772.364	0.0176501
772.442	0.0175933
772.521	0.0172504
772.599	0.0172292
772.677	0.0170087
772.755	0.0169536
772.833	0.0166707
772.911	0.0164908
772.989	0.0162704
773.067	0.0162219
773.146	0.0162333
773.224	0.0158555
773.302	0.0157710
773.380	0.0158377
773.458	0.0158862
773.536	0.0156827
773.614	0.0156559
773.692	0.0157510
773.771	0.0157932
773.849	0.0156585
773.927	0.0157790
774.005	0.0157750
774.083	0.0158984
774.161	0.0158639
774.239	0.0160493
774.317	0.0160912
774.396	0.0161710
774.474	0.0162230
774.552	0.0163583
774.630	0.0164543
774.708	0.0166331
774.786	0.0169492
774.864	0.0168734
774.942	0.0170766
775.021	0.0172115
775.099	0.0171419
775.177	0.0171259
775.255	0.0171904
775.333	0.0171072
775.411	0.0172260
775.489	0.0171386
775.567	0.0168887
775.646	0.0168085
775.724	0.0166952
775.802	0.0165107
775.880	0.0162904
775.958	0.0163127
776.036	0.0160778
776.114	0.0160152
776.192	0.0159480
776.271	0.0157818
776.349	0.0158469
776.427	0.0155817
776.505	0.0155054
776.583	0.0155858
776.661	0.0155466
776.739	0.0156013
776.817	0.0157147
776.896	0.0156705
776.974	0.0157648
777.052	0.0157906
777.130	0.0159335
777.208	0.0159496
777.286	0.0161877
777.364	0.0160957
777.442	0.0163425
777.521	0.0164346
777.599	0.0163957
777.677	0.0166185
777.755	0.0165788
777.833	0.0166827
777.911	0.0168221
777.989	0.0167265
778.067	0.0166975
778.146	0.0166506
778.224	0.0166875
778.302	0.0165166
778.380	0.0166703
778.458	0.0166060
778.536	0.0166598
778.614	0.0165643
778.692	0.0166850
778.771	0.0167244
778.849	0.0166550
778.927	0.0167123
779.005	0.0165645
779.083	0.0164065
779.161	0.0164756
779.239	0.0163950
779.317	0.0162339
779.396	0.0163515
779.474	0.0161826
779.552	0.0158758
779.630	0.0160699
779.708	0.0159845
779.786	0.0158374
779.864	0.0157914
779.942	0.0157945
780.021	0.0158250
780.099	0.0158319
780.177	0.0160278
780.255	0.0159819
780.333	0.0158510
780.411	0.0160925
780.489	0.0162109
780.567	0.0163068
780.646	0.0163805
780.724	0.0165501
780.802	0.0167674
780.880	0.0168121
780.958	0.0169133
781.036	0.0169138
781.114	0.0171247
781.192	0.0170435
781.271	0.0169995
781.349	0.0170390
781.427	0.0171056
781.505	0.0169616
781.583	0.0168523
781.661	0.0169513
781.739	0.0168955
781.817	0.0168908
781.896	0.0167658
781.974	0.0165417
782.052	0.0167773
782.130	0.0167155
782.208	0.0167629
782.286	0.0166671
782.364	0.0166867
782.442	0.0166053
782.521	0.0166949
782.599	0.0164019
782.677	0.0164323
782.755	0.0162809
782.833	0.0163295
782.911	0.0161488
782.989	0.0161052
783.067	0.0160889
783.146	0.0159592
783.224	0.0158217
783.302	0.0158221
783.380	0.0157200
783.458	0.0158118
783.536	0.0157938
783.614	0.0157622
783.692	0.0157662
783.771	0.0158785
783.849	0.0157607
783.927	0.0159708
784.005	0.0159153
784.083	0.0159649
784.161	0.0160966
784.239	0.0161247
784.317	0.0162607
784.396	0.0161215
784.474	0.0163991
784.552	0.0162276
784.630	0.0162589
784.708	0.0163076
784.786	0.0164653
784.864	0.0163940
784.942	0.0163264
785.021	0.0162794
785.099	0.0162511
785.177	0.0163650
785.255	0.0163416
785.333	0.0162508
785.411	0.0163461
785.489	0.0163087
785.567	0.0162010
785.646	0.0162101
785.724	0.0161927
785.802	0.0163444
785.880	0.0161378
785.958	0.0160724
786.036	0.0162000
786.114	0.0162319
786.192	0.0162428
786.271	0.0162325
786.349	0.0163420
786.427	0.0164342
786.505	0.0164521
786.583	0.0164605
786.661	0.0165003
786.739	0.0164590
786.817	0.0166576
786.896	0.0166380
786.974	0.0168371
787.052	0.0167194
787.130	0.0165582
787.208	0.0167569
787.286	0.0166697
787.364	0.0167915
787.442	0.0166711
787.521	0.0167742
787.599	0.0169083
787.677	0.0167445
787.755	0.0167373
787.833	0.0169540
787.911	0.0166393
787.989	0.0166543
788.067	0.0166345
788.146	0.0165096
788.224	0.0164557
788.302	0.0164086
788.380	0.0163428
788.458	0.0163322
788.536	0.0163014
788.614	0.0161118
788.692	0.0160924
788.771	0.0161804
788.849	0.0161445
788.927	0.0160353
789.005	0.0159965
789.083	0.0161983
789.161	0.0161464
789.239	0.0163573
789.317	0.0164529
789.396	0.0163031
789.474	0.0164326
789.552	0.0164896
789.630	0.0164833
789.708	0.0165617
789.786	0.0166698
789.864	0.0165424
789.942	0.0165836
790.021	0.0167660
790.099	0.0168204
790.177	0.0168015
790.255	0.0167654
790.333	0.0165910
790.411	0.0166579
790.489	0.0166839
790.567	0.0166006
790.646	0.0165449
790.724	0.0162968
790.802	0.0161762
790.880	0.0161749
790.958	0.0160423
791.036	0.0160564
791.114	0.0159475
791.192	0.0159052
791.271	0.0159882
791.349	0.0158923
791.427	0.0160020
791.505	0.0157723
791.583	0.0158410
791.661	0.0158430
791.739	0.0160027
791.817	0.0159418
791.896	0.0159370
791.974	0.0160832
792.052	0.0160023
792.130	0.0159938
792.208	0.0159181
792.286	0.0162399
792.364	0.0161958
792.442	0.0163663
792.521	0.0164455
792.599	0.0163570
792.677	0.0164763
792.755	0.0166074
792.833	0.0167381
792.911	0.0167928
792.989	0.0168211
793.067	0.0168275
793.146	0.0167960
793.224	0.0171001
793.302	0.0169823
793.380	0.0170322
793.458	0.0169443
793.536	0.0167872
793.614	0.0167360
793.692	0.0167020
793.771	0.0166260
793.849	0.0165005
793.927	0.0162942
794.005	0.0163174
794.083	0.0162731
794.161	0.0161483
794.239	0.0160224
794.317	0.0160617
794.396	0.0159740
794.474	0.0158997
794.552	0.0159447
794.630	0.0158710
794.708	0.0159007
794.786	0.0161815
794.864	0.0160732
794.942	0.0160059
795.021	0.0159695
795.099	0.0162396
795.177	0.0162613
795.255	0.0162795
795.333	0.0163933
795.411	0.0164746
795.489	0.0163445
795.567	0.0165228
795.646	0.0165782
795.724	0.0165031
795.802	0.0167595
795.880	0.0167253
795.958	0.0167466
796.036	0.0168182
796.114	0.0167676
796.192	0.0166692
796.271	0.0168597
796.349	0.0167841
796.427	0.0167167
796.505	0.0165877
796.583	0.0165691
796.661	0.0165538
796.739	0.0165722
796.817	0.0164844
796.896	0.0165440
796.974	0.0162672
797.052	0.0161819
797.130	0.0160339
797.208	0.0160747
797.286	0.0160931
797.364	0.0159679
797.442	0.0158762
797.521	0.0160492
797.599	0.0158302
797.677	0.0159859
797.755	0.0159502
797.833	0.0159767
797.911	0.0159077
797.989	0.0160913
798.067	0.0160416
798.146	0.0160263
798.224	0.0162411
798.302	0.0162493
798.380	0.0162934
798.458	0.0164800
798.536	0.0165350
798.614	0.0165199
798.692	0.0167010
798.771	0.0167804
798.849	0.0170039
798.927	0.0170862
799.005	0.0169611
799.083	0.0169667
799.161	0.0169074
799.239	0.0168652
799.317	0.0168863
799.396	0.0170365
799.474	0.0166895
799.552	0.0166818
799.630	0.0165923
799.708	0.0163743
799.786	0.0162479
799.864	0.0162783
799.942	0.0160497
800.021	0.0160110
800.099	0.0159259
800.177	0.0157642
800.255	0.0158040
800.333	0.0157212
800.411	0.0156837
800.489	0.0157798
800.567	0.0156607
800.646	0.0156390
800.724	0.0157188
800.802	0.0158156
800.880	0.0157100
800.958	0.0157004
801.036	0.0159126
801.114	0.0159814
801.192	0.0159544
801.271	0.0160138
801.349	0.0161581
801.427	0.0161442
801.505	0.0161467
801.583	0.0161765
801.661	0.0162995
801.739	0.0164918
801.817	0.0164687
801.896	0.0165559
801.974	0.0167358
802.052	0.0168350
802.130	0.0167686
802.208	0.0169070
802.286	0.0168515
802.364	0.0168729
802.442	0.0169036
802.521	0.0168924
802.599	0.0168896
802.677	0.0167599
802.755	0.0169182
802.833	0.0166713
802.911	0.0165068
802.989	0.0165289
803.067	0.0162257
803.146	0.0162617
803.224	0.0162549
803.302	0.0161855
803.380	0.0161987
803.458	0.0161092
803.536	0.0159732
803.614	0.0159931
803.692	0.0160128
803.771	0.0161746
803.849	0.0161120
803.927	0.0159882
804.005	0.0161681
804.083	0.0162869
804.161	0.0162836
804.239	0.0162489
804.317	0.0163567
804.396	0.0164211
804.474	0.0164138
804.552	0.0164869
804.630	0.0165267
804.708	0.0166385
804.786	0.0166550
804.864	0.0166695
804.942	0.0166622
805.021	0.0166579
805.099	0.0166631
805.177	0.0167934
805.255	0.0166673
805.333	0.0167079
805.411	0.0166182
805.489	0.0165289
805.567	0.0164607
805.646	0.0165043
805.724	0.0165044
805.802	0.0162965
805.880	0.0161483
805.958	0.0162295
806.036	0.0161433
806.114	0.0160010
806.192	0.0159464
806.271	0.0158472
806.349	0.0159290
806.427	0.0158709
806.505	0.0157973
806.583	0.0157981
806.661	0.0156219
806.739	0.0156947
806.817	0.0158821
806.896	0.0158584
806.974	0.0158428
807.052	0.0157865
807.130	0.0160291
807.208	0.0161783
807.286	0.0162390
807.364	0.0164096
807.442	0.0165927
807.521	0.0167112
807.599	0.0166946
807.677	0.0167547
807.755	0.0168076
807.833	0.0168611
807.911	0.0168889
807.989	0.0170628
808.067	0.0169123
808.146	0.0168060
808.224	0.0167042
808.302	0.0166102
808.380	0.0165755
808.458	0.0164407
808.536	0.0163925
808.614	0.0163820
808.692	0.0161453
808.771	0.0161768
808.849	0.0160949
808.927	0.0159245
809.005	0.0160147
809.083	0.0159847
809.161	0.0160242
809.239	0.0159914
809.317	0.0161722
809.396	0.0161717
809.474	0.0161195
809.552	0.0161649
809.630	0.0162275
809.708	0.0163303
809.786	0.0162514
809.864	0.0163233
809.942	0.0164803
810.021	0.0166006
810.099	0.0165073
810.177	0.0166193
810.255	0.0167166
810.333	0.0166140
810.411	0.0165811
810.489	0.0164972
810.567	0.0168669
810.646	0.0167101
810.724	0.0166383
810.802	0.0167403
810.880	0.0166560
810.958	0.0165220
811.036	0.0165502
811.114	0.0165304
811.192	0.0165227
811.271	0.0163496
811.349	0.0164174
811.427	0.0162071
811.505	0.0163265
811.583	0.0162135
811.661	0.0160685
811.739	0.0160371
811.817	0.0159695
811.896	0.0158016
811.974	0.0158121
812.052	0.0158172
812.130	0.0157624
812.208	0.0158228
812.286	0.0158477
812.364	0.0158620
812.442	0.0158087
812.521	0.0160291
812.599	0.0159386
812.677	0.0160461
812.755	0.0162541
812.833	0.0162072
812.911	0.0161716
812.989	0.0163608
813.067	0.0164319
813.146	0.0164431
813.224	0.0165903
813.302	0.0165146
813.380	0.0166727
813.458	0.0166090
813.536	0.0166449
813.614	0.0166441
813.692	0.0166431
813.771	0.0164825
813.849	0.0164717
813.927	0.0164124
814.005	0.0164204
814.083	0.0164634
814.161	0.0163400
814.239	0.0162550
814.317	0.0162056
814.396	0.0162066
814.474	0.0159915
814.552	0.0160094
814.630	0.0160664
814.708	0.0160860
814.786	0.0159119
814.864	0.0161151
814.942	0.0160410
815.021	0.0161781
815.099	0.0161935
815.177	0.0162269
815.255	0.0162865
815.333	0.0165131
815.411	0.0165382
815.489	0.0166809
815.567	0.0167564
815.646	0.0168430
815.724	0.0169615
815.802	0.0169787
815.880	0.0169527
815.958	0.0170855
816.036	0.0172335
816.114	0.0171624
816.192	0.0170071
816.271	0.0169366
816.349	0.0168137
816.427	0.0167388
816.505	0.0168230
816.583	0.0166158
816.661	0.0164983
816.739	0.0163904
816.817	0.0163807
816.896	0.0163035
816.974	0.0161864
817.052	0.0161842
817.130	0.0160284
817.208	0.0160204
817.286	0.0158668
817.364	0.0158740
817.442	0.0158128
817.521	0.0157015
817.599	0.0156720
817.677	0.0155969
817.755	0.0157236
817.833	0.0156075
817.911	0.0157774
817.989	0.0157455
818.067	0.0157279
818.146	0.0157597
818.224	0.0158124
818.302	0.0157526
818.380	0.0157472
818.458	0.0158688
818.536	0.0158310
818.614	0.0157770
818.692	0.0157208
818.771	0.0158447
818.849	0.0159215
818.927	0.0158641
819.005	0.0160976
819.083	0.0162172
819.161	0.0162634
819.239	0.0162098
819.317	0.0162967
819.396	0.0164130
819.474	0.0164960
819.552	0.0165926
819.630	0.0166973
819.708	0.0167645
819.786	0.0166294
819.864	0.0167381
819.942	0.0168648
820.021	0.0168591
820.099	0.0169509
820.177	0.0169264
820.255	0.0168001
820.333	0.0168435
820.411	0.0168351
820.489	0.0168873
820.567	0.0167276
820.646	0.0167236
820.724	0.0168304
820.802	0.0168105
820.880	0.0167051
820.958	0.0167435
821.036	0.0167391
821.114	0.0166991
821.192	0.0168546
821.271	0.0168703
821.349	0.0167811
821.427	0.0167601
821.505	0.0167731
821.583	0.0166515
821.661	0.0167288
821.739	0.0165261
821.817	0.0166423
821.896	0.0166145
821.974	0.0164359
822.052	0.0164020
822.130	0.0164555
822.208	0.0163357
822.286	0.0163318
822.364	0.0161887
822.442	0.0160276
822.521	0.0160504
822.599	0.0159612
822.677	0.0159373
822.755	0.0160206
822.833	0.0159270
822.911	0.0161160
822.989	0.0159612
823.067	0.0157737
823.146	0.0158728
823.224	0.0160880
823.302	0.0159244
823.380	0.0160229
823.458	0.0160026
823.536	0.0160511
823.614	0.0160387
823.692	0.0160935
823.771	0.0160287
823.849	0.0160986
823.927	0.0161401
824.005	0.0162379
824.083	0.0160839
824.161	0.0162170
824.239	0.0162759
824.317	0.0160500
824.396	0.0160394
824.474	0.0161827
824.552	0.0160556
824.630	0.0160480
824.708	0.0159886
824.786	0.0159646
824.864	0.0159956
824.942	0.0159448
825.021	0.0160226
825.099	0.0159710
825.177	0.0158185
825.255	0.0159899
825.333	0.0158514
825.411	0.0158618
825.489	0.0158263
825.567	0.0159441
825.646	0.0158665
825.724	0.0158777
825.802	0.0158859
825.880	0.0160948
825.958	0.0162387
826.036	0.0163035
826.114	0.0163929
826.192	0.0163962
826.271	0.0166306
826.349	0.0166617
826.427	0.0168166
826.505	0.0167886
826.583	0.0169867
826.661	0.0169830
826.739	0.0171652
826.817	0.0171185
826.896	0.0171272
826.974	0.0171494
827.052	0.0171571
827.130	0.0173124
827.208	0.0172356
827.286	0.0171703
827.364	0.0170990
827.442	0.0170393
827.521	0.0170788
827.599	0.0170508
827.677	0.0167883
827.755	0.0167521
827.833	0.0167314
827.911	0.0167021
827.989	0.0165823
828.067	0.0164733
828.146	0.0165034
828.224	0.0164483
828.302	0.0164807
828.380	0.0164703
828.458	0.0163572
828.536	0.0164297
828.614	0.0163668
828.692	0.0163140
828.771	0.0163914
828.849	0.0164988
828.927	0.0162661
829.005	0.0163394
829.083	0.0164278
829.161	0.0162919
829.239	0.0161775
829.317	0.0161181
829.396	0.0160821
829.474	0.0160024
829.552	0.0159450
829.630	0.0159378
829.708	0.0159291
829.786	0.0157780
829.864	0.0156750
829.942	0.0155730
830.021	0.0156363
830.099	0.0155073
830.177	0.0154419
830.255	0.0154849
830.333	0.0155178
830.411	0.0155293
830.489	0.0154070
830.567	0.0155226
830.646	0.0156254
830.724	0.0154318
830.802	0.0154625
830.880	0.0155494
830.958	0.0154269
831.036	0.0154478
831.114	0.0157150
831.192	0.0156832
831.271	0.0157957
831.349	0.0158809
831.427	0.0157401
831.505	0.0158919
831.583	0.0159997
831.661	0.0161581
831.739	0.0161127
831.817	0.0164332
831.896	0.0165291
831.974	0.0166418
832.052	0.0168901
832.130	0.0170555
832.208	0.0173594
832.286	0.0172525
832.364	0.0173992
832.442	0.0174316
832.521	0.0175811
832.599	0.0177236
832.677	0.0176429
832.755	0.0175938
832.833	0.0175726
832.911	0.0175636
832.989	0.0175380
833.067	0.0174183
833.146	0.0172870
833.224	0.0172329
833.302	0.0171670
833.380	0.0172226
833.458	0.0168818
833.536	0.0168096
833.614	0.0166337
833.692	0.0166402
833.771	0.0166958
833.849	0.0163559
833.927	0.0164552
834.005	0.0164318
834.083	0.0163686
834.161	0.0162815
834.239	0.0162455
834.317	0.0161605
834.396	0.0161456
834.474	0.0162061
834.552	0.0161426
834.630	0.0161882
834.708	0.0160677
834.786	0.0160546
834.864	0.0160377
834.942	0.0160686
835.021	0.0159805
835.099	0.0160370
835.177	0.0159461
835.255	0.0157601
835.333	0.0157810
835.411	0.0158857
835.489	0.0157737
835.567	0.0156316
835.646	0.0155311
835.724	0.0154785
835.802	0.0155557
835.880	0.0154063
835.958	0.0154723
836.036	0.0155643
836.114	0.0154459
836.192	0.0153600
836.271	0.0154588
836.349	0.0154148
836.427	0.0154467
836.505	0.0154448
836.583	0.0154021
836.661	0.0156124
836.739	0.0156585
836.817	0.0157005
836.896	0.0156973
836.974	0.0157010
837.052	0.0158547
837.130	0.0158030
837.208	0.0159533
837.286	0.0161299
837.364	0.0162068
837.442	0.0163259
837.521	0.0163869
837.599	0.0165131
837.677	0.0166392
837.755	0.0167616
837.833	0.0168890
837.911	0.0170807
837.989	0.0171531
838.067	0.0172358
838.146	0.0173011
838.224	0.0173190
838.302	0.0173247
838.380	0.0174860
838.458	0.0173769
838.536	0.0173715
838.614	0.0175131
838.692	0.0174416
838.771	0.0172319
838.849	0.0170787
838.927	0.0171322
839.005	0.0170935
839.083	0.0169046
839.161	0.0168356
839.239	0.0168692
839.317	0.0166866
839.396	0.0165576
839.474	0.0167353
839.552	0.0163856
839.630	0.0163400
839.708	0.0162884
839.786	0.0163116
839.864	0.0164019
839.942	0.0163103
840.021	0.0162222
840.099	0.0159229
840.177	0.0158817
840.255	0.0159439
840.333	0.0160438
840.411	0.0160764
840.489	0.0158993
840.567	0.0158081
840.646	0.0158851
840.724	0.0158716
840.802	0.0158276
840.880	0.0157345
840.958	0.0158145
841.036	0.0158018
841.114	0.0159962
841.192	0.0158038
841.271	0.0159211
841.349	0.0159408
841.427	0.0158493
841.505	0.0157413
841.583	0.0158865
841.661	0.0159694
841.739	0.0157113
841.817	0.0158092
841.896	0.0157719
841.974	0.0158508
842.052	0.0159167
842.130	0.0157906
842.208	0.0157183
842.286	0.0157877
842.364	0.0158488
842.442	0.0159360
842.521	0.0158125
842.599	0.0160532
842.677	0.0160381
842.755	0.0160082
842.833	0.0160108
842.911	0.0162730
842.989	0.0162306
843.067	0.0162556
843.146	0.0164600
843.224	0.0165175
843.302	0.0163992
843.380	0.0166998
843.458	0.0166045
843.536	0.0167370
843.614	0.0167545
843.692	0.0167587
843.771	0.0167361
843.849	0.0167670
843.927	0.0168417
844.005	0.0168553
844.083	0.0170802
844.161	0.0169318
844.239	0.0167937
844.317	0.0169203
844.396	0.0168040
844.474	0.0166955
844.552	0.0168470
844.630	0.0168382
844.708	0.0168513
844.786	0.0166792
844.864	0.0167815
844.942	0.0166851
845.021	0.0166647
845.099	0.0165676
845.177	0.0165727
845.255	0.0165750
845.333	0.0165111
845.411	0.0165820
845.489	0.0164159
845.567	0.0164774
845.646	0.0164397
845.724	0.0163670
845.802	0.0162823
845.880	0.0163857
845.958	0.0161324
846.036	0.0161299
846.114	0.0161585
846.192	0.0163350
846.271	0.0162658
846.349	0.0161541
846.427	0.0162199
846.505	0.0162072
846.583	0.0160132
846.661	0.0161816
846.739	0.0162943
846.817	0.0161620
846.896	0.0162359
846.974	0.0161733
847.052	0.0162148
847.130	0.0161320
847.208	0.0160631
847.286	0.0160270
847.364	0.0160133
847.442	0.0159525
847.521	0.0160101
847.599	0.0159013
847.677	0.0159850
847.755	0.0158795
847.833	0.0159247
847.911	0.0159354
847.989	0.0158957
848.067	0.0159789
848.146	0.0160183
848.224	0.0160102
848.302	0.0160970
848.380	0.0160495
848.458	0.0161707
848.536	0.0161972
848.614	0.0161866
848.692	0.0163248
848.771	0.0164268
848.849	0.0163892
848.927	0.0164469
849.005	0.0164024
849.083	0.0164612
849.161	0.0165657
849.239	0.0165884
849.317	0.0166318
849.396	0.0166834
849.474	0.0167459
849.552	0.0167612
849.630	0.0169814
849.708	0.0167865
849.786	0.0167480
849.864	0.0168046
849.942	0.0168509
850.021	0.0167767
850.099	0.0167243
850.177	0.0168213
850.255	0.0166830
850.333	0.0167133
850.411	0.0166270
850.489	0.0166595
850.567	0.0165939
850.646	0.0165472
850.724	0.0164542
850.802	0.0164378
850.880	0.0164237
850.958	0.0163535
851.036	0.0163097
851.114	0.0162470
851.192	0.0162325
851.271	0.0162412
851.349	0.0163138
851.427	0.0162656
851.505	0.0162391
851.583	0.0161407
851.661	0.0160101
851.739	0.0161967
851.817	0.0162036
851.896	0.0163100
851.974	0.0164305
852.052	0.0163162
852.130	0.0164521
852.208	0.0162519
852.286	0.0163467
852.364	0.0162330
852.442	0.0162785
852.521	0.0162714
852.599	0.0163333
852.677	0.0162451
852.755	0.0162521
852.833	0.0162465
852.911	0.0162165
852.989	0.0161488
853.067	0.0160941
853.146	0.0161870
853.224	0.0160393
853.302	0.0162556
853.380	0.0161530
853.458	0.0160735
853.536	0.0161561
853.614	0.0161966
853.692	0.0160776
853.771	0.0160560
853.849	0.0162251
853.927	0.0161128
854.005	0.0160442
854.083	0.0161158
854.161	0.0160426
854.239	0.0161845
854.317	0.0162516
854.396	0.0161154
854.474	0.0161208
854.552	0.0161825
854.630	0.0162775
854.708	0.0161544
854.786	0.0163792
854.864	0.0163773
854.942	0.0164073
855.021	0.0163818
855.099	0.0164333
855.177	0.0164111
855.255	0.0163424
855.333	0.0165534
855.411	0.0164845
855.489	0.0163820
855.567	0.0165656
855.646	0.0165568
855.724	0.0165564
855.802	0.0164819
855.880	0.0164677
855.958	0.0164969
856.036	0.0166138
856.114	0.0166352
856.192	0.0163515
856.271	0.0166250
856.349	0.0165588
856.427	0.0163198
856.505	0.0163846
856.583	0.0164130
856.661	0.0163129
856.739	0.0162720
856.817	0.0162209
856.896	0.0162273
856.974	0.0161155
857.052	0.0163320
857.130	0.0163513
857.208	0.0162623
857.286	0.0162842
857.364	0.0163537
857.442	0.0163640
857.521	0.0162878
857.599	0.0164343
857.677	0.0163847
857.755	0.0164134
857.833	0.0164659
857.911	0.0164425
857.989	0.0163564
858.067	0.0163706
858.146	0.0164588
858.224	0.0163984
858.302	0.0163226
858.380	0.0164050
858.458	0.0164555
858.536	0.0164369
858.614	0.0163791
858.692	0.0163636
858.771	0.0162718
858.849	0.0162332
858.927	0.0162365
859.005	0.0161713
859.083	0.0161258
859.161	0.0161568
859.239	0.0160415
859.317	0.0161819
859.396	0.0159746
859.474	0.0159702
859.552	0.0161898
859.630	0.0160645
859.708	0.0160102
859.786	0.0160835
859.864	0.0161519
859.942	0.0159652
860.021	0.0159781
860.099	0.0159940
860.177	0.0160551
860.255	0.0161968
860.333	0.0160910
860.411	0.0162000
860.489	0.0160967
860.567	0.0162482
860.646	0.0161225
860.724	0.0162510
860.802	0.0161803
860.880	0.0161799
860.958	0.0164534
861.036	0.0164606
861.114	0.0164564
861.192	0.0164710
861.271	0.0164243
861.349	0.0165445
861.427	0.0164589
861.505	0.0164334
861.583	0.0163960
861.661	0.0164520
861.739	0.0164256
861.817	0.0163421
861.896	0.0163470
861.974	0.0163107
862.052	0.0162669
862.130	0.0163005
862.208	0.0161643
862.286	0.0162811
862.364	0.0161414
862.442	0.0162198
862.521	0.0163543
862.599	0.0162244
862.677	0.0163383
862.755	0.0164550
862.833	0.0164382
862.911	0.0163604
862.989	0.0164874
863.067	0.0165181
863.146	0.0165353
863.224	0.0166185
863.302	0.0167768
863.380	0.0167278
863.458	0.0167315
863.536	0.0167188
863.614	0.0166744
863.692	0.0165669
863.771	0.0167502
863.849	0.0166421
863.927	0.0166486
864.005	0.0165411
864.083	0.0164143
864.161	0.0164483
864.239	0.0164645
864.317	0.0163150
864.396	0.0161929
864.474	0.0162876
864.552	0.0161372
864.630	0.0161467
864.708	0.0160739
864.786	0.0161707
864.864	0.0159982
864.942	0.0161284
865.021	0.0160919
865.099	0.0160109
865.177	0.0160736
865.255	0.0160607
865.333	0.0160465
865.411	0.0159422
865.489	0.0159689
865.567	0.0159690
865.646	0.0160902
865.724	0.0161877
865.802	0.0161317
865.880	0.0160707
865.958	0.0161303
866.036	0.0161068
866.114	0.0161634
866.192	0.0161179
866.271	0.0162391
866.349	0.0161692
866.427	0.0161858
866.505	0.0162769
866.583	0.0163437
866.661	0.0163493
866.739	0.0164111
866.817	0.0161830
866.896	0.0162275
866.974	0.0164902
867.052	0.0163774
867.130	0.0161135
867.208	0.0163695
867.286	0.0163653
867.364	0.0163593
867.442	0.0163664
867.521	0.0164346
867.599	0.0162484
867.677	0.0163279
867.755	0.0164711
867.833	0.0164710
867.911	0.0164490
867.989	0.0164814
868.067	0.0163793
868.146	0.0163835
868.224	0.0165396
868.302	0.0165171
868.380	0.0164925
868.458	0.0163443
868.536	0.0165604
868.614	0.0165444
868.692	0.0165844
868.771	0.0165463
868.849	0.0167469
868.927	0.0166268
869.005	0.0164301
869.083	0.0166172
869.161	0.0165823
869.239	0.0166251
869.317	0.0167213
869.396	0.0166727
869.474	0.0165637
869.552	0.0166154
869.630	0.0165126
869.708	0.0164864
869.786	0.0165482
869.864	0.0165595
869.942	0.0164060
