06/03/2022	15:45:56	Ver.	4.1	UNKNOWN
Optical Delay	550.020508	Delta X		0.078125	Sweeps	1	Scan Rate	0/0
Coordinates	Axis 1	NaN	Axis 2	NaN	Axis 3	NaN	Axis 4	NaN	Axis 5	NaN	Axis 6	0.000000
TX Power	0.000000	RX Power	0.000000

550.021	0.0163338
550.099	0.0164643
550.177	0.0164074
550.255	0.0162689
550.333	0.0162568
550.411	0.0162999
550.489	0.0162877
550.567	0.0163523
550.646	0.0163792
550.724	0.0163802
550.802	0.0163621
550.880	0.0162399
550.958	0.0162149
551.036	0.0163153
551.114	0.0163947
551.192	0.0164291
551.271	0.0162064
551.349	0.0163760
551.427	0.0163948
551.505	0.0163879
551.583	0.0163287
551.661	0.0164128
551.739	0.0163313
551.817	0.0163261
551.896	0.0163360
551.974	0.0163915
552.052	0.0164296
552.130	0.0163286
552.208	0.0163093
552.286	0.0163448
552.364	0.0164068
552.442	0.0163432
552.521	0.0164381
552.599	0.0162814
552.677	0.0162628
552.755	0.0164368
552.833	0.0165050
552.911	0.0163599
552.989	0.0163258
553.067	0.0163216
553.146	0.0163860
553.224	0.0165159
553.302	0.0163708
553.380	0.0163011
553.458	0.0163499
553.536	0.0162994
553.614	0.0163548
553.692	0.0164109
553.771	0.0165714
553.849	0.0164763
553.927	0.0165060
554.005	0.0163760
554.083	0.0163826
554.161	0.0163205
554.239	0.0164444
554.317	0.0165096
554.396	0.0163152
554.474	0.0162514
554.552	0.0162646
554.630	0.0163049
554.708	0.0163969
554.786	0.0163124
554.864	0.0164079
554.942	0.0163879
555.021	0.0162257
555.099	0.0163019
555.177	0.0164215
555.255	0.0163811
555.333	0.0163396
555.411	0.0165349
555.489	0.0163920
555.567	0.0163058
555.646	0.0164099
555.724	0.0163866
555.802	0.0164131
555.880	0.0161835
555.958	0.0161891
556.036	0.0164452
556.114	0.0163980
556.192	0.0163624
556.271	0.0164351
556.349	0.0162503
556.427	0.0164076
556.505	0.0163771
556.583	0.0164166
556.661	0.0164075
556.739	0.0163551
556.817	0.0163024
556.896	0.0164927
556.974	0.0164684
557.052	0.0163327
557.130	0.0163477
557.208	0.0165100
557.286	0.0163738
557.364	0.0162859
557.442	0.0164161
557.521	0.0164808
557.599	0.0163634
557.677	0.0163944
557.755	0.0163747
557.833	0.0162514
557.911	0.0164046
557.989	0.0164072
558.067	0.0163216
558.146	0.0164101
558.224	0.0164143
558.302	0.0163367
558.380	0.0162057
558.458	0.0163943
558.536	0.0164210
558.614	0.0164730
558.692	0.0163863
558.771	0.0163006
558.849	0.0164103
558.927	0.0165289
559.005	0.0164287
559.083	0.0163712
559.161	0.0163959
559.239	0.0164075
559.317	0.0163380
559.396	0.0163062
559.474	0.0162503
559.552	0.0163371
559.630	0.0163322
559.708	0.0163577
559.786	0.0163881
559.864	0.0164347
559.942	0.0164531
560.021	0.0162736
560.099	0.0162570
560.177	0.0163301
560.255	0.0162994
560.333	0.0163846
560.411	0.0164384
560.489	0.0163766
560.567	0.0163986
560.646	0.0162862
560.724	0.0163727
560.802	0.0164428
560.880	0.0163053
560.958	0.0162622
561.036	0.0163281
561.114	0.0163441
561.192	0.0164096
561.271	0.0163258
561.349	0.0163678
561.427	0.0164206
561.505	0.0163766
561.583	0.0163058
561.661	0.0164090
561.739	0.0163181
561.817	0.0163557
561.896	0.0163084
561.974	0.0164336
562.052	0.0163029
562.130	0.0163442
562.208	0.0163253
562.286	0.0163937
562.364	0.0162785
562.442	0.0163751
562.521	0.0164906
562.599	0.0164863
562.677	0.0162810
562.755	0.0162960
562.833	0.0163833
562.911	0.0163147
562.989	0.0163470
563.067	0.0164428
563.146	0.0162586
563.224	0.0163982
563.302	0.0163633
563.380	0.0163660
563.458	0.0164320
563.536	0.0163712
563.614	0.0162052
563.692	0.0164120
563.771	0.0164564
563.849	0.0162527
563.927	0.0163406
564.005	0.0163949
564.083	0.0163946
564.161	0.0163567
564.239	0.0163303
564.317	0.0163640
564.396	0.0162542
564.474	0.0164011
564.552	0.0164150
564.630	0.0163974
564.708	0.0163125
564.786	0.0164290
564.864	0.0163542
564.942	0.0163482
565.021	0.0163354
565.099	0.0163429
565.177	0.0162374
565.255	0.0162350
565.333	0.0162783
565.411	0.0163063
565.489	0.0163338
565.567	0.0163749
565.646	0.0163629
565.724	0.0163717
565.802	0.0163750
565.880	0.0163771
565.958	0.0163903
566.036	0.0162804
566.114	0.0161977
566.192	0.0163443
566.271	0.0163166
566.349	0.0162798
566.427	0.0163583
566.505	0.0163950
566.583	0.0163400
566.661	0.0163560
566.739	0.0162981
566.817	0.0164399
566.896	0.0163920
566.974	0.0162727
567.052	0.0164117
567.130	0.0163658
567.208	0.0163787
567.286	0.0162889
567.364	0.0163200
567.442	0.0163548
567.521	0.0162991
567.599	0.0163117
567.677	0.0163148
567.755	0.0163218
567.833	0.0163380
567.911	0.0164196
567.989	0.0163947
568.067	0.0164170
568.146	0.0162380
568.224	0.0163033
568.302	0.0163512
568.380	0.0163367
568.458	0.0162809
568.536	0.0164162
568.614	0.0163913
568.692	0.0163887
568.771	0.0162801
568.849	0.0163773
568.927	0.0164780
569.005	0.0163693
569.083	0.0162518
569.161	0.0163307
569.239	0.0163400
569.317	0.0162954
569.396	0.0162173
569.474	0.0163396
569.552	0.0162560
569.630	0.0162641
569.708	0.0162514
569.786	0.0162384
569.864	0.0163609
569.942	0.0164410
570.021	0.0164292
570.099	0.0163448
570.177	0.0163931
570.255	0.0164353
570.333	0.0163633
570.411	0.0162941
570.489	0.0163692
570.567	0.0162585
570.646	0.0162730
570.724	0.0163535
570.802	0.0163180
570.880	0.0163810
570.958	0.0163171
571.036	0.0162888
571.114	0.0164808
571.192	0.0163685
571.271	0.0163976
571.349	0.0162912
571.427	0.0164260
571.505	0.0163378
571.583	0.0163600
571.661	0.0163364
571.739	0.0164070
571.817	0.0162345
571.896	0.0163480
571.974	0.0164691
572.052	0.0163546
572.130	0.0162627
572.208	0.0163032
572.286	0.0165220
572.364	0.0162556
572.442	0.0163456
572.521	0.0162994
572.599	0.0165163
572.677	0.0163442
572.755	0.0162880
572.833	0.0163406
572.911	0.0162994
572.989	0.0164707
573.067	0.0163362
573.146	0.0163374
573.224	0.0163781
573.302	0.0164012
573.380	0.0164749
573.458	0.0163017
573.536	0.0163312
573.614	0.0162926
573.692	0.0163482
573.771	0.0163492
573.849	0.0164739
573.927	0.0164549
574.005	0.0163846
574.083	0.0164072
574.161	0.0163962
574.239	0.0162875
574.317	0.0163069
574.396	0.0162473
574.474	0.0163053
574.552	0.0163849
574.630	0.0164029
574.708	0.0162947
574.786	0.0163545
574.864	0.0163277
574.942	0.0161837
575.021	0.0162780
575.099	0.0163608
575.177	0.0163242
575.255	0.0162428
575.333	0.0162899
575.411	0.0162656
575.489	0.0163315
575.567	0.0163416
575.646	0.0163937
575.724	0.0162745
575.802	0.0163445
575.880	0.0164331
575.958	0.0163250
576.036	0.0163660
576.114	0.0164233
576.192	0.0163924
576.271	0.0163759
576.349	0.0162769
576.427	0.0164046
576.505	0.0164621
576.583	0.0163952
576.661	0.0164258
576.739	0.0163548
576.817	0.0164119
576.896	0.0161469
576.974	0.0164243
577.052	0.0164115
577.130	0.0163819
577.208	0.0163745
577.286	0.0163776
577.364	0.0163377
577.442	0.0162884
577.521	0.0162785
577.599	0.0163886
577.677	0.0164055
577.755	0.0164500
577.833	0.0163159
577.911	0.0163771
577.989	0.0162873
578.067	0.0162658
578.146	0.0164163
578.224	0.0163699
578.302	0.0163258
578.380	0.0163894
578.458	0.0162829
578.536	0.0162700
578.614	0.0163014
578.692	0.0164507
578.771	0.0162999
578.849	0.0162755
578.927	0.0163052
579.005	0.0163638
579.083	0.0163659
579.161	0.0162723
579.239	0.0163403
579.317	0.0163088
579.396	0.0164012
579.474	0.0162410
579.552	0.0162263
579.630	0.0163905
579.708	0.0163669
579.786	0.0163026
579.864	0.0161985
579.942	0.0163676
580.021	0.0164324
580.099	0.0164114
580.177	0.0163354
580.255	0.0163301
580.333	0.0162595
580.411	0.0164306
580.489	0.0163852
580.567	0.0163176
580.646	0.0163946
580.724	0.0163950
580.802	0.0163724
580.880	0.0163673
580.958	0.0162945
581.036	0.0163303
581.114	0.0163049
581.192	0.0163574
581.271	0.0164767
581.349	0.0163451
581.427	0.0162997
581.505	0.0163754
581.583	0.0163960
581.661	0.0162955
581.739	0.0163916
581.817	0.0163777
581.896	0.0163998
581.974	0.0163314
582.052	0.0163643
582.130	0.0164005
582.208	0.0162742
582.286	0.0162521
582.364	0.0163651
582.442	0.0164393
582.521	0.0162731
582.599	0.0162836
582.677	0.0164182
582.755	0.0164471
582.833	0.0163282
582.911	0.0163435
582.989	0.0165125
583.067	0.0163387
583.146	0.0163445
583.224	0.0162771
583.302	0.0163226
583.380	0.0164101
583.458	0.0163547
583.536	0.0164736
583.614	0.0164211
583.692	0.0163193
583.771	0.0163106
583.849	0.0163983
583.927	0.0165492
584.005	0.0162392
584.083	0.0163702
584.161	0.0164485
584.239	0.0162527
584.317	0.0162988
584.396	0.0162534
584.474	0.0163149
584.552	0.0163666
584.630	0.0164614
584.708	0.0165155
584.786	0.0163840
584.864	0.0162075
584.942	0.0162526
585.021	0.0165134
585.099	0.0164599
585.177	0.0163441
585.255	0.0163271
585.333	0.0164579
585.411	0.0164683
585.489	0.0163631
585.567	0.0163712
585.646	0.0162954
585.724	0.0163232
585.802	0.0164085
585.880	0.0163853
585.958	0.0164001
586.036	0.0164157
586.114	0.0164429
586.192	0.0163560
586.271	0.0164545
586.349	0.0164246
586.427	0.0162872
586.505	0.0164693
586.583	0.0165062
586.661	0.0164252
586.739	0.0164509
586.817	0.0163506
586.896	0.0163924
586.974	0.0164022
587.052	0.0164017
587.130	0.0164054
587.208	0.0164952
587.286	0.0165057
587.364	0.0163389
587.442	0.0163774
587.521	0.0164128
587.599	0.0164358
587.677	0.0164927
587.755	0.0164605
587.833	0.0163764
587.911	0.0163430
587.989	0.0163147
588.067	0.0163332
588.146	0.0163758
588.224	0.0162797
588.302	0.0163657
588.380	0.0163586
588.458	0.0163116
588.536	0.0163112
588.614	0.0163902
588.692	0.0163802
588.771	0.0163770
588.849	0.0164610
588.927	0.0164596
589.005	0.0163718
589.083	0.0163705
589.161	0.0162606
589.239	0.0162703
589.317	0.0163721
589.396	0.0163657
589.474	0.0163064
589.552	0.0163200
589.630	0.0163978
589.708	0.0164465
589.786	0.0164545
589.864	0.0164449
589.942	0.0163689
590.021	0.0163428
590.099	0.0164163
590.177	0.0163859
590.255	0.0164002
590.333	0.0164269
590.411	0.0164720
590.489	0.0162895
590.567	0.0163744
590.646	0.0164269
590.724	0.0164693
590.802	0.0163374
590.880	0.0162719
590.958	0.0163684
591.036	0.0163705
591.114	0.0164191
591.192	0.0163171
591.271	0.0164702
591.349	0.0164193
591.427	0.0164535
591.505	0.0164440
591.583	0.0162802
591.661	0.0162954
591.739	0.0163942
591.817	0.0163750
591.896	0.0163171
591.974	0.0164271
592.052	0.0164198
592.130	0.0163771
592.208	0.0163232
592.286	0.0162141
592.364	0.0164380
592.442	0.0163003
592.521	0.0163396
592.599	0.0163062
592.677	0.0163184
592.755	0.0163222
592.833	0.0161465
592.911	0.0163137
592.989	0.0163016
593.067	0.0162997
593.146	0.0163877
593.224	0.0163985
593.302	0.0163798
593.380	0.0162960
593.458	0.0164360
593.536	0.0164888
593.614	0.0163138
593.692	0.0162728
593.771	0.0164246
593.849	0.0163480
593.927	0.0162543
594.005	0.0162178
594.083	0.0163335
594.161	0.0162841
594.239	0.0162695
594.317	0.0163606
594.396	0.0164052
594.474	0.0163322
594.552	0.0164236
594.630	0.0164284
594.708	0.0161660
594.786	0.0163298
594.864	0.0163087
594.942	0.0164993
595.021	0.0163046
595.099	0.0163363
595.177	0.0164190
595.255	0.0163650
595.333	0.0164551
595.411	0.0163046
595.489	0.0163244
595.567	0.0164867
595.646	0.0164394
595.724	0.0163075
595.802	0.0163094
595.880	0.0162842
595.958	0.0163370
596.036	0.0163195
596.114	0.0163135
596.192	0.0163349
596.271	0.0162558
596.349	0.0162917
596.427	0.0162870
596.505	0.0163820
596.583	0.0164462
596.661	0.0163413
596.739	0.0162736
596.817	0.0162879
596.896	0.0164346
596.974	0.0163274
597.052	0.0163406
597.130	0.0163643
597.208	0.0162939
597.286	0.0163834
597.364	0.0163367
597.442	0.0163977
597.521	0.0163486
597.599	0.0162843
597.677	0.0164524
597.755	0.0164439
597.833	0.0164765
597.911	0.0163515
597.989	0.0162682
598.067	0.0163741
598.146	0.0162647
598.224	0.0162897
598.302	0.0162507
598.380	0.0164523
598.458	0.0161907
598.536	0.0165067
598.614	0.0163332
598.692	0.0162996
598.771	0.0164162
598.849	0.0163946
598.927	0.0164870
599.005	0.0164387
599.083	0.0163544
599.161	0.0164065
599.239	0.0164566
599.317	0.0164456
599.396	0.0165228
599.474	0.0163075
599.552	0.0163380
599.630	0.0163312
599.708	0.0163172
599.786	0.0164922
599.864	0.0164200
599.942	0.0163860
600.021	0.0163902
600.099	0.0162925
600.177	0.0163889
600.255	0.0164590
600.333	0.0162856
600.411	0.0163949
600.489	0.0162747
600.567	0.0162831
600.646	0.0164362
600.724	0.0163420
600.802	0.0164659
600.880	0.0162864
600.958	0.0164067
601.036	0.0162518
601.114	0.0164433
601.192	0.0163956
601.271	0.0161814
601.349	0.0163396
601.427	0.0165773
601.505	0.0162692
601.583	0.0164374
601.661	0.0165279
601.739	0.0164742
601.817	0.0163558
601.896	0.0164805
601.974	0.0164396
602.052	0.0163126
602.130	0.0164217
602.208	0.0164110
602.286	0.0162598
602.364	0.0164558
602.442	0.0163363
602.521	0.0163890
602.599	0.0163325
602.677	0.0163270
602.755	0.0164300
602.833	0.0163371
602.911	0.0164059
602.989	0.0164192
603.067	0.0163817
603.146	0.0164030
603.224	0.0164273
603.302	0.0164145
603.380	0.0163618
603.458	0.0162650
603.536	0.0164032
603.614	0.0164043
603.692	0.0165211
603.771	0.0163756
603.849	0.0163061
603.927	0.0164507
604.005	0.0164354
604.083	0.0164185
604.161	0.0163170
604.239	0.0163634
604.317	0.0164836
604.396	0.0164606
604.474	0.0164706
604.552	0.0163380
604.630	0.0162926
604.708	0.0163988
604.786	0.0163419
604.864	0.0163982
604.942	0.0163338
605.021	0.0164258
605.099	0.0164312
605.177	0.0164250
605.255	0.0164623
605.333	0.0164605
605.411	0.0163261
605.489	0.0163744
605.567	0.0163461
605.646	0.0164552
605.724	0.0163393
605.802	0.0164643
605.880	0.0164738
605.958	0.0165681
606.036	0.0163487
606.114	0.0163216
606.192	0.0164097
606.271	0.0162673
606.349	0.0164873
606.427	0.0163020
606.505	0.0164081
606.583	0.0164574
606.661	0.0165427
606.739	0.0163669
606.817	0.0164027
606.896	0.0163900
606.974	0.0163137
607.052	0.0163217
607.130	0.0163763
607.208	0.0163560
607.286	0.0163356
607.364	0.0165000
607.442	0.0164160
607.521	0.0163827
607.599	0.0162965
607.677	0.0163617
607.755	0.0163418
607.833	0.0164397
607.911	0.0162369
607.989	0.0164434
608.067	0.0163353
608.146	0.0164729
608.224	0.0164693
608.302	0.0163544
608.380	0.0164870
608.458	0.0164388
608.536	0.0164095
608.614	0.0164359
608.692	0.0165233
608.771	0.0165357
608.849	0.0163940
608.927	0.0164027
609.005	0.0164215
609.083	0.0161993
609.161	0.0163713
609.239	0.0162679
609.317	0.0162840
609.396	0.0164489
609.474	0.0163943
609.552	0.0164246
609.630	0.0164600
609.708	0.0163728
609.786	0.0164082
609.864	0.0163217
609.942	0.0164107
610.021	0.0163600
610.099	0.0162942
610.177	0.0163620
610.255	0.0164002
610.333	0.0163169
610.411	0.0162194
610.489	0.0164048
610.567	0.0164940
610.646	0.0163533
610.724	0.0164022
610.802	0.0164719
610.880	0.0162392
610.958	0.0163287
611.036	0.0163682
611.114	0.0163464
611.192	0.0162964
611.271	0.0164269
611.349	0.0164118
611.427	0.0165250
611.505	0.0164178
611.583	0.0164737
611.661	0.0162960
611.739	0.0164417
611.817	0.0163447
611.896	0.0162881
611.974	0.0163044
612.052	0.0165421
612.130	0.0164600
612.208	0.0164162
612.286	0.0164158
612.364	0.0163089
612.442	0.0163797
612.521	0.0163906
612.599	0.0163641
612.677	0.0163714
612.755	0.0163930
612.833	0.0161761
612.911	0.0163743
612.989	0.0163749
613.067	0.0163406
613.146	0.0162693
613.224	0.0163677
613.302	0.0163074
613.380	0.0164217
613.458	0.0164190
613.536	0.0164837
613.614	0.0163708
613.692	0.0162687
613.771	0.0163934
613.849	0.0163575
613.927	0.0164501
614.005	0.0163589
614.083	0.0163680
614.161	0.0164705
614.239	0.0162933
614.317	0.0161949
614.396	0.0163396
614.474	0.0164577
614.552	0.0163731
614.630	0.0163647
614.708	0.0164853
614.786	0.0164560
614.864	0.0163168
614.942	0.0163852
615.021	0.0163475
615.099	0.0164909
615.177	0.0163111
615.255	0.0164008
615.333	0.0164922
615.411	0.0163142
615.489	0.0163614
615.567	0.0161998
615.646	0.0164140
615.724	0.0163402
615.802	0.0164230
615.880	0.0165524
615.958	0.0164404
616.036	0.0163970
616.114	0.0164432
616.192	0.0164360
616.271	0.0162800
616.349	0.0165008
616.427	0.0163146
616.505	0.0164270
616.583	0.0163580
616.661	0.0164606
616.739	0.0163609
616.817	0.0164703
616.896	0.0163303
616.974	0.0164206
617.052	0.0164454
617.130	0.0164769
617.208	0.0163264
617.286	0.0161391
617.364	0.0163324
617.442	0.0162870
617.521	0.0164674
617.599	0.0164492
617.677	0.0163889
617.755	0.0163821
617.833	0.0163452
617.911	0.0164542
617.989	0.0163423
618.067	0.0163228
618.146	0.0163514
618.224	0.0163366
618.302	0.0163097
618.380	0.0163464
618.458	0.0162585
618.536	0.0164261
618.614	0.0164296
618.692	0.0164255
618.771	0.0163686
618.849	0.0163734
618.927	0.0164143
619.005	0.0164108
619.083	0.0163143
619.161	0.0163875
619.239	0.0164995
619.317	0.0164265
619.396	0.0163924
619.474	0.0162370
619.552	0.0163005
619.630	0.0164937
619.708	0.0164100
619.786	0.0163096
619.864	0.0162710
619.942	0.0163396
620.021	0.0164016
620.099	0.0163540
620.177	0.0163354
620.255	0.0164536
620.333	0.0164451
620.411	0.0163417
620.489	0.0163991
620.567	0.0163535
620.646	0.0164604
620.724	0.0163689
620.802	0.0163873
620.880	0.0163660
620.958	0.0163676
621.036	0.0162674
621.114	0.0163306
621.192	0.0164880
621.271	0.0163165
621.349	0.0163515
621.427	0.0164337
621.505	0.0164137
621.583	0.0164435
621.661	0.0164682
621.739	0.0163448
621.817	0.0163409
621.896	0.0164548
621.974	0.0163591
622.052	0.0164854
622.130	0.0164155
622.208	0.0164439
622.286	0.0164931
622.364	0.0165303
622.442	0.0162892
622.521	0.0163595
622.599	0.0163509
622.677	0.0163108
622.755	0.0163963
622.833	0.0163594
622.911	0.0164391
622.989	0.0164274
623.067	0.0164026
623.146	0.0163682
623.224	0.0162798
623.302	0.0163332
623.380	0.0164607
623.458	0.0163566
623.536	0.0163623
623.614	0.0163998
623.692	0.0163987
623.771	0.0162609
623.849	0.0164722
623.927	0.0164364
624.005	0.0163550
624.083	0.0163335
624.161	0.0164252
624.239	0.0164130
624.317	0.0162946
624.396	0.0163777
624.474	0.0163577
624.552	0.0162258
624.630	0.0163814
624.708	0.0163196
624.786	0.0164091
624.864	0.0162078
624.942	0.0163365
625.021	0.0164715
625.099	0.0165145
625.177	0.0162653
625.255	0.0164813
625.333	0.0164036
625.411	0.0163591
625.489	0.0163195
625.567	0.0165363
625.646	0.0165775
625.724	0.0165708
625.802	0.0164000
625.880	0.0163782
625.958	0.0164299
626.036	0.0165192
626.114	0.0163913
626.192	0.0163391
626.271	0.0163728
626.349	0.0163081
626.427	0.0164404
626.505	0.0165051
626.583	0.0164789
626.661	0.0163627
626.739	0.0164233
626.817	0.0165268
626.896	0.0163817
626.974	0.0163900
627.052	0.0165005
627.130	0.0164050
627.208	0.0165118
627.286	0.0163284
627.364	0.0163954
627.442	0.0164601
627.521	0.0163352
627.599	0.0164095
627.677	0.0163438
627.755	0.0164190
627.833	0.0164775
627.911	0.0164511
627.989	0.0164480
628.067	0.0164312
628.146	0.0163850
628.224	0.0164646
628.302	0.0164598
628.380	0.0163571
628.458	0.0163587
628.536	0.0163773
628.614	0.0164120
628.692	0.0164001
628.771	0.0163750
628.849	0.0164066
628.927	0.0162675
629.005	0.0163052
629.083	0.0164536
629.161	0.0163387
629.239	0.0164309
629.317	0.0164497
629.396	0.0164458
629.474	0.0163918
629.552	0.0164512
629.630	0.0166077
629.708	0.0164045
629.786	0.0163611
629.864	0.0164434
629.942	0.0163265
630.021	0.0163010
630.099	0.0164040
630.177	0.0163012
630.255	0.0164186
630.333	0.0164197
630.411	0.0163352
630.489	0.0163116
630.567	0.0163789
630.646	0.0163026
630.724	0.0164094
630.802	0.0162502
630.880	0.0162749
630.958	0.0163806
631.036	0.0164957
631.114	0.0163614
631.192	0.0164018
631.271	0.0163050
631.349	0.0163305
631.427	0.0164709
631.505	0.0162882
631.583	0.0162318
631.661	0.0163289
631.739	0.0163116
631.817	0.0162709
631.896	0.0164526
631.974	0.0162664
632.052	0.0162545
632.130	0.0164211
632.208	0.0164683
632.286	0.0162556
632.364	0.0163262
632.442	0.0163832
632.521	0.0162389
632.599	0.0163200
632.677	0.0163661
632.755	0.0162096
632.833	0.0163384
632.911	0.0162343
632.989	0.0164682
633.067	0.0164093
633.146	0.0162381
633.224	0.0163727
633.302	0.0162568
633.380	0.0163360
633.458	0.0163030
633.536	0.0163248
633.614	0.0163488
633.692	0.0164269
633.771	0.0162211
633.849	0.0163486
633.927	0.0165610
634.005	0.0162635
634.083	0.0164716
634.161	0.0164777
634.239	0.0162484
634.317	0.0164339
634.396	0.0164597
634.474	0.0164635
634.552	0.0163464
634.630	0.0164553
634.708	0.0163717
634.786	0.0164277
634.864	0.0165714
634.942	0.0163429
635.021	0.0163108
635.099	0.0163556
635.177	0.0163617
635.255	0.0162611
635.333	0.0164045
635.411	0.0165076
635.489	0.0162531
635.567	0.0163953
635.646	0.0164118
635.724	0.0163528
635.802	0.0164455
635.880	0.0163137
635.958	0.0163208
636.036	0.0163869
636.114	0.0164074
636.192	0.0162817
636.271	0.0163769
636.349	0.0163433
636.427	0.0163197
636.505	0.0163594
636.583	0.0162503
636.661	0.0163111
636.739	0.0164245
636.817	0.0164357
636.896	0.0163879
636.974	0.0163885
637.052	0.0163953
637.130	0.0162456
637.208	0.0162983
637.286	0.0164037
637.364	0.0162766
637.442	0.0162177
637.521	0.0161642
637.599	0.0164122
637.677	0.0164452
637.755	0.0163730
637.833	0.0162933
637.911	0.0162427
637.989	0.0163142
638.067	0.0163786
638.146	0.0164065
638.224	0.0163589
638.302	0.0162925
638.380	0.0163227
638.458	0.0162789
638.536	0.0163556
638.614	0.0164140
638.692	0.0163216
638.771	0.0163403
638.849	0.0163425
638.927	0.0163354
639.005	0.0163024
639.083	0.0163817
639.161	0.0164931
639.239	0.0163588
639.317	0.0163565
639.396	0.0163613
639.474	0.0162962
639.552	0.0163985
639.630	0.0164542
639.708	0.0163474
639.786	0.0164355
639.864	0.0163630
639.942	0.0163581
640.021	0.0164101
640.099	0.0164902
640.177	0.0163034
640.255	0.0163877
640.333	0.0164002
640.411	0.0162755
640.489	0.0162961
640.567	0.0163030
640.646	0.0163890
640.724	0.0162721
640.802	0.0163914
640.880	0.0165025
640.958	0.0163777
641.036	0.0163392
641.114	0.0164431
641.192	0.0163789
641.271	0.0163712
641.349	0.0163052
641.427	0.0163548
641.505	0.0163511
641.583	0.0163917
641.661	0.0164067
641.739	0.0163686
641.817	0.0163987
641.896	0.0163896
641.974	0.0164838
642.052	0.0162696
642.130	0.0164215
642.208	0.0164423
642.286	0.0163185
642.364	0.0164503
642.442	0.0164044
642.521	0.0163931
642.599	0.0162598
642.677	0.0163296
642.755	0.0163527
642.833	0.0164004
642.911	0.0163593
642.989	0.0164909
643.067	0.0164494
643.146	0.0165485
643.224	0.0162993
643.302	0.0164923
643.380	0.0164400
643.458	0.0163544
643.536	0.0165796
643.614	0.0165234
643.692	0.0163053
643.771	0.0164687
643.849	0.0164449
643.927	0.0165376
644.005	0.0164756
644.083	0.0165684
644.161	0.0165195
644.239	0.0165010
644.317	0.0163829
644.396	0.0165504
644.474	0.0165220
644.552	0.0163367
644.630	0.0163280
644.708	0.0162952
644.786	0.0164143
644.864	0.0164272
644.942	0.0163363
645.021	0.0164378
645.099	0.0164613
645.177	0.0165021
645.255	0.0164899
645.333	0.0164368
645.411	0.0163910
645.489	0.0164365
645.567	0.0164397
645.646	0.0165560
645.724	0.0163526
645.802	0.0164171
645.880	0.0163281
645.958	0.0165197
646.036	0.0164506
646.114	0.0163980
646.192	0.0165385
646.271	0.0164223
646.349	0.0165779
646.427	0.0163093
646.505	0.0164658
646.583	0.0163448
646.661	0.0165357
646.739	0.0163554
646.817	0.0164634
646.896	0.0162926
646.974	0.0162799
647.052	0.0163934
647.130	0.0164157
647.208	0.0163628
647.286	0.0163506
647.364	0.0164320
647.442	0.0166080
647.521	0.0164539
647.599	0.0164568
647.677	0.0164380
647.755	0.0164838
647.833	0.0163467
647.911	0.0163789
647.989	0.0164714
648.067	0.0164838
648.146	0.0164252
648.224	0.0164155
648.302	0.0163594
648.380	0.0166119
648.458	0.0162617
648.536	0.0164403
648.614	0.0164156
648.692	0.0164631
648.771	0.0163553
648.849	0.0164870
648.927	0.0164127
649.005	0.0165205
649.083	0.0164146
649.161	0.0164336
649.239	0.0164909
649.317	0.0164390
649.396	0.0163600
649.474	0.0164720
649.552	0.0164777
649.630	0.0162970
649.708	0.0164256
649.786	0.0165282
649.864	0.0164278
649.942	0.0164735
650.021	0.0163737
650.099	0.0163486
650.177	0.0164292
650.255	0.0163741
650.333	0.0163725
650.411	0.0164613
650.489	0.0163839
650.567	0.0164456
650.646	0.0166035
650.724	0.0164262
650.802	0.0163725
650.880	0.0163633
650.958	0.0164767
651.036	0.0163769
651.114	0.0163796
651.192	0.0163443
651.271	0.0163059
651.349	0.0163796
651.427	0.0164625
651.505	0.0164326
651.583	0.0164734
651.661	0.0164564
651.739	0.0163654
651.817	0.0163611
651.896	0.0164059
651.974	0.0164893
652.052	0.0164632
652.130	0.0163824
652.208	0.0165103
652.286	0.0164075
652.364	0.0163630
652.442	0.0165086
652.521	0.0163499
652.599	0.0163317
652.677	0.0162779
652.755	0.0163580
652.833	0.0163174
652.911	0.0164294
652.989	0.0162691
653.067	0.0163536
653.146	0.0164416
653.224	0.0163761
653.302	0.0163261
653.380	0.0163148
653.458	0.0162260
653.536	0.0163655
653.614	0.0163746
653.692	0.0164510
653.771	0.0163786
653.849	0.0163907
653.927	0.0163813
654.005	0.0164294
654.083	0.0163526
654.161	0.0163173
654.239	0.0164173
654.317	0.0163268
654.396	0.0162912
654.474	0.0164039
654.552	0.0162763
654.630	0.0164184
654.708	0.0163503
654.786	0.0163342
654.864	0.0163078
654.942	0.0164493
655.021	0.0164622
655.099	0.0163810
655.177	0.0164128
655.255	0.0163322
655.333	0.0163392
655.411	0.0164162
655.489	0.0163046
655.567	0.0162949
655.646	0.0163952
655.724	0.0162674
655.802	0.0163515
655.880	0.0163706
655.958	0.0164312
656.036	0.0163120
656.114	0.0164819
656.192	0.0164671
656.271	0.0163142
656.349	0.0163708
656.427	0.0163971
656.505	0.0163861
656.583	0.0162500
656.661	0.0161781
656.739	0.0163257
656.817	0.0163130
656.896	0.0163704
656.974	0.0164763
657.052	0.0163313
657.130	0.0163623
657.208	0.0163630
657.286	0.0162590
657.364	0.0163171
657.442	0.0164272
657.521	0.0163120
657.599	0.0163995
657.677	0.0163727
657.755	0.0163840
657.833	0.0164308
657.911	0.0164831
657.989	0.0163123
658.067	0.0162527
658.146	0.0164197
658.224	0.0163717
658.302	0.0163753
658.380	0.0165446
658.458	0.0162722
658.536	0.0163843
658.614	0.0163668
658.692	0.0162325
658.771	0.0162941
658.849	0.0163734
658.927	0.0162902
659.005	0.0163289
659.083	0.0164211
659.161	0.0163340
659.239	0.0162485
659.317	0.0163140
659.396	0.0163759
659.474	0.0162702
659.552	0.0163403
659.630	0.0163495
659.708	0.0163342
659.786	0.0163717
659.864	0.0161983
659.942	0.0162171
660.021	0.0164298
660.099	0.0163405
660.177	0.0163638
660.255	0.0163281
660.333	0.0163837
660.411	0.0162426
660.489	0.0163569
660.567	0.0163123
660.646	0.0163732
660.724	0.0162335
660.802	0.0163535
660.880	0.0163738
660.958	0.0162497
661.036	0.0163726
661.114	0.0163419
661.192	0.0163503
661.271	0.0163229
661.349	0.0162400
661.427	0.0163746
661.505	0.0164648
661.583	0.0163601
661.661	0.0162487
661.739	0.0162562
661.817	0.0163905
661.896	0.0163663
661.974	0.0163776
662.052	0.0163818
662.130	0.0162968
662.208	0.0162726
662.286	0.0162541
662.364	0.0164047
662.442	0.0163737
662.521	0.0165584
662.599	0.0163164
662.677	0.0163503
662.755	0.0164832
662.833	0.0163802
662.911	0.0164808
662.989	0.0163956
663.067	0.0163602
663.146	0.0164822
663.224	0.0164126
663.302	0.0163692
663.380	0.0163602
663.458	0.0164750
663.536	0.0164112
663.614	0.0164745
663.692	0.0164146
663.771	0.0163241
663.849	0.0164532
663.927	0.0164300
664.005	0.0163986
664.083	0.0163848
664.161	0.0164127
664.239	0.0163382
664.317	0.0165214
664.396	0.0163261
664.474	0.0164674
664.552	0.0165086
664.630	0.0164685
664.708	0.0163733
664.786	0.0163586
664.864	0.0164496
664.942	0.0163991
665.021	0.0165095
665.099	0.0165149
665.177	0.0163253
665.255	0.0164455
665.333	0.0164227
665.411	0.0164970
665.489	0.0163558
665.567	0.0165169
665.646	0.0165634
665.724	0.0163589
665.802	0.0164001
665.880	0.0164168
665.958	0.0164556
666.036	0.0164493
666.114	0.0163416
666.192	0.0165137
666.271	0.0165408
666.349	0.0164651
666.427	0.0164204
666.505	0.0166138
666.583	0.0163973
666.661	0.0163306
666.739	0.0163506
666.817	0.0163647
666.896	0.0164599
666.974	0.0164089
667.052	0.0163839
667.130	0.0164689
667.208	0.0163933
667.286	0.0163700
667.364	0.0165647
667.442	0.0162859
667.521	0.0162557
667.599	0.0165526
667.677	0.0164780
667.755	0.0164259
667.833	0.0163805
667.911	0.0165096
667.989	0.0163535
668.067	0.0163663
668.146	0.0165726
668.224	0.0164786
668.302	0.0163484
668.380	0.0163547
668.458	0.0164526
668.536	0.0164528
668.614	0.0164719
668.692	0.0164175
668.771	0.0163977
668.849	0.0164558
668.927	0.0164386
669.005	0.0165052
669.083	0.0164476
669.161	0.0164454
669.239	0.0165531
669.317	0.0165107
669.396	0.0164623
669.474	0.0164260
669.552	0.0163326
669.630	0.0164616
669.708	0.0165054
669.786	0.0164232
669.864	0.0163876
669.942	0.0164235
670.021	0.0165220
670.099	0.0165006
670.177	0.0163773
670.255	0.0165434
670.333	0.0164111
670.411	0.0165243
670.489	0.0165676
670.567	0.0164536
670.646	0.0164144
670.724	0.0165083
670.802	0.0164573
670.880	0.0165202
670.958	0.0164698
671.036	0.0163437
671.114	0.0163113
671.192	0.0164396
671.271	0.0165131
671.349	0.0164547
671.427	0.0164570
671.505	0.0164439
671.583	0.0164008
671.661	0.0163762
671.739	0.0163528
671.817	0.0164423
671.896	0.0164328
671.974	0.0163377
672.052	0.0163579
672.130	0.0164175
672.208	0.0165175
672.286	0.0163827
672.364	0.0163104
672.442	0.0164309
672.521	0.0165244
672.599	0.0162222
672.677	0.0164749
672.755	0.0165228
672.833	0.0164529
672.911	0.0165726
672.989	0.0166113
673.067	0.0165167
673.146	0.0163785
673.224	0.0165220
673.302	0.0164722
673.380	0.0164257
673.458	0.0164777
673.536	0.0164925
673.614	0.0162766
673.692	0.0163488
673.771	0.0162444
673.849	0.0162861
673.927	0.0163783
674.005	0.0166004
674.083	0.0165212
674.161	0.0166232
674.239	0.0165904
674.317	0.0164683
674.396	0.0166813
674.474	0.0166423
674.552	0.0166887
674.630	0.0166736
674.708	0.0165377
674.786	0.0165163
674.864	0.0164513
674.942	0.0162692
675.021	0.0163003
675.099	0.0162252
675.177	0.0160670
675.255	0.0158719
675.333	0.0160004
675.411	0.0161340
675.489	0.0161825
675.567	0.0162376
675.646	0.0163753
675.724	0.0166141
675.802	0.0167792
675.880	0.0168591
675.958	0.0169008
676.036	0.0169618
676.114	0.0169205
676.192	0.0167452
676.271	0.0165932
676.349	0.0164876
676.427	0.0162660
676.505	0.0160831
676.583	0.0159155
676.661	0.0157185
676.739	0.0157861
676.817	0.0156995
676.896	0.0159415
676.974	0.0159641
677.052	0.0160430
677.130	0.0162735
677.208	0.0165310
677.286	0.0167901
677.364	0.0167690
677.442	0.0168342
677.521	0.0170303
677.599	0.0168552
677.677	0.0167789
677.755	0.0165809
677.833	0.0163049
677.911	0.0160194
677.989	0.0160612
678.067	0.0158343
678.146	0.0158806
678.224	0.0158246
678.302	0.0158733
678.380	0.0158315
678.458	0.0159716
678.536	0.0161762
678.614	0.0161098
678.692	0.0162690
678.771	0.0164540
678.849	0.0165089
678.927	0.0167632
679.005	0.0166834
679.083	0.0168813
679.161	0.0167884
679.239	0.0167889
679.317	0.0167914
679.396	0.0167359
679.474	0.0164375
679.552	0.0162702
679.630	0.0163411
679.708	0.0161591
679.786	0.0161237
679.864	0.0159980
679.942	0.0160275
680.021	0.0160983
680.099	0.0158900
680.177	0.0161384
680.255	0.0162732
680.333	0.0164365
680.411	0.0165367
680.489	0.0165577
680.567	0.0167332
680.646	0.0168156
680.724	0.0167068
680.802	0.0166601
680.880	0.0166842
680.958	0.0164795
681.036	0.0164142
681.114	0.0163168
681.192	0.0163329
681.271	0.0161923
681.349	0.0162000
681.427	0.0162888
681.505	0.0161957
681.583	0.0163388
681.661	0.0164110
681.739	0.0162637
681.817	0.0163304
681.896	0.0162830
681.974	0.0162698
682.052	0.0162226
682.130	0.0163062
682.208	0.0162059
682.286	0.0162373
682.364	0.0162090
682.442	0.0162263
682.521	0.0162634
682.599	0.0164000
682.677	0.0165319
682.755	0.0164245
682.833	0.0166007
682.911	0.0165596
682.989	0.0165050
683.067	0.0165054
683.146	0.0164266
683.224	0.0163666
683.302	0.0162000
683.380	0.0162863
683.458	0.0161557
683.536	0.0158167
683.614	0.0160163
683.692	0.0159075
683.771	0.0160236
683.849	0.0161434
683.927	0.0163656
684.005	0.0164417
684.083	0.0164664
684.161	0.0164857
684.239	0.0166256
684.317	0.0166666
684.396	0.0167125
684.474	0.0168079
684.552	0.0166422
684.630	0.0166730
684.708	0.0164925
684.786	0.0164030
684.864	0.0162334
684.942	0.0160824
685.021	0.0160418
685.099	0.0161069
685.177	0.0160434
685.255	0.0161114
685.333	0.0160965
685.411	0.0161637
685.489	0.0163264
685.567	0.0165543
685.646	0.0165858
685.724	0.0166650
685.802	0.0166135
685.880	0.0165063
685.958	0.0163875
686.036	0.0166125
686.114	0.0165101
686.192	0.0163031
686.271	0.0164295
686.349	0.0162956
686.427	0.0162086
686.505	0.0162150
686.583	0.0161485
686.661	0.0162328
686.739	0.0164458
686.817	0.0164319
686.896	0.0164237
686.974	0.0165004
687.052	0.0164814
687.130	0.0165553
687.208	0.0165562
687.286	0.0164645
687.364	0.0163402
687.442	0.0163400
687.521	0.0163845
687.599	0.0161895
687.677	0.0162878
687.755	0.0162872
687.833	0.0162573
687.911	0.0162378
687.989	0.0163795
688.067	0.0162830
688.146	0.0162669
688.224	0.0165641
688.302	0.0166330
688.380	0.0165311
688.458	0.0164440
688.536	0.0164499
688.614	0.0166026
688.692	0.0164571
688.771	0.0165184
688.849	0.0163617
688.927	0.0163343
689.005	0.0163241
689.083	0.0162998
689.161	0.0162156
689.239	0.0162944
689.317	0.0164458
689.396	0.0165285
689.474	0.0164933
689.552	0.0165877
689.630	0.0167618
689.708	0.0166886
689.786	0.0167146
689.864	0.0166425
689.942	0.0167828
690.021	0.0165697
690.099	0.0164703
690.177	0.0165112
690.255	0.0164726
690.333	0.0163105
690.411	0.0163034
690.489	0.0162462
690.567	0.0162513
690.646	0.0162657
690.724	0.0162844
690.802	0.0163627
690.880	0.0164249
690.958	0.0164408
691.036	0.0166114
691.114	0.0166769
691.192	0.0167661
691.271	0.0166672
691.349	0.0167479
691.427	0.0168919
691.505	0.0165469
691.583	0.0167096
691.661	0.0166024
691.739	0.0164771
691.817	0.0164409
691.896	0.0164505
691.974	0.0162706
692.052	0.0163809
692.130	0.0163122
692.208	0.0162760
692.286	0.0164417
692.364	0.0164896
692.442	0.0165621
692.521	0.0165363
692.599	0.0165752
692.677	0.0167799
692.755	0.0166807
692.833	0.0166411
692.911	0.0165448
692.989	0.0164933
693.067	0.0165169
693.146	0.0163267
693.224	0.0162199
693.302	0.0161549
693.380	0.0164442
693.458	0.0161476
693.536	0.0161595
693.614	0.0162384
693.692	0.0163427
693.771	0.0163190
693.849	0.0163895
693.927	0.0164472
694.005	0.0162719
694.083	0.0164342
694.161	0.0165571
694.239	0.0163390
694.317	0.0164102
694.396	0.0163071
694.474	0.0162548
694.552	0.0162234
694.630	0.0164433
694.708	0.0163149
694.786	0.0164017
694.864	0.0163947
694.942	0.0163378
695.021	0.0163225
695.099	0.0165511
695.177	0.0166022
695.255	0.0166576
695.333	0.0166768
695.411	0.0166866
695.489	0.0167302
695.567	0.0165895
695.646	0.0167466
695.724	0.0167621
695.802	0.0166536
695.880	0.0165312
695.958	0.0164819
696.036	0.0166415
696.114	0.0164388
696.192	0.0165298
696.271	0.0164655
696.349	0.0163358
696.427	0.0163145
696.505	0.0164021
696.583	0.0164451
696.661	0.0164109
696.739	0.0163430
696.817	0.0164660
696.896	0.0164479
696.974	0.0166454
697.052	0.0164633
697.130	0.0166983
697.208	0.0166656
697.286	0.0164528
697.364	0.0165191
697.442	0.0164719
697.521	0.0164130
697.599	0.0163866
697.677	0.0163213
697.755	0.0162872
697.833	0.0162058
697.911	0.0161476
697.989	0.0162283
698.067	0.0161331
698.146	0.0161459
698.224	0.0160397
698.302	0.0157664
698.380	0.0160446
698.458	0.0159754
698.536	0.0158411
698.614	0.0158556
698.692	0.0159277
698.771	0.0159830
698.849	0.0158288
698.927	0.0159505
699.005	0.0161052
699.083	0.0160175
699.161	0.0160587
699.239	0.0161152
699.317	0.0162500
699.396	0.0162300
699.474	0.0162997
699.552	0.0164553
699.630	0.0164442
699.708	0.0164439
699.786	0.0164767
699.864	0.0165956
699.942	0.0166147
700.021	0.0167121
700.099	0.0165928
700.177	0.0167716
700.255	0.0167679
700.333	0.0168650
700.411	0.0169102
700.489	0.0168096
700.567	0.0168871
700.646	0.0169578
700.724	0.0169957
700.802	0.0169025
700.880	0.0168887
700.958	0.0167598
701.036	0.0166367
701.114	0.0165734
701.192	0.0167122
701.271	0.0165855
701.349	0.0163711
701.427	0.0163750
701.505	0.0161700
701.583	0.0162196
701.661	0.0162199
701.739	0.0161256
701.817	0.0159380
701.896	0.0160703
701.974	0.0159630
702.052	0.0161195
702.130	0.0159846
702.208	0.0159223
702.286	0.0160017
702.364	0.0161552
702.442	0.0160407
702.521	0.0160377
702.599	0.0160401
702.677	0.0161623
702.755	0.0162348
702.833	0.0162366
702.911	0.0163078
702.989	0.0164043
703.067	0.0164409
703.146	0.0164999
703.224	0.0164386
703.302	0.0165587
703.380	0.0166954
703.458	0.0165144
703.536	0.0165146
703.614	0.0164787
703.692	0.0164491
703.771	0.0164193
703.849	0.0164134
703.927	0.0163164
704.005	0.0160643
704.083	0.0159271
704.161	0.0159739
704.239	0.0158253
704.317	0.0159202
704.396	0.0158302
704.474	0.0158323
704.552	0.0161546
704.630	0.0160547
704.708	0.0159863
704.786	0.0161768
704.864	0.0164252
704.942	0.0162769
705.021	0.0161104
705.099	0.0163495
705.177	0.0164218
705.255	0.0161925
705.333	0.0161524
705.411	0.0162460
705.489	0.0163774
705.567	0.0162982
705.646	0.0162821
705.724	0.0162784
705.802	0.0161784
705.880	0.0163055
705.958	0.0164529
706.036	0.0163725
706.114	0.0165145
706.192	0.0165615
706.271	0.0166025
706.349	0.0168202
706.427	0.0168793
706.505	0.0170074
706.583	0.0171955
706.661	0.0171848
706.739	0.0173858
706.817	0.0175167
706.896	0.0175616
706.974	0.0176179
707.052	0.0177345
707.130	0.0177813
707.208	0.0177073
707.286	0.0176311
707.364	0.0175744
707.442	0.0174107
707.521	0.0170130
707.599	0.0168417
707.677	0.0166712
707.755	0.0161838
707.833	0.0158409
707.911	0.0156007
707.989	0.0153031
708.067	0.0149675
708.146	0.0148547
708.224	0.0145608
708.302	0.0145689
708.380	0.0143951
708.458	0.0146356
708.536	0.0146826
708.614	0.0147739
708.692	0.0149947
708.771	0.0151860
708.849	0.0153059
708.927	0.0153706
709.005	0.0156799
709.083	0.0157352
709.161	0.0161625
709.239	0.0162293
709.317	0.0163380
709.396	0.0165639
709.474	0.0166998
709.552	0.0168101
709.630	0.0167605
709.708	0.0168949
709.786	0.0169936
709.864	0.0171181
709.942	0.0170901
710.021	0.0172662
710.099	0.0170270
710.177	0.0171966
710.255	0.0171960
710.333	0.0171970
710.411	0.0171997
710.489	0.0171317
710.567	0.0169616
710.646	0.0166808
710.724	0.0165614
710.802	0.0164951
710.880	0.0162560
710.958	0.0159048
711.036	0.0157041
711.114	0.0156724
711.192	0.0153294
711.271	0.0152646
711.349	0.0153039
711.427	0.0152570
711.505	0.0154100
711.583	0.0156089
711.661	0.0157754
711.739	0.0159625
711.817	0.0161785
711.896	0.0163624
711.974	0.0165421
712.052	0.0167347
712.130	0.0170180
712.208	0.0172768
712.286	0.0172948
712.364	0.0176659
712.442	0.0177469
712.521	0.0178573
712.599	0.0179028
712.677	0.0182579
712.755	0.0184402
712.833	0.0182839
712.911	0.0183220
712.989	0.0182238
713.067	0.0182961
713.146	0.0182173
713.224	0.0182270
713.302	0.0181171
713.380	0.0178880
713.458	0.0178623
713.536	0.0176884
713.614	0.0172304
713.692	0.0172173
713.771	0.0167944
713.849	0.0164889
713.927	0.0163264
714.005	0.0160606
714.083	0.0155349
714.161	0.0152602
714.239	0.0150530
714.317	0.0150324
714.396	0.0146869
714.474	0.0144078
714.552	0.0143141
714.630	0.0142619
714.708	0.0142503
714.786	0.0141620
714.864	0.0141329
714.942	0.0141100
715.021	0.0138556
715.099	0.0137051
715.177	0.0135789
715.255	0.0137366
715.333	0.0138223
715.411	0.0137274
715.489	0.0138597
715.567	0.0141859
715.646	0.0143470
715.724	0.0148158
715.802	0.0151958
715.880	0.0155370
715.958	0.0160493
716.036	0.0167213
716.114	0.0171794
716.192	0.0178918
716.271	0.0183815
716.349	0.0187280
716.427	0.0192613
716.505	0.0196732
716.583	0.0199232
716.661	0.0200856
716.739	0.0202406
716.817	0.0202489
716.896	0.0201437
716.974	0.0198241
717.052	0.0194663
717.130	0.0186523
717.208	0.0182127
717.286	0.0176995
717.364	0.0169818
717.442	0.0161816
717.521	0.0156160
717.599	0.0151209
717.677	0.0147023
717.755	0.0142136
717.833	0.0140024
717.911	0.0138931
717.989	0.0138240
718.067	0.0139830
718.146	0.0141937
718.224	0.0143827
718.302	0.0147494
718.380	0.0151530
718.458	0.0155770
718.536	0.0159225
718.614	0.0165111
718.692	0.0168982
718.771	0.0173643
718.849	0.0177612
718.927	0.0181876
719.005	0.0184797
719.083	0.0188556
719.161	0.0192074
719.239	0.0193807
719.317	0.0196080
719.396	0.0196843
719.474	0.0197855
719.552	0.0197692
719.630	0.0197153
719.708	0.0195963
719.786	0.0193420
719.864	0.0192048
719.942	0.0190001
720.021	0.0185651
720.099	0.0181796
720.177	0.0178101
720.255	0.0173944
720.333	0.0166605
720.411	0.0160282
720.489	0.0154482
720.567	0.0146719
720.646	0.0140969
720.724	0.0133624
720.802	0.0128228
720.880	0.0123382
720.958	0.0118095
721.036	0.0114845
721.114	0.0113074
721.192	0.0108856
721.271	0.0106812
721.349	0.0107076
721.427	0.0105504
721.505	0.0105475
721.583	0.0108117
721.661	0.0109993
721.739	0.0112739
721.817	0.0115318
721.896	0.0120947
721.974	0.0127987
722.052	0.0133888
722.130	0.0141701
722.208	0.0149316
722.286	0.0158625
722.364	0.0167099
722.442	0.0178210
722.521	0.0186238
722.599	0.0195084
722.677	0.0201569
722.755	0.0209698
722.833	0.0216305
722.911	0.0219466
722.989	0.0221870
723.067	0.0222800
723.146	0.0223885
723.224	0.0221787
723.302	0.0218515
723.380	0.0214448
723.458	0.0209528
723.536	0.0203622
723.614	0.0200096
723.692	0.0192551
723.771	0.0185597
723.849	0.0180573
723.927	0.0175911
724.005	0.0170505
724.083	0.0164523
724.161	0.0160401
724.239	0.0158776
724.317	0.0154412
724.396	0.0151810
724.474	0.0149318
724.552	0.0148390
724.630	0.0146992
724.708	0.0146459
724.786	0.0147277
724.864	0.0147278
724.942	0.0149149
725.021	0.0149557
725.099	0.0152702
725.177	0.0154019
725.255	0.0156402
725.333	0.0158841
725.411	0.0159464
725.489	0.0159413
725.567	0.0163588
725.646	0.0165758
725.724	0.0165020
725.802	0.0166837
725.880	0.0169208
725.958	0.0171494
726.036	0.0173902
726.114	0.0174467
726.192	0.0176213
726.271	0.0177437
726.349	0.0179794
726.427	0.0180048
726.505	0.0181909
726.583	0.0177398
726.661	0.0176160
726.739	0.0174751
726.817	0.0171752
726.896	0.0166747
726.974	0.0163614
727.052	0.0158576
727.130	0.0154681
727.208	0.0151315
727.286	0.0145041
727.364	0.0139836
727.442	0.0135175
727.521	0.0131896
727.599	0.0129413
727.677	0.0124771
727.755	0.0120025
727.833	0.0118237
727.911	0.0117720
727.989	0.0116006
728.067	0.0117724
728.146	0.0119076
728.224	0.0120154
728.302	0.0124117
728.380	0.0128911
728.458	0.0133389
728.536	0.0138551
728.614	0.0146126
728.692	0.0151932
728.771	0.0161283
728.849	0.0166869
728.927	0.0174588
729.005	0.0181001
729.083	0.0186450
729.161	0.0191792
729.239	0.0196938
729.317	0.0202174
729.396	0.0200765
729.474	0.0202281
729.552	0.0201510
729.630	0.0198166
729.708	0.0194888
729.786	0.0191361
729.864	0.0185419
729.942	0.0181542
730.021	0.0176103
730.099	0.0171468
730.177	0.0168329
730.255	0.0164444
730.333	0.0162523
730.411	0.0160131
730.489	0.0160124
730.567	0.0160799
730.646	0.0162309
730.724	0.0165850
730.802	0.0169015
730.880	0.0172109
730.958	0.0177872
731.036	0.0181294
731.114	0.0186259
731.192	0.0190766
731.271	0.0195533
731.349	0.0200448
731.427	0.0204180
731.505	0.0207116
731.583	0.0209711
731.661	0.0210490
731.739	0.0210942
731.817	0.0211584
731.896	0.0209100
731.974	0.0204088
732.052	0.0202364
732.130	0.0195210
732.208	0.0189657
732.286	0.0184589
732.364	0.0175381
732.442	0.0169415
732.521	0.0162191
732.599	0.0155022
732.677	0.0148289
732.755	0.0141458
732.833	0.0135844
732.911	0.0131245
732.989	0.0125021
733.067	0.0119479
733.146	0.0115604
733.224	0.0110840
733.302	0.0106989
733.380	0.0104335
733.458	0.0102275
733.536	0.0101283
733.614	0.00985344
733.692	0.00992126
733.771	0.0100137
733.849	0.0101138
733.927	0.0102728
734.005	0.0104534
734.083	0.0108579
734.161	0.0112160
734.239	0.0114975
734.317	0.0121208
734.396	0.0126484
734.474	0.0132914
734.552	0.0139887
734.630	0.0147921
734.708	0.0156469
734.786	0.0163197
734.864	0.0171706
734.942	0.0178930
735.021	0.0182941
735.099	0.0187995
735.177	0.0192274
735.255	0.0193577
735.333	0.0194215
735.411	0.0190969
735.489	0.0191336
735.567	0.0187238
735.646	0.0182638
735.724	0.0179878
735.802	0.0176611
735.880	0.0174785
735.958	0.0172031
736.036	0.0173438
736.114	0.0176409
736.192	0.0177601
736.271	0.0182336
736.349	0.0186147
736.427	0.0192091
736.505	0.0200594
736.583	0.0206263
736.661	0.0210349
736.739	0.0215717
736.817	0.0220188
736.896	0.0221482
736.974	0.0224960
737.052	0.0226727
737.130	0.0228088
737.208	0.0226917
737.286	0.0225642
737.364	0.0223290
737.442	0.0220619
737.521	0.0218549
737.599	0.0214245
737.677	0.0208735
737.755	0.0203223
737.833	0.0198679
737.911	0.0190433
737.989	0.0180652
738.067	0.0171484
738.146	0.0162841
738.224	0.0154358
738.302	0.0144763
738.380	0.0136755
738.458	0.0129293
738.536	0.0122089
738.614	0.0116596
738.692	0.0112930
738.771	0.0109138
738.849	0.0106651
738.927	0.0105721
739.005	0.0103642
739.083	0.0103743
739.161	0.0105728
739.239	0.0106749
739.317	0.0106684
739.396	0.0107690
739.474	0.0108627
739.552	0.0109814
739.630	0.0110888
739.708	0.0114068
739.786	0.0115015
739.864	0.0117575
739.942	0.0121738
740.021	0.0126254
740.099	0.0130544
740.177	0.0135287
740.255	0.0138999
740.333	0.0145357
740.411	0.0149856
740.489	0.0152346
740.567	0.0156713
740.646	0.0158127
740.724	0.0161327
740.802	0.0163398
740.880	0.0165272
740.958	0.0164845
741.036	0.0165851
741.114	0.0167116
741.192	0.0166579
741.271	0.0168415
741.349	0.0168883
741.427	0.0170718
741.505	0.0173679
741.583	0.0176733
741.661	0.0179389
741.739	0.0184587
741.817	0.0189892
741.896	0.0195126
741.974	0.0199391
742.052	0.0206413
742.130	0.0212290
742.208	0.0215733
742.286	0.0220106
742.364	0.0223324
742.442	0.0224577
742.521	0.0223997
742.599	0.0224884
742.677	0.0225213
742.755	0.0220830
742.833	0.0219204
742.911	0.0215931
742.989	0.0210400
743.067	0.0207680
743.146	0.0203487
743.224	0.0200986
743.302	0.0197234
743.380	0.0192738
743.458	0.0187241
743.536	0.0182131
743.614	0.0176912
743.692	0.0170358
743.771	0.0164095
743.849	0.0157744
743.927	0.0150658
744.005	0.0145345
744.083	0.0137628
744.161	0.0132683
744.239	0.0129726
744.317	0.0126808
744.396	0.0123027
744.474	0.0122324
744.552	0.0120876
744.630	0.0119802
744.708	0.0119538
744.786	0.0119538
744.864	0.0119961
744.942	0.0119817
745.021	0.0121580
745.099	0.0122292
745.177	0.0124026
745.255	0.0125055
745.333	0.0127682
745.411	0.0129319
745.489	0.0132735
745.567	0.0136264
745.646	0.0138714
745.724	0.0142596
745.802	0.0147374
745.880	0.0150546
745.958	0.0153690
746.036	0.0157535
746.114	0.0158416
746.192	0.0159195
746.271	0.0161285
746.349	0.0163393
746.427	0.0163910
746.505	0.0164896
746.583	0.0165849
746.661	0.0165322
746.739	0.0166652
746.817	0.0167783
746.896	0.0166911
746.974	0.0169209
747.052	0.0170634
747.130	0.0171581
747.208	0.0172886
747.286	0.0175127
747.364	0.0178971
747.442	0.0180310
747.521	0.0182322
747.599	0.0185959
747.677	0.0188206
747.755	0.0189304
747.833	0.0192386
747.911	0.0192793
747.989	0.0193228
748.067	0.0194122
748.146	0.0192783
748.224	0.0191145
748.302	0.0190592
748.380	0.0189072
748.458	0.0188943
748.536	0.0185648
748.614	0.0184046
748.692	0.0184180
748.771	0.0182462
748.849	0.0180762
748.927	0.0180938
749.005	0.0179338
749.083	0.0176857
749.161	0.0175932
749.239	0.0173601
749.317	0.0172673
749.396	0.0169303
749.474	0.0167094
749.552	0.0164910
749.630	0.0161361
749.708	0.0157737
749.786	0.0153906
749.864	0.0150843
749.942	0.0148866
750.021	0.0146841
750.099	0.0144010
750.177	0.0140434
750.255	0.0139462
750.333	0.0138950
750.411	0.0137401
750.489	0.0136495
750.567	0.0136067
750.646	0.0134868
750.724	0.0136429
750.802	0.0136506
750.880	0.0136343
750.958	0.0140091
751.036	0.0140646
751.114	0.0144411
751.192	0.0147536
751.271	0.0151373
751.349	0.0154626
751.427	0.0156339
751.505	0.0158907
751.583	0.0162218
751.661	0.0164514
751.739	0.0166461
751.817	0.0167216
751.896	0.0167601
751.974	0.0168050
752.052	0.0169123
752.130	0.0168225
752.208	0.0168508
752.286	0.0168633
752.364	0.0168758
752.442	0.0169514
752.521	0.0168547
752.599	0.0170491
752.677	0.0172876
752.755	0.0172201
752.833	0.0174260
752.911	0.0174099
752.989	0.0175708
753.067	0.0179081
753.146	0.0177689
753.224	0.0177506
753.302	0.0178476
753.380	0.0178294
753.458	0.0178248
753.536	0.0177416
753.614	0.0175641
753.692	0.0174286
753.771	0.0173851
753.849	0.0170870
753.927	0.0169958
754.005	0.0169508
754.083	0.0169847
754.161	0.0169512
754.239	0.0172043
754.317	0.0169868
754.396	0.0170130
754.474	0.0169328
754.552	0.0169016
754.630	0.0171350
754.708	0.0170071
754.786	0.0170238
754.864	0.0171055
754.942	0.0170933
755.021	0.0170228
755.099	0.0168562
755.177	0.0167511
755.255	0.0167763
755.333	0.0163934
755.411	0.0163045
755.489	0.0161324
755.567	0.0160553
755.646	0.0157838
755.724	0.0156021
755.802	0.0153654
755.880	0.0152823
755.958	0.0150412
756.036	0.0148092
756.114	0.0145426
756.192	0.0142083
756.271	0.0141592
756.349	0.0137740
756.427	0.0136453
756.505	0.0135488
756.583	0.0135646
756.661	0.0134962
756.739	0.0136661
756.817	0.0137673
756.896	0.0139671
756.974	0.0142270
757.052	0.0147260
757.130	0.0148836
757.208	0.0152739
757.286	0.0154570
757.364	0.0160207
757.442	0.0163251
757.521	0.0165106
757.599	0.0169643
757.677	0.0171999
757.755	0.0175079
757.833	0.0176810
757.911	0.0179215
757.989	0.0180701
758.067	0.0181246
758.146	0.0182830
758.224	0.0185331
758.302	0.0185316
758.380	0.0185210
758.458	0.0184451
758.536	0.0185831
758.614	0.0185094
758.692	0.0184282
758.771	0.0181602
758.849	0.0180843
758.927	0.0178325
759.005	0.0174834
759.083	0.0171877
759.161	0.0171546
759.239	0.0168135
759.317	0.0166124
759.396	0.0163324
759.474	0.0162328
759.552	0.0161369
759.630	0.0161533
759.708	0.0162867
759.786	0.0161025
759.864	0.0160743
759.942	0.0162360
760.021	0.0163877
760.099	0.0163353
760.177	0.0165051
760.255	0.0165598
760.333	0.0166943
760.411	0.0169359
760.489	0.0168018
760.567	0.0170995
760.646	0.0170908
760.724	0.0171021
760.802	0.0171306
760.880	0.0172182
760.958	0.0170314
761.036	0.0170106
761.114	0.0168666
761.192	0.0167471
761.271	0.0166022
761.349	0.0164357
761.427	0.0160091
761.505	0.0159286
761.583	0.0155807
761.661	0.0154897
761.739	0.0151320
761.817	0.0149792
761.896	0.0148526
761.974	0.0146468
762.052	0.0145858
762.130	0.0144561
762.208	0.0143350
762.286	0.0143571
762.364	0.0143681
762.442	0.0143674
762.521	0.0143445
762.599	0.0145007
762.677	0.0145403
762.755	0.0145996
762.833	0.0147459
762.911	0.0148629
762.989	0.0150672
763.067	0.0151871
763.146	0.0155967
763.224	0.0157840
763.302	0.0161852
763.380	0.0164845
763.458	0.0165863
763.536	0.0169528
763.614	0.0172064
763.692	0.0175493
763.771	0.0177577
763.849	0.0178752
763.927	0.0180473
764.005	0.0180460
764.083	0.0179867
764.161	0.0181551
764.239	0.0180318
764.317	0.0179926
764.396	0.0178486
764.474	0.0174612
764.552	0.0173455
764.630	0.0172310
764.708	0.0168374
764.786	0.0167613
764.864	0.0164769
764.942	0.0162600
765.021	0.0160357
765.099	0.0159081
765.177	0.0158501
765.255	0.0157094
765.333	0.0157289
765.411	0.0156793
765.489	0.0159360
765.567	0.0160241
765.646	0.0161485
765.724	0.0163585
765.802	0.0164220
765.880	0.0166032
765.958	0.0169459
766.036	0.0170341
766.114	0.0173332
766.192	0.0175260
766.271	0.0176340
766.349	0.0175954
766.427	0.0178513
766.505	0.0181476
766.583	0.0180153
766.661	0.0179890
766.739	0.0179548
766.817	0.0178687
766.896	0.0178475
766.974	0.0176574
767.052	0.0172253
767.130	0.0170638
767.208	0.0167958
767.286	0.0164391
767.364	0.0161006
767.442	0.0158368
767.521	0.0155078
767.599	0.0153890
767.677	0.0151168
767.755	0.0149561
767.833	0.0148407
767.911	0.0147536
767.989	0.0146739
768.067	0.0145936
768.146	0.0145103
768.224	0.0146401
768.302	0.0147793
768.380	0.0150417
768.458	0.0150166
768.536	0.0151300
768.614	0.0153313
768.692	0.0154813
768.771	0.0158040
768.849	0.0158524
768.927	0.0158923
769.005	0.0162370
769.083	0.0162218
769.161	0.0165363
769.239	0.0166705
769.317	0.0164993
769.396	0.0167688
769.474	0.0168504
769.552	0.0169544
769.630	0.0170506
769.708	0.0171503
769.786	0.0170141
769.864	0.0168964
769.942	0.0169770
770.021	0.0169063
770.099	0.0166925
770.177	0.0165813
770.255	0.0166719
770.333	0.0164101
770.411	0.0161526
770.489	0.0159932
770.567	0.0156783
770.646	0.0156360
770.724	0.0154465
770.802	0.0154247
770.880	0.0152280
770.958	0.0153233
771.036	0.0153836
771.114	0.0154110
771.192	0.0154938
771.271	0.0156473
771.349	0.0159768
771.427	0.0160273
771.505	0.0164054
771.583	0.0164975
771.661	0.0168329
771.739	0.0170437
771.817	0.0172717
771.896	0.0175365
771.974	0.0176669
772.052	0.0179259
772.130	0.0179834
772.208	0.0178873
772.286	0.0178985
772.364	0.0178577
772.442	0.0178053
772.521	0.0177507
772.599	0.0176515
772.677	0.0174310
772.755	0.0170209
772.833	0.0170788
772.911	0.0169762
772.989	0.0166103
773.067	0.0164471
773.146	0.0162788
773.224	0.0161941
773.302	0.0161167
773.380	0.0159021
773.458	0.0156588
773.536	0.0156518
773.614	0.0157137
773.692	0.0154952
773.771	0.0155215
773.849	0.0155178
773.927	0.0153895
774.005	0.0154704
774.083	0.0155865
774.161	0.0157264
774.239	0.0157929
774.317	0.0158427
774.396	0.0159982
774.474	0.0161558
774.552	0.0161905
774.630	0.0163733
774.708	0.0165036
774.786	0.0167490
774.864	0.0167247
774.942	0.0168968
775.021	0.0170452
775.099	0.0170895
775.177	0.0172034
775.255	0.0171596
775.333	0.0171007
775.411	0.0169433
775.489	0.0169836
775.567	0.0169209
775.646	0.0166819
775.724	0.0165621
775.802	0.0165744
775.880	0.0162379
775.958	0.0162457
776.036	0.0158840
776.114	0.0158950
776.192	0.0156028
776.271	0.0156023
776.349	0.0156461
776.427	0.0155102
776.505	0.0155013
776.583	0.0155480
776.661	0.0154224
776.739	0.0154594
776.817	0.0156178
776.896	0.0154263
776.974	0.0157964
777.052	0.0158476
777.130	0.0158851
777.208	0.0160588
777.286	0.0161753
777.364	0.0164498
777.442	0.0165133
777.521	0.0166259
777.599	0.0166409
777.677	0.0166899
777.755	0.0167229
777.833	0.0169032
777.911	0.0169701
777.989	0.0168465
778.067	0.0169960
778.146	0.0167492
778.224	0.0167282
778.302	0.0168002
778.380	0.0166393
778.458	0.0165974
778.536	0.0166929
778.614	0.0167011
778.692	0.0165391
778.771	0.0163862
778.849	0.0164739
778.927	0.0163997
779.005	0.0163639
779.083	0.0164048
779.161	0.0163279
779.239	0.0161495
779.317	0.0162350
779.396	0.0161492
779.474	0.0160538
779.552	0.0160630
779.630	0.0158150
779.708	0.0157716
779.786	0.0157413
779.864	0.0158402
779.942	0.0159322
780.021	0.0157891
780.099	0.0158282
780.177	0.0159573
780.255	0.0159733
780.333	0.0161346
780.411	0.0162266
780.489	0.0163123
780.567	0.0165299
780.646	0.0166309
780.724	0.0167466
780.802	0.0167859
780.880	0.0169298
780.958	0.0170596
781.036	0.0171054
781.114	0.0171772
781.192	0.0171772
781.271	0.0172060
781.349	0.0171232
781.427	0.0171951
781.505	0.0170832
781.583	0.0169639
781.661	0.0169602
781.739	0.0168433
781.817	0.0167607
781.896	0.0167572
781.974	0.0166963
782.052	0.0166116
782.130	0.0165525
782.208	0.0165979
782.286	0.0164068
782.364	0.0163286
782.442	0.0163785
782.521	0.0162097
782.599	0.0161819
782.677	0.0162514
782.755	0.0161589
782.833	0.0160427
782.911	0.0159975
782.989	0.0160509
783.067	0.0159904
783.146	0.0158074
783.224	0.0158494
783.302	0.0159207
783.380	0.0158866
783.458	0.0158759
783.536	0.0159212
783.614	0.0159475
783.692	0.0159177
783.771	0.0158714
783.849	0.0158624
783.927	0.0159774
784.005	0.0161897
784.083	0.0162286
784.161	0.0162031
784.239	0.0162792
784.317	0.0162751
784.396	0.0162864
784.474	0.0163046
784.552	0.0163836
784.630	0.0164369
784.708	0.0163933
784.786	0.0165260
784.864	0.0163477
784.942	0.0162895
785.021	0.0164941
785.099	0.0163174
785.177	0.0163605
785.255	0.0163768
785.333	0.0163583
785.411	0.0163146
785.489	0.0163222
785.567	0.0165433
785.646	0.0163117
785.724	0.0161822
785.802	0.0162792
785.880	0.0162792
785.958	0.0162441
786.036	0.0162907
786.114	0.0162099
786.192	0.0161776
786.271	0.0162857
786.349	0.0163712
786.427	0.0163721
786.505	0.0163327
786.583	0.0164334
786.661	0.0165086
786.739	0.0166487
786.817	0.0167586
786.896	0.0165832
786.974	0.0166515
787.052	0.0167274
787.130	0.0167123
787.208	0.0169494
787.286	0.0167405
787.364	0.0167442
787.442	0.0168288
787.521	0.0168836
787.599	0.0169075
787.677	0.0167703
787.755	0.0167480
787.833	0.0167034
787.911	0.0166532
787.989	0.0166259
788.067	0.0165054
788.146	0.0165472
788.224	0.0166451
788.302	0.0163908
788.380	0.0164073
788.458	0.0164053
788.536	0.0162721
788.614	0.0162831
788.692	0.0162709
788.771	0.0162987
788.849	0.0160822
788.927	0.0160039
789.005	0.0161072
789.083	0.0161143
789.161	0.0161417
789.239	0.0162123
789.317	0.0163326
789.396	0.0164015
789.474	0.0163533
789.552	0.0164402
789.630	0.0164856
789.708	0.0165159
789.786	0.0165681
789.864	0.0167398
789.942	0.0167535
790.021	0.0166425
790.099	0.0167561
790.177	0.0164823
790.255	0.0165144
790.333	0.0165711
790.411	0.0166196
790.489	0.0164291
790.567	0.0164021
790.646	0.0164069
790.724	0.0164419
790.802	0.0160818
790.880	0.0161576
790.958	0.0160435
791.036	0.0159163
791.114	0.0159924
791.192	0.0159670
791.271	0.0158950
791.349	0.0158105
791.427	0.0158102
791.505	0.0157748
791.583	0.0157185
791.661	0.0157327
791.739	0.0157658
791.817	0.0159158
791.896	0.0159684
791.974	0.0159737
792.052	0.0160288
792.130	0.0161196
792.208	0.0161578
792.286	0.0164185
792.364	0.0162692
792.442	0.0164806
792.521	0.0165319
792.599	0.0164417
792.677	0.0167017
792.755	0.0167384
792.833	0.0167498
792.911	0.0168971
792.989	0.0169579
793.067	0.0169883
793.146	0.0168871
793.224	0.0168621
793.302	0.0169768
793.380	0.0170164
793.458	0.0168475
793.536	0.0168495
793.614	0.0167096
793.692	0.0165489
793.771	0.0165743
793.849	0.0165959
793.927	0.0163735
794.005	0.0162838
794.083	0.0163002
794.161	0.0161145
794.239	0.0160864
794.317	0.0159830
794.396	0.0159502
794.474	0.0159073
794.552	0.0160456
794.630	0.0160535
794.708	0.0158900
794.786	0.0158049
794.864	0.0158698
794.942	0.0160753
795.021	0.0160645
795.099	0.0161810
795.177	0.0161514
795.255	0.0163348
795.333	0.0166478
795.411	0.0165076
795.489	0.0164510
795.567	0.0165454
795.646	0.0167341
795.724	0.0167850
795.802	0.0167407
795.880	0.0168571
795.958	0.0168613
796.036	0.0168401
796.114	0.0166986
796.192	0.0166917
796.271	0.0166555
796.349	0.0167245
796.427	0.0167461
796.505	0.0167426
796.583	0.0166017
796.661	0.0166130
796.739	0.0165778
796.817	0.0165590
796.896	0.0165046
796.974	0.0163982
797.052	0.0162075
797.130	0.0162214
797.208	0.0161039
797.286	0.0160761
797.364	0.0160188
797.442	0.0158758
797.521	0.0158912
797.599	0.0159209
797.677	0.0158398
797.755	0.0158348
797.833	0.0157998
797.911	0.0159305
797.989	0.0159404
798.067	0.0160297
798.146	0.0160297
798.224	0.0160960
798.302	0.0161125
798.380	0.0162380
798.458	0.0163709
798.536	0.0165223
798.614	0.0166174
798.692	0.0166897
798.771	0.0167638
798.849	0.0167265
798.927	0.0168551
799.005	0.0169129
799.083	0.0167947
799.161	0.0168768
799.239	0.0167979
799.317	0.0168655
799.396	0.0166241
799.474	0.0166955
799.552	0.0166389
799.630	0.0165002
799.708	0.0163319
799.786	0.0164707
799.864	0.0163250
799.942	0.0160614
800.021	0.0160981
800.099	0.0160240
800.177	0.0161754
800.255	0.0159734
800.333	0.0159232
800.411	0.0156976
800.489	0.0158469
800.567	0.0158441
800.646	0.0159038
800.724	0.0158186
800.802	0.0159064
800.880	0.0158176
800.958	0.0160044
801.036	0.0158868
801.114	0.0159377
801.192	0.0159502
801.271	0.0160405
801.349	0.0161268
801.427	0.0160735
801.505	0.0161952
801.583	0.0162715
801.661	0.0163822
801.739	0.0163841
801.817	0.0164275
801.896	0.0166953
801.974	0.0168357
802.052	0.0169511
802.130	0.0169198
802.208	0.0170171
802.286	0.0169572
802.364	0.0170531
802.442	0.0170344
802.521	0.0169643
802.599	0.0169171
802.677	0.0168848
802.755	0.0169575
802.833	0.0168239
802.911	0.0166151
802.989	0.0165372
803.067	0.0164001
803.146	0.0163998
803.224	0.0162915
803.302	0.0162646
803.380	0.0163171
803.458	0.0161105
803.536	0.0160370
803.614	0.0161516
803.692	0.0161160
803.771	0.0160545
803.849	0.0159993
803.927	0.0161232
804.005	0.0162249
804.083	0.0161829
804.161	0.0161810
804.239	0.0163083
804.317	0.0163945
804.396	0.0162912
804.474	0.0165130
804.552	0.0165574
804.630	0.0164677
804.708	0.0166084
804.786	0.0166058
804.864	0.0166821
804.942	0.0167625
805.021	0.0166571
805.099	0.0166708
805.177	0.0166821
805.255	0.0167777
805.333	0.0166029
805.411	0.0167069
805.489	0.0166206
805.567	0.0165354
805.646	0.0166724
805.724	0.0163268
805.802	0.0164521
805.880	0.0164050
805.958	0.0163254
806.036	0.0162450
806.114	0.0162935
806.192	0.0161129
806.271	0.0160395
806.349	0.0159689
806.427	0.0159964
806.505	0.0158556
806.583	0.0158502
806.661	0.0159039
806.739	0.0158331
806.817	0.0158920
806.896	0.0160188
806.974	0.0160094
807.052	0.0161369
807.130	0.0162043
807.208	0.0162479
807.286	0.0162692
807.364	0.0163279
807.442	0.0164372
807.521	0.0163256
807.599	0.0166333
807.677	0.0167936
807.755	0.0167014
807.833	0.0167474
807.911	0.0168386
807.989	0.0166882
808.067	0.0168160
808.146	0.0168340
808.224	0.0168767
808.302	0.0167557
808.380	0.0167361
808.458	0.0166649
808.536	0.0167413
808.614	0.0167061
808.692	0.0164438
808.771	0.0165863
808.849	0.0164056
808.927	0.0164124
809.005	0.0163586
809.083	0.0162093
809.161	0.0161301
809.239	0.0161457
809.317	0.0161623
809.396	0.0162452
809.474	0.0161420
809.552	0.0161469
809.630	0.0162431
809.708	0.0162842
809.786	0.0162356
809.864	0.0162299
809.942	0.0162630
810.021	0.0162473
810.099	0.0164484
810.177	0.0164265
810.255	0.0166084
810.333	0.0166966
810.411	0.0166680
810.489	0.0166293
810.567	0.0167271
810.646	0.0166774
810.724	0.0167376
810.802	0.0166880
810.880	0.0166879
810.958	0.0166060
811.036	0.0166643
811.114	0.0166096
811.192	0.0164384
811.271	0.0163893
811.349	0.0162234
811.427	0.0162820
811.505	0.0160941
811.583	0.0160712
811.661	0.0159664
811.739	0.0160047
811.817	0.0160374
811.896	0.0160108
811.974	0.0159261
812.052	0.0158407
812.130	0.0158404
812.208	0.0157832
812.286	0.0158583
812.364	0.0160116
812.442	0.0159952
812.521	0.0161160
812.599	0.0160369
812.677	0.0161747
812.755	0.0162338
812.833	0.0163445
812.911	0.0164241
812.989	0.0165636
813.067	0.0165508
813.146	0.0165397
813.224	0.0166058
813.302	0.0166877
813.380	0.0167393
813.458	0.0166895
813.536	0.0166636
813.614	0.0167470
813.692	0.0166622
813.771	0.0166904
813.849	0.0167207
813.927	0.0165599
814.005	0.0165854
814.083	0.0163091
814.161	0.0163058
814.239	0.0162502
814.317	0.0161616
814.396	0.0162791
814.474	0.0161715
814.552	0.0160458
814.630	0.0159909
814.708	0.0160201
814.786	0.0160922
814.864	0.0159441
814.942	0.0160243
815.021	0.0160947
815.099	0.0161076
815.177	0.0161005
815.255	0.0162547
815.333	0.0163741
815.411	0.0164635
815.489	0.0163548
815.567	0.0163619
815.646	0.0166309
815.724	0.0167320
815.802	0.0167999
815.880	0.0167519
815.958	0.0167669
816.036	0.0169714
816.114	0.0170446
816.192	0.0170668
816.271	0.0169153
816.349	0.0170069
816.427	0.0168780
816.505	0.0169410
816.583	0.0167728
816.661	0.0167075
816.739	0.0168384
816.817	0.0165031
816.896	0.0165176
816.974	0.0164487
817.052	0.0164140
817.130	0.0162943
817.208	0.0162363
817.286	0.0161723
817.364	0.0159638
817.442	0.0158684
817.521	0.0158533
817.599	0.0158758
817.677	0.0157898
817.755	0.0158228
817.833	0.0157265
817.911	0.0157381
817.989	0.0157457
818.067	0.0156747
818.146	0.0157337
818.224	0.0156562
818.302	0.0156341
818.380	0.0156161
818.458	0.0157288
818.536	0.0157490
818.614	0.0158672
818.692	0.0158880
818.771	0.0159670
818.849	0.0161002
818.927	0.0160799
819.005	0.0162572
819.083	0.0164530
819.161	0.0165047
819.239	0.0164938
819.317	0.0166437
819.396	0.0167870
819.474	0.0168048
819.552	0.0169892
819.630	0.0168945
819.708	0.0170783
819.786	0.0170436
819.864	0.0170468
819.942	0.0169656
820.021	0.0170978
820.099	0.0169639
820.177	0.0171732
820.255	0.0169317
820.333	0.0169360
820.411	0.0167084
820.489	0.0166611
820.567	0.0167519
820.646	0.0167560
820.724	0.0166255
820.802	0.0166660
820.880	0.0166550
820.958	0.0166208
821.036	0.0166106
821.114	0.0165546
821.192	0.0166175
821.271	0.0164912
821.349	0.0165417
821.427	0.0166329
821.505	0.0164032
821.583	0.0164722
821.661	0.0165102
821.739	0.0164718
821.817	0.0163781
821.896	0.0163737
821.974	0.0162366
822.052	0.0163146
822.130	0.0163434
822.208	0.0163190
822.286	0.0162732
822.364	0.0162601
822.442	0.0163197
822.521	0.0162398
822.599	0.0161395
822.677	0.0160410
822.755	0.0161549
822.833	0.0160706
822.911	0.0161685
822.989	0.0160338
823.067	0.0160050
823.146	0.0159207
823.224	0.0160246
823.302	0.0159479
823.380	0.0159557
823.458	0.0159925
823.536	0.0162026
823.614	0.0160699
823.692	0.0160811
823.771	0.0160434
823.849	0.0161697
823.927	0.0161588
824.005	0.0162887
824.083	0.0161704
824.161	0.0163151
824.239	0.0162362
824.317	0.0162862
824.396	0.0163092
824.474	0.0162279
824.552	0.0161483
824.630	0.0160884
824.708	0.0161710
824.786	0.0162159
824.864	0.0161174
824.942	0.0161364
825.021	0.0161201
825.099	0.0161755
825.177	0.0162571
825.255	0.0161745
825.333	0.0162275
825.411	0.0161483
825.489	0.0162919
825.567	0.0161844
825.646	0.0163210
825.724	0.0162944
825.802	0.0162320
825.880	0.0164133
825.958	0.0163431
826.036	0.0163909
826.114	0.0165778
826.192	0.0166238
826.271	0.0166082
826.349	0.0166420
826.427	0.0167429
826.505	0.0167606
826.583	0.0167655
826.661	0.0168661
826.739	0.0169443
826.817	0.0168926
826.896	0.0168817
826.974	0.0171089
827.052	0.0171921
827.130	0.0172389
827.208	0.0170723
827.286	0.0171027
827.364	0.0169967
827.442	0.0171218
827.521	0.0168354
827.599	0.0168877
827.677	0.0169318
827.755	0.0167324
827.833	0.0167883
827.911	0.0168129
827.989	0.0165825
828.067	0.0167339
828.146	0.0165526
828.224	0.0166196
828.302	0.0165922
828.380	0.0165187
828.458	0.0164446
828.536	0.0165642
828.614	0.0164339
828.692	0.0164466
828.771	0.0163287
828.849	0.0163564
828.927	0.0162074
829.005	0.0162435
829.083	0.0162614
829.161	0.0162001
829.239	0.0161828
829.317	0.0160744
829.396	0.0161147
829.474	0.0159971
829.552	0.0158732
829.630	0.0160777
829.708	0.0160146
829.786	0.0159805
829.864	0.0158858
829.942	0.0159447
830.021	0.0159055
830.099	0.0159312
830.177	0.0157493
830.255	0.0157217
830.333	0.0158696
830.411	0.0157914
830.489	0.0157739
830.567	0.0157489
830.646	0.0156195
830.724	0.0156245
830.802	0.0157208
830.880	0.0157705
830.958	0.0156548
831.036	0.0157363
831.114	0.0156830
831.192	0.0157140
831.271	0.0159002
831.349	0.0158727
831.427	0.0158640
831.505	0.0159174
831.583	0.0159834
831.661	0.0160781
831.739	0.0162716
831.817	0.0162718
831.896	0.0164473
831.974	0.0165827
832.052	0.0167846
832.130	0.0169678
832.208	0.0170222
832.286	0.0170798
832.364	0.0172646
832.442	0.0173775
832.521	0.0174521
832.599	0.0175632
832.677	0.0175957
832.755	0.0175478
832.833	0.0175908
832.911	0.0176269
832.989	0.0176833
833.067	0.0174128
833.146	0.0175063
833.224	0.0174866
833.302	0.0173317
833.380	0.0172489
833.458	0.0170811
833.536	0.0170161
833.614	0.0169677
833.692	0.0169231
833.771	0.0167106
833.849	0.0166936
833.927	0.0167843
834.005	0.0164005
834.083	0.0164928
834.161	0.0163066
834.239	0.0163158
834.317	0.0161912
834.396	0.0161778
834.474	0.0160503
834.552	0.0162261
834.630	0.0161319
834.708	0.0160664
834.786	0.0159229
834.864	0.0159132
834.942	0.0159528
835.021	0.0160262
835.099	0.0160234
835.177	0.0159288
835.255	0.0159561
835.333	0.0158923
835.411	0.0159128
835.489	0.0157809
835.567	0.0157782
835.646	0.0157415
835.724	0.0158372
835.802	0.0157438
835.880	0.0156640
835.958	0.0157174
836.036	0.0156338
836.114	0.0155777
836.192	0.0155325
836.271	0.0154543
836.349	0.0155596
836.427	0.0155006
836.505	0.0156133
836.583	0.0155650
836.661	0.0155952
836.739	0.0155722
836.817	0.0157689
836.896	0.0156947
836.974	0.0155910
837.052	0.0158028
837.130	0.0158177
837.208	0.0160538
837.286	0.0161044
837.364	0.0161385
837.442	0.0162199
837.521	0.0164055
837.599	0.0165453
837.677	0.0166546
837.755	0.0167926
837.833	0.0168906
837.911	0.0168957
837.989	0.0171292
838.067	0.0172300
838.146	0.0173127
838.224	0.0173979
838.302	0.0175252
838.380	0.0174504
838.458	0.0175810
838.536	0.0175243
838.614	0.0175095
838.692	0.0176582
838.771	0.0175580
838.849	0.0173994
838.927	0.0173484
839.005	0.0173579
839.083	0.0172775
839.161	0.0171108
839.239	0.0169743
839.317	0.0168848
839.396	0.0168510
839.474	0.0167224
839.552	0.0166270
839.630	0.0164771
839.708	0.0163285
839.786	0.0163997
839.864	0.0163711
839.942	0.0163213
840.021	0.0163254
840.099	0.0161637
840.177	0.0161159
840.255	0.0160487
840.333	0.0162013
840.411	0.0160290
840.489	0.0161251
840.567	0.0161327
840.646	0.0160613
840.724	0.0159554
840.802	0.0159698
840.880	0.0159964
840.958	0.0160596
841.036	0.0159252
841.114	0.0160602
841.192	0.0160775
841.271	0.0159386
841.349	0.0160872
841.427	0.0160798
841.505	0.0160380
841.583	0.0158704
841.661	0.0160215
841.739	0.0160379
841.817	0.0159968
841.896	0.0159465
841.974	0.0158928
842.052	0.0159299
842.130	0.0158168
842.208	0.0158424
842.286	0.0158893
842.364	0.0158974
842.442	0.0158503
842.521	0.0160043
842.599	0.0159301
842.677	0.0158954
842.755	0.0160046
842.833	0.0159187
842.911	0.0160567
842.989	0.0162336
843.067	0.0162209
843.146	0.0161884
843.224	0.0163670
843.302	0.0166357
843.380	0.0166700
843.458	0.0164654
843.536	0.0166648
843.614	0.0168484
843.692	0.0167061
843.771	0.0168193
843.849	0.0169341
843.927	0.0169455
844.005	0.0168671
844.083	0.0170753
844.161	0.0169442
844.239	0.0169772
844.317	0.0170866
844.396	0.0170495
844.474	0.0170090
844.552	0.0169380
844.630	0.0170633
844.708	0.0170328
844.786	0.0169019
844.864	0.0168827
844.942	0.0169067
845.021	0.0168230
845.099	0.0168363
845.177	0.0168013
845.255	0.0166055
845.333	0.0165682
845.411	0.0164675
845.489	0.0164658
845.567	0.0165980
845.646	0.0164700
845.724	0.0162913
845.802	0.0163438
845.880	0.0162845
845.958	0.0163428
846.036	0.0162168
846.114	0.0162408
846.192	0.0162283
846.271	0.0160658
846.349	0.0161990
846.427	0.0161544
846.505	0.0161945
846.583	0.0160812
846.661	0.0160344
846.739	0.0161734
846.817	0.0163596
846.896	0.0162243
846.974	0.0161061
847.052	0.0163023
847.130	0.0163472
847.208	0.0161863
847.286	0.0161177
847.364	0.0159448
847.442	0.0161327
847.521	0.0159496
847.599	0.0158582
847.677	0.0159670
847.755	0.0159415
847.833	0.0160221
847.911	0.0159093
847.989	0.0159648
848.067	0.0159673
848.146	0.0160071
848.224	0.0160180
848.302	0.0158277
848.380	0.0161594
848.458	0.0161453
848.536	0.0162203
848.614	0.0161829
848.692	0.0161941
848.771	0.0162680
848.849	0.0164061
848.927	0.0165194
849.005	0.0165134
849.083	0.0166586
849.161	0.0167307
849.239	0.0168039
849.317	0.0167290
849.396	0.0168905
849.474	0.0167279
849.552	0.0167950
849.630	0.0169936
849.708	0.0169129
849.786	0.0168625
849.864	0.0170211
849.942	0.0168842
850.021	0.0167898
850.099	0.0169851
850.177	0.0168555
850.255	0.0168133
850.333	0.0168197
850.411	0.0167120
850.489	0.0166323
850.567	0.0166689
850.646	0.0165648
850.724	0.0166132
850.802	0.0164027
850.880	0.0164519
850.958	0.0164639
851.036	0.0162647
851.114	0.0163359
851.192	0.0163368
851.271	0.0163412
851.349	0.0162625
851.427	0.0163033
851.505	0.0163629
851.583	0.0161279
851.661	0.0161740
851.739	0.0161556
851.817	0.0163297
851.896	0.0162599
851.974	0.0163509
852.052	0.0163828
852.130	0.0161772
852.208	0.0163994
852.286	0.0163365
852.364	0.0163084
852.442	0.0164005
852.521	0.0164023
852.599	0.0164159
852.677	0.0163136
852.755	0.0162614
852.833	0.0162072
852.911	0.0163658
852.989	0.0162310
853.067	0.0162586
853.146	0.0161546
853.224	0.0162332
853.302	0.0160929
853.380	0.0160732
853.458	0.0159740
853.536	0.0159879
853.614	0.0161471
853.692	0.0161039
853.771	0.0161628
853.849	0.0160994
853.927	0.0161873
854.005	0.0161065
854.083	0.0162258
854.161	0.0161431
854.239	0.0161295
854.317	0.0162574
854.396	0.0161801
854.474	0.0163124
854.552	0.0161738
854.630	0.0162917
854.708	0.0163545
854.786	0.0162964
854.864	0.0163133
854.942	0.0164459
855.021	0.0165070
855.099	0.0164171
855.177	0.0165319
855.255	0.0165713
855.333	0.0166256
855.411	0.0165521
855.489	0.0166241
855.567	0.0166967
855.646	0.0167439
855.724	0.0167129
855.802	0.0168238
855.880	0.0168384
855.958	0.0166502
856.036	0.0166785
856.114	0.0166727
856.192	0.0165539
856.271	0.0166207
856.349	0.0164639
856.427	0.0165780
856.505	0.0164390
856.583	0.0164154
856.661	0.0164536
856.739	0.0163425
856.817	0.0164434
856.896	0.0162555
856.974	0.0164394
857.052	0.0164429
857.130	0.0164442
857.208	0.0163249
857.286	0.0164141
857.364	0.0161507
857.442	0.0161736
857.521	0.0162282
857.599	0.0162501
857.677	0.0162873
857.755	0.0163803
857.833	0.0164510
857.911	0.0164024
857.989	0.0164262
858.067	0.0164404
858.146	0.0164385
858.224	0.0163693
858.302	0.0164365
858.380	0.0165884
858.458	0.0164772
858.536	0.0164302
858.614	0.0164606
858.692	0.0164415
858.771	0.0162419
858.849	0.0161825
858.927	0.0163705
859.005	0.0162429
859.083	0.0162211
859.161	0.0160369
859.239	0.0162294
859.317	0.0162054
859.396	0.0160652
859.474	0.0161348
859.552	0.0160688
859.630	0.0160069
859.708	0.0160622
859.786	0.0161433
859.864	0.0161537
859.942	0.0161723
860.021	0.0162079
860.099	0.0162092
860.177	0.0161646
860.255	0.0163496
860.333	0.0164715
860.411	0.0162648
860.489	0.0163991
860.567	0.0164986
860.646	0.0165147
860.724	0.0164924
860.802	0.0165047
860.880	0.0165228
860.958	0.0164539
861.036	0.0165295
861.114	0.0165375
861.192	0.0166552
861.271	0.0166072
861.349	0.0165044
861.427	0.0165248
861.505	0.0167123
861.583	0.0165853
861.661	0.0165273
861.739	0.0165805
861.817	0.0163706
861.896	0.0163148
861.974	0.0164376
862.052	0.0164426
862.130	0.0163539
862.208	0.0163638
862.286	0.0163154
862.364	0.0164999
862.442	0.0164072
862.521	0.0163809
862.599	0.0165296
862.677	0.0162623
862.755	0.0163920
862.833	0.0166320
862.911	0.0165874
862.989	0.0165959
863.067	0.0167347
863.146	0.0167390
863.224	0.0166755
863.302	0.0167690
863.380	0.0168023
863.458	0.0166519
863.536	0.0167207
863.614	0.0167443
863.692	0.0167202
863.771	0.0167078
863.849	0.0167511
863.927	0.0165992
864.005	0.0164467
864.083	0.0164161
864.161	0.0164404
864.239	0.0162650
864.317	0.0160880
864.396	0.0162890
864.474	0.0163225
864.552	0.0161486
864.630	0.0162019
864.708	0.0162685
864.786	0.0162222
864.864	0.0161701
864.942	0.0160878
865.021	0.0160596
865.099	0.0160069
865.177	0.0159970
865.255	0.0162724
865.333	0.0161907
865.411	0.0160820
865.489	0.0160751
865.567	0.0161859
865.646	0.0162421
865.724	0.0161478
865.802	0.0162048
865.880	0.0162046
865.958	0.0162505
866.036	0.0160665
866.114	0.0161510
866.192	0.0160960
866.271	0.0161359
866.349	0.0160899
866.427	0.0162523
866.505	0.0163251
866.583	0.0162045
866.661	0.0163047
866.739	0.0164043
866.817	0.0163084
866.896	0.0163406
866.974	0.0164613
867.052	0.0164213
867.130	0.0163835
867.208	0.0164014
867.286	0.0164054
867.364	0.0165089
867.442	0.0166298
867.521	0.0165584
867.599	0.0165223
867.677	0.0164755
867.755	0.0163545
867.833	0.0165118
867.911	0.0165027
867.989	0.0164611
868.067	0.0163013
868.146	0.0163950
868.224	0.0165980
868.302	0.0164922
868.380	0.0165594
868.458	0.0165614
868.536	0.0164783
868.614	0.0165823
868.692	0.0165300
868.771	0.0166908
868.849	0.0166215
868.927	0.0166664
869.005	0.0166982
869.083	0.0166010
869.161	0.0166499
869.239	0.0165559
869.317	0.0167678
869.396	0.0168187
869.474	0.0168230
869.552	0.0166005
869.630	0.0166750
869.708	0.0167542
869.786	0.0167599
869.864	0.0164859
869.942	0.0165072
