06/03/2022	15:46:11	Ver.	4.1	UNKNOWN
Optical Delay	550.020508	Delta X		0.078125	Sweeps	1	Scan Rate	0/0
Coordinates	Axis 1	NaN	Axis 2	NaN	Axis 3	NaN	Axis 4	NaN	Axis 5	NaN	Axis 6	0.000000
TX Power	0.000000	RX Power	0.000000

550.021	0.0160172
550.099	0.0160292
550.177	0.0159815
550.255	0.0162068
550.333	0.0160432
550.411	0.0158858
550.489	0.0160423
550.567	0.0159480
550.646	0.0160609
550.724	0.0160369
550.802	0.0159703
550.880	0.0160312
550.958	0.0160848
551.036	0.0159102
551.114	0.0159149
551.192	0.0160840
551.271	0.0160625
551.349	0.0160043
551.427	0.0159319
551.505	0.0160327
551.583	0.0159570
551.661	0.0159834
551.739	0.0159109
551.817	0.0160107
551.896	0.0160871
551.974	0.0160632
552.052	0.0159355
552.130	0.0159661
552.208	0.0160973
552.286	0.0158582
552.364	0.0160408
552.442	0.0159862
552.521	0.0160379
552.599	0.0160316
552.677	0.0160406
552.755	0.0159447
552.833	0.0159028
552.911	0.0160121
552.989	0.0159848
553.067	0.0160188
553.146	0.0161527
553.224	0.0160616
553.302	0.0159541
553.380	0.0160247
553.458	0.0160684
553.536	0.0160009
553.614	0.0159960
553.692	0.0159934
553.771	0.0159125
553.849	0.0159628
553.927	0.0160794
554.005	0.0160320
554.083	0.0159843
554.161	0.0160137
554.239	0.0159177
554.317	0.0160067
554.396	0.0158689
554.474	0.0161224
554.552	0.0160657
554.630	0.0160719
554.708	0.0161234
554.786	0.0162110
554.864	0.0161170
554.942	0.0159478
555.021	0.0160014
555.099	0.0160395
555.177	0.0160632
555.255	0.0158468
555.333	0.0160750
555.411	0.0159773
555.489	0.0159874
555.567	0.0160125
555.646	0.0160010
555.724	0.0160123
555.802	0.0159685
555.880	0.0160782
555.958	0.0159848
556.036	0.0159537
556.114	0.0160678
556.192	0.0161241
556.271	0.0158256
556.349	0.0159520
556.427	0.0160564
556.505	0.0160426
556.583	0.0160128
556.661	0.0158987
556.739	0.0160031
556.817	0.0159167
556.896	0.0161480
556.974	0.0159374
557.052	0.0160246
557.130	0.0159863
557.208	0.0160074
557.286	0.0161231
557.364	0.0160430
557.442	0.0160284
557.521	0.0159563
557.599	0.0160834
557.677	0.0159990
557.755	0.0160701
557.833	0.0160408
557.911	0.0160578
557.989	0.0159993
558.067	0.0159013
558.146	0.0159102
558.224	0.0158957
558.302	0.0159483
558.380	0.0160534
558.458	0.0159783
558.536	0.0161803
558.614	0.0160109
558.692	0.0159073
558.771	0.0160460
558.849	0.0160313
558.927	0.0161047
559.005	0.0160984
559.083	0.0160306
559.161	0.0160061
559.239	0.0160912
559.317	0.0159566
559.396	0.0159486
559.474	0.0160166
559.552	0.0159754
559.630	0.0160501
559.708	0.0160759
559.786	0.0159646
559.864	0.0159595
559.942	0.0160739
560.021	0.0160806
560.099	0.0159035
560.177	0.0158791
560.255	0.0160435
560.333	0.0160828
560.411	0.0159652
560.489	0.0160733
560.567	0.0160037
560.646	0.0160950
560.724	0.0159351
560.802	0.0160395
560.880	0.0160801
560.958	0.0161366
561.036	0.0160914
561.114	0.0160336
561.192	0.0161771
561.271	0.0160813
561.349	0.0160477
561.427	0.0160579
561.505	0.0158747
561.583	0.0158585
561.661	0.0159709
561.739	0.0160442
561.817	0.0160112
561.896	0.0160644
561.974	0.0158913
562.052	0.0160307
562.130	0.0160857
562.208	0.0158906
562.286	0.0161021
562.364	0.0160433
562.442	0.0159353
562.521	0.0161383
562.599	0.0160809
562.677	0.0160001
562.755	0.0159150
562.833	0.0159757
562.911	0.0159523
562.989	0.0160847
563.067	0.0160238
563.146	0.0159235
563.224	0.0158702
563.302	0.0159662
563.380	0.0159536
563.458	0.0159798
563.536	0.0160337
563.614	0.0159752
563.692	0.0159603
563.771	0.0159576
563.849	0.0159668
563.927	0.0159984
564.005	0.0159222
564.083	0.0159267
564.161	0.0161024
564.239	0.0159480
564.317	0.0159847
564.396	0.0161567
564.474	0.0160339
564.552	0.0160081
564.630	0.0159783
564.708	0.0160117
564.786	0.0160094
564.864	0.0159771
564.942	0.0160385
565.021	0.0160772
565.099	0.0160149
565.177	0.0160544
565.255	0.0160727
565.333	0.0160461
565.411	0.0159682
565.489	0.0160055
565.567	0.0159744
565.646	0.0159464
565.724	0.0160762
565.802	0.0159273
565.880	0.0159655
565.958	0.0161527
566.036	0.0160993
566.114	0.0160495
566.192	0.0160432
566.271	0.0160085
566.349	0.0159125
566.427	0.0160491
566.505	0.0161343
566.583	0.0159724
566.661	0.0159591
566.739	0.0161039
566.817	0.0160693
566.896	0.0159814
566.974	0.0159976
567.052	0.0160880
567.130	0.0160413
567.208	0.0159863
567.286	0.0160899
567.364	0.0159951
567.442	0.0159482
567.521	0.0160397
567.599	0.0161621
567.677	0.0160394
567.755	0.0159529
567.833	0.0159566
567.911	0.0160600
567.989	0.0160308
568.067	0.0159827
568.146	0.0160263
568.224	0.0159935
568.302	0.0158594
568.380	0.0160249
568.458	0.0160284
568.536	0.0160101
568.614	0.0160456
568.692	0.0159941
568.771	0.0159421
568.849	0.0160761
568.927	0.0159988
569.005	0.0158041
569.083	0.0159206
569.161	0.0160287
569.239	0.0159583
569.317	0.0160860
569.396	0.0159891
569.474	0.0159260
569.552	0.0159946
569.630	0.0159896
569.708	0.0160164
569.786	0.0160397
569.864	0.0159653
569.942	0.0158662
570.021	0.0157994
570.099	0.0159734
570.177	0.0159749
570.255	0.0160143
570.333	0.0161124
570.411	0.0159952
570.489	0.0159215
570.567	0.0159755
570.646	0.0160052
570.724	0.0159738
570.802	0.0161028
570.880	0.0159705
570.958	0.0160905
571.036	0.0161394
571.114	0.0159132
571.192	0.0158665
571.271	0.0160121
571.349	0.0160181
571.427	0.0160046
571.505	0.0159846
571.583	0.0159228
571.661	0.0160587
571.739	0.0158897
571.817	0.0159641
571.896	0.0159863
571.974	0.0159816
572.052	0.0160619
572.130	0.0161646
572.208	0.0161387
572.286	0.0160378
572.364	0.0160178
572.442	0.0158714
572.521	0.0159312
572.599	0.0161010
572.677	0.0160118
572.755	0.0161752
572.833	0.0160430
572.911	0.0159520
572.989	0.0160394
573.067	0.0159721
573.146	0.0159283
573.224	0.0160581
573.302	0.0159492
573.380	0.0161626
573.458	0.0160539
573.536	0.0160429
573.614	0.0158746
573.692	0.0159863
573.771	0.0159290
573.849	0.0159438
573.927	0.0159829
574.005	0.0159655
574.083	0.0159985
574.161	0.0159911
574.239	0.0160756
574.317	0.0159444
574.396	0.0159045
574.474	0.0160374
574.552	0.0159833
574.630	0.0159407
574.708	0.0160510
574.786	0.0160383
574.864	0.0159415
574.942	0.0159358
575.021	0.0160603
575.099	0.0160108
575.177	0.0160271
575.255	0.0160493
575.333	0.0160836
575.411	0.0160183
575.489	0.0159102
575.567	0.0160098
575.646	0.0160010
575.724	0.0159769
575.802	0.0160022
575.880	0.0159724
575.958	0.0159933
576.036	0.0160236
576.114	0.0160253
576.192	0.0160160
576.271	0.0160159
576.349	0.0159549
576.427	0.0160173
576.505	0.0160418
576.583	0.0159448
576.661	0.0159376
576.739	0.0159441
576.817	0.0159801
576.896	0.0159319
576.974	0.0159346
577.052	0.0159501
577.130	0.0159765
577.208	0.0159952
577.286	0.0160686
577.364	0.0160152
577.442	0.0159315
577.521	0.0159506
577.599	0.0159250
577.677	0.0160405
577.755	0.0158827
577.833	0.0159667
577.911	0.0160094
577.989	0.0160726
578.067	0.0159261
578.146	0.0160330
578.224	0.0159719
578.302	0.0159521
578.380	0.0159898
578.458	0.0160079
578.536	0.0159853
578.614	0.0159576
578.692	0.0160723
578.771	0.0159541
578.849	0.0160116
578.927	0.0159805
579.005	0.0161413
579.083	0.0160290
579.161	0.0159591
579.239	0.0160613
579.317	0.0160415
579.396	0.0159943
579.474	0.0160051
579.552	0.0159890
579.630	0.0160853
579.708	0.0160211
579.786	0.0160917
579.864	0.0159277
579.942	0.0159809
580.021	0.0161395
580.099	0.0160531
580.177	0.0160033
580.255	0.0160185
580.333	0.0159767
580.411	0.0160525
580.489	0.0158447
580.567	0.0158559
580.646	0.0160664
580.724	0.0159779
580.802	0.0160178
580.880	0.0160775
580.958	0.0160150
581.036	0.0158694
581.114	0.0159657
581.192	0.0160070
581.271	0.0159004
581.349	0.0159218
581.427	0.0160439
581.505	0.0161021
581.583	0.0161478
581.661	0.0160933
581.739	0.0159769
581.817	0.0159554
581.896	0.0160993
581.974	0.0160516
582.052	0.0160014
582.130	0.0160337
582.208	0.0160091
582.286	0.0161143
582.364	0.0159218
582.442	0.0161432
582.521	0.0160774
582.599	0.0159460
582.677	0.0160286
582.755	0.0159647
582.833	0.0161510
582.911	0.0160509
582.989	0.0160054
583.067	0.0160834
583.146	0.0159338
583.224	0.0159180
583.302	0.0159387
583.380	0.0161101
583.458	0.0160741
583.536	0.0158952
583.614	0.0161262
583.692	0.0160844
583.771	0.0160822
583.849	0.0160117
583.927	0.0160590
584.005	0.0160748
584.083	0.0160267
584.161	0.0159144
584.239	0.0159987
584.317	0.0159834
584.396	0.0161279
584.474	0.0159846
584.552	0.0160318
584.630	0.0159792
584.708	0.0160603
584.786	0.0159576
584.864	0.0161200
584.942	0.0160717
585.021	0.0160048
585.099	0.0159831
585.177	0.0158810
585.255	0.0159783
585.333	0.0160743
585.411	0.0160080
585.489	0.0159052
585.567	0.0158633
585.646	0.0159773
585.724	0.0161393
585.802	0.0161115
585.880	0.0160232
585.958	0.0159445
586.036	0.0160442
586.114	0.0159374
586.192	0.0160590
586.271	0.0160305
586.349	0.0159212
586.427	0.0159650
586.505	0.0159595
586.583	0.0161278
586.661	0.0159915
586.739	0.0161224
586.817	0.0159319
586.896	0.0159954
586.974	0.0160017
587.052	0.0160435
587.130	0.0159901
587.208	0.0160308
587.286	0.0160806
587.364	0.0160609
587.442	0.0159521
587.521	0.0161134
587.599	0.0159653
587.677	0.0161098
587.755	0.0160513
587.833	0.0159833
587.911	0.0159478
587.989	0.0160479
588.067	0.0161054
588.146	0.0160237
588.224	0.0158699
588.302	0.0159950
588.380	0.0160002
588.458	0.0160635
588.536	0.0160139
588.614	0.0160363
588.692	0.0159895
588.771	0.0159819
588.849	0.0159086
588.927	0.0159493
589.005	0.0160171
589.083	0.0160762
589.161	0.0160966
589.239	0.0160063
589.317	0.0162307
589.396	0.0161380
589.474	0.0160042
589.552	0.0159628
589.630	0.0161005
589.708	0.0161980
589.786	0.0159662
589.864	0.0160324
589.942	0.0160793
590.021	0.0162064
590.099	0.0159178
590.177	0.0160072
590.255	0.0160369
590.333	0.0160994
590.411	0.0161109
590.489	0.0159956
590.567	0.0159260
590.646	0.0159727
590.724	0.0160582
590.802	0.0161078
590.880	0.0160062
590.958	0.0160014
591.036	0.0159727
591.114	0.0160371
591.192	0.0158978
591.271	0.0158779
591.349	0.0160292
591.427	0.0158820
591.505	0.0160068
591.583	0.0161036
591.661	0.0160759
591.739	0.0158247
591.817	0.0160136
591.896	0.0160178
591.974	0.0161005
592.052	0.0160593
592.130	0.0161259
592.208	0.0160692
592.286	0.0160512
592.364	0.0160168
592.442	0.0159734
592.521	0.0161684
592.599	0.0161414
592.677	0.0159623
592.755	0.0159013
592.833	0.0160880
592.911	0.0160046
592.989	0.0158998
593.067	0.0160997
593.146	0.0161887
593.224	0.0161086
593.302	0.0160989
593.380	0.0159444
593.458	0.0159065
593.536	0.0159398
593.614	0.0161945
593.692	0.0159573
593.771	0.0160049
593.849	0.0159043
593.927	0.0160131
594.005	0.0160301
594.083	0.0159250
594.161	0.0159113
594.239	0.0160635
594.317	0.0159757
594.396	0.0159219
594.474	0.0159238
594.552	0.0160227
594.630	0.0160188
594.708	0.0161825
594.786	0.0159108
594.864	0.0160813
594.942	0.0158901
595.021	0.0160140
595.099	0.0160577
595.177	0.0160287
595.255	0.0159675
595.333	0.0159566
595.411	0.0160943
595.489	0.0160276
595.567	0.0159583
595.646	0.0160833
595.724	0.0159841
595.802	0.0161395
595.880	0.0160875
595.958	0.0159838
596.036	0.0159905
596.114	0.0161463
596.192	0.0159330
596.271	0.0159518
596.349	0.0160571
596.427	0.0161498
596.505	0.0159590
596.583	0.0159701
596.661	0.0161428
596.739	0.0160429
596.817	0.0160439
596.896	0.0160530
596.974	0.0160101
597.052	0.0160983
597.130	0.0159931
597.208	0.0160549
597.286	0.0159821
597.364	0.0160086
597.442	0.0159921
597.521	0.0159629
597.599	0.0160278
597.677	0.0159239
597.755	0.0159111
597.833	0.0159306
597.911	0.0160896
597.989	0.0160735
598.067	0.0159048
598.146	0.0159776
598.224	0.0159995
598.302	0.0160654
598.380	0.0159969
598.458	0.0159812
598.536	0.0159453
598.614	0.0160471
598.692	0.0160319
598.771	0.0161121
598.849	0.0161213
598.927	0.0160206
599.005	0.0158962
599.083	0.0161166
599.161	0.0160535
599.239	0.0160052
599.317	0.0159389
599.396	0.0160093
599.474	0.0159715
599.552	0.0160514
599.630	0.0159428
599.708	0.0158170
599.786	0.0159800
599.864	0.0160482
599.942	0.0161705
600.021	0.0159875
600.099	0.0158096
600.177	0.0160013
600.255	0.0159428
600.333	0.0159306
600.411	0.0160951
600.489	0.0159567
600.567	0.0159351
600.646	0.0160617
600.724	0.0159782
600.802	0.0159425
600.880	0.0158882
600.958	0.0159985
601.036	0.0161433
601.114	0.0159659
601.192	0.0160902
601.271	0.0160004
601.349	0.0159328
601.427	0.0159210
601.505	0.0159271
601.583	0.0159995
601.661	0.0160469
601.739	0.0161150
601.817	0.0159895
601.896	0.0160474
601.974	0.0160747
602.052	0.0160358
602.130	0.0161320
602.208	0.0161163
602.286	0.0160059
602.364	0.0160353
602.442	0.0158471
602.521	0.0159480
602.599	0.0161092
602.677	0.0159032
602.755	0.0158818
602.833	0.0160240
602.911	0.0160632
602.989	0.0160910
603.067	0.0158590
603.146	0.0159364
603.224	0.0160245
603.302	0.0161149
603.380	0.0159805
603.458	0.0160038
603.536	0.0160851
603.614	0.0160136
603.692	0.0158933
603.771	0.0159957
603.849	0.0161148
603.927	0.0159716
604.005	0.0160659
604.083	0.0159138
604.161	0.0160553
604.239	0.0160316
604.317	0.0158327
604.396	0.0160714
604.474	0.0160505
604.552	0.0159468
604.630	0.0160798
604.708	0.0159612
604.786	0.0159124
604.864	0.0160397
604.942	0.0160452
605.021	0.0160785
605.099	0.0160081
605.177	0.0158704
605.255	0.0159685
605.333	0.0161338
605.411	0.0160531
605.489	0.0159110
605.567	0.0159127
605.646	0.0160136
605.724	0.0160329
605.802	0.0158882
605.880	0.0159078
605.958	0.0159937
606.036	0.0159715
606.114	0.0159362
606.192	0.0159720
606.271	0.0161227
606.349	0.0159395
606.427	0.0159546
606.505	0.0160325
606.583	0.0160503
606.661	0.0160070
606.739	0.0160880
606.817	0.0159190
606.896	0.0158839
606.974	0.0160743
607.052	0.0161069
607.130	0.0160078
607.208	0.0159504
607.286	0.0160647
607.364	0.0160309
607.442	0.0161146
607.521	0.0160597
607.599	0.0160062
607.677	0.0160183
607.755	0.0161492
607.833	0.0159238
607.911	0.0159068
607.989	0.0159542
608.067	0.0159988
608.146	0.0159858
608.224	0.0159785
608.302	0.0161224
608.380	0.0159872
608.458	0.0159080
608.536	0.0159969
608.614	0.0160625
608.692	0.0159309
608.771	0.0159671
608.849	0.0159177
608.927	0.0159214
609.005	0.0160932
609.083	0.0160160
609.161	0.0160169
609.239	0.0160115
609.317	0.0160344
609.396	0.0159901
609.474	0.0159778
609.552	0.0160514
609.630	0.0160046
609.708	0.0161639
609.786	0.0160567
609.864	0.0160364
609.942	0.0159207
610.021	0.0160046
610.099	0.0160495
610.177	0.0160889
610.255	0.0159841
610.333	0.0158884
610.411	0.0160267
610.489	0.0161613
610.567	0.0161215
610.646	0.0160004
610.724	0.0160998
610.802	0.0160624
610.880	0.0160485
610.958	0.0160695
611.036	0.0160443
611.114	0.0160051
611.192	0.0160014
611.271	0.0161325
611.349	0.0160587
611.427	0.0160112
611.505	0.0160513
611.583	0.0161177
611.661	0.0160937
611.739	0.0160404
611.817	0.0160578
611.896	0.0160515
611.974	0.0159969
612.052	0.0161164
612.130	0.0160316
612.208	0.0160544
612.286	0.0161303
612.364	0.0158607
612.442	0.0160384
612.521	0.0161610
612.599	0.0160302
612.677	0.0159348
612.755	0.0161027
612.833	0.0160372
612.911	0.0159872
612.989	0.0161142
613.067	0.0160777
613.146	0.0159396
613.224	0.0160603
613.302	0.0161179
613.380	0.0160731
613.458	0.0159614
613.536	0.0161304
613.614	0.0159818
613.692	0.0160614
613.771	0.0160284
613.849	0.0158902
613.927	0.0160188
614.005	0.0159952
614.083	0.0160817
614.161	0.0161125
614.239	0.0160975
614.317	0.0158427
614.396	0.0158201
614.474	0.0159753
614.552	0.0160327
614.630	0.0160329
614.708	0.0160388
614.786	0.0160065
614.864	0.0159012
614.942	0.0158810
615.021	0.0160094
615.099	0.0160789
615.177	0.0159913
615.255	0.0160368
615.333	0.0160562
615.411	0.0159853
615.489	0.0159435
615.567	0.0160043
615.646	0.0159813
615.724	0.0160213
615.802	0.0159458
615.880	0.0160718
615.958	0.0160112
616.036	0.0160468
616.114	0.0159794
616.192	0.0159545
616.271	0.0159515
616.349	0.0159717
616.427	0.0160416
616.505	0.0159665
616.583	0.0160277
616.661	0.0160725
616.739	0.0159859
616.817	0.0161121
616.896	0.0159978
616.974	0.0160828
617.052	0.0160902
617.130	0.0160735
617.208	0.0159933
617.286	0.0160445
617.364	0.0161062
617.442	0.0160049
617.521	0.0160249
617.599	0.0161531
617.677	0.0161086
617.755	0.0159827
617.833	0.0160445
617.911	0.0160407
617.989	0.0159338
618.067	0.0160166
618.146	0.0161089
618.224	0.0160615
618.302	0.0161239
618.380	0.0160889
618.458	0.0160027
618.536	0.0160883
618.614	0.0160415
618.692	0.0160154
618.771	0.0160447
618.849	0.0159354
618.927	0.0160086
619.005	0.0160119
619.083	0.0160358
619.161	0.0160087
619.239	0.0160534
619.317	0.0159918
619.396	0.0160335
619.474	0.0161340
619.552	0.0159923
619.630	0.0160937
619.708	0.0161417
619.786	0.0160456
619.864	0.0160272
619.942	0.0161485
620.021	0.0160712
620.099	0.0160510
620.177	0.0159705
620.255	0.0159250
620.333	0.0161140
620.411	0.0160534
620.489	0.0159421
620.567	0.0161355
620.646	0.0160738
620.724	0.0159660
620.802	0.0160216
620.880	0.0159833
620.958	0.0160567
621.036	0.0159641
621.114	0.0160591
621.192	0.0160644
621.271	0.0160416
621.349	0.0159660
621.427	0.0160887
621.505	0.0159519
621.583	0.0160654
621.661	0.0161271
621.739	0.0160024
621.817	0.0160500
621.896	0.0160255
621.974	0.0159982
622.052	0.0160603
622.130	0.0160854
622.208	0.0159744
622.286	0.0160270
622.364	0.0161034
622.442	0.0161449
622.521	0.0160935
622.599	0.0160887
622.677	0.0159321
622.755	0.0159590
622.833	0.0159524
622.911	0.0160164
622.989	0.0159482
623.067	0.0161493
623.146	0.0160735
623.224	0.0160338
623.302	0.0159883
623.380	0.0160793
623.458	0.0160265
623.536	0.0161884
623.614	0.0160180
623.692	0.0160806
623.771	0.0160674
623.849	0.0161278
623.927	0.0160633
624.005	0.0159558
624.083	0.0160994
624.161	0.0161506
624.239	0.0159830
624.317	0.0159998
624.396	0.0160725
624.474	0.0160124
624.552	0.0161001
624.630	0.0160057
624.708	0.0160073
624.786	0.0160835
624.864	0.0161254
624.942	0.0161212
625.021	0.0161015
625.099	0.0159547
625.177	0.0159792
625.255	0.0160121
625.333	0.0160590
625.411	0.0161197
625.489	0.0160039
625.567	0.0159752
625.646	0.0158795
625.724	0.0159322
625.802	0.0160896
625.880	0.0160506
625.958	0.0160011
626.036	0.0160379
626.114	0.0160641
626.192	0.0160765
626.271	0.0160340
626.349	0.0159456
626.427	0.0160052
626.505	0.0159017
626.583	0.0160301
626.661	0.0159515
626.739	0.0159671
626.817	0.0159689
626.896	0.0159516
626.974	0.0158767
627.052	0.0159236
627.130	0.0158692
627.208	0.0158692
627.286	0.0159347
627.364	0.0160573
627.442	0.0159502
627.521	0.0160468
627.599	0.0160139
627.677	0.0158765
627.755	0.0159272
627.833	0.0159612
627.911	0.0159988
627.989	0.0159233
628.067	0.0158797
628.146	0.0159453
628.224	0.0159013
628.302	0.0159427
628.380	0.0160430
628.458	0.0158674
628.536	0.0158710
628.614	0.0159751
628.692	0.0159195
628.771	0.0158411
628.849	0.0158636
628.927	0.0159268
629.005	0.0159190
629.083	0.0160003
629.161	0.0159422
629.239	0.0160400
629.317	0.0161040
629.396	0.0160141
629.474	0.0159351
629.552	0.0159843
629.630	0.0159460
629.708	0.0159751
629.786	0.0160513
629.864	0.0159560
629.942	0.0159113
630.021	0.0159685
630.099	0.0160484
630.177	0.0160777
630.255	0.0158786
630.333	0.0158594
630.411	0.0159603
630.489	0.0161149
630.567	0.0160754
630.646	0.0157430
630.724	0.0159698
630.802	0.0160639
630.880	0.0161269
630.958	0.0160224
631.036	0.0158299
631.114	0.0159327
631.192	0.0159065
631.271	0.0158858
631.349	0.0159773
631.427	0.0160077
631.505	0.0159447
631.583	0.0158843
631.661	0.0159182
631.739	0.0160486
631.817	0.0160384
631.896	0.0159641
631.974	0.0160182
632.052	0.0158863
632.130	0.0159859
632.208	0.0160334
632.286	0.0158601
632.364	0.0158456
632.442	0.0159135
632.521	0.0159392
632.599	0.0159394
632.677	0.0158206
632.755	0.0160813
632.833	0.0159093
632.911	0.0159270
632.989	0.0159699
633.067	0.0159335
633.146	0.0159206
633.224	0.0159400
633.302	0.0159579
633.380	0.0160464
633.458	0.0160366
633.536	0.0158996
633.614	0.0158873
633.692	0.0159749
633.771	0.0159134
633.849	0.0157999
633.927	0.0161535
634.005	0.0159837
634.083	0.0157505
634.161	0.0160843
634.239	0.0160094
634.317	0.0159682
634.396	0.0159998
634.474	0.0159070
634.552	0.0158829
634.630	0.0159686
634.708	0.0160512
634.786	0.0160148
634.864	0.0158995
634.942	0.0159359
635.021	0.0160677
635.099	0.0159611
635.177	0.0159969
635.255	0.0159734
635.333	0.0158828
635.411	0.0159987
635.489	0.0161194
635.567	0.0158623
635.646	0.0159166
635.724	0.0158726
635.802	0.0160373
635.880	0.0159342
635.958	0.0158757
636.036	0.0159829
636.114	0.0160307
636.192	0.0158993
636.271	0.0159249
636.349	0.0160561
636.427	0.0160495
636.505	0.0161065
636.583	0.0159069
636.661	0.0160348
636.739	0.0160784
636.817	0.0161224
636.896	0.0159735
636.974	0.0160708
637.052	0.0161054
637.130	0.0160321
637.208	0.0161961
637.286	0.0161108
637.364	0.0159769
637.442	0.0159615
637.521	0.0161541
637.599	0.0160266
637.677	0.0160752
637.755	0.0160568
637.833	0.0161459
637.911	0.0161115
637.989	0.0160939
638.067	0.0160523
638.146	0.0159113
638.224	0.0161497
638.302	0.0160836
638.380	0.0161115
638.458	0.0161217
638.536	0.0160866
638.614	0.0160160
638.692	0.0162128
638.771	0.0159983
638.849	0.0160240
638.927	0.0159689
639.005	0.0160692
639.083	0.0159721
639.161	0.0160297
639.239	0.0160252
639.317	0.0160042
639.396	0.0159745
639.474	0.0160909
639.552	0.0160318
639.630	0.0161014
639.708	0.0160482
639.786	0.0161111
639.864	0.0161671
639.942	0.0160256
640.021	0.0160856
640.099	0.0160843
640.177	0.0160695
640.255	0.0160123
640.333	0.0161918
640.411	0.0159995
640.489	0.0161005
640.567	0.0161415
640.646	0.0160914
640.724	0.0159695
640.802	0.0160705
640.880	0.0161498
640.958	0.0160113
641.036	0.0159367
641.114	0.0161194
641.192	0.0159848
641.271	0.0161996
641.349	0.0159973
641.427	0.0160453
641.505	0.0160862
641.583	0.0161414
641.661	0.0160215
641.739	0.0160369
641.817	0.0159209
641.896	0.0161104
641.974	0.0159955
642.052	0.0160606
642.130	0.0161729
642.208	0.0159442
642.286	0.0159027
642.364	0.0160107
642.442	0.0160687
642.521	0.0160983
642.599	0.0161098
642.677	0.0159631
642.755	0.0160425
642.833	0.0161034
642.911	0.0160004
642.989	0.0160183
643.067	0.0160532
643.146	0.0160921
643.224	0.0161579
643.302	0.0159817
643.380	0.0160084
643.458	0.0160013
643.536	0.0160890
643.614	0.0160948
643.692	0.0162059
643.771	0.0159526
643.849	0.0160232
643.927	0.0160703
644.005	0.0160894
644.083	0.0160724
644.161	0.0161206
644.239	0.0160905
644.317	0.0158839
644.396	0.0159914
644.474	0.0161069
644.552	0.0161296
644.630	0.0159766
644.708	0.0161549
644.786	0.0159568
644.864	0.0158905
644.942	0.0161678
645.021	0.0161633
645.099	0.0159892
645.177	0.0160232
645.255	0.0160266
645.333	0.0159837
645.411	0.0160761
645.489	0.0160011
645.567	0.0159766
645.646	0.0160364
645.724	0.0161271
645.802	0.0160477
645.880	0.0162223
645.958	0.0160099
646.036	0.0159988
646.114	0.0160263
646.192	0.0160002
646.271	0.0159332
646.349	0.0160700
646.427	0.0160506
646.505	0.0160588
646.583	0.0159563
646.661	0.0160457
646.739	0.0158849
646.817	0.0161244
646.896	0.0160079
646.974	0.0160822
647.052	0.0158808
647.130	0.0159243
647.208	0.0160886
647.286	0.0160938
647.364	0.0159511
647.442	0.0160215
647.521	0.0161181
647.599	0.0159815
647.677	0.0159538
647.755	0.0161569
647.833	0.0160774
647.911	0.0159203
647.989	0.0158843
648.067	0.0158506
648.146	0.0158291
648.224	0.0159424
648.302	0.0160308
648.380	0.0159527
648.458	0.0160059
648.536	0.0159509
648.614	0.0159519
648.692	0.0158702
648.771	0.0158755
648.849	0.0159086
648.927	0.0160489
649.005	0.0160928
649.083	0.0159649
649.161	0.0159262
649.239	0.0158871
649.317	0.0159155
649.396	0.0159649
649.474	0.0160076
649.552	0.0160297
649.630	0.0160224
649.708	0.0159961
649.786	0.0159944
649.864	0.0159946
649.942	0.0159167
650.021	0.0159901
650.099	0.0160108
650.177	0.0159677
650.255	0.0160709
650.333	0.0160140
650.411	0.0161251
650.489	0.0158389
650.567	0.0158944
650.646	0.0160537
650.724	0.0159794
650.802	0.0160773
650.880	0.0159949
650.958	0.0159187
651.036	0.0160348
651.114	0.0159386
651.192	0.0160218
651.271	0.0159948
651.349	0.0159476
651.427	0.0159913
651.505	0.0159177
651.583	0.0159304
651.661	0.0159065
651.739	0.0159087
651.817	0.0159438
651.896	0.0159032
651.974	0.0160476
652.052	0.0159717
652.130	0.0160464
652.208	0.0159740
652.286	0.0158889
652.364	0.0159560
652.442	0.0160233
652.521	0.0159601
652.599	0.0159650
652.677	0.0159550
652.755	0.0160367
652.833	0.0159044
652.911	0.0158598
652.989	0.0161431
653.067	0.0160056
653.146	0.0158717
653.224	0.0159600
653.302	0.0161039
653.380	0.0159065
653.458	0.0159674
653.536	0.0158955
653.614	0.0159583
653.692	0.0159849
653.771	0.0159871
653.849	0.0159579
653.927	0.0158764
654.005	0.0159781
654.083	0.0159220
654.161	0.0159966
654.239	0.0159640
654.317	0.0159125
654.396	0.0159045
654.474	0.0158936
654.552	0.0159747
654.630	0.0159315
654.708	0.0160938
654.786	0.0158308
654.864	0.0159492
654.942	0.0159067
655.021	0.0158400
655.099	0.0158511
655.177	0.0158969
655.255	0.0159468
655.333	0.0159456
655.411	0.0159030
655.489	0.0159705
655.567	0.0158952
655.646	0.0159917
655.724	0.0159508
655.802	0.0159914
655.880	0.0158488
655.958	0.0160349
656.036	0.0157905
656.114	0.0160139
656.192	0.0160549
656.271	0.0159621
656.349	0.0159464
656.427	0.0159566
656.505	0.0159718
656.583	0.0159256
656.661	0.0158852
656.739	0.0159847
656.817	0.0159218
656.896	0.0160441
656.974	0.0158105
657.052	0.0159872
657.130	0.0160928
657.208	0.0159988
657.286	0.0159502
657.364	0.0159505
657.442	0.0159158
657.521	0.0160571
657.599	0.0158138
657.677	0.0159930
657.755	0.0161098
657.833	0.0158414
657.911	0.0159803
657.989	0.0162434
658.067	0.0160387
658.146	0.0158627
658.224	0.0158331
658.302	0.0159130
658.380	0.0161446
658.458	0.0160415
658.536	0.0159187
658.614	0.0159753
658.692	0.0159706
658.771	0.0159760
658.849	0.0161002
658.927	0.0159875
659.005	0.0158302
659.083	0.0160316
659.161	0.0160555
659.239	0.0158890
659.317	0.0159393
659.396	0.0159707
659.474	0.0159951
659.552	0.0159537
659.630	0.0160088
659.708	0.0159271
659.786	0.0160416
659.864	0.0160464
659.942	0.0160133
660.021	0.0160050
660.099	0.0158943
660.177	0.0159735
660.255	0.0160289
660.333	0.0160435
660.411	0.0159472
660.489	0.0159376
660.567	0.0160387
660.646	0.0159141
660.724	0.0159176
660.802	0.0160545
660.880	0.0160768
660.958	0.0161266
661.036	0.0159819
661.114	0.0160986
661.192	0.0159972
661.271	0.0159791
661.349	0.0159204
661.427	0.0160230
661.505	0.0160818
661.583	0.0162909
661.661	0.0159495
661.739	0.0160913
661.817	0.0161246
661.896	0.0160313
661.974	0.0159977
662.052	0.0160223
662.130	0.0160818
662.208	0.0161416
662.286	0.0160516
662.364	0.0159800
662.442	0.0159501
662.521	0.0160027
662.599	0.0160828
662.677	0.0161942
662.755	0.0159620
662.833	0.0160617
662.911	0.0158958
662.989	0.0159971
663.067	0.0161546
663.146	0.0161024
663.224	0.0160022
663.302	0.0161015
663.380	0.0162082
663.458	0.0161219
663.536	0.0160040
663.614	0.0160351
663.692	0.0160047
663.771	0.0162025
663.849	0.0160638
663.927	0.0160416
664.005	0.0160214
664.083	0.0160707
664.161	0.0160070
664.239	0.0159953
664.317	0.0159859
664.396	0.0158498
664.474	0.0160465
664.552	0.0160945
664.630	0.0160245
664.708	0.0160790
664.786	0.0160355
664.864	0.0159849
664.942	0.0159049
665.021	0.0159303
665.099	0.0160281
665.177	0.0160032
665.255	0.0159793
665.333	0.0159912
665.411	0.0159963
665.489	0.0159243
665.567	0.0160149
665.646	0.0159499
665.724	0.0159521
665.802	0.0161045
665.880	0.0160694
665.958	0.0160567
666.036	0.0160120
666.114	0.0161174
666.192	0.0160077
666.271	0.0159243
666.349	0.0160591
666.427	0.0159751
666.505	0.0159338
666.583	0.0160816
666.661	0.0160033
666.739	0.0161260
666.817	0.0160414
666.896	0.0160355
666.974	0.0160311
667.052	0.0159428
667.130	0.0160125
667.208	0.0159266
667.286	0.0160243
667.364	0.0160032
667.442	0.0160336
667.521	0.0160215
667.599	0.0158524
667.677	0.0160081
667.755	0.0160469
667.833	0.0160263
667.911	0.0159090
667.989	0.0161837
668.067	0.0160828
668.146	0.0158768
668.224	0.0160600
668.302	0.0159578
668.380	0.0160355
668.458	0.0159210
668.536	0.0160923
668.614	0.0159820
668.692	0.0159724
668.771	0.0161958
668.849	0.0160059
668.927	0.0159525
669.005	0.0159531
669.083	0.0159916
669.161	0.0160051
669.239	0.0159509
669.317	0.0159727
669.396	0.0160445
669.474	0.0160822
669.552	0.0159101
669.630	0.0159613
669.708	0.0159361
669.786	0.0159916
669.864	0.0161137
669.942	0.0159332
670.021	0.0159402
670.099	0.0160532
670.177	0.0160352
670.255	0.0160069
670.333	0.0159818
670.411	0.0159035
670.489	0.0159952
670.567	0.0159783
670.646	0.0160131
670.724	0.0160098
670.802	0.0158891
670.880	0.0159254
670.958	0.0158495
671.036	0.0160268
671.114	0.0160245
671.192	0.0159031
671.271	0.0161324
671.349	0.0158549
671.427	0.0159154
671.505	0.0161263
671.583	0.0159821
671.661	0.0159959
671.739	0.0160674
671.817	0.0159727
671.896	0.0160818
671.974	0.0161118
672.052	0.0160404
672.130	0.0160561
672.208	0.0160323
672.286	0.0160496
672.364	0.0159763
672.442	0.0160430
672.521	0.0160110
672.599	0.0157700
672.677	0.0158044
672.755	0.0158115
672.833	0.0157513
672.911	0.0159531
672.989	0.0159668
673.067	0.0158611
673.146	0.0159747
673.224	0.0161182
673.302	0.0161697
673.380	0.0162181
673.458	0.0163000
673.536	0.0163017
673.614	0.0161118
673.692	0.0160364
673.771	0.0160311
673.849	0.0161134
673.927	0.0159527
674.005	0.0156911
674.083	0.0155520
674.161	0.0156935
674.239	0.0158582
674.317	0.0155546
674.396	0.0156800
674.474	0.0158501
674.552	0.0159321
674.630	0.0161098
674.708	0.0162180
674.786	0.0163990
674.864	0.0165170
674.942	0.0165971
675.021	0.0166528
675.099	0.0164989
675.177	0.0161672
675.255	0.0162170
675.333	0.0159123
675.411	0.0157465
675.489	0.0154574
675.567	0.0153983
675.646	0.0154689
675.724	0.0154729
675.802	0.0153616
675.880	0.0155605
675.958	0.0157191
676.036	0.0158315
676.114	0.0161028
676.192	0.0164062
676.271	0.0164599
676.349	0.0164638
676.427	0.0166019
676.505	0.0165688
676.583	0.0165278
676.661	0.0163096
676.739	0.0161623
676.817	0.0157845
676.896	0.0156664
676.974	0.0155604
677.052	0.0154034
677.130	0.0154361
677.208	0.0154468
677.286	0.0154480
677.364	0.0154943
677.442	0.0157575
677.521	0.0158014
677.599	0.0160039
677.677	0.0158708
677.755	0.0162502
677.833	0.0161855
677.911	0.0162662
677.989	0.0163947
678.067	0.0163840
678.146	0.0164122
678.224	0.0163250
678.302	0.0163567
678.380	0.0161922
678.458	0.0160231
678.536	0.0159733
678.614	0.0157532
678.692	0.0157204
678.771	0.0155845
678.849	0.0155623
678.927	0.0154694
679.005	0.0156388
679.083	0.0157342
679.161	0.0159082
679.239	0.0159650
679.317	0.0159908
679.396	0.0161718
679.474	0.0162428
679.552	0.0163422
679.630	0.0162596
679.708	0.0162839
679.786	0.0161636
679.864	0.0161912
679.942	0.0159843
680.021	0.0160222
680.099	0.0157821
680.177	0.0156875
680.255	0.0158062
680.333	0.0158943
680.411	0.0157243
680.489	0.0157574
680.567	0.0158979
680.646	0.0158496
680.724	0.0160005
680.802	0.0159584
680.880	0.0159280
680.958	0.0158874
681.036	0.0159924
681.114	0.0158325
681.192	0.0158258
681.271	0.0158473
681.349	0.0158893
681.427	0.0159369
681.505	0.0158713
681.583	0.0160588
681.661	0.0161667
681.739	0.0162824
681.817	0.0162305
681.896	0.0162390
681.974	0.0161945
682.052	0.0162057
682.130	0.0160026
682.208	0.0159843
682.286	0.0157936
682.364	0.0157686
682.442	0.0157512
682.521	0.0155856
682.599	0.0156521
682.677	0.0156113
682.755	0.0156548
682.833	0.0157790
682.911	0.0158530
682.989	0.0160986
683.067	0.0160928
683.146	0.0161959
683.224	0.0162540
683.302	0.0162618
683.380	0.0164825
683.458	0.0162318
683.536	0.0161636
683.614	0.0160490
683.692	0.0160421
683.771	0.0159322
683.849	0.0157713
683.927	0.0156657
684.005	0.0157935
684.083	0.0157080
684.161	0.0158380
684.239	0.0158756
684.317	0.0157558
684.396	0.0160211
684.474	0.0160750
684.552	0.0160593
684.630	0.0161414
684.708	0.0163031
684.786	0.0161730
684.864	0.0162277
684.942	0.0162435
685.021	0.0161563
685.099	0.0160630
685.177	0.0159403
685.255	0.0158707
685.333	0.0158488
685.411	0.0157785
685.489	0.0159444
685.567	0.0158923
685.646	0.0159180
685.724	0.0158833
685.802	0.0160714
685.880	0.0160181
685.958	0.0161263
686.036	0.0161662
686.114	0.0160815
686.192	0.0161575
686.271	0.0161085
686.349	0.0160931
686.427	0.0160120
686.505	0.0158350
686.583	0.0159795
686.661	0.0159580
686.739	0.0159248
686.817	0.0159866
686.896	0.0159797
686.974	0.0160552
687.052	0.0160826
687.130	0.0160729
687.208	0.0161668
687.286	0.0161508
687.364	0.0161141
687.442	0.0161475
687.521	0.0161987
687.599	0.0160400
687.677	0.0160152
687.755	0.0160635
687.833	0.0160207
687.911	0.0159676
687.989	0.0159644
688.067	0.0157997
688.146	0.0159095
688.224	0.0159988
688.302	0.0160330
688.380	0.0160562
688.458	0.0162064
688.536	0.0161862
688.614	0.0162069
688.692	0.0161639
688.771	0.0163833
688.849	0.0161958
688.927	0.0162379
689.005	0.0163867
689.083	0.0161520
689.161	0.0161048
689.239	0.0159725
689.317	0.0160326
689.396	0.0156780
689.474	0.0159034
689.552	0.0158297
689.630	0.0158591
689.708	0.0157880
689.786	0.0159908
689.864	0.0158567
689.942	0.0158335
690.021	0.0161366
690.099	0.0162373
690.177	0.0161140
690.255	0.0161604
690.333	0.0161527
690.411	0.0161831
690.489	0.0160780
690.567	0.0160780
690.646	0.0162164
690.724	0.0159901
690.802	0.0159222
690.880	0.0160168
690.958	0.0159781
691.036	0.0159406
691.114	0.0159318
691.192	0.0159131
691.271	0.0160889
691.349	0.0159075
691.427	0.0160249
691.505	0.0162665
691.583	0.0161803
691.661	0.0162638
691.739	0.0162128
691.817	0.0162549
691.896	0.0160667
691.974	0.0160541
692.052	0.0160256
692.130	0.0159877
692.208	0.0159483
692.286	0.0159195
692.364	0.0158866
692.442	0.0159376
692.521	0.0158706
692.599	0.0158782
692.677	0.0160131
692.755	0.0159110
692.833	0.0158718
692.911	0.0160281
692.989	0.0160220
693.067	0.0161308
693.146	0.0160565
693.224	0.0159318
693.302	0.0160193
693.380	0.0159528
693.458	0.0159203
693.536	0.0158627
693.614	0.0158205
693.692	0.0157533
693.771	0.0158285
693.849	0.0159811
693.927	0.0158511
694.005	0.0159232
694.083	0.0159024
694.161	0.0159967
694.239	0.0160386
694.317	0.0159406
694.396	0.0159265
694.474	0.0159628
694.552	0.0161086
694.630	0.0159341
694.708	0.0160893
694.786	0.0161083
694.864	0.0161072
694.942	0.0161750
695.021	0.0162135
695.099	0.0161649
695.177	0.0161944
695.255	0.0160362
695.333	0.0160946
695.411	0.0160754
695.489	0.0160708
695.567	0.0159540
695.646	0.0162423
695.724	0.0160638
695.802	0.0161269
695.880	0.0159428
695.958	0.0161147
696.036	0.0160697
696.114	0.0158263
696.192	0.0159017
696.271	0.0159347
696.349	0.0161160
696.427	0.0160687
696.505	0.0158156
696.583	0.0159317
696.661	0.0160897
696.739	0.0159746
696.817	0.0159609
696.896	0.0159908
696.974	0.0160951
697.052	0.0159946
697.130	0.0160345
697.208	0.0159653
697.286	0.0160101
697.364	0.0159119
697.442	0.0158501
697.521	0.0158073
697.599	0.0156560
697.677	0.0156348
697.755	0.0156905
697.833	0.0154707
697.911	0.0153711
697.989	0.0154884
698.067	0.0153687
698.146	0.0155270
698.224	0.0153508
698.302	0.0154862
698.380	0.0155475
698.458	0.0156911
698.536	0.0158151
698.614	0.0158915
698.692	0.0159513
698.771	0.0159460
698.849	0.0160302
698.927	0.0160822
699.005	0.0160395
699.083	0.0160748
699.161	0.0161956
699.239	0.0161471
699.317	0.0162292
699.396	0.0162868
699.474	0.0162625
699.552	0.0163662
699.630	0.0162271
699.708	0.0163313
699.786	0.0162691
699.864	0.0162497
699.942	0.0163663
700.021	0.0162796
700.099	0.0163687
700.177	0.0164599
700.255	0.0163574
700.333	0.0163836
700.411	0.0162650
700.489	0.0163315
700.567	0.0162623
700.646	0.0163066
700.724	0.0163017
700.802	0.0162853
700.880	0.0161633
700.958	0.0161528
701.036	0.0160876
701.114	0.0159216
701.192	0.0160999
701.271	0.0157765
701.349	0.0157464
701.427	0.0157902
701.505	0.0156439
701.583	0.0155899
701.661	0.0156082
701.739	0.0156763
701.817	0.0155707
701.896	0.0157243
701.974	0.0156773
702.052	0.0155868
702.130	0.0157507
702.208	0.0157892
702.286	0.0159919
702.364	0.0158929
702.442	0.0159870
702.521	0.0160081
702.599	0.0159026
702.677	0.0160429
702.755	0.0159546
702.833	0.0160491
702.911	0.0159327
702.989	0.0160981
703.067	0.0160989
703.146	0.0159521
703.224	0.0160056
703.302	0.0160964
703.380	0.0161109
703.458	0.0160741
703.536	0.0160905
703.614	0.0161308
703.692	0.0160134
703.771	0.0157729
703.849	0.0156846
703.927	0.0156934
704.005	0.0155928
704.083	0.0155583
704.161	0.0155558
704.239	0.0153593
704.317	0.0152267
704.396	0.0151897
704.474	0.0155842
704.552	0.0156509
704.630	0.0154940
704.708	0.0157319
704.786	0.0158844
704.864	0.0161013
704.942	0.0162222
705.021	0.0161932
705.099	0.0163638
705.177	0.0165053
705.255	0.0165395
705.333	0.0166931
705.411	0.0166003
705.489	0.0165466
705.567	0.0164809
705.646	0.0164370
705.724	0.0163712
705.802	0.0164286
705.880	0.0163017
705.958	0.0162292
706.036	0.0161978
706.114	0.0161082
706.192	0.0161491
706.271	0.0161531
706.349	0.0161346
706.427	0.0162921
706.505	0.0162405
706.583	0.0163211
706.661	0.0163962
706.739	0.0164926
706.817	0.0165302
706.896	0.0167320
706.974	0.0168448
707.052	0.0169364
707.130	0.0168027
707.208	0.0166822
707.286	0.0167683
707.364	0.0165343
707.442	0.0163903
707.521	0.0161686
707.599	0.0160307
707.677	0.0157316
707.755	0.0154460
707.833	0.0150732
707.911	0.0148928
707.989	0.0147800
708.067	0.0145083
708.146	0.0143012
708.224	0.0143265
708.302	0.0142817
708.380	0.0142050
708.458	0.0142079
708.536	0.0143288
708.614	0.0146575
708.692	0.0147126
708.771	0.0148515
708.849	0.0149785
708.927	0.0153599
709.005	0.0155721
709.083	0.0157582
709.161	0.0160924
709.239	0.0164133
709.317	0.0166267
709.396	0.0167671
709.474	0.0169469
709.552	0.0170254
709.630	0.0172264
709.708	0.0172896
709.786	0.0171909
709.864	0.0171461
709.942	0.0172363
710.021	0.0170018
710.099	0.0168607
710.177	0.0167995
710.255	0.0166652
710.333	0.0166396
710.411	0.0163480
710.489	0.0161648
710.567	0.0160488
710.646	0.0160719
710.724	0.0158294
710.802	0.0157611
710.880	0.0154521
710.958	0.0152953
711.036	0.0152399
711.114	0.0151009
711.192	0.0150828
711.271	0.0149408
711.349	0.0148025
711.427	0.0147112
711.505	0.0149747
711.583	0.0151970
711.661	0.0153230
711.739	0.0157253
711.817	0.0159669
711.896	0.0164143
711.974	0.0166675
712.052	0.0169966
712.130	0.0172514
712.208	0.0175017
712.286	0.0176913
712.364	0.0180688
712.442	0.0181001
712.521	0.0180796
712.599	0.0180952
712.677	0.0180970
712.755	0.0180567
712.833	0.0179574
712.911	0.0178989
712.989	0.0175598
713.067	0.0173959
713.146	0.0173486
713.224	0.0170168
713.302	0.0166415
713.380	0.0163692
713.458	0.0161215
713.536	0.0158721
713.614	0.0156322
713.692	0.0152802
713.771	0.0150596
713.849	0.0147807
713.927	0.0145142
714.005	0.0142844
714.083	0.0141548
714.161	0.0138058
714.239	0.0136545
714.317	0.0136922
714.396	0.0135947
714.474	0.0135262
714.552	0.0134275
714.630	0.0137191
714.708	0.0136147
714.786	0.0138490
714.864	0.0138686
714.942	0.0142056
715.021	0.0142120
715.099	0.0141811
715.177	0.0145256
715.255	0.0146838
715.333	0.0147928
715.411	0.0151024
715.489	0.0153274
715.567	0.0155597
715.646	0.0158162
715.724	0.0161822
715.802	0.0164005
715.880	0.0167802
715.958	0.0171409
716.036	0.0175131
716.114	0.0180702
716.192	0.0182947
716.271	0.0187819
716.349	0.0190763
716.427	0.0193206
716.505	0.0194997
716.583	0.0194920
716.661	0.0193574
716.739	0.0192499
716.817	0.0190693
716.896	0.0187492
716.974	0.0181580
717.052	0.0176869
717.130	0.0172073
717.208	0.0165408
717.286	0.0159053
717.364	0.0152139
717.442	0.0147713
717.521	0.0141772
717.599	0.0136600
717.677	0.0132097
717.755	0.0130491
717.833	0.0130980
717.911	0.0129324
717.989	0.0130791
718.067	0.0134990
718.146	0.0137947
718.224	0.0142835
718.302	0.0148185
718.380	0.0155379
718.458	0.0158697
718.536	0.0167373
718.614	0.0172212
718.692	0.0177505
718.771	0.0181161
718.849	0.0186380
718.927	0.0190074
719.005	0.0190977
719.083	0.0192372
719.161	0.0192519
719.239	0.0190967
719.317	0.0188967
719.396	0.0186526
719.474	0.0185729
719.552	0.0182265
719.630	0.0178175
719.708	0.0177027
719.786	0.0174680
719.864	0.0172479
719.942	0.0169660
720.021	0.0165965
720.099	0.0164688
720.177	0.0159960
720.255	0.0156001
720.333	0.0152004
720.411	0.0146045
720.489	0.0139948
720.567	0.0134281
720.646	0.0129164
720.724	0.0122752
720.802	0.0117545
720.880	0.0113475
720.958	0.0108781
721.036	0.0106658
721.114	0.0104305
721.192	0.0104440
721.271	0.0104266
721.349	0.0106403
721.427	0.0108390
721.505	0.0111456
721.583	0.0116429
721.661	0.0121823
721.739	0.0126638
721.817	0.0133141
721.896	0.0138863
721.974	0.0145535
722.052	0.0154103
722.130	0.0161343
722.208	0.0166888
722.286	0.0174448
722.364	0.0183437
722.442	0.0191328
722.521	0.0196769
722.599	0.0203187
722.677	0.0209718
722.755	0.0215227
722.833	0.0218319
722.911	0.0219960
722.989	0.0223746
723.067	0.0221814
723.146	0.0219422
723.224	0.0217042
723.302	0.0212331
723.380	0.0206780
723.458	0.0199032
723.536	0.0192223
723.614	0.0183281
723.692	0.0175154
723.771	0.0167383
723.849	0.0160851
723.927	0.0154639
724.005	0.0150494
724.083	0.0144879
724.161	0.0140410
724.239	0.0137553
724.317	0.0137941
724.396	0.0134534
724.474	0.0135469
724.552	0.0136889
724.630	0.0139343
724.708	0.0142710
724.786	0.0144174
724.864	0.0147993
724.942	0.0151967
725.021	0.0156009
725.099	0.0159268
725.177	0.0162645
725.255	0.0163689
725.333	0.0165642
725.411	0.0166605
725.489	0.0165983
725.567	0.0165417
725.646	0.0163406
725.724	0.0162045
725.802	0.0161483
725.880	0.0160556
725.958	0.0160208
726.036	0.0160405
726.114	0.0159615
726.192	0.0159759
726.271	0.0161377
726.349	0.0162608
726.427	0.0163465
726.505	0.0163098
726.583	0.0162577
726.661	0.0161405
726.739	0.0159468
726.817	0.0159022
726.896	0.0155186
726.974	0.0150721
727.052	0.0148042
727.130	0.0143653
727.208	0.0138970
727.286	0.0136091
727.364	0.0133620
727.442	0.0129587
727.521	0.0126284
727.599	0.0125336
727.677	0.0124523
727.755	0.0126192
727.833	0.0124110
727.911	0.0124171
727.989	0.0126186
728.067	0.0128381
728.146	0.0130698
728.224	0.0134560
728.302	0.0139297
728.380	0.0145535
728.458	0.0149841
728.536	0.0155358
728.614	0.0162117
728.692	0.0167113
728.771	0.0173733
728.849	0.0180183
728.927	0.0187700
729.005	0.0191771
729.083	0.0195502
729.161	0.0198532
729.239	0.0202235
729.317	0.0202850
729.396	0.0202644
729.474	0.0200978
729.552	0.0198241
729.630	0.0193933
729.708	0.0190128
729.786	0.0183745
729.864	0.0179426
729.942	0.0172469
730.021	0.0167807
730.099	0.0163908
730.177	0.0156834
730.255	0.0153073
730.333	0.0148837
730.411	0.0147874
730.489	0.0146427
730.567	0.0146320
730.646	0.0147085
730.724	0.0150369
730.802	0.0152357
730.880	0.0157360
730.958	0.0160183
731.036	0.0166500
731.114	0.0173779
731.192	0.0179207
731.271	0.0185406
731.349	0.0190979
731.427	0.0195202
731.505	0.0198586
731.583	0.0199467
731.661	0.0200853
731.739	0.0199214
731.817	0.0196889
731.896	0.0191724
731.974	0.0187066
732.052	0.0182907
732.130	0.0177119
732.208	0.0170820
732.286	0.0165016
732.364	0.0160981
732.442	0.0154562
732.521	0.0148991
732.599	0.0146368
732.677	0.0143771
732.755	0.0140070
732.833	0.0136137
732.911	0.0132701
732.989	0.0130433
733.067	0.0127293
733.146	0.0124432
733.224	0.0121294
733.302	0.0117318
733.380	0.0115559
733.458	0.0111871
733.536	0.0109785
733.614	0.0106784
733.692	0.0105092
733.771	0.0105723
733.849	0.0104206
733.927	0.0105309
734.005	0.0106552
734.083	0.0108607
734.161	0.0113033
734.239	0.0114896
734.317	0.0120110
734.396	0.0126865
734.474	0.0133687
734.552	0.0140820
734.630	0.0148938
734.708	0.0156651
734.786	0.0166839
734.864	0.0173880
734.942	0.0181214
735.021	0.0187138
735.099	0.0191309
735.177	0.0194376
735.255	0.0195455
735.333	0.0195509
735.411	0.0194988
735.489	0.0190063
735.567	0.0186189
735.646	0.0182374
735.724	0.0179539
735.802	0.0178014
735.880	0.0174116
735.958	0.0171349
736.036	0.0173781
736.114	0.0174007
736.192	0.0176279
736.271	0.0179229
736.349	0.0182973
736.427	0.0188145
736.505	0.0190082
736.583	0.0194983
736.661	0.0200195
736.739	0.0204757
736.817	0.0205071
736.896	0.0206951
736.974	0.0210801
737.052	0.0211623
737.130	0.0210564
737.208	0.0211963
737.286	0.0213103
737.364	0.0212853
737.442	0.0208691
737.521	0.0208643
737.599	0.0206193
737.677	0.0201205
737.755	0.0197955
737.833	0.0192731
737.911	0.0185154
737.989	0.0178905
738.067	0.0168449
738.146	0.0160549
738.224	0.0150679
738.302	0.0141476
738.380	0.0132122
738.458	0.0125622
738.536	0.0117049
738.614	0.0110360
738.692	0.0105524
738.771	0.0100304
738.849	0.00977692
738.927	0.00953766
739.005	0.00952385
739.083	0.00957611
739.161	0.00956451
739.239	0.00982468
739.317	0.00981239
739.396	0.0100410
739.474	0.0103822
739.552	0.0107117
739.630	0.0109032
739.708	0.0111937
739.786	0.0114456
739.864	0.0119665
739.942	0.0122202
740.021	0.0127335
740.099	0.0130116
740.177	0.0133452
740.255	0.0138279
740.333	0.0141280
740.411	0.0145333
740.489	0.0148595
740.567	0.0152651
740.646	0.0156958
740.724	0.0160539
740.802	0.0163804
740.880	0.0165225
740.958	0.0168513
741.036	0.0170290
741.114	0.0172372
741.192	0.0173364
741.271	0.0173881
741.349	0.0175957
741.427	0.0176541
741.505	0.0177801
741.583	0.0179697
741.661	0.0183144
741.739	0.0186230
741.817	0.0190215
741.896	0.0193613
741.974	0.0196486
742.052	0.0199771
742.130	0.0203700
742.208	0.0207146
742.286	0.0209974
742.364	0.0212521
742.442	0.0212181
742.521	0.0212688
742.599	0.0212463
742.677	0.0212953
742.755	0.0210452
742.833	0.0207352
742.911	0.0205602
742.989	0.0201969
743.067	0.0199179
743.146	0.0198428
743.224	0.0194778
743.302	0.0191299
743.380	0.0189234
743.458	0.0182854
743.536	0.0180499
743.614	0.0175903
743.692	0.0169675
743.771	0.0163598
743.849	0.0158459
743.927	0.0151520
744.005	0.0145274
744.083	0.0140199
744.161	0.0135351
744.239	0.0131069
744.317	0.0127277
744.396	0.0122974
744.474	0.0120854
744.552	0.0118443
744.630	0.0116592
744.708	0.0114877
744.786	0.0114513
744.864	0.0113947
744.942	0.0115280
745.021	0.0115406
745.099	0.0115524
745.177	0.0116966
745.255	0.0118357
745.333	0.0119608
745.411	0.0121617
745.489	0.0123993
745.567	0.0127505
745.646	0.0131267
745.724	0.0132284
745.802	0.0136352
745.880	0.0141291
745.958	0.0143482
746.036	0.0145696
746.114	0.0147137
746.192	0.0151675
746.271	0.0153459
746.349	0.0154358
746.427	0.0157950
746.505	0.0159907
746.583	0.0160143
746.661	0.0162782
746.739	0.0164252
746.817	0.0162928
746.896	0.0165015
746.974	0.0166310
747.052	0.0168629
747.130	0.0166762
747.208	0.0169494
747.286	0.0170534
747.364	0.0172871
747.442	0.0176196
747.521	0.0177448
747.599	0.0178636
747.677	0.0183687
747.755	0.0184974
747.833	0.0187828
747.911	0.0190661
747.989	0.0191914
748.067	0.0196071
748.146	0.0196232
748.224	0.0195518
748.302	0.0193893
748.380	0.0193643
748.458	0.0191558
748.536	0.0191486
748.614	0.0187881
748.692	0.0186185
748.771	0.0183744
748.849	0.0183348
748.927	0.0179788
749.005	0.0179108
749.083	0.0176444
749.161	0.0176540
749.239	0.0173165
749.317	0.0170783
749.396	0.0167796
749.474	0.0164362
749.552	0.0162065
749.630	0.0158251
749.708	0.0154175
749.786	0.0151003
749.864	0.0149571
749.942	0.0146754
750.021	0.0143916
750.099	0.0141075
750.177	0.0139255
750.255	0.0137181
750.333	0.0135357
750.411	0.0132282
750.489	0.0131132
750.567	0.0130178
750.646	0.0129612
750.724	0.0128914
750.802	0.0128968
750.880	0.0128304
750.958	0.0127924
751.036	0.0131366
751.114	0.0133364
751.192	0.0134918
751.271	0.0139779
751.349	0.0142761
751.427	0.0146447
751.505	0.0150683
751.583	0.0154401
751.661	0.0157133
751.739	0.0162281
751.817	0.0162685
751.896	0.0163759
751.974	0.0166105
752.052	0.0166273
752.130	0.0166039
752.208	0.0166454
752.286	0.0167085
752.364	0.0166093
752.442	0.0166799
752.521	0.0166581
752.599	0.0166422
752.677	0.0166029
752.755	0.0167249
752.833	0.0167287
752.911	0.0167690
752.989	0.0168942
753.067	0.0169479
753.146	0.0170330
753.224	0.0171504
753.302	0.0173157
753.380	0.0172908
753.458	0.0172971
753.536	0.0172704
753.614	0.0173249
753.692	0.0172752
753.771	0.0172338
753.849	0.0172224
753.927	0.0170284
754.005	0.0169453
754.083	0.0168687
754.161	0.0167143
754.239	0.0167728
754.317	0.0167412
754.396	0.0166135
754.474	0.0166386
754.552	0.0166794
754.630	0.0166927
754.708	0.0168324
754.786	0.0169182
754.864	0.0168788
754.942	0.0168481
755.021	0.0169151
755.099	0.0166278
755.177	0.0166803
755.255	0.0165758
755.333	0.0162836
755.411	0.0160423
755.489	0.0158938
755.567	0.0157081
755.646	0.0154673
755.724	0.0151456
755.802	0.0149567
755.880	0.0147045
755.958	0.0145902
756.036	0.0143857
756.114	0.0141128
756.192	0.0139414
756.271	0.0138963
756.349	0.0136385
756.427	0.0134548
756.505	0.0134703
756.583	0.0135593
756.661	0.0135691
756.739	0.0136812
756.817	0.0138280
756.896	0.0140223
756.974	0.0142800
757.052	0.0146285
757.130	0.0149165
757.208	0.0150732
757.286	0.0155887
757.364	0.0158303
757.442	0.0160414
757.521	0.0162135
757.599	0.0166120
757.677	0.0167886
757.755	0.0169455
757.833	0.0170194
757.911	0.0172379
757.989	0.0173911
758.067	0.0174374
758.146	0.0174142
758.224	0.0173647
758.302	0.0174907
758.380	0.0175636
758.458	0.0175781
758.536	0.0174569
758.614	0.0175167
758.692	0.0174870
758.771	0.0173943
758.849	0.0172581
758.927	0.0173237
759.005	0.0169727
759.083	0.0169536
759.161	0.0167561
759.239	0.0166106
759.317	0.0165872
759.396	0.0162212
759.474	0.0161797
759.552	0.0162649
759.630	0.0160551
759.708	0.0162038
759.786	0.0160654
759.864	0.0162627
759.942	0.0162792
760.021	0.0162730
760.099	0.0163258
760.177	0.0165797
760.255	0.0167474
760.333	0.0168341
760.411	0.0167753
760.489	0.0168966
760.567	0.0169099
760.646	0.0169762
760.724	0.0169166
760.802	0.0167480
760.880	0.0168854
760.958	0.0168413
761.036	0.0166024
761.114	0.0165714
761.192	0.0163433
761.271	0.0161764
761.349	0.0160593
761.427	0.0157570
761.505	0.0154491
761.583	0.0151471
761.661	0.0148907
761.739	0.0147145
761.817	0.0144712
761.896	0.0141438
761.974	0.0140364
762.052	0.0138526
762.130	0.0137957
762.208	0.0136588
762.286	0.0136002
762.364	0.0136750
762.442	0.0137177
762.521	0.0135981
762.599	0.0138304
762.677	0.0138926
762.755	0.0142665
762.833	0.0143991
762.911	0.0146755
762.989	0.0149869
763.067	0.0151486
763.146	0.0155521
763.224	0.0158749
763.302	0.0161514
763.380	0.0164948
763.458	0.0164935
763.536	0.0168463
763.614	0.0170382
763.692	0.0172060
763.771	0.0172075
763.849	0.0174578
763.927	0.0175785
764.005	0.0175336
764.083	0.0176125
764.161	0.0176968
764.239	0.0175589
764.317	0.0175275
764.396	0.0174320
764.474	0.0172367
764.552	0.0172408
764.630	0.0169150
764.708	0.0167625
764.786	0.0166241
764.864	0.0164388
764.942	0.0162678
765.021	0.0158147
765.099	0.0158885
765.177	0.0156072
765.255	0.0154844
765.333	0.0154141
765.411	0.0155029
765.489	0.0156406
765.567	0.0157162
765.646	0.0158603
765.724	0.0161171
765.802	0.0162325
765.880	0.0163288
765.958	0.0165315
766.036	0.0168422
766.114	0.0169883
766.192	0.0170921
766.271	0.0172337
766.349	0.0173859
766.427	0.0175348
766.505	0.0175610
766.583	0.0173478
766.661	0.0173685
766.739	0.0174304
766.817	0.0172221
766.896	0.0170193
766.974	0.0167146
767.052	0.0166127
767.130	0.0164941
767.208	0.0161718
767.286	0.0158499
767.364	0.0155986
767.442	0.0153927
767.521	0.0151099
767.599	0.0149683
767.677	0.0146013
767.755	0.0144566
767.833	0.0144805
767.911	0.0141869
767.989	0.0141010
768.067	0.0141159
768.146	0.0141722
768.224	0.0143547
768.302	0.0144412
768.380	0.0145026
768.458	0.0147027
768.536	0.0149303
768.614	0.0151823
768.692	0.0153424
768.771	0.0155640
768.849	0.0156809
768.927	0.0159122
769.005	0.0161244
769.083	0.0162241
769.161	0.0163359
769.239	0.0163981
769.317	0.0165168
769.396	0.0165610
769.474	0.0165090
769.552	0.0166132
769.630	0.0165553
769.708	0.0164854
769.786	0.0164194
769.864	0.0163717
769.942	0.0164527
770.021	0.0163297
770.099	0.0161864
770.177	0.0159885
770.255	0.0160120
770.333	0.0158087
770.411	0.0156750
770.489	0.0156455
770.567	0.0154668
770.646	0.0153659
770.724	0.0153508
770.802	0.0152351
770.880	0.0150517
770.958	0.0150532
771.036	0.0150232
771.114	0.0152850
771.192	0.0153514
771.271	0.0155288
771.349	0.0155343
771.427	0.0156715
771.505	0.0160378
771.583	0.0163963
771.661	0.0166669
771.739	0.0168256
771.817	0.0171212
771.896	0.0171683
771.974	0.0173242
772.052	0.0175213
772.130	0.0177544
772.208	0.0177991
772.286	0.0178278
772.364	0.0178069
772.442	0.0176263
772.521	0.0176563
772.599	0.0173409
772.677	0.0174464
772.755	0.0171432
772.833	0.0168607
772.911	0.0166536
772.989	0.0162921
773.067	0.0161137
773.146	0.0160260
773.224	0.0157575
773.302	0.0155051
773.380	0.0152749
773.458	0.0151937
773.536	0.0150153
773.614	0.0149806
773.692	0.0149231
773.771	0.0148568
773.849	0.0148607
773.927	0.0149963
774.005	0.0149872
774.083	0.0149422
774.161	0.0150832
774.239	0.0149871
774.317	0.0152480
774.396	0.0154049
774.474	0.0154285
774.552	0.0157896
774.630	0.0159480
774.708	0.0160503
774.786	0.0159845
774.864	0.0163968
774.942	0.0165074
775.021	0.0165469
775.099	0.0166547
775.177	0.0166628
775.255	0.0166200
775.333	0.0165930
775.411	0.0165734
775.489	0.0163800
775.567	0.0164227
775.646	0.0163035
775.724	0.0161700
775.802	0.0160719
775.880	0.0157623
775.958	0.0154387
776.036	0.0154157
776.114	0.0154369
776.192	0.0153181
776.271	0.0152778
776.349	0.0152304
776.427	0.0151129
776.505	0.0151554
776.583	0.0150370
776.661	0.0150688
776.739	0.0151447
776.817	0.0153072
776.896	0.0152784
776.974	0.0153144
777.052	0.0155375
777.130	0.0156796
777.208	0.0156570
777.286	0.0159848
777.364	0.0161861
777.442	0.0163216
777.521	0.0164216
777.599	0.0164291
777.677	0.0166635
777.755	0.0167536
777.833	0.0167915
777.911	0.0167957
777.989	0.0169187
778.067	0.0168398
778.146	0.0167570
778.224	0.0167610
778.302	0.0167301
778.380	0.0166570
778.458	0.0165504
778.536	0.0163446
778.614	0.0163271
778.692	0.0162588
778.771	0.0163449
778.849	0.0160888
778.927	0.0159419
779.005	0.0159009
779.083	0.0159103
779.161	0.0157639
779.239	0.0155289
779.317	0.0156002
779.396	0.0156623
779.474	0.0154829
779.552	0.0155128
779.630	0.0155785
779.708	0.0155327
779.786	0.0154879
779.864	0.0155175
779.942	0.0155757
780.021	0.0156669
780.099	0.0156633
780.177	0.0156615
780.255	0.0156821
780.333	0.0158873
780.411	0.0160920
780.489	0.0160526
780.567	0.0163796
780.646	0.0163849
780.724	0.0164388
780.802	0.0166260
780.880	0.0167419
780.958	0.0168130
781.036	0.0168461
781.114	0.0170192
781.192	0.0169162
781.271	0.0169933
781.349	0.0169739
781.427	0.0170033
781.505	0.0169033
781.583	0.0168551
781.661	0.0167724
781.739	0.0165668
781.817	0.0164298
781.896	0.0164014
781.974	0.0161173
782.052	0.0160379
782.130	0.0160934
782.208	0.0159258
782.286	0.0156979
782.364	0.0154947
782.442	0.0154951
782.521	0.0155042
782.599	0.0155221
782.677	0.0152678
782.755	0.0154305
782.833	0.0152822
782.911	0.0153815
782.989	0.0152612
783.067	0.0152601
783.146	0.0155442
783.224	0.0153796
783.302	0.0155318
783.380	0.0154945
783.458	0.0155589
783.536	0.0157477
783.614	0.0157179
783.692	0.0158806
783.771	0.0159170
783.849	0.0160493
783.927	0.0159511
784.005	0.0161040
784.083	0.0160272
784.161	0.0161818
784.239	0.0163181
784.317	0.0161932
784.396	0.0163268
784.474	0.0162938
784.552	0.0162702
784.630	0.0161800
784.708	0.0162526
784.786	0.0161693
784.864	0.0161118
784.942	0.0162470
785.021	0.0159696
785.099	0.0159582
785.177	0.0160082
785.255	0.0159356
785.333	0.0158475
785.411	0.0156953
785.489	0.0158273
785.567	0.0157818
785.646	0.0159161
785.724	0.0156517
785.802	0.0158509
785.880	0.0156047
785.958	0.0157663
786.036	0.0156647
786.114	0.0157526
786.192	0.0157030
786.271	0.0160321
786.349	0.0159483
786.427	0.0159879
786.505	0.0161646
786.583	0.0161433
786.661	0.0162315
786.739	0.0163686
786.817	0.0163457
786.896	0.0166905
786.974	0.0166133
787.052	0.0167078
787.130	0.0166476
787.208	0.0164354
787.286	0.0165221
787.364	0.0164220
787.442	0.0163190
787.521	0.0164439
787.599	0.0163090
787.677	0.0162152
787.755	0.0163412
787.833	0.0161401
787.911	0.0161294
787.989	0.0160548
788.067	0.0161051
788.146	0.0161700
788.224	0.0160348
788.302	0.0160277
788.380	0.0160181
788.458	0.0159740
788.536	0.0159634
788.614	0.0159233
788.692	0.0161158
788.771	0.0160079
788.849	0.0158315
788.927	0.0159902
789.005	0.0159383
789.083	0.0158979
789.161	0.0159126
789.239	0.0159962
789.317	0.0159563
789.396	0.0161086
789.474	0.0160511
789.552	0.0162817
789.630	0.0162289
789.708	0.0161591
789.786	0.0162131
789.864	0.0162204
789.942	0.0163013
790.021	0.0162022
790.099	0.0162625
790.177	0.0162072
790.255	0.0160125
790.333	0.0160933
790.411	0.0159725
790.489	0.0158182
790.567	0.0158968
790.646	0.0157461
790.724	0.0156349
790.802	0.0155421
790.880	0.0154055
790.958	0.0152793
791.036	0.0152778
791.114	0.0152609
791.192	0.0153085
791.271	0.0152840
791.349	0.0152815
791.427	0.0154681
791.505	0.0154171
791.583	0.0154891
791.661	0.0156248
791.739	0.0155571
791.817	0.0156533
791.896	0.0157954
791.974	0.0159551
792.052	0.0158111
792.130	0.0159442
792.208	0.0161595
792.286	0.0160932
792.364	0.0161790
792.442	0.0163296
792.521	0.0163988
792.599	0.0163538
792.677	0.0163982
792.755	0.0163322
792.833	0.0163739
792.911	0.0163675
792.989	0.0165704
793.067	0.0164899
793.146	0.0165092
793.224	0.0164656
793.302	0.0165037
793.380	0.0164482
793.458	0.0163426
793.536	0.0163360
793.614	0.0160516
793.692	0.0161553
793.771	0.0160760
793.849	0.0160290
793.927	0.0158731
794.005	0.0159122
794.083	0.0156749
794.161	0.0157641
794.239	0.0157230
794.317	0.0154636
794.396	0.0155065
794.474	0.0156000
794.552	0.0155491
794.630	0.0156486
794.708	0.0155421
794.786	0.0155795
794.864	0.0155945
794.942	0.0157050
795.021	0.0157436
795.099	0.0157261
795.177	0.0158719
795.255	0.0159453
795.333	0.0160438
795.411	0.0162209
795.489	0.0162985
795.567	0.0163990
795.646	0.0165358
795.724	0.0165395
795.802	0.0165231
795.880	0.0165569
795.958	0.0166067
796.036	0.0166796
796.114	0.0165697
796.192	0.0165385
796.271	0.0163604
796.349	0.0164128
796.427	0.0163949
796.505	0.0162255
796.583	0.0161607
796.661	0.0162162
796.739	0.0160696
796.817	0.0159814
796.896	0.0159336
796.974	0.0157861
797.052	0.0157304
797.130	0.0156482
797.208	0.0156303
797.286	0.0155447
797.364	0.0155223
797.442	0.0157103
797.521	0.0155148
797.599	0.0155016
797.677	0.0155401
797.755	0.0155539
797.833	0.0156306
797.911	0.0155603
797.989	0.0156173
798.067	0.0158086
798.146	0.0158776
798.224	0.0157687
798.302	0.0158308
798.380	0.0159217
798.458	0.0158686
798.536	0.0158650
798.614	0.0162041
798.692	0.0161742
798.771	0.0161195
798.849	0.0161242
798.927	0.0162031
799.005	0.0164001
799.083	0.0164160
799.161	0.0164247
799.239	0.0164901
799.317	0.0164707
799.396	0.0164043
799.474	0.0163827
799.552	0.0164049
799.630	0.0163956
799.708	0.0161520
799.786	0.0160958
799.864	0.0159448
799.942	0.0159055
800.021	0.0158418
800.099	0.0158357
800.177	0.0156927
800.255	0.0156915
800.333	0.0156326
800.411	0.0156313
800.489	0.0156240
800.567	0.0155291
800.646	0.0155805
800.724	0.0156132
800.802	0.0156973
800.880	0.0157415
800.958	0.0158172
801.036	0.0158652
801.114	0.0157584
801.192	0.0158571
801.271	0.0159158
801.349	0.0159773
801.427	0.0161002
801.505	0.0162048
801.583	0.0161584
801.661	0.0163013
801.739	0.0161523
801.817	0.0162794
801.896	0.0164169
801.974	0.0163763
802.052	0.0163873
802.130	0.0164289
802.208	0.0164794
802.286	0.0165037
802.364	0.0166079
802.442	0.0165397
802.521	0.0164427
802.599	0.0165788
802.677	0.0164651
802.755	0.0164969
802.833	0.0163840
802.911	0.0162157
802.989	0.0161827
803.067	0.0160633
803.146	0.0160755
803.224	0.0158408
803.302	0.0159634
803.380	0.0157763
803.458	0.0156591
803.536	0.0157288
803.614	0.0158343
803.692	0.0155968
803.771	0.0156618
803.849	0.0158562
803.927	0.0158059
804.005	0.0158081
804.083	0.0158556
804.161	0.0157681
804.239	0.0158993
804.317	0.0160327
804.396	0.0160265
804.474	0.0161024
804.552	0.0160916
804.630	0.0160589
804.708	0.0162926
804.786	0.0162225
804.864	0.0163228
804.942	0.0163155
805.021	0.0162272
805.099	0.0163007
805.177	0.0161502
805.255	0.0162888
805.333	0.0162630
805.411	0.0159543
805.489	0.0161266
805.567	0.0160075
805.646	0.0160259
805.724	0.0160374
805.802	0.0159566
805.880	0.0160778
805.958	0.0159486
806.036	0.0158453
806.114	0.0158266
806.192	0.0157853
806.271	0.0159314
806.349	0.0158971
806.427	0.0157701
806.505	0.0156987
806.583	0.0156415
806.661	0.0155399
806.739	0.0156858
806.817	0.0154637
806.896	0.0156676
806.974	0.0156693
807.052	0.0156936
807.130	0.0157986
807.208	0.0156638
807.286	0.0159118
807.364	0.0160533
807.442	0.0160366
807.521	0.0159794
807.599	0.0161377
807.677	0.0163032
807.755	0.0161858
807.833	0.0163206
807.911	0.0163834
807.989	0.0163871
808.067	0.0164892
808.146	0.0164371
808.224	0.0163210
808.302	0.0163876
808.380	0.0164557
808.458	0.0165042
808.536	0.0163142
808.614	0.0164389
808.692	0.0162516
808.771	0.0161206
808.849	0.0160611
808.927	0.0161425
809.005	0.0160198
809.083	0.0159164
809.161	0.0158101
809.239	0.0157377
809.317	0.0157862
809.396	0.0156540
809.474	0.0156055
809.552	0.0156689
809.630	0.0156895
809.708	0.0157310
809.786	0.0157365
809.864	0.0156349
809.942	0.0158978
810.021	0.0158712
810.099	0.0157192
810.177	0.0159787
810.255	0.0158743
810.333	0.0159435
810.411	0.0160267
810.489	0.0161358
810.567	0.0159772
810.646	0.0161322
810.724	0.0161023
810.802	0.0161626
810.880	0.0160378
810.958	0.0160636
811.036	0.0160463
811.114	0.0159245
811.192	0.0159126
811.271	0.0159486
811.349	0.0158577
811.427	0.0158833
811.505	0.0157139
811.583	0.0157484
811.661	0.0157369
811.739	0.0155521
811.817	0.0157038
811.896	0.0156069
811.974	0.0156094
812.052	0.0156477
812.130	0.0156998
812.208	0.0156754
812.286	0.0157287
812.364	0.0158984
812.442	0.0156907
812.521	0.0160180
812.599	0.0159403
812.677	0.0159908
812.755	0.0161443
812.833	0.0161324
812.911	0.0162394
812.989	0.0162521
813.067	0.0163357
813.146	0.0163195
813.224	0.0165125
813.302	0.0163781
813.380	0.0162791
813.458	0.0163599
813.536	0.0163193
813.614	0.0163844
813.692	0.0162601
813.771	0.0162088
813.849	0.0161911
813.927	0.0161755
814.005	0.0162141
814.083	0.0161538
814.161	0.0160294
814.239	0.0160004
814.317	0.0159561
814.396	0.0157635
814.474	0.0157747
814.552	0.0158136
814.630	0.0156567
814.708	0.0156418
814.786	0.0156430
814.864	0.0156264
814.942	0.0157469
815.021	0.0156516
815.099	0.0155442
815.177	0.0155634
815.255	0.0158447
815.333	0.0159281
815.411	0.0158575
815.489	0.0159992
815.567	0.0161662
815.646	0.0161688
815.724	0.0161700
815.802	0.0163023
815.880	0.0162657
815.958	0.0164068
816.036	0.0164006
816.114	0.0165090
816.192	0.0165730
816.271	0.0165632
816.349	0.0165034
816.427	0.0164838
816.505	0.0163063
816.583	0.0163239
816.661	0.0164518
816.739	0.0162765
816.817	0.0162907
816.896	0.0161756
816.974	0.0159555
817.052	0.0159548
817.130	0.0159151
817.208	0.0157774
817.286	0.0156882
817.364	0.0157341
817.442	0.0157195
817.521	0.0154760
817.599	0.0154910
817.677	0.0154694
817.755	0.0154031
817.833	0.0153401
817.911	0.0152719
817.989	0.0152466
818.067	0.0153493
818.146	0.0152166
818.224	0.0154243
818.302	0.0153613
818.380	0.0153049
818.458	0.0155461
818.536	0.0154892
818.614	0.0156849
818.692	0.0156250
818.771	0.0158255
818.849	0.0160465
818.927	0.0160648
819.005	0.0161555
819.083	0.0161678
819.161	0.0164256
819.239	0.0165246
819.317	0.0165414
819.396	0.0166410
819.474	0.0166121
819.552	0.0165801
819.630	0.0165868
819.708	0.0168169
819.786	0.0167288
819.864	0.0166380
819.942	0.0166715
820.021	0.0167252
820.099	0.0165642
820.177	0.0165266
820.255	0.0166224
820.333	0.0164059
820.411	0.0163039
820.489	0.0164281
820.567	0.0162138
820.646	0.0162204
820.724	0.0161858
820.802	0.0161079
820.880	0.0162104
820.958	0.0159912
821.036	0.0161853
821.114	0.0162135
821.192	0.0160796
821.271	0.0159066
821.349	0.0159253
821.427	0.0161311
821.505	0.0159875
821.583	0.0159480
821.661	0.0161098
821.739	0.0159949
821.817	0.0159075
821.896	0.0159198
821.974	0.0159898
822.052	0.0160228
822.130	0.0160673
822.208	0.0158677
822.286	0.0159094
822.364	0.0158123
822.442	0.0158685
822.521	0.0158865
822.599	0.0158594
822.677	0.0157826
822.755	0.0158237
822.833	0.0157372
822.911	0.0157851
822.989	0.0156644
823.067	0.0156046
823.146	0.0157285
823.224	0.0156268
823.302	0.0155715
823.380	0.0157479
823.458	0.0157124
823.536	0.0155965
823.614	0.0156536
823.692	0.0155726
823.771	0.0156822
823.849	0.0157229
823.927	0.0157931
824.005	0.0156465
824.083	0.0156728
824.161	0.0157823
824.239	0.0157175
824.317	0.0158920
824.396	0.0159035
824.474	0.0158734
824.552	0.0160464
824.630	0.0159554
824.708	0.0161205
824.786	0.0158916
824.864	0.0161142
824.942	0.0162523
825.021	0.0161040
825.099	0.0161695
825.177	0.0161739
825.255	0.0161340
825.333	0.0162574
825.411	0.0162530
825.489	0.0161689
825.567	0.0160209
825.646	0.0159978
825.724	0.0162159
825.802	0.0161777
825.880	0.0162373
825.958	0.0161919
826.036	0.0161903
826.114	0.0160821
826.192	0.0160504
826.271	0.0163477
826.349	0.0161401
826.427	0.0162429
826.505	0.0162210
826.583	0.0163995
826.661	0.0164407
826.739	0.0163135
826.817	0.0163658
826.896	0.0164487
826.974	0.0164114
827.052	0.0163782
827.130	0.0165202
827.208	0.0164721
827.286	0.0164178
827.364	0.0164616
827.442	0.0164935
827.521	0.0165430
827.599	0.0163668
827.677	0.0164319
827.755	0.0162495
827.833	0.0162349
827.911	0.0162811
827.989	0.0162096
828.067	0.0160944
828.146	0.0159650
828.224	0.0161127
828.302	0.0159279
828.380	0.0158862
828.458	0.0159682
828.536	0.0159612
828.614	0.0157886
828.692	0.0159631
828.771	0.0160613
828.849	0.0158150
828.927	0.0156656
829.005	0.0157845
829.083	0.0158679
829.161	0.0158319
829.239	0.0158398
829.317	0.0157419
829.396	0.0157840
829.474	0.0156650
829.552	0.0158130
829.630	0.0157487
829.708	0.0157165
829.786	0.0156065
829.864	0.0154021
829.942	0.0154907
830.021	0.0155392
830.099	0.0155965
830.177	0.0155926
830.255	0.0155342
830.333	0.0155353
830.411	0.0154993
830.489	0.0154919
830.567	0.0154408
830.646	0.0154910
830.724	0.0154664
830.802	0.0153160
830.880	0.0154926
830.958	0.0153899
831.036	0.0152743
831.114	0.0154446
831.192	0.0153091
831.271	0.0155177
831.349	0.0155222
831.427	0.0154490
831.505	0.0156643
831.583	0.0156550
831.661	0.0158299
831.739	0.0158928
831.817	0.0160773
831.896	0.0160796
831.974	0.0162601
832.052	0.0164039
832.130	0.0166027
832.208	0.0166669
832.286	0.0166960
832.364	0.0166452
832.442	0.0168947
832.521	0.0169861
832.599	0.0170319
832.677	0.0170180
832.755	0.0170621
832.833	0.0170575
832.911	0.0168996
832.989	0.0170114
833.067	0.0169180
833.146	0.0168136
833.224	0.0166663
833.302	0.0168553
833.380	0.0166791
833.458	0.0165252
833.536	0.0164490
833.614	0.0164800
833.692	0.0164547
833.771	0.0162144
833.849	0.0162056
833.927	0.0162182
834.005	0.0160450
834.083	0.0160291
834.161	0.0158479
834.239	0.0158409
834.317	0.0158057
834.396	0.0157002
834.474	0.0157378
834.552	0.0157459
834.630	0.0158248
834.708	0.0156760
834.786	0.0156226
834.864	0.0155929
834.942	0.0155417
835.021	0.0154963
835.099	0.0156304
835.177	0.0156807
835.255	0.0156698
835.333	0.0154949
835.411	0.0154938
835.489	0.0157111
835.567	0.0156851
835.646	0.0154472
835.724	0.0154613
835.802	0.0154247
835.880	0.0154849
835.958	0.0155495
836.036	0.0154675
836.114	0.0152761
836.192	0.0152824
836.271	0.0152788
836.349	0.0153043
836.427	0.0151731
836.505	0.0152171
836.583	0.0153313
836.661	0.0154009
836.739	0.0153535
836.817	0.0153576
836.896	0.0153718
836.974	0.0154848
837.052	0.0154143
837.130	0.0155964
837.208	0.0157272
837.286	0.0155692
837.364	0.0158434
837.442	0.0158485
837.521	0.0159160
837.599	0.0161031
837.677	0.0163120
837.755	0.0163737
837.833	0.0164972
837.911	0.0166115
837.989	0.0167233
838.067	0.0167171
838.146	0.0168422
838.224	0.0171186
838.302	0.0171014
838.380	0.0170924
838.458	0.0170995
838.536	0.0171524
838.614	0.0171853
838.692	0.0170327
838.771	0.0170952
838.849	0.0169654
838.927	0.0168147
839.005	0.0169429
839.083	0.0168657
839.161	0.0167826
839.239	0.0165511
839.317	0.0165305
839.396	0.0165788
839.474	0.0162741
839.552	0.0161840
839.630	0.0162470
839.708	0.0161266
839.786	0.0159786
839.864	0.0158128
839.942	0.0158971
840.021	0.0158597
840.099	0.0157819
840.177	0.0156921
840.255	0.0157896
840.333	0.0156811
840.411	0.0156914
840.489	0.0155621
840.567	0.0156698
840.646	0.0157516
840.724	0.0157510
840.802	0.0156541
840.880	0.0156545
840.958	0.0157350
841.036	0.0155900
841.114	0.0157787
841.192	0.0156955
841.271	0.0156662
841.349	0.0157703
841.427	0.0157898
841.505	0.0156395
841.583	0.0155827
841.661	0.0155671
841.739	0.0155020
841.817	0.0154517
841.896	0.0154085
841.974	0.0154213
842.052	0.0153360
842.130	0.0153377
842.208	0.0153741
842.286	0.0152948
842.364	0.0153879
842.442	0.0154288
842.521	0.0155185
842.599	0.0155402
842.677	0.0157945
842.755	0.0156304
842.833	0.0156548
842.911	0.0156467
842.989	0.0157280
843.067	0.0157109
843.146	0.0159238
843.224	0.0161723
843.302	0.0161803
843.380	0.0161427
843.458	0.0160844
843.536	0.0163303
843.614	0.0164944
843.692	0.0164690
843.771	0.0166245
843.849	0.0166763
843.927	0.0166753
844.005	0.0168407
844.083	0.0167289
844.161	0.0167623
844.239	0.0168139
844.317	0.0168597
844.396	0.0168960
844.474	0.0167873
844.552	0.0167196
844.630	0.0167834
844.708	0.0167996
844.786	0.0165607
844.864	0.0166232
844.942	0.0164834
845.021	0.0163348
845.099	0.0163712
845.177	0.0162738
845.255	0.0162905
845.333	0.0162319
845.411	0.0161859
845.489	0.0160633
845.567	0.0161016
845.646	0.0159773
845.724	0.0158661
845.802	0.0158169
845.880	0.0158819
845.958	0.0158558
846.036	0.0157752
846.114	0.0156621
846.192	0.0156390
846.271	0.0156813
846.349	0.0156680
846.427	0.0156702
846.505	0.0156258
846.583	0.0156715
846.661	0.0157050
846.739	0.0156819
846.817	0.0157290
846.896	0.0157601
846.974	0.0156767
847.052	0.0157362
847.130	0.0157240
847.208	0.0156316
847.286	0.0155820
847.364	0.0155910
847.442	0.0156871
847.521	0.0155910
847.599	0.0156190
847.677	0.0155240
847.755	0.0155470
847.833	0.0155193
847.911	0.0155058
847.989	0.0155400
848.067	0.0154198
848.146	0.0155986
848.224	0.0156693
848.302	0.0156512
848.380	0.0156059
848.458	0.0156654
848.536	0.0158045
848.614	0.0158302
848.692	0.0158405
848.771	0.0159881
848.849	0.0160559
848.927	0.0161252
849.005	0.0162354
849.083	0.0162423
849.161	0.0162470
849.239	0.0163474
849.317	0.0163785
849.396	0.0165706
849.474	0.0164138
849.552	0.0165273
849.630	0.0165063
849.708	0.0166618
849.786	0.0167683
849.864	0.0165516
849.942	0.0166325
850.021	0.0165629
850.099	0.0164839
850.177	0.0164494
850.255	0.0162919
850.333	0.0163017
850.411	0.0163539
850.489	0.0161765
850.567	0.0161332
850.646	0.0161240
850.724	0.0161862
850.802	0.0159276
850.880	0.0159451
850.958	0.0157674
851.036	0.0158001
851.114	0.0159734
851.192	0.0159531
851.271	0.0158888
851.349	0.0158707
851.427	0.0158786
851.505	0.0157662
851.583	0.0159351
851.661	0.0159411
851.739	0.0159333
851.817	0.0159809
851.896	0.0159712
851.974	0.0159473
852.052	0.0158848
852.130	0.0158216
852.208	0.0157129
852.286	0.0159193
852.364	0.0158731
852.442	0.0159188
852.521	0.0157930
852.599	0.0157068
852.677	0.0158598
852.755	0.0158934
852.833	0.0158839
852.911	0.0158355
852.989	0.0156975
853.067	0.0157706
853.146	0.0159551
853.224	0.0157401
853.302	0.0157722
853.380	0.0156918
853.458	0.0156947
853.536	0.0155216
853.614	0.0156283
853.692	0.0157061
853.771	0.0157450
853.849	0.0157587
853.927	0.0156061
854.005	0.0157246
854.083	0.0156989
854.161	0.0157750
854.239	0.0157642
854.317	0.0158205
854.396	0.0158208
854.474	0.0158184
854.552	0.0158314
854.630	0.0158788
854.708	0.0159230
854.786	0.0160520
854.864	0.0160785
854.942	0.0160051
855.021	0.0159747
855.099	0.0162104
855.177	0.0162467
855.255	0.0161163
855.333	0.0160961
855.411	0.0162671
855.489	0.0162437
855.567	0.0163374
855.646	0.0163080
855.724	0.0164268
855.802	0.0163992
855.880	0.0163535
855.958	0.0164034
856.036	0.0164184
856.114	0.0162886
856.192	0.0163371
856.271	0.0164179
856.349	0.0162536
856.427	0.0162288
856.505	0.0162115
856.583	0.0160444
856.661	0.0160838
856.739	0.0161591
856.817	0.0159985
856.896	0.0159982
856.974	0.0158513
857.052	0.0160298
857.130	0.0160198
857.208	0.0158359
857.286	0.0158710
857.364	0.0158891
857.442	0.0158945
857.521	0.0157954
857.599	0.0157458
857.677	0.0159786
857.755	0.0160024
857.833	0.0159140
857.911	0.0159216
857.989	0.0160330
858.067	0.0160991
858.146	0.0159909
858.224	0.0160784
858.302	0.0161256
858.380	0.0160940
858.458	0.0160091
858.536	0.0161138
858.614	0.0160355
858.692	0.0159322
858.771	0.0160555
858.849	0.0158504
858.927	0.0158311
859.005	0.0159284
859.083	0.0159420
859.161	0.0157234
859.239	0.0157956
859.317	0.0157929
859.396	0.0157245
859.474	0.0157231
859.552	0.0156281
859.630	0.0157223
859.708	0.0157878
859.786	0.0158746
859.864	0.0158479
859.942	0.0158090
860.021	0.0157728
860.099	0.0159014
860.177	0.0157863
860.255	0.0159373
860.333	0.0158878
860.411	0.0158868
860.489	0.0160326
860.567	0.0159213
860.646	0.0161826
860.724	0.0163155
860.802	0.0161642
860.880	0.0161147
860.958	0.0161412
861.036	0.0162516
861.114	0.0160465
861.192	0.0161678
861.271	0.0162228
861.349	0.0161706
861.427	0.0160873
861.505	0.0161193
861.583	0.0161343
861.661	0.0161761
861.739	0.0162041
861.817	0.0160794
861.896	0.0161389
861.974	0.0160052
862.052	0.0161556
862.130	0.0160516
862.208	0.0161372
862.286	0.0161474
862.364	0.0160001
862.442	0.0161596
862.521	0.0161330
862.599	0.0161919
862.677	0.0160767
862.755	0.0161368
862.833	0.0162464
862.911	0.0160921
862.989	0.0162217
863.067	0.0162094
863.146	0.0162397
863.224	0.0160683
863.302	0.0163337
863.380	0.0163968
863.458	0.0163773
863.536	0.0161999
863.614	0.0162383
863.692	0.0162658
863.771	0.0162178
863.849	0.0161171
863.927	0.0160828
864.005	0.0161363
864.083	0.0161517
864.161	0.0160862
864.239	0.0159029
864.317	0.0158683
864.396	0.0159580
864.474	0.0158260
864.552	0.0158479
864.630	0.0159616
864.708	0.0158018
864.786	0.0158408
864.864	0.0158360
864.942	0.0158472
865.021	0.0157938
865.099	0.0158036
865.177	0.0156705
865.255	0.0157831
865.333	0.0157252
865.411	0.0157416
865.489	0.0157488
865.567	0.0156911
865.646	0.0157697
865.724	0.0157638
865.802	0.0158625
865.880	0.0157040
865.958	0.0157253
866.036	0.0158700
866.114	0.0158719
866.192	0.0159443
866.271	0.0159614
866.349	0.0158984
866.427	0.0159008
866.505	0.0160456
866.583	0.0159507
866.661	0.0159738
866.739	0.0159392
866.817	0.0160187
866.896	0.0160072
866.974	0.0160922
867.052	0.0161970
867.130	0.0160006
867.208	0.0162112
867.286	0.0159972
867.364	0.0161538
867.442	0.0160876
867.521	0.0160772
867.599	0.0161525
867.677	0.0161825
867.755	0.0160989
867.833	0.0161028
867.911	0.0161182
867.989	0.0160258
868.067	0.0161711
868.146	0.0161252
868.224	0.0160049
868.302	0.0160995
868.380	0.0160458
868.458	0.0160466
868.536	0.0161051
868.614	0.0161124
868.692	0.0161032
868.771	0.0161191
868.849	0.0161239
868.927	0.0162486
869.005	0.0162981
869.083	0.0163026
869.161	0.0162601
869.239	0.0162560
869.317	0.0161655
869.396	0.0163683
869.474	0.0163216
869.552	0.0163452
869.630	0.0163226
869.708	0.0161587
869.786	0.0161569
869.864	0.0161243
869.942	0.0161087
