06/03/2022	15:46:21	Ver.	4.1	UNKNOWN
Optical Delay	550.020508	Delta X		0.078125	Sweeps	1	Scan Rate	0/0
Coordinates	Axis 1	NaN	Axis 2	NaN	Axis 3	NaN	Axis 4	NaN	Axis 5	NaN	Axis 6	0.000000
TX Power	0.000000	RX Power	0.000000

550.021	0.0161862
550.099	0.0160506
550.177	0.0161179
550.255	0.0161964
550.333	0.0161386
550.411	0.0161877
550.489	0.0162448
550.567	0.0160582
550.646	0.0161292
550.724	0.0161839
550.802	0.0160517
550.880	0.0160895
550.958	0.0161936
551.036	0.0161422
551.114	0.0162466
551.192	0.0161381
551.271	0.0159798
551.349	0.0161573
551.427	0.0162035
551.505	0.0161364
551.583	0.0161609
551.661	0.0161684
551.739	0.0162853
551.817	0.0160972
551.896	0.0162016
551.974	0.0161293
552.052	0.0160674
552.130	0.0161266
552.208	0.0161723
552.286	0.0161331
552.364	0.0159977
552.442	0.0161175
552.521	0.0162948
552.599	0.0161479
552.677	0.0161417
552.755	0.0161790
552.833	0.0161323
552.911	0.0160026
552.989	0.0161014
553.067	0.0161440
553.146	0.0162566
553.224	0.0161320
553.302	0.0162904
553.380	0.0162438
553.458	0.0161091
553.536	0.0160842
553.614	0.0161971
553.692	0.0161440
553.771	0.0162721
553.849	0.0161570
553.927	0.0161886
554.005	0.0162170
554.083	0.0162322
554.161	0.0162447
554.239	0.0161343
554.317	0.0161278
554.396	0.0162286
554.474	0.0161196
554.552	0.0161307
554.630	0.0161423
554.708	0.0162080
554.786	0.0162830
554.864	0.0158908
554.942	0.0159612
555.021	0.0162482
555.099	0.0161526
555.177	0.0163338
555.255	0.0161001
555.333	0.0161539
555.411	0.0161454
555.489	0.0161572
555.567	0.0161828
555.646	0.0161692
555.724	0.0162479
555.802	0.0162152
555.880	0.0161794
555.958	0.0160511
556.036	0.0162323
556.114	0.0161498
556.192	0.0162003
556.271	0.0161572
556.349	0.0160833
556.427	0.0162081
556.505	0.0161909
556.583	0.0161591
556.661	0.0162069
556.739	0.0161332
556.817	0.0161947
556.896	0.0161777
556.974	0.0161494
557.052	0.0161549
557.130	0.0161003
557.208	0.0160271
557.286	0.0160975
557.364	0.0161974
557.442	0.0162163
557.521	0.0161308
557.599	0.0160755
557.677	0.0161786
557.755	0.0161340
557.833	0.0163110
557.911	0.0162162
557.989	0.0161134
558.067	0.0161458
558.146	0.0159930
558.224	0.0161681
558.302	0.0161639
558.380	0.0161424
558.458	0.0160999
558.536	0.0162560
558.614	0.0161456
558.692	0.0161676
558.771	0.0161749
558.849	0.0160760
558.927	0.0162300
559.005	0.0161836
559.083	0.0163076
559.161	0.0161201
559.239	0.0159587
559.317	0.0161752
559.396	0.0162720
559.474	0.0160799
559.552	0.0161728
559.630	0.0161829
559.708	0.0160687
559.786	0.0162094
559.864	0.0162294
559.942	0.0161932
560.021	0.0161896
560.099	0.0161586
560.177	0.0160598
560.255	0.0161939
560.333	0.0162516
560.411	0.0161559
560.489	0.0162869
560.567	0.0161309
560.646	0.0160583
560.724	0.0160857
560.802	0.0162608
560.880	0.0161227
560.958	0.0161163
561.036	0.0160870
561.114	0.0161143
561.192	0.0160690
561.271	0.0161149
561.349	0.0161828
561.427	0.0161696
561.505	0.0162260
561.583	0.0162009
561.661	0.0160988
561.739	0.0160944
561.817	0.0161951
561.896	0.0160806
561.974	0.0161152
562.052	0.0162583
562.130	0.0161856
562.208	0.0161610
562.286	0.0160848
562.364	0.0160677
562.442	0.0161934
562.521	0.0161968
562.599	0.0160886
562.677	0.0160989
562.755	0.0160970
562.833	0.0160962
562.911	0.0160521
562.989	0.0162116
563.067	0.0160684
563.146	0.0161282
563.224	0.0160809
563.302	0.0161328
563.380	0.0160909
563.458	0.0161147
563.536	0.0160783
563.614	0.0161949
563.692	0.0161289
563.771	0.0162186
563.849	0.0161912
563.927	0.0161220
564.005	0.0161117
564.083	0.0160911
564.161	0.0162138
564.239	0.0160945
564.317	0.0161541
564.396	0.0160555
564.474	0.0161402
564.552	0.0160950
564.630	0.0161425
564.708	0.0161725
564.786	0.0160857
564.864	0.0161507
564.942	0.0161145
565.021	0.0162237
565.099	0.0161802
565.177	0.0159559
565.255	0.0161079
565.333	0.0161887
565.411	0.0160401
565.489	0.0160255
565.567	0.0161480
565.646	0.0161372
565.724	0.0161792
565.802	0.0162171
565.880	0.0160693
565.958	0.0161526
566.036	0.0161983
566.114	0.0160698
566.192	0.0162273
566.271	0.0161603
566.349	0.0161147
566.427	0.0161338
566.505	0.0161722
566.583	0.0160627
566.661	0.0162093
566.739	0.0161333
566.817	0.0161826
566.896	0.0161674
566.974	0.0161516
567.052	0.0162475
567.130	0.0162929
567.208	0.0160861
567.286	0.0161901
567.364	0.0160745
567.442	0.0161771
567.521	0.0161385
567.599	0.0159951
567.677	0.0161269
567.755	0.0162720
567.833	0.0160050
567.911	0.0161143
567.989	0.0161513
568.067	0.0160307
568.146	0.0160532
568.224	0.0160138
568.302	0.0159997
568.380	0.0161560
568.458	0.0161361
568.536	0.0161029
568.614	0.0160458
568.692	0.0161984
568.771	0.0161362
568.849	0.0161828
568.927	0.0160662
569.005	0.0161036
569.083	0.0160455
569.161	0.0160475
569.239	0.0161359
569.317	0.0161469
569.396	0.0161221
569.474	0.0162423
569.552	0.0162082
569.630	0.0160818
569.708	0.0160637
569.786	0.0161611
569.864	0.0160770
569.942	0.0160365
570.021	0.0161591
570.099	0.0161738
570.177	0.0162016
570.255	0.0160882
570.333	0.0162019
570.411	0.0162516
570.489	0.0160143
570.567	0.0161032
570.646	0.0161671
570.724	0.0161613
570.802	0.0161636
570.880	0.0160706
570.958	0.0162603
571.036	0.0161848
571.114	0.0160856
571.192	0.0161230
571.271	0.0160464
571.349	0.0160577
571.427	0.0160400
571.505	0.0160358
571.583	0.0161419
571.661	0.0162552
571.739	0.0161288
571.817	0.0160405
571.896	0.0160872
571.974	0.0161284
572.052	0.0159878
572.130	0.0161719
572.208	0.0161308
572.286	0.0161510
572.364	0.0161594
572.442	0.0160152
572.521	0.0161702
572.599	0.0161655
572.677	0.0160616
572.755	0.0161736
572.833	0.0161312
572.911	0.0160545
572.989	0.0161702
573.067	0.0161131
573.146	0.0159953
573.224	0.0162505
573.302	0.0160471
573.380	0.0161755
573.458	0.0162647
573.536	0.0161745
573.614	0.0161640
573.692	0.0162185
573.771	0.0162154
573.849	0.0160117
573.927	0.0160634
574.005	0.0160776
574.083	0.0162008
574.161	0.0161640
574.239	0.0161717
574.317	0.0161307
574.396	0.0163230
574.474	0.0162062
574.552	0.0160735
574.630	0.0160638
574.708	0.0160927
574.786	0.0160629
574.864	0.0161381
574.942	0.0161427
575.021	0.0162460
575.099	0.0161276
575.177	0.0161271
575.255	0.0161786
575.333	0.0160923
575.411	0.0161199
575.489	0.0162067
575.567	0.0162616
575.646	0.0160106
575.724	0.0161153
575.802	0.0162854
575.880	0.0160948
575.958	0.0162206
576.036	0.0161375
576.114	0.0161441
576.192	0.0161828
576.271	0.0163026
576.349	0.0162766
576.427	0.0161379
576.505	0.0160873
576.583	0.0162351
576.661	0.0161986
576.739	0.0160236
576.817	0.0159763
576.896	0.0161574
576.974	0.0162074
577.052	0.0161443
577.130	0.0162531
577.208	0.0161230
577.286	0.0161627
577.364	0.0162491
577.442	0.0161057
577.521	0.0162732
577.599	0.0161381
577.677	0.0161785
577.755	0.0161086
577.833	0.0161384
577.911	0.0161213
577.989	0.0161649
578.067	0.0161786
578.146	0.0161479
578.224	0.0161176
578.302	0.0163023
578.380	0.0161018
578.458	0.0161691
578.536	0.0161799
578.614	0.0160568
578.692	0.0161559
578.771	0.0160737
578.849	0.0161805
578.927	0.0162319
579.005	0.0161498
579.083	0.0160358
579.161	0.0160429
579.239	0.0161538
579.317	0.0161287
579.396	0.0160941
579.474	0.0161671
579.552	0.0161199
579.630	0.0160866
579.708	0.0160651
579.786	0.0161858
579.864	0.0161755
579.942	0.0161286
580.021	0.0160372
580.099	0.0162148
580.177	0.0161775
580.255	0.0161337
580.333	0.0161115
580.411	0.0162045
580.489	0.0161812
580.567	0.0160741
580.646	0.0162715
580.724	0.0160746
580.802	0.0161240
580.880	0.0161447
580.958	0.0161339
581.036	0.0161832
581.114	0.0160429
581.192	0.0161845
581.271	0.0161662
581.349	0.0161259
581.427	0.0161377
581.505	0.0160947
581.583	0.0161575
581.661	0.0161174
581.739	0.0161317
581.817	0.0161684
581.896	0.0160847
581.974	0.0160692
582.052	0.0161183
582.130	0.0161550
582.208	0.0160214
582.286	0.0161030
582.364	0.0161649
582.442	0.0161938
582.521	0.0160658
582.599	0.0162578
582.677	0.0161774
582.755	0.0162067
582.833	0.0160255
582.911	0.0160956
582.989	0.0161852
583.067	0.0161774
583.146	0.0161122
583.224	0.0160554
583.302	0.0162495
583.380	0.0161102
583.458	0.0161466
583.536	0.0162148
583.614	0.0162448
583.692	0.0162413
583.771	0.0162323
583.849	0.0161939
583.927	0.0161012
584.005	0.0161702
584.083	0.0161159
584.161	0.0160445
584.239	0.0160159
584.317	0.0162000
584.396	0.0162728
584.474	0.0160423
584.552	0.0161049
584.630	0.0162650
584.708	0.0161528
584.786	0.0161893
584.864	0.0160423
584.942	0.0160461
585.021	0.0160918
585.099	0.0161272
585.177	0.0160596
585.255	0.0160623
585.333	0.0161691
585.411	0.0160798
585.489	0.0162104
585.567	0.0161053
585.646	0.0159879
585.724	0.0160565
585.802	0.0162388
585.880	0.0160943
585.958	0.0160383
586.036	0.0161146
586.114	0.0160627
586.192	0.0160114
586.271	0.0160883
586.349	0.0161195
586.427	0.0162235
586.505	0.0162329
586.583	0.0161208
586.661	0.0160899
586.739	0.0161358
586.817	0.0161288
586.896	0.0160013
586.974	0.0161639
587.052	0.0160705
587.130	0.0160656
587.208	0.0163239
587.286	0.0161261
587.364	0.0161701
587.442	0.0163116
587.521	0.0160384
587.599	0.0160316
587.677	0.0161398
587.755	0.0160893
587.833	0.0160139
587.911	0.0162479
587.989	0.0162260
588.067	0.0161237
588.146	0.0160774
588.224	0.0162888
588.302	0.0162112
588.380	0.0160705
588.458	0.0161450
588.536	0.0162570
588.614	0.0161195
588.692	0.0160650
588.771	0.0160796
588.849	0.0161180
588.927	0.0161973
589.005	0.0160886
589.083	0.0161463
589.161	0.0161741
589.239	0.0160496
589.317	0.0161214
589.396	0.0160439
589.474	0.0162033
589.552	0.0161590
589.630	0.0162290
589.708	0.0161874
589.786	0.0162472
589.864	0.0161727
589.942	0.0162195
590.021	0.0161180
590.099	0.0160229
590.177	0.0161494
590.255	0.0160755
590.333	0.0160804
590.411	0.0160071
590.489	0.0161869
590.567	0.0161182
590.646	0.0162077
590.724	0.0161246
590.802	0.0161666
590.880	0.0161922
590.958	0.0160754
591.036	0.0161667
591.114	0.0162151
591.192	0.0160480
591.271	0.0160810
591.349	0.0160871
591.427	0.0161896
591.505	0.0161662
591.583	0.0161806
591.661	0.0160928
591.739	0.0161397
591.817	0.0160779
591.896	0.0161704
591.974	0.0161958
592.052	0.0162337
592.130	0.0161922
592.208	0.0161729
592.286	0.0161527
592.364	0.0160614
592.442	0.0161198
592.521	0.0162284
592.599	0.0161921
592.677	0.0159943
592.755	0.0160974
592.833	0.0162548
592.911	0.0160769
592.989	0.0161222
593.067	0.0161868
593.146	0.0161896
593.224	0.0159855
593.302	0.0160550
593.380	0.0160800
593.458	0.0161932
593.536	0.0161214
593.614	0.0161954
593.692	0.0161909
593.771	0.0160809
593.849	0.0161994
593.927	0.0161973
594.005	0.0160959
594.083	0.0160976
594.161	0.0160912
594.239	0.0161731
594.317	0.0161254
594.396	0.0160442
594.474	0.0160985
594.552	0.0161872
594.630	0.0160706
594.708	0.0160733
594.786	0.0161100
594.864	0.0160729
594.942	0.0160820
595.021	0.0161269
595.099	0.0163020
595.177	0.0160250
595.255	0.0162338
595.333	0.0161136
595.411	0.0160625
595.489	0.0161688
595.567	0.0161246
595.646	0.0160410
595.724	0.0161295
595.802	0.0161994
595.880	0.0161316
595.958	0.0161604
596.036	0.0161150
596.114	0.0161602
596.192	0.0160333
596.271	0.0160181
596.349	0.0160624
596.427	0.0162543
596.505	0.0161706
596.583	0.0159412
596.661	0.0161427
596.739	0.0161544
596.817	0.0161213
596.896	0.0160588
596.974	0.0161588
597.052	0.0162312
597.130	0.0159819
597.208	0.0161044
597.286	0.0162819
597.364	0.0161816
597.442	0.0161658
597.521	0.0163000
597.599	0.0161092
597.677	0.0161812
597.755	0.0161933
597.833	0.0162947
597.911	0.0161437
597.989	0.0161491
598.067	0.0161697
598.146	0.0161235
598.224	0.0160335
598.302	0.0161334
598.380	0.0162010
598.458	0.0160406
598.536	0.0160764
598.614	0.0161474
598.692	0.0161285
598.771	0.0162730
598.849	0.0162089
598.927	0.0161914
599.005	0.0162009
599.083	0.0161003
599.161	0.0161806
599.239	0.0160569
599.317	0.0161120
599.396	0.0161485
599.474	0.0162537
599.552	0.0161414
599.630	0.0161313
599.708	0.0162306
599.786	0.0162607
599.864	0.0162110
599.942	0.0162154
600.021	0.0162106
600.099	0.0161103
600.177	0.0161495
600.255	0.0162234
600.333	0.0162231
600.411	0.0161214
600.489	0.0161147
600.567	0.0161607
600.646	0.0161040
600.724	0.0162283
600.802	0.0159937
600.880	0.0161320
600.958	0.0161631
601.036	0.0161633
601.114	0.0161094
601.192	0.0161794
601.271	0.0161428
601.349	0.0161232
601.427	0.0161352
601.505	0.0161597
601.583	0.0162047
601.661	0.0162212
601.739	0.0161749
601.817	0.0161141
601.896	0.0159860
601.974	0.0162981
602.052	0.0162556
602.130	0.0162688
602.208	0.0160925
602.286	0.0161214
602.364	0.0160734
602.442	0.0161208
602.521	0.0162347
602.599	0.0160964
602.677	0.0161409
602.755	0.0161022
602.833	0.0160211
602.911	0.0161747
602.989	0.0160960
603.067	0.0161009
603.146	0.0162473
603.224	0.0162614
603.302	0.0162058
603.380	0.0161814
603.458	0.0161720
603.536	0.0161763
603.614	0.0161256
603.692	0.0160815
603.771	0.0161436
603.849	0.0161713
603.927	0.0161388
604.005	0.0161687
604.083	0.0161690
604.161	0.0162256
604.239	0.0161374
604.317	0.0162497
604.396	0.0161636
604.474	0.0160918
604.552	0.0161158
604.630	0.0160645
604.708	0.0161639
604.786	0.0162436
604.864	0.0161579
604.942	0.0161995
605.021	0.0162310
605.099	0.0161464
605.177	0.0160939
605.255	0.0161848
605.333	0.0162029
605.411	0.0161366
605.489	0.0161372
605.567	0.0161754
605.646	0.0162453
605.724	0.0162162
605.802	0.0162106
605.880	0.0161491
605.958	0.0161797
606.036	0.0160984
606.114	0.0161884
606.192	0.0162038
606.271	0.0161168
606.349	0.0162183
606.427	0.0160444
606.505	0.0161766
606.583	0.0160671
606.661	0.0161366
606.739	0.0161996
606.817	0.0160007
606.896	0.0160132
606.974	0.0162022
607.052	0.0161794
607.130	0.0160404
607.208	0.0162054
607.286	0.0161524
607.364	0.0161062
607.442	0.0162138
607.521	0.0162356
607.599	0.0161980
607.677	0.0160996
607.755	0.0161499
607.833	0.0161446
607.911	0.0162380
607.989	0.0161279
608.067	0.0160525
608.146	0.0160264
608.224	0.0159756
608.302	0.0161287
608.380	0.0161912
608.458	0.0161623
608.536	0.0161053
608.614	0.0162812
608.692	0.0161436
608.771	0.0162971
608.849	0.0161777
608.927	0.0160989
609.005	0.0161002
609.083	0.0161614
609.161	0.0161746
609.239	0.0162074
609.317	0.0161538
609.396	0.0160688
609.474	0.0161446
609.552	0.0161191
609.630	0.0160877
609.708	0.0161829
609.786	0.0163234
609.864	0.0161201
609.942	0.0161954
610.021	0.0161720
610.099	0.0160814
610.177	0.0161591
610.255	0.0159859
610.333	0.0161610
610.411	0.0161435
610.489	0.0161119
610.567	0.0160741
610.646	0.0160975
610.724	0.0161454
610.802	0.0161145
610.880	0.0160762
610.958	0.0161764
611.036	0.0162025
611.114	0.0161445
611.192	0.0162231
611.271	0.0161501
611.349	0.0161877
611.427	0.0161166
611.505	0.0160415
611.583	0.0160832
611.661	0.0163291
611.739	0.0161813
611.817	0.0161362
611.896	0.0161958
611.974	0.0161214
612.052	0.0161555
612.130	0.0160865
612.208	0.0161290
612.286	0.0161381
612.364	0.0161680
612.442	0.0161474
612.521	0.0161264
612.599	0.0160842
612.677	0.0161787
612.755	0.0160571
612.833	0.0162811
612.911	0.0161891
612.989	0.0161233
613.067	0.0161407
613.146	0.0162613
613.224	0.0162653
613.302	0.0162724
613.380	0.0162280
613.458	0.0162136
613.536	0.0162128
613.614	0.0162354
613.692	0.0160389
613.771	0.0161398
613.849	0.0161761
613.927	0.0162368
614.005	0.0161776
614.083	0.0161378
614.161	0.0161454
614.239	0.0161423
614.317	0.0161681
614.396	0.0161700
614.474	0.0161964
614.552	0.0162065
614.630	0.0161098
614.708	0.0162030
614.786	0.0162553
614.864	0.0161521
614.942	0.0163169
615.021	0.0161820
615.099	0.0163273
615.177	0.0161343
615.255	0.0160674
615.333	0.0162092
615.411	0.0161528
615.489	0.0161759
615.567	0.0162587
615.646	0.0162111
615.724	0.0162886
615.802	0.0160764
615.880	0.0161490
615.958	0.0160581
616.036	0.0160817
616.114	0.0160889
616.192	0.0161227
616.271	0.0161057
616.349	0.0160883
616.427	0.0160291
616.505	0.0161434
616.583	0.0161261
616.661	0.0160773
616.739	0.0161182
616.817	0.0161768
616.896	0.0161765
616.974	0.0162421
617.052	0.0162000
617.130	0.0161490
617.208	0.0162020
617.286	0.0161469
617.364	0.0161768
617.442	0.0161247
617.521	0.0161999
617.599	0.0161663
617.677	0.0161930
617.755	0.0161443
617.833	0.0161384
617.911	0.0161893
617.989	0.0161784
618.067	0.0162206
618.146	0.0161538
618.224	0.0161169
618.302	0.0161290
618.380	0.0161853
618.458	0.0162801
618.536	0.0162206
618.614	0.0163354
618.692	0.0161636
618.771	0.0161903
618.849	0.0161458
618.927	0.0161075
619.005	0.0162268
619.083	0.0160461
619.161	0.0161419
619.239	0.0162848
619.317	0.0163077
619.396	0.0161781
619.474	0.0162389
619.552	0.0161671
619.630	0.0161141
619.708	0.0162904
619.786	0.0161964
619.864	0.0161889
619.942	0.0161785
620.021	0.0162720
620.099	0.0164008
620.177	0.0162182
620.255	0.0162051
620.333	0.0161471
620.411	0.0161372
620.489	0.0162457
620.567	0.0161778
620.646	0.0162833
620.724	0.0162946
620.802	0.0163080
620.880	0.0162007
620.958	0.0162200
621.036	0.0160316
621.114	0.0163769
621.192	0.0162741
621.271	0.0163412
621.349	0.0164584
621.427	0.0162569
621.505	0.0159950
621.583	0.0162881
621.661	0.0163668
621.739	0.0160934
621.817	0.0162106
621.896	0.0164172
621.974	0.0162550
622.052	0.0161058
622.130	0.0162198
622.208	0.0162669
622.286	0.0162174
622.364	0.0160994
622.442	0.0161885
622.521	0.0161144
622.599	0.0161449
622.677	0.0160431
622.755	0.0162190
622.833	0.0162451
622.911	0.0161474
622.989	0.0162658
623.067	0.0162114
623.146	0.0160225
623.224	0.0161299
623.302	0.0161652
623.380	0.0160407
623.458	0.0160415
623.536	0.0159499
623.614	0.0161789
623.692	0.0162154
623.771	0.0160877
623.849	0.0161826
623.927	0.0162071
624.005	0.0160854
624.083	0.0160878
624.161	0.0161388
624.239	0.0161205
624.317	0.0160681
624.396	0.0160930
624.474	0.0160702
624.552	0.0161331
624.630	0.0160677
624.708	0.0160619
624.786	0.0160914
624.864	0.0160728
624.942	0.0161103
625.021	0.0161134
625.099	0.0160838
625.177	0.0161848
625.255	0.0160609
625.333	0.0160693
625.411	0.0161757
625.489	0.0160378
625.567	0.0161597
625.646	0.0162161
625.724	0.0161421
625.802	0.0160469
625.880	0.0161411
625.958	0.0161956
626.036	0.0160837
626.114	0.0161506
626.192	0.0161213
626.271	0.0162066
626.349	0.0160033
626.427	0.0162360
626.505	0.0162518
626.583	0.0161333
626.661	0.0162017
626.739	0.0161182
626.817	0.0161782
626.896	0.0159859
626.974	0.0161242
627.052	0.0161739
627.130	0.0160211
627.208	0.0161521
627.286	0.0160896
627.364	0.0161227
627.442	0.0161041
627.521	0.0162514
627.599	0.0162398
627.677	0.0159492
627.755	0.0161028
627.833	0.0162990
627.911	0.0161053
627.989	0.0160515
628.067	0.0160545
628.146	0.0161993
628.224	0.0161994
628.302	0.0161076
628.380	0.0160336
628.458	0.0161653
628.536	0.0161024
628.614	0.0160609
628.692	0.0159885
628.771	0.0162692
628.849	0.0160674
628.927	0.0160172
629.005	0.0160853
629.083	0.0161169
629.161	0.0161172
629.239	0.0161935
629.317	0.0161994
629.396	0.0161308
629.474	0.0159888
629.552	0.0160190
629.630	0.0160645
629.708	0.0161092
629.786	0.0161264
629.864	0.0160318
629.942	0.0159697
630.021	0.0159939
630.099	0.0160349
630.177	0.0161092
630.255	0.0161378
630.333	0.0160922
630.411	0.0160000
630.489	0.0160870
630.567	0.0160779
630.646	0.0159667
630.724	0.0160564
630.802	0.0160258
630.880	0.0161926
630.958	0.0161595
631.036	0.0160538
631.114	0.0162286
631.192	0.0161409
631.271	0.0161067
631.349	0.0160265
631.427	0.0160680
631.505	0.0162064
631.583	0.0161689
631.661	0.0161047
631.739	0.0160204
631.817	0.0160696
631.896	0.0160457
631.974	0.0160793
632.052	0.0160847
632.130	0.0161655
632.208	0.0161255
632.286	0.0161153
632.364	0.0161615
632.442	0.0161405
632.521	0.0160297
632.599	0.0161031
632.677	0.0160938
632.755	0.0162339
632.833	0.0161506
632.911	0.0160715
632.989	0.0161958
633.067	0.0162550
633.146	0.0161591
633.224	0.0162615
633.302	0.0161822
633.380	0.0161518
633.458	0.0161840
633.536	0.0161252
633.614	0.0162949
633.692	0.0162466
633.771	0.0161891
633.849	0.0161295
633.927	0.0162246
634.005	0.0161257
634.083	0.0161691
634.161	0.0161600
634.239	0.0160147
634.317	0.0160798
634.396	0.0159612
634.474	0.0160599
634.552	0.0162891
634.630	0.0162167
634.708	0.0162517
634.786	0.0161284
634.864	0.0163127
634.942	0.0162257
635.021	0.0161586
635.099	0.0161012
635.177	0.0160996
635.255	0.0163431
635.333	0.0161936
635.411	0.0162605
635.489	0.0161755
635.567	0.0161271
635.646	0.0161139
635.724	0.0162677
635.802	0.0161760
635.880	0.0161684
635.958	0.0161803
636.036	0.0160912
636.114	0.0161237
636.192	0.0161253
636.271	0.0162223
636.349	0.0160852
636.427	0.0161343
636.505	0.0162052
636.583	0.0161565
636.661	0.0161928
636.739	0.0162403
636.817	0.0161343
636.896	0.0161848
636.974	0.0162508
637.052	0.0159975
637.130	0.0160767
637.208	0.0161683
637.286	0.0162167
637.364	0.0162720
637.442	0.0162460
637.521	0.0161163
637.599	0.0162047
637.677	0.0162878
637.755	0.0162282
637.833	0.0162585
637.911	0.0162077
637.989	0.0161806
638.067	0.0161609
638.146	0.0161044
638.224	0.0162750
638.302	0.0162440
638.380	0.0161514
638.458	0.0161164
638.536	0.0162598
638.614	0.0162566
638.692	0.0160899
638.771	0.0162747
638.849	0.0161864
638.927	0.0160464
639.005	0.0161555
639.083	0.0162377
639.161	0.0161989
639.239	0.0160966
639.317	0.0161466
639.396	0.0162273
639.474	0.0161775
639.552	0.0162077
639.630	0.0162492
639.708	0.0162830
639.786	0.0162139
639.864	0.0160809
639.942	0.0160929
640.021	0.0161353
640.099	0.0161534
640.177	0.0162375
640.255	0.0161499
640.333	0.0161301
640.411	0.0161446
640.489	0.0161189
640.567	0.0162326
640.646	0.0162534
640.724	0.0161617
640.802	0.0161253
640.880	0.0161707
640.958	0.0161915
641.036	0.0162013
641.114	0.0160740
641.192	0.0160729
641.271	0.0161199
641.349	0.0161120
641.427	0.0160282
641.505	0.0161681
641.583	0.0162382
641.661	0.0162653
641.739	0.0160876
641.817	0.0160739
641.896	0.0160590
641.974	0.0160829
642.052	0.0161040
642.130	0.0161832
642.208	0.0162176
642.286	0.0161899
642.364	0.0160949
642.442	0.0161167
642.521	0.0162529
642.599	0.0161453
642.677	0.0161942
642.755	0.0161507
642.833	0.0161549
642.911	0.0160774
642.989	0.0161759
643.067	0.0162626
643.146	0.0160060
643.224	0.0161367
643.302	0.0160645
643.380	0.0161630
643.458	0.0160545
643.536	0.0162785
643.614	0.0160504
643.692	0.0160619
643.771	0.0161957
643.849	0.0162105
643.927	0.0161957
644.005	0.0161588
644.083	0.0160612
644.161	0.0160834
644.239	0.0160628
644.317	0.0161097
644.396	0.0160902
644.474	0.0161362
644.552	0.0161404
644.630	0.0161133
644.708	0.0161568
644.786	0.0160530
644.864	0.0161507
644.942	0.0161710
645.021	0.0160648
645.099	0.0161633
645.177	0.0162019
645.255	0.0160012
645.333	0.0159560
645.411	0.0161357
645.489	0.0160957
645.567	0.0161987
645.646	0.0161945
645.724	0.0160708
645.802	0.0161484
645.880	0.0160742
645.958	0.0160799
646.036	0.0161438
646.114	0.0160468
646.192	0.0160387
646.271	0.0160860
646.349	0.0160619
646.427	0.0161885
646.505	0.0161182
646.583	0.0161449
646.661	0.0160934
646.739	0.0163075
646.817	0.0160037
646.896	0.0159798
646.974	0.0161341
647.052	0.0161633
647.130	0.0160720
647.208	0.0159975
647.286	0.0160118
647.364	0.0161602
647.442	0.0160912
647.521	0.0161720
647.599	0.0159835
647.677	0.0160949
647.755	0.0161504
647.833	0.0162202
647.911	0.0162269
647.989	0.0161717
648.067	0.0160613
648.146	0.0159802
648.224	0.0160624
648.302	0.0160339
648.380	0.0162263
648.458	0.0160783
648.536	0.0160841
648.614	0.0160290
648.692	0.0160371
648.771	0.0160174
648.849	0.0160390
648.927	0.0162114
649.005	0.0160567
649.083	0.0161169
649.161	0.0161832
649.239	0.0161363
649.317	0.0161400
649.396	0.0160049
649.474	0.0160911
649.552	0.0160077
649.630	0.0159798
649.708	0.0161308
649.786	0.0160962
649.864	0.0161454
649.942	0.0160734
650.021	0.0161276
650.099	0.0161439
650.177	0.0162980
650.255	0.0161749
650.333	0.0160915
650.411	0.0162376
650.489	0.0160013
650.567	0.0161741
650.646	0.0161983
650.724	0.0161663
650.802	0.0160253
650.880	0.0161239
650.958	0.0161395
651.036	0.0159859
651.114	0.0161212
651.192	0.0159372
651.271	0.0160611
651.349	0.0162363
651.427	0.0160984
651.505	0.0160611
651.583	0.0161801
651.661	0.0160833
651.739	0.0160921
651.817	0.0160450
651.896	0.0161285
651.974	0.0161260
652.052	0.0160976
652.130	0.0159743
652.208	0.0161027
652.286	0.0161451
652.364	0.0161689
652.442	0.0160893
652.521	0.0161610
652.599	0.0161161
652.677	0.0162206
652.755	0.0161855
652.833	0.0161233
652.911	0.0160962
652.989	0.0161497
653.067	0.0161076
653.146	0.0161079
653.224	0.0160265
653.302	0.0162288
653.380	0.0161475
653.458	0.0160651
653.536	0.0160497
653.614	0.0160985
653.692	0.0160219
653.771	0.0161712
653.849	0.0160067
653.927	0.0161401
654.005	0.0160292
654.083	0.0160812
654.161	0.0161174
654.239	0.0159966
654.317	0.0160977
654.396	0.0160520
654.474	0.0160065
654.552	0.0160583
654.630	0.0161076
654.708	0.0161732
654.786	0.0161306
654.864	0.0160905
654.942	0.0160078
655.021	0.0160569
655.099	0.0161675
655.177	0.0161679
655.255	0.0161447
655.333	0.0161172
655.411	0.0161059
655.489	0.0161424
655.567	0.0161881
655.646	0.0160738
655.724	0.0161530
655.802	0.0160172
655.880	0.0160320
655.958	0.0159520
656.036	0.0161385
656.114	0.0162110
656.192	0.0162439
656.271	0.0162312
656.349	0.0161691
656.427	0.0161038
656.505	0.0161777
656.583	0.0162080
656.661	0.0161173
656.739	0.0162007
656.817	0.0160033
656.896	0.0161455
656.974	0.0162566
657.052	0.0161602
657.130	0.0161911
657.208	0.0162543
657.286	0.0160065
657.364	0.0159935
657.442	0.0162091
657.521	0.0162948
657.599	0.0161490
657.677	0.0161509
657.755	0.0162399
657.833	0.0161655
657.911	0.0160855
657.989	0.0161396
658.067	0.0162879
658.146	0.0163278
658.224	0.0161339
658.302	0.0161069
658.380	0.0162758
658.458	0.0162483
658.536	0.0163290
658.614	0.0160622
658.692	0.0161325
658.771	0.0162069
658.849	0.0162137
658.927	0.0160397
659.005	0.0161714
659.083	0.0161448
659.161	0.0162264
659.239	0.0162140
659.317	0.0161954
659.396	0.0161908
659.474	0.0160561
659.552	0.0161034
659.630	0.0160962
659.708	0.0160759
659.786	0.0162182
659.864	0.0161890
659.942	0.0162514
660.021	0.0160772
660.099	0.0161865
660.177	0.0161902
660.255	0.0160194
660.333	0.0160858
660.411	0.0162083
660.489	0.0161004
660.567	0.0161189
660.646	0.0161450
660.724	0.0160885
660.802	0.0161140
660.880	0.0160791
660.958	0.0161768
661.036	0.0162168
661.114	0.0161377
661.192	0.0161549
661.271	0.0161987
661.349	0.0160445
661.427	0.0161758
661.505	0.0161292
661.583	0.0160275
661.661	0.0161674
661.739	0.0162391
661.817	0.0162348
661.896	0.0162684
661.974	0.0161920
662.052	0.0162823
662.130	0.0160577
662.208	0.0162013
662.286	0.0162920
662.364	0.0162743
662.442	0.0162180
662.521	0.0161739
662.599	0.0162560
662.677	0.0163400
662.755	0.0162205
662.833	0.0161600
662.911	0.0161958
662.989	0.0162405
663.067	0.0161988
663.146	0.0161253
663.224	0.0161662
663.302	0.0160891
663.380	0.0162940
663.458	0.0162556
663.536	0.0162447
663.614	0.0161750
663.692	0.0161411
663.771	0.0162743
663.849	0.0162502
663.927	0.0162314
664.005	0.0162083
664.083	0.0162222
664.161	0.0162045
664.239	0.0161488
664.317	0.0160985
664.396	0.0160583
664.474	0.0161069
664.552	0.0161266
664.630	0.0163041
664.708	0.0162328
664.786	0.0161893
664.864	0.0162061
664.942	0.0160732
665.021	0.0162247
665.099	0.0161565
665.177	0.0161073
665.255	0.0161839
665.333	0.0163389
665.411	0.0160538
665.489	0.0161273
665.567	0.0161729
665.646	0.0160886
665.724	0.0161119
665.802	0.0160589
665.880	0.0160976
665.958	0.0161148
666.036	0.0162096
666.114	0.0160925
666.192	0.0162119
666.271	0.0161127
666.349	0.0160351
666.427	0.0161427
666.505	0.0160541
666.583	0.0163710
666.661	0.0161186
666.739	0.0160419
666.817	0.0160947
666.896	0.0161378
666.974	0.0161928
667.052	0.0161864
667.130	0.0162051
667.208	0.0161312
667.286	0.0162071
667.364	0.0161123
667.442	0.0161023
667.521	0.0161423
667.599	0.0162534
667.677	0.0162027
667.755	0.0160538
667.833	0.0161335
667.911	0.0160824
667.989	0.0161274
668.067	0.0161608
668.146	0.0161712
668.224	0.0161669
668.302	0.0161527
668.380	0.0161739
668.458	0.0161955
668.536	0.0161536
668.614	0.0161891
668.692	0.0160806
668.771	0.0161149
668.849	0.0161890
668.927	0.0162370
669.005	0.0160814
669.083	0.0161247
669.161	0.0161625
669.239	0.0161608
669.317	0.0161124
669.396	0.0160870
669.474	0.0162347
669.552	0.0161414
669.630	0.0162029
669.708	0.0161165
669.786	0.0162109
669.864	0.0162166
669.942	0.0162531
670.021	0.0160904
670.099	0.0160897
670.177	0.0160684
670.255	0.0161854
670.333	0.0161199
670.411	0.0160754
670.489	0.0162637
670.567	0.0159731
670.646	0.0160088
670.724	0.0160616
670.802	0.0159924
670.880	0.0159853
670.958	0.0160347
671.036	0.0160401
671.114	0.0159679
671.192	0.0161546
671.271	0.0163020
671.349	0.0161058
671.427	0.0161949
671.505	0.0162039
671.583	0.0161023
671.661	0.0160751
671.739	0.0161112
671.817	0.0161418
671.896	0.0160054
671.974	0.0159889
672.052	0.0159962
672.130	0.0159797
672.208	0.0160266
672.286	0.0160422
672.364	0.0160699
672.442	0.0161523
672.521	0.0162782
672.599	0.0161633
672.677	0.0162203
672.755	0.0162524
672.833	0.0162788
672.911	0.0163829
672.989	0.0162543
673.067	0.0162007
673.146	0.0162091
673.224	0.0162051
673.302	0.0160641
673.380	0.0158771
673.458	0.0158810
673.536	0.0158437
673.614	0.0156849
673.692	0.0158322
673.771	0.0158685
673.849	0.0159054
673.927	0.0159688
674.005	0.0161082
674.083	0.0161620
674.161	0.0163727
674.239	0.0163864
674.317	0.0166342
674.396	0.0165778
674.474	0.0165416
674.552	0.0165012
674.630	0.0164165
674.708	0.0161311
674.786	0.0160952
674.864	0.0159042
674.942	0.0157722
675.021	0.0156936
675.099	0.0156835
675.177	0.0155805
675.255	0.0157917
675.333	0.0158208
675.411	0.0158405
675.489	0.0159823
675.567	0.0162847
675.646	0.0162861
675.724	0.0163747
675.802	0.0165005
675.880	0.0166225
675.958	0.0166668
676.036	0.0165889
676.114	0.0163568
676.192	0.0161826
676.271	0.0159844
676.349	0.0158604
676.427	0.0157794
676.505	0.0156988
676.583	0.0155312
676.661	0.0155887
676.739	0.0156984
676.817	0.0157243
676.896	0.0157377
676.974	0.0157122
677.052	0.0158856
677.130	0.0160934
677.208	0.0161543
677.286	0.0162873
677.364	0.0163888
677.442	0.0162959
677.521	0.0164214
677.599	0.0163821
677.677	0.0164314
677.755	0.0163083
677.833	0.0161523
677.911	0.0161609
677.989	0.0159984
678.067	0.0159369
678.146	0.0158424
678.224	0.0158691
678.302	0.0157841
678.380	0.0158459
678.458	0.0159007
678.536	0.0159078
678.614	0.0159364
678.692	0.0160884
678.771	0.0162011
678.849	0.0162177
678.927	0.0163236
679.005	0.0164482
679.083	0.0162949
679.161	0.0162830
679.239	0.0163521
679.317	0.0163098
679.396	0.0161620
679.474	0.0158968
679.552	0.0159909
679.630	0.0160557
679.708	0.0158894
679.786	0.0160387
679.864	0.0160371
679.942	0.0161904
680.021	0.0160821
680.099	0.0160887
680.177	0.0161310
680.255	0.0161586
680.333	0.0160763
680.411	0.0160331
680.489	0.0159444
680.567	0.0159886
680.646	0.0158984
680.724	0.0159586
680.802	0.0159860
680.880	0.0160764
680.958	0.0159049
681.036	0.0161614
681.114	0.0162786
681.192	0.0163059
681.271	0.0162907
681.349	0.0163055
681.427	0.0163627
681.505	0.0162576
681.583	0.0161694
681.661	0.0161044
681.739	0.0160644
681.817	0.0160394
681.896	0.0157735
681.974	0.0159018
682.052	0.0158349
682.130	0.0159988
682.208	0.0159725
682.286	0.0159216
682.364	0.0160318
682.442	0.0161572
682.521	0.0162644
682.599	0.0163036
682.677	0.0163729
682.755	0.0164084
682.833	0.0164102
682.911	0.0164238
682.989	0.0162994
683.067	0.0163081
683.146	0.0161797
683.224	0.0160644
683.302	0.0160494
683.380	0.0159305
683.458	0.0158623
683.536	0.0158964
683.614	0.0158993
683.692	0.0160062
683.771	0.0159653
683.849	0.0161350
683.927	0.0162777
684.005	0.0163190
684.083	0.0163110
684.161	0.0163866
684.239	0.0163984
684.317	0.0162827
684.396	0.0163798
684.474	0.0163167
684.552	0.0162080
684.630	0.0161730
684.708	0.0160976
684.786	0.0159493
684.864	0.0160908
684.942	0.0160396
685.021	0.0160073
685.099	0.0160646
685.177	0.0161278
685.255	0.0160806
685.333	0.0163236
685.411	0.0162482
685.489	0.0161864
685.567	0.0162530
685.646	0.0161996
685.724	0.0162395
685.802	0.0161967
685.880	0.0161439
685.958	0.0161189
686.036	0.0160763
686.114	0.0160566
686.192	0.0161268
686.271	0.0161076
686.349	0.0159377
686.427	0.0161024
686.505	0.0161811
686.583	0.0162564
686.661	0.0162225
686.739	0.0161514
686.817	0.0162263
686.896	0.0162273
686.974	0.0163448
687.052	0.0162415
687.130	0.0161814
687.208	0.0161108
687.286	0.0161878
687.364	0.0161431
687.442	0.0162590
687.521	0.0161607
687.599	0.0159092
687.677	0.0161097
687.755	0.0161311
687.833	0.0161414
687.911	0.0162857
687.989	0.0164402
688.067	0.0162826
688.146	0.0160892
688.224	0.0163734
688.302	0.0164027
688.380	0.0163774
688.458	0.0163216
688.536	0.0162115
688.614	0.0161559
688.692	0.0161311
688.771	0.0161124
688.849	0.0161595
688.927	0.0162720
689.005	0.0162154
689.083	0.0161401
689.161	0.0161530
689.239	0.0161826
689.317	0.0161304
689.396	0.0161368
689.474	0.0162407
689.552	0.0161805
689.630	0.0161633
689.708	0.0163017
689.786	0.0160854
689.864	0.0161079
689.942	0.0162331
690.021	0.0161315
690.099	0.0160765
690.177	0.0161288
690.255	0.0160265
690.333	0.0160393
690.411	0.0159966
690.489	0.0160291
690.567	0.0159657
690.646	0.0162119
690.724	0.0162138
690.802	0.0162724
690.880	0.0162824
690.958	0.0164074
691.036	0.0164489
691.114	0.0162568
691.192	0.0162453
691.271	0.0163550
691.349	0.0162512
691.427	0.0161662
691.505	0.0161007
691.583	0.0159834
691.661	0.0159991
691.739	0.0160075
691.817	0.0161345
691.896	0.0162050
691.974	0.0160208
692.052	0.0161344
692.130	0.0161116
692.208	0.0160558
692.286	0.0162070
692.364	0.0161256
692.442	0.0161735
692.521	0.0161054
692.599	0.0161916
692.677	0.0160275
692.755	0.0159717
692.833	0.0158855
692.911	0.0160609
692.989	0.0160474
693.067	0.0160616
693.146	0.0160002
693.224	0.0159469
693.302	0.0160217
693.380	0.0160712
693.458	0.0159460
693.536	0.0160473
693.614	0.0159939
693.692	0.0160605
693.771	0.0161845
693.849	0.0161931
693.927	0.0161452
694.005	0.0160828
694.083	0.0160714
694.161	0.0160722
694.239	0.0160206
694.317	0.0161781
694.396	0.0162211
694.474	0.0160799
694.552	0.0161775
694.630	0.0161302
694.708	0.0160636
694.786	0.0161884
694.864	0.0161491
694.942	0.0162895
695.021	0.0163029
695.099	0.0163621
695.177	0.0161993
695.255	0.0163280
695.333	0.0164240
695.411	0.0162309
695.489	0.0163218
695.567	0.0162753
695.646	0.0162818
695.724	0.0162894
695.802	0.0161252
695.880	0.0159720
695.958	0.0159012
696.036	0.0160699
696.114	0.0161245
696.192	0.0160426
696.271	0.0160932
696.349	0.0161084
696.427	0.0162682
696.505	0.0162218
696.583	0.0160799
696.661	0.0161250
696.739	0.0161526
696.817	0.0160776
696.896	0.0161562
696.974	0.0160321
697.052	0.0161543
697.130	0.0161417
697.208	0.0160989
697.286	0.0160199
697.364	0.0159708
697.442	0.0159347
697.521	0.0157800
697.599	0.0158852
697.677	0.0158102
697.755	0.0157184
697.833	0.0157476
697.911	0.0156239
697.989	0.0155727
698.067	0.0155781
698.146	0.0156815
698.224	0.0155627
698.302	0.0156879
698.380	0.0156798
698.458	0.0157605
698.536	0.0159029
698.614	0.0159622
698.692	0.0160172
698.771	0.0160588
698.849	0.0161375
698.927	0.0161385
699.005	0.0164507
699.083	0.0163965
699.161	0.0164662
699.239	0.0164545
699.317	0.0165084
699.396	0.0164944
699.474	0.0165195
699.552	0.0164920
699.630	0.0164729
699.708	0.0163799
699.786	0.0164336
699.864	0.0164501
699.942	0.0164265
700.021	0.0163564
700.099	0.0164220
700.177	0.0163445
700.255	0.0163371
700.333	0.0163440
700.411	0.0162952
700.489	0.0162961
700.567	0.0162430
700.646	0.0163536
700.724	0.0163179
700.802	0.0163316
700.880	0.0163521
700.958	0.0161395
701.036	0.0162801
701.114	0.0162645
701.192	0.0161465
701.271	0.0160284
701.349	0.0160372
701.427	0.0159099
701.505	0.0159988
701.583	0.0158139
701.661	0.0156270
701.739	0.0157381
701.817	0.0158899
701.896	0.0158441
701.974	0.0157892
702.052	0.0159370
702.130	0.0158607
702.208	0.0158546
702.286	0.0158334
702.364	0.0159589
702.442	0.0160770
702.521	0.0161308
702.599	0.0160953
702.677	0.0160591
702.755	0.0162126
702.833	0.0160889
702.911	0.0161825
702.989	0.0162536
703.067	0.0162753
703.146	0.0161506
703.224	0.0160648
703.302	0.0160597
703.380	0.0161186
703.458	0.0160108
703.536	0.0160184
703.614	0.0158537
703.692	0.0158945
703.771	0.0160534
703.849	0.0159808
703.927	0.0158437
704.005	0.0158249
704.083	0.0156660
704.161	0.0157019
704.239	0.0156157
704.317	0.0157603
704.396	0.0156229
704.474	0.0154611
704.552	0.0155540
704.630	0.0155774
704.708	0.0157137
704.786	0.0157146
704.864	0.0158865
704.942	0.0159943
705.021	0.0160806
705.099	0.0163360
705.177	0.0164352
705.255	0.0167193
705.333	0.0169503
705.411	0.0168470
705.489	0.0168840
705.567	0.0170338
705.646	0.0171008
705.724	0.0170559
705.802	0.0169396
705.880	0.0169739
705.958	0.0168613
706.036	0.0166439
706.114	0.0166352
706.192	0.0164285
706.271	0.0163495
706.349	0.0162836
706.427	0.0160610
706.505	0.0160773
706.583	0.0160735
706.661	0.0159735
706.739	0.0157999
706.817	0.0159302
706.896	0.0160696
706.974	0.0159280
707.052	0.0160590
707.130	0.0164061
707.208	0.0163406
707.286	0.0165166
707.364	0.0166290
707.442	0.0168083
707.521	0.0166571
707.599	0.0166982
707.677	0.0166094
707.755	0.0163451
707.833	0.0163691
707.911	0.0160426
707.989	0.0158721
708.067	0.0157523
708.146	0.0153433
708.224	0.0150355
708.302	0.0149299
708.380	0.0146578
708.458	0.0144482
708.536	0.0144176
708.614	0.0145071
708.692	0.0144768
708.771	0.0145841
708.849	0.0147994
708.927	0.0149123
709.005	0.0150758
709.083	0.0153198
709.161	0.0156054
709.239	0.0158096
709.317	0.0161391
709.396	0.0162661
709.474	0.0165758
709.552	0.0167100
709.630	0.0168626
709.708	0.0170660
709.786	0.0172952
709.864	0.0172987
709.942	0.0173888
710.021	0.0175284
710.099	0.0175014
710.177	0.0172543
710.255	0.0173366
710.333	0.0173071
710.411	0.0171732
710.489	0.0169167
710.567	0.0167292
710.646	0.0164865
710.724	0.0163886
710.802	0.0162715
710.880	0.0161798
710.958	0.0160463
711.036	0.0159701
711.114	0.0156826
711.192	0.0155062
711.271	0.0153484
711.349	0.0152690
711.427	0.0151968
711.505	0.0150680
711.583	0.0151263
711.661	0.0151721
711.739	0.0152411
711.817	0.0151645
711.896	0.0153866
711.974	0.0159198
712.052	0.0161040
712.130	0.0164827
712.208	0.0167240
712.286	0.0170509
712.364	0.0173643
712.442	0.0176791
712.521	0.0179198
712.599	0.0179735
712.677	0.0181449
712.755	0.0183978
712.833	0.0182208
712.911	0.0182458
712.989	0.0182175
713.067	0.0178783
713.146	0.0176472
713.224	0.0173190
713.302	0.0168988
713.380	0.0168079
713.458	0.0164744
713.536	0.0159590
713.614	0.0155701
713.692	0.0154434
713.771	0.0151280
713.849	0.0149566
713.927	0.0149216
714.005	0.0146276
714.083	0.0146488
714.161	0.0143565
714.239	0.0144283
714.317	0.0143756
714.396	0.0144094
714.474	0.0143128
714.552	0.0142154
714.630	0.0140606
714.708	0.0140085
714.786	0.0141846
714.864	0.0141582
714.942	0.0141875
715.021	0.0142294
715.099	0.0143530
715.177	0.0143658
715.255	0.0145322
715.333	0.0149184
715.411	0.0150600
715.489	0.0153922
715.567	0.0156461
715.646	0.0160308
715.724	0.0162299
715.802	0.0164211
715.880	0.0167669
715.958	0.0170918
716.036	0.0172688
716.114	0.0175933
716.192	0.0178534
716.271	0.0178763
716.349	0.0181190
716.427	0.0184150
716.505	0.0186150
716.583	0.0186572
716.661	0.0188409
716.739	0.0187506
716.817	0.0187229
716.896	0.0184959
716.974	0.0184888
717.052	0.0181191
717.130	0.0178199
717.208	0.0174309
717.286	0.0170384
717.364	0.0166473
717.442	0.0161964
717.521	0.0157379
717.599	0.0154414
717.677	0.0150165
717.755	0.0146842
717.833	0.0145441
717.911	0.0143421
717.989	0.0143094
718.067	0.0142310
718.146	0.0139658
718.224	0.0140903
718.302	0.0143275
718.380	0.0145471
718.458	0.0148569
718.536	0.0152355
718.614	0.0156342
718.692	0.0160794
718.771	0.0165447
718.849	0.0169161
718.927	0.0174076
719.005	0.0177621
719.083	0.0183170
719.161	0.0185759
719.239	0.0187476
719.317	0.0187683
719.396	0.0187374
719.474	0.0188058
719.552	0.0186189
719.630	0.0185693
719.708	0.0182865
719.786	0.0179652
719.864	0.0176701
719.942	0.0174055
720.021	0.0170190
720.099	0.0166839
720.177	0.0162836
720.255	0.0157523
720.333	0.0155206
720.411	0.0153604
720.489	0.0148076
720.567	0.0145784
720.646	0.0143638
720.724	0.0140292
720.802	0.0136189
720.880	0.0134501
720.958	0.0131305
721.036	0.0128538
721.114	0.0124821
721.192	0.0122180
721.271	0.0120973
721.349	0.0118180
721.427	0.0117456
721.505	0.0118179
721.583	0.0119094
721.661	0.0119833
721.739	0.0122152
721.817	0.0127368
721.896	0.0130180
721.974	0.0135653
722.052	0.0141410
722.130	0.0147055
722.208	0.0152953
722.286	0.0160673
722.364	0.0166939
722.442	0.0173315
722.521	0.0179620
722.599	0.0187669
722.677	0.0195232
722.755	0.0197224
722.833	0.0203493
722.911	0.0207296
722.989	0.0211300
723.067	0.0214823
723.146	0.0213944
723.224	0.0215032
723.302	0.0213734
723.380	0.0211376
723.458	0.0208847
723.536	0.0203349
723.614	0.0199250
723.692	0.0194242
723.771	0.0188631
723.849	0.0182316
723.927	0.0174012
724.005	0.0167510
724.083	0.0163561
724.161	0.0156819
724.239	0.0151094
724.317	0.0147873
724.396	0.0141431
724.474	0.0140186
724.552	0.0137949
724.630	0.0137545
724.708	0.0136250
724.786	0.0139994
724.864	0.0141496
724.942	0.0143822
725.021	0.0147647
725.099	0.0152383
725.177	0.0153545
725.255	0.0159914
725.333	0.0162377
725.411	0.0165462
725.489	0.0168582
725.567	0.0169894
725.646	0.0170539
725.724	0.0171367
725.802	0.0169339
725.880	0.0169831
725.958	0.0169326
726.036	0.0166424
726.114	0.0163062
726.192	0.0160269
726.271	0.0159136
726.349	0.0155219
726.427	0.0153401
726.505	0.0151160
726.583	0.0149760
726.661	0.0148302
726.739	0.0147648
726.817	0.0147182
726.896	0.0146349
726.974	0.0146290
727.052	0.0146218
727.130	0.0146073
727.208	0.0144794
727.286	0.0144447
727.364	0.0143867
727.442	0.0143664
727.521	0.0142199
727.599	0.0140394
727.677	0.0139527
727.755	0.0137187
727.833	0.0137655
727.911	0.0134669
727.989	0.0135830
728.067	0.0135100
728.146	0.0136964
728.224	0.0139538
728.302	0.0142511
728.380	0.0144893
728.458	0.0148526
728.536	0.0154284
728.614	0.0157879
728.692	0.0162509
728.771	0.0166267
728.849	0.0172424
728.927	0.0177203
729.005	0.0183036
729.083	0.0187679
729.161	0.0190809
729.239	0.0194357
729.317	0.0198620
729.396	0.0201266
729.474	0.0201804
729.552	0.0201491
729.630	0.0202406
729.708	0.0200900
729.786	0.0196997
729.864	0.0194645
729.942	0.0187968
730.021	0.0183100
730.099	0.0180694
730.177	0.0174044
730.255	0.0168224
730.333	0.0162997
730.411	0.0158049
730.489	0.0152583
730.567	0.0148055
730.646	0.0145510
730.724	0.0143732
730.802	0.0142747
730.880	0.0140007
730.958	0.0140353
731.036	0.0144463
731.114	0.0147630
731.192	0.0151070
731.271	0.0155825
731.349	0.0163113
731.427	0.0169472
731.505	0.0176074
731.583	0.0182458
731.661	0.0186507
731.739	0.0190961
731.817	0.0195525
731.896	0.0196765
731.974	0.0194886
732.052	0.0193654
732.130	0.0191500
732.208	0.0186890
732.286	0.0181799
732.364	0.0175176
732.442	0.0173369
732.521	0.0166428
732.599	0.0162010
732.677	0.0157465
732.755	0.0153606
732.833	0.0150316
732.911	0.0147624
732.989	0.0145895
733.067	0.0142418
733.146	0.0142167
733.224	0.0139521
733.302	0.0136871
733.380	0.0135889
733.458	0.0132375
733.536	0.0129628
733.614	0.0126416
733.692	0.0123673
733.771	0.0119382
733.849	0.0117764
733.927	0.0114700
734.005	0.0113979
734.083	0.0111270
734.161	0.0111301
734.239	0.0112097
734.317	0.0115108
734.396	0.0117359
734.474	0.0117841
734.552	0.0122392
734.630	0.0127485
734.708	0.0134669
734.786	0.0140511
734.864	0.0148549
734.942	0.0156626
735.021	0.0163653
735.099	0.0170481
735.177	0.0178305
735.255	0.0183707
735.333	0.0188618
735.411	0.0194417
735.489	0.0196741
735.567	0.0197247
735.646	0.0195333
735.724	0.0195621
735.802	0.0193829
735.880	0.0191515
735.958	0.0187447
736.036	0.0185725
736.114	0.0182713
736.192	0.0178892
736.271	0.0179362
736.349	0.0177971
736.427	0.0175603
736.505	0.0176718
736.583	0.0177759
736.661	0.0178972
736.739	0.0181463
736.817	0.0185675
736.896	0.0188157
736.974	0.0190485
737.052	0.0191898
737.130	0.0194444
737.208	0.0198262
737.286	0.0199961
737.364	0.0201288
737.442	0.0204520
737.521	0.0204694
737.599	0.0204513
737.677	0.0205034
737.755	0.0205678
737.833	0.0203624
737.911	0.0201752
737.989	0.0199497
738.067	0.0194980
738.146	0.0190957
738.224	0.0184845
738.302	0.0178197
738.380	0.0170702
738.458	0.0160370
738.536	0.0151599
738.614	0.0143956
738.692	0.0135204
738.771	0.0126212
738.849	0.0120075
738.927	0.0114088
739.005	0.0108738
739.083	0.0105536
739.161	0.0101141
739.239	0.00990921
739.317	0.00984451
739.396	0.00970940
739.474	0.00981407
739.552	0.00974380
739.630	0.0100481
739.708	0.0102625
739.786	0.0104317
739.864	0.0106179
739.942	0.0109805
740.021	0.0112109
740.099	0.0116659
740.177	0.0118948
740.255	0.0122609
740.333	0.0127024
740.411	0.0131166
740.489	0.0135992
740.567	0.0138457
740.646	0.0145211
740.724	0.0149217
740.802	0.0153686
740.880	0.0160563
740.958	0.0164624
741.036	0.0168966
741.114	0.0172892
741.192	0.0175709
741.271	0.0177789
741.349	0.0180308
741.427	0.0179736
741.505	0.0181084
741.583	0.0181173
741.661	0.0181850
741.739	0.0183340
741.817	0.0182999
741.896	0.0184571
741.974	0.0185084
742.052	0.0186037
742.130	0.0189292
742.208	0.0191534
742.286	0.0195226
742.364	0.0196358
742.442	0.0197686
742.521	0.0201154
742.599	0.0203092
742.677	0.0205255
742.755	0.0206665
742.833	0.0208157
742.911	0.0208891
742.989	0.0207626
743.067	0.0206274
743.146	0.0206292
743.224	0.0204893
743.302	0.0204198
743.380	0.0200246
743.458	0.0197434
743.536	0.0194770
743.614	0.0193011
743.692	0.0188927
743.771	0.0184933
743.849	0.0181178
743.927	0.0176292
744.005	0.0170916
744.083	0.0166517
744.161	0.0160639
744.239	0.0155622
744.317	0.0149361
744.396	0.0143924
744.474	0.0140695
744.552	0.0136347
744.630	0.0131030
744.708	0.0129094
744.786	0.0125637
744.864	0.0122459
744.942	0.0120462
745.021	0.0118552
745.099	0.0118625
745.177	0.0116149
745.255	0.0116902
745.333	0.0115661
745.411	0.0114822
745.489	0.0115420
745.567	0.0116312
745.646	0.0118477
745.724	0.0118099
745.802	0.0120300
745.880	0.0121645
745.958	0.0123650
746.036	0.0125738
746.114	0.0128366
746.192	0.0133478
746.271	0.0137472
746.349	0.0139297
746.427	0.0144572
746.505	0.0147505
746.583	0.0150762
746.661	0.0155944
746.739	0.0159518
746.817	0.0162857
746.896	0.0163965
746.974	0.0167217
747.052	0.0170139
747.130	0.0170585
747.208	0.0170202
747.286	0.0170979
747.364	0.0172646
747.442	0.0172432
747.521	0.0171833
747.599	0.0173050
747.677	0.0173688
747.755	0.0175406
747.833	0.0175787
747.911	0.0179747
747.989	0.0181555
748.067	0.0184602
748.146	0.0187721
748.224	0.0191523
748.302	0.0195771
748.380	0.0197094
748.458	0.0199251
748.536	0.0199326
748.614	0.0199623
748.692	0.0199635
748.771	0.0197621
748.849	0.0196569
748.927	0.0193898
749.005	0.0192268
749.083	0.0188972
749.161	0.0188239
749.239	0.0185269
749.317	0.0183630
749.396	0.0180879
749.474	0.0180078
749.552	0.0178389
749.630	0.0175090
749.708	0.0172497
749.786	0.0170319
749.864	0.0164570
749.942	0.0161008
750.021	0.0155488
750.099	0.0152171
750.177	0.0149947
750.255	0.0145990
750.333	0.0141674
750.411	0.0139844
750.489	0.0137370
750.567	0.0135970
750.646	0.0134961
750.724	0.0132809
750.802	0.0131251
750.880	0.0129334
750.958	0.0129668
751.036	0.0128782
751.114	0.0128152
751.192	0.0130117
751.271	0.0129585
751.349	0.0131075
751.427	0.0131041
751.505	0.0134521
751.583	0.0138019
751.661	0.0140347
751.739	0.0143340
751.817	0.0147956
751.896	0.0150876
751.974	0.0153889
752.052	0.0157198
752.130	0.0159885
752.208	0.0161232
752.286	0.0163742
752.364	0.0165167
752.442	0.0166440
752.521	0.0167866
752.599	0.0168151
752.677	0.0169200
752.755	0.0168803
752.833	0.0168639
752.911	0.0169269
752.989	0.0170795
753.067	0.0169194
753.146	0.0170214
753.224	0.0170378
753.302	0.0170560
753.380	0.0169547
753.458	0.0169016
753.536	0.0170157
753.614	0.0171837
753.692	0.0171706
753.771	0.0172286
753.849	0.0171915
753.927	0.0173273
754.005	0.0173238
754.083	0.0170965
754.161	0.0171661
754.239	0.0171419
754.317	0.0172572
754.396	0.0171711
754.474	0.0170046
754.552	0.0170605
754.630	0.0170418
754.708	0.0171751
754.786	0.0170825
754.864	0.0170675
754.942	0.0170172
755.021	0.0172345
755.099	0.0172107
755.177	0.0172979
755.255	0.0173167
755.333	0.0171939
755.411	0.0171996
755.489	0.0170055
755.567	0.0169463
755.646	0.0166966
755.724	0.0165388
755.802	0.0163110
755.880	0.0160102
755.958	0.0157970
756.036	0.0153982
756.114	0.0152885
756.192	0.0151064
756.271	0.0147858
756.349	0.0144339
756.427	0.0143404
756.505	0.0141943
756.583	0.0139460
756.661	0.0138718
756.739	0.0139741
756.817	0.0139062
756.896	0.0140244
756.974	0.0138763
757.052	0.0140476
757.130	0.0141447
757.208	0.0143893
757.286	0.0144039
757.364	0.0147115
757.442	0.0149117
757.521	0.0152779
757.599	0.0157137
757.677	0.0158801
757.755	0.0161263
757.833	0.0162983
757.911	0.0164845
757.989	0.0165419
758.067	0.0167887
758.146	0.0170860
758.224	0.0170413
758.302	0.0170443
758.380	0.0171130
758.458	0.0171572
758.536	0.0170500
758.614	0.0171997
758.692	0.0172266
758.771	0.0169567
758.849	0.0171372
758.927	0.0171482
759.005	0.0171333
759.083	0.0171835
759.161	0.0170119
759.239	0.0170068
759.317	0.0169898
759.396	0.0168998
759.474	0.0169525
759.552	0.0169395
759.630	0.0169335
759.708	0.0166605
759.786	0.0166714
759.864	0.0166987
759.942	0.0166425
760.021	0.0166952
760.099	0.0166397
760.177	0.0166833
760.255	0.0165401
760.333	0.0168338
760.411	0.0168222
760.489	0.0167831
760.567	0.0168912
760.646	0.0168707
760.724	0.0170102
760.802	0.0168462
760.880	0.0169212
760.958	0.0170322
761.036	0.0170452
761.114	0.0169208
761.192	0.0169044
761.271	0.0168902
761.349	0.0167322
761.427	0.0164315
761.505	0.0164537
761.583	0.0162640
761.661	0.0160477
761.739	0.0159205
761.817	0.0155862
761.896	0.0153970
761.974	0.0150830
762.052	0.0148540
762.130	0.0144972
762.208	0.0143563
762.286	0.0140952
762.364	0.0139281
762.442	0.0138060
762.521	0.0136839
762.599	0.0133488
762.677	0.0135239
762.755	0.0135689
762.833	0.0136240
762.911	0.0138102
762.989	0.0139051
763.067	0.0143322
763.146	0.0145602
763.224	0.0146512
763.302	0.0150864
763.380	0.0154828
763.458	0.0158484
763.536	0.0161629
763.614	0.0164428
763.692	0.0166318
763.771	0.0168291
763.849	0.0171221
763.927	0.0172060
764.005	0.0173322
764.083	0.0175256
764.161	0.0175418
764.239	0.0175832
764.317	0.0175720
764.396	0.0175620
764.474	0.0177479
764.552	0.0176205
764.630	0.0175872
764.708	0.0174907
764.786	0.0173299
764.864	0.0172579
764.942	0.0170433
765.021	0.0170500
765.099	0.0169624
765.177	0.0165877
765.255	0.0163848
765.333	0.0163703
765.411	0.0161716
765.489	0.0158701
765.567	0.0157632
765.646	0.0157493
765.724	0.0157118
765.802	0.0157528
765.880	0.0160238
765.958	0.0158400
766.036	0.0160375
766.114	0.0162865
766.192	0.0164163
766.271	0.0165894
766.349	0.0168793
766.427	0.0169901
766.505	0.0170863
766.583	0.0172783
766.661	0.0174661
766.739	0.0174818
766.817	0.0174710
766.896	0.0172870
766.974	0.0172459
767.052	0.0172632
767.130	0.0170415
767.208	0.0168190
767.286	0.0166207
767.364	0.0162853
767.442	0.0160789
767.521	0.0158969
767.599	0.0156030
767.677	0.0155437
767.755	0.0154608
767.833	0.0151628
767.911	0.0148904
767.989	0.0148912
768.067	0.0147861
768.146	0.0146792
768.224	0.0145941
768.302	0.0146164
768.380	0.0144530
768.458	0.0145819
768.536	0.0145035
768.614	0.0146479
768.692	0.0147766
768.771	0.0149638
768.849	0.0150307
768.927	0.0149343
769.005	0.0154197
769.083	0.0155439
769.161	0.0156796
769.239	0.0157795
769.317	0.0160403
769.396	0.0160548
769.474	0.0161723
769.552	0.0162867
769.630	0.0163042
769.708	0.0165076
769.786	0.0164230
769.864	0.0164005
769.942	0.0165134
770.021	0.0165230
770.099	0.0164972
770.177	0.0165465
770.255	0.0165113
770.333	0.0162904
770.411	0.0162566
770.489	0.0161931
770.567	0.0160253
770.646	0.0160036
770.724	0.0158663
770.802	0.0157988
770.880	0.0156561
770.958	0.0156218
771.036	0.0154020
771.114	0.0153989
771.192	0.0154011
771.271	0.0153210
771.349	0.0153396
771.427	0.0153394
771.505	0.0154008
771.583	0.0155746
771.661	0.0157532
771.739	0.0158187
771.817	0.0161007
771.896	0.0164491
771.974	0.0166927
772.052	0.0168896
772.130	0.0172298
772.208	0.0172792
772.286	0.0176051
772.364	0.0178506
772.442	0.0179221
772.521	0.0181104
772.599	0.0178339
772.677	0.0179970
772.755	0.0180553
772.833	0.0179240
772.911	0.0179411
772.989	0.0176865
773.067	0.0173622
773.146	0.0173492
773.224	0.0171395
773.302	0.0167590
773.380	0.0164015
773.458	0.0163161
773.536	0.0161320
773.614	0.0158775
773.692	0.0155740
773.771	0.0153238
773.849	0.0152744
773.927	0.0149476
774.005	0.0149143
774.083	0.0148736
774.161	0.0148565
774.239	0.0146612
774.317	0.0147777
774.396	0.0148031
774.474	0.0149135
774.552	0.0151577
774.630	0.0152997
774.708	0.0152574
774.786	0.0155987
774.864	0.0157137
774.942	0.0159331
775.021	0.0159225
775.099	0.0160121
775.177	0.0163779
775.255	0.0163304
775.333	0.0166628
775.411	0.0165501
775.489	0.0166141
775.567	0.0166914
775.646	0.0166801
775.724	0.0167564
775.802	0.0165871
775.880	0.0166610
775.958	0.0165698
776.036	0.0164028
776.114	0.0163100
776.192	0.0160498
776.271	0.0161208
776.349	0.0158937
776.427	0.0157732
776.505	0.0156673
776.583	0.0156463
776.661	0.0153954
776.739	0.0152934
776.817	0.0152705
776.896	0.0153134
776.974	0.0152416
777.052	0.0151564
777.130	0.0154352
777.208	0.0154509
777.286	0.0154263
777.364	0.0155684
777.442	0.0156812
777.521	0.0159476
777.599	0.0162199
777.677	0.0162505
777.755	0.0163509
777.833	0.0165264
777.911	0.0166789
777.989	0.0168838
778.067	0.0169607
778.146	0.0170657
778.224	0.0172184
778.302	0.0171909
778.380	0.0172188
778.458	0.0172166
778.536	0.0172331
778.614	0.0171328
778.692	0.0169312
778.771	0.0169124
778.849	0.0167691
778.927	0.0166496
779.005	0.0164568
779.083	0.0163532
779.161	0.0164095
779.239	0.0160448
779.317	0.0160738
779.396	0.0160999
779.474	0.0158207
779.552	0.0157537
779.630	0.0157683
779.708	0.0157884
779.786	0.0156496
779.864	0.0156542
779.942	0.0156277
780.021	0.0155159
780.099	0.0156854
780.177	0.0156317
780.255	0.0157236
780.333	0.0158324
780.411	0.0158523
780.489	0.0159007
780.567	0.0158778
780.646	0.0160182
780.724	0.0162454
780.802	0.0163857
780.880	0.0164319
780.958	0.0164227
781.036	0.0165655
781.114	0.0167052
781.192	0.0168649
781.271	0.0169709
781.349	0.0171040
781.427	0.0171867
781.505	0.0171551
781.583	0.0171856
781.661	0.0171357
781.739	0.0171847
781.817	0.0171054
781.896	0.0171040
781.974	0.0168406
782.052	0.0166496
782.130	0.0164882
782.208	0.0163638
782.286	0.0162507
782.364	0.0159440
782.442	0.0157407
782.521	0.0156080
782.599	0.0154971
782.677	0.0153654
782.755	0.0152225
782.833	0.0151078
782.911	0.0150700
782.989	0.0150537
783.067	0.0149957
783.146	0.0152369
783.224	0.0151257
783.302	0.0152556
783.380	0.0152565
783.458	0.0154118
783.536	0.0155930
783.614	0.0156060
783.692	0.0157403
783.771	0.0159666
783.849	0.0161911
783.927	0.0162267
784.005	0.0164902
784.083	0.0165264
784.161	0.0164647
784.239	0.0166136
784.317	0.0167641
784.396	0.0167677
784.474	0.0166859
784.552	0.0167679
784.630	0.0167760
784.708	0.0166620
784.786	0.0166180
784.864	0.0164137
784.942	0.0164217
785.021	0.0163624
785.099	0.0162642
785.177	0.0162524
785.255	0.0161355
785.333	0.0159879
785.411	0.0158228
785.489	0.0158306
785.567	0.0159051
785.646	0.0157638
785.724	0.0157318
785.802	0.0157176
785.880	0.0155558
785.958	0.0156538
786.036	0.0158209
786.114	0.0157441
786.192	0.0157606
786.271	0.0158048
786.349	0.0157224
786.427	0.0158485
786.505	0.0159417
786.583	0.0160014
786.661	0.0160169
786.739	0.0160831
786.817	0.0164087
786.896	0.0163901
786.974	0.0164994
787.052	0.0165037
787.130	0.0165749
787.208	0.0166155
787.286	0.0167277
787.364	0.0166843
787.442	0.0167586
787.521	0.0166440
787.599	0.0165483
787.677	0.0166924
787.755	0.0166456
787.833	0.0167678
787.911	0.0167052
787.989	0.0164937
788.067	0.0163267
788.146	0.0165424
788.224	0.0163609
788.302	0.0162725
788.380	0.0162300
788.458	0.0161642
788.536	0.0161256
788.614	0.0161759
788.692	0.0160704
788.771	0.0159486
788.849	0.0158916
788.927	0.0158414
789.005	0.0158912
789.083	0.0158306
789.161	0.0159168
789.239	0.0159690
789.317	0.0157815
789.396	0.0161001
789.474	0.0160899
789.552	0.0162753
789.630	0.0161755
789.708	0.0162345
789.786	0.0162652
789.864	0.0162618
789.942	0.0162324
790.021	0.0161811
790.099	0.0163371
790.177	0.0161233
790.255	0.0161317
790.333	0.0162940
790.411	0.0161156
790.489	0.0161147
790.567	0.0160934
790.646	0.0158765
790.724	0.0159407
790.802	0.0158288
790.880	0.0158839
790.958	0.0158512
791.036	0.0156242
791.114	0.0154759
791.192	0.0155640
791.271	0.0156155
791.349	0.0154735
791.427	0.0154948
791.505	0.0153844
791.583	0.0154498
791.661	0.0154350
791.739	0.0156723
791.817	0.0157040
791.896	0.0157368
791.974	0.0157374
792.052	0.0158117
792.130	0.0159962
792.208	0.0161238
792.286	0.0159949
792.364	0.0161466
792.442	0.0163280
792.521	0.0163311
792.599	0.0163400
792.677	0.0164215
792.755	0.0165292
792.833	0.0166273
792.911	0.0166900
792.989	0.0165356
793.067	0.0166747
793.146	0.0167563
793.224	0.0166053
793.302	0.0167821
793.380	0.0165995
793.458	0.0165464
793.536	0.0165132
793.614	0.0164704
793.692	0.0164165
793.771	0.0162884
793.849	0.0163479
793.927	0.0162066
794.005	0.0160147
794.083	0.0160833
794.161	0.0160347
794.239	0.0159812
794.317	0.0159963
794.396	0.0158803
794.474	0.0157024
794.552	0.0159277
794.630	0.0157626
794.708	0.0158715
794.786	0.0157882
794.864	0.0156109
794.942	0.0157409
795.021	0.0158180
795.099	0.0159535
795.177	0.0158618
795.255	0.0159195
795.333	0.0160116
795.411	0.0162081
795.489	0.0163890
795.567	0.0163970
795.646	0.0165011
795.724	0.0164989
795.802	0.0166227
795.880	0.0166529
795.958	0.0167140
796.036	0.0168327
796.114	0.0166911
796.192	0.0166836
796.271	0.0167873
796.349	0.0166602
796.427	0.0167966
796.505	0.0166228
796.583	0.0166984
796.661	0.0164635
796.739	0.0165801
796.817	0.0164285
796.896	0.0163974
796.974	0.0164114
797.052	0.0161798
797.130	0.0160446
797.208	0.0159913
797.286	0.0159181
797.364	0.0158009
797.442	0.0158801
797.521	0.0158797
797.599	0.0157639
797.677	0.0156475
797.755	0.0157383
797.833	0.0156194
797.911	0.0156457
797.989	0.0157705
798.067	0.0157625
798.146	0.0156931
798.224	0.0158463
798.302	0.0158199
798.380	0.0157996
798.458	0.0157806
798.536	0.0158769
798.614	0.0161121
798.692	0.0159505
798.771	0.0161489
798.849	0.0162604
798.927	0.0163569
799.005	0.0163077
799.083	0.0163748
799.161	0.0164273
799.239	0.0163499
799.317	0.0164661
799.396	0.0164693
799.474	0.0166211
799.552	0.0165765
799.630	0.0166552
799.708	0.0165212
799.786	0.0164731
799.864	0.0163600
799.942	0.0163110
800.021	0.0164056
800.099	0.0163935
800.177	0.0162994
800.255	0.0162009
800.333	0.0162315
800.411	0.0161090
800.489	0.0160909
800.567	0.0161000
800.646	0.0159541
800.724	0.0158587
800.802	0.0158661
800.880	0.0158906
800.958	0.0159445
801.036	0.0158725
801.114	0.0159706
801.192	0.0158630
801.271	0.0159812
801.349	0.0159507
801.427	0.0159368
801.505	0.0161988
801.583	0.0160358
801.661	0.0160920
801.739	0.0162026
801.817	0.0162724
801.896	0.0162238
801.974	0.0164110
802.052	0.0163461
802.130	0.0164820
802.208	0.0164508
802.286	0.0164935
802.364	0.0167468
802.442	0.0166592
802.521	0.0166272
802.599	0.0166491
802.677	0.0166147
802.755	0.0166645
802.833	0.0167062
802.911	0.0165137
802.989	0.0166148
803.067	0.0164513
803.146	0.0164702
803.224	0.0162435
803.302	0.0162090
803.380	0.0161685
803.458	0.0162497
803.536	0.0161137
803.614	0.0160265
803.692	0.0159513
803.771	0.0159698
803.849	0.0158948
803.927	0.0158375
804.005	0.0158475
804.083	0.0159015
804.161	0.0158714
804.239	0.0159585
804.317	0.0159268
804.396	0.0159431
804.474	0.0159720
804.552	0.0158241
804.630	0.0159676
804.708	0.0160030
804.786	0.0160289
804.864	0.0161693
804.942	0.0161343
805.021	0.0162209
805.099	0.0162802
805.177	0.0163911
805.255	0.0162652
805.333	0.0162959
805.411	0.0164694
805.489	0.0163451
805.567	0.0165104
805.646	0.0164057
805.724	0.0162793
805.802	0.0161962
805.880	0.0162376
805.958	0.0160922
806.036	0.0159910
806.114	0.0159400
806.192	0.0159705
806.271	0.0158649
806.349	0.0157539
806.427	0.0158821
806.505	0.0157911
806.583	0.0156837
806.661	0.0157204
806.739	0.0157817
806.817	0.0158039
806.896	0.0157459
806.974	0.0158702
807.052	0.0159048
807.130	0.0158276
807.208	0.0159606
807.286	0.0158901
807.364	0.0160101
807.442	0.0161378
807.521	0.0160677
807.599	0.0159497
807.677	0.0159527
807.755	0.0161387
807.833	0.0162094
807.911	0.0162540
807.989	0.0163132
808.067	0.0162922
808.146	0.0163546
808.224	0.0163873
808.302	0.0163285
808.380	0.0164977
808.458	0.0163248
808.536	0.0165166
808.614	0.0164501
808.692	0.0164374
808.771	0.0164480
808.849	0.0164120
808.927	0.0163907
809.005	0.0164639
809.083	0.0164348
809.161	0.0163167
809.239	0.0162695
809.317	0.0162904
809.396	0.0163763
809.474	0.0161237
809.552	0.0159536
809.630	0.0160540
809.708	0.0158378
809.786	0.0157396
809.864	0.0157433
809.942	0.0157476
810.021	0.0158145
810.099	0.0157968
810.177	0.0157738
810.255	0.0157275
810.333	0.0158993
810.411	0.0158894
810.489	0.0158276
810.567	0.0160761
810.646	0.0161419
810.724	0.0161719
810.802	0.0162001
810.880	0.0161088
810.958	0.0162725
811.036	0.0162367
811.114	0.0164468
811.192	0.0161468
811.271	0.0161829
811.349	0.0162323
811.427	0.0161755
811.505	0.0160686
811.583	0.0161950
811.661	0.0162773
811.739	0.0161583
811.817	0.0159917
811.896	0.0160551
811.974	0.0160069
812.052	0.0159787
812.130	0.0158547
812.208	0.0160062
812.286	0.0160164
812.364	0.0160796
812.442	0.0159879
812.521	0.0160017
812.599	0.0160323
812.677	0.0160828
812.755	0.0160363
812.833	0.0160716
812.911	0.0162167
812.989	0.0163105
813.067	0.0161027
813.146	0.0162772
813.224	0.0165990
813.302	0.0164730
813.380	0.0163472
813.458	0.0164199
813.536	0.0165257
813.614	0.0164288
813.692	0.0163674
813.771	0.0164877
813.849	0.0164977
813.927	0.0164855
814.005	0.0164300
814.083	0.0162347
814.161	0.0162229
814.239	0.0161749
814.317	0.0162399
814.396	0.0160722
814.474	0.0160583
814.552	0.0159586
814.630	0.0158286
814.708	0.0159931
814.786	0.0158270
814.864	0.0159013
814.942	0.0158952
815.021	0.0157856
815.099	0.0156952
815.177	0.0156075
815.255	0.0157204
815.333	0.0157040
815.411	0.0157125
815.489	0.0158611
815.567	0.0159318
815.646	0.0159474
815.724	0.0160550
815.802	0.0161391
815.880	0.0162457
815.958	0.0162071
816.036	0.0162873
816.114	0.0162311
816.192	0.0163895
816.271	0.0163858
816.349	0.0165562
816.427	0.0165991
816.505	0.0165966
816.583	0.0165822
816.661	0.0166240
816.739	0.0164865
816.817	0.0164463
816.896	0.0164191
816.974	0.0163745
817.052	0.0165142
817.130	0.0164568
817.208	0.0162466
817.286	0.0161802
817.364	0.0162604
817.442	0.0160966
817.521	0.0160684
817.599	0.0160266
817.677	0.0159241
817.755	0.0159180
817.833	0.0159436
817.911	0.0157511
817.989	0.0156334
818.067	0.0156162
818.146	0.0155991
818.224	0.0156527
818.302	0.0156038
818.380	0.0156720
818.458	0.0154518
818.536	0.0155871
818.614	0.0156583
818.692	0.0156549
818.771	0.0155983
818.849	0.0156986
818.927	0.0157738
819.005	0.0158836
819.083	0.0159520
819.161	0.0160915
819.239	0.0162874
819.317	0.0164433
819.396	0.0165998
819.474	0.0165996
819.552	0.0166508
819.630	0.0167101
819.708	0.0168054
819.786	0.0169055
819.864	0.0168536
819.942	0.0167789
820.021	0.0166422
820.099	0.0168558
820.177	0.0166765
820.255	0.0168085
820.333	0.0167146
820.411	0.0166508
820.489	0.0165945
820.567	0.0165601
820.646	0.0165032
820.724	0.0163773
820.802	0.0162646
820.880	0.0162987
820.958	0.0162089
821.036	0.0162577
821.114	0.0162604
821.192	0.0162070
821.271	0.0161295
821.349	0.0161597
821.427	0.0161640
821.505	0.0161581
821.583	0.0160818
821.661	0.0160916
821.739	0.0162476
821.817	0.0160976
821.896	0.0163049
821.974	0.0163062
822.052	0.0161507
822.130	0.0161446
822.208	0.0161374
822.286	0.0161730
822.364	0.0161574
822.442	0.0160670
822.521	0.0158963
822.599	0.0161567
822.677	0.0160799
822.755	0.0160876
822.833	0.0159961
822.911	0.0159803
822.989	0.0160566
823.067	0.0160019
823.146	0.0157611
823.224	0.0157137
823.302	0.0158031
823.380	0.0157624
823.458	0.0158570
823.536	0.0157434
823.614	0.0156818
823.692	0.0156681
823.771	0.0156283
823.849	0.0157471
823.927	0.0156239
824.005	0.0157621
824.083	0.0157356
824.161	0.0156693
824.239	0.0156917
824.317	0.0157938
824.396	0.0158666
824.474	0.0159347
824.552	0.0160651
824.630	0.0159673
824.708	0.0159832
824.786	0.0160658
824.864	0.0162441
824.942	0.0162502
825.021	0.0162876
825.099	0.0164107
825.177	0.0164568
825.255	0.0164857
825.333	0.0164500
825.411	0.0164467
825.489	0.0164741
825.567	0.0164087
825.646	0.0164510
825.724	0.0165032
825.802	0.0165089
825.880	0.0165016
825.958	0.0162805
826.036	0.0164204
826.114	0.0163216
826.192	0.0162171
826.271	0.0162818
826.349	0.0162302
826.427	0.0161478
826.505	0.0162422
826.583	0.0162862
826.661	0.0162247
826.739	0.0162323
826.817	0.0163806
826.896	0.0162103
826.974	0.0162904
827.052	0.0163055
827.130	0.0163901
827.208	0.0162506
827.286	0.0162839
827.364	0.0163095
827.442	0.0163914
827.521	0.0162769
827.599	0.0163262
827.677	0.0163166
827.755	0.0162710
827.833	0.0162720
827.911	0.0161202
827.989	0.0161650
828.067	0.0161791
828.146	0.0161559
828.224	0.0162412
828.302	0.0162813
828.380	0.0161411
828.458	0.0160098
828.536	0.0161039
828.614	0.0162360
828.692	0.0161182
828.771	0.0160122
828.849	0.0158869
828.927	0.0158312
829.005	0.0158622
829.083	0.0158736
829.161	0.0159449
829.239	0.0156892
829.317	0.0159045
829.396	0.0158894
829.474	0.0158302
829.552	0.0158240
829.630	0.0158042
829.708	0.0158040
829.786	0.0158385
829.864	0.0157795
829.942	0.0158013
830.021	0.0156675
830.099	0.0158260
830.177	0.0158190
830.255	0.0159338
830.333	0.0159711
830.411	0.0158498
830.489	0.0159133
830.567	0.0157903
830.646	0.0158595
830.724	0.0159875
830.802	0.0158553
830.880	0.0157201
830.958	0.0158453
831.036	0.0158102
831.114	0.0157900
831.192	0.0155222
831.271	0.0156403
831.349	0.0156383
831.427	0.0157106
831.505	0.0156700
831.583	0.0155637
831.661	0.0157605
831.739	0.0158934
831.817	0.0158655
831.896	0.0159911
831.974	0.0160820
832.052	0.0160344
832.130	0.0161794
832.208	0.0164368
832.286	0.0163821
832.364	0.0166119
832.442	0.0167863
832.521	0.0166956
832.599	0.0168247
832.677	0.0168082
832.755	0.0168935
832.833	0.0168382
832.911	0.0170423
832.989	0.0171854
833.067	0.0168974
833.146	0.0169081
833.224	0.0169997
833.302	0.0169675
833.380	0.0169888
833.458	0.0169421
833.536	0.0167043
833.614	0.0166254
833.692	0.0167623
833.771	0.0167156
833.849	0.0165450
833.927	0.0165543
834.005	0.0163384
834.083	0.0163922
834.161	0.0163768
834.239	0.0162963
834.317	0.0163210
834.396	0.0162272
834.474	0.0161256
834.552	0.0159369
834.630	0.0159695
834.708	0.0157968
834.786	0.0158354
834.864	0.0157253
834.942	0.0157582
835.021	0.0155625
835.099	0.0156886
835.177	0.0156615
835.255	0.0157156
835.333	0.0155496
835.411	0.0156249
835.489	0.0156450
835.567	0.0156434
835.646	0.0156030
835.724	0.0158651
835.802	0.0157475
835.880	0.0156470
835.958	0.0155573
836.036	0.0155540
836.114	0.0156403
836.192	0.0154411
836.271	0.0154564
836.349	0.0154682
836.427	0.0154882
836.505	0.0154297
836.583	0.0154286
836.661	0.0154398
836.739	0.0154705
836.817	0.0154107
836.896	0.0153550
836.974	0.0155135
837.052	0.0153864
837.130	0.0154000
837.208	0.0154469
837.286	0.0155278
837.364	0.0156799
837.442	0.0159032
837.521	0.0157847
837.599	0.0157339
837.677	0.0159711
837.755	0.0160065
837.833	0.0160952
837.911	0.0161805
837.989	0.0164069
838.067	0.0165707
838.146	0.0165459
838.224	0.0167921
838.302	0.0169569
838.380	0.0170793
838.458	0.0172000
838.536	0.0171030
838.614	0.0173044
838.692	0.0172333
838.771	0.0172641
838.849	0.0171574
838.927	0.0172961
839.005	0.0174338
839.083	0.0171954
839.161	0.0171184
839.239	0.0171337
839.317	0.0170805
839.396	0.0168909
839.474	0.0166301
839.552	0.0166650
839.630	0.0167060
839.708	0.0165809
839.786	0.0164050
839.864	0.0163470
839.942	0.0162247
840.021	0.0161293
840.099	0.0160696
840.177	0.0160394
840.255	0.0160038
840.333	0.0159407
840.411	0.0159013
840.489	0.0158367
840.567	0.0158334
840.646	0.0157904
840.724	0.0157801
840.802	0.0157150
840.880	0.0157446
840.958	0.0156991
841.036	0.0157579
841.114	0.0157345
841.192	0.0156799
841.271	0.0157964
841.349	0.0157181
841.427	0.0158450
841.505	0.0158282
841.583	0.0158183
841.661	0.0158173
841.739	0.0158353
841.817	0.0156682
841.896	0.0155099
841.974	0.0155733
842.052	0.0156909
842.130	0.0155140
842.208	0.0155083
842.286	0.0155167
842.364	0.0155062
842.442	0.0154250
842.521	0.0154296
842.599	0.0155290
842.677	0.0152899
842.755	0.0154101
842.833	0.0155564
842.911	0.0155254
842.989	0.0156628
843.067	0.0157265
843.146	0.0158904
843.224	0.0159045
843.302	0.0159736
843.380	0.0160233
843.458	0.0161289
843.536	0.0161552
843.614	0.0162959
843.692	0.0163289
843.771	0.0163986
843.849	0.0164514
843.927	0.0166696
844.005	0.0166556
844.083	0.0165706
844.161	0.0167868
844.239	0.0168512
844.317	0.0169808
844.396	0.0169189
844.474	0.0170361
844.552	0.0169744
844.630	0.0170459
844.708	0.0169708
844.786	0.0168874
844.864	0.0169102
844.942	0.0169102
845.021	0.0166940
845.099	0.0168212
845.177	0.0167355
845.255	0.0166986
845.333	0.0165271
845.411	0.0164856
845.489	0.0164346
845.567	0.0164649
845.646	0.0163217
845.724	0.0162090
845.802	0.0161652
845.880	0.0162122
845.958	0.0160413
846.036	0.0159660
846.114	0.0159610
846.192	0.0158364
846.271	0.0159509
846.349	0.0158585
846.427	0.0158584
846.505	0.0157993
846.583	0.0156568
846.661	0.0157040
846.739	0.0157465
846.817	0.0157172
846.896	0.0156576
846.974	0.0158183
847.052	0.0157365
847.130	0.0156785
847.208	0.0158024
847.286	0.0158211
847.364	0.0157801
847.442	0.0158646
847.521	0.0157968
847.599	0.0158508
847.677	0.0157262
847.755	0.0157373
847.833	0.0157958
847.911	0.0156921
847.989	0.0158070
848.067	0.0156702
848.146	0.0156017
848.224	0.0156182
848.302	0.0157024
848.380	0.0157571
848.458	0.0158872
848.536	0.0156598
848.614	0.0157017
848.692	0.0157472
848.771	0.0159779
848.849	0.0160088
848.927	0.0158575
849.005	0.0158138
849.083	0.0161103
849.161	0.0161194
849.239	0.0162092
849.317	0.0163200
849.396	0.0162992
849.474	0.0163505
849.552	0.0165297
849.630	0.0164129
849.708	0.0163979
849.786	0.0166362
849.864	0.0165783
849.942	0.0166183
850.021	0.0166083
850.099	0.0167547
850.177	0.0165836
850.255	0.0166124
850.333	0.0166053
850.411	0.0166376
850.489	0.0166047
850.567	0.0164637
850.646	0.0165430
850.724	0.0166514
850.802	0.0163225
850.880	0.0163445
850.958	0.0163245
851.036	0.0162675
851.114	0.0163336
851.192	0.0162019
851.271	0.0160698
851.349	0.0160802
851.427	0.0160420
851.505	0.0162341
851.583	0.0160429
851.661	0.0160893
851.739	0.0161102
851.817	0.0160356
851.896	0.0160935
851.974	0.0161515
852.052	0.0160565
852.130	0.0162064
852.208	0.0162070
852.286	0.0162348
852.364	0.0160191
852.442	0.0160838
852.521	0.0161019
852.599	0.0161313
852.677	0.0159935
852.755	0.0159801
852.833	0.0159586
852.911	0.0160163
852.989	0.0158924
853.067	0.0158992
853.146	0.0158753
853.224	0.0159443
853.302	0.0158987
853.380	0.0158212
853.458	0.0158176
853.536	0.0159545
853.614	0.0158100
853.692	0.0158491
853.771	0.0158881
853.849	0.0158384
853.927	0.0158720
854.005	0.0157656
854.083	0.0159212
854.161	0.0158131
854.239	0.0158652
854.317	0.0159309
854.396	0.0156822
854.474	0.0157352
854.552	0.0159478
854.630	0.0158316
854.708	0.0159708
854.786	0.0159389
854.864	0.0160205
854.942	0.0160342
855.021	0.0160825
855.099	0.0161626
855.177	0.0161436
855.255	0.0162994
855.333	0.0162372
855.411	0.0163141
855.489	0.0163985
855.567	0.0165128
855.646	0.0165162
855.724	0.0165714
855.802	0.0163993
855.880	0.0165784
855.958	0.0166109
856.036	0.0165848
856.114	0.0166201
856.192	0.0166663
856.271	0.0165892
856.349	0.0165819
856.427	0.0166703
856.505	0.0166637
856.583	0.0166206
856.661	0.0165147
856.739	0.0164880
856.817	0.0164496
856.896	0.0163955
856.974	0.0162862
857.052	0.0161934
857.130	0.0161639
857.208	0.0159939
857.286	0.0159282
857.364	0.0160445
857.442	0.0160163
857.521	0.0158594
857.599	0.0159231
857.677	0.0158495
857.755	0.0159119
857.833	0.0158415
857.911	0.0160680
857.989	0.0159426
858.067	0.0159920
858.146	0.0160601
858.224	0.0161002
858.302	0.0161189
858.380	0.0162177
858.458	0.0161602
858.536	0.0161363
858.614	0.0161141
858.692	0.0162672
858.771	0.0161912
858.849	0.0162128
858.927	0.0160390
859.005	0.0161597
859.083	0.0160927
859.161	0.0160602
859.239	0.0160097
859.317	0.0159899
859.396	0.0160094
859.474	0.0158372
859.552	0.0157933
859.630	0.0160195
859.708	0.0159571
859.786	0.0158035
859.864	0.0157747
859.942	0.0159212
860.021	0.0159212
860.099	0.0159768
860.177	0.0160291
860.255	0.0159941
860.333	0.0158518
860.411	0.0157869
860.489	0.0160446
860.567	0.0159595
860.646	0.0161269
860.724	0.0161690
860.802	0.0163010
860.880	0.0161571
860.958	0.0160744
861.036	0.0163232
861.114	0.0163603
861.192	0.0163465
861.271	0.0162170
861.349	0.0163746
861.427	0.0163304
861.505	0.0162204
861.583	0.0163933
861.661	0.0163723
861.739	0.0163607
861.817	0.0162630
861.896	0.0163301
861.974	0.0163847
862.052	0.0163834
862.130	0.0163101
862.208	0.0162563
862.286	0.0163832
862.364	0.0161732
862.442	0.0162195
862.521	0.0162824
862.599	0.0162363
862.677	0.0163695
862.755	0.0162334
862.833	0.0161678
862.911	0.0162054
862.989	0.0161572
863.067	0.0161004
863.146	0.0162589
863.224	0.0162635
863.302	0.0163287
863.380	0.0163143
863.458	0.0161929
863.536	0.0163483
863.614	0.0161787
863.692	0.0163464
863.771	0.0163155
863.849	0.0164002
863.927	0.0163734
864.005	0.0162082
864.083	0.0162599
864.161	0.0164137
864.239	0.0162195
864.317	0.0162997
864.396	0.0162849
864.474	0.0160376
864.552	0.0159787
864.630	0.0160561
864.708	0.0160340
864.786	0.0159828
864.864	0.0158315
864.942	0.0159666
865.021	0.0159615
865.099	0.0158527
865.177	0.0159035
865.255	0.0158965
865.333	0.0160254
865.411	0.0158989
865.489	0.0159800
865.567	0.0158538
865.646	0.0158821
865.724	0.0160038
865.802	0.0159340
865.880	0.0159131
865.958	0.0160516
866.036	0.0159715
866.114	0.0158298
866.192	0.0157151
866.271	0.0158324
866.349	0.0159566
866.427	0.0158927
866.505	0.0159606
866.583	0.0158911
866.661	0.0160061
866.739	0.0160863
866.817	0.0159845
866.896	0.0161345
866.974	0.0159765
867.052	0.0160988
867.130	0.0161874
867.208	0.0163299
867.286	0.0163888
867.364	0.0161764
867.442	0.0162657
867.521	0.0163969
867.599	0.0164771
867.677	0.0162659
867.755	0.0161554
867.833	0.0162045
867.911	0.0162514
867.989	0.0163055
868.067	0.0162606
868.146	0.0161654
868.224	0.0161636
868.302	0.0161501
868.380	0.0162131
868.458	0.0161974
868.536	0.0161766
868.614	0.0161508
868.692	0.0162189
868.771	0.0161779
868.849	0.0161511
868.927	0.0162315
869.005	0.0162884
869.083	0.0162460
869.161	0.0163775
869.239	0.0163086
869.317	0.0163649
869.396	0.0164003
869.474	0.0162185
869.552	0.0164098
869.630	0.0164407
869.708	0.0163591
869.786	0.0163115
869.864	0.0163455
869.942	0.0163004
