06/03/2022	15:46:46	Ver.	4.1	UNKNOWN
Optical Delay	550.020508	Delta X		0.078125	Sweeps	1	Scan Rate	0/0
Coordinates	Axis 1	NaN	Axis 2	NaN	Axis 3	NaN	Axis 4	NaN	Axis 5	NaN	Axis 6	0.000000
TX Power	0.000000	RX Power	0.000000

550.021	0.0162816
550.099	0.0162080
550.177	0.0161594
550.255	0.0161600
550.333	0.0162787
550.411	0.0162445
550.489	0.0163193
550.567	0.0161841
550.646	0.0161814
550.724	0.0161774
550.802	0.0163597
550.880	0.0162904
550.958	0.0163869
551.036	0.0162454
551.114	0.0162360
551.192	0.0163394
551.271	0.0163557
551.349	0.0162506
551.427	0.0161918
551.505	0.0162198
551.583	0.0162323
551.661	0.0163105
551.739	0.0163837
551.817	0.0163389
551.896	0.0161488
551.974	0.0161595
552.052	0.0163390
552.130	0.0163266
552.208	0.0162251
552.286	0.0164157
552.364	0.0162049
552.442	0.0161097
552.521	0.0163379
552.599	0.0162648
552.677	0.0162105
552.755	0.0162473
552.833	0.0162687
552.911	0.0162894
552.989	0.0163677
553.067	0.0161685
553.146	0.0163095
553.224	0.0162421
553.302	0.0163222
553.380	0.0162136
553.458	0.0162169
553.536	0.0163670
553.614	0.0163179
553.692	0.0162595
553.771	0.0162405
553.849	0.0163779
553.927	0.0163860
554.005	0.0161862
554.083	0.0162587
554.161	0.0162508
554.239	0.0163681
554.317	0.0162376
554.396	0.0161245
554.474	0.0161797
554.552	0.0163678
554.630	0.0164202
554.708	0.0161504
554.786	0.0161209
554.864	0.0163079
554.942	0.0162268
555.021	0.0162803
555.099	0.0162608
555.177	0.0161736
555.255	0.0161691
555.333	0.0163660
555.411	0.0163274
555.489	0.0162135
555.567	0.0162560
555.646	0.0162233
555.724	0.0161974
555.802	0.0162058
555.880	0.0162593
555.958	0.0164694
556.036	0.0163065
556.114	0.0161770
556.192	0.0162599
556.271	0.0162511
556.349	0.0161965
556.427	0.0161330
556.505	0.0161590
556.583	0.0162462
556.661	0.0161864
556.739	0.0162656
556.817	0.0161919
556.896	0.0163145
556.974	0.0162749
557.052	0.0161617
557.130	0.0163062
557.208	0.0163468
557.286	0.0161475
557.364	0.0162186
557.442	0.0161314
557.521	0.0162949
557.599	0.0163552
557.677	0.0163330
557.755	0.0163273
557.833	0.0161971
557.911	0.0161457
557.989	0.0162455
558.067	0.0162295
558.146	0.0162469
558.224	0.0163250
558.302	0.0163242
558.380	0.0163746
558.458	0.0162760
558.536	0.0162164
558.614	0.0163896
558.692	0.0162447
558.771	0.0163349
558.849	0.0164053
558.927	0.0162984
559.005	0.0162192
559.083	0.0163058
559.161	0.0163345
559.239	0.0163272
559.317	0.0161779
559.396	0.0162547
559.474	0.0163190
559.552	0.0163551
559.630	0.0162048
559.708	0.0162997
559.786	0.0162260
559.864	0.0162727
559.942	0.0162959
560.021	0.0161794
560.099	0.0161996
560.177	0.0163622
560.255	0.0163139
560.333	0.0162788
560.411	0.0163472
560.489	0.0163923
560.567	0.0162680
560.646	0.0163054
560.724	0.0162103
560.802	0.0161687
560.880	0.0162112
560.958	0.0162296
561.036	0.0163344
561.114	0.0161922
561.192	0.0162453
561.271	0.0163306
561.349	0.0161605
561.427	0.0162206
561.505	0.0161768
561.583	0.0163417
561.661	0.0163728
561.739	0.0162836
561.817	0.0163763
561.896	0.0162591
561.974	0.0162215
562.052	0.0163471
562.130	0.0161773
562.208	0.0163075
562.286	0.0162260
562.364	0.0163462
562.442	0.0162694
562.521	0.0162717
562.599	0.0162336
562.677	0.0162436
562.755	0.0162901
562.833	0.0162114
562.911	0.0162939
562.989	0.0163975
563.067	0.0162762
563.146	0.0163719
563.224	0.0164243
563.302	0.0163677
563.380	0.0162169
563.458	0.0163029
563.536	0.0163450
563.614	0.0163089
563.692	0.0164310
563.771	0.0163614
563.849	0.0162341
563.927	0.0161262
564.005	0.0163168
564.083	0.0163467
564.161	0.0162653
564.239	0.0163357
564.317	0.0162965
564.396	0.0163393
564.474	0.0162515
564.552	0.0163708
564.630	0.0162453
564.708	0.0162430
564.786	0.0162847
564.864	0.0162139
564.942	0.0163098
565.021	0.0164592
565.099	0.0163173
565.177	0.0162769
565.255	0.0161829
565.333	0.0161761
565.411	0.0162536
565.489	0.0164022
565.567	0.0162670
565.646	0.0163140
565.724	0.0162429
565.802	0.0162965
565.880	0.0162357
565.958	0.0163186
566.036	0.0162726
566.114	0.0161844
566.192	0.0162671
566.271	0.0163047
566.349	0.0163155
566.427	0.0162343
566.505	0.0162335
566.583	0.0163345
566.661	0.0162951
566.739	0.0162782
566.817	0.0161896
566.896	0.0163105
566.974	0.0163438
567.052	0.0162853
567.130	0.0162829
567.208	0.0163216
567.286	0.0163771
567.364	0.0163387
567.442	0.0162505
567.521	0.0164335
567.599	0.0162303
567.677	0.0162987
567.755	0.0162267
567.833	0.0163542
567.911	0.0163548
567.989	0.0163679
568.067	0.0164668
568.146	0.0164383
568.224	0.0162317
568.302	0.0163124
568.380	0.0162141
568.458	0.0163403
568.536	0.0163025
568.614	0.0162872
568.692	0.0163014
568.771	0.0164552
568.849	0.0163142
568.927	0.0162363
569.005	0.0162846
569.083	0.0162680
569.161	0.0162679
569.239	0.0162523
569.317	0.0163131
569.396	0.0163988
569.474	0.0164693
569.552	0.0163745
569.630	0.0163646
569.708	0.0161658
569.786	0.0162730
569.864	0.0163721
569.942	0.0164640
570.021	0.0163460
570.099	0.0162389
570.177	0.0163264
570.255	0.0162695
570.333	0.0163264
570.411	0.0163410
570.489	0.0163672
570.567	0.0163126
570.646	0.0162383
570.724	0.0162081
570.802	0.0164022
570.880	0.0163448
570.958	0.0162379
571.036	0.0162090
571.114	0.0163154
571.192	0.0161935
571.271	0.0162597
571.349	0.0162722
571.427	0.0163282
571.505	0.0164182
571.583	0.0163773
571.661	0.0163594
571.739	0.0161983
571.817	0.0161721
571.896	0.0162866
571.974	0.0161680
572.052	0.0162261
572.130	0.0164405
572.208	0.0162904
572.286	0.0163024
572.364	0.0163060
572.442	0.0161674
572.521	0.0163435
572.599	0.0163643
572.677	0.0162003
572.755	0.0163665
572.833	0.0163501
572.911	0.0162847
572.989	0.0162503
573.067	0.0163612
573.146	0.0162193
573.224	0.0162243
573.302	0.0162834
573.380	0.0161376
573.458	0.0162621
573.536	0.0163847
573.614	0.0163099
573.692	0.0163583
573.771	0.0163287
573.849	0.0163699
573.927	0.0163496
574.005	0.0163040
574.083	0.0162372
574.161	0.0163656
574.239	0.0162908
574.317	0.0161986
574.396	0.0163091
574.474	0.0162377
574.552	0.0163298
574.630	0.0163537
574.708	0.0163084
574.786	0.0163702
574.864	0.0162785
574.942	0.0163208
575.021	0.0162537
575.099	0.0162976
575.177	0.0163333
575.255	0.0162923
575.333	0.0162440
575.411	0.0163409
575.489	0.0162985
575.567	0.0161948
575.646	0.0163265
575.724	0.0162807
575.802	0.0163750
575.880	0.0162680
575.958	0.0163732
576.036	0.0163239
576.114	0.0161680
576.192	0.0162627
576.271	0.0164024
576.349	0.0163419
576.427	0.0161723
576.505	0.0161774
576.583	0.0163871
576.661	0.0162668
576.739	0.0163083
576.817	0.0163718
576.896	0.0163644
576.974	0.0163713
577.052	0.0162059
577.130	0.0162923
577.208	0.0162461
577.286	0.0162658
577.364	0.0161674
577.442	0.0162212
577.521	0.0161550
577.599	0.0161208
577.677	0.0162657
577.755	0.0163825
577.833	0.0162105
577.911	0.0162131
577.989	0.0162617
578.067	0.0162045
578.146	0.0163542
578.224	0.0161782
578.302	0.0161711
578.380	0.0163922
578.458	0.0162794
578.536	0.0163045
578.614	0.0162482
578.692	0.0163412
578.771	0.0161630
578.849	0.0161655
578.927	0.0163747
579.005	0.0162779
579.083	0.0162404
579.161	0.0162046
579.239	0.0163618
579.317	0.0163304
579.396	0.0162980
579.474	0.0163908
579.552	0.0163866
579.630	0.0161740
579.708	0.0161681
579.786	0.0162164
579.864	0.0163364
579.942	0.0162215
580.021	0.0162427
580.099	0.0163321
580.177	0.0163461
580.255	0.0162652
580.333	0.0162107
580.411	0.0164442
580.489	0.0162611
580.567	0.0162966
580.646	0.0162483
580.724	0.0161933
580.802	0.0162450
580.880	0.0163455
580.958	0.0164021
581.036	0.0162555
581.114	0.0161679
581.192	0.0163177
581.271	0.0163471
581.349	0.0161977
581.427	0.0161251
581.505	0.0163023
581.583	0.0162735
581.661	0.0163908
581.739	0.0163224
581.817	0.0163854
581.896	0.0161546
581.974	0.0162667
582.052	0.0163646
582.130	0.0162049
582.208	0.0162516
582.286	0.0163297
582.364	0.0163213
582.442	0.0162904
582.521	0.0162883
582.599	0.0163939
582.677	0.0163850
582.755	0.0163292
582.833	0.0163445
582.911	0.0162263
582.989	0.0163882
583.067	0.0164545
583.146	0.0162827
583.224	0.0161962
583.302	0.0163414
583.380	0.0163705
583.458	0.0163724
583.536	0.0162331
583.614	0.0161585
583.692	0.0163760
583.771	0.0162788
583.849	0.0162649
583.927	0.0162823
584.005	0.0163525
584.083	0.0163113
584.161	0.0162914
584.239	0.0164114
584.317	0.0163044
584.396	0.0163204
584.474	0.0163390
584.552	0.0162939
584.630	0.0164130
584.708	0.0163748
584.786	0.0163549
584.864	0.0162641
584.942	0.0163290
585.021	0.0163494
585.099	0.0162707
585.177	0.0163971
585.255	0.0163644
585.333	0.0164143
585.411	0.0163554
585.489	0.0162871
585.567	0.0162612
585.646	0.0162149
585.724	0.0162487
585.802	0.0163596
585.880	0.0163708
585.958	0.0163952
586.036	0.0162357
586.114	0.0163811
586.192	0.0163077
586.271	0.0163067
586.349	0.0163277
586.427	0.0163085
586.505	0.0162914
586.583	0.0163245
586.661	0.0163095
586.739	0.0164957
586.817	0.0161948
586.896	0.0163452
586.974	0.0162464
587.052	0.0163442
587.130	0.0164603
587.208	0.0164136
587.286	0.0163301
587.364	0.0163246
587.442	0.0161864
587.521	0.0163085
587.599	0.0163767
587.677	0.0162976
587.755	0.0164255
587.833	0.0163692
587.911	0.0162333
587.989	0.0163097
588.067	0.0162811
588.146	0.0163107
588.224	0.0161927
588.302	0.0163230
588.380	0.0163616
588.458	0.0162126
588.536	0.0162151
588.614	0.0164381
588.692	0.0163485
588.771	0.0162881
588.849	0.0162862
588.927	0.0162746
589.005	0.0163273
589.083	0.0163633
589.161	0.0164568
589.239	0.0163692
589.317	0.0163499
589.396	0.0163245
589.474	0.0163449
589.552	0.0162351
589.630	0.0161710
589.708	0.0163361
589.786	0.0162405
589.864	0.0162455
589.942	0.0163059
590.021	0.0163306
590.099	0.0163579
590.177	0.0163974
590.255	0.0163329
590.333	0.0162276
590.411	0.0161657
590.489	0.0161655
590.567	0.0163127
590.646	0.0164556
590.724	0.0162846
590.802	0.0163346
590.880	0.0163920
590.958	0.0163818
591.036	0.0163490
591.114	0.0164243
591.192	0.0162689
591.271	0.0161854
591.349	0.0163359
591.427	0.0163605
591.505	0.0163441
591.583	0.0163223
591.661	0.0162657
591.739	0.0162781
591.817	0.0162426
591.896	0.0163520
591.974	0.0164283
592.052	0.0163300
592.130	0.0162749
592.208	0.0162856
592.286	0.0162670
592.364	0.0161951
592.442	0.0163245
592.521	0.0162857
592.599	0.0162012
592.677	0.0163055
592.755	0.0162959
592.833	0.0162312
592.911	0.0163825
592.989	0.0163477
593.067	0.0161252
593.146	0.0162282
593.224	0.0163943
593.302	0.0163069
593.380	0.0163436
593.458	0.0162262
593.536	0.0162672
593.614	0.0163956
593.692	0.0161650
593.771	0.0162306
593.849	0.0163349
593.927	0.0164010
594.005	0.0162722
594.083	0.0163616
594.161	0.0163020
594.239	0.0161871
594.317	0.0162182
594.396	0.0163211
594.474	0.0161884
594.552	0.0161850
594.630	0.0162816
594.708	0.0163874
594.786	0.0162059
594.864	0.0162784
594.942	0.0164566
595.021	0.0163460
595.099	0.0163357
595.177	0.0162379
595.255	0.0162605
595.333	0.0162536
595.411	0.0163190
595.489	0.0163008
595.567	0.0162354
595.646	0.0163232
595.724	0.0163776
595.802	0.0163286
595.880	0.0162503
595.958	0.0161961
596.036	0.0162572
596.114	0.0163113
596.192	0.0163910
596.271	0.0163396
596.349	0.0163256
596.427	0.0163302
596.505	0.0163254
596.583	0.0163125
596.661	0.0163564
596.739	0.0163220
596.817	0.0164462
596.896	0.0162895
596.974	0.0161987
597.052	0.0163359
597.130	0.0162503
597.208	0.0162305
597.286	0.0163540
597.364	0.0162819
597.442	0.0163628
597.521	0.0163034
597.599	0.0162081
597.677	0.0162262
597.755	0.0162874
597.833	0.0162828
597.911	0.0162067
597.989	0.0163924
598.067	0.0164086
598.146	0.0162685
598.224	0.0164022
598.302	0.0163842
598.380	0.0162657
598.458	0.0162583
598.536	0.0162913
598.614	0.0161697
598.692	0.0162665
598.771	0.0163678
598.849	0.0161880
598.927	0.0163318
599.005	0.0161814
599.083	0.0162683
599.161	0.0163525
599.239	0.0162295
599.317	0.0163277
599.396	0.0161948
599.474	0.0163148
599.552	0.0163997
599.630	0.0163512
599.708	0.0162047
599.786	0.0162495
599.864	0.0163110
599.942	0.0162594
600.021	0.0162450
600.099	0.0162762
600.177	0.0162173
600.255	0.0164005
600.333	0.0163778
600.411	0.0162438
600.489	0.0163824
600.567	0.0163817
600.646	0.0163713
600.724	0.0161962
600.802	0.0162019
600.880	0.0163379
600.958	0.0162411
601.036	0.0162053
601.114	0.0162325
601.192	0.0161694
601.271	0.0163030
601.349	0.0163419
601.427	0.0162502
601.505	0.0163878
601.583	0.0163110
601.661	0.0162643
601.739	0.0163773
601.817	0.0162238
601.896	0.0162389
601.974	0.0164081
602.052	0.0163898
602.130	0.0163091
602.208	0.0163643
602.286	0.0162635
602.364	0.0163829
602.442	0.0163651
602.521	0.0162756
602.599	0.0163504
602.677	0.0162305
602.755	0.0162894
602.833	0.0163933
602.911	0.0163954
602.989	0.0162419
603.067	0.0162831
603.146	0.0163007
603.224	0.0164416
603.302	0.0162694
603.380	0.0162788
603.458	0.0163905
603.536	0.0163029
603.614	0.0162489
603.692	0.0162852
603.771	0.0162157
603.849	0.0163671
603.927	0.0162075
604.005	0.0163647
604.083	0.0163044
604.161	0.0162772
604.239	0.0163245
604.317	0.0161887
604.396	0.0162405
604.474	0.0162962
604.552	0.0163153
604.630	0.0162601
604.708	0.0162945
604.786	0.0162720
604.864	0.0162558
604.942	0.0162091
605.021	0.0163155
605.099	0.0162306
605.177	0.0165415
605.255	0.0163392
605.333	0.0163579
605.411	0.0162671
605.489	0.0160376
605.567	0.0162881
605.646	0.0162503
605.724	0.0160899
605.802	0.0162694
605.880	0.0164092
605.958	0.0163467
606.036	0.0161826
606.114	0.0162975
606.192	0.0163950
606.271	0.0163481
606.349	0.0162227
606.427	0.0163524
606.505	0.0162550
606.583	0.0162167
606.661	0.0162044
606.739	0.0163271
606.817	0.0162437
606.896	0.0162482
606.974	0.0163288
607.052	0.0162888
607.130	0.0163377
607.208	0.0162766
607.286	0.0162676
607.364	0.0164249
607.442	0.0163624
607.521	0.0162099
607.599	0.0163747
607.677	0.0164396
607.755	0.0163297
607.833	0.0162868
607.911	0.0164110
607.989	0.0164040
608.067	0.0161290
608.146	0.0164175
608.224	0.0162447
608.302	0.0162997
608.380	0.0163950
608.458	0.0162402
608.536	0.0163406
608.614	0.0164417
608.692	0.0163277
608.771	0.0163683
608.849	0.0162819
608.927	0.0162513
609.005	0.0163945
609.083	0.0163614
609.161	0.0163295
609.239	0.0162562
609.317	0.0162478
609.396	0.0162820
609.474	0.0162251
609.552	0.0162223
609.630	0.0163840
609.708	0.0164249
609.786	0.0163665
609.864	0.0163368
609.942	0.0163662
610.021	0.0162312
610.099	0.0161968
610.177	0.0163612
610.255	0.0162823
610.333	0.0163685
610.411	0.0162634
610.489	0.0162249
610.567	0.0162727
610.646	0.0161845
610.724	0.0163037
610.802	0.0163881
610.880	0.0165031
610.958	0.0163679
611.036	0.0162071
611.114	0.0163306
611.192	0.0162645
611.271	0.0162167
611.349	0.0163155
611.427	0.0163757
611.505	0.0162965
611.583	0.0163142
611.661	0.0164622
611.739	0.0163413
611.817	0.0162894
611.896	0.0161707
611.974	0.0163889
612.052	0.0163599
612.130	0.0162495
612.208	0.0163878
612.286	0.0163936
612.364	0.0163601
612.442	0.0163304
612.521	0.0163331
612.599	0.0164091
612.677	0.0163718
612.755	0.0162091
612.833	0.0162540
612.911	0.0162669
612.989	0.0164196
613.067	0.0162158
613.146	0.0162624
613.224	0.0164127
613.302	0.0161906
613.380	0.0163493
613.458	0.0161932
613.536	0.0162992
613.614	0.0163194
613.692	0.0163587
613.771	0.0162733
613.849	0.0163513
613.927	0.0163120
614.005	0.0162863
614.083	0.0162570
614.161	0.0163924
614.239	0.0163239
614.317	0.0162349
614.396	0.0162720
614.474	0.0164055
614.552	0.0164100
614.630	0.0163773
614.708	0.0162843
614.786	0.0163760
614.864	0.0163047
614.942	0.0164907
615.021	0.0163495
615.099	0.0163244
615.177	0.0162110
615.255	0.0162968
615.333	0.0163145
615.411	0.0163966
615.489	0.0162890
615.567	0.0162959
615.646	0.0163189
615.724	0.0163748
615.802	0.0163880
615.880	0.0163143
615.958	0.0162189
616.036	0.0160825
616.114	0.0162506
616.192	0.0162211
616.271	0.0163040
616.349	0.0163241
616.427	0.0163371
616.505	0.0163313
616.583	0.0163412
616.661	0.0163687
616.739	0.0162536
616.817	0.0163656
616.896	0.0161787
616.974	0.0163120
617.052	0.0162183
617.130	0.0162915
617.208	0.0163422
617.286	0.0162263
617.364	0.0163576
617.442	0.0163104
617.521	0.0162472
617.599	0.0162023
617.677	0.0162575
617.755	0.0162932
617.833	0.0164043
617.911	0.0162225
617.989	0.0161507
618.067	0.0162008
618.146	0.0161868
618.224	0.0162943
618.302	0.0161883
618.380	0.0162400
618.458	0.0162981
618.536	0.0162877
618.614	0.0162416
618.692	0.0162823
618.771	0.0161880
618.849	0.0161589
618.927	0.0161794
619.005	0.0162786
619.083	0.0161973
619.161	0.0161749
619.239	0.0162668
619.317	0.0162619
619.396	0.0162772
619.474	0.0163663
619.552	0.0162512
619.630	0.0160625
619.708	0.0162082
619.786	0.0162390
619.864	0.0163865
619.942	0.0163009
620.021	0.0160773
620.099	0.0162944
620.177	0.0161171
620.255	0.0162036
620.333	0.0162766
620.411	0.0161970
620.489	0.0162821
620.567	0.0163006
620.646	0.0163803
620.724	0.0162627
620.802	0.0162270
620.880	0.0161729
620.958	0.0162514
621.036	0.0161883
621.114	0.0163117
621.192	0.0164043
621.271	0.0162914
621.349	0.0161138
621.427	0.0162974
621.505	0.0162910
621.583	0.0162796
621.661	0.0162859
621.739	0.0162084
621.817	0.0163164
621.896	0.0162769
621.974	0.0163746
622.052	0.0163268
622.130	0.0162123
622.208	0.0163345
622.286	0.0162885
622.364	0.0162397
622.442	0.0162794
622.521	0.0161319
622.599	0.0162003
622.677	0.0163145
622.755	0.0162535
622.833	0.0161532
622.911	0.0162522
622.989	0.0163253
623.067	0.0163154
623.146	0.0162720
623.224	0.0162442
623.302	0.0161530
623.380	0.0162782
623.458	0.0161949
623.536	0.0162788
623.614	0.0162585
623.692	0.0162917
623.771	0.0162674
623.849	0.0161345
623.927	0.0162868
624.005	0.0160822
624.083	0.0161675
624.161	0.0163828
624.239	0.0162054
624.317	0.0162291
624.396	0.0162918
624.474	0.0162267
624.552	0.0164116
624.630	0.0162841
624.708	0.0161278
624.786	0.0161938
624.864	0.0163092
624.942	0.0162717
625.021	0.0162171
625.099	0.0162519
625.177	0.0163628
625.255	0.0162589
625.333	0.0162550
625.411	0.0163567
625.489	0.0162561
625.567	0.0163145
625.646	0.0163489
625.724	0.0163154
625.802	0.0162513
625.880	0.0162324
625.958	0.0162263
626.036	0.0164058
626.114	0.0163171
626.192	0.0163078
626.271	0.0163565
626.349	0.0162848
626.427	0.0161575
626.505	0.0161797
626.583	0.0162704
626.661	0.0161945
626.739	0.0164612
626.817	0.0162881
626.896	0.0162283
626.974	0.0161474
627.052	0.0163356
627.130	0.0162611
627.208	0.0162020
627.286	0.0162803
627.364	0.0162852
627.442	0.0162262
627.521	0.0162504
627.599	0.0163518
627.677	0.0162273
627.755	0.0162714
627.833	0.0163474
627.911	0.0162319
627.989	0.0161823
628.067	0.0163616
628.146	0.0163668
628.224	0.0164076
628.302	0.0163179
628.380	0.0163149
628.458	0.0161715
628.536	0.0163435
628.614	0.0165127
628.692	0.0162917
628.771	0.0162842
628.849	0.0164082
628.927	0.0164332
629.005	0.0163811
629.083	0.0164492
629.161	0.0163532
629.239	0.0163268
629.317	0.0163399
629.396	0.0164813
629.474	0.0162421
629.552	0.0164037
629.630	0.0164543
629.708	0.0163512
629.786	0.0162118
629.864	0.0163197
629.942	0.0162766
630.021	0.0163596
630.099	0.0162811
630.177	0.0163481
630.255	0.0162967
630.333	0.0162790
630.411	0.0164326
630.489	0.0163773
630.567	0.0163576
630.646	0.0162557
630.724	0.0162455
630.802	0.0164578
630.880	0.0164382
630.958	0.0164663
631.036	0.0162479
631.114	0.0163167
631.192	0.0164170
631.271	0.0164524
631.349	0.0163052
631.427	0.0163084
631.505	0.0163487
631.583	0.0164998
631.661	0.0163769
631.739	0.0163622
631.817	0.0163607
631.896	0.0163416
631.974	0.0163528
632.052	0.0164360
632.130	0.0164812
632.208	0.0164363
632.286	0.0164371
632.364	0.0163847
632.442	0.0164350
632.521	0.0163978
632.599	0.0163646
632.677	0.0162910
632.755	0.0164451
632.833	0.0162314
632.911	0.0163730
632.989	0.0163934
633.067	0.0163837
633.146	0.0163728
633.224	0.0163046
633.302	0.0162640
633.380	0.0163048
633.458	0.0164037
633.536	0.0163087
633.614	0.0164923
633.692	0.0164948
633.771	0.0164070
633.849	0.0163449
633.927	0.0163236
634.005	0.0161806
634.083	0.0164057
634.161	0.0164954
634.239	0.0161991
634.317	0.0164138
634.396	0.0163934
634.474	0.0163219
634.552	0.0162768
634.630	0.0162688
634.708	0.0163082
634.786	0.0163447
634.864	0.0163292
634.942	0.0163515
635.021	0.0163356
635.099	0.0164410
635.177	0.0164126
635.255	0.0163022
635.333	0.0163155
635.411	0.0164957
635.489	0.0163705
635.567	0.0164079
635.646	0.0163139
635.724	0.0162472
635.802	0.0162453
635.880	0.0161716
635.958	0.0162962
636.036	0.0162687
636.114	0.0163180
636.192	0.0162307
636.271	0.0163239
636.349	0.0164496
636.427	0.0163411
636.505	0.0163517
636.583	0.0164458
636.661	0.0162106
636.739	0.0162780
636.817	0.0162866
636.896	0.0163933
636.974	0.0164493
637.052	0.0163905
637.130	0.0164268
637.208	0.0163438
637.286	0.0163174
637.364	0.0163490
637.442	0.0164156
637.521	0.0164102
637.599	0.0163818
637.677	0.0162320
637.755	0.0162752
637.833	0.0162671
637.911	0.0162365
637.989	0.0162996
638.067	0.0162543
638.146	0.0162268
638.224	0.0162237
638.302	0.0163229
638.380	0.0161973
638.458	0.0162625
638.536	0.0163119
638.614	0.0162670
638.692	0.0162698
638.771	0.0163498
638.849	0.0162093
638.927	0.0161728
639.005	0.0163168
639.083	0.0162222
639.161	0.0162206
639.239	0.0162585
639.317	0.0163051
639.396	0.0163300
639.474	0.0163495
639.552	0.0163504
639.630	0.0162462
639.708	0.0162381
639.786	0.0163025
639.864	0.0162395
639.942	0.0161492
640.021	0.0162041
640.099	0.0161973
640.177	0.0162766
640.255	0.0162090
640.333	0.0163677
640.411	0.0161555
640.489	0.0162367
640.567	0.0162285
640.646	0.0162310
640.724	0.0161506
640.802	0.0161937
640.880	0.0161063
640.958	0.0163084
641.036	0.0162680
641.114	0.0161829
641.192	0.0162003
641.271	0.0160901
641.349	0.0161676
641.427	0.0162459
641.505	0.0161681
641.583	0.0163091
641.661	0.0161679
641.739	0.0162144
641.817	0.0161372
641.896	0.0162500
641.974	0.0161733
642.052	0.0161427
642.130	0.0162358
642.208	0.0162128
642.286	0.0162429
642.364	0.0160632
642.442	0.0160525
642.521	0.0162189
642.599	0.0161712
642.677	0.0161333
642.755	0.0161784
642.833	0.0162609
642.911	0.0161930
642.989	0.0161766
643.067	0.0162469
643.146	0.0161407
643.224	0.0162785
643.302	0.0163615
643.380	0.0162785
643.458	0.0162917
643.536	0.0162762
643.614	0.0163060
643.692	0.0162991
643.771	0.0161450
643.849	0.0161792
643.927	0.0160961
644.005	0.0162809
644.083	0.0162466
644.161	0.0161784
644.239	0.0160345
644.317	0.0161239
644.396	0.0162863
644.474	0.0162473
644.552	0.0162294
644.630	0.0160432
644.708	0.0161436
644.786	0.0161494
644.864	0.0162182
644.942	0.0162363
645.021	0.0162028
645.099	0.0162492
645.177	0.0162378
645.255	0.0162762
645.333	0.0162670
645.411	0.0162317
645.489	0.0162289
645.567	0.0162195
645.646	0.0162659
645.724	0.0161964
645.802	0.0162571
645.880	0.0162167
645.958	0.0162961
646.036	0.0162333
646.114	0.0162556
646.192	0.0161234
646.271	0.0163051
646.349	0.0162624
646.427	0.0161938
646.505	0.0163313
646.583	0.0163433
646.661	0.0162047
646.739	0.0162740
646.817	0.0163348
646.896	0.0163945
646.974	0.0162572
647.052	0.0163110
647.130	0.0162614
647.208	0.0161394
647.286	0.0161521
647.364	0.0162649
647.442	0.0162195
647.521	0.0161892
647.599	0.0161855
647.677	0.0161550
647.755	0.0161681
647.833	0.0163650
647.911	0.0162986
647.989	0.0161270
648.067	0.0162500
648.146	0.0162168
648.224	0.0162056
648.302	0.0162687
648.380	0.0162762
648.458	0.0162323
648.536	0.0162675
648.614	0.0162877
648.692	0.0163287
648.771	0.0163643
648.849	0.0163837
648.927	0.0163799
649.005	0.0162763
649.083	0.0161127
649.161	0.0162689
649.239	0.0161886
649.317	0.0161880
649.396	0.0161970
649.474	0.0163863
649.552	0.0163340
649.630	0.0162281
649.708	0.0162930
649.786	0.0162096
649.864	0.0162024
649.942	0.0162831
650.021	0.0162692
650.099	0.0163814
650.177	0.0162978
650.255	0.0162560
650.333	0.0162270
650.411	0.0162911
650.489	0.0163295
650.567	0.0162766
650.646	0.0162306
650.724	0.0163069
650.802	0.0164203
650.880	0.0162920
650.958	0.0162679
651.036	0.0164007
651.114	0.0162617
651.192	0.0164359
651.271	0.0162904
651.349	0.0162496
651.427	0.0163439
651.505	0.0162894
651.583	0.0162824
651.661	0.0163621
651.739	0.0163313
651.817	0.0162947
651.896	0.0163708
651.974	0.0162560
652.052	0.0163499
652.130	0.0162627
652.208	0.0164008
652.286	0.0163800
652.364	0.0162997
652.442	0.0163942
652.521	0.0164968
652.599	0.0165103
652.677	0.0162730
652.755	0.0162605
652.833	0.0163597
652.911	0.0162888
652.989	0.0163676
653.067	0.0164085
653.146	0.0162787
653.224	0.0162639
653.302	0.0163452
653.380	0.0163391
653.458	0.0163732
653.536	0.0162171
653.614	0.0163288
653.692	0.0164204
653.771	0.0164185
653.849	0.0163962
653.927	0.0163052
654.005	0.0163206
654.083	0.0162498
654.161	0.0163198
654.239	0.0163195
654.317	0.0162634
654.396	0.0163501
654.474	0.0163136
654.552	0.0162368
654.630	0.0163326
654.708	0.0162711
654.786	0.0163171
654.864	0.0162315
654.942	0.0162986
655.021	0.0163535
655.099	0.0163662
655.177	0.0162945
655.255	0.0164772
655.333	0.0163284
655.411	0.0162494
655.489	0.0163837
655.567	0.0164252
655.646	0.0162867
655.724	0.0163228
655.802	0.0162943
655.880	0.0163725
655.958	0.0163766
656.036	0.0164796
656.114	0.0162751
656.192	0.0163183
656.271	0.0162860
656.349	0.0163196
656.427	0.0164371
656.505	0.0163686
656.583	0.0162901
656.661	0.0164510
656.739	0.0162639
656.817	0.0164379
656.896	0.0163680
656.974	0.0162871
657.052	0.0162822
657.130	0.0163694
657.208	0.0163764
657.286	0.0163834
657.364	0.0164957
657.442	0.0163182
657.521	0.0162988
657.599	0.0162585
657.677	0.0163837
657.755	0.0164114
657.833	0.0163110
657.911	0.0163326
657.989	0.0162762
658.067	0.0164498
658.146	0.0163622
658.224	0.0163148
658.302	0.0163053
658.380	0.0164859
658.458	0.0163458
658.536	0.0162574
658.614	0.0163433
658.692	0.0163606
658.771	0.0162760
658.849	0.0162804
658.927	0.0162347
659.005	0.0163636
659.083	0.0162157
659.161	0.0162659
659.239	0.0163132
659.317	0.0163125
659.396	0.0162571
659.474	0.0163332
659.552	0.0163628
659.630	0.0163416
659.708	0.0163161
659.786	0.0163552
659.864	0.0161298
659.942	0.0162840
660.021	0.0163908
660.099	0.0161525
660.177	0.0162764
660.255	0.0163932
660.333	0.0163691
660.411	0.0161475
660.489	0.0162816
660.567	0.0163275
660.646	0.0162192
660.724	0.0162946
660.802	0.0163181
660.880	0.0162075
660.958	0.0162634
661.036	0.0162614
661.114	0.0163422
661.192	0.0161868
661.271	0.0163969
661.349	0.0163434
661.427	0.0162007
661.505	0.0164124
661.583	0.0164078
661.661	0.0163477
661.739	0.0162171
661.817	0.0162254
661.896	0.0163210
661.974	0.0162986
662.052	0.0161752
662.130	0.0163325
662.208	0.0163493
662.286	0.0162606
662.364	0.0163268
662.442	0.0164075
662.521	0.0163509
662.599	0.0163416
662.677	0.0162012
662.755	0.0162314
662.833	0.0164671
662.911	0.0165359
662.989	0.0161546
663.067	0.0163156
663.146	0.0163966
663.224	0.0163684
663.302	0.0162549
663.380	0.0163917
663.458	0.0163055
663.536	0.0164346
663.614	0.0162992
663.692	0.0163069
663.771	0.0163414
663.849	0.0163077
663.927	0.0163322
664.005	0.0162979
664.083	0.0162556
664.161	0.0162820
664.239	0.0163924
664.317	0.0163814
664.396	0.0162824
664.474	0.0164275
664.552	0.0161163
664.630	0.0161713
664.708	0.0162762
664.786	0.0162880
664.864	0.0162382
664.942	0.0163388
665.021	0.0162770
665.099	0.0163819
665.177	0.0161815
665.255	0.0162045
665.333	0.0162574
665.411	0.0162713
665.489	0.0162175
665.567	0.0162696
665.646	0.0163588
665.724	0.0161738
665.802	0.0161526
665.880	0.0161054
665.958	0.0161916
666.036	0.0163565
666.114	0.0163525
666.192	0.0161467
666.271	0.0162393
666.349	0.0162988
666.427	0.0163499
666.505	0.0163235
666.583	0.0163062
666.661	0.0161542
666.739	0.0162646
666.817	0.0162535
666.896	0.0161031
666.974	0.0162387
667.052	0.0162002
667.130	0.0162466
667.208	0.0160991
667.286	0.0162723
667.364	0.0163547
667.442	0.0162916
667.521	0.0162087
667.599	0.0162325
667.677	0.0162465
667.755	0.0162373
667.833	0.0162858
667.911	0.0162683
667.989	0.0162298
668.067	0.0162175
668.146	0.0163457
668.224	0.0163618
668.302	0.0162267
668.380	0.0164017
668.458	0.0162717
668.536	0.0162203
668.614	0.0162411
668.692	0.0162681
668.771	0.0163404
668.849	0.0161915
668.927	0.0163581
669.005	0.0162764
669.083	0.0163763
669.161	0.0162337
669.239	0.0161748
669.317	0.0162263
669.396	0.0161868
669.474	0.0160791
669.552	0.0162562
669.630	0.0163799
669.708	0.0164189
669.786	0.0162608
669.864	0.0163681
669.942	0.0162945
670.021	0.0163977
670.099	0.0163313
670.177	0.0162964
670.255	0.0163736
670.333	0.0164095
670.411	0.0163706
670.489	0.0161758
670.567	0.0162376
670.646	0.0163315
670.724	0.0162714
670.802	0.0160378
670.880	0.0162392
670.958	0.0161111
671.036	0.0160062
671.114	0.0161581
671.192	0.0162388
671.271	0.0163285
671.349	0.0164581
671.427	0.0164680
671.505	0.0164013
671.583	0.0164379
671.661	0.0164449
671.739	0.0164319
671.817	0.0164582
671.896	0.0164056
671.974	0.0162219
672.052	0.0160963
672.130	0.0160168
672.208	0.0161004
672.286	0.0158705
672.364	0.0158380
672.442	0.0160708
672.521	0.0159351
672.599	0.0159923
672.677	0.0160809
672.755	0.0162160
672.833	0.0164143
672.911	0.0166831
672.989	0.0168697
673.067	0.0168925
673.146	0.0168752
673.224	0.0166228
673.302	0.0165982
673.380	0.0165238
673.458	0.0163436
673.536	0.0162031
673.614	0.0159029
673.692	0.0158617
673.771	0.0157771
673.849	0.0157117
673.927	0.0157819
674.005	0.0156644
674.083	0.0159086
674.161	0.0160776
674.239	0.0162789
674.317	0.0164459
674.396	0.0165989
674.474	0.0168406
674.552	0.0168963
674.630	0.0168620
674.708	0.0166289
674.786	0.0167149
674.864	0.0165512
674.942	0.0163424
675.021	0.0160369
675.099	0.0158582
675.177	0.0158492
675.255	0.0158223
675.333	0.0157545
675.411	0.0157872
675.489	0.0158432
675.567	0.0158686
675.646	0.0160069
675.724	0.0162534
675.802	0.0162835
675.880	0.0164361
675.958	0.0165012
676.036	0.0165723
676.114	0.0165789
676.192	0.0166468
676.271	0.0167139
676.349	0.0166684
676.427	0.0166006
676.505	0.0165263
676.583	0.0164830
676.661	0.0163338
676.739	0.0163126
676.817	0.0160867
676.896	0.0159348
676.974	0.0160598
677.052	0.0160281
677.130	0.0159354
677.208	0.0159471
677.286	0.0162765
677.364	0.0163201
677.442	0.0164085
677.521	0.0165096
677.599	0.0165112
677.677	0.0165788
677.755	0.0166189
677.833	0.0166428
677.911	0.0165450
677.989	0.0164370
678.067	0.0163409
678.146	0.0163602
678.224	0.0162902
678.302	0.0161355
678.380	0.0162213
678.458	0.0162769
678.536	0.0162403
678.614	0.0162228
678.692	0.0162685
678.771	0.0164157
678.849	0.0163639
678.927	0.0163245
679.005	0.0162832
679.083	0.0162541
679.161	0.0162342
679.239	0.0161316
679.317	0.0161449
679.396	0.0160862
679.474	0.0161247
679.552	0.0160146
679.630	0.0160935
679.708	0.0162663
679.786	0.0164672
679.864	0.0164433
679.942	0.0164758
680.021	0.0166438
680.099	0.0165100
680.177	0.0167162
680.255	0.0164841
680.333	0.0165123
680.411	0.0162977
680.489	0.0162133
680.567	0.0161892
680.646	0.0159783
680.724	0.0159967
680.802	0.0160159
680.880	0.0159860
680.958	0.0160438
681.036	0.0161767
681.114	0.0163992
681.192	0.0163905
681.271	0.0165531
681.349	0.0166327
681.427	0.0166030
681.505	0.0166164
681.583	0.0167068
681.661	0.0165968
681.739	0.0165439
681.817	0.0163432
681.896	0.0164970
681.974	0.0161564
682.052	0.0161019
682.130	0.0161135
682.208	0.0159909
682.286	0.0160573
682.364	0.0161311
682.442	0.0161754
682.521	0.0162001
682.599	0.0163520
682.677	0.0164460
682.755	0.0164725
682.833	0.0165578
682.911	0.0165481
682.989	0.0164484
683.067	0.0164360
683.146	0.0165698
683.224	0.0164626
683.302	0.0162267
683.380	0.0161968
683.458	0.0162347
683.536	0.0163702
683.614	0.0162252
683.692	0.0161429
683.771	0.0161893
683.849	0.0163476
683.927	0.0161956
684.005	0.0163272
684.083	0.0162580
684.161	0.0163879
684.239	0.0163892
684.317	0.0164316
684.396	0.0163516
684.474	0.0164465
684.552	0.0163656
684.630	0.0161996
684.708	0.0163678
684.786	0.0163412
684.864	0.0163077
684.942	0.0161199
685.021	0.0162410
685.099	0.0162203
685.177	0.0162290
685.255	0.0162329
685.333	0.0162666
685.411	0.0163889
685.489	0.0164207
685.567	0.0164423
685.646	0.0164357
685.724	0.0163541
685.802	0.0161893
685.880	0.0162608
685.958	0.0161375
686.036	0.0162647
686.114	0.0162038
686.192	0.0161572
686.271	0.0162939
686.349	0.0163324
686.427	0.0162890
686.505	0.0163197
686.583	0.0163258
686.661	0.0163287
686.739	0.0163598
686.817	0.0163911
686.896	0.0163940
686.974	0.0164431
687.052	0.0162886
687.130	0.0164342
687.208	0.0161610
687.286	0.0162530
687.364	0.0162405
687.442	0.0160972
687.521	0.0161916
687.599	0.0162151
687.677	0.0163028
687.755	0.0163128
687.833	0.0164227
687.911	0.0162534
687.989	0.0164058
688.067	0.0163747
688.146	0.0166085
688.224	0.0164799
688.302	0.0164460
688.380	0.0164415
688.458	0.0165086
688.536	0.0162482
688.614	0.0163607
688.692	0.0161407
688.771	0.0160825
688.849	0.0161008
688.927	0.0160423
689.005	0.0160052
689.083	0.0159821
689.161	0.0159258
689.239	0.0160342
689.317	0.0161187
689.396	0.0162751
689.474	0.0162458
689.552	0.0161952
689.630	0.0163403
689.708	0.0165223
689.786	0.0165319
689.864	0.0164944
689.942	0.0164083
690.021	0.0162724
690.099	0.0163046
690.177	0.0163235
690.255	0.0161416
690.333	0.0160751
690.411	0.0160960
690.489	0.0161277
690.567	0.0160653
690.646	0.0161355
690.724	0.0162245
690.802	0.0163155
690.880	0.0163882
690.958	0.0163760
691.036	0.0165597
691.114	0.0164475
691.192	0.0165682
691.271	0.0163407
691.349	0.0165030
691.427	0.0163246
691.505	0.0162958
691.583	0.0163126
691.661	0.0162289
691.739	0.0161193
691.817	0.0161629
691.896	0.0161951
691.974	0.0160922
692.052	0.0161206
692.130	0.0162465
692.208	0.0162182
692.286	0.0162372
692.364	0.0163145
692.442	0.0161530
692.521	0.0162531
692.599	0.0163273
692.677	0.0162454
692.755	0.0162481
692.833	0.0163729
692.911	0.0162592
692.989	0.0161778
693.067	0.0162750
693.146	0.0163528
693.224	0.0162054
693.302	0.0162392
693.380	0.0162170
693.458	0.0162362
693.536	0.0161969
693.614	0.0163122
693.692	0.0162685
693.771	0.0162447
693.849	0.0161342
693.927	0.0162321
694.005	0.0163974
694.083	0.0164424
694.161	0.0162397
694.239	0.0163699
694.317	0.0164306
694.396	0.0165788
694.474	0.0166463
694.552	0.0164347
694.630	0.0164713
694.708	0.0163236
694.786	0.0164328
694.864	0.0162966
694.942	0.0163610
695.021	0.0165354
695.099	0.0164222
695.177	0.0163091
695.255	0.0164374
695.333	0.0163073
695.411	0.0163132
695.489	0.0162623
695.567	0.0163387
695.646	0.0162713
695.724	0.0161454
695.802	0.0161421
695.880	0.0163025
695.958	0.0161901
696.036	0.0163113
696.114	0.0162861
696.192	0.0161802
696.271	0.0163080
696.349	0.0161788
696.427	0.0163557
696.505	0.0164576
696.583	0.0163183
696.661	0.0163052
696.739	0.0162153
696.817	0.0162301
696.896	0.0161423
696.974	0.0161425
697.052	0.0161620
697.130	0.0160725
697.208	0.0159830
697.286	0.0159066
697.364	0.0158922
697.442	0.0158923
697.521	0.0158960
697.599	0.0158291
697.677	0.0158349
697.755	0.0159080
697.833	0.0159654
697.911	0.0159715
697.989	0.0159915
698.067	0.0161265
698.146	0.0161951
698.224	0.0162418
698.302	0.0164667
698.380	0.0164582
698.458	0.0165852
698.536	0.0166572
698.614	0.0167516
698.692	0.0167595
698.771	0.0167142
698.849	0.0167924
698.927	0.0168049
699.005	0.0167313
699.083	0.0167677
699.161	0.0166642
699.239	0.0167009
699.317	0.0166834
699.396	0.0164558
699.474	0.0163136
699.552	0.0164565
699.630	0.0163145
699.708	0.0163285
699.786	0.0162931
699.864	0.0162115
699.942	0.0162952
700.021	0.0162141
700.099	0.0160648
700.177	0.0161600
700.255	0.0163032
700.333	0.0163535
700.411	0.0163029
700.489	0.0161685
700.567	0.0163950
700.646	0.0163313
700.724	0.0161195
700.802	0.0163174
700.880	0.0160882
700.958	0.0162043
701.036	0.0161710
701.114	0.0160515
701.192	0.0159978
701.271	0.0160773
701.349	0.0160974
701.427	0.0160236
701.505	0.0161250
701.583	0.0159118
701.661	0.0160799
701.739	0.0161811
701.817	0.0161514
701.896	0.0161874
701.974	0.0162154
702.052	0.0162310
702.130	0.0163273
702.208	0.0162086
702.286	0.0161481
702.364	0.0161957
702.442	0.0160989
702.521	0.0162563
702.599	0.0162279
702.677	0.0162872
702.755	0.0162499
702.833	0.0161929
702.911	0.0162604
702.989	0.0162101
703.067	0.0162724
703.146	0.0161834
703.224	0.0162939
703.302	0.0162704
703.380	0.0159972
703.458	0.0160211
703.536	0.0163586
703.614	0.0161022
703.692	0.0160719
703.771	0.0160609
703.849	0.0161194
703.927	0.0160019
704.005	0.0158194
704.083	0.0159502
704.161	0.0158402
704.239	0.0159487
704.317	0.0160410
704.396	0.0160132
704.474	0.0160310
704.552	0.0160512
704.630	0.0163557
704.708	0.0164178
704.786	0.0164893
704.864	0.0167648
704.942	0.0168915
705.021	0.0169442
705.099	0.0170977
705.177	0.0171712
705.255	0.0173489
705.333	0.0173641
705.411	0.0174029
705.489	0.0172626
705.567	0.0173027
705.646	0.0171545
705.724	0.0169881
705.802	0.0168063
705.880	0.0168532
705.958	0.0167419
706.036	0.0164536
706.114	0.0164512
706.192	0.0160513
706.271	0.0160567
706.349	0.0157843
706.427	0.0157109
706.505	0.0158084
706.583	0.0155099
706.661	0.0153881
706.739	0.0155303
706.817	0.0154052
706.896	0.0155128
706.974	0.0155922
707.052	0.0156399
707.130	0.0159180
707.208	0.0160680
707.286	0.0163429
707.364	0.0165836
707.442	0.0166478
707.521	0.0166523
707.599	0.0167562
707.677	0.0168313
707.755	0.0168481
707.833	0.0167253
707.911	0.0165563
707.989	0.0162878
708.067	0.0162198
708.146	0.0158935
708.224	0.0156198
708.302	0.0155080
708.380	0.0151474
708.458	0.0151694
708.536	0.0150957
708.614	0.0149236
708.692	0.0149695
708.771	0.0150436
708.849	0.0150925
708.927	0.0149918
709.005	0.0152232
709.083	0.0154078
709.161	0.0156828
709.239	0.0159782
709.317	0.0161636
709.396	0.0164482
709.474	0.0167474
709.552	0.0169512
709.630	0.0171990
709.708	0.0173671
709.786	0.0173721
709.864	0.0175908
709.942	0.0176301
710.021	0.0177578
710.099	0.0177590
710.177	0.0177229
710.255	0.0174790
710.333	0.0175180
710.411	0.0173861
710.489	0.0171214
710.567	0.0169086
710.646	0.0169124
710.724	0.0165918
710.802	0.0162447
710.880	0.0159566
710.958	0.0160523
711.036	0.0158739
711.114	0.0155370
711.192	0.0156106
711.271	0.0156997
711.349	0.0155272
711.427	0.0155547
711.505	0.0156174
711.583	0.0157916
711.661	0.0159229
711.739	0.0158260
711.817	0.0160079
711.896	0.0162211
711.974	0.0163073
712.052	0.0164343
712.130	0.0166059
712.208	0.0168745
712.286	0.0169224
712.364	0.0171693
712.442	0.0173064
712.521	0.0173930
712.599	0.0175579
712.677	0.0175743
712.755	0.0175210
712.833	0.0177319
712.911	0.0175071
712.989	0.0173574
713.067	0.0171920
713.146	0.0167482
713.224	0.0165441
713.302	0.0161764
713.380	0.0160417
713.458	0.0155902
713.536	0.0150372
713.614	0.0147935
713.692	0.0146992
713.771	0.0145152
713.849	0.0142527
713.927	0.0142684
714.005	0.0143622
714.083	0.0143836
714.161	0.0145323
714.239	0.0146606
714.317	0.0148305
714.396	0.0149325
714.474	0.0152641
714.552	0.0152309
714.630	0.0154217
714.708	0.0156006
714.786	0.0157115
714.864	0.0156828
714.942	0.0158058
715.021	0.0155560
715.099	0.0156818
715.177	0.0158304
715.255	0.0158720
715.333	0.0159550
715.411	0.0160780
715.489	0.0163617
715.567	0.0164606
715.646	0.0168515
715.724	0.0169980
715.802	0.0172466
715.880	0.0175938
715.958	0.0178244
716.036	0.0178629
716.114	0.0180965
716.192	0.0182096
716.271	0.0182016
716.349	0.0182423
716.427	0.0182305
716.505	0.0180698
716.583	0.0178123
716.661	0.0176330
716.739	0.0173466
716.817	0.0171026
716.896	0.0170754
716.974	0.0168967
717.052	0.0167873
717.130	0.0166056
717.208	0.0163911
717.286	0.0161593
717.364	0.0160123
717.442	0.0158393
717.521	0.0157903
717.599	0.0154684
717.677	0.0155232
717.755	0.0156057
717.833	0.0155546
717.911	0.0156143
717.989	0.0156720
718.067	0.0158666
718.146	0.0160427
718.224	0.0161221
718.302	0.0162131
718.380	0.0164394
718.458	0.0167231
718.536	0.0168522
718.614	0.0167593
718.692	0.0168268
718.771	0.0168576
718.849	0.0167213
718.927	0.0166808
719.005	0.0167741
719.083	0.0167615
719.161	0.0166140
719.239	0.0167574
719.317	0.0167104
719.396	0.0166443
719.474	0.0167646
719.552	0.0168339
719.630	0.0168488
719.708	0.0166740
719.786	0.0165382
719.864	0.0163719
719.942	0.0160760
720.021	0.0158852
720.099	0.0156710
720.177	0.0154482
720.255	0.0150959
720.333	0.0149506
720.411	0.0148402
720.489	0.0144776
720.567	0.0144132
720.646	0.0142931
720.724	0.0141807
720.802	0.0140330
720.880	0.0141077
720.958	0.0141861
721.036	0.0142689
721.114	0.0142932
721.192	0.0142039
721.271	0.0143816
721.349	0.0143490
721.427	0.0144218
721.505	0.0145894
721.583	0.0146927
721.661	0.0147402
721.739	0.0147906
721.817	0.0150149
721.896	0.0155237
721.974	0.0156268
722.052	0.0159363
722.130	0.0163636
722.208	0.0168082
722.286	0.0171609
722.364	0.0175424
722.442	0.0179429
722.521	0.0182908
722.599	0.0187820
722.677	0.0190607
722.755	0.0192664
722.833	0.0196435
722.911	0.0196420
722.989	0.0197929
723.067	0.0198920
723.146	0.0197134
723.224	0.0194327
723.302	0.0192525
723.380	0.0190102
723.458	0.0186491
723.536	0.0183221
723.614	0.0177560
723.692	0.0172751
723.771	0.0168333
723.849	0.0164442
723.927	0.0160400
724.005	0.0157713
724.083	0.0154340
724.161	0.0154521
724.239	0.0153186
724.317	0.0152689
724.396	0.0151765
724.474	0.0153670
724.552	0.0154155
724.630	0.0154305
724.708	0.0157198
724.786	0.0159660
724.864	0.0160210
724.942	0.0162963
725.021	0.0163300
725.099	0.0165624
725.177	0.0166671
725.255	0.0166932
725.333	0.0169511
725.411	0.0169534
725.489	0.0171411
725.567	0.0170071
725.646	0.0170267
725.724	0.0168559
725.802	0.0166235
725.880	0.0165511
725.958	0.0161909
726.036	0.0158356
726.114	0.0155621
726.192	0.0151864
726.271	0.0149355
726.349	0.0145942
726.427	0.0142588
726.505	0.0138039
726.583	0.0134190
726.661	0.0133186
726.739	0.0132742
726.817	0.0129906
726.896	0.0129379
726.974	0.0128784
727.052	0.0129790
727.130	0.0131383
727.208	0.0132565
727.286	0.0133953
727.364	0.0136974
727.442	0.0140765
727.521	0.0144926
727.599	0.0146722
727.677	0.0151226
727.755	0.0154810
727.833	0.0158181
727.911	0.0162917
727.989	0.0165590
728.067	0.0167915
728.146	0.0170598
728.224	0.0174051
728.302	0.0176867
728.380	0.0178094
728.458	0.0179208
728.536	0.0180632
728.614	0.0183691
728.692	0.0185319
728.771	0.0188570
728.849	0.0189827
728.927	0.0194042
729.005	0.0194749
729.083	0.0198936
729.161	0.0201095
729.239	0.0199218
729.317	0.0201343
729.396	0.0202397
729.474	0.0199733
729.552	0.0197279
729.630	0.0193124
729.708	0.0190084
729.786	0.0185283
729.864	0.0180964
729.942	0.0174963
730.021	0.0170386
730.099	0.0165766
730.177	0.0161172
730.255	0.0155471
730.333	0.0150026
730.411	0.0145951
730.489	0.0143054
730.567	0.0137829
730.646	0.0137234
730.724	0.0135113
730.802	0.0134302
730.880	0.0135693
730.958	0.0139204
731.036	0.0142825
731.114	0.0146787
731.192	0.0151070
731.271	0.0155754
731.349	0.0161034
731.427	0.0166105
731.505	0.0171650
731.583	0.0175724
731.661	0.0178146
731.739	0.0180078
731.817	0.0181191
731.896	0.0182413
731.974	0.0182368
732.052	0.0181738
732.130	0.0181265
732.208	0.0178959
732.286	0.0177031
732.364	0.0177309
732.442	0.0173782
732.521	0.0170831
732.599	0.0168656
732.677	0.0166257
732.755	0.0164245
732.833	0.0162546
732.911	0.0158650
732.989	0.0155499
733.067	0.0153064
733.146	0.0149052
733.224	0.0148167
733.302	0.0144320
733.380	0.0139465
733.458	0.0136309
733.536	0.0133620
733.614	0.0129205
733.692	0.0125211
733.771	0.0121965
733.849	0.0119015
733.927	0.0119614
734.005	0.0118719
734.083	0.0119370
734.161	0.0118908
734.239	0.0122160
734.317	0.0125844
734.396	0.0131384
734.474	0.0134450
734.552	0.0140718
734.630	0.0147115
734.708	0.0154366
734.786	0.0159589
734.864	0.0165125
734.942	0.0171501
735.021	0.0178278
735.099	0.0183157
735.177	0.0188533
735.255	0.0191880
735.333	0.0195830
735.411	0.0197462
735.489	0.0197810
735.567	0.0198304
735.646	0.0198664
735.724	0.0197383
735.802	0.0194348
735.880	0.0189829
735.958	0.0187154
736.036	0.0184953
736.114	0.0182748
736.192	0.0180048
736.271	0.0176312
736.349	0.0174432
736.427	0.0173694
736.505	0.0172987
736.583	0.0172675
736.661	0.0172690
736.739	0.0174185
736.817	0.0175680
736.896	0.0178208
736.974	0.0179832
737.052	0.0179345
737.130	0.0182114
737.208	0.0183682
737.286	0.0186803
737.364	0.0188988
737.442	0.0189037
737.521	0.0189853
737.599	0.0191799
737.677	0.0191993
737.755	0.0192803
737.833	0.0193623
737.911	0.0193659
737.989	0.0192206
738.067	0.0189374
738.146	0.0185682
738.224	0.0181676
738.302	0.0178027
738.380	0.0172846
738.458	0.0167393
738.536	0.0160875
738.614	0.0154214
738.692	0.0147073
738.771	0.0140040
738.849	0.0133144
738.927	0.0128223
739.005	0.0123388
739.083	0.0117413
739.161	0.0112527
739.239	0.0111061
739.317	0.0107863
739.396	0.0105673
739.474	0.0105322
739.552	0.0103300
739.630	0.0101971
739.708	0.0102682
739.786	0.0103946
739.864	0.0104166
739.942	0.0107951
740.021	0.0110434
740.099	0.0113387
740.177	0.0116244
740.255	0.0121041
740.333	0.0125769
740.411	0.0130365
740.489	0.0136003
740.567	0.0141984
740.646	0.0148033
740.724	0.0156074
740.802	0.0163504
740.880	0.0169460
740.958	0.0175951
741.036	0.0181281
741.114	0.0187782
741.192	0.0191374
741.271	0.0195619
741.349	0.0195625
741.427	0.0195332
741.505	0.0195184
741.583	0.0194337
741.661	0.0192261
741.739	0.0190703
741.817	0.0187517
741.896	0.0185603
741.974	0.0183356
742.052	0.0182202
742.130	0.0182343
742.208	0.0183042
742.286	0.0184560
742.364	0.0186069
742.442	0.0187228
742.521	0.0190729
742.599	0.0194067
742.677	0.0195715
742.755	0.0197120
742.833	0.0200491
742.911	0.0202913
742.989	0.0202554
743.067	0.0203300
743.146	0.0204260
743.224	0.0203173
743.302	0.0202402
743.380	0.0203503
743.458	0.0198957
743.536	0.0197351
743.614	0.0194584
743.692	0.0192738
743.771	0.0190296
743.849	0.0187178
743.927	0.0182514
744.005	0.0178430
744.083	0.0175452
744.161	0.0168024
744.239	0.0162103
744.317	0.0156436
744.396	0.0151876
744.474	0.0147462
744.552	0.0140818
744.630	0.0136652
744.708	0.0132198
744.786	0.0129140
744.864	0.0127638
744.942	0.0123978
745.021	0.0121748
745.099	0.0120356
745.177	0.0119171
745.255	0.0116982
745.333	0.0114915
745.411	0.0115099
745.489	0.0114320
745.567	0.0114361
745.646	0.0115588
745.724	0.0114327
745.802	0.0115074
745.880	0.0115826
745.958	0.0116904
746.036	0.0119482
746.114	0.0120978
746.192	0.0124455
746.271	0.0126893
746.349	0.0131025
746.427	0.0135706
746.505	0.0140121
746.583	0.0143317
746.661	0.0148373
746.739	0.0155031
746.817	0.0159232
746.896	0.0165183
746.974	0.0169975
747.052	0.0173528
747.130	0.0179062
747.208	0.0180632
747.286	0.0182989
747.364	0.0183835
747.442	0.0185335
747.521	0.0185486
747.599	0.0185056
747.677	0.0186713
747.755	0.0186104
747.833	0.0184649
747.911	0.0186003
747.989	0.0185646
748.067	0.0188404
748.146	0.0190561
748.224	0.0191416
748.302	0.0194724
748.380	0.0196539
748.458	0.0197044
748.536	0.0199329
748.614	0.0199486
748.692	0.0199615
748.771	0.0199688
748.849	0.0198691
748.927	0.0198062
749.005	0.0195959
749.083	0.0196013
749.161	0.0195190
749.239	0.0190899
749.317	0.0189178
749.396	0.0188770
749.474	0.0186673
749.552	0.0185107
749.630	0.0183073
749.708	0.0179671
749.786	0.0176196
749.864	0.0171599
749.942	0.0167558
750.021	0.0162215
750.099	0.0157943
750.177	0.0152315
750.255	0.0148960
750.333	0.0143372
750.411	0.0139611
750.489	0.0136091
750.567	0.0132400
750.646	0.0133131
750.724	0.0130127
750.802	0.0127745
750.880	0.0127959
750.958	0.0127309
751.036	0.0128158
751.114	0.0127281
751.192	0.0129432
751.271	0.0130347
751.349	0.0130643
751.427	0.0132375
751.505	0.0133546
751.583	0.0135735
751.661	0.0139816
751.739	0.0141980
751.817	0.0145919
751.896	0.0147429
751.974	0.0150800
752.052	0.0154440
752.130	0.0156197
752.208	0.0159486
752.286	0.0161752
752.364	0.0163002
752.442	0.0164993
752.521	0.0166334
752.599	0.0167403
752.677	0.0167513
752.755	0.0169353
752.833	0.0170370
752.911	0.0170993
752.989	0.0170699
753.067	0.0171163
753.146	0.0171928
753.224	0.0172643
753.302	0.0170669
753.380	0.0173010
753.458	0.0169721
753.536	0.0169982
753.614	0.0169716
753.692	0.0169844
753.771	0.0170576
753.849	0.0169973
753.927	0.0170427
754.005	0.0170296
754.083	0.0172050
754.161	0.0172292
754.239	0.0174356
754.317	0.0173699
754.396	0.0175585
754.474	0.0174828
754.552	0.0175915
754.630	0.0176115
754.708	0.0175091
754.786	0.0175709
754.864	0.0177053
754.942	0.0175578
755.021	0.0175598
755.099	0.0177951
755.177	0.0178733
755.255	0.0176525
755.333	0.0177798
755.411	0.0178403
755.489	0.0177985
755.567	0.0176015
755.646	0.0175060
755.724	0.0172353
755.802	0.0170478
755.880	0.0167671
755.958	0.0165755
756.036	0.0163647
756.114	0.0160002
756.192	0.0158115
756.271	0.0157194
756.349	0.0153658
756.427	0.0153132
756.505	0.0150421
756.583	0.0148924
756.661	0.0147954
756.739	0.0147560
756.817	0.0144679
756.896	0.0143398
756.974	0.0144093
757.052	0.0143496
757.130	0.0143305
757.208	0.0143951
757.286	0.0142390
757.364	0.0144640
757.442	0.0146221
757.521	0.0149738
757.599	0.0150866
757.677	0.0151905
757.755	0.0155291
757.833	0.0155954
757.911	0.0158978
757.989	0.0159882
758.067	0.0161524
758.146	0.0164058
758.224	0.0164622
758.302	0.0165331
758.380	0.0165698
758.458	0.0167682
758.536	0.0167626
758.614	0.0169290
758.692	0.0169954
758.771	0.0170202
758.849	0.0170562
758.927	0.0170871
759.005	0.0168180
759.083	0.0169411
759.161	0.0169115
759.239	0.0169678
759.317	0.0169646
759.396	0.0167746
759.474	0.0168911
759.552	0.0169189
759.630	0.0170093
759.708	0.0171001
759.786	0.0171166
759.864	0.0170968
759.942	0.0171629
760.021	0.0172277
760.099	0.0172914
760.177	0.0173100
760.255	0.0172522
760.333	0.0173913
760.411	0.0172591
760.489	0.0172848
760.567	0.0173193
760.646	0.0172149
760.724	0.0171725
760.802	0.0171969
760.880	0.0172462
760.958	0.0169095
761.036	0.0168903
761.114	0.0171482
761.192	0.0170633
761.271	0.0168990
761.349	0.0170063
761.427	0.0167890
761.505	0.0166330
761.583	0.0163978
761.661	0.0162063
761.739	0.0160163
761.817	0.0158202
761.896	0.0155523
761.974	0.0153288
762.052	0.0149931
762.130	0.0147671
762.208	0.0146457
762.286	0.0145715
762.364	0.0143937
762.442	0.0141238
762.521	0.0143349
762.599	0.0140219
762.677	0.0140637
762.755	0.0140137
762.833	0.0140681
762.911	0.0141615
762.989	0.0142322
763.067	0.0144270
763.146	0.0145758
763.224	0.0147855
763.302	0.0150097
763.380	0.0151805
763.458	0.0155718
763.536	0.0157278
763.614	0.0160837
763.692	0.0163680
763.771	0.0165500
763.849	0.0169660
763.927	0.0171134
764.005	0.0173957
764.083	0.0175864
764.161	0.0176131
764.239	0.0177296
764.317	0.0178839
764.396	0.0179343
764.474	0.0177499
764.552	0.0178238
764.630	0.0176788
764.708	0.0176487
764.786	0.0175619
764.864	0.0175029
764.942	0.0174229
765.021	0.0172391
765.099	0.0170577
765.177	0.0168636
765.255	0.0166179
765.333	0.0165144
765.411	0.0163434
765.489	0.0161272
765.567	0.0160912
765.646	0.0160311
765.724	0.0157815
765.802	0.0158385
765.880	0.0159717
765.958	0.0157560
766.036	0.0159507
766.114	0.0160854
766.192	0.0162828
766.271	0.0163237
766.349	0.0165101
766.427	0.0167896
766.505	0.0168051
766.583	0.0170581
766.661	0.0171703
766.739	0.0170956
766.817	0.0173540
766.896	0.0174662
766.974	0.0173817
767.052	0.0173354
767.130	0.0171534
767.208	0.0170404
767.286	0.0169382
767.364	0.0165757
767.442	0.0165771
767.521	0.0162986
767.599	0.0160622
767.677	0.0157996
767.755	0.0157051
767.833	0.0156281
767.911	0.0153280
767.989	0.0153403
768.067	0.0153029
768.146	0.0151295
768.224	0.0150745
768.302	0.0149767
768.380	0.0149639
768.458	0.0147315
768.536	0.0147727
768.614	0.0147732
768.692	0.0149191
768.771	0.0149114
768.849	0.0148626
768.927	0.0150426
769.005	0.0151843
769.083	0.0151093
769.161	0.0153903
769.239	0.0154167
769.317	0.0156095
769.396	0.0158669
769.474	0.0158753
769.552	0.0161343
769.630	0.0162918
769.708	0.0164810
769.786	0.0165191
769.864	0.0166869
769.942	0.0168037
770.021	0.0167236
770.099	0.0169608
770.177	0.0168953
770.255	0.0168568
770.333	0.0168665
770.411	0.0167920
770.489	0.0168089
770.567	0.0165850
770.646	0.0163965
770.724	0.0164544
770.802	0.0162368
770.880	0.0161881
770.958	0.0160612
771.036	0.0159383
771.114	0.0157083
771.192	0.0157540
771.271	0.0158417
771.349	0.0157268
771.427	0.0157787
771.505	0.0156590
771.583	0.0157898
771.661	0.0158797
771.739	0.0160278
771.817	0.0163027
771.896	0.0165372
771.974	0.0166064
772.052	0.0169688
772.130	0.0171857
772.208	0.0174207
772.286	0.0176952
772.364	0.0178868
772.442	0.0181386
772.521	0.0182861
772.599	0.0184801
772.677	0.0185999
772.755	0.0184270
772.833	0.0183479
772.911	0.0183847
772.989	0.0183640
773.067	0.0180506
773.146	0.0177639
773.224	0.0174551
773.302	0.0171819
773.380	0.0169707
773.458	0.0165686
773.536	0.0162183
773.614	0.0160526
773.692	0.0158452
773.771	0.0155700
773.849	0.0151881
773.927	0.0148518
774.005	0.0148244
774.083	0.0147540
774.161	0.0147528
774.239	0.0144516
774.317	0.0145099
774.396	0.0146015
774.474	0.0145761
774.552	0.0147180
774.630	0.0148421
774.708	0.0149222
774.786	0.0151034
774.864	0.0152637
774.942	0.0154995
775.021	0.0156689
775.099	0.0159643
775.177	0.0161366
775.255	0.0163071
775.333	0.0164274
775.411	0.0165790
775.489	0.0167500
775.567	0.0167090
775.646	0.0168974
775.724	0.0169434
775.802	0.0168739
775.880	0.0168027
775.958	0.0167513
776.036	0.0167449
776.114	0.0165587
776.192	0.0165390
776.271	0.0165200
776.349	0.0164492
776.427	0.0162510
776.505	0.0161852
776.583	0.0160144
776.661	0.0158147
776.739	0.0157793
776.817	0.0156570
776.896	0.0155414
776.974	0.0154507
777.052	0.0153940
777.130	0.0153506
777.208	0.0154890
777.286	0.0153729
777.364	0.0154177
777.442	0.0154942
777.521	0.0155070
777.599	0.0157372
777.677	0.0159464
777.755	0.0160887
777.833	0.0163244
777.911	0.0166926
777.989	0.0168067
778.067	0.0168684
778.146	0.0171552
778.224	0.0172824
778.302	0.0174097
778.380	0.0174741
778.458	0.0176332
778.536	0.0176945
778.614	0.0175759
778.692	0.0177432
778.771	0.0175787
778.849	0.0175981
778.927	0.0172739
779.005	0.0170982
779.083	0.0169171
779.161	0.0170619
779.239	0.0167742
779.317	0.0165247
779.396	0.0164632
779.474	0.0162679
779.552	0.0161172
779.630	0.0159058
779.708	0.0157815
779.786	0.0158681
779.864	0.0156431
779.942	0.0156142
780.021	0.0154639
780.099	0.0156062
780.177	0.0156966
780.255	0.0155606
780.333	0.0157318
780.411	0.0158405
780.489	0.0157938
780.567	0.0159904
780.646	0.0160342
780.724	0.0162181
780.802	0.0163384
780.880	0.0165398
780.958	0.0164775
781.036	0.0166572
781.114	0.0167044
781.192	0.0168217
781.271	0.0170065
781.349	0.0171896
781.427	0.0172452
781.505	0.0171796
781.583	0.0171855
781.661	0.0171322
781.739	0.0171352
781.817	0.0171304
781.896	0.0171354
781.974	0.0168938
782.052	0.0167572
782.130	0.0163506
782.208	0.0161737
782.286	0.0161337
782.364	0.0159248
782.442	0.0155605
782.521	0.0154104
782.599	0.0152337
782.677	0.0151224
782.755	0.0149496
782.833	0.0149253
782.911	0.0149171
782.989	0.0147655
783.067	0.0147247
783.146	0.0149741
783.224	0.0150220
783.302	0.0151550
783.380	0.0153149
783.458	0.0155410
783.536	0.0156934
783.614	0.0159167
783.692	0.0161342
783.771	0.0162534
783.849	0.0164718
783.927	0.0165881
784.005	0.0166758
784.083	0.0168257
784.161	0.0170429
784.239	0.0172494
784.317	0.0171332
784.396	0.0172722
784.474	0.0172062
784.552	0.0171073
784.630	0.0171133
784.708	0.0170664
784.786	0.0169927
784.864	0.0168217
784.942	0.0167757
785.021	0.0166847
785.099	0.0166576
785.177	0.0163519
785.255	0.0162021
785.333	0.0161436
785.411	0.0161142
785.489	0.0160515
785.567	0.0158704
785.646	0.0158005
785.724	0.0158464
785.802	0.0158022
785.880	0.0157079
785.958	0.0156141
786.036	0.0155904
786.114	0.0156674
786.192	0.0156467
786.271	0.0157064
786.349	0.0158439
786.427	0.0160207
786.505	0.0160419
786.583	0.0160902
786.661	0.0162193
786.739	0.0162471
786.817	0.0163016
786.896	0.0163968
786.974	0.0165779
787.052	0.0166620
787.130	0.0167755
787.208	0.0166999
787.286	0.0167480
787.364	0.0168612
787.442	0.0168182
787.521	0.0169263
787.599	0.0167239
787.677	0.0169303
787.755	0.0168049
787.833	0.0168841
787.911	0.0167390
787.989	0.0167262
788.067	0.0167297
788.146	0.0166654
788.224	0.0166535
788.302	0.0166931
788.380	0.0163841
788.458	0.0164228
788.536	0.0164956
788.614	0.0161491
788.692	0.0161505
788.771	0.0160467
788.849	0.0159589
788.927	0.0158176
789.005	0.0157651
789.083	0.0158549
789.161	0.0159441
789.239	0.0159872
789.317	0.0159998
789.396	0.0159904
789.474	0.0160191
789.552	0.0161116
789.630	0.0161601
789.708	0.0162964
789.786	0.0162176
789.864	0.0162392
789.942	0.0164684
790.021	0.0164787
790.099	0.0164987
790.177	0.0164165
790.255	0.0163821
790.333	0.0164281
790.411	0.0163641
790.489	0.0163282
790.567	0.0163207
790.646	0.0161884
790.724	0.0163011
790.802	0.0163166
790.880	0.0161430
790.958	0.0161028
791.036	0.0160604
791.114	0.0159721
791.192	0.0158935
791.271	0.0159434
791.349	0.0158641
791.427	0.0158450
791.505	0.0158004
791.583	0.0159046
791.661	0.0158897
791.739	0.0158839
791.817	0.0157771
791.896	0.0158554
791.974	0.0158986
792.052	0.0160565
792.130	0.0160861
792.208	0.0160648
792.286	0.0162562
792.364	0.0162139
792.442	0.0163074
792.521	0.0164494
792.599	0.0166051
792.677	0.0166222
792.755	0.0165958
792.833	0.0168156
792.911	0.0167112
792.989	0.0167342
793.067	0.0169389
793.146	0.0168686
793.224	0.0170350
793.302	0.0167704
793.380	0.0168595
793.458	0.0168507
793.536	0.0166329
793.614	0.0166955
793.692	0.0166454
793.771	0.0164711
793.849	0.0165397
793.927	0.0163258
794.005	0.0163058
794.083	0.0163530
794.161	0.0161173
794.239	0.0159428
794.317	0.0160601
794.396	0.0159107
794.474	0.0160128
794.552	0.0160780
794.630	0.0161041
794.708	0.0160594
794.786	0.0158334
794.864	0.0159340
794.942	0.0161223
795.021	0.0160030
795.099	0.0160944
795.177	0.0161758
795.255	0.0163168
795.333	0.0163506
795.411	0.0162575
795.489	0.0165219
795.567	0.0165768
795.646	0.0167453
795.724	0.0168560
795.802	0.0169499
795.880	0.0168642
795.958	0.0170329
796.036	0.0170753
796.114	0.0169168
796.192	0.0170027
796.271	0.0170000
796.349	0.0168546
796.427	0.0169737
796.505	0.0167356
796.583	0.0166245
796.661	0.0166343
796.739	0.0165302
796.817	0.0164555
796.896	0.0164053
796.974	0.0163826
797.052	0.0163092
797.130	0.0162550
797.208	0.0160636
797.286	0.0161244
797.364	0.0160175
797.442	0.0159722
797.521	0.0158904
797.599	0.0159721
797.677	0.0157613
797.755	0.0157685
797.833	0.0156775
797.911	0.0156847
797.989	0.0156490
798.067	0.0156934
798.146	0.0158870
798.224	0.0156558
798.302	0.0155222
798.380	0.0156779
798.458	0.0158013
798.536	0.0157848
798.614	0.0158386
798.692	0.0160809
798.771	0.0162408
798.849	0.0162067
798.927	0.0161911
799.005	0.0164615
799.083	0.0164195
799.161	0.0164257
799.239	0.0167191
799.317	0.0166392
799.396	0.0166252
799.474	0.0168206
799.552	0.0167152
799.630	0.0166370
799.708	0.0166850
799.786	0.0167125
799.864	0.0167388
799.942	0.0166608
800.021	0.0165488
800.099	0.0166286
800.177	0.0162431
800.255	0.0160891
800.333	0.0161906
800.411	0.0161707
800.489	0.0161514
800.567	0.0160763
800.646	0.0160943
800.724	0.0159106
800.802	0.0160318
800.880	0.0160367
800.958	0.0159553
801.036	0.0159657
801.114	0.0159920
801.192	0.0161514
801.271	0.0162806
801.349	0.0161036
801.427	0.0162169
801.505	0.0161946
801.583	0.0161513
801.661	0.0163032
801.739	0.0162705
801.817	0.0162710
801.896	0.0163681
801.974	0.0165909
802.052	0.0164485
802.130	0.0165285
802.208	0.0166055
802.286	0.0166113
802.364	0.0167322
802.442	0.0167430
802.521	0.0167480
802.599	0.0167517
802.677	0.0166622
802.755	0.0165876
802.833	0.0166398
802.911	0.0166594
802.989	0.0165762
803.067	0.0164270
803.146	0.0163374
803.224	0.0164320
803.302	0.0161642
803.380	0.0161673
803.458	0.0159747
803.536	0.0159914
803.614	0.0159303
803.692	0.0158549
803.771	0.0157386
803.849	0.0159313
803.927	0.0159386
804.005	0.0158218
804.083	0.0161221
804.161	0.0160195
804.239	0.0159226
804.317	0.0159966
804.396	0.0161279
804.474	0.0159923
804.552	0.0161149
804.630	0.0162207
804.708	0.0163652
804.786	0.0162605
804.864	0.0162268
804.942	0.0163254
805.021	0.0164579
805.099	0.0163340
805.177	0.0164535
805.255	0.0164186
805.333	0.0163125
805.411	0.0163828
805.489	0.0163509
805.567	0.0165476
805.646	0.0163615
805.724	0.0162061
805.802	0.0162594
805.880	0.0163329
805.958	0.0161575
806.036	0.0160603
806.114	0.0160280
806.192	0.0160645
806.271	0.0160592
806.349	0.0160836
806.427	0.0160601
806.505	0.0162135
806.583	0.0160971
806.661	0.0161073
806.739	0.0161115
806.817	0.0161304
806.896	0.0160130
806.974	0.0161668
807.052	0.0163114
807.130	0.0161010
807.208	0.0162131
807.286	0.0161554
807.364	0.0163395
807.442	0.0162544
807.521	0.0160950
807.599	0.0161209
807.677	0.0163161
807.755	0.0161951
807.833	0.0162635
807.911	0.0162718
807.989	0.0162904
808.067	0.0163858
808.146	0.0165305
808.224	0.0164824
808.302	0.0165075
808.380	0.0165708
808.458	0.0165712
808.536	0.0165876
808.614	0.0165858
808.692	0.0167691
808.771	0.0166894
808.849	0.0166628
808.927	0.0166457
809.005	0.0166409
809.083	0.0165733
809.161	0.0165199
809.239	0.0163971
809.317	0.0163808
809.396	0.0163154
809.474	0.0161565
809.552	0.0161065
809.630	0.0160599
809.708	0.0160288
809.786	0.0159138
809.864	0.0158401
809.942	0.0159427
810.021	0.0156682
810.099	0.0159216
810.177	0.0158335
810.255	0.0158547
810.333	0.0159854
810.411	0.0160452
810.489	0.0161554
810.567	0.0162246
810.646	0.0161089
810.724	0.0163474
810.802	0.0163306
810.880	0.0164874
810.958	0.0163461
811.036	0.0163987
811.114	0.0165630
811.192	0.0165272
811.271	0.0166656
811.349	0.0165870
811.427	0.0164020
811.505	0.0163831
811.583	0.0164595
811.661	0.0163562
811.739	0.0163522
811.817	0.0162775
811.896	0.0161547
811.974	0.0162464
812.052	0.0162141
812.130	0.0161824
812.208	0.0161446
812.286	0.0161782
812.364	0.0161560
812.442	0.0162392
812.521	0.0161626
812.599	0.0161646
812.677	0.0161774
812.755	0.0161973
812.833	0.0161734
812.911	0.0161451
812.989	0.0162516
813.067	0.0164962
813.146	0.0164090
813.224	0.0164027
813.302	0.0163667
813.380	0.0165204
813.458	0.0165468
813.536	0.0166651
813.614	0.0168094
813.692	0.0165771
813.771	0.0167697
813.849	0.0167049
813.927	0.0166261
814.005	0.0165928
814.083	0.0166461
814.161	0.0165621
814.239	0.0165688
814.317	0.0164214
814.396	0.0163436
814.474	0.0162130
814.552	0.0162144
814.630	0.0161642
814.708	0.0160135
814.786	0.0160162
814.864	0.0159962
814.942	0.0160352
815.021	0.0158682
815.099	0.0158819
815.177	0.0158451
815.255	0.0158905
815.333	0.0159720
815.411	0.0159550
815.489	0.0159756
815.567	0.0159560
815.646	0.0161398
815.724	0.0159893
815.802	0.0161153
815.880	0.0161806
815.958	0.0161100
816.036	0.0163985
816.114	0.0163523
816.192	0.0163456
816.271	0.0165411
816.349	0.0163614
816.427	0.0163873
816.505	0.0165765
816.583	0.0166096
816.661	0.0165108
816.739	0.0165058
816.817	0.0165143
816.896	0.0165485
816.974	0.0165758
817.052	0.0166463
817.130	0.0165292
817.208	0.0165295
817.286	0.0164134
817.364	0.0165105
817.442	0.0163781
817.521	0.0162260
817.599	0.0164268
817.677	0.0163044
817.755	0.0161441
817.833	0.0160660
817.911	0.0160437
817.989	0.0160995
818.067	0.0159068
818.146	0.0158559
818.224	0.0158286
818.302	0.0158782
818.380	0.0158471
818.458	0.0157874
818.536	0.0159906
818.614	0.0159703
818.692	0.0158965
818.771	0.0160971
818.849	0.0162148
818.927	0.0162051
819.005	0.0162275
819.083	0.0163184
819.161	0.0165316
819.239	0.0165201
819.317	0.0164862
819.396	0.0167439
819.474	0.0168021
819.552	0.0167578
819.630	0.0167750
819.708	0.0169039
819.786	0.0169958
819.864	0.0169780
819.942	0.0170351
820.021	0.0169437
820.099	0.0169407
820.177	0.0169849
820.255	0.0169176
820.333	0.0168377
820.411	0.0166624
820.489	0.0166377
820.567	0.0165443
820.646	0.0164199
820.724	0.0163579
820.802	0.0162459
820.880	0.0162338
820.958	0.0161318
821.036	0.0160422
821.114	0.0160374
821.192	0.0161095
821.271	0.0161575
821.349	0.0161478
821.427	0.0161426
821.505	0.0161563
821.583	0.0161893
821.661	0.0162174
821.739	0.0162971
821.817	0.0162223
821.896	0.0162243
821.974	0.0161787
822.052	0.0163398
822.130	0.0162638
822.208	0.0162794
822.286	0.0163200
822.364	0.0162963
822.442	0.0162382
822.521	0.0163102
822.599	0.0163537
822.677	0.0161731
822.755	0.0162688
822.833	0.0161366
822.911	0.0159511
822.989	0.0160762
823.067	0.0161622
823.146	0.0158926
823.224	0.0159713
823.302	0.0158883
823.380	0.0158482
823.458	0.0158336
823.536	0.0157925
823.614	0.0157738
823.692	0.0157728
823.771	0.0158105
823.849	0.0158273
823.927	0.0158372
824.005	0.0157123
824.083	0.0159608
824.161	0.0158372
824.239	0.0157724
824.317	0.0159190
824.396	0.0160201
824.474	0.0162193
824.552	0.0162534
824.630	0.0161200
824.708	0.0163266
824.786	0.0164291
824.864	0.0165328
824.942	0.0166901
825.021	0.0168039
825.099	0.0168188
825.177	0.0166169
825.255	0.0168549
825.333	0.0169284
825.411	0.0169266
825.489	0.0169080
825.567	0.0169351
825.646	0.0168926
825.724	0.0169917
825.802	0.0168072
825.880	0.0169945
825.958	0.0168092
826.036	0.0166733
826.114	0.0166481
826.192	0.0165505
826.271	0.0165955
826.349	0.0162915
826.427	0.0164097
826.505	0.0162964
826.583	0.0163626
826.661	0.0161649
826.739	0.0162209
826.817	0.0161867
826.896	0.0161916
826.974	0.0162057
827.052	0.0160910
827.130	0.0162478
827.208	0.0161251
827.286	0.0162861
827.364	0.0162318
827.442	0.0162869
827.521	0.0162395
827.599	0.0160948
827.677	0.0161496
827.755	0.0162341
827.833	0.0162822
827.911	0.0162922
827.989	0.0161337
828.067	0.0163686
828.146	0.0162386
828.224	0.0162092
828.302	0.0161493
828.380	0.0161907
828.458	0.0162291
828.536	0.0162070
828.614	0.0160921
828.692	0.0161796
828.771	0.0162172
828.849	0.0159629
828.927	0.0160927
829.005	0.0161253
829.083	0.0162193
829.161	0.0161588
829.239	0.0161381
829.317	0.0159747
829.396	0.0161135
829.474	0.0161907
829.552	0.0160374
829.630	0.0161288
829.708	0.0160564
829.786	0.0162300
829.864	0.0158650
829.942	0.0160364
830.021	0.0162229
830.099	0.0160496
830.177	0.0160283
830.255	0.0160050
830.333	0.0160048
830.411	0.0158881
830.489	0.0160176
830.567	0.0160482
830.646	0.0158640
830.724	0.0160336
830.802	0.0159399
830.880	0.0159214
830.958	0.0159132
831.036	0.0160063
831.114	0.0159897
831.192	0.0159418
831.271	0.0158984
831.349	0.0159326
831.427	0.0160810
831.505	0.0159740
831.583	0.0160606
831.661	0.0162103
831.739	0.0163186
831.817	0.0163167
831.896	0.0164070
831.974	0.0163327
832.052	0.0163113
832.130	0.0164590
832.208	0.0164558
832.286	0.0165988
832.364	0.0166598
832.442	0.0165457
832.521	0.0166025
832.599	0.0167158
832.677	0.0167809
832.755	0.0167955
832.833	0.0169196
832.911	0.0168316
832.989	0.0168990
833.067	0.0167817
833.146	0.0167838
833.224	0.0167989
833.302	0.0169328
833.380	0.0169659
833.458	0.0168914
833.536	0.0167009
833.614	0.0167694
833.692	0.0164878
833.771	0.0167224
833.849	0.0167670
833.927	0.0166116
834.005	0.0165796
834.083	0.0164768
834.161	0.0165508
834.239	0.0165047
834.317	0.0162550
834.396	0.0163864
834.474	0.0162328
834.552	0.0162230
834.630	0.0162270
834.708	0.0161547
834.786	0.0159769
834.864	0.0160799
834.942	0.0160040
835.021	0.0157271
835.099	0.0157864
835.177	0.0157431
835.255	0.0157982
835.333	0.0159732
835.411	0.0157278
835.489	0.0157006
835.567	0.0157777
835.646	0.0157964
835.724	0.0159204
835.802	0.0158159
835.880	0.0159396
835.958	0.0160143
836.036	0.0158606
836.114	0.0157576
836.192	0.0158758
836.271	0.0158694
836.349	0.0159195
836.427	0.0159225
836.505	0.0158064
836.583	0.0158303
836.661	0.0159103
836.739	0.0158238
836.817	0.0157250
836.896	0.0158372
836.974	0.0159309
837.052	0.0158480
837.130	0.0160197
837.208	0.0160406
837.286	0.0158733
837.364	0.0158463
837.442	0.0160226
837.521	0.0162124
837.599	0.0160528
837.677	0.0161940
837.755	0.0163334
837.833	0.0164632
837.911	0.0163834
837.989	0.0165456
838.067	0.0167662
838.146	0.0167450
838.224	0.0168071
838.302	0.0169225
838.380	0.0171122
838.458	0.0172524
838.536	0.0172338
838.614	0.0171690
838.692	0.0172736
838.771	0.0173806
838.849	0.0173061
838.927	0.0172985
839.005	0.0173581
839.083	0.0172248
839.161	0.0172887
839.239	0.0172788
839.317	0.0171815
839.396	0.0169670
839.474	0.0170142
839.552	0.0168802
839.630	0.0166503
839.708	0.0166489
839.786	0.0166199
839.864	0.0165472
839.942	0.0164273
840.021	0.0163366
840.099	0.0162048
840.177	0.0162373
840.255	0.0160703
840.333	0.0160267
840.411	0.0160532
840.489	0.0159946
840.567	0.0159090
840.646	0.0158051
840.724	0.0158959
840.802	0.0158711
840.880	0.0158033
840.958	0.0160065
841.036	0.0158846
841.114	0.0159039
841.192	0.0158868
841.271	0.0158192
841.349	0.0158746
841.427	0.0158610
841.505	0.0159580
841.583	0.0159621
841.661	0.0159393
841.739	0.0157999
841.817	0.0158515
841.896	0.0159369
841.974	0.0158550
842.052	0.0158832
842.130	0.0158006
842.208	0.0156116
842.286	0.0156326
842.364	0.0157803
842.442	0.0157014
842.521	0.0158849
842.599	0.0158976
842.677	0.0156664
842.755	0.0158711
842.833	0.0159776
842.911	0.0161646
842.989	0.0160275
843.067	0.0160983
843.146	0.0160234
843.224	0.0160671
843.302	0.0161402
843.380	0.0162344
843.458	0.0162709
843.536	0.0163725
843.614	0.0164135
843.692	0.0165359
843.771	0.0165164
843.849	0.0165082
843.927	0.0164897
844.005	0.0166607
844.083	0.0167288
844.161	0.0167046
844.239	0.0169666
844.317	0.0169625
844.396	0.0171230
844.474	0.0170806
844.552	0.0170295
844.630	0.0170668
844.708	0.0173779
844.786	0.0171891
844.864	0.0170851
844.942	0.0170586
845.021	0.0170057
845.099	0.0170637
845.177	0.0169719
845.255	0.0168497
845.333	0.0169162
845.411	0.0167297
845.489	0.0166665
845.567	0.0166604
845.646	0.0166277
845.724	0.0165367
845.802	0.0164886
845.880	0.0162587
845.958	0.0163102
846.036	0.0160972
846.114	0.0161211
846.192	0.0162607
846.271	0.0160484
846.349	0.0159055
846.427	0.0160381
846.505	0.0158905
846.583	0.0159398
846.661	0.0158178
846.739	0.0157851
846.817	0.0157797
846.896	0.0159727
846.974	0.0158887
847.052	0.0157521
847.130	0.0157751
847.208	0.0159723
847.286	0.0158965
847.364	0.0159534
847.442	0.0160980
847.521	0.0159250
847.599	0.0160133
847.677	0.0159387
847.755	0.0159968
847.833	0.0160313
847.911	0.0159374
847.989	0.0159835
848.067	0.0159551
848.146	0.0160704
848.224	0.0158886
848.302	0.0159593
848.380	0.0159325
848.458	0.0159532
848.536	0.0160686
848.614	0.0159612
848.692	0.0160590
848.771	0.0160506
848.849	0.0159285
848.927	0.0160358
849.005	0.0160064
849.083	0.0162535
849.161	0.0163959
849.239	0.0163113
849.317	0.0162503
849.396	0.0165281
849.474	0.0165038
849.552	0.0164625
849.630	0.0166326
849.708	0.0167581
849.786	0.0166700
849.864	0.0167373
849.942	0.0167302
850.021	0.0167706
850.099	0.0169518
850.177	0.0168816
850.255	0.0166940
850.333	0.0168521
850.411	0.0167032
850.489	0.0169604
850.567	0.0167226
850.646	0.0167860
850.724	0.0168458
850.802	0.0166483
850.880	0.0166878
850.958	0.0166277
851.036	0.0165932
851.114	0.0165119
851.192	0.0166170
851.271	0.0165641
851.349	0.0165888
851.427	0.0164507
851.505	0.0165201
851.583	0.0165498
851.661	0.0164708
851.739	0.0163766
851.817	0.0164611
851.896	0.0164525
851.974	0.0164919
852.052	0.0163776
852.130	0.0163551
852.208	0.0161920
852.286	0.0163274
852.364	0.0162129
852.442	0.0161533
852.521	0.0161764
852.599	0.0161599
852.677	0.0160249
852.755	0.0160546
852.833	0.0160166
852.911	0.0161344
852.989	0.0160262
853.067	0.0160596
853.146	0.0159539
853.224	0.0159993
853.302	0.0158895
853.380	0.0159151
853.458	0.0159615
853.536	0.0160107
853.614	0.0159251
853.692	0.0159325
853.771	0.0159097
853.849	0.0160220
853.927	0.0160844
854.005	0.0160107
854.083	0.0161325
854.161	0.0160760
854.239	0.0160019
854.317	0.0160744
854.396	0.0159530
854.474	0.0161242
854.552	0.0161956
854.630	0.0159584
854.708	0.0161773
854.786	0.0159911
854.864	0.0160490
854.942	0.0160167
855.021	0.0160893
855.099	0.0163004
855.177	0.0162024
855.255	0.0162475
855.333	0.0164316
855.411	0.0164560
855.489	0.0166882
855.567	0.0165932
855.646	0.0164678
855.724	0.0167319
855.802	0.0166888
855.880	0.0168192
855.958	0.0168503
856.036	0.0166893
856.114	0.0165779
856.192	0.0168047
856.271	0.0168739
856.349	0.0169366
856.427	0.0167619
856.505	0.0167316
856.583	0.0167552
856.661	0.0167861
856.739	0.0165562
856.817	0.0164455
856.896	0.0164462
856.974	0.0163436
857.052	0.0163922
857.130	0.0163255
857.208	0.0162642
857.286	0.0162054
857.364	0.0161160
857.442	0.0160770
857.521	0.0161497
857.599	0.0161064
857.677	0.0160814
857.755	0.0161396
857.833	0.0161857
857.911	0.0162198
857.989	0.0162388
858.067	0.0163264
858.146	0.0163115
858.224	0.0163079
858.302	0.0161955
858.380	0.0161620
858.458	0.0162939
858.536	0.0163203
858.614	0.0163772
858.692	0.0163216
858.771	0.0163091
858.849	0.0161944
858.927	0.0163430
859.005	0.0162125
859.083	0.0161994
859.161	0.0161743
859.239	0.0161572
859.317	0.0162186
859.396	0.0161216
859.474	0.0159948
859.552	0.0158855
859.630	0.0159444
859.708	0.0159136
859.786	0.0159885
859.864	0.0160069
859.942	0.0158322
860.021	0.0159194
860.099	0.0158430
860.177	0.0159094
860.255	0.0160752
860.333	0.0159352
860.411	0.0159094
860.489	0.0159963
860.567	0.0160423
860.646	0.0159257
860.724	0.0160917
860.802	0.0163618
860.880	0.0161564
860.958	0.0163168
861.036	0.0163123
861.114	0.0162016
861.192	0.0164105
861.271	0.0164052
861.349	0.0164347
861.427	0.0164494
861.505	0.0165061
861.583	0.0165588
861.661	0.0164185
861.739	0.0164893
861.817	0.0164962
861.896	0.0165408
861.974	0.0165495
862.052	0.0165639
862.130	0.0165949
862.208	0.0165298
862.286	0.0165913
862.364	0.0164235
862.442	0.0162309
862.521	0.0164364
862.599	0.0164691
862.677	0.0163372
862.755	0.0162910
862.833	0.0164394
862.911	0.0162489
862.989	0.0164084
863.067	0.0163384
863.146	0.0163698
863.224	0.0162840
863.302	0.0161434
863.380	0.0163210
863.458	0.0161829
863.536	0.0162852
863.614	0.0162331
863.692	0.0162693
863.771	0.0164799
863.849	0.0162482
863.927	0.0162468
864.005	0.0162452
864.083	0.0162531
864.161	0.0163747
864.239	0.0163645
864.317	0.0164841
864.396	0.0163802
864.474	0.0164507
864.552	0.0162580
864.630	0.0164487
864.708	0.0161887
864.786	0.0162801
864.864	0.0162137
864.942	0.0162450
865.021	0.0162646
865.099	0.0161387
865.177	0.0161588
865.255	0.0161204
865.333	0.0159904
865.411	0.0160044
865.489	0.0160564
865.567	0.0159859
865.646	0.0160427
865.724	0.0160438
865.802	0.0160691
865.880	0.0160158
865.958	0.0159077
866.036	0.0159581
866.114	0.0159406
866.192	0.0159970
866.271	0.0159741
866.349	0.0161055
866.427	0.0161529
866.505	0.0159966
866.583	0.0160509
866.661	0.0160529
866.739	0.0160543
866.817	0.0162631
866.896	0.0162624
866.974	0.0161893
867.052	0.0165205
867.130	0.0164225
867.208	0.0166208
867.286	0.0166002
867.364	0.0164768
867.442	0.0164661
867.521	0.0164870
867.599	0.0163701
867.677	0.0164777
867.755	0.0165762
867.833	0.0165040
867.911	0.0164539
867.989	0.0165462
868.067	0.0165684
868.146	0.0166110
868.224	0.0164552
868.302	0.0165454
868.380	0.0163749
868.458	0.0162378
868.536	0.0164994
868.614	0.0163732
868.692	0.0162704
868.771	0.0163354
868.849	0.0163592
868.927	0.0163126
869.005	0.0163866
869.083	0.0163303
869.161	0.0164161
869.239	0.0164214
869.317	0.0164330
869.396	0.0164805
869.474	0.0163731
869.552	0.0166335
869.630	0.0164841
869.708	0.0164698
869.786	0.0165327
869.864	0.0166115
869.942	0.0165234
