06/03/2022	15:47:01	Ver.	4.1	UNKNOWN
Optical Delay	550.020508	Delta X		0.078125	Sweeps	1	Scan Rate	0/0
Coordinates	Axis 1	NaN	Axis 2	NaN	Axis 3	NaN	Axis 4	NaN	Axis 5	NaN	Axis 6	0.000000
TX Power	0.000000	RX Power	0.000000

550.021	0.0155592
550.099	0.0154370
550.177	0.0156286
550.255	0.0156656
550.333	0.0156304
550.411	0.0155959
550.489	0.0155025
550.567	0.0155527
550.646	0.0156332
550.724	0.0155872
550.802	0.0155976
550.880	0.0155873
550.958	0.0155904
551.036	0.0155500
551.114	0.0156293
551.192	0.0156252
551.271	0.0155101
551.349	0.0155695
551.427	0.0155830
551.505	0.0155804
551.583	0.0156145
551.661	0.0155178
551.739	0.0156042
551.817	0.0157545
551.896	0.0156788
551.974	0.0155466
552.052	0.0155241
552.130	0.0155133
552.208	0.0155841
552.286	0.0155976
552.364	0.0155084
552.442	0.0156906
552.521	0.0154607
552.599	0.0155391
552.677	0.0155038
552.755	0.0154573
552.833	0.0155239
552.911	0.0155769
552.989	0.0155225
553.067	0.0155166
553.146	0.0155059
553.224	0.0155682
553.302	0.0154784
553.380	0.0155495
553.458	0.0157155
553.536	0.0155386
553.614	0.0154140
553.692	0.0155621
553.771	0.0155389
553.849	0.0154959
553.927	0.0154778
554.005	0.0156080
554.083	0.0155744
554.161	0.0155582
554.239	0.0154909
554.317	0.0154483
554.396	0.0155511
554.474	0.0156325
554.552	0.0155887
554.630	0.0154574
554.708	0.0156273
554.786	0.0156144
554.864	0.0155078
554.942	0.0155531
555.021	0.0156979
555.099	0.0156385
555.177	0.0155927
555.255	0.0157558
555.333	0.0155257
555.411	0.0156262
555.489	0.0156422
555.567	0.0156119
555.646	0.0156002
555.724	0.0156240
555.802	0.0155011
555.880	0.0155037
555.958	0.0156210
556.036	0.0156024
556.114	0.0155287
556.192	0.0154040
556.271	0.0156136
556.349	0.0154819
556.427	0.0155423
556.505	0.0154785
556.583	0.0156853
556.661	0.0154971
556.739	0.0155475
556.817	0.0155038
556.896	0.0154700
556.974	0.0155998
557.052	0.0154394
557.130	0.0155623
557.208	0.0154911
557.286	0.0155794
557.364	0.0155386
557.442	0.0156233
557.521	0.0155049
557.599	0.0155565
557.677	0.0155261
557.755	0.0155331
557.833	0.0155446
557.911	0.0156640
557.989	0.0155212
558.067	0.0155228
558.146	0.0157950
558.224	0.0155531
558.302	0.0155658
558.380	0.0155692
558.458	0.0154488
558.536	0.0156191
558.614	0.0154900
558.692	0.0155915
558.771	0.0155700
558.849	0.0154909
558.927	0.0155726
559.005	0.0156261
559.083	0.0156454
559.161	0.0155881
559.239	0.0155005
559.317	0.0156232
559.396	0.0154883
559.474	0.0155240
559.552	0.0155283
559.630	0.0155453
559.708	0.0156015
559.786	0.0155265
559.864	0.0154245
559.942	0.0155619
560.021	0.0155302
560.099	0.0155384
560.177	0.0155823
560.255	0.0155579
560.333	0.0155791
560.411	0.0156151
560.489	0.0154636
560.567	0.0155301
560.646	0.0156573
560.724	0.0156862
560.802	0.0156123
560.880	0.0154778
560.958	0.0155037
561.036	0.0156178
561.114	0.0156480
561.192	0.0156455
561.271	0.0154897
561.349	0.0155566
561.427	0.0155949
561.505	0.0155730
561.583	0.0155993
561.661	0.0155540
561.739	0.0155765
561.817	0.0155476
561.896	0.0154822
561.974	0.0156249
562.052	0.0154683
562.130	0.0154958
562.208	0.0154598
562.286	0.0156055
562.364	0.0154436
562.442	0.0155853
562.521	0.0154677
562.599	0.0155174
562.677	0.0155783
562.755	0.0155195
562.833	0.0154765
562.911	0.0154123
562.989	0.0156703
563.067	0.0155199
563.146	0.0155654
563.224	0.0156182
563.302	0.0155730
563.380	0.0155115
563.458	0.0154919
563.536	0.0154953
563.614	0.0156056
563.692	0.0154974
563.771	0.0155501
563.849	0.0156062
563.927	0.0155378
564.005	0.0155965
564.083	0.0156805
564.161	0.0156026
564.239	0.0155175
564.317	0.0154063
564.396	0.0155752
564.474	0.0156888
564.552	0.0154873
564.630	0.0155753
564.708	0.0155391
564.786	0.0154234
564.864	0.0155276
564.942	0.0154073
565.021	0.0154125
565.099	0.0155782
565.177	0.0155524
565.255	0.0155292
565.333	0.0155054
565.411	0.0155702
565.489	0.0155324
565.567	0.0155531
565.646	0.0155524
565.724	0.0155693
565.802	0.0155363
565.880	0.0155183
565.958	0.0153354
566.036	0.0155397
566.114	0.0157105
566.192	0.0155225
566.271	0.0155827
566.349	0.0156119
566.427	0.0155048
566.505	0.0155279
566.583	0.0156331
566.661	0.0155114
566.739	0.0155761
566.817	0.0155606
566.896	0.0156052
566.974	0.0155701
567.052	0.0155157
567.130	0.0155026
567.208	0.0156716
567.286	0.0156257
567.364	0.0155135
567.442	0.0156819
567.521	0.0156345
567.599	0.0155022
567.677	0.0155492
567.755	0.0156160
567.833	0.0155616
567.911	0.0156144
567.989	0.0156014
568.067	0.0155699
568.146	0.0156372
568.224	0.0156638
568.302	0.0156507
568.380	0.0156619
568.458	0.0155945
568.536	0.0156208
568.614	0.0154936
568.692	0.0156783
568.771	0.0156150
568.849	0.0156184
568.927	0.0155772
569.005	0.0156104
569.083	0.0156654
569.161	0.0154322
569.239	0.0154483
569.317	0.0156045
569.396	0.0157025
569.474	0.0156403
569.552	0.0155965
569.630	0.0155891
569.708	0.0156206
569.786	0.0156754
569.864	0.0154941
569.942	0.0155412
570.021	0.0155582
570.099	0.0155678
570.177	0.0156210
570.255	0.0157238
570.333	0.0154339
570.411	0.0155306
570.489	0.0156213
570.567	0.0155804
570.646	0.0155287
570.724	0.0156175
570.802	0.0156475
570.880	0.0154743
570.958	0.0156133
571.036	0.0155780
571.114	0.0155340
571.192	0.0155464
571.271	0.0155130
571.349	0.0155552
571.427	0.0154957
571.505	0.0155623
571.583	0.0156515
571.661	0.0154931
571.739	0.0154173
571.817	0.0156196
571.896	0.0155021
571.974	0.0156171
572.052	0.0155330
572.130	0.0155439
572.208	0.0155479
572.286	0.0155257
572.364	0.0154806
572.442	0.0155975
572.521	0.0156389
572.599	0.0156050
572.677	0.0156654
572.755	0.0156026
572.833	0.0156130
572.911	0.0156785
572.989	0.0155429
573.067	0.0155566
573.146	0.0156273
573.224	0.0155032
573.302	0.0155794
573.380	0.0155586
573.458	0.0156333
573.536	0.0156158
573.614	0.0156394
573.692	0.0155598
573.771	0.0156595
573.849	0.0155702
573.927	0.0155205
574.005	0.0154959
574.083	0.0156117
574.161	0.0156155
574.239	0.0154868
574.317	0.0154794
574.396	0.0155172
574.474	0.0156062
574.552	0.0154623
574.630	0.0155478
574.708	0.0156791
574.786	0.0156512
574.864	0.0155644
574.942	0.0154591
575.021	0.0155470
575.099	0.0155314
575.177	0.0154708
575.255	0.0156706
575.333	0.0155841
575.411	0.0154417
575.489	0.0155728
575.567	0.0156103
575.646	0.0155891
575.724	0.0154957
575.802	0.0155340
575.880	0.0156299
575.958	0.0154792
576.036	0.0155463
576.114	0.0154893
576.192	0.0156270
576.271	0.0156499
576.349	0.0154792
576.427	0.0156931
576.505	0.0156017
576.583	0.0154982
576.661	0.0155479
576.739	0.0155377
576.817	0.0154179
576.896	0.0156479
576.974	0.0156056
577.052	0.0155959
577.130	0.0156569
577.208	0.0156115
577.286	0.0156528
577.364	0.0155312
577.442	0.0156302
577.521	0.0157201
577.599	0.0154974
577.677	0.0155643
577.755	0.0156242
577.833	0.0155942
577.911	0.0156734
577.989	0.0155177
578.067	0.0155060
578.146	0.0156227
578.224	0.0156675
578.302	0.0155096
578.380	0.0156257
578.458	0.0154768
578.536	0.0155839
578.614	0.0155152
578.692	0.0155173
578.771	0.0155512
578.849	0.0153704
578.927	0.0155334
579.005	0.0154768
579.083	0.0156422
579.161	0.0155077
579.239	0.0156596
579.317	0.0156149
579.396	0.0155420
579.474	0.0155678
579.552	0.0155064
579.630	0.0155630
579.708	0.0154967
579.786	0.0155037
579.864	0.0157168
579.942	0.0155872
580.021	0.0154347
580.099	0.0155407
580.177	0.0156402
580.255	0.0154829
580.333	0.0155870
580.411	0.0155386
580.489	0.0154376
580.567	0.0155823
580.646	0.0155878
580.724	0.0155107
580.802	0.0154568
580.880	0.0156265
580.958	0.0157159
581.036	0.0154859
581.114	0.0155204
581.192	0.0155688
581.271	0.0155379
581.349	0.0156058
581.427	0.0156161
581.505	0.0155537
581.583	0.0155984
581.661	0.0155867
581.739	0.0155087
581.817	0.0155866
581.896	0.0154736
581.974	0.0154678
582.052	0.0155665
582.130	0.0155434
582.208	0.0155367
582.286	0.0156298
582.364	0.0155496
582.442	0.0155109
582.521	0.0156254
582.599	0.0157161
582.677	0.0156322
582.755	0.0156555
582.833	0.0155428
582.911	0.0154036
582.989	0.0154707
583.067	0.0155440
583.146	0.0155396
583.224	0.0156214
583.302	0.0155658
583.380	0.0155476
583.458	0.0155386
583.536	0.0156256
583.614	0.0155801
583.692	0.0156364
583.771	0.0156752
583.849	0.0155771
583.927	0.0155487
584.005	0.0154515
584.083	0.0154552
584.161	0.0157056
584.239	0.0155193
584.317	0.0155585
584.396	0.0156240
584.474	0.0154518
584.552	0.0155057
584.630	0.0156393
584.708	0.0156248
584.786	0.0154689
584.864	0.0155997
584.942	0.0156196
585.021	0.0156802
585.099	0.0155875
585.177	0.0156244
585.255	0.0155579
585.333	0.0155548
585.411	0.0155543
585.489	0.0156292
585.567	0.0155139
585.646	0.0156023
585.724	0.0156472
585.802	0.0155991
585.880	0.0155156
585.958	0.0154758
586.036	0.0154731
586.114	0.0157056
586.192	0.0156287
586.271	0.0154668
586.349	0.0155553
586.427	0.0156233
586.505	0.0155173
586.583	0.0155966
586.661	0.0155352
586.739	0.0155678
586.817	0.0156958
586.896	0.0156478
586.974	0.0155710
587.052	0.0155314
587.130	0.0155328
587.208	0.0154520
587.286	0.0154423
587.364	0.0155387
587.442	0.0155661
587.521	0.0155645
587.599	0.0155916
587.677	0.0156162
587.755	0.0156013
587.833	0.0155524
587.911	0.0155657
587.989	0.0156335
588.067	0.0155933
588.146	0.0153724
588.224	0.0154812
588.302	0.0155501
588.380	0.0156390
588.458	0.0154597
588.536	0.0155463
588.614	0.0156680
588.692	0.0156059
588.771	0.0155507
588.849	0.0154399
588.927	0.0155031
589.005	0.0155569
589.083	0.0155939
589.161	0.0154995
589.239	0.0154750
589.317	0.0154314
589.396	0.0155395
589.474	0.0155093
589.552	0.0156969
589.630	0.0154675
589.708	0.0155613
589.786	0.0155537
589.864	0.0155949
589.942	0.0155746
590.021	0.0155460
590.099	0.0155201
590.177	0.0154916
590.255	0.0155711
590.333	0.0155093
590.411	0.0155878
590.489	0.0155518
590.567	0.0155856
590.646	0.0154788
590.724	0.0156813
590.802	0.0155556
590.880	0.0156245
590.958	0.0156103
591.036	0.0155029
591.114	0.0156151
591.192	0.0156168
591.271	0.0155314
591.349	0.0155418
591.427	0.0154803
591.505	0.0156687
591.583	0.0155285
591.661	0.0156342
591.739	0.0156671
591.817	0.0156908
591.896	0.0155643
591.974	0.0155905
592.052	0.0156754
592.130	0.0156145
592.208	0.0155846
592.286	0.0154536
592.364	0.0154768
592.442	0.0154869
592.521	0.0156277
592.599	0.0156709
592.677	0.0156264
592.755	0.0156213
592.833	0.0155663
592.911	0.0156023
592.989	0.0156014
593.067	0.0156186
593.146	0.0155885
593.224	0.0156139
593.302	0.0155257
593.380	0.0155573
593.458	0.0155666
593.536	0.0155125
593.614	0.0155318
593.692	0.0155553
593.771	0.0156800
593.849	0.0154499
593.927	0.0156066
594.005	0.0155348
594.083	0.0155626
594.161	0.0156045
594.239	0.0154886
594.317	0.0155936
594.396	0.0155264
594.474	0.0154681
594.552	0.0156656
594.630	0.0156290
594.708	0.0156245
594.786	0.0156120
594.864	0.0156250
594.942	0.0155482
595.021	0.0155225
595.099	0.0155958
595.177	0.0157378
595.255	0.0155904
595.333	0.0154533
595.411	0.0154826
595.489	0.0157833
595.567	0.0155704
595.646	0.0154494
595.724	0.0155833
595.802	0.0156743
595.880	0.0156271
595.958	0.0156232
596.036	0.0156392
596.114	0.0156260
596.192	0.0156301
596.271	0.0156422
596.349	0.0156482
596.427	0.0154497
596.505	0.0154474
596.583	0.0156658
596.661	0.0157535
596.739	0.0155815
596.817	0.0155762
596.896	0.0155575
596.974	0.0154681
597.052	0.0155883
597.130	0.0155505
597.208	0.0155036
597.286	0.0156557
597.364	0.0155923
597.442	0.0155282
597.521	0.0155720
597.599	0.0155546
597.677	0.0156643
597.755	0.0155360
597.833	0.0155216
597.911	0.0156638
597.989	0.0156014
598.067	0.0156377
598.146	0.0156207
598.224	0.0155335
598.302	0.0155035
598.380	0.0156084
598.458	0.0156247
598.536	0.0156092
598.614	0.0155421
598.692	0.0155327
598.771	0.0154776
598.849	0.0155837
598.927	0.0155032
599.005	0.0156147
599.083	0.0156579
599.161	0.0157444
599.239	0.0155439
599.317	0.0155259
599.396	0.0156918
599.474	0.0155448
599.552	0.0155286
599.630	0.0155145
599.708	0.0156189
599.786	0.0156606
599.864	0.0156401
599.942	0.0157103
600.021	0.0156446
600.099	0.0153612
600.177	0.0154960
600.255	0.0156473
600.333	0.0156229
600.411	0.0154102
600.489	0.0156038
600.567	0.0154673
600.646	0.0155905
600.724	0.0156194
600.802	0.0154591
600.880	0.0156132
600.958	0.0155121
601.036	0.0157216
601.114	0.0155301
601.192	0.0156746
601.271	0.0155663
601.349	0.0155621
601.427	0.0155128
601.505	0.0156979
601.583	0.0156548
601.661	0.0156599
601.739	0.0156912
601.817	0.0153959
601.896	0.0154475
601.974	0.0154594
602.052	0.0154903
602.130	0.0156366
602.208	0.0155946
602.286	0.0155746
602.364	0.0155701
602.442	0.0156187
602.521	0.0155811
602.599	0.0155923
602.677	0.0156886
602.755	0.0156294
602.833	0.0156515
602.911	0.0154980
602.989	0.0156786
603.067	0.0156103
603.146	0.0154652
603.224	0.0155462
603.302	0.0155901
603.380	0.0155417
603.458	0.0156423
603.536	0.0156619
603.614	0.0156133
603.692	0.0157214
603.771	0.0157250
603.849	0.0157080
603.927	0.0155231
604.005	0.0156696
604.083	0.0155761
604.161	0.0155064
604.239	0.0155460
604.317	0.0156566
604.396	0.0156781
604.474	0.0157188
604.552	0.0154982
604.630	0.0156998
604.708	0.0156926
604.786	0.0155465
604.864	0.0156067
604.942	0.0154899
605.021	0.0156075
605.099	0.0155507
605.177	0.0157000
605.255	0.0157133
605.333	0.0155502
605.411	0.0155314
605.489	0.0156388
605.567	0.0155671
605.646	0.0156790
605.724	0.0156416
605.802	0.0155618
605.880	0.0156470
605.958	0.0155439
606.036	0.0155596
606.114	0.0156042
606.192	0.0154750
606.271	0.0155705
606.349	0.0156353
606.427	0.0156243
606.505	0.0156342
606.583	0.0155587
606.661	0.0157124
606.739	0.0156347
606.817	0.0155384
606.896	0.0157085
606.974	0.0155799
607.052	0.0157710
607.130	0.0155370
607.208	0.0155486
607.286	0.0155292
607.364	0.0155899
607.442	0.0155698
607.521	0.0156565
607.599	0.0155495
607.677	0.0155872
607.755	0.0155380
607.833	0.0155560
607.911	0.0155568
607.989	0.0155529
608.067	0.0156886
608.146	0.0154812
608.224	0.0156530
608.302	0.0156267
608.380	0.0156300
608.458	0.0156293
608.536	0.0156158
608.614	0.0156609
608.692	0.0157500
608.771	0.0155840
608.849	0.0157079
608.927	0.0156519
609.005	0.0155451
609.083	0.0155277
609.161	0.0156222
609.239	0.0156319
609.317	0.0157031
609.396	0.0156669
609.474	0.0156309
609.552	0.0157572
609.630	0.0154612
609.708	0.0155523
609.786	0.0157600
609.864	0.0156111
609.942	0.0156026
610.021	0.0154241
610.099	0.0156315
610.177	0.0156239
610.255	0.0155652
610.333	0.0157401
610.411	0.0156567
610.489	0.0155260
610.567	0.0157111
610.646	0.0156433
610.724	0.0155598
610.802	0.0156136
610.880	0.0156525
610.958	0.0155962
611.036	0.0156293
611.114	0.0155752
611.192	0.0155933
611.271	0.0155547
611.349	0.0157294
611.427	0.0156322
611.505	0.0156122
611.583	0.0155906
611.661	0.0156699
611.739	0.0156271
611.817	0.0156316
611.896	0.0156515
611.974	0.0154809
612.052	0.0155315
612.130	0.0156158
612.208	0.0155058
612.286	0.0154247
612.364	0.0155975
612.442	0.0156193
612.521	0.0155116
612.599	0.0156141
612.677	0.0154630
612.755	0.0155027
612.833	0.0156134
612.911	0.0156824
612.989	0.0155685
613.067	0.0155612
613.146	0.0155105
613.224	0.0155615
613.302	0.0153622
613.380	0.0154819
613.458	0.0156956
613.536	0.0155402
613.614	0.0156122
613.692	0.0155329
613.771	0.0153555
613.849	0.0154754
613.927	0.0154459
614.005	0.0155335
614.083	0.0153731
614.161	0.0154523
614.239	0.0155833
614.317	0.0155611
614.396	0.0154543
614.474	0.0154573
614.552	0.0156272
614.630	0.0155200
614.708	0.0154767
614.786	0.0153405
614.864	0.0154803
614.942	0.0154446
615.021	0.0155273
615.099	0.0155000
615.177	0.0154109
615.255	0.0154459
615.333	0.0154509
615.411	0.0154471
615.489	0.0155537
615.567	0.0156950
615.646	0.0154914
615.724	0.0155396
615.802	0.0155881
615.880	0.0156782
615.958	0.0154819
616.036	0.0155113
616.114	0.0156736
616.192	0.0155103
616.271	0.0155233
616.349	0.0153994
616.427	0.0154769
616.505	0.0155446
616.583	0.0153764
616.661	0.0154687
616.739	0.0154598
616.817	0.0155196
616.896	0.0156219
616.974	0.0155442
617.052	0.0154807
617.130	0.0156657
617.208	0.0156839
617.286	0.0154110
617.364	0.0154607
617.442	0.0155090
617.521	0.0155744
617.599	0.0155055
617.677	0.0155286
617.755	0.0156100
617.833	0.0155970
617.911	0.0153658
617.989	0.0155930
618.067	0.0155981
618.146	0.0155072
618.224	0.0156873
618.302	0.0155984
618.380	0.0154964
618.458	0.0155135
618.536	0.0155692
618.614	0.0155895
618.692	0.0155718
618.771	0.0155040
618.849	0.0154517
618.927	0.0155426
619.005	0.0154298
619.083	0.0155472
619.161	0.0153934
619.239	0.0155031
619.317	0.0155410
619.396	0.0155482
619.474	0.0154256
619.552	0.0154398
619.630	0.0154948
619.708	0.0154207
619.786	0.0154594
619.864	0.0155893
619.942	0.0155573
620.021	0.0153890
620.099	0.0155370
620.177	0.0155132
620.255	0.0155576
620.333	0.0155669
620.411	0.0155671
620.489	0.0155277
620.567	0.0156113
620.646	0.0155485
620.724	0.0155338
620.802	0.0154350
620.880	0.0154117
620.958	0.0155149
621.036	0.0156039
621.114	0.0155642
621.192	0.0155521
621.271	0.0153703
621.349	0.0154501
621.427	0.0154990
621.505	0.0154967
621.583	0.0155318
621.661	0.0155710
621.739	0.0156011
621.817	0.0154647
621.896	0.0155386
621.974	0.0155954
622.052	0.0154524
622.130	0.0155133
622.208	0.0155257
622.286	0.0155780
622.364	0.0155357
622.442	0.0155236
622.521	0.0155305
622.599	0.0154957
622.677	0.0156123
622.755	0.0155387
622.833	0.0155544
622.911	0.0155245
622.989	0.0154508
623.067	0.0155463
623.146	0.0155778
623.224	0.0154942
623.302	0.0155802
623.380	0.0156187
623.458	0.0154015
623.536	0.0155235
623.614	0.0154473
623.692	0.0154807
623.771	0.0155377
623.849	0.0156463
623.927	0.0156669
624.005	0.0154900
624.083	0.0156197
624.161	0.0156703
624.239	0.0156847
624.317	0.0156535
624.396	0.0155220
624.474	0.0155605
624.552	0.0155269
624.630	0.0155603
624.708	0.0156056
624.786	0.0156720
624.864	0.0155820
624.942	0.0155026
625.021	0.0155348
625.099	0.0157291
625.177	0.0154285
625.255	0.0155188
625.333	0.0155421
625.411	0.0156012
625.489	0.0155761
625.567	0.0156266
625.646	0.0156444
625.724	0.0156612
625.802	0.0155862
625.880	0.0155961
625.958	0.0156557
626.036	0.0156484
626.114	0.0156679
626.192	0.0156482
626.271	0.0155655
626.349	0.0155481
626.427	0.0155528
626.505	0.0157438
626.583	0.0157424
626.661	0.0156454
626.739	0.0155441
626.817	0.0155952
626.896	0.0157514
626.974	0.0157111
627.052	0.0156293
627.130	0.0155504
627.208	0.0157110
627.286	0.0155839
627.364	0.0155197
627.442	0.0156749
627.521	0.0156136
627.599	0.0156151
627.677	0.0154537
627.755	0.0156597
627.833	0.0155203
627.911	0.0155315
627.989	0.0156133
628.067	0.0155017
628.146	0.0155344
628.224	0.0157553
628.302	0.0155534
628.380	0.0155898
628.458	0.0155923
628.536	0.0156105
628.614	0.0155751
628.692	0.0156015
628.771	0.0156110
628.849	0.0156186
628.927	0.0155645
629.005	0.0155682
629.083	0.0155322
629.161	0.0155071
629.239	0.0154981
629.317	0.0153984
629.396	0.0154975
629.474	0.0156641
629.552	0.0156419
629.630	0.0153736
629.708	0.0155756
629.786	0.0155490
629.864	0.0155386
629.942	0.0155641
630.021	0.0156413
630.099	0.0156268
630.177	0.0155521
630.255	0.0155014
630.333	0.0155595
630.411	0.0154546
630.489	0.0155725
630.567	0.0155957
630.646	0.0157102
630.724	0.0156180
630.802	0.0155456
630.880	0.0155809
630.958	0.0156595
631.036	0.0154800
631.114	0.0156443
631.192	0.0155132
631.271	0.0156777
631.349	0.0156059
631.427	0.0156336
631.505	0.0155006
631.583	0.0156844
631.661	0.0154748
631.739	0.0153748
631.817	0.0156623
631.896	0.0158072
631.974	0.0155274
632.052	0.0156396
632.130	0.0155312
632.208	0.0154427
632.286	0.0155466
632.364	0.0154649
632.442	0.0155640
632.521	0.0155718
632.599	0.0153779
632.677	0.0155962
632.755	0.0155968
632.833	0.0155013
632.911	0.0156085
632.989	0.0156427
633.067	0.0156477
633.146	0.0154745
633.224	0.0156672
633.302	0.0156381
633.380	0.0155854
633.458	0.0155591
633.536	0.0155524
633.614	0.0155558
633.692	0.0155737
633.771	0.0156889
633.849	0.0156331
633.927	0.0156755
634.005	0.0154642
634.083	0.0154264
634.161	0.0154803
634.239	0.0156704
634.317	0.0154701
634.396	0.0154734
634.474	0.0155922
634.552	0.0157482
634.630	0.0156447
634.708	0.0155825
634.786	0.0155294
634.864	0.0155331
634.942	0.0157467
635.021	0.0156243
635.099	0.0156554
635.177	0.0156100
635.255	0.0154482
635.333	0.0154303
635.411	0.0155096
635.489	0.0155144
635.567	0.0155419
635.646	0.0156326
635.724	0.0155892
635.802	0.0155505
635.880	0.0155185
635.958	0.0155875
636.036	0.0155846
636.114	0.0154908
636.192	0.0155838
636.271	0.0156138
636.349	0.0156229
636.427	0.0153374
636.505	0.0154303
636.583	0.0155428
636.661	0.0154699
636.739	0.0155230
636.817	0.0155352
636.896	0.0155087
636.974	0.0155299
637.052	0.0154948
637.130	0.0155138
637.208	0.0154990
637.286	0.0156454
637.364	0.0155509
637.442	0.0154659
637.521	0.0154684
637.599	0.0155169
637.677	0.0155473
637.755	0.0154863
637.833	0.0155487
637.911	0.0155293
637.989	0.0156100
638.067	0.0154944
638.146	0.0156064
638.224	0.0155120
638.302	0.0155013
638.380	0.0156384
638.458	0.0155510
638.536	0.0155869
638.614	0.0155503
638.692	0.0155599
638.771	0.0154103
638.849	0.0155302
638.927	0.0155021
639.005	0.0155009
639.083	0.0154361
639.161	0.0155550
639.239	0.0155303
639.317	0.0155370
639.396	0.0155297
639.474	0.0155154
639.552	0.0154546
639.630	0.0154069
639.708	0.0153625
639.786	0.0154839
639.864	0.0154504
639.942	0.0155206
640.021	0.0154368
640.099	0.0155495
640.177	0.0154797
640.255	0.0153921
640.333	0.0156509
640.411	0.0155460
640.489	0.0153632
640.567	0.0156016
640.646	0.0153884
640.724	0.0154142
640.802	0.0155829
640.880	0.0154922
640.958	0.0155093
641.036	0.0155920
641.114	0.0154902
641.192	0.0152760
641.271	0.0154259
641.349	0.0155319
641.427	0.0155392
641.505	0.0155010
641.583	0.0154366
641.661	0.0155251
641.739	0.0154679
641.817	0.0154617
641.896	0.0152965
641.974	0.0153171
642.052	0.0155614
642.130	0.0155237
642.208	0.0155396
642.286	0.0155020
642.364	0.0155161
642.442	0.0154841
642.521	0.0155620
642.599	0.0155714
642.677	0.0155745
642.755	0.0154340
642.833	0.0154034
642.911	0.0154232
642.989	0.0156773
643.067	0.0155630
643.146	0.0153952
643.224	0.0155245
643.302	0.0155126
643.380	0.0155579
643.458	0.0154851
643.536	0.0153918
643.614	0.0155422
643.692	0.0155663
643.771	0.0155413
643.849	0.0155024
643.927	0.0154309
644.005	0.0155443
644.083	0.0156306
644.161	0.0155291
644.239	0.0154835
644.317	0.0155300
644.396	0.0155165
644.474	0.0155354
644.552	0.0153641
644.630	0.0154961
644.708	0.0155842
644.786	0.0153998
644.864	0.0154601
644.942	0.0154658
645.021	0.0156971
645.099	0.0155299
645.177	0.0155450
645.255	0.0154390
645.333	0.0154801
645.411	0.0154044
645.489	0.0155090
645.567	0.0155794
645.646	0.0154396
645.724	0.0156120
645.802	0.0155735
645.880	0.0155448
645.958	0.0154841
646.036	0.0155035
646.114	0.0155631
646.192	0.0156083
646.271	0.0156242
646.349	0.0156750
646.427	0.0155440
646.505	0.0154855
646.583	0.0154960
646.661	0.0155574
646.739	0.0154388
646.817	0.0155561
646.896	0.0156133
646.974	0.0155328
647.052	0.0155746
647.130	0.0155712
647.208	0.0155426
647.286	0.0155740
647.364	0.0155640
647.442	0.0157958
647.521	0.0156284
647.599	0.0155479
647.677	0.0156133
647.755	0.0155560
647.833	0.0155935
647.911	0.0154929
647.989	0.0154173
648.067	0.0155777
648.146	0.0155005
648.224	0.0156065
648.302	0.0155782
648.380	0.0156950
648.458	0.0155486
648.536	0.0156422
648.614	0.0154271
648.692	0.0155264
648.771	0.0156727
648.849	0.0156082
648.927	0.0155258
649.005	0.0155009
649.083	0.0156319
649.161	0.0155032
649.239	0.0155331
649.317	0.0155556
649.396	0.0155902
649.474	0.0156448
649.552	0.0155409
649.630	0.0155539
649.708	0.0155651
649.786	0.0155766
649.864	0.0156063
649.942	0.0156279
650.021	0.0156693
650.099	0.0155283
650.177	0.0154192
650.255	0.0155400
650.333	0.0157193
650.411	0.0153590
650.489	0.0156834
650.567	0.0155496
650.646	0.0154960
650.724	0.0156741
650.802	0.0156963
650.880	0.0155959
650.958	0.0154710
651.036	0.0153823
651.114	0.0155713
651.192	0.0156171
651.271	0.0156433
651.349	0.0156311
651.427	0.0154408
651.505	0.0156007
651.583	0.0155390
651.661	0.0156714
651.739	0.0157201
651.817	0.0156137
651.896	0.0156053
651.974	0.0155531
652.052	0.0156362
652.130	0.0155346
652.208	0.0155502
652.286	0.0156685
652.364	0.0156292
652.442	0.0155257
652.521	0.0155780
652.599	0.0155953
652.677	0.0156051
652.755	0.0156599
652.833	0.0155785
652.911	0.0156527
652.989	0.0156488
653.067	0.0157550
653.146	0.0156580
653.224	0.0155449
653.302	0.0155809
653.380	0.0155766
653.458	0.0156151
653.536	0.0156516
653.614	0.0155038
653.692	0.0155393
653.771	0.0155828
653.849	0.0157626
653.927	0.0155467
654.005	0.0153983
654.083	0.0155996
654.161	0.0154440
654.239	0.0155695
654.317	0.0155255
654.396	0.0156092
654.474	0.0154882
654.552	0.0154945
654.630	0.0154943
654.708	0.0157092
654.786	0.0155151
654.864	0.0156475
654.942	0.0155755
655.021	0.0156484
655.099	0.0156499
655.177	0.0156422
655.255	0.0156151
655.333	0.0156805
655.411	0.0156430
655.489	0.0155927
655.567	0.0156190
655.646	0.0155272
655.724	0.0156036
655.802	0.0155540
655.880	0.0155412
655.958	0.0154581
656.036	0.0157365
656.114	0.0155594
656.192	0.0157436
656.271	0.0156322
656.349	0.0156258
656.427	0.0157799
656.505	0.0156863
656.583	0.0156515
656.661	0.0156295
656.739	0.0156994
656.817	0.0157250
656.896	0.0155802
656.974	0.0156182
657.052	0.0156110
657.130	0.0155137
657.208	0.0154577
657.286	0.0155875
657.364	0.0155503
657.442	0.0156225
657.521	0.0154585
657.599	0.0156688
657.677	0.0155267
657.755	0.0155754
657.833	0.0156219
657.911	0.0155504
657.989	0.0157028
658.067	0.0156158
658.146	0.0155758
658.224	0.0155831
658.302	0.0156111
658.380	0.0155364
658.458	0.0154761
658.536	0.0156737
658.614	0.0155753
658.692	0.0156473
658.771	0.0155280
658.849	0.0155873
658.927	0.0156858
659.005	0.0155554
659.083	0.0155669
659.161	0.0156647
659.239	0.0156377
659.317	0.0155112
659.396	0.0156020
659.474	0.0155479
659.552	0.0154910
659.630	0.0155611
659.708	0.0155119
659.786	0.0155657
659.864	0.0154562
659.942	0.0154958
660.021	0.0155379
660.099	0.0156247
660.177	0.0154366
660.255	0.0153696
660.333	0.0155018
660.411	0.0154762
660.489	0.0156281
660.567	0.0155057
660.646	0.0155198
660.724	0.0155960
660.802	0.0154858
660.880	0.0154695
660.958	0.0155587
661.036	0.0154339
661.114	0.0155395
661.192	0.0155013
661.271	0.0154983
661.349	0.0153920
661.427	0.0155198
661.505	0.0155193
661.583	0.0153756
661.661	0.0155936
661.739	0.0155160
661.817	0.0155359
661.896	0.0155149
661.974	0.0155444
662.052	0.0154751
662.130	0.0155885
662.208	0.0156599
662.286	0.0155699
662.364	0.0155743
662.442	0.0156367
662.521	0.0155917
662.599	0.0156773
662.677	0.0155717
662.755	0.0154889
662.833	0.0155427
662.911	0.0154413
662.989	0.0154884
663.067	0.0155145
663.146	0.0154592
663.224	0.0153394
663.302	0.0154887
663.380	0.0155195
663.458	0.0154573
663.536	0.0157104
663.614	0.0156142
663.692	0.0156438
663.771	0.0155018
663.849	0.0154224
663.927	0.0155575
664.005	0.0155491
664.083	0.0155344
664.161	0.0155283
664.239	0.0154137
664.317	0.0156242
664.396	0.0156818
664.474	0.0155578
664.552	0.0156838
664.630	0.0155079
664.708	0.0155804
664.786	0.0154581
664.864	0.0154427
664.942	0.0156341
665.021	0.0155316
665.099	0.0155469
665.177	0.0155799
665.255	0.0154341
665.333	0.0155165
665.411	0.0156403
665.489	0.0155029
665.567	0.0153568
665.646	0.0153686
665.724	0.0155825
665.802	0.0154360
665.880	0.0155241
665.958	0.0154883
666.036	0.0155603
666.114	0.0155376
666.192	0.0154635
666.271	0.0154121
666.349	0.0154527
666.427	0.0154894
666.505	0.0155875
666.583	0.0156095
666.661	0.0154633
666.739	0.0153880
666.817	0.0155550
666.896	0.0154803
666.974	0.0156394
667.052	0.0155107
667.130	0.0155380
667.208	0.0154856
667.286	0.0155534
667.364	0.0156544
667.442	0.0155727
667.521	0.0155188
667.599	0.0155505
667.677	0.0155659
667.755	0.0157262
667.833	0.0155500
667.911	0.0156284
667.989	0.0154995
668.067	0.0154478
668.146	0.0155488
668.224	0.0155901
668.302	0.0154600
668.380	0.0154720
668.458	0.0154890
668.536	0.0155857
668.614	0.0155738
668.692	0.0156885
668.771	0.0154440
668.849	0.0156004
668.927	0.0155266
669.005	0.0155770
669.083	0.0155892
669.161	0.0156242
669.239	0.0156599
669.317	0.0156511
669.396	0.0156625
669.474	0.0155955
669.552	0.0156586
669.630	0.0156068
669.708	0.0154753
669.786	0.0155923
669.864	0.0155669
669.942	0.0154402
670.021	0.0154954
670.099	0.0154199
670.177	0.0155266
670.255	0.0154136
670.333	0.0155867
670.411	0.0156604
670.489	0.0155719
670.567	0.0156664
670.646	0.0158218
670.724	0.0157971
670.802	0.0158712
670.880	0.0158057
670.958	0.0158412
671.036	0.0157378
671.114	0.0154402
671.192	0.0154707
671.271	0.0153295
671.349	0.0154345
671.427	0.0152473
671.505	0.0151495
671.583	0.0152039
671.661	0.0152039
671.739	0.0152785
671.817	0.0155460
671.896	0.0155236
671.974	0.0157729
672.052	0.0157355
672.130	0.0159787
672.208	0.0159624
672.286	0.0161865
672.364	0.0160628
672.442	0.0161281
672.521	0.0158814
672.599	0.0156658
672.677	0.0154959
672.755	0.0153690
672.833	0.0152245
672.911	0.0150371
672.989	0.0150108
673.067	0.0151005
673.146	0.0150907
673.224	0.0152445
673.302	0.0153831
673.380	0.0155868
673.458	0.0158923
673.536	0.0158794
673.614	0.0161009
673.692	0.0162347
673.771	0.0161835
673.849	0.0160462
673.927	0.0157931
674.005	0.0156229
674.083	0.0156161
674.161	0.0154731
674.239	0.0153107
674.317	0.0150813
674.396	0.0150249
674.474	0.0151157
674.552	0.0150475
674.630	0.0150199
674.708	0.0154168
674.786	0.0153514
674.864	0.0152824
674.942	0.0156052
675.021	0.0156884
675.099	0.0158218
675.177	0.0159150
675.255	0.0158561
675.333	0.0159019
675.411	0.0159286
675.489	0.0159335
675.567	0.0156400
675.646	0.0156524
675.724	0.0155595
675.802	0.0154915
675.880	0.0154473
675.958	0.0154606
676.036	0.0154288
676.114	0.0152859
676.192	0.0152390
676.271	0.0154120
676.349	0.0152390
676.427	0.0155271
676.505	0.0155939
676.583	0.0155251
676.661	0.0158084
676.739	0.0158707
676.817	0.0159649
676.896	0.0159580
676.974	0.0157928
677.052	0.0158445
677.130	0.0157763
677.208	0.0156728
677.286	0.0156288
677.364	0.0155559
677.442	0.0154595
677.521	0.0154429
677.599	0.0154680
677.677	0.0154443
677.755	0.0154997
677.833	0.0156561
677.911	0.0156252
677.989	0.0157733
678.067	0.0156958
678.146	0.0155521
678.224	0.0155750
678.302	0.0155364
678.380	0.0154319
678.458	0.0153690
678.536	0.0153768
678.614	0.0153729
678.692	0.0153871
678.771	0.0153927
678.849	0.0157307
678.927	0.0154833
679.005	0.0156283
679.083	0.0157362
679.161	0.0157843
679.239	0.0157713
679.317	0.0159699
679.396	0.0157922
679.474	0.0155679
679.552	0.0157587
679.630	0.0155438
679.708	0.0153716
679.786	0.0153715
679.864	0.0151883
679.942	0.0153008
680.021	0.0153207
680.099	0.0154309
680.177	0.0154271
680.255	0.0153913
680.333	0.0156335
680.411	0.0157855
680.489	0.0159596
680.567	0.0158418
680.646	0.0160306
680.724	0.0159737
680.802	0.0159143
680.880	0.0159137
680.958	0.0157742
681.036	0.0155786
681.114	0.0154465
681.192	0.0155001
681.271	0.0153575
681.349	0.0153308
681.427	0.0152457
681.505	0.0152357
681.583	0.0153894
681.661	0.0154178
681.739	0.0154868
681.817	0.0156568
681.896	0.0157122
681.974	0.0156768
682.052	0.0156758
682.130	0.0156655
682.208	0.0158011
682.286	0.0156225
682.364	0.0156870
682.442	0.0156298
682.521	0.0153384
682.599	0.0154845
682.677	0.0155025
682.755	0.0153688
682.833	0.0152985
682.911	0.0154476
682.989	0.0155112
683.067	0.0154352
683.146	0.0153954
683.224	0.0156003
683.302	0.0155936
683.380	0.0156546
683.458	0.0156296
683.536	0.0155415
683.614	0.0156171
683.692	0.0156678
683.771	0.0155427
683.849	0.0155573
683.927	0.0154866
684.005	0.0155502
684.083	0.0154847
684.161	0.0156441
684.239	0.0156203
684.317	0.0156347
684.396	0.0155819
684.474	0.0155737
684.552	0.0156849
684.630	0.0156853
684.708	0.0156833
684.786	0.0156311
684.864	0.0156123
684.942	0.0156345
685.021	0.0154920
685.099	0.0154731
685.177	0.0154999
685.255	0.0152742
685.333	0.0153954
685.411	0.0154923
685.489	0.0154844
685.567	0.0155040
685.646	0.0155505
685.724	0.0156012
685.802	0.0156593
685.880	0.0157496
685.958	0.0156468
686.036	0.0156805
686.114	0.0156576
686.192	0.0155101
686.271	0.0155616
686.349	0.0155069
686.427	0.0155435
686.505	0.0154306
686.583	0.0152595
686.661	0.0152396
686.739	0.0153273
686.817	0.0154848
686.896	0.0155383
686.974	0.0155528
687.052	0.0156814
687.130	0.0157510
687.208	0.0155458
687.286	0.0157215
687.364	0.0157184
687.442	0.0157300
687.521	0.0157951
687.599	0.0157487
687.677	0.0156883
687.755	0.0155941
687.833	0.0155637
687.911	0.0153862
687.989	0.0153584
688.067	0.0154939
688.146	0.0154191
688.224	0.0153108
688.302	0.0152658
688.380	0.0153468
688.458	0.0156309
688.536	0.0154593
688.614	0.0155898
688.692	0.0157097
688.771	0.0156187
688.849	0.0157229
688.927	0.0157773
689.005	0.0156450
689.083	0.0157648
689.161	0.0156140
689.239	0.0154188
689.317	0.0153740
689.396	0.0154794
689.474	0.0153821
689.552	0.0152332
689.630	0.0153922
689.708	0.0154201
689.786	0.0153442
689.864	0.0155579
689.942	0.0156109
690.021	0.0156506
690.099	0.0157504
690.177	0.0156951
690.255	0.0158511
690.333	0.0158904
690.411	0.0157596
690.489	0.0157180
690.567	0.0157144
690.646	0.0155902
690.724	0.0155191
690.802	0.0155525
690.880	0.0154731
690.958	0.0153622
691.036	0.0154634
691.114	0.0154778
691.192	0.0155018
691.271	0.0154640
691.349	0.0154352
691.427	0.0156039
691.505	0.0154982
691.583	0.0156115
691.661	0.0156561
691.739	0.0155917
691.817	0.0154584
691.896	0.0154713
691.974	0.0154639
692.052	0.0154389
692.130	0.0154255
692.208	0.0155856
692.286	0.0154398
692.364	0.0155052
692.442	0.0154986
692.521	0.0154704
692.599	0.0154418
692.677	0.0154523
692.755	0.0154115
692.833	0.0155550
692.911	0.0155814
692.989	0.0154105
693.067	0.0155768
693.146	0.0154697
693.224	0.0154859
693.302	0.0154778
693.380	0.0155540
693.458	0.0156233
693.536	0.0155920
693.614	0.0154888
693.692	0.0155081
693.771	0.0155025
693.849	0.0154955
693.927	0.0156159
694.005	0.0156356
694.083	0.0157523
694.161	0.0156520
694.239	0.0156480
694.317	0.0157577
694.396	0.0157673
694.474	0.0157716
694.552	0.0155611
694.630	0.0157885
694.708	0.0156718
694.786	0.0156916
694.864	0.0156158
694.942	0.0155759
695.021	0.0154319
695.099	0.0154674
695.177	0.0153493
695.255	0.0154547
695.333	0.0156040
695.411	0.0154854
695.489	0.0155003
695.567	0.0154710
695.646	0.0155383
695.724	0.0155513
695.802	0.0156382
695.880	0.0156119
695.958	0.0156285
696.036	0.0155730
696.114	0.0156722
696.192	0.0155628
696.271	0.0154875
696.349	0.0155074
696.427	0.0153781
696.505	0.0153519
696.583	0.0154496
696.661	0.0153502
696.739	0.0152876
696.817	0.0152435
696.896	0.0152438
696.974	0.0152392
697.052	0.0152924
697.130	0.0151218
697.208	0.0152082
697.286	0.0153024
697.364	0.0153696
697.442	0.0152222
697.521	0.0152102
697.599	0.0153586
697.677	0.0153889
697.755	0.0153432
697.833	0.0154284
697.911	0.0155179
697.989	0.0155795
698.067	0.0156048
698.146	0.0156406
698.224	0.0157870
698.302	0.0157704
698.380	0.0159424
698.458	0.0159801
698.536	0.0159532
698.614	0.0159006
698.692	0.0160049
698.771	0.0158835
698.849	0.0159084
698.927	0.0159580
699.005	0.0159604
699.083	0.0158447
699.161	0.0158058
699.239	0.0157950
699.317	0.0157381
699.396	0.0156541
699.474	0.0156257
699.552	0.0154820
699.630	0.0156358
699.708	0.0154016
699.786	0.0153806
699.864	0.0154191
699.942	0.0152972
700.021	0.0152162
700.099	0.0152666
700.177	0.0154082
700.255	0.0153592
700.333	0.0154731
700.411	0.0154484
700.489	0.0155132
700.567	0.0155512
700.646	0.0155679
700.724	0.0155689
700.802	0.0157061
700.880	0.0155673
700.958	0.0155906
701.036	0.0155102
701.114	0.0155238
701.192	0.0155222
701.271	0.0155441
701.349	0.0153015
701.427	0.0153550
701.505	0.0152855
701.583	0.0153537
701.661	0.0153785
701.739	0.0153568
701.817	0.0154959
701.896	0.0154765
701.974	0.0156090
702.052	0.0154337
702.130	0.0154922
702.208	0.0155592
702.286	0.0156310
702.364	0.0157327
702.442	0.0154294
702.521	0.0155167
702.599	0.0155250
702.677	0.0156129
702.755	0.0154136
702.833	0.0154282
702.911	0.0153300
702.989	0.0152065
703.067	0.0151288
703.146	0.0153191
703.224	0.0153663
703.302	0.0152383
703.380	0.0152299
703.458	0.0152798
703.536	0.0153402
703.614	0.0153224
703.692	0.0154192
703.771	0.0155278
703.849	0.0156023
703.927	0.0156806
704.005	0.0155567
704.083	0.0156324
704.161	0.0155441
704.239	0.0154844
704.317	0.0156284
704.396	0.0155523
704.474	0.0156377
704.552	0.0156232
704.630	0.0157555
704.708	0.0156035
704.786	0.0157135
704.864	0.0160410
704.942	0.0159903
705.021	0.0162766
705.099	0.0162814
705.177	0.0162917
705.255	0.0164320
705.333	0.0165959
705.411	0.0165455
705.489	0.0166341
705.567	0.0164799
705.646	0.0164816
705.724	0.0163612
705.802	0.0160676
705.880	0.0158453
705.958	0.0158437
706.036	0.0155068
706.114	0.0153484
706.192	0.0152792
706.271	0.0151324
706.349	0.0149017
706.427	0.0147218
706.505	0.0146969
706.583	0.0145480
706.661	0.0145578
706.739	0.0145361
706.817	0.0144963
706.896	0.0145860
706.974	0.0146332
707.052	0.0146458
707.130	0.0149280
707.208	0.0150928
707.286	0.0152437
707.364	0.0157059
707.442	0.0156963
707.521	0.0160014
707.599	0.0160768
707.677	0.0162154
707.755	0.0162637
707.833	0.0163132
707.911	0.0161873
707.989	0.0163295
708.067	0.0159455
708.146	0.0156951
708.224	0.0156433
708.302	0.0152834
708.380	0.0152016
708.458	0.0148955
708.536	0.0147204
708.614	0.0145895
708.692	0.0144106
708.771	0.0143305
708.849	0.0142249
708.927	0.0143180
709.005	0.0142165
709.083	0.0143341
709.161	0.0144391
709.239	0.0147390
709.317	0.0148883
709.396	0.0152335
709.474	0.0154113
709.552	0.0156409
709.630	0.0161095
709.708	0.0162357
709.786	0.0165034
709.864	0.0167893
709.942	0.0169078
710.021	0.0170846
710.099	0.0171980
710.177	0.0172772
710.255	0.0171214
710.333	0.0170746
710.411	0.0170441
710.489	0.0169060
710.567	0.0166990
710.646	0.0166357
710.724	0.0161945
710.802	0.0161288
710.880	0.0159448
710.958	0.0157911
711.036	0.0155643
711.114	0.0153284
711.192	0.0151534
711.271	0.0150567
711.349	0.0149615
711.427	0.0148983
711.505	0.0147958
711.583	0.0149654
711.661	0.0150319
711.739	0.0149547
711.817	0.0150648
711.896	0.0150399
711.974	0.0151191
712.052	0.0153597
712.130	0.0153669
712.208	0.0155984
712.286	0.0158665
712.364	0.0160320
712.442	0.0159427
712.521	0.0161388
712.599	0.0161646
712.677	0.0163643
712.755	0.0163084
712.833	0.0162233
712.911	0.0161351
712.989	0.0160542
713.067	0.0158791
713.146	0.0159412
713.224	0.0156002
713.302	0.0153947
713.380	0.0151485
713.458	0.0147577
713.536	0.0146817
713.614	0.0143910
713.692	0.0141088
713.771	0.0139810
713.849	0.0139111
713.927	0.0138072
714.005	0.0139275
714.083	0.0138990
714.161	0.0140334
714.239	0.0143587
714.317	0.0144613
714.396	0.0147314
714.474	0.0149174
714.552	0.0152453
714.630	0.0154437
714.708	0.0155833
714.786	0.0157645
714.864	0.0158657
714.942	0.0159334
715.021	0.0161377
715.099	0.0160358
715.177	0.0159077
715.255	0.0160117
715.333	0.0159133
715.411	0.0158923
715.489	0.0156245
715.567	0.0159085
715.646	0.0159042
715.724	0.0158501
715.802	0.0159027
715.880	0.0160226
715.958	0.0161290
716.036	0.0162659
716.114	0.0164480
716.192	0.0164792
716.271	0.0165325
716.349	0.0166033
716.427	0.0165471
716.505	0.0165675
716.583	0.0163636
716.661	0.0163660
716.739	0.0162927
716.817	0.0161344
716.896	0.0159173
716.974	0.0158677
717.052	0.0158302
717.130	0.0157068
717.208	0.0155941
717.286	0.0155947
717.364	0.0156611
717.442	0.0155626
717.521	0.0155751
717.599	0.0155518
717.677	0.0154826
717.755	0.0154259
717.833	0.0155641
717.911	0.0155701
717.989	0.0155174
718.067	0.0156007
718.146	0.0155984
718.224	0.0158147
718.302	0.0158111
718.380	0.0158778
718.458	0.0160891
718.536	0.0161736
718.614	0.0162696
718.692	0.0161434
718.771	0.0162528
718.849	0.0161134
718.927	0.0159985
719.005	0.0156579
719.083	0.0154954
719.161	0.0154163
719.239	0.0150741
719.317	0.0148096
719.396	0.0146111
719.474	0.0143827
719.552	0.0143135
719.630	0.0143243
719.708	0.0141769
719.786	0.0140952
719.864	0.0141240
719.942	0.0142861
720.021	0.0144139
720.099	0.0142643
720.177	0.0144395
720.255	0.0145349
720.333	0.0147052
720.411	0.0146863
720.489	0.0145825
720.567	0.0147550
720.646	0.0146854
720.724	0.0149032
720.802	0.0148357
720.880	0.0149051
720.958	0.0150172
721.036	0.0150601
721.114	0.0150982
721.192	0.0153603
721.271	0.0153351
721.349	0.0153428
721.427	0.0154463
721.505	0.0153736
721.583	0.0155998
721.661	0.0154785
721.739	0.0157140
721.817	0.0157220
721.896	0.0156640
721.974	0.0157497
722.052	0.0158833
722.130	0.0160556
722.208	0.0161343
722.286	0.0161416
722.364	0.0164417
722.442	0.0168262
722.521	0.0167899
722.599	0.0169416
722.677	0.0170712
722.755	0.0171975
722.833	0.0171922
722.911	0.0173698
722.989	0.0171373
723.067	0.0169934
723.146	0.0168420
723.224	0.0167454
723.302	0.0166075
723.380	0.0165261
723.458	0.0165736
723.536	0.0163934
723.614	0.0161614
723.692	0.0160697
723.771	0.0160674
723.849	0.0158466
723.927	0.0156236
724.005	0.0156524
724.083	0.0153839
724.161	0.0153867
724.239	0.0154906
724.317	0.0152821
724.396	0.0153787
724.474	0.0154125
724.552	0.0156219
724.630	0.0156886
724.708	0.0158977
724.786	0.0160514
724.864	0.0165248
724.942	0.0166178
725.021	0.0169070
725.099	0.0168408
725.177	0.0169663
725.255	0.0169534
725.333	0.0169463
725.411	0.0168883
725.489	0.0167541
725.567	0.0162843
725.646	0.0161699
725.724	0.0157523
725.802	0.0154211
725.880	0.0150703
725.958	0.0144786
726.036	0.0139493
726.114	0.0137489
726.192	0.0134616
726.271	0.0130797
726.349	0.0127238
726.427	0.0124309
726.505	0.0121178
726.583	0.0119215
726.661	0.0117365
726.739	0.0116467
726.817	0.0117545
726.896	0.0118660
726.974	0.0116665
727.052	0.0118812
727.130	0.0121413
727.208	0.0123573
727.286	0.0125488
727.364	0.0128214
727.442	0.0131678
727.521	0.0134096
727.599	0.0139185
727.677	0.0142546
727.755	0.0149287
727.833	0.0154664
727.911	0.0158538
727.989	0.0165593
728.067	0.0170192
728.146	0.0175952
728.224	0.0182312
728.302	0.0185578
728.380	0.0189845
728.458	0.0193480
728.536	0.0194946
728.614	0.0196323
728.692	0.0197891
728.771	0.0196395
728.849	0.0195174
728.927	0.0194515
729.005	0.0193153
729.083	0.0190287
729.161	0.0189452
729.239	0.0187900
729.317	0.0184921
729.396	0.0182254
729.474	0.0179711
729.552	0.0178470
729.630	0.0175111
729.708	0.0171374
729.786	0.0168494
729.864	0.0164330
729.942	0.0160190
730.021	0.0156702
730.099	0.0152671
730.177	0.0149126
730.255	0.0143761
730.333	0.0140455
730.411	0.0136214
730.489	0.0132133
730.567	0.0128491
730.646	0.0127813
730.724	0.0126792
730.802	0.0125513
730.880	0.0126206
730.958	0.0129764
731.036	0.0130037
731.114	0.0133173
731.192	0.0137652
731.271	0.0139773
731.349	0.0145630
731.427	0.0149660
731.505	0.0154395
731.583	0.0158428
731.661	0.0163774
731.739	0.0164848
731.817	0.0168880
731.896	0.0170991
731.974	0.0170316
732.052	0.0172403
732.130	0.0172580
732.208	0.0172884
732.286	0.0171194
732.364	0.0170908
732.442	0.0169695
732.521	0.0167817
732.599	0.0164437
732.677	0.0162267
732.755	0.0160472
732.833	0.0155755
732.911	0.0153870
732.989	0.0151204
733.067	0.0148454
733.146	0.0143961
733.224	0.0142196
733.302	0.0139733
733.380	0.0136240
733.458	0.0133496
733.536	0.0131396
733.614	0.0128384
733.692	0.0126419
733.771	0.0123524
733.849	0.0122016
733.927	0.0120193
734.005	0.0118909
734.083	0.0118792
734.161	0.0118414
734.239	0.0120594
734.317	0.0119891
734.396	0.0124572
734.474	0.0129071
734.552	0.0132731
734.630	0.0137648
734.708	0.0145055
734.786	0.0151124
734.864	0.0156477
734.942	0.0163638
735.021	0.0171550
735.099	0.0176801
735.177	0.0181693
735.255	0.0187874
735.333	0.0190298
735.411	0.0193114
735.489	0.0196786
735.567	0.0197317
735.646	0.0198489
735.724	0.0197098
735.802	0.0193818
735.880	0.0190272
735.958	0.0186147
736.036	0.0181081
736.114	0.0176505
736.192	0.0169912
736.271	0.0167158
736.349	0.0161272
736.427	0.0158453
736.505	0.0155096
736.583	0.0152382
736.661	0.0151227
736.739	0.0150183
736.817	0.0150991
736.896	0.0151619
736.974	0.0153983
737.052	0.0156554
737.130	0.0160072
737.208	0.0164538
737.286	0.0167670
737.364	0.0170800
737.442	0.0175194
737.521	0.0178046
737.599	0.0181406
737.677	0.0183202
737.755	0.0184419
737.833	0.0183387
737.911	0.0183733
737.989	0.0183552
738.067	0.0179775
738.146	0.0178114
738.224	0.0173043
738.302	0.0170099
738.380	0.0166180
738.458	0.0161894
738.536	0.0155956
738.614	0.0152621
738.692	0.0146945
738.771	0.0144231
738.849	0.0137076
738.927	0.0133991
739.005	0.0130906
739.083	0.0127766
739.161	0.0122404
739.239	0.0119356
739.317	0.0116555
739.396	0.0113947
739.474	0.0110831
739.552	0.0108109
739.630	0.0105729
739.708	0.0104582
739.786	0.0103365
739.864	0.0100403
739.942	0.0100150
740.021	0.0101112
740.099	0.0101324
740.177	0.0101695
740.255	0.0106126
740.333	0.0108404
740.411	0.0113274
740.489	0.0117627
740.567	0.0122782
740.646	0.0131165
740.724	0.0140068
740.802	0.0146424
740.880	0.0154793
740.958	0.0161828
741.036	0.0168580
741.114	0.0176759
741.192	0.0183498
741.271	0.0189270
741.349	0.0192030
741.427	0.0193883
741.505	0.0194561
741.583	0.0193470
741.661	0.0192100
741.739	0.0189065
741.817	0.0185227
741.896	0.0182549
741.974	0.0179465
742.052	0.0176851
742.130	0.0175249
742.208	0.0173165
742.286	0.0173372
742.364	0.0173854
742.442	0.0175005
742.521	0.0176033
742.599	0.0178989
742.677	0.0179892
742.755	0.0182352
742.833	0.0183459
742.911	0.0184191
742.989	0.0186799
743.067	0.0187341
743.146	0.0187472
743.224	0.0187392
743.302	0.0189573
743.380	0.0188392
743.458	0.0187625
743.536	0.0187463
743.614	0.0187419
743.692	0.0187098
743.771	0.0188124
743.849	0.0186385
743.927	0.0184053
744.005	0.0181886
744.083	0.0178427
744.161	0.0175768
744.239	0.0169875
744.317	0.0162770
744.396	0.0158916
744.474	0.0153461
744.552	0.0146453
744.630	0.0140120
744.708	0.0133862
744.786	0.0128709
744.864	0.0123292
744.942	0.0118736
745.021	0.0114516
745.099	0.0112081
745.177	0.0110130
745.255	0.0108046
745.333	0.0106505
745.411	0.0104638
745.489	0.0104403
745.567	0.0105005
745.646	0.0105096
745.724	0.0105478
745.802	0.0105499
745.880	0.0106348
745.958	0.0109422
746.036	0.0108875
746.114	0.0110970
746.192	0.0113017
746.271	0.0115591
746.349	0.0117916
746.427	0.0121841
746.505	0.0125961
746.583	0.0128267
746.661	0.0132374
746.739	0.0136277
746.817	0.0142214
746.896	0.0147009
746.974	0.0152348
747.052	0.0157809
747.130	0.0163185
747.208	0.0169616
747.286	0.0173699
747.364	0.0178227
747.442	0.0181117
747.521	0.0184552
747.599	0.0187054
747.677	0.0187055
747.755	0.0186235
747.833	0.0188424
747.911	0.0188090
747.989	0.0187242
748.067	0.0186347
748.146	0.0185197
748.224	0.0186225
748.302	0.0183595
748.380	0.0185377
748.458	0.0185818
748.536	0.0185956
748.614	0.0187787
748.692	0.0187836
748.771	0.0189025
748.849	0.0188240
748.927	0.0188450
749.005	0.0189203
749.083	0.0188432
749.161	0.0186937
749.239	0.0186469
749.317	0.0184415
749.396	0.0183782
749.474	0.0182819
749.552	0.0180585
749.630	0.0179045
749.708	0.0175642
749.786	0.0174220
749.864	0.0169926
749.942	0.0167399
750.021	0.0162372
750.099	0.0158279
750.177	0.0153664
750.255	0.0148658
750.333	0.0143851
750.411	0.0139248
750.489	0.0134972
750.567	0.0130864
750.646	0.0126203
750.724	0.0125225
750.802	0.0124507
750.880	0.0123561
750.958	0.0122226
751.036	0.0120936
751.114	0.0123148
751.192	0.0123624
751.271	0.0122320
751.349	0.0124329
751.427	0.0124805
751.505	0.0125083
751.583	0.0125751
751.661	0.0126852
751.739	0.0129308
751.817	0.0130859
751.896	0.0132148
751.974	0.0134293
752.052	0.0136108
752.130	0.0136996
752.208	0.0141818
752.286	0.0145170
752.364	0.0147009
752.442	0.0148370
752.521	0.0151465
752.599	0.0153112
752.677	0.0155531
752.755	0.0157562
752.833	0.0161602
752.911	0.0163935
752.989	0.0163514
753.067	0.0164090
753.146	0.0166278
753.224	0.0167362
753.302	0.0165436
753.380	0.0166247
753.458	0.0165320
753.536	0.0163300
753.614	0.0164538
753.692	0.0163971
753.771	0.0161624
753.849	0.0161257
753.927	0.0160528
754.005	0.0160515
754.083	0.0162668
754.161	0.0163515
754.239	0.0164295
754.317	0.0167473
754.396	0.0168248
754.474	0.0169638
754.552	0.0170780
754.630	0.0170533
754.708	0.0170715
754.786	0.0172250
754.864	0.0171403
754.942	0.0171896
755.021	0.0169347
755.099	0.0171268
755.177	0.0169389
755.255	0.0168923
755.333	0.0170750
755.411	0.0169095
755.489	0.0170435
755.567	0.0170647
755.646	0.0169166
755.724	0.0170927
755.802	0.0171016
755.880	0.0166895
755.958	0.0167651
756.036	0.0166010
756.114	0.0165446
756.192	0.0161206
756.271	0.0159660
756.349	0.0156789
756.427	0.0153882
756.505	0.0150951
756.583	0.0149995
756.661	0.0146561
756.739	0.0146470
756.817	0.0143705
756.896	0.0142118
756.974	0.0139954
757.052	0.0136299
757.130	0.0135041
757.208	0.0133080
757.286	0.0134003
757.364	0.0132543
757.442	0.0131687
757.521	0.0132240
757.599	0.0133088
757.677	0.0134068
757.755	0.0134670
757.833	0.0137625
757.911	0.0140125
757.989	0.0142146
758.067	0.0143635
758.146	0.0145621
758.224	0.0147532
758.302	0.0148327
758.380	0.0151840
758.458	0.0154209
758.536	0.0154127
758.614	0.0155367
758.692	0.0157847
758.771	0.0158793
758.849	0.0161187
758.927	0.0162407
759.005	0.0162002
759.083	0.0162299
759.161	0.0164314
759.239	0.0164061
759.317	0.0163491
759.396	0.0163984
759.474	0.0163604
759.552	0.0163094
759.630	0.0161636
759.708	0.0161600
759.786	0.0161633
759.864	0.0162098
759.942	0.0162446
760.021	0.0162315
760.099	0.0162966
760.177	0.0163639
760.255	0.0164252
760.333	0.0164742
760.411	0.0164330
760.489	0.0166499
760.567	0.0167223
760.646	0.0165381
760.724	0.0167377
760.802	0.0165962
760.880	0.0164607
760.958	0.0164021
761.036	0.0162173
761.114	0.0162846
761.192	0.0162210
761.271	0.0161964
761.349	0.0160383
761.427	0.0159870
761.505	0.0159565
761.583	0.0159060
761.661	0.0159416
761.739	0.0157663
761.817	0.0155771
761.896	0.0153492
761.974	0.0151930
762.052	0.0150276
762.130	0.0147232
762.208	0.0145167
762.286	0.0141801
762.364	0.0139623
762.442	0.0140667
762.521	0.0138055
762.599	0.0137914
762.677	0.0136208
762.755	0.0135825
762.833	0.0135676
762.911	0.0135795
762.989	0.0136356
763.067	0.0136075
763.146	0.0137899
763.224	0.0138289
763.302	0.0140568
763.380	0.0140932
763.458	0.0142946
763.536	0.0144920
763.614	0.0147810
763.692	0.0150254
763.771	0.0152609
763.849	0.0154285
763.927	0.0157495
764.005	0.0159454
764.083	0.0161226
764.161	0.0163394
764.239	0.0165693
764.317	0.0168113
764.396	0.0169503
764.474	0.0169235
764.552	0.0169922
764.630	0.0169538
764.708	0.0170753
764.786	0.0170008
764.864	0.0169945
764.942	0.0167620
765.021	0.0167819
765.099	0.0166430
765.177	0.0164284
765.255	0.0162300
765.333	0.0160498
765.411	0.0158247
765.489	0.0156173
765.567	0.0155328
765.646	0.0153017
765.724	0.0151400
765.802	0.0151679
765.880	0.0151020
765.958	0.0150024
766.036	0.0152120
766.114	0.0152035
766.192	0.0152857
766.271	0.0154566
766.349	0.0155131
766.427	0.0156008
766.505	0.0158604
766.583	0.0158193
766.661	0.0160736
766.739	0.0161700
766.817	0.0162868
766.896	0.0164882
766.974	0.0163690
767.052	0.0164767
767.130	0.0166237
767.208	0.0166754
767.286	0.0165089
767.364	0.0164909
767.442	0.0163153
767.521	0.0163519
767.599	0.0159705
767.677	0.0158566
767.755	0.0156556
767.833	0.0154672
767.911	0.0152537
767.989	0.0151174
768.067	0.0149415
768.146	0.0147300
768.224	0.0146195
768.302	0.0145742
768.380	0.0144246
768.458	0.0142333
768.536	0.0142411
768.614	0.0140595
768.692	0.0139914
768.771	0.0139087
768.849	0.0139433
768.927	0.0137730
769.005	0.0137718
769.083	0.0139534
769.161	0.0140977
769.239	0.0141777
769.317	0.0143967
769.396	0.0146340
769.474	0.0147845
769.552	0.0150607
769.630	0.0151931
769.708	0.0154963
769.786	0.0155485
769.864	0.0157533
769.942	0.0159001
770.021	0.0159578
770.099	0.0161088
770.177	0.0162880
770.255	0.0161893
770.333	0.0162093
770.411	0.0162898
770.489	0.0162879
770.567	0.0162299
770.646	0.0160714
770.724	0.0159939
770.802	0.0158494
770.880	0.0156062
770.958	0.0156421
771.036	0.0155488
771.114	0.0153650
771.192	0.0153139
771.271	0.0152052
771.349	0.0151388
771.427	0.0150976
771.505	0.0150736
771.583	0.0151009
771.661	0.0151002
771.739	0.0152007
771.817	0.0153752
771.896	0.0155681
771.974	0.0157604
772.052	0.0160166
772.130	0.0161345
772.208	0.0164311
772.286	0.0167068
772.364	0.0169331
772.442	0.0171213
772.521	0.0173716
772.599	0.0174860
772.677	0.0175729
772.755	0.0176218
772.833	0.0177203
772.911	0.0177590
772.989	0.0177829
773.067	0.0176213
773.146	0.0173210
773.224	0.0170538
773.302	0.0169039
773.380	0.0166286
773.458	0.0160709
773.536	0.0158548
773.614	0.0157035
773.692	0.0153613
773.771	0.0149702
773.849	0.0148714
773.927	0.0146980
774.005	0.0146244
774.083	0.0141911
774.161	0.0139915
774.239	0.0139483
774.317	0.0138689
774.396	0.0138543
774.474	0.0137498
774.552	0.0137421
774.630	0.0138274
774.708	0.0138577
774.786	0.0138253
774.864	0.0141280
774.942	0.0142664
775.021	0.0143521
775.099	0.0146541
775.177	0.0149554
775.255	0.0149671
775.333	0.0152280
775.411	0.0155473
775.489	0.0156296
775.567	0.0157446
775.646	0.0161038
775.724	0.0164119
775.802	0.0161971
775.880	0.0163104
775.958	0.0162684
776.036	0.0161893
776.114	0.0161311
776.192	0.0161964
776.271	0.0160855
776.349	0.0157225
776.427	0.0157732
776.505	0.0156916
776.583	0.0154471
776.661	0.0155041
776.739	0.0151480
776.817	0.0149260
776.896	0.0150329
776.974	0.0149410
777.052	0.0147880
777.130	0.0146859
777.208	0.0146674
777.286	0.0146658
777.364	0.0147367
777.442	0.0146722
777.521	0.0148398
777.599	0.0147903
777.677	0.0149812
777.755	0.0150948
777.833	0.0151325
777.911	0.0153928
777.989	0.0156332
778.067	0.0157981
778.146	0.0158983
778.224	0.0161565
778.302	0.0163705
778.380	0.0165569
778.458	0.0168017
778.536	0.0170481
778.614	0.0169093
778.692	0.0170934
778.771	0.0171674
778.849	0.0172652
778.927	0.0172280
779.005	0.0170934
779.083	0.0169517
779.161	0.0167467
779.239	0.0165266
779.317	0.0163407
779.396	0.0161840
779.474	0.0158422
779.552	0.0157059
779.630	0.0154404
779.708	0.0153664
779.786	0.0151743
779.864	0.0150505
779.942	0.0150999
780.021	0.0148920
780.099	0.0147385
780.177	0.0147246
780.255	0.0148066
780.333	0.0148563
780.411	0.0149718
780.489	0.0148834
780.567	0.0150412
780.646	0.0148957
780.724	0.0149748
780.802	0.0151096
780.880	0.0154088
780.958	0.0153494
781.036	0.0154309
781.114	0.0155648
781.192	0.0158080
781.271	0.0158079
781.349	0.0158631
781.427	0.0160159
781.505	0.0161367
781.583	0.0161689
781.661	0.0162610
781.739	0.0161945
781.817	0.0162093
781.896	0.0161094
781.974	0.0161719
782.052	0.0159590
782.130	0.0155875
782.208	0.0156740
782.286	0.0155148
782.364	0.0152953
782.442	0.0151733
782.521	0.0150500
782.599	0.0147396
782.677	0.0145916
782.755	0.0145399
782.833	0.0143777
782.911	0.0144514
782.989	0.0142570
783.067	0.0141550
783.146	0.0142115
783.224	0.0143276
783.302	0.0144608
783.380	0.0145137
783.458	0.0146150
783.536	0.0148305
783.614	0.0148691
783.692	0.0150283
783.771	0.0152631
783.849	0.0154306
783.927	0.0156651
784.005	0.0159479
784.083	0.0159841
784.161	0.0159539
784.239	0.0162194
784.317	0.0164287
784.396	0.0163697
784.474	0.0165871
784.552	0.0166823
784.630	0.0165832
784.708	0.0166825
784.786	0.0166422
784.864	0.0164495
784.942	0.0164114
785.021	0.0164251
785.099	0.0162630
785.177	0.0160003
785.255	0.0159145
785.333	0.0158454
785.411	0.0155600
785.489	0.0154839
785.567	0.0152745
785.646	0.0152409
785.724	0.0152596
785.802	0.0151028
785.880	0.0150198
785.958	0.0149630
786.036	0.0149518
786.114	0.0149970
786.192	0.0149646
786.271	0.0149731
786.349	0.0151266
786.427	0.0150840
786.505	0.0150697
786.583	0.0151440
786.661	0.0152102
786.739	0.0153196
786.817	0.0152064
786.896	0.0155006
786.974	0.0156505
787.052	0.0156972
787.130	0.0157011
787.208	0.0159639
787.286	0.0159945
787.364	0.0161059
787.442	0.0161642
787.521	0.0162532
787.599	0.0163189
787.677	0.0162858
787.755	0.0164339
787.833	0.0162497
787.911	0.0162656
787.989	0.0163611
788.067	0.0162107
788.146	0.0161681
788.224	0.0160738
788.302	0.0159059
788.380	0.0160468
788.458	0.0158608
788.536	0.0156731
788.614	0.0156077
788.692	0.0154936
788.771	0.0152785
788.849	0.0152401
788.927	0.0151543
789.005	0.0151583
789.083	0.0150557
789.161	0.0150432
789.239	0.0151148
789.317	0.0150365
789.396	0.0151627
789.474	0.0151596
789.552	0.0150726
789.630	0.0151700
789.708	0.0153122
789.786	0.0152283
789.864	0.0154810
789.942	0.0154259
790.021	0.0153138
790.099	0.0154272
790.177	0.0155618
790.255	0.0156251
790.333	0.0155643
790.411	0.0155791
790.489	0.0156577
790.567	0.0157484
790.646	0.0155895
790.724	0.0158263
790.802	0.0158730
790.880	0.0157170
790.958	0.0155953
791.036	0.0156267
791.114	0.0155428
791.192	0.0155228
791.271	0.0155207
791.349	0.0154735
791.427	0.0154539
791.505	0.0152557
791.583	0.0151703
791.661	0.0151688
791.739	0.0151644
791.817	0.0152454
791.896	0.0152489
791.974	0.0152917
792.052	0.0152495
792.130	0.0151354
792.208	0.0152021
792.286	0.0151471
792.364	0.0152961
792.442	0.0153760
792.521	0.0154435
792.599	0.0154104
792.677	0.0154995
792.755	0.0155726
792.833	0.0157549
792.911	0.0158319
792.989	0.0158752
793.067	0.0159325
793.146	0.0159756
793.224	0.0159846
793.302	0.0159330
793.380	0.0161275
793.458	0.0160985
793.536	0.0160857
793.614	0.0160280
793.692	0.0159969
793.771	0.0161814
793.849	0.0161000
793.927	0.0159313
794.005	0.0157742
794.083	0.0158057
794.161	0.0157586
794.239	0.0156023
794.317	0.0153289
794.396	0.0155054
794.474	0.0153822
794.552	0.0152523
794.630	0.0150504
794.708	0.0152135
794.786	0.0151731
794.864	0.0152114
794.942	0.0152808
795.021	0.0153124
795.099	0.0153793
795.177	0.0152875
795.255	0.0154350
795.333	0.0154143
795.411	0.0155742
795.489	0.0156947
795.567	0.0156864
795.646	0.0157224
795.724	0.0156960
795.802	0.0158817
795.880	0.0159283
795.958	0.0160559
796.036	0.0159751
796.114	0.0159859
796.192	0.0160721
796.271	0.0159280
796.349	0.0162421
796.427	0.0162171
796.505	0.0161238
796.583	0.0161348
796.661	0.0160812
796.739	0.0161548
796.817	0.0159987
796.896	0.0157975
796.974	0.0157517
797.052	0.0155663
797.130	0.0156060
797.208	0.0155119
797.286	0.0153494
797.364	0.0152861
797.442	0.0150952
797.521	0.0149096
797.599	0.0149154
797.677	0.0150707
797.755	0.0148190
797.833	0.0148357
797.911	0.0147371
797.989	0.0146525
798.067	0.0147646
798.146	0.0146018
798.224	0.0147809
798.302	0.0148190
798.380	0.0147573
798.458	0.0149325
798.536	0.0148132
798.614	0.0149038
798.692	0.0151120
798.771	0.0151689
798.849	0.0153550
798.927	0.0153927
799.005	0.0156313
799.083	0.0156860
799.161	0.0157401
799.239	0.0158672
799.317	0.0158878
799.396	0.0160518
799.474	0.0160969
799.552	0.0161469
799.630	0.0160036
799.708	0.0160503
799.786	0.0160724
799.864	0.0160673
799.942	0.0161279
800.021	0.0159966
800.099	0.0158727
800.177	0.0158855
800.255	0.0157817
800.333	0.0157609
800.411	0.0156068
800.489	0.0154320
800.567	0.0155840
800.646	0.0155147
800.724	0.0153428
800.802	0.0152455
800.880	0.0152606
800.958	0.0153271
801.036	0.0154675
801.114	0.0153752
801.192	0.0154044
801.271	0.0153799
801.349	0.0153976
801.427	0.0156238
801.505	0.0156121
801.583	0.0155935
801.661	0.0155813
801.739	0.0155501
801.817	0.0156149
801.896	0.0158820
801.974	0.0156771
802.052	0.0157193
802.130	0.0157606
802.208	0.0158938
802.286	0.0158337
802.364	0.0158233
802.442	0.0158583
802.521	0.0160728
802.599	0.0158746
802.677	0.0157941
802.755	0.0158405
802.833	0.0157565
802.911	0.0157953
802.989	0.0158431
803.067	0.0157993
803.146	0.0157467
803.224	0.0156415
803.302	0.0156737
803.380	0.0155540
803.458	0.0154828
803.536	0.0155386
803.614	0.0153597
803.692	0.0154182
803.771	0.0152718
803.849	0.0152299
803.927	0.0151994
804.005	0.0150597
804.083	0.0151482
804.161	0.0151124
804.239	0.0152411
804.317	0.0153456
804.396	0.0151885
804.474	0.0153915
804.552	0.0152699
804.630	0.0153098
804.708	0.0154028
804.786	0.0156373
804.864	0.0155453
804.942	0.0155189
805.021	0.0156602
805.099	0.0156834
805.177	0.0156611
805.255	0.0156458
805.333	0.0156473
805.411	0.0156873
805.489	0.0156787
805.567	0.0156490
805.646	0.0156505
805.724	0.0154755
805.802	0.0156639
805.880	0.0155978
805.958	0.0154034
806.036	0.0155016
806.114	0.0155836
806.192	0.0154837
806.271	0.0155594
806.349	0.0155860
806.427	0.0154117
806.505	0.0153229
806.583	0.0154376
806.661	0.0154121
806.739	0.0153023
806.817	0.0153697
806.896	0.0153616
806.974	0.0153296
807.052	0.0153741
807.130	0.0154842
807.208	0.0153438
807.286	0.0154290
807.364	0.0154099
807.442	0.0154399
807.521	0.0153616
807.599	0.0155540
807.677	0.0154759
807.755	0.0154889
807.833	0.0154908
807.911	0.0156300
807.989	0.0154952
808.067	0.0155452
808.146	0.0157563
808.224	0.0159026
808.302	0.0158327
808.380	0.0158436
808.458	0.0160815
808.536	0.0158659
808.614	0.0159826
808.692	0.0160010
808.771	0.0159145
808.849	0.0160844
808.927	0.0158762
809.005	0.0158236
809.083	0.0158990
809.161	0.0158437
809.239	0.0156866
809.317	0.0156622
809.396	0.0156168
809.474	0.0155737
809.552	0.0155289
809.630	0.0154010
809.708	0.0153078
809.786	0.0153025
809.864	0.0151294
809.942	0.0152234
810.021	0.0152798
810.099	0.0151292
810.177	0.0152988
810.255	0.0153287
810.333	0.0152064
810.411	0.0151972
810.489	0.0151932
810.567	0.0153586
810.646	0.0154148
810.724	0.0153675
810.802	0.0153808
810.880	0.0155532
810.958	0.0156654
811.036	0.0156807
811.114	0.0158630
811.192	0.0157476
811.271	0.0158361
811.349	0.0159072
811.427	0.0158253
811.505	0.0156635
811.583	0.0157282
811.661	0.0157571
811.739	0.0157255
811.817	0.0157403
811.896	0.0157096
811.974	0.0155960
812.052	0.0154617
812.130	0.0156033
812.208	0.0153226
812.286	0.0153906
812.364	0.0153257
812.442	0.0152637
812.521	0.0152975
812.599	0.0152219
812.677	0.0151852
812.755	0.0152945
812.833	0.0153867
812.911	0.0153610
812.989	0.0155331
813.067	0.0153902
813.146	0.0154524
813.224	0.0156204
813.302	0.0157800
813.380	0.0157830
813.458	0.0158414
813.536	0.0158548
813.614	0.0158427
813.692	0.0160811
813.771	0.0161417
813.849	0.0160047
813.927	0.0160696
814.005	0.0159518
814.083	0.0159407
814.161	0.0160579
814.239	0.0159279
814.317	0.0158442
814.396	0.0158958
814.474	0.0157890
814.552	0.0155932
814.630	0.0156977
814.708	0.0157278
814.786	0.0155775
814.864	0.0154933
814.942	0.0154404
815.021	0.0153304
815.099	0.0153469
815.177	0.0154121
815.255	0.0152505
815.333	0.0152844
815.411	0.0152196
815.489	0.0150996
815.567	0.0153288
815.646	0.0152833
815.724	0.0152666
815.802	0.0152491
815.880	0.0152338
815.958	0.0152725
816.036	0.0153329
816.114	0.0153374
816.192	0.0154140
816.271	0.0154115
816.349	0.0155096
816.427	0.0156567
816.505	0.0156373
816.583	0.0157359
816.661	0.0157187
816.739	0.0157674
816.817	0.0158289
816.896	0.0157630
816.974	0.0158328
817.052	0.0159675
817.130	0.0159221
817.208	0.0158784
817.286	0.0159397
817.364	0.0159056
817.442	0.0158053
817.521	0.0159226
817.599	0.0157678
817.677	0.0157144
817.755	0.0156347
817.833	0.0156215
817.911	0.0154328
817.989	0.0155013
818.067	0.0153240
818.146	0.0152762
818.224	0.0152194
818.302	0.0151451
818.380	0.0152234
818.458	0.0151530
818.536	0.0151319
818.614	0.0152644
818.692	0.0152296
818.771	0.0151935
818.849	0.0153291
818.927	0.0153955
819.005	0.0153322
819.083	0.0153832
819.161	0.0156142
819.239	0.0155332
819.317	0.0156010
819.396	0.0156597
819.474	0.0158574
819.552	0.0159573
819.630	0.0157259
819.708	0.0159394
819.786	0.0158569
819.864	0.0159242
819.942	0.0159277
820.021	0.0159621
820.099	0.0159313
820.177	0.0159082
820.255	0.0160548
820.333	0.0159277
820.411	0.0159374
820.489	0.0157793
820.567	0.0157318
820.646	0.0156455
820.724	0.0156239
820.802	0.0156493
820.880	0.0154548
820.958	0.0154554
821.036	0.0152936
821.114	0.0154396
821.192	0.0155160
821.271	0.0153902
821.349	0.0153600
821.427	0.0153120
821.505	0.0153024
821.583	0.0154032
821.661	0.0154796
821.739	0.0154456
821.817	0.0153944
821.896	0.0154922
821.974	0.0155529
822.052	0.0154183
822.130	0.0154092
822.208	0.0155155
822.286	0.0155170
822.364	0.0154810
822.442	0.0154372
822.521	0.0155928
822.599	0.0155661
822.677	0.0155306
822.755	0.0156909
822.833	0.0155238
822.911	0.0155353
822.989	0.0155836
823.067	0.0154270
823.146	0.0153213
823.224	0.0153127
823.302	0.0152620
823.380	0.0152560
823.458	0.0152150
823.536	0.0149900
823.614	0.0149133
823.692	0.0149690
823.771	0.0149744
823.849	0.0149186
823.927	0.0148822
824.005	0.0150417
824.083	0.0150806
824.161	0.0150240
824.239	0.0151114
824.317	0.0150253
824.396	0.0151814
824.474	0.0154096
824.552	0.0153627
824.630	0.0155187
824.708	0.0155563
824.786	0.0155662
824.864	0.0157161
824.942	0.0159479
825.021	0.0159293
825.099	0.0162259
825.177	0.0162003
825.255	0.0161122
825.333	0.0162802
825.411	0.0163537
825.489	0.0163884
825.567	0.0161640
825.646	0.0163191
825.724	0.0162631
825.802	0.0162019
825.880	0.0162753
825.958	0.0163107
826.036	0.0160108
826.114	0.0159443
826.192	0.0160744
826.271	0.0158347
826.349	0.0157371
826.427	0.0157648
826.505	0.0156275
826.583	0.0155808
826.661	0.0155220
826.739	0.0155398
826.817	0.0155512
826.896	0.0154785
826.974	0.0153648
827.052	0.0152876
827.130	0.0152713
827.208	0.0152235
827.286	0.0152710
827.364	0.0151175
827.442	0.0153593
827.521	0.0152685
827.599	0.0151921
827.677	0.0153616
827.755	0.0152900
827.833	0.0152869
827.911	0.0154546
827.989	0.0153218
828.067	0.0153928
828.146	0.0155080
828.224	0.0154322
828.302	0.0156166
828.380	0.0154833
828.458	0.0155247
828.536	0.0155451
828.614	0.0154068
828.692	0.0154944
828.771	0.0155203
828.849	0.0153662
828.927	0.0155206
829.005	0.0155972
829.083	0.0155925
829.161	0.0156317
829.239	0.0154678
829.317	0.0155958
829.396	0.0155173
829.474	0.0154652
829.552	0.0155028
829.630	0.0155006
829.708	0.0155258
829.786	0.0154553
829.864	0.0155035
829.942	0.0155162
830.021	0.0154628
830.099	0.0153450
830.177	0.0153422
830.255	0.0153764
830.333	0.0153757
830.411	0.0152705
830.489	0.0152491
830.567	0.0153382
830.646	0.0153912
830.724	0.0152147
830.802	0.0152499
830.880	0.0153506
830.958	0.0152574
831.036	0.0153327
831.114	0.0153502
831.192	0.0153342
831.271	0.0153962
831.349	0.0153468
831.427	0.0153631
831.505	0.0156130
831.583	0.0155184
831.661	0.0156189
831.739	0.0157047
831.817	0.0157803
831.896	0.0158277
831.974	0.0158244
832.052	0.0157399
832.130	0.0158163
832.208	0.0157926
832.286	0.0158777
832.364	0.0158006
832.442	0.0158054
832.521	0.0158387
832.599	0.0157674
832.677	0.0157225
832.755	0.0158302
832.833	0.0157387
832.911	0.0157879
832.989	0.0158311
833.067	0.0158246
833.146	0.0159336
833.224	0.0158297
833.302	0.0159146
833.380	0.0159197
833.458	0.0158609
833.536	0.0159801
833.614	0.0160826
833.692	0.0160000
833.771	0.0160018
833.849	0.0160162
833.927	0.0160911
834.005	0.0159980
834.083	0.0157302
834.161	0.0157746
834.239	0.0157211
834.317	0.0155737
834.396	0.0156395
834.474	0.0154926
834.552	0.0154809
834.630	0.0154362
834.708	0.0153856
834.786	0.0151760
834.864	0.0152840
834.942	0.0152807
835.021	0.0151847
835.099	0.0151546
835.177	0.0152180
835.255	0.0150909
835.333	0.0150632
835.411	0.0150131
835.489	0.0150385
835.567	0.0150896
835.646	0.0150426
835.724	0.0150387
835.802	0.0151019
835.880	0.0151512
835.958	0.0150640
836.036	0.0150633
836.114	0.0152000
836.192	0.0151965
836.271	0.0152396
836.349	0.0152423
836.427	0.0151438
836.505	0.0152142
836.583	0.0152018
836.661	0.0152389
836.739	0.0152094
836.817	0.0153095
836.896	0.0151462
836.974	0.0152453
837.052	0.0151945
837.130	0.0152060
837.208	0.0151999
837.286	0.0152881
837.364	0.0154309
837.442	0.0153587
837.521	0.0153497
837.599	0.0154215
837.677	0.0155619
837.755	0.0155389
837.833	0.0155875
837.911	0.0156737
837.989	0.0157953
838.067	0.0159038
838.146	0.0158788
838.224	0.0160182
838.302	0.0160195
838.380	0.0161037
838.458	0.0161868
838.536	0.0162180
838.614	0.0162741
838.692	0.0163509
838.771	0.0163773
838.849	0.0165068
838.927	0.0164918
839.005	0.0164165
839.083	0.0164600
839.161	0.0164899
839.239	0.0164346
839.317	0.0163906
839.396	0.0163065
839.474	0.0163264
839.552	0.0162387
839.630	0.0160753
839.708	0.0160765
839.786	0.0161401
839.864	0.0158527
839.942	0.0158547
840.021	0.0157632
840.099	0.0158470
840.177	0.0156806
840.255	0.0154523
840.333	0.0154655
840.411	0.0154898
840.489	0.0152751
840.567	0.0153380
840.646	0.0152893
840.724	0.0151238
840.802	0.0150758
840.880	0.0150874
840.958	0.0149943
841.036	0.0149829
841.114	0.0150279
841.192	0.0150171
841.271	0.0150451
841.349	0.0149020
841.427	0.0152272
841.505	0.0150754
841.583	0.0149314
841.661	0.0149435
841.739	0.0151020
841.817	0.0151073
841.896	0.0150317
841.974	0.0150423
842.052	0.0151653
842.130	0.0151793
842.208	0.0150581
842.286	0.0151221
842.364	0.0150191
842.442	0.0151649
842.521	0.0152395
842.599	0.0150080
842.677	0.0152167
842.755	0.0151709
842.833	0.0151021
842.911	0.0149677
842.989	0.0151936
843.067	0.0153533
843.146	0.0150565
843.224	0.0153356
843.302	0.0154187
843.380	0.0153350
843.458	0.0154855
843.536	0.0156250
843.614	0.0157540
843.692	0.0157762
843.771	0.0157670
843.849	0.0157906
843.927	0.0160191
844.005	0.0159753
844.083	0.0159673
844.161	0.0161018
844.239	0.0160913
844.317	0.0161630
844.396	0.0161388
844.474	0.0162425
844.552	0.0162254
844.630	0.0162305
844.708	0.0163754
844.786	0.0163519
844.864	0.0162707
844.942	0.0163216
845.021	0.0164104
845.099	0.0163774
845.177	0.0163439
845.255	0.0163159
845.333	0.0162807
845.411	0.0162283
845.489	0.0161642
845.567	0.0160271
845.646	0.0159431
845.724	0.0159753
845.802	0.0158495
845.880	0.0156683
845.958	0.0156536
846.036	0.0154719
846.114	0.0154594
846.192	0.0154147
846.271	0.0152408
846.349	0.0151381
846.427	0.0150473
846.505	0.0150574
846.583	0.0149841
846.661	0.0152303
846.739	0.0151810
846.817	0.0150083
846.896	0.0150996
846.974	0.0151489
847.052	0.0151334
847.130	0.0151654
847.208	0.0152112
847.286	0.0151278
847.364	0.0152650
847.442	0.0152597
847.521	0.0153596
847.599	0.0153633
847.677	0.0153615
847.755	0.0153592
847.833	0.0153026
847.911	0.0152583
847.989	0.0152837
848.067	0.0153059
848.146	0.0152168
848.224	0.0150903
848.302	0.0151707
848.380	0.0150482
848.458	0.0150687
848.536	0.0152364
848.614	0.0150842
848.692	0.0151144
848.771	0.0151252
848.849	0.0151845
848.927	0.0151617
849.005	0.0152479
849.083	0.0152827
849.161	0.0153922
849.239	0.0153690
849.317	0.0154236
849.396	0.0154764
849.474	0.0155173
849.552	0.0155889
849.630	0.0155688
849.708	0.0156522
849.786	0.0157487
849.864	0.0158762
849.942	0.0159039
850.021	0.0159786
850.099	0.0159604
850.177	0.0160764
850.255	0.0160971
850.333	0.0162286
850.411	0.0163349
850.489	0.0163386
850.567	0.0161903
850.646	0.0162719
850.724	0.0162032
850.802	0.0163498
850.880	0.0161920
850.958	0.0160283
851.036	0.0161099
851.114	0.0161306
851.192	0.0161336
851.271	0.0158556
851.349	0.0159363
851.427	0.0159310
851.505	0.0160146
851.583	0.0157805
851.661	0.0157668
851.739	0.0157691
851.817	0.0157407
851.896	0.0157470
851.974	0.0156247
852.052	0.0157686
852.130	0.0155260
852.208	0.0154716
852.286	0.0153832
852.364	0.0154466
852.442	0.0154636
852.521	0.0154258
852.599	0.0152778
852.677	0.0154334
852.755	0.0153593
852.833	0.0152755
852.911	0.0152650
852.989	0.0152202
853.067	0.0151537
853.146	0.0151786
853.224	0.0152736
853.302	0.0152594
853.380	0.0151704
853.458	0.0150840
853.536	0.0151947
853.614	0.0152601
853.692	0.0152590
853.771	0.0150732
853.849	0.0152448
853.927	0.0152082
854.005	0.0152144
854.083	0.0152065
854.161	0.0153210
854.239	0.0151816
854.317	0.0152799
854.396	0.0152579
854.474	0.0152585
854.552	0.0152435
854.630	0.0152997
854.708	0.0152530
854.786	0.0153001
854.864	0.0153314
854.942	0.0153926
855.021	0.0154072
855.099	0.0153503
855.177	0.0153810
855.255	0.0155145
855.333	0.0154334
855.411	0.0154488
855.489	0.0156302
855.567	0.0156278
855.646	0.0157781
855.724	0.0157599
855.802	0.0157983
855.880	0.0157936
855.958	0.0158933
856.036	0.0160262
856.114	0.0159803
856.192	0.0160287
856.271	0.0159850
856.349	0.0159908
856.427	0.0160075
856.505	0.0160582
856.583	0.0160552
856.661	0.0160215
856.739	0.0158192
856.817	0.0159044
856.896	0.0158399
856.974	0.0157929
857.052	0.0157172
857.130	0.0156631
857.208	0.0155641
857.286	0.0156384
857.364	0.0156722
857.442	0.0154848
857.521	0.0154107
857.599	0.0155327
857.677	0.0154070
857.755	0.0154566
857.833	0.0154147
857.911	0.0154393
857.989	0.0155527
858.067	0.0154517
858.146	0.0154773
858.224	0.0156139
858.302	0.0154900
858.380	0.0154361
858.458	0.0155083
858.536	0.0155400
858.614	0.0155862
858.692	0.0156231
858.771	0.0156818
858.849	0.0156294
858.927	0.0156697
859.005	0.0155625
859.083	0.0155933
859.161	0.0154776
859.239	0.0154449
859.317	0.0154177
859.396	0.0155393
859.474	0.0154333
859.552	0.0152459
859.630	0.0152949
859.708	0.0153136
859.786	0.0152347
859.864	0.0151311
859.942	0.0151636
860.021	0.0151199
860.099	0.0150665
860.177	0.0151058
860.255	0.0152302
860.333	0.0151966
860.411	0.0152705
860.489	0.0151774
860.567	0.0154884
860.646	0.0153819
860.724	0.0154325
860.802	0.0155685
860.880	0.0155696
860.958	0.0155859
861.036	0.0156429
861.114	0.0156635
861.192	0.0156253
861.271	0.0158361
861.349	0.0157413
861.427	0.0157448
861.505	0.0156744
861.583	0.0156689
861.661	0.0158306
861.739	0.0157772
861.817	0.0157764
861.896	0.0158236
861.974	0.0158622
862.052	0.0159388
862.130	0.0158370
862.208	0.0157330
862.286	0.0157894
862.364	0.0157207
862.442	0.0158095
862.521	0.0158635
862.599	0.0156847
862.677	0.0157593
862.755	0.0155814
862.833	0.0155818
862.911	0.0155846
862.989	0.0156416
863.067	0.0156145
863.146	0.0155821
863.224	0.0154305
863.302	0.0154736
863.380	0.0157433
863.458	0.0155450
863.536	0.0155516
863.614	0.0155815
863.692	0.0155690
863.771	0.0155396
863.849	0.0156236
863.927	0.0156573
864.005	0.0155330
864.083	0.0155060
864.161	0.0155792
864.239	0.0155181
864.317	0.0156629
864.396	0.0156807
864.474	0.0156895
864.552	0.0156934
864.630	0.0156033
864.708	0.0155560
864.786	0.0154500
864.864	0.0155791
864.942	0.0155583
865.021	0.0156595
865.099	0.0155054
865.177	0.0154882
865.255	0.0155357
865.333	0.0155960
865.411	0.0154265
865.489	0.0153036
865.567	0.0154016
865.646	0.0154424
865.724	0.0154048
865.802	0.0154482
865.880	0.0152878
865.958	0.0152431
866.036	0.0153728
866.114	0.0153518
866.192	0.0153714
866.271	0.0154031
866.349	0.0153718
866.427	0.0153540
866.505	0.0156138
866.583	0.0155902
866.661	0.0154658
866.739	0.0154211
866.817	0.0155304
866.896	0.0155105
866.974	0.0157021
867.052	0.0157967
867.130	0.0157249
867.208	0.0156847
867.286	0.0158076
867.364	0.0157395
867.442	0.0157614
867.521	0.0156835
867.599	0.0156001
867.677	0.0158200
867.755	0.0157116
867.833	0.0157397
867.911	0.0157230
867.989	0.0157753
868.067	0.0157717
868.146	0.0155877
868.224	0.0155997
868.302	0.0156541
868.380	0.0156341
868.458	0.0156518
868.536	0.0155476
868.614	0.0156268
868.692	0.0155678
868.771	0.0156006
868.849	0.0157092
868.927	0.0155380
869.005	0.0155030
869.083	0.0157466
869.161	0.0156684
869.239	0.0155399
869.317	0.0155730
869.396	0.0157458
869.474	0.0156800
869.552	0.0157529
869.630	0.0157426
869.708	0.0155873
869.786	0.0157006
869.864	0.0156434
869.942	0.0157251
