06/03/2022	15:47:16	Ver.	4.1	UNKNOWN
Optical Delay	550.020508	Delta X		0.078125	Sweeps	1	Scan Rate	0/0
Coordinates	Axis 1	NaN	Axis 2	NaN	Axis 3	NaN	Axis 4	NaN	Axis 5	NaN	Axis 6	0.000000
TX Power	0.000000	RX Power	0.000000

550.021	0.0159463
550.099	0.0159325
550.177	0.0160346
550.255	0.0159961
550.333	0.0158702
550.411	0.0158994
550.489	0.0160119
550.567	0.0159436
550.646	0.0158096
550.724	0.0158926
550.802	0.0159832
550.880	0.0159634
550.958	0.0158334
551.036	0.0158753
551.114	0.0159816
551.192	0.0159747
551.271	0.0159621
551.349	0.0159683
551.427	0.0159052
551.505	0.0160107
551.583	0.0159100
551.661	0.0160799
551.739	0.0158722
551.817	0.0158522
551.896	0.0159030
551.974	0.0160211
552.052	0.0159772
552.130	0.0159806
552.208	0.0160438
552.286	0.0159596
552.364	0.0159406
552.442	0.0159284
552.521	0.0159988
552.599	0.0159778
552.677	0.0159454
552.755	0.0159155
552.833	0.0157785
552.911	0.0158550
552.989	0.0160510
553.067	0.0161250
553.146	0.0158585
553.224	0.0158041
553.302	0.0159354
553.380	0.0158065
553.458	0.0158507
553.536	0.0158193
553.614	0.0160110
553.692	0.0159779
553.771	0.0159404
553.849	0.0158919
553.927	0.0158714
554.005	0.0158051
554.083	0.0158186
554.161	0.0160037
554.239	0.0159901
554.317	0.0160708
554.396	0.0159454
554.474	0.0160273
554.552	0.0159113
554.630	0.0161002
554.708	0.0158536
554.786	0.0159393
554.864	0.0159265
554.942	0.0161138
555.021	0.0160220
555.099	0.0159431
555.177	0.0159686
555.255	0.0158321
555.333	0.0160251
555.411	0.0159599
555.489	0.0159802
555.567	0.0159224
555.646	0.0158475
555.724	0.0160130
555.802	0.0160548
555.880	0.0159200
555.958	0.0160308
556.036	0.0158829
556.114	0.0159873
556.192	0.0158382
556.271	0.0160931
556.349	0.0158605
556.427	0.0158616
556.505	0.0159280
556.583	0.0160252
556.661	0.0159013
556.739	0.0160172
556.817	0.0158484
556.896	0.0160406
556.974	0.0159891
557.052	0.0159163
557.130	0.0160599
557.208	0.0159454
557.286	0.0160045
557.364	0.0159764
557.442	0.0160575
557.521	0.0159166
557.599	0.0159460
557.677	0.0159825
557.755	0.0160712
557.833	0.0159157
557.911	0.0158191
557.989	0.0160641
558.067	0.0160204
558.146	0.0158965
558.224	0.0159792
558.302	0.0158327
558.380	0.0159264
558.458	0.0160173
558.536	0.0158829
558.614	0.0158383
558.692	0.0159331
558.771	0.0158967
558.849	0.0158825
558.927	0.0158706
559.005	0.0158845
559.083	0.0160520
559.161	0.0158678
559.239	0.0159184
559.317	0.0159300
559.396	0.0160229
559.474	0.0159418
559.552	0.0159109
559.630	0.0159230
559.708	0.0159359
559.786	0.0159272
559.864	0.0159293
559.942	0.0158770
560.021	0.0158563
560.099	0.0160220
560.177	0.0161797
560.255	0.0158478
560.333	0.0158527
560.411	0.0159311
560.489	0.0158906
560.567	0.0159776
560.646	0.0159250
560.724	0.0160835
560.802	0.0159523
560.880	0.0157935
560.958	0.0158651
561.036	0.0161062
561.114	0.0160604
561.192	0.0160223
561.271	0.0159635
561.349	0.0159251
561.427	0.0158803
561.505	0.0159495
561.583	0.0158975
561.661	0.0159463
561.739	0.0160078
561.817	0.0159731
561.896	0.0159560
561.974	0.0158279
562.052	0.0158906
562.130	0.0160471
562.208	0.0159706
562.286	0.0159858
562.364	0.0160335
562.442	0.0160799
562.521	0.0158733
562.599	0.0159232
562.677	0.0159766
562.755	0.0161069
562.833	0.0158798
562.911	0.0159880
562.989	0.0159261
563.067	0.0159822
563.146	0.0160252
563.224	0.0158805
563.302	0.0160173
563.380	0.0160151
563.458	0.0160722
563.536	0.0160120
563.614	0.0158604
563.692	0.0159979
563.771	0.0160375
563.849	0.0160319
563.927	0.0160760
564.005	0.0159864
564.083	0.0159817
564.161	0.0159542
564.239	0.0159312
564.317	0.0160426
564.396	0.0160655
564.474	0.0158925
564.552	0.0158150
564.630	0.0159455
564.708	0.0159352
564.786	0.0159947
564.864	0.0159965
564.942	0.0159881
565.021	0.0159816
565.099	0.0159922
565.177	0.0159549
565.255	0.0159071
565.333	0.0159222
565.411	0.0159281
565.489	0.0160347
565.567	0.0160882
565.646	0.0159964
565.724	0.0160207
565.802	0.0160690
565.880	0.0159535
565.958	0.0160587
566.036	0.0160391
566.114	0.0159889
566.192	0.0160131
566.271	0.0159517
566.349	0.0159505
566.427	0.0159560
566.505	0.0159386
566.583	0.0157960
566.661	0.0160197
566.739	0.0159781
566.817	0.0160193
566.896	0.0159604
566.974	0.0159577
567.052	0.0159584
567.130	0.0159071
567.208	0.0159563
567.286	0.0158656
567.364	0.0160877
567.442	0.0159296
567.521	0.0159966
567.599	0.0159808
567.677	0.0160464
567.755	0.0159776
567.833	0.0159123
567.911	0.0158791
567.989	0.0159078
568.067	0.0160674
568.146	0.0161082
568.224	0.0159354
568.302	0.0159585
568.380	0.0161005
568.458	0.0159292
568.536	0.0158747
568.614	0.0160300
568.692	0.0159386
568.771	0.0160133
568.849	0.0159396
568.927	0.0159252
569.005	0.0159638
569.083	0.0160067
569.161	0.0160482
569.239	0.0160206
569.317	0.0159853
569.396	0.0158983
569.474	0.0160712
569.552	0.0159128
569.630	0.0158948
569.708	0.0159869
569.786	0.0159909
569.864	0.0159888
569.942	0.0160489
570.021	0.0159925
570.099	0.0160239
570.177	0.0158960
570.255	0.0159216
570.333	0.0159802
570.411	0.0159269
570.489	0.0158908
570.567	0.0159687
570.646	0.0160892
570.724	0.0160627
570.802	0.0160487
570.880	0.0158569
570.958	0.0159470
571.036	0.0159072
571.114	0.0160078
571.192	0.0160265
571.271	0.0159632
571.349	0.0159136
571.427	0.0159447
571.505	0.0159715
571.583	0.0159223
571.661	0.0159874
571.739	0.0160472
571.817	0.0158937
571.896	0.0160552
571.974	0.0159693
572.052	0.0158858
572.130	0.0159486
572.208	0.0158564
572.286	0.0159291
572.364	0.0160317
572.442	0.0158429
572.521	0.0159006
572.599	0.0159578
572.677	0.0160404
572.755	0.0157566
572.833	0.0159798
572.911	0.0160703
572.989	0.0159457
573.067	0.0158662
573.146	0.0158919
573.224	0.0160300
573.302	0.0159303
573.380	0.0157863
573.458	0.0159473
573.536	0.0159979
573.614	0.0159196
573.692	0.0158413
573.771	0.0158714
573.849	0.0161065
573.927	0.0159465
574.005	0.0159496
574.083	0.0159387
574.161	0.0158928
574.239	0.0157979
574.317	0.0159323
574.396	0.0160412
574.474	0.0159868
574.552	0.0158510
574.630	0.0158698
574.708	0.0160738
574.786	0.0158809
574.864	0.0159119
574.942	0.0158798
575.021	0.0158321
575.099	0.0158762
575.177	0.0160387
575.255	0.0158604
575.333	0.0159734
575.411	0.0159428
575.489	0.0158464
575.567	0.0159218
575.646	0.0158657
575.724	0.0160250
575.802	0.0159751
575.880	0.0160502
575.958	0.0159869
576.036	0.0159696
576.114	0.0159723
576.192	0.0160123
576.271	0.0158892
576.349	0.0160564
576.427	0.0160583
576.505	0.0158837
576.583	0.0159903
576.661	0.0159422
576.739	0.0159438
576.817	0.0159447
576.896	0.0159473
576.974	0.0159992
577.052	0.0160191
577.130	0.0159064
577.208	0.0159390
577.286	0.0160497
577.364	0.0160162
577.442	0.0158468
577.521	0.0159369
577.599	0.0159477
577.677	0.0160465
577.755	0.0158743
577.833	0.0158971
577.911	0.0160203
577.989	0.0159849
578.067	0.0159776
578.146	0.0159469
578.224	0.0160945
578.302	0.0159902
578.380	0.0160107
578.458	0.0159599
578.536	0.0158214
578.614	0.0159891
578.692	0.0159338
578.771	0.0160188
578.849	0.0159418
578.927	0.0157251
579.005	0.0158763
579.083	0.0159341
579.161	0.0161013
579.239	0.0159119
579.317	0.0158943
579.396	0.0160122
579.474	0.0159076
579.552	0.0159647
579.630	0.0159737
579.708	0.0159644
579.786	0.0158990
579.864	0.0159422
579.942	0.0160122
580.021	0.0159159
580.099	0.0160085
580.177	0.0158969
580.255	0.0160140
580.333	0.0157639
580.411	0.0159209
580.489	0.0159760
580.567	0.0159149
580.646	0.0158881
580.724	0.0160001
580.802	0.0159527
580.880	0.0158690
580.958	0.0158213
581.036	0.0159016
581.114	0.0158010
581.192	0.0159784
581.271	0.0159150
581.349	0.0159058
581.427	0.0159224
581.505	0.0158041
581.583	0.0159886
581.661	0.0159299
581.739	0.0158241
581.817	0.0159209
581.896	0.0159389
581.974	0.0157378
582.052	0.0158752
582.130	0.0159532
582.208	0.0159706
582.286	0.0160307
582.364	0.0160294
582.442	0.0158951
582.521	0.0158334
582.599	0.0159511
582.677	0.0159141
582.755	0.0159196
582.833	0.0159026
582.911	0.0157987
582.989	0.0158508
583.067	0.0159250
583.146	0.0159804
583.224	0.0159670
583.302	0.0158968
583.380	0.0158704
583.458	0.0159904
583.536	0.0159740
583.614	0.0159310
583.692	0.0158035
583.771	0.0158206
583.849	0.0159707
583.927	0.0158675
584.005	0.0159587
584.083	0.0159816
584.161	0.0159927
584.239	0.0159594
584.317	0.0160054
584.396	0.0160079
584.474	0.0159056
584.552	0.0158806
584.630	0.0159263
584.708	0.0159251
584.786	0.0158291
584.864	0.0158946
584.942	0.0158144
585.021	0.0158745
585.099	0.0159430
585.177	0.0159476
585.255	0.0159506
585.333	0.0158401
585.411	0.0159132
585.489	0.0159068
585.567	0.0160555
585.646	0.0159737
585.724	0.0159330
585.802	0.0158664
585.880	0.0160483
585.958	0.0159243
586.036	0.0158894
586.114	0.0158664
586.192	0.0160397
586.271	0.0159297
586.349	0.0159376
586.427	0.0160542
586.505	0.0159208
586.583	0.0159518
586.661	0.0159579
586.739	0.0160148
586.817	0.0158846
586.896	0.0159106
586.974	0.0161330
587.052	0.0160394
587.130	0.0160777
587.208	0.0160493
587.286	0.0158931
587.364	0.0159536
587.442	0.0159241
587.521	0.0158722
587.599	0.0160818
587.677	0.0160412
587.755	0.0159003
587.833	0.0160192
587.911	0.0159951
587.989	0.0158432
588.067	0.0159746
588.146	0.0158748
588.224	0.0158723
588.302	0.0158715
588.380	0.0159341
588.458	0.0159563
588.536	0.0158592
588.614	0.0158789
588.692	0.0158746
588.771	0.0159222
588.849	0.0158788
588.927	0.0160188
589.005	0.0160212
589.083	0.0159264
589.161	0.0158994
589.239	0.0159238
589.317	0.0159821
589.396	0.0158228
589.474	0.0159235
589.552	0.0160173
589.630	0.0160403
589.708	0.0160677
589.786	0.0159162
589.864	0.0160134
589.942	0.0160348
590.021	0.0159007
590.099	0.0158459
590.177	0.0159254
590.255	0.0157732
590.333	0.0159552
590.411	0.0158911
590.489	0.0158819
590.567	0.0160317
590.646	0.0158805
590.724	0.0159532
590.802	0.0158644
590.880	0.0159665
590.958	0.0159135
591.036	0.0158124
591.114	0.0158508
591.192	0.0159249
591.271	0.0159628
591.349	0.0160823
591.427	0.0160147
591.505	0.0158445
591.583	0.0159203
591.661	0.0160631
591.739	0.0160842
591.817	0.0159930
591.896	0.0159145
591.974	0.0159231
592.052	0.0159833
592.130	0.0161140
592.208	0.0159650
592.286	0.0158488
592.364	0.0159631
592.442	0.0160078
592.521	0.0158906
592.599	0.0159112
592.677	0.0159566
592.755	0.0161175
592.833	0.0159309
592.911	0.0159937
592.989	0.0159043
593.067	0.0159136
593.146	0.0160262
593.224	0.0159754
593.302	0.0159809
593.380	0.0160195
593.458	0.0159910
593.536	0.0158538
593.614	0.0160780
593.692	0.0159835
593.771	0.0158312
593.849	0.0159415
593.927	0.0160796
594.005	0.0159528
594.083	0.0159004
594.161	0.0160824
594.239	0.0159696
594.317	0.0157851
594.396	0.0159412
594.474	0.0159600
594.552	0.0159547
594.630	0.0158524
594.708	0.0160071
594.786	0.0159616
594.864	0.0158882
594.942	0.0160011
595.021	0.0158855
595.099	0.0157375
595.177	0.0158417
595.255	0.0159984
595.333	0.0159396
595.411	0.0157764
595.489	0.0158673
595.567	0.0159500
595.646	0.0158711
595.724	0.0159338
595.802	0.0159496
595.880	0.0158966
595.958	0.0158685
596.036	0.0158518
596.114	0.0160754
596.192	0.0159611
596.271	0.0159006
596.349	0.0158154
596.427	0.0158880
596.505	0.0159732
596.583	0.0158684
596.661	0.0160132
596.739	0.0159649
596.817	0.0159573
596.896	0.0159285
596.974	0.0159363
597.052	0.0159776
597.130	0.0159042
597.208	0.0158518
597.286	0.0158777
597.364	0.0158967
597.442	0.0160666
597.521	0.0160549
597.599	0.0159409
597.677	0.0158983
597.755	0.0159876
597.833	0.0160058
597.911	0.0158985
597.989	0.0160044
598.067	0.0160126
598.146	0.0159963
598.224	0.0160374
598.302	0.0159956
598.380	0.0159341
598.458	0.0159930
598.536	0.0159510
598.614	0.0159331
598.692	0.0158883
598.771	0.0160341
598.849	0.0159827
598.927	0.0160043
599.005	0.0160738
599.083	0.0159699
599.161	0.0159304
599.239	0.0160398
599.317	0.0160342
599.396	0.0158362
599.474	0.0159081
599.552	0.0159779
599.630	0.0160921
599.708	0.0160474
599.786	0.0158958
599.864	0.0159332
599.942	0.0159215
600.021	0.0158774
600.099	0.0160111
600.177	0.0159801
600.255	0.0158810
600.333	0.0158392
600.411	0.0160670
600.489	0.0158599
600.567	0.0158370
600.646	0.0159960
600.724	0.0158928
600.802	0.0158712
600.880	0.0159731
600.958	0.0159024
601.036	0.0158479
601.114	0.0159821
601.192	0.0157377
601.271	0.0159669
601.349	0.0157895
601.427	0.0159198
601.505	0.0159890
601.583	0.0159235
601.661	0.0159068
601.739	0.0160680
601.817	0.0160950
601.896	0.0158636
601.974	0.0159628
602.052	0.0159985
602.130	0.0158936
602.208	0.0158317
602.286	0.0158846
602.364	0.0159521
602.442	0.0161582
602.521	0.0159796
602.599	0.0159076
602.677	0.0160236
602.755	0.0158617
602.833	0.0159140
602.911	0.0159545
602.989	0.0160217
603.067	0.0160983
603.146	0.0159570
603.224	0.0158794
603.302	0.0161115
603.380	0.0159669
603.458	0.0159723
603.536	0.0157963
603.614	0.0160399
603.692	0.0160873
603.771	0.0159976
603.849	0.0160488
603.927	0.0160508
604.005	0.0160137
604.083	0.0159169
604.161	0.0159637
604.239	0.0159106
604.317	0.0159883
604.396	0.0160889
604.474	0.0160127
604.552	0.0160542
604.630	0.0161211
604.708	0.0160582
604.786	0.0159953
604.864	0.0160644
604.942	0.0160218
605.021	0.0161588
605.099	0.0161363
605.177	0.0160686
605.255	0.0159548
605.333	0.0160316
605.411	0.0159885
605.489	0.0159599
605.567	0.0161205
605.646	0.0160572
605.724	0.0160612
605.802	0.0159826
605.880	0.0160090
605.958	0.0160939
606.036	0.0160045
606.114	0.0160703
606.192	0.0160393
606.271	0.0161337
606.349	0.0160655
606.427	0.0159520
606.505	0.0160731
606.583	0.0160629
606.661	0.0160247
606.739	0.0160264
606.817	0.0160462
606.896	0.0160228
606.974	0.0160886
607.052	0.0160222
607.130	0.0159158
607.208	0.0159051
607.286	0.0161043
607.364	0.0160771
607.442	0.0160750
607.521	0.0160063
607.599	0.0160838
607.677	0.0159621
607.755	0.0159193
607.833	0.0160508
607.911	0.0158649
607.989	0.0159292
608.067	0.0160116
608.146	0.0160455
608.224	0.0160155
608.302	0.0158832
608.380	0.0159601
608.458	0.0160442
608.536	0.0159494
608.614	0.0159316
608.692	0.0160556
608.771	0.0160091
608.849	0.0159809
608.927	0.0158994
609.005	0.0160554
609.083	0.0158860
609.161	0.0159639
609.239	0.0159955
609.317	0.0159007
609.396	0.0157713
609.474	0.0159623
609.552	0.0159511
609.630	0.0158422
609.708	0.0158932
609.786	0.0158038
609.864	0.0158926
609.942	0.0158398
610.021	0.0159507
610.099	0.0157700
610.177	0.0159873
610.255	0.0160828
610.333	0.0159844
610.411	0.0159711
610.489	0.0159148
610.567	0.0157926
610.646	0.0158916
610.724	0.0157347
610.802	0.0158231
610.880	0.0158244
610.958	0.0159918
611.036	0.0158864
611.114	0.0158738
611.192	0.0157963
611.271	0.0157365
611.349	0.0157644
611.427	0.0158677
611.505	0.0159483
611.583	0.0160275
611.661	0.0159688
611.739	0.0158109
611.817	0.0159499
611.896	0.0160476
611.974	0.0157953
612.052	0.0158435
612.130	0.0158450
612.208	0.0159234
612.286	0.0159709
612.364	0.0159632
612.442	0.0159132
612.521	0.0159379
612.599	0.0159664
612.677	0.0158593
612.755	0.0160258
612.833	0.0160420
612.911	0.0158577
612.989	0.0159097
613.067	0.0159339
613.146	0.0159764
613.224	0.0159006
613.302	0.0158554
613.380	0.0157612
613.458	0.0157497
613.536	0.0159810
613.614	0.0159111
613.692	0.0158924
613.771	0.0158404
613.849	0.0160435
613.927	0.0159981
614.005	0.0159396
614.083	0.0159114
614.161	0.0157992
614.239	0.0159578
614.317	0.0159764
614.396	0.0159688
614.474	0.0158564
614.552	0.0159155
614.630	0.0158888
614.708	0.0158836
614.786	0.0158458
614.864	0.0158469
614.942	0.0158257
615.021	0.0159366
615.099	0.0159449
615.177	0.0158911
615.255	0.0158186
615.333	0.0159446
615.411	0.0158405
615.489	0.0158971
615.567	0.0159835
615.646	0.0159502
615.724	0.0158297
615.802	0.0159427
615.880	0.0158825
615.958	0.0159583
616.036	0.0159069
616.114	0.0159288
616.192	0.0159227
616.271	0.0158651
616.349	0.0157604
616.427	0.0160072
616.505	0.0158773
616.583	0.0159810
616.661	0.0158530
616.739	0.0159674
616.817	0.0160062
616.896	0.0159917
616.974	0.0158906
617.052	0.0158749
617.130	0.0159118
617.208	0.0159360
617.286	0.0159996
617.364	0.0159402
617.442	0.0159223
617.521	0.0157619
617.599	0.0158848
617.677	0.0159597
617.755	0.0160085
617.833	0.0159899
617.911	0.0158541
617.989	0.0158930
618.067	0.0159508
618.146	0.0158488
618.224	0.0159930
618.302	0.0158745
618.380	0.0160181
618.458	0.0158713
618.536	0.0159209
618.614	0.0159559
618.692	0.0160235
618.771	0.0160440
618.849	0.0159999
618.927	0.0160956
619.005	0.0159977
619.083	0.0159557
619.161	0.0158257
619.239	0.0159462
619.317	0.0159280
619.396	0.0159913
619.474	0.0158459
619.552	0.0160796
619.630	0.0159866
619.708	0.0159829
619.786	0.0160050
619.864	0.0160197
619.942	0.0159521
620.021	0.0159506
620.099	0.0159783
620.177	0.0160162
620.255	0.0159840
620.333	0.0159511
620.411	0.0158739
620.489	0.0159657
620.567	0.0160298
620.646	0.0160866
620.724	0.0161479
620.802	0.0159451
620.880	0.0159543
620.958	0.0160645
621.036	0.0160303
621.114	0.0159261
621.192	0.0160941
621.271	0.0159337
621.349	0.0160134
621.427	0.0160604
621.505	0.0160117
621.583	0.0160903
621.661	0.0159933
621.739	0.0159463
621.817	0.0161453
621.896	0.0159641
621.974	0.0160490
622.052	0.0159835
622.130	0.0159203
622.208	0.0159745
622.286	0.0162122
622.364	0.0159535
622.442	0.0159707
622.521	0.0158476
622.599	0.0159712
622.677	0.0160426
622.755	0.0159689
622.833	0.0159582
622.911	0.0159545
622.989	0.0159895
623.067	0.0160314
623.146	0.0159320
623.224	0.0159203
623.302	0.0159325
623.380	0.0160387
623.458	0.0158779
623.536	0.0159416
623.614	0.0160126
623.692	0.0159907
623.771	0.0159870
623.849	0.0157910
623.927	0.0158600
624.005	0.0159530
624.083	0.0158398
624.161	0.0159128
624.239	0.0160114
624.317	0.0160015
624.396	0.0160777
624.474	0.0159195
624.552	0.0160071
624.630	0.0159470
624.708	0.0158923
624.786	0.0159016
624.864	0.0160144
624.942	0.0159738
625.021	0.0159204
625.099	0.0161108
625.177	0.0160106
625.255	0.0160596
625.333	0.0160602
625.411	0.0159954
625.489	0.0161079
625.567	0.0159225
625.646	0.0158836
625.724	0.0160452
625.802	0.0159964
625.880	0.0158908
625.958	0.0158665
626.036	0.0159848
626.114	0.0158696
626.192	0.0160601
626.271	0.0159077
626.349	0.0159550
626.427	0.0159112
626.505	0.0160073
626.583	0.0160683
626.661	0.0160941
626.739	0.0159177
626.817	0.0159558
626.896	0.0159695
626.974	0.0158764
627.052	0.0159653
627.130	0.0160126
627.208	0.0159299
627.286	0.0160351
627.364	0.0160040
627.442	0.0159282
627.521	0.0159108
627.599	0.0160983
627.677	0.0159959
627.755	0.0160097
627.833	0.0160430
627.911	0.0159898
627.989	0.0161107
628.067	0.0160178
628.146	0.0159682
628.224	0.0159980
628.302	0.0160168
628.380	0.0160241
628.458	0.0159043
628.536	0.0158495
628.614	0.0159132
628.692	0.0160600
628.771	0.0160256
628.849	0.0159819
628.927	0.0158846
629.005	0.0159219
629.083	0.0158502
629.161	0.0158616
629.239	0.0158456
629.317	0.0159456
629.396	0.0160237
629.474	0.0159234
629.552	0.0159939
629.630	0.0157890
629.708	0.0158379
629.786	0.0159702
629.864	0.0160611
629.942	0.0157981
630.021	0.0158881
630.099	0.0159498
630.177	0.0157956
630.255	0.0158012
630.333	0.0159760
630.411	0.0159769
630.489	0.0159600
630.567	0.0159641
630.646	0.0159463
630.724	0.0159348
630.802	0.0160843
630.880	0.0159398
630.958	0.0159181
631.036	0.0158723
631.114	0.0160535
631.192	0.0159823
631.271	0.0159116
631.349	0.0158928
631.427	0.0158744
631.505	0.0157191
631.583	0.0158543
631.661	0.0159457
631.739	0.0158592
631.817	0.0158628
631.896	0.0160477
631.974	0.0159114
632.052	0.0158405
632.130	0.0158775
632.208	0.0159100
632.286	0.0159689
632.364	0.0159286
632.442	0.0158677
632.521	0.0158345
632.599	0.0158070
632.677	0.0159618
632.755	0.0158810
632.833	0.0158193
632.911	0.0159654
632.989	0.0159897
633.067	0.0158755
633.146	0.0158320
633.224	0.0158076
633.302	0.0157437
633.380	0.0159179
633.458	0.0159710
633.536	0.0159135
633.614	0.0159507
633.692	0.0159280
633.771	0.0159619
633.849	0.0159465
633.927	0.0158754
634.005	0.0158994
634.083	0.0159660
634.161	0.0159366
634.239	0.0159957
634.317	0.0156984
634.396	0.0156747
634.474	0.0158838
634.552	0.0160637
634.630	0.0159128
634.708	0.0159391
634.786	0.0159197
634.864	0.0158460
634.942	0.0158707
635.021	0.0159085
635.099	0.0159660
635.177	0.0158501
635.255	0.0158469
635.333	0.0158369
635.411	0.0159326
635.489	0.0160045
635.567	0.0158940
635.646	0.0158508
635.724	0.0161219
635.802	0.0159545
635.880	0.0159046
635.958	0.0160163
636.036	0.0158718
636.114	0.0158508
636.192	0.0158744
636.271	0.0159312
636.349	0.0159139
636.427	0.0159280
636.505	0.0159512
636.583	0.0160518
636.661	0.0158732
636.739	0.0158209
636.817	0.0159309
636.896	0.0159406
636.974	0.0160573
637.052	0.0158183
637.130	0.0158124
637.208	0.0158669
637.286	0.0159623
637.364	0.0158790
637.442	0.0158370
637.521	0.0159088
637.599	0.0159814
637.677	0.0158805
637.755	0.0159071
637.833	0.0159453
637.911	0.0159119
637.989	0.0158575
638.067	0.0158689
638.146	0.0157549
638.224	0.0159807
638.302	0.0159856
638.380	0.0159262
638.458	0.0160175
638.536	0.0159217
638.614	0.0158905
638.692	0.0158482
638.771	0.0159142
638.849	0.0160487
638.927	0.0159698
639.005	0.0159093
639.083	0.0159310
639.161	0.0158069
639.239	0.0160050
639.317	0.0158832
639.396	0.0158526
639.474	0.0159908
639.552	0.0159915
639.630	0.0159588
639.708	0.0159818
639.786	0.0160416
639.864	0.0160215
639.942	0.0159408
640.021	0.0160081
640.099	0.0158530
640.177	0.0158481
640.255	0.0160358
640.333	0.0160246
640.411	0.0158147
640.489	0.0159064
640.567	0.0159875
640.646	0.0160628
640.724	0.0159652
640.802	0.0157769
640.880	0.0160072
640.958	0.0160130
641.036	0.0159841
641.114	0.0158800
641.192	0.0159353
641.271	0.0160155
641.349	0.0159478
641.427	0.0160268
641.505	0.0161192
641.583	0.0158826
641.661	0.0158181
641.739	0.0159816
641.817	0.0160232
641.896	0.0159974
641.974	0.0159310
642.052	0.0160101
642.130	0.0159702
642.208	0.0158538
642.286	0.0158683
642.364	0.0161197
642.442	0.0160401
642.521	0.0160403
642.599	0.0159839
642.677	0.0159284
642.755	0.0159875
642.833	0.0160146
642.911	0.0159554
642.989	0.0161220
643.067	0.0161072
643.146	0.0158314
643.224	0.0159290
643.302	0.0159557
643.380	0.0160359
643.458	0.0160327
643.536	0.0159887
643.614	0.0159183
643.692	0.0160250
643.771	0.0160974
643.849	0.0159187
643.927	0.0159975
644.005	0.0161317
644.083	0.0161824
644.161	0.0159245
644.239	0.0158590
644.317	0.0159581
644.396	0.0158755
644.474	0.0159702
644.552	0.0159709
644.630	0.0159377
644.708	0.0158349
644.786	0.0159656
644.864	0.0159337
644.942	0.0160553
645.021	0.0159234
645.099	0.0158433
645.177	0.0160234
645.255	0.0160387
645.333	0.0159924
645.411	0.0158553
645.489	0.0158411
645.567	0.0159113
645.646	0.0159968
645.724	0.0159390
645.802	0.0159839
645.880	0.0159104
645.958	0.0159309
646.036	0.0160854
646.114	0.0158943
646.192	0.0159689
646.271	0.0159790
646.349	0.0158372
646.427	0.0158929
646.505	0.0159863
646.583	0.0160905
646.661	0.0159509
646.739	0.0160303
646.817	0.0160181
646.896	0.0157758
646.974	0.0158511
647.052	0.0159747
647.130	0.0159589
647.208	0.0159015
647.286	0.0158733
647.364	0.0159969
647.442	0.0159963
647.521	0.0159255
647.599	0.0159067
647.677	0.0160008
647.755	0.0158797
647.833	0.0160759
647.911	0.0159521
647.989	0.0160766
648.067	0.0158958
648.146	0.0160269
648.224	0.0158904
648.302	0.0159475
648.380	0.0159887
648.458	0.0160498
648.536	0.0160007
648.614	0.0159440
648.692	0.0159966
648.771	0.0160168
648.849	0.0159907
648.927	0.0159682
649.005	0.0159196
649.083	0.0159097
649.161	0.0159193
649.239	0.0159727
649.317	0.0159692
649.396	0.0160268
649.474	0.0160558
649.552	0.0161118
649.630	0.0158733
649.708	0.0160457
649.786	0.0159441
649.864	0.0160098
649.942	0.0158800
650.021	0.0159380
650.099	0.0160062
650.177	0.0161276
650.255	0.0159286
650.333	0.0159194
650.411	0.0160899
650.489	0.0160903
650.567	0.0159874
650.646	0.0159886
650.724	0.0159583
650.802	0.0159430
650.880	0.0160587
650.958	0.0158583
651.036	0.0158995
651.114	0.0158904
651.192	0.0159770
651.271	0.0161130
651.349	0.0158979
651.427	0.0159482
651.505	0.0159218
651.583	0.0159270
651.661	0.0160081
651.739	0.0160843
651.817	0.0160149
651.896	0.0160139
651.974	0.0158189
652.052	0.0159200
652.130	0.0158807
652.208	0.0161040
652.286	0.0159576
652.364	0.0159535
652.442	0.0159069
652.521	0.0159719
652.599	0.0159827
652.677	0.0160777
652.755	0.0160686
652.833	0.0160156
652.911	0.0160563
652.989	0.0159893
653.067	0.0160654
653.146	0.0160807
653.224	0.0159884
653.302	0.0159556
653.380	0.0160409
653.458	0.0161449
653.536	0.0160159
653.614	0.0159794
653.692	0.0159682
653.771	0.0160561
653.849	0.0159023
653.927	0.0160195
654.005	0.0159950
654.083	0.0159739
654.161	0.0161625
654.239	0.0159641
654.317	0.0159988
654.396	0.0159697
654.474	0.0159600
654.552	0.0161414
654.630	0.0159306
654.708	0.0158896
654.786	0.0158658
654.864	0.0159451
654.942	0.0159631
655.021	0.0158784
655.099	0.0159868
655.177	0.0160099
655.255	0.0158278
655.333	0.0160677
655.411	0.0160547
655.489	0.0160214
655.567	0.0160403
655.646	0.0159660
655.724	0.0160712
655.802	0.0160085
655.880	0.0159353
655.958	0.0158802
656.036	0.0160720
656.114	0.0159741
656.192	0.0161254
656.271	0.0158813
656.349	0.0158897
656.427	0.0159853
656.505	0.0161470
656.583	0.0160675
656.661	0.0159505
656.739	0.0159795
656.817	0.0159577
656.896	0.0160103
656.974	0.0159091
657.052	0.0159107
657.130	0.0159000
657.208	0.0159912
657.286	0.0159685
657.364	0.0159511
657.442	0.0158631
657.521	0.0159014
657.599	0.0160921
657.677	0.0158429
657.755	0.0159266
657.833	0.0159222
657.911	0.0158337
657.989	0.0159264
658.067	0.0160574
658.146	0.0157551
658.224	0.0157929
658.302	0.0159718
658.380	0.0159956
658.458	0.0159283
658.536	0.0158741
658.614	0.0159215
658.692	0.0159879
658.771	0.0159180
658.849	0.0159590
658.927	0.0159717
659.005	0.0158998
659.083	0.0158514
659.161	0.0159146
659.239	0.0159117
659.317	0.0159426
659.396	0.0160109
659.474	0.0158710
659.552	0.0159381
659.630	0.0159711
659.708	0.0159502
659.786	0.0159456
659.864	0.0157939
659.942	0.0157585
660.021	0.0158359
660.099	0.0159440
660.177	0.0160172
660.255	0.0159299
660.333	0.0159283
660.411	0.0158250
660.489	0.0158782
660.567	0.0158484
660.646	0.0158688
660.724	0.0160136
660.802	0.0159935
660.880	0.0159203
660.958	0.0158417
661.036	0.0159062
661.114	0.0160005
661.192	0.0158160
661.271	0.0159475
661.349	0.0159819
661.427	0.0158860
661.505	0.0159953
661.583	0.0159287
661.661	0.0157404
661.739	0.0157858
661.817	0.0159645
661.896	0.0160358
661.974	0.0158560
662.052	0.0158945
662.130	0.0159106
662.208	0.0159800
662.286	0.0160184
662.364	0.0160755
662.442	0.0159736
662.521	0.0158213
662.599	0.0159015
662.677	0.0160242
662.755	0.0159737
662.833	0.0159705
662.911	0.0159515
662.989	0.0159171
663.067	0.0158813
663.146	0.0159832
663.224	0.0160556
663.302	0.0159574
663.380	0.0159044
663.458	0.0160104
663.536	0.0159873
663.614	0.0159140
663.692	0.0159274
663.771	0.0159675
663.849	0.0160040
663.927	0.0158598
664.005	0.0158419
664.083	0.0159654
664.161	0.0161089
664.239	0.0159612
664.317	0.0160246
664.396	0.0160764
664.474	0.0160010
664.552	0.0159886
664.630	0.0159946
664.708	0.0160248
664.786	0.0159981
664.864	0.0160064
664.942	0.0159733
665.021	0.0159641
665.099	0.0159952
665.177	0.0159236
665.255	0.0158652
665.333	0.0160538
665.411	0.0160382
665.489	0.0159167
665.567	0.0158511
665.646	0.0160411
665.724	0.0159992
665.802	0.0159792
665.880	0.0159797
665.958	0.0159662
666.036	0.0158542
666.114	0.0159396
666.192	0.0159747
666.271	0.0158756
666.349	0.0158467
666.427	0.0158463
666.505	0.0159202
666.583	0.0158812
666.661	0.0159166
666.739	0.0159173
666.817	0.0158282
666.896	0.0159884
666.974	0.0159399
667.052	0.0158612
667.130	0.0159264
667.208	0.0159423
667.286	0.0159230
667.364	0.0157966
667.442	0.0159291
667.521	0.0159052
667.599	0.0160587
667.677	0.0160336
667.755	0.0158598
667.833	0.0159473
667.911	0.0158903
667.989	0.0159428
668.067	0.0159666
668.146	0.0159828
668.224	0.0160819
668.302	0.0160464
668.380	0.0161241
668.458	0.0160106
668.536	0.0160765
668.614	0.0159537
668.692	0.0159448
668.771	0.0160037
668.849	0.0160435
668.927	0.0160044
669.005	0.0159188
669.083	0.0158678
669.161	0.0158662
669.239	0.0159474
669.317	0.0159385
669.396	0.0159612
669.474	0.0160017
669.552	0.0162390
669.630	0.0161218
669.708	0.0161417
669.786	0.0161810
669.864	0.0162347
669.942	0.0161543
670.021	0.0159609
670.099	0.0159413
670.177	0.0159766
670.255	0.0159100
670.333	0.0157990
670.411	0.0157324
670.489	0.0157383
670.567	0.0156593
670.646	0.0157900
670.724	0.0156390
670.802	0.0159079
670.880	0.0159256
670.958	0.0160272
671.036	0.0162241
671.114	0.0161767
671.192	0.0164368
671.271	0.0163834
671.349	0.0164232
671.427	0.0164140
671.505	0.0163068
671.583	0.0160426
671.661	0.0158531
671.739	0.0158394
671.817	0.0156477
671.896	0.0154700
671.974	0.0154892
672.052	0.0153362
672.130	0.0152254
672.208	0.0155849
672.286	0.0156753
672.364	0.0158091
672.442	0.0160572
672.521	0.0162438
672.599	0.0162411
672.677	0.0163882
672.755	0.0165324
672.833	0.0165091
672.911	0.0163950
672.989	0.0162573
673.067	0.0161806
673.146	0.0159374
673.224	0.0157452
673.302	0.0156139
673.380	0.0155769
673.458	0.0155388
673.536	0.0155815
673.614	0.0155531
673.692	0.0156818
673.771	0.0157412
673.849	0.0158401
673.927	0.0159061
674.005	0.0159641
674.083	0.0160953
674.161	0.0161314
674.239	0.0163763
674.317	0.0161741
674.396	0.0161160
674.474	0.0164599
674.552	0.0162968
674.630	0.0161875
674.708	0.0161897
674.786	0.0159637
674.864	0.0158425
674.942	0.0157711
675.021	0.0157501
675.099	0.0156358
675.177	0.0157033
675.255	0.0157751
675.333	0.0158735
675.411	0.0156859
675.489	0.0158613
675.567	0.0159754
675.646	0.0160794
675.724	0.0161568
675.802	0.0162123
675.880	0.0163080
675.958	0.0160922
676.036	0.0161749
676.114	0.0161950
676.192	0.0161700
676.271	0.0159899
676.349	0.0158895
676.427	0.0158768
676.505	0.0159211
676.583	0.0159262
676.661	0.0160619
676.739	0.0160410
676.817	0.0159657
676.896	0.0161803
676.974	0.0160301
677.052	0.0160429
677.130	0.0159995
677.208	0.0160531
677.286	0.0159104
677.364	0.0159254
677.442	0.0159676
677.521	0.0158510
677.599	0.0157833
677.677	0.0157894
677.755	0.0158665
677.833	0.0159756
677.911	0.0158923
677.989	0.0159382
678.067	0.0160721
678.146	0.0161651
678.224	0.0161621
678.302	0.0162835
678.380	0.0164016
678.458	0.0160966
678.536	0.0160618
678.614	0.0159149
678.692	0.0158759
678.771	0.0158611
678.849	0.0156734
678.927	0.0156548
679.005	0.0156938
679.083	0.0157590
679.161	0.0158516
679.239	0.0160046
679.317	0.0159551
679.396	0.0159911
679.474	0.0161111
679.552	0.0162551
679.630	0.0163303
679.708	0.0163634
679.786	0.0163525
679.864	0.0163372
679.942	0.0161859
680.021	0.0159704
680.099	0.0160007
680.177	0.0159209
680.255	0.0158884
680.333	0.0158243
680.411	0.0155278
680.489	0.0155291
680.567	0.0157095
680.646	0.0158717
680.724	0.0158521
680.802	0.0160731
680.880	0.0159393
680.958	0.0162405
681.036	0.0161018
681.114	0.0160446
681.192	0.0160321
681.271	0.0162177
681.349	0.0161270
681.427	0.0158580
681.505	0.0158463
681.583	0.0159606
681.661	0.0158767
681.739	0.0159033
681.817	0.0157893
681.896	0.0158164
681.974	0.0158302
682.052	0.0159423
682.130	0.0158463
682.208	0.0159312
682.286	0.0159825
682.364	0.0160165
682.442	0.0159528
682.521	0.0159343
682.599	0.0159114
682.677	0.0159174
682.755	0.0159789
682.833	0.0159102
682.911	0.0158315
682.989	0.0158779
683.067	0.0159790
683.146	0.0159485
683.224	0.0159897
683.302	0.0159118
683.380	0.0159322
683.458	0.0159903
683.536	0.0159814
683.614	0.0160847
683.692	0.0158907
683.771	0.0160361
683.849	0.0160508
683.927	0.0158605
684.005	0.0159496
684.083	0.0160130
684.161	0.0158022
684.239	0.0159104
684.317	0.0158384
684.396	0.0158685
684.474	0.0159095
684.552	0.0158573
684.630	0.0159276
684.708	0.0160519
684.786	0.0161282
684.864	0.0161810
684.942	0.0163197
685.021	0.0162373
685.099	0.0160062
685.177	0.0161298
685.255	0.0159932
685.333	0.0159801
685.411	0.0158397
685.489	0.0158114
685.567	0.0156605
685.646	0.0157758
685.724	0.0157788
685.802	0.0157564
685.880	0.0157927
685.958	0.0158897
686.036	0.0160625
686.114	0.0159460
686.192	0.0159634
686.271	0.0159787
686.349	0.0161213
686.427	0.0161247
686.505	0.0161044
686.583	0.0162914
686.661	0.0161665
686.739	0.0160139
686.817	0.0159460
686.896	0.0159502
686.974	0.0158456
687.052	0.0158031
687.130	0.0157558
687.208	0.0157422
687.286	0.0157314
687.364	0.0159329
687.442	0.0159452
687.521	0.0158600
687.599	0.0158634
687.677	0.0160306
687.755	0.0160995
687.833	0.0161533
687.911	0.0162036
687.989	0.0162893
688.067	0.0161150
688.146	0.0160218
688.224	0.0159923
688.302	0.0159306
688.380	0.0157163
688.458	0.0157564
688.536	0.0156789
688.614	0.0156923
688.692	0.0155885
688.771	0.0156129
688.849	0.0157468
688.927	0.0158116
689.005	0.0158609
689.083	0.0160725
689.161	0.0161736
689.239	0.0162631
689.317	0.0162223
689.396	0.0161790
689.474	0.0161182
689.552	0.0161063
689.630	0.0161143
689.708	0.0160563
689.786	0.0160059
689.864	0.0160278
689.942	0.0158887
690.021	0.0160132
690.099	0.0159436
690.177	0.0160793
690.255	0.0159935
690.333	0.0159286
690.411	0.0159827
690.489	0.0161800
690.567	0.0161235
690.646	0.0160204
690.724	0.0159417
690.802	0.0160366
690.880	0.0160326
690.958	0.0159041
691.036	0.0159223
691.114	0.0158740
691.192	0.0159550
691.271	0.0157833
691.349	0.0158165
691.427	0.0159254
691.505	0.0159272
691.583	0.0159991
691.661	0.0158737
691.739	0.0157804
691.817	0.0159245
691.896	0.0158331
691.974	0.0159257
692.052	0.0159850
692.130	0.0159714
692.208	0.0159954
692.286	0.0160267
692.364	0.0158453
692.442	0.0158921
692.521	0.0159380
692.599	0.0159077
692.677	0.0158076
692.755	0.0158703
692.833	0.0158002
692.911	0.0158576
692.989	0.0159563
693.067	0.0157504
693.146	0.0159067
693.224	0.0158618
693.302	0.0160011
693.380	0.0159290
693.458	0.0159198
693.536	0.0159470
693.614	0.0161248
693.692	0.0160802
693.771	0.0161116
693.849	0.0161468
693.927	0.0160902
694.005	0.0160763
694.083	0.0160530
694.161	0.0160084
694.239	0.0160273
694.317	0.0159000
694.396	0.0161722
694.474	0.0159485
694.552	0.0159183
694.630	0.0160591
694.708	0.0160294
694.786	0.0159312
694.864	0.0159233
694.942	0.0158952
695.021	0.0159033
695.099	0.0158949
695.177	0.0158463
695.255	0.0157335
695.333	0.0158916
695.411	0.0157954
695.489	0.0161507
695.567	0.0159619
695.646	0.0159013
695.724	0.0159353
695.802	0.0159737
695.880	0.0159676
695.958	0.0159479
696.036	0.0159373
696.114	0.0159936
696.192	0.0158596
696.271	0.0158303
696.349	0.0158719
696.427	0.0158339
696.505	0.0157017
696.583	0.0156442
696.661	0.0158936
696.739	0.0157678
696.817	0.0156611
696.896	0.0156577
696.974	0.0156743
697.052	0.0156329
697.130	0.0158208
697.208	0.0157571
697.286	0.0157484
697.364	0.0156458
697.442	0.0157463
697.521	0.0159014
697.599	0.0157424
697.677	0.0159576
697.755	0.0160555
697.833	0.0159404
697.911	0.0160193
697.989	0.0162015
698.067	0.0163454
698.146	0.0162688
698.224	0.0163528
698.302	0.0164951
698.380	0.0164594
698.458	0.0165673
698.536	0.0163997
698.614	0.0164506
698.692	0.0163275
698.771	0.0162501
698.849	0.0162395
698.927	0.0161628
699.005	0.0160890
699.083	0.0159064
699.161	0.0159052
699.239	0.0157903
699.317	0.0158229
699.396	0.0156818
699.474	0.0157021
699.552	0.0156606
699.630	0.0156884
699.708	0.0158361
699.786	0.0157156
699.864	0.0158090
699.942	0.0158968
700.021	0.0158852
700.099	0.0159995
700.177	0.0159804
700.255	0.0159087
700.333	0.0160005
700.411	0.0160265
700.489	0.0159092
700.567	0.0158990
700.646	0.0160213
700.724	0.0159726
700.802	0.0159560
700.880	0.0159837
700.958	0.0160195
701.036	0.0159835
701.114	0.0159505
701.192	0.0160129
701.271	0.0158353
701.349	0.0158906
701.427	0.0159704
701.505	0.0159424
701.583	0.0158837
701.661	0.0159052
701.739	0.0157207
701.817	0.0156236
701.896	0.0157665
701.974	0.0157604
702.052	0.0156769
702.130	0.0156968
702.208	0.0157938
702.286	0.0157364
702.364	0.0157686
702.442	0.0158281
702.521	0.0156959
702.599	0.0157758
702.677	0.0158039
702.755	0.0158086
702.833	0.0157285
702.911	0.0157607
702.989	0.0156273
703.067	0.0157149
703.146	0.0156097
703.224	0.0156181
703.302	0.0157520
703.380	0.0157394
703.458	0.0159215
703.536	0.0158289
703.614	0.0158070
703.692	0.0161353
703.771	0.0160040
703.849	0.0160359
703.927	0.0162383
704.005	0.0162525
704.083	0.0162718
704.161	0.0162885
704.239	0.0162511
704.317	0.0164084
704.396	0.0161954
704.474	0.0162822
704.552	0.0164219
704.630	0.0164154
704.708	0.0164178
704.786	0.0163087
704.864	0.0163367
704.942	0.0165392
705.021	0.0164864
705.099	0.0164610
705.177	0.0165645
705.255	0.0165076
705.333	0.0168155
705.411	0.0166943
705.489	0.0164456
705.567	0.0163914
705.646	0.0165090
705.724	0.0164892
705.802	0.0162222
705.880	0.0161298
705.958	0.0159219
706.036	0.0157137
706.114	0.0155045
706.192	0.0153554
706.271	0.0152393
706.349	0.0150968
706.427	0.0150706
706.505	0.0149638
706.583	0.0147697
706.661	0.0148193
706.739	0.0148199
706.817	0.0146807
706.896	0.0147742
706.974	0.0149461
707.052	0.0152269
707.130	0.0154147
707.208	0.0155884
707.286	0.0158332
707.364	0.0161443
707.442	0.0165970
707.521	0.0167377
707.599	0.0167338
707.677	0.0170187
707.755	0.0171181
707.833	0.0172326
707.911	0.0170808
707.989	0.0170049
708.067	0.0168601
708.146	0.0165540
708.224	0.0162934
708.302	0.0161504
708.380	0.0158131
708.458	0.0154754
708.536	0.0151322
708.614	0.0150443
708.692	0.0148123
708.771	0.0145724
708.849	0.0146706
708.927	0.0144538
709.005	0.0146348
709.083	0.0146256
709.161	0.0147433
709.239	0.0150248
709.317	0.0152323
709.396	0.0155003
709.474	0.0158777
709.552	0.0161070
709.630	0.0164642
709.708	0.0167759
709.786	0.0170264
709.864	0.0173854
709.942	0.0176508
710.021	0.0177919
710.099	0.0175378
710.177	0.0177068
710.255	0.0176315
710.333	0.0175710
710.411	0.0176482
710.489	0.0173532
710.567	0.0172615
710.646	0.0171912
710.724	0.0170040
710.802	0.0168413
710.880	0.0167065
710.958	0.0165114
711.036	0.0162924
711.114	0.0162077
711.192	0.0159194
711.271	0.0156575
711.349	0.0155576
711.427	0.0152625
711.505	0.0149940
711.583	0.0149795
711.661	0.0148019
711.739	0.0148521
711.817	0.0148335
711.896	0.0150527
711.974	0.0150506
712.052	0.0151706
712.130	0.0152859
712.208	0.0156298
712.286	0.0155750
712.364	0.0157234
712.442	0.0157854
712.521	0.0160373
712.599	0.0160417
712.677	0.0161261
712.755	0.0160828
712.833	0.0162086
712.911	0.0162291
712.989	0.0160744
713.067	0.0159691
713.146	0.0158474
713.224	0.0157928
713.302	0.0157370
713.380	0.0155075
713.458	0.0153452
713.536	0.0151923
713.614	0.0149831
713.692	0.0150135
713.771	0.0151360
713.849	0.0148756
713.927	0.0149027
714.005	0.0146677
714.083	0.0148444
714.161	0.0151939
714.239	0.0152467
714.317	0.0154386
714.396	0.0156364
714.474	0.0158382
714.552	0.0161662
714.630	0.0165652
714.708	0.0166658
714.786	0.0169589
714.864	0.0172155
714.942	0.0173142
715.021	0.0173734
715.099	0.0173730
715.177	0.0172356
715.255	0.0170952
715.333	0.0169485
715.411	0.0166279
715.489	0.0163443
715.567	0.0161202
715.646	0.0157132
715.724	0.0155890
715.802	0.0155574
715.880	0.0152277
715.958	0.0153903
716.036	0.0154414
716.114	0.0153455
716.192	0.0156547
716.271	0.0157601
716.349	0.0159306
716.427	0.0160961
716.505	0.0164439
716.583	0.0164696
716.661	0.0166512
716.739	0.0167738
716.817	0.0168604
716.896	0.0166595
716.974	0.0168313
717.052	0.0165807
717.130	0.0165741
717.208	0.0165046
717.286	0.0164713
717.364	0.0164643
717.442	0.0163546
717.521	0.0163855
717.599	0.0164099
717.677	0.0165678
717.755	0.0168074
717.833	0.0167264
717.911	0.0166830
717.989	0.0166876
718.067	0.0167032
718.146	0.0167187
718.224	0.0166705
718.302	0.0165925
718.380	0.0164014
718.458	0.0162091
718.536	0.0162727
718.614	0.0161788
718.692	0.0161665
718.771	0.0160120
718.849	0.0158324
718.927	0.0156237
719.005	0.0154222
719.083	0.0151472
719.161	0.0149216
719.239	0.0146873
719.317	0.0146014
719.396	0.0142262
719.474	0.0138560
719.552	0.0136639
719.630	0.0135536
719.708	0.0136044
719.786	0.0133559
719.864	0.0134302
719.942	0.0135361
720.021	0.0135892
720.099	0.0138760
720.177	0.0141965
720.255	0.0147055
720.333	0.0150089
720.411	0.0153685
720.489	0.0156819
720.567	0.0160365
720.646	0.0163779
720.724	0.0166135
720.802	0.0168395
720.880	0.0171335
720.958	0.0173581
721.036	0.0172895
721.114	0.0173506
721.192	0.0174796
721.271	0.0173432
721.349	0.0175002
721.427	0.0177539
721.505	0.0175698
721.583	0.0175447
721.661	0.0175150
721.739	0.0173935
721.817	0.0172010
721.896	0.0172015
721.974	0.0169189
722.052	0.0168727
722.130	0.0167670
722.208	0.0163992
722.286	0.0163565
722.364	0.0163075
722.442	0.0162278
722.521	0.0160175
722.599	0.0160296
722.677	0.0159367
722.755	0.0158124
722.833	0.0158130
722.911	0.0158822
722.989	0.0157394
723.067	0.0155933
723.146	0.0153992
723.224	0.0154703
723.302	0.0154778
723.380	0.0154060
723.458	0.0155066
723.536	0.0156139
723.614	0.0156670
723.692	0.0156399
723.771	0.0160020
723.849	0.0161757
723.927	0.0162418
724.005	0.0163622
724.083	0.0166719
724.161	0.0168195
724.239	0.0169585
724.317	0.0170638
724.396	0.0172013
724.474	0.0173524
724.552	0.0175357
724.630	0.0176280
724.708	0.0177552
724.786	0.0176373
724.864	0.0179017
724.942	0.0178956
725.021	0.0178498
725.099	0.0176947
725.177	0.0176460
725.255	0.0174556
725.333	0.0171603
725.411	0.0169405
725.489	0.0165938
725.567	0.0163399
725.646	0.0159945
725.724	0.0155811
725.802	0.0153026
725.880	0.0146960
725.958	0.0141097
726.036	0.0136147
726.114	0.0132201
726.192	0.0129655
726.271	0.0125595
726.349	0.0123083
726.427	0.0118681
726.505	0.0117384
726.583	0.0113619
726.661	0.0113364
726.739	0.0113427
726.817	0.0115076
726.896	0.0116042
726.974	0.0117705
727.052	0.0120412
727.130	0.0122980
727.208	0.0128078
727.286	0.0131993
727.364	0.0135985
727.442	0.0143573
727.521	0.0148158
727.599	0.0154883
727.677	0.0160549
727.755	0.0165768
727.833	0.0172926
727.911	0.0178922
727.989	0.0185325
728.067	0.0191132
728.146	0.0195306
728.224	0.0200309
728.302	0.0205855
728.380	0.0207873
728.458	0.0211279
728.536	0.0213028
728.614	0.0213461
728.692	0.0211597
728.771	0.0210978
728.849	0.0208440
728.927	0.0204175
729.005	0.0200878
729.083	0.0197549
729.161	0.0191061
729.239	0.0187132
729.317	0.0181254
729.396	0.0174924
729.474	0.0170365
729.552	0.0165734
729.630	0.0160796
729.708	0.0158372
729.786	0.0154513
729.864	0.0152500
729.942	0.0149039
730.021	0.0145870
730.099	0.0142505
730.177	0.0141532
730.255	0.0139058
730.333	0.0138390
730.411	0.0135428
730.489	0.0134602
730.567	0.0131117
730.646	0.0130888
730.724	0.0130989
730.802	0.0131917
730.880	0.0133858
730.958	0.0135909
731.036	0.0137173
731.114	0.0140437
731.192	0.0142871
731.271	0.0145911
731.349	0.0150912
731.427	0.0154159
731.505	0.0156618
731.583	0.0160673
731.661	0.0164858
731.739	0.0167377
731.817	0.0169089
731.896	0.0171478
731.974	0.0173418
732.052	0.0175017
732.130	0.0176597
732.208	0.0176274
732.286	0.0175859
732.364	0.0174797
732.442	0.0175072
732.521	0.0170786
732.599	0.0168948
732.677	0.0165707
732.755	0.0163651
732.833	0.0158958
732.911	0.0155336
732.989	0.0151105
733.067	0.0149606
733.146	0.0147036
733.224	0.0143017
733.302	0.0139255
733.380	0.0138789
733.458	0.0136053
733.536	0.0134828
733.614	0.0134048
733.692	0.0132883
733.771	0.0131603
733.849	0.0131349
733.927	0.0130575
734.005	0.0131210
734.083	0.0131789
734.161	0.0134100
734.239	0.0135933
734.317	0.0138123
734.396	0.0140892
734.474	0.0145711
734.552	0.0150448
734.630	0.0153866
734.708	0.0158506
734.786	0.0164564
734.864	0.0169987
734.942	0.0174513
735.021	0.0179647
735.099	0.0183549
735.177	0.0189268
735.255	0.0194711
735.333	0.0196804
735.411	0.0198674
735.489	0.0202319
735.567	0.0201875
735.646	0.0201380
735.724	0.0199286
735.802	0.0197775
735.880	0.0193633
735.958	0.0188260
736.036	0.0185123
736.114	0.0178772
736.192	0.0172260
736.271	0.0166431
736.349	0.0161041
736.427	0.0156226
736.505	0.0151840
736.583	0.0144992
736.661	0.0141644
736.739	0.0140304
736.817	0.0137739
736.896	0.0139324
736.974	0.0140083
737.052	0.0141360
737.130	0.0146315
737.208	0.0149844
737.286	0.0156102
737.364	0.0161396
737.442	0.0166796
737.521	0.0173798
737.599	0.0177351
737.677	0.0182703
737.755	0.0184722
737.833	0.0187148
737.911	0.0185844
737.989	0.0186329
738.067	0.0184808
738.146	0.0182828
738.224	0.0181683
738.302	0.0176691
738.380	0.0173689
738.458	0.0169862
738.536	0.0165487
738.614	0.0160476
738.692	0.0156699
738.771	0.0151145
738.849	0.0149495
738.927	0.0144900
739.005	0.0140517
739.083	0.0136369
739.161	0.0134443
739.239	0.0130998
739.317	0.0126591
739.396	0.0125253
739.474	0.0122513
739.552	0.0119833
739.630	0.0118835
739.708	0.0115157
739.786	0.0114873
739.864	0.0114277
739.942	0.0113039
740.021	0.0112151
740.099	0.0113372
740.177	0.0114378
740.255	0.0115408
740.333	0.0118945
740.411	0.0121921
740.489	0.0125304
740.567	0.0131186
740.646	0.0136494
740.724	0.0142485
740.802	0.0146217
740.880	0.0155499
740.958	0.0162044
741.036	0.0168747
741.114	0.0175462
741.192	0.0181815
741.271	0.0187930
741.349	0.0192213
741.427	0.0194464
741.505	0.0197363
741.583	0.0197840
741.661	0.0197524
741.739	0.0196548
741.817	0.0194206
741.896	0.0192104
741.974	0.0189450
742.052	0.0186987
742.130	0.0184371
742.208	0.0181444
742.286	0.0181139
742.364	0.0178683
742.442	0.0179592
742.521	0.0179823
742.599	0.0178923
742.677	0.0179150
742.755	0.0181165
742.833	0.0181639
742.911	0.0179939
742.989	0.0181564
743.067	0.0179927
743.146	0.0180435
743.224	0.0181617
743.302	0.0182278
743.380	0.0183084
743.458	0.0183967
743.536	0.0184325
743.614	0.0186907
743.692	0.0187929
743.771	0.0188503
743.849	0.0187913
743.927	0.0188560
744.005	0.0187936
744.083	0.0184107
744.161	0.0183028
744.239	0.0178680
744.317	0.0174662
744.396	0.0168784
744.474	0.0161683
744.552	0.0156953
744.630	0.0152011
744.708	0.0141962
744.786	0.0136189
744.864	0.0130348
744.942	0.0125128
745.021	0.0121050
745.099	0.0116194
745.177	0.0114484
745.255	0.0111102
745.333	0.0109446
745.411	0.0107999
745.489	0.0105846
745.567	0.0105872
745.646	0.0107423
745.724	0.0107332
745.802	0.0109605
745.880	0.0111164
745.958	0.0111700
746.036	0.0113334
746.114	0.0116126
746.192	0.0118954
746.271	0.0119842
746.349	0.0119801
746.427	0.0124345
746.505	0.0127565
746.583	0.0130789
746.661	0.0135213
746.739	0.0138929
746.817	0.0142247
746.896	0.0147968
746.974	0.0154269
747.052	0.0160380
747.130	0.0166247
747.208	0.0173525
747.286	0.0178755
747.364	0.0183204
747.442	0.0188430
747.521	0.0193861
747.599	0.0197400
747.677	0.0197420
747.755	0.0199722
747.833	0.0199726
747.911	0.0198981
747.989	0.0197719
748.067	0.0196764
748.146	0.0195422
748.224	0.0193996
748.302	0.0192963
748.380	0.0191717
748.458	0.0190390
748.536	0.0188455
748.614	0.0189257
748.692	0.0189650
748.771	0.0189927
748.849	0.0188390
748.927	0.0189158
749.005	0.0188345
749.083	0.0187576
749.161	0.0187440
749.239	0.0186245
749.317	0.0185740
749.396	0.0184737
749.474	0.0183208
749.552	0.0182604
749.630	0.0181264
749.708	0.0177971
749.786	0.0177391
749.864	0.0174721
749.942	0.0171633
750.021	0.0168113
750.099	0.0163776
750.177	0.0161786
750.255	0.0156059
750.333	0.0152085
750.411	0.0148720
750.489	0.0142410
750.567	0.0139658
750.646	0.0136650
750.724	0.0133381
750.802	0.0130123
750.880	0.0128756
750.958	0.0129292
751.036	0.0127776
751.114	0.0128597
751.192	0.0128826
751.271	0.0129008
751.349	0.0129397
751.427	0.0130255
751.505	0.0130886
751.583	0.0132579
751.661	0.0131352
751.739	0.0132468
751.817	0.0132761
751.896	0.0132749
751.974	0.0135311
752.052	0.0135873
752.130	0.0136184
752.208	0.0137657
752.286	0.0140062
752.364	0.0141573
752.442	0.0143388
752.521	0.0144062
752.599	0.0147204
752.677	0.0150107
752.755	0.0152263
752.833	0.0154758
752.911	0.0158327
752.989	0.0160327
753.067	0.0163365
753.146	0.0166245
753.224	0.0168384
753.302	0.0170299
753.380	0.0173254
753.458	0.0173499
753.536	0.0173811
753.614	0.0172077
753.692	0.0172665
753.771	0.0170302
753.849	0.0170614
753.927	0.0170181
754.005	0.0168561
754.083	0.0169160
754.161	0.0171966
754.239	0.0168642
754.317	0.0168881
754.396	0.0170625
754.474	0.0172269
754.552	0.0174387
754.630	0.0174095
754.708	0.0174804
754.786	0.0175608
754.864	0.0175200
754.942	0.0176012
755.021	0.0176022
755.099	0.0175405
755.177	0.0174302
755.255	0.0174339
755.333	0.0174230
755.411	0.0173872
755.489	0.0174390
755.567	0.0174757
755.646	0.0175970
755.724	0.0175410
755.802	0.0176336
755.880	0.0174603
755.958	0.0174655
756.036	0.0175010
756.114	0.0172080
756.192	0.0171204
756.271	0.0169193
756.349	0.0166846
756.427	0.0162675
756.505	0.0160087
756.583	0.0158916
756.661	0.0155568
756.739	0.0153490
756.817	0.0148723
756.896	0.0148000
756.974	0.0144956
757.052	0.0142236
757.130	0.0139499
757.208	0.0138050
757.286	0.0136051
757.364	0.0134525
757.442	0.0132986
757.521	0.0132546
757.599	0.0132032
757.677	0.0132978
757.755	0.0134559
757.833	0.0135350
757.911	0.0137880
757.989	0.0138119
758.067	0.0141213
758.146	0.0143167
758.224	0.0146498
758.302	0.0147083
758.380	0.0150552
758.458	0.0152063
758.536	0.0154988
758.614	0.0155325
758.692	0.0157616
758.771	0.0158598
758.849	0.0160901
758.927	0.0162653
759.005	0.0164367
759.083	0.0165089
759.161	0.0167249
759.239	0.0167484
759.317	0.0168577
759.396	0.0168542
759.474	0.0170280
759.552	0.0170572
759.630	0.0169291
759.708	0.0169493
759.786	0.0168658
759.864	0.0168348
759.942	0.0168832
760.021	0.0169504
760.099	0.0168120
760.177	0.0168463
760.255	0.0168153
760.333	0.0167989
760.411	0.0168948
760.489	0.0168786
760.567	0.0168931
760.646	0.0168507
760.724	0.0168376
760.802	0.0169079
760.880	0.0167898
760.958	0.0166336
761.036	0.0165060
761.114	0.0167146
761.192	0.0165546
761.271	0.0164854
761.349	0.0164658
761.427	0.0165743
761.505	0.0165569
761.583	0.0165240
761.661	0.0166305
761.739	0.0164068
761.817	0.0162819
761.896	0.0164796
761.974	0.0162400
762.052	0.0160431
762.130	0.0159501
762.208	0.0159115
762.286	0.0155912
762.364	0.0152964
762.442	0.0150632
762.521	0.0148219
762.599	0.0146828
762.677	0.0145651
762.755	0.0143703
762.833	0.0144936
762.911	0.0143423
762.989	0.0141817
763.067	0.0140536
763.146	0.0141747
763.224	0.0142944
763.302	0.0143163
763.380	0.0143422
763.458	0.0145960
763.536	0.0147401
763.614	0.0149873
763.692	0.0151653
763.771	0.0154083
763.849	0.0155177
763.927	0.0159150
764.005	0.0160665
764.083	0.0163120
764.161	0.0164428
764.239	0.0166888
764.317	0.0168631
764.396	0.0169926
764.474	0.0169760
764.552	0.0170080
764.630	0.0171819
764.708	0.0171407
764.786	0.0170937
764.864	0.0171491
764.942	0.0171979
765.021	0.0170625
765.099	0.0168880
765.177	0.0169010
765.255	0.0166016
765.333	0.0164376
765.411	0.0163178
765.489	0.0161919
765.567	0.0158643
765.646	0.0158291
765.724	0.0155459
765.802	0.0154815
765.880	0.0154285
765.958	0.0154427
766.036	0.0154777
766.114	0.0154919
766.192	0.0154932
766.271	0.0155469
766.349	0.0159167
766.427	0.0158339
766.505	0.0159728
766.583	0.0162067
766.661	0.0163035
766.739	0.0164358
766.817	0.0166864
766.896	0.0167464
766.974	0.0168567
767.052	0.0169626
767.130	0.0169511
767.208	0.0170292
767.286	0.0171906
767.364	0.0170531
767.442	0.0170938
767.521	0.0169459
767.599	0.0167919
767.677	0.0167455
767.755	0.0166298
767.833	0.0164455
767.911	0.0161372
767.989	0.0160324
768.067	0.0158729
768.146	0.0154786
768.224	0.0153419
768.302	0.0152201
768.380	0.0149242
768.458	0.0147890
768.536	0.0147882
768.614	0.0144744
768.692	0.0144786
768.771	0.0142778
768.849	0.0142718
768.927	0.0140955
769.005	0.0141446
769.083	0.0140407
769.161	0.0140968
769.239	0.0142961
769.317	0.0143600
769.396	0.0144847
769.474	0.0147363
769.552	0.0151057
769.630	0.0152277
769.708	0.0155684
769.786	0.0157344
769.864	0.0162711
769.942	0.0162261
770.021	0.0163889
770.099	0.0166328
770.177	0.0166948
770.255	0.0167735
770.333	0.0169423
770.411	0.0168124
770.489	0.0168729
770.567	0.0167502
770.646	0.0165664
770.724	0.0165749
770.802	0.0163191
770.880	0.0161609
770.958	0.0161619
771.036	0.0159762
771.114	0.0158873
771.192	0.0158353
771.271	0.0158720
771.349	0.0157397
771.427	0.0157645
771.505	0.0157962
771.583	0.0157012
771.661	0.0157341
771.739	0.0158813
771.817	0.0159770
771.896	0.0161050
771.974	0.0161388
772.052	0.0164091
772.130	0.0165025
772.208	0.0168584
772.286	0.0169722
772.364	0.0169745
772.442	0.0171405
772.521	0.0174426
772.599	0.0174039
772.677	0.0175512
772.755	0.0175130
772.833	0.0176840
772.911	0.0177502
772.989	0.0176027
773.067	0.0175552
773.146	0.0173991
773.224	0.0172099
773.302	0.0170650
773.380	0.0168662
773.458	0.0166756
773.536	0.0163706
773.614	0.0160612
773.692	0.0158911
773.771	0.0156542
773.849	0.0151987
773.927	0.0151357
774.005	0.0150451
774.083	0.0147326
774.161	0.0146591
774.239	0.0143575
774.317	0.0143824
774.396	0.0144120
774.474	0.0142657
774.552	0.0142941
774.630	0.0143244
774.708	0.0143788
774.786	0.0142049
774.864	0.0144240
774.942	0.0143585
775.021	0.0146306
775.099	0.0146465
775.177	0.0148569
775.255	0.0151323
775.333	0.0154369
775.411	0.0156377
775.489	0.0157876
775.567	0.0160179
775.646	0.0162734
775.724	0.0161935
775.802	0.0163787
775.880	0.0166914
775.958	0.0165559
776.036	0.0167533
776.114	0.0167546
776.192	0.0165208
776.271	0.0163863
776.349	0.0164381
776.427	0.0163607
776.505	0.0162360
776.583	0.0158807
776.661	0.0159270
776.739	0.0157565
776.817	0.0156232
776.896	0.0155545
776.974	0.0155071
777.052	0.0153922
777.130	0.0152461
777.208	0.0151833
777.286	0.0150769
777.364	0.0149989
777.442	0.0151456
777.521	0.0151390
777.599	0.0152162
777.677	0.0151615
777.755	0.0153219
777.833	0.0153503
777.911	0.0156276
777.989	0.0157816
778.067	0.0161315
778.146	0.0163249
778.224	0.0164762
778.302	0.0166425
778.380	0.0169254
778.458	0.0171594
778.536	0.0173230
778.614	0.0173042
778.692	0.0175999
778.771	0.0175413
778.849	0.0176527
778.927	0.0176331
779.005	0.0175382
779.083	0.0174510
779.161	0.0175331
779.239	0.0174696
779.317	0.0172404
779.396	0.0169006
779.474	0.0166440
779.552	0.0165249
779.630	0.0162032
779.708	0.0160696
779.786	0.0159290
779.864	0.0157840
779.942	0.0154692
780.021	0.0155064
780.099	0.0152892
780.177	0.0152219
780.255	0.0151962
780.333	0.0152303
780.411	0.0152641
780.489	0.0154094
780.567	0.0153424
780.646	0.0152590
780.724	0.0154167
780.802	0.0155044
780.880	0.0155300
780.958	0.0155868
781.036	0.0157004
781.114	0.0156174
781.192	0.0157735
781.271	0.0159241
781.349	0.0160374
781.427	0.0160165
781.505	0.0160409
781.583	0.0160583
781.661	0.0161709
781.739	0.0161218
781.817	0.0162811
781.896	0.0163511
781.974	0.0161661
782.052	0.0162015
782.130	0.0161330
782.208	0.0159480
782.286	0.0159826
782.364	0.0160414
782.442	0.0158940
782.521	0.0157146
782.599	0.0156512
782.677	0.0153391
782.755	0.0153694
782.833	0.0151934
782.911	0.0151931
782.989	0.0151328
783.067	0.0150511
783.146	0.0150034
783.224	0.0151172
783.302	0.0151023
783.380	0.0151351
783.458	0.0151324
783.536	0.0152840
783.614	0.0154250
783.692	0.0154079
783.771	0.0156016
783.849	0.0159056
783.927	0.0158385
784.005	0.0161077
784.083	0.0162068
784.161	0.0162189
784.239	0.0164439
784.317	0.0165051
784.396	0.0166000
784.474	0.0167093
784.552	0.0167873
784.630	0.0168752
784.708	0.0169323
784.786	0.0170901
784.864	0.0169015
784.942	0.0170770
785.021	0.0169798
785.099	0.0168385
785.177	0.0168638
785.255	0.0166885
785.333	0.0164863
785.411	0.0164008
785.489	0.0162036
785.567	0.0160172
785.646	0.0159901
785.724	0.0158873
785.802	0.0156256
785.880	0.0154967
785.958	0.0155456
786.036	0.0156295
786.114	0.0155679
786.192	0.0154568
786.271	0.0154384
786.349	0.0154291
786.427	0.0154659
786.505	0.0153999
786.583	0.0154649
786.661	0.0154185
786.739	0.0155385
786.817	0.0156163
786.896	0.0156219
786.974	0.0158690
787.052	0.0159281
787.130	0.0160290
787.208	0.0159942
787.286	0.0162863
787.364	0.0164364
787.442	0.0166068
787.521	0.0165018
787.599	0.0166656
787.677	0.0168254
787.755	0.0168675
787.833	0.0168149
787.911	0.0168790
787.989	0.0166914
788.067	0.0167374
788.146	0.0166444
788.224	0.0165289
788.302	0.0164994
788.380	0.0164342
788.458	0.0161676
788.536	0.0161190
788.614	0.0161006
788.692	0.0159196
788.771	0.0158203
788.849	0.0157047
788.927	0.0156366
789.005	0.0154746
789.083	0.0153654
789.161	0.0152342
789.239	0.0152608
789.317	0.0151991
789.396	0.0150755
789.474	0.0150764
789.552	0.0152147
789.630	0.0152956
789.708	0.0152634
789.786	0.0153773
789.864	0.0155467
789.942	0.0155381
790.021	0.0156380
790.099	0.0158156
790.177	0.0157856
790.255	0.0159792
790.333	0.0160331
790.411	0.0160770
790.489	0.0160490
790.567	0.0162171
790.646	0.0163541
790.724	0.0162073
790.802	0.0162591
790.880	0.0163482
790.958	0.0165019
791.036	0.0163092
791.114	0.0161376
791.192	0.0162143
791.271	0.0161363
791.349	0.0159394
791.427	0.0159900
791.505	0.0159058
791.583	0.0158547
791.661	0.0157056
791.739	0.0156133
791.817	0.0156252
791.896	0.0155077
791.974	0.0153569
792.052	0.0155741
792.130	0.0154723
792.208	0.0155067
792.286	0.0154527
792.364	0.0154597
792.442	0.0156400
792.521	0.0157098
792.599	0.0157226
792.677	0.0157887
792.755	0.0159672
792.833	0.0161006
792.911	0.0161922
792.989	0.0162502
793.067	0.0163325
793.146	0.0163941
793.224	0.0161901
793.302	0.0165192
793.380	0.0165900
793.458	0.0164181
793.536	0.0164780
793.614	0.0165093
793.692	0.0165434
793.771	0.0163159
793.849	0.0164648
793.927	0.0163357
794.005	0.0164051
794.083	0.0163514
794.161	0.0162931
794.239	0.0162772
794.317	0.0161417
794.396	0.0160961
794.474	0.0160679
794.552	0.0159124
794.630	0.0159298
794.708	0.0158215
794.786	0.0157526
794.864	0.0156960
794.942	0.0155869
795.021	0.0155025
795.099	0.0156071
795.177	0.0154754
795.255	0.0155849
795.333	0.0156245
795.411	0.0156446
795.489	0.0158305
795.567	0.0159058
795.646	0.0160962
795.724	0.0160394
795.802	0.0161167
795.880	0.0161057
795.958	0.0163429
796.036	0.0163386
796.114	0.0164133
796.192	0.0164177
796.271	0.0163485
796.349	0.0163589
796.427	0.0163345
796.505	0.0163679
796.583	0.0162431
796.661	0.0163530
796.739	0.0164675
796.817	0.0163250
796.896	0.0162570
796.974	0.0162468
797.052	0.0161616
797.130	0.0160641
797.208	0.0159944
797.286	0.0157829
797.364	0.0158102
797.442	0.0157396
797.521	0.0156273
797.599	0.0155396
797.677	0.0152695
797.755	0.0152784
797.833	0.0152821
797.911	0.0152345
797.989	0.0151894
798.067	0.0150457
798.146	0.0150906
798.224	0.0151404
798.302	0.0151203
798.380	0.0152554
798.458	0.0151615
798.536	0.0151941
798.614	0.0153224
798.692	0.0155704
798.771	0.0156061
798.849	0.0157500
798.927	0.0158575
799.005	0.0159142
799.083	0.0161298
799.161	0.0161739
799.239	0.0164232
799.317	0.0165427
799.396	0.0166530
799.474	0.0163805
799.552	0.0165662
799.630	0.0166291
799.708	0.0165596
799.786	0.0165594
799.864	0.0164527
799.942	0.0163319
800.021	0.0162281
800.099	0.0161508
800.177	0.0162489
800.255	0.0161400
800.333	0.0160810
800.411	0.0160528
800.489	0.0160241
800.567	0.0159756
800.646	0.0159916
800.724	0.0159685
800.802	0.0158722
800.880	0.0158491
800.958	0.0158699
801.036	0.0158132
801.114	0.0158641
801.192	0.0158955
801.271	0.0158410
801.349	0.0159068
801.427	0.0157987
801.505	0.0158986
801.583	0.0159629
801.661	0.0160164
801.739	0.0160271
801.817	0.0159781
801.896	0.0160852
801.974	0.0160948
802.052	0.0161626
802.130	0.0162358
802.208	0.0162015
802.286	0.0162591
802.364	0.0162423
802.442	0.0163452
802.521	0.0163697
802.599	0.0163431
802.677	0.0163176
802.755	0.0163181
802.833	0.0163357
802.911	0.0163197
802.989	0.0164366
803.067	0.0162351
803.146	0.0162032
803.224	0.0160126
803.302	0.0160387
803.380	0.0160480
803.458	0.0157642
803.536	0.0157964
803.614	0.0158881
803.692	0.0156534
803.771	0.0157837
803.849	0.0155544
803.927	0.0156895
804.005	0.0156557
804.083	0.0155628
804.161	0.0155592
804.239	0.0157354
804.317	0.0156871
804.396	0.0157095
804.474	0.0156928
804.552	0.0157420
804.630	0.0156716
804.708	0.0158691
804.786	0.0159270
804.864	0.0158993
804.942	0.0159821
805.021	0.0159217
805.099	0.0159881
805.177	0.0160634
805.255	0.0159792
805.333	0.0160209
805.411	0.0160939
805.489	0.0162101
805.567	0.0161777
805.646	0.0161137
805.724	0.0162010
805.802	0.0161640
805.880	0.0160629
805.958	0.0160139
806.036	0.0160121
806.114	0.0160592
806.192	0.0160893
806.271	0.0160146
806.349	0.0159154
806.427	0.0159859
806.505	0.0158520
806.583	0.0158899
806.661	0.0158852
806.739	0.0158580
806.817	0.0156902
806.896	0.0156173
806.974	0.0158461
807.052	0.0158445
807.130	0.0155495
807.208	0.0156319
807.286	0.0158203
807.364	0.0158421
807.442	0.0156624
807.521	0.0157948
807.599	0.0159093
807.677	0.0159296
807.755	0.0159114
807.833	0.0159927
807.911	0.0161518
807.989	0.0161125
808.067	0.0162768
808.146	0.0161240
808.224	0.0160892
808.302	0.0162843
808.380	0.0163054
808.458	0.0164169
808.536	0.0165034
808.614	0.0164546
808.692	0.0165017
808.771	0.0164804
808.849	0.0163472
808.927	0.0163564
809.005	0.0164338
809.083	0.0163779
809.161	0.0163649
809.239	0.0161652
809.317	0.0160571
809.396	0.0161408
809.474	0.0161553
809.552	0.0160803
809.630	0.0159457
809.708	0.0159003
809.786	0.0158947
809.864	0.0157310
809.942	0.0156979
810.021	0.0157359
810.099	0.0156588
810.177	0.0157448
810.255	0.0156036
810.333	0.0157207
810.411	0.0156352
810.489	0.0156659
810.567	0.0156931
810.646	0.0158237
810.724	0.0159114
810.802	0.0158937
810.880	0.0161518
810.958	0.0161676
811.036	0.0161359
811.114	0.0163595
811.192	0.0164213
811.271	0.0161842
811.349	0.0162949
811.427	0.0163101
811.505	0.0164321
811.583	0.0163149
811.661	0.0163163
811.739	0.0162165
811.817	0.0161246
811.896	0.0161065
811.974	0.0158330
812.052	0.0158396
812.130	0.0157724
812.208	0.0155444
812.286	0.0156985
812.364	0.0156548
812.442	0.0155984
812.521	0.0155763
812.599	0.0156211
812.677	0.0156248
812.755	0.0155959
812.833	0.0157220
812.911	0.0156747
812.989	0.0157498
813.067	0.0158478
813.146	0.0160103
813.224	0.0157935
813.302	0.0160910
813.380	0.0160526
813.458	0.0160426
813.536	0.0159620
813.614	0.0162375
813.692	0.0163450
813.771	0.0163033
813.849	0.0164320
813.927	0.0162881
814.005	0.0163086
814.083	0.0164068
814.161	0.0162988
814.239	0.0164955
814.317	0.0164659
814.396	0.0162738
814.474	0.0161320
814.552	0.0161160
814.630	0.0162478
814.708	0.0162889
814.786	0.0161828
814.864	0.0159913
814.942	0.0160152
815.021	0.0160251
815.099	0.0158267
815.177	0.0158482
815.255	0.0156859
815.333	0.0156704
815.411	0.0158252
815.489	0.0154760
815.567	0.0153903
815.646	0.0154281
815.724	0.0155090
815.802	0.0154189
815.880	0.0154704
815.958	0.0153139
816.036	0.0153891
816.114	0.0155389
816.192	0.0154533
816.271	0.0155077
816.349	0.0157963
816.427	0.0158633
816.505	0.0159444
816.583	0.0158765
816.661	0.0160167
816.739	0.0160352
816.817	0.0161893
816.896	0.0161941
816.974	0.0163527
817.052	0.0163319
817.130	0.0164207
817.208	0.0163897
817.286	0.0165826
817.364	0.0165025
817.442	0.0165721
817.521	0.0164603
817.599	0.0164000
817.677	0.0163878
817.755	0.0162946
817.833	0.0160703
817.911	0.0160831
817.989	0.0160542
818.067	0.0159207
818.146	0.0158534
818.224	0.0158399
818.302	0.0158344
818.380	0.0158020
818.458	0.0158035
818.536	0.0157544
818.614	0.0157278
818.692	0.0156695
818.771	0.0158198
818.849	0.0158061
818.927	0.0158447
819.005	0.0159505
819.083	0.0159596
819.161	0.0159006
819.239	0.0158867
819.317	0.0160171
819.396	0.0160493
819.474	0.0160588
819.552	0.0159395
819.630	0.0161132
819.708	0.0162820
819.786	0.0161964
819.864	0.0161578
819.942	0.0162093
820.021	0.0161707
820.099	0.0162660
820.177	0.0162186
820.255	0.0163294
820.333	0.0164234
820.411	0.0162140
820.489	0.0162512
820.567	0.0162463
820.646	0.0161190
820.724	0.0161504
820.802	0.0161518
820.880	0.0160279
820.958	0.0159870
821.036	0.0159431
821.114	0.0158132
821.192	0.0158495
821.271	0.0156516
821.349	0.0157214
821.427	0.0158554
821.505	0.0158495
821.583	0.0157790
821.661	0.0159037
821.739	0.0158700
821.817	0.0157802
821.896	0.0159509
821.974	0.0157905
822.052	0.0159320
822.130	0.0158477
822.208	0.0159397
822.286	0.0160279
822.364	0.0160768
822.442	0.0157618
822.521	0.0160093
822.599	0.0160952
822.677	0.0158900
822.755	0.0158838
822.833	0.0159708
822.911	0.0159800
822.989	0.0159888
823.067	0.0159880
823.146	0.0159982
823.224	0.0158242
823.302	0.0157793
823.380	0.0155883
823.458	0.0155830
823.536	0.0157531
823.614	0.0155614
823.692	0.0156027
823.771	0.0156463
823.849	0.0154983
823.927	0.0155279
824.005	0.0155110
824.083	0.0154731
824.161	0.0156034
824.239	0.0155696
824.317	0.0156120
824.396	0.0157126
824.474	0.0158847
824.552	0.0158795
824.630	0.0160838
824.708	0.0161295
824.786	0.0163951
824.864	0.0163161
824.942	0.0163919
825.021	0.0163811
825.099	0.0165993
825.177	0.0165245
825.255	0.0166067
825.333	0.0165659
825.411	0.0165655
825.489	0.0167080
825.567	0.0168144
825.646	0.0168488
825.724	0.0167554
825.802	0.0166840
825.880	0.0167523
825.958	0.0166331
826.036	0.0165382
826.114	0.0166421
826.192	0.0165611
826.271	0.0163457
826.349	0.0161974
826.427	0.0161645
826.505	0.0161149
826.583	0.0160163
826.661	0.0158685
826.739	0.0158511
826.817	0.0157870
826.896	0.0156049
826.974	0.0156364
827.052	0.0156785
827.130	0.0155322
827.208	0.0154970
827.286	0.0155241
827.364	0.0154736
827.442	0.0153414
827.521	0.0153855
827.599	0.0153232
827.677	0.0155186
827.755	0.0154651
827.833	0.0155435
827.911	0.0155341
827.989	0.0155840
828.067	0.0156515
828.146	0.0155557
828.224	0.0158807
828.302	0.0159791
828.380	0.0157589
828.458	0.0159349
828.536	0.0159104
828.614	0.0159651
828.692	0.0159225
828.771	0.0160203
828.849	0.0159740
828.927	0.0159096
829.005	0.0159795
829.083	0.0159685
829.161	0.0161635
829.239	0.0160300
829.317	0.0160118
829.396	0.0159601
829.474	0.0159843
829.552	0.0159682
829.630	0.0159865
829.708	0.0158850
829.786	0.0158926
829.864	0.0159114
829.942	0.0158841
830.021	0.0156749
830.099	0.0157680
830.177	0.0158031
830.255	0.0157027
830.333	0.0155991
830.411	0.0157177
830.489	0.0156644
830.567	0.0157144
830.646	0.0158474
830.724	0.0157025
830.802	0.0157320
830.880	0.0157030
830.958	0.0157418
831.036	0.0159167
831.114	0.0158834
831.192	0.0159213
831.271	0.0159270
831.349	0.0160781
831.427	0.0161012
831.505	0.0162580
831.583	0.0160298
831.661	0.0159966
831.739	0.0160597
831.817	0.0163139
831.896	0.0162868
831.974	0.0163365
832.052	0.0163364
832.130	0.0163320
832.208	0.0162965
832.286	0.0161864
832.364	0.0162434
832.442	0.0161172
832.521	0.0160355
832.599	0.0160525
832.677	0.0159999
832.755	0.0159277
832.833	0.0160339
832.911	0.0160033
832.989	0.0159061
833.067	0.0160857
833.146	0.0161855
833.224	0.0159607
833.302	0.0160978
833.380	0.0161613
833.458	0.0161925
833.536	0.0162220
833.614	0.0162619
833.692	0.0163117
833.771	0.0162719
833.849	0.0163407
833.927	0.0163414
834.005	0.0162797
834.083	0.0161192
834.161	0.0161571
834.239	0.0162550
834.317	0.0161460
834.396	0.0160409
834.474	0.0160269
834.552	0.0158589
834.630	0.0157365
834.708	0.0158543
834.786	0.0157671
834.864	0.0155937
834.942	0.0155418
835.021	0.0154783
835.099	0.0155862
835.177	0.0156378
835.255	0.0155496
835.333	0.0155589
835.411	0.0154313
835.489	0.0156318
835.567	0.0154985
835.646	0.0155872
835.724	0.0155737
835.802	0.0155904
835.880	0.0156479
835.958	0.0156384
836.036	0.0156773
836.114	0.0156640
836.192	0.0156779
836.271	0.0157890
836.349	0.0156660
836.427	0.0155608
836.505	0.0156479
836.583	0.0156152
836.661	0.0157243
836.739	0.0155838
836.817	0.0156910
836.896	0.0157295
836.974	0.0156963
837.052	0.0156538
837.130	0.0156665
837.208	0.0159070
837.286	0.0158841
837.364	0.0158253
837.442	0.0158335
837.521	0.0160394
837.599	0.0160300
837.677	0.0161375
837.755	0.0161996
837.833	0.0161012
837.911	0.0162728
837.989	0.0164299
838.067	0.0164299
838.146	0.0164008
838.224	0.0163747
838.302	0.0163617
838.380	0.0164619
838.458	0.0165202
838.536	0.0166557
838.614	0.0165641
838.692	0.0167085
838.771	0.0165684
838.849	0.0165343
838.927	0.0166729
839.005	0.0166098
839.083	0.0166360
839.161	0.0166685
839.239	0.0165009
839.317	0.0164925
839.396	0.0165768
839.474	0.0164603
839.552	0.0163845
839.630	0.0164232
839.708	0.0163049
839.786	0.0161842
839.864	0.0162392
839.942	0.0161826
840.021	0.0161756
840.099	0.0160750
840.177	0.0160064
840.255	0.0160315
840.333	0.0157625
840.411	0.0158193
840.489	0.0157413
840.567	0.0157124
840.646	0.0156250
840.724	0.0155966
840.802	0.0156907
840.880	0.0157428
840.958	0.0155618
841.036	0.0154577
841.114	0.0155988
841.192	0.0155649
841.271	0.0154984
841.349	0.0153662
841.427	0.0153726
841.505	0.0155296
841.583	0.0153922
841.661	0.0153066
841.739	0.0153439
841.817	0.0155787
841.896	0.0154041
841.974	0.0154754
842.052	0.0153664
842.130	0.0154330
842.208	0.0155804
842.286	0.0156831
842.364	0.0156265
842.442	0.0156450
842.521	0.0156654
842.599	0.0157600
842.677	0.0156358
842.755	0.0156419
842.833	0.0158118
842.911	0.0157248
842.989	0.0157651
843.067	0.0158244
843.146	0.0158572
843.224	0.0157294
843.302	0.0159586
843.380	0.0158962
843.458	0.0157948
843.536	0.0157919
843.614	0.0158302
843.692	0.0160735
843.771	0.0161697
843.849	0.0162571
843.927	0.0162566
844.005	0.0164298
844.083	0.0164558
844.161	0.0164771
844.239	0.0166134
844.317	0.0166390
844.396	0.0167264
844.474	0.0166621
844.552	0.0166954
844.630	0.0167971
844.708	0.0168272
844.786	0.0167970
844.864	0.0167986
844.942	0.0168071
845.021	0.0167173
845.099	0.0167310
845.177	0.0167343
845.255	0.0166172
845.333	0.0165156
845.411	0.0163557
845.489	0.0165151
845.567	0.0163055
845.646	0.0163455
845.724	0.0161698
845.802	0.0161079
845.880	0.0160581
845.958	0.0160858
846.036	0.0158641
846.114	0.0159061
846.192	0.0157698
846.271	0.0156769
846.349	0.0156405
846.427	0.0156335
846.505	0.0156248
846.583	0.0156985
846.661	0.0155603
846.739	0.0156245
846.817	0.0156543
846.896	0.0156023
846.974	0.0156451
847.052	0.0155458
847.130	0.0156747
847.208	0.0156225
847.286	0.0157492
847.364	0.0158031
847.442	0.0157473
847.521	0.0157745
847.599	0.0157452
847.677	0.0157635
847.755	0.0157521
847.833	0.0157173
847.911	0.0157548
847.989	0.0157639
848.067	0.0155347
848.146	0.0154639
848.224	0.0154862
848.302	0.0155514
848.380	0.0153845
848.458	0.0154876
848.536	0.0154417
848.614	0.0154095
848.692	0.0153451
848.771	0.0152342
848.849	0.0153909
848.927	0.0155496
849.005	0.0155113
849.083	0.0156031
849.161	0.0157847
849.239	0.0158199
849.317	0.0157874
849.396	0.0158765
849.474	0.0158708
849.552	0.0160645
849.630	0.0160570
849.708	0.0161239
849.786	0.0162550
849.864	0.0160893
849.942	0.0161338
850.021	0.0162701
850.099	0.0163513
850.177	0.0163992
850.255	0.0164282
850.333	0.0164851
850.411	0.0164458
850.489	0.0165327
850.567	0.0166214
850.646	0.0166906
850.724	0.0167472
850.802	0.0166650
850.880	0.0167274
850.958	0.0166411
851.036	0.0165591
851.114	0.0165395
851.192	0.0164650
851.271	0.0164677
851.349	0.0164197
851.427	0.0163136
851.505	0.0162592
851.583	0.0163261
851.661	0.0160202
851.739	0.0160032
851.817	0.0160266
851.896	0.0158672
851.974	0.0160320
852.052	0.0159586
852.130	0.0160050
852.208	0.0159724
852.286	0.0158283
852.364	0.0159047
852.442	0.0157927
852.521	0.0158181
852.599	0.0158308
852.677	0.0158514
852.755	0.0158705
852.833	0.0157886
852.911	0.0157184
852.989	0.0155585
853.067	0.0156351
853.146	0.0155480
853.224	0.0154791
853.302	0.0155824
853.380	0.0155605
853.458	0.0155669
853.536	0.0155688
853.614	0.0155377
853.692	0.0155509
853.771	0.0155486
853.849	0.0156306
853.927	0.0155429
854.005	0.0156472
854.083	0.0156443
854.161	0.0156219
854.239	0.0156688
854.317	0.0157013
854.396	0.0157228
854.474	0.0157818
854.552	0.0156213
854.630	0.0157754
854.708	0.0157233
854.786	0.0156755
854.864	0.0158047
854.942	0.0158176
855.021	0.0157357
855.099	0.0158157
855.177	0.0159075
855.255	0.0157859
855.333	0.0157496
855.411	0.0160226
855.489	0.0159505
855.567	0.0159145
855.646	0.0160506
855.724	0.0159733
855.802	0.0163041
855.880	0.0163032
855.958	0.0161972
856.036	0.0162671
856.114	0.0162479
856.192	0.0163115
856.271	0.0164359
856.349	0.0165237
856.427	0.0164818
856.505	0.0164602
856.583	0.0162303
856.661	0.0163834
856.739	0.0163963
856.817	0.0163670
856.896	0.0163661
856.974	0.0161671
857.052	0.0161591
857.130	0.0162127
857.208	0.0160690
857.286	0.0161452
857.364	0.0160662
857.442	0.0160470
857.521	0.0160477
857.599	0.0159354
857.677	0.0158255
857.755	0.0159397
857.833	0.0159450
857.911	0.0159302
857.989	0.0158737
858.067	0.0158584
858.146	0.0159134
858.224	0.0158932
858.302	0.0159572
858.380	0.0160754
858.458	0.0161094
858.536	0.0160141
858.614	0.0160172
858.692	0.0161965
858.771	0.0161250
858.849	0.0160461
858.927	0.0160185
859.005	0.0159921
859.083	0.0159919
859.161	0.0160213
859.239	0.0160296
859.317	0.0159110
859.396	0.0158782
859.474	0.0158547
859.552	0.0157643
859.630	0.0157793
859.708	0.0156174
859.786	0.0157216
859.864	0.0156431
859.942	0.0155421
860.021	0.0156469
860.099	0.0154768
860.177	0.0155786
860.255	0.0155736
860.333	0.0155933
860.411	0.0155119
860.489	0.0156662
860.567	0.0156700
860.646	0.0157701
860.724	0.0158201
860.802	0.0158754
860.880	0.0159204
860.958	0.0159056
861.036	0.0160613
861.114	0.0161802
861.192	0.0162112
861.271	0.0161730
861.349	0.0161751
861.427	0.0161309
861.505	0.0161455
861.583	0.0163282
861.661	0.0163236
861.739	0.0163069
861.817	0.0160856
861.896	0.0161884
861.974	0.0161407
862.052	0.0161018
862.130	0.0162000
862.208	0.0162617
862.286	0.0161243
862.364	0.0161911
862.442	0.0162114
862.521	0.0161594
862.599	0.0161226
862.677	0.0161606
862.755	0.0161638
862.833	0.0162434
862.911	0.0160819
862.989	0.0160317
863.067	0.0160529
863.146	0.0160159
863.224	0.0159892
863.302	0.0160491
863.380	0.0160268
863.458	0.0159187
863.536	0.0159891
863.614	0.0159219
863.692	0.0160332
863.771	0.0158241
863.849	0.0159599
863.927	0.0159600
864.005	0.0159184
864.083	0.0160329
864.161	0.0161304
864.239	0.0161692
864.317	0.0160000
864.396	0.0159241
864.474	0.0159727
864.552	0.0161400
864.630	0.0160736
864.708	0.0161058
864.786	0.0160332
864.864	0.0159830
864.942	0.0159990
865.021	0.0159331
865.099	0.0159857
865.177	0.0159151
865.255	0.0159160
865.333	0.0159433
865.411	0.0157587
865.489	0.0159910
865.567	0.0158369
865.646	0.0158147
865.724	0.0158302
865.802	0.0157811
865.880	0.0157108
865.958	0.0158144
866.036	0.0156745
866.114	0.0158458
866.192	0.0158762
866.271	0.0158647
866.349	0.0156996
866.427	0.0158865
866.505	0.0158966
866.583	0.0157664
866.661	0.0159328
866.739	0.0158073
866.817	0.0157536
866.896	0.0158210
866.974	0.0160221
867.052	0.0158678
867.130	0.0159480
867.208	0.0161579
867.286	0.0160734
867.364	0.0159694
867.442	0.0161626
867.521	0.0161143
867.599	0.0161951
867.677	0.0161163
867.755	0.0160410
867.833	0.0160648
867.911	0.0161663
867.989	0.0160665
868.067	0.0160062
868.146	0.0160397
868.224	0.0161720
868.302	0.0160552
868.380	0.0159338
868.458	0.0161198
868.536	0.0160640
868.614	0.0159942
868.692	0.0160193
868.771	0.0158926
868.849	0.0159222
868.927	0.0159221
869.005	0.0159750
869.083	0.0159673
869.161	0.0159557
869.239	0.0159868
869.317	0.0160308
869.396	0.0159045
869.474	0.0159713
869.552	0.0161285
869.630	0.0159715
869.708	0.0160863
869.786	0.0160583
869.864	0.0161427
869.942	0.0160807
