06/03/2022	15:47:36	Ver.	4.1	UNKNOWN
Optical Delay	550.020508	Delta X		0.078125	Sweeps	1	Scan Rate	0/0
Coordinates	Axis 1	NaN	Axis 2	NaN	Axis 3	NaN	Axis 4	NaN	Axis 5	NaN	Axis 6	0.000000
TX Power	0.000000	RX Power	0.000000

550.021	0.0162588
550.099	0.0161767
550.177	0.0161790
550.255	0.0162138
550.333	0.0161538
550.411	0.0161892
550.489	0.0161808
550.567	0.0162727
550.646	0.0162506
550.724	0.0162474
550.802	0.0161492
550.880	0.0162408
550.958	0.0161756
551.036	0.0160419
551.114	0.0163105
551.192	0.0162659
551.271	0.0161772
551.349	0.0162613
551.427	0.0161930
551.505	0.0162984
551.583	0.0161850
551.661	0.0161694
551.739	0.0163332
551.817	0.0162986
551.896	0.0161984
551.974	0.0161006
552.052	0.0162731
552.130	0.0162260
552.208	0.0161041
552.286	0.0163103
552.364	0.0160694
552.442	0.0163381
552.521	0.0162440
552.599	0.0161994
552.677	0.0162531
552.755	0.0162775
552.833	0.0161825
552.911	0.0161388
552.989	0.0162286
553.067	0.0163139
553.146	0.0163496
553.224	0.0162354
553.302	0.0161729
553.380	0.0163139
553.458	0.0162417
553.536	0.0162395
553.614	0.0162460
553.692	0.0163602
553.771	0.0163292
553.849	0.0161949
553.927	0.0162350
554.005	0.0160430
554.083	0.0161588
554.161	0.0163045
554.239	0.0162871
554.317	0.0163126
554.396	0.0161223
554.474	0.0162397
554.552	0.0162290
554.630	0.0161588
554.708	0.0161620
554.786	0.0161875
554.864	0.0161333
554.942	0.0161369
555.021	0.0162940
555.099	0.0162905
555.177	0.0162406
555.255	0.0163370
555.333	0.0162278
555.411	0.0161057
555.489	0.0162127
555.567	0.0163068
555.646	0.0162637
555.724	0.0163329
555.802	0.0163043
555.880	0.0162051
555.958	0.0163071
556.036	0.0161304
556.114	0.0162591
556.192	0.0162961
556.271	0.0161530
556.349	0.0162555
556.427	0.0162551
556.505	0.0162782
556.583	0.0160786
556.661	0.0162852
556.739	0.0163155
556.817	0.0162065
556.896	0.0161698
556.974	0.0164007
557.052	0.0162817
557.130	0.0163784
557.208	0.0162624
557.286	0.0163112
557.364	0.0161301
557.442	0.0162746
557.521	0.0161885
557.599	0.0163513
557.677	0.0162516
557.755	0.0162064
557.833	0.0163341
557.911	0.0160472
557.989	0.0162199
558.067	0.0163614
558.146	0.0161736
558.224	0.0162360
558.302	0.0162775
558.380	0.0163050
558.458	0.0162655
558.536	0.0161925
558.614	0.0162202
558.692	0.0162369
558.771	0.0162831
558.849	0.0162430
558.927	0.0163518
559.005	0.0162659
559.083	0.0162889
559.161	0.0162813
559.239	0.0162763
559.317	0.0162224
559.396	0.0162939
559.474	0.0162956
559.552	0.0162695
559.630	0.0163680
559.708	0.0163630
559.786	0.0162981
559.864	0.0162930
559.942	0.0162540
560.021	0.0161811
560.099	0.0162710
560.177	0.0163216
560.255	0.0162344
560.333	0.0161443
560.411	0.0162263
560.489	0.0163229
560.567	0.0162684
560.646	0.0163005
560.724	0.0162793
560.802	0.0162723
560.880	0.0162576
560.958	0.0162133
561.036	0.0163233
561.114	0.0162965
561.192	0.0162605
561.271	0.0161633
561.349	0.0161211
561.427	0.0163301
561.505	0.0163953
561.583	0.0162128
561.661	0.0163393
561.739	0.0163004
561.817	0.0162520
561.896	0.0161540
561.974	0.0162445
562.052	0.0160204
562.130	0.0161449
562.208	0.0161585
562.286	0.0162142
562.364	0.0161457
562.442	0.0161553
562.521	0.0162795
562.599	0.0163528
562.677	0.0163524
562.755	0.0162467
562.833	0.0162959
562.911	0.0163474
562.989	0.0163190
563.067	0.0162417
563.146	0.0162293
563.224	0.0162517
563.302	0.0162666
563.380	0.0161617
563.458	0.0162919
563.536	0.0162535
563.614	0.0161745
563.692	0.0162466
563.771	0.0161686
563.849	0.0162210
563.927	0.0161620
564.005	0.0162523
564.083	0.0162107
564.161	0.0162390
564.239	0.0162663
564.317	0.0161620
564.396	0.0161518
564.474	0.0163018
564.552	0.0162572
564.630	0.0162424
564.708	0.0162558
564.786	0.0162691
564.864	0.0162568
564.942	0.0162280
565.021	0.0164325
565.099	0.0162486
565.177	0.0162439
565.255	0.0163296
565.333	0.0162280
565.411	0.0162220
565.489	0.0163918
565.567	0.0164148
565.646	0.0162473
565.724	0.0162054
565.802	0.0162186
565.880	0.0162468
565.958	0.0162797
566.036	0.0161568
566.114	0.0163786
566.192	0.0162711
566.271	0.0162175
566.349	0.0162720
566.427	0.0162556
566.505	0.0162017
566.583	0.0163225
566.661	0.0162704
566.739	0.0162149
566.817	0.0163292
566.896	0.0162629
566.974	0.0161074
567.052	0.0162846
567.130	0.0162836
567.208	0.0163269
567.286	0.0161578
567.364	0.0161944
567.442	0.0161346
567.521	0.0162228
567.599	0.0162534
567.677	0.0162351
567.755	0.0162167
567.833	0.0162362
567.911	0.0162414
567.989	0.0161325
568.067	0.0162405
568.146	0.0161462
568.224	0.0162630
568.302	0.0161669
568.380	0.0163692
568.458	0.0162208
568.536	0.0162178
568.614	0.0162189
568.692	0.0163716
568.771	0.0162445
568.849	0.0162336
568.927	0.0161575
569.005	0.0161895
569.083	0.0162516
569.161	0.0162379
569.239	0.0162486
569.317	0.0162665
569.396	0.0161391
569.474	0.0160330
569.552	0.0162849
569.630	0.0162329
569.708	0.0163052
569.786	0.0162902
569.864	0.0162828
569.942	0.0162308
570.021	0.0161597
570.099	0.0163310
570.177	0.0161322
570.255	0.0162319
570.333	0.0163231
570.411	0.0163337
570.489	0.0163689
570.567	0.0162376
570.646	0.0162231
570.724	0.0162238
570.802	0.0162930
570.880	0.0161949
570.958	0.0162257
571.036	0.0162321
571.114	0.0161995
571.192	0.0162771
571.271	0.0163361
571.349	0.0162139
571.427	0.0162614
571.505	0.0161473
571.583	0.0162629
571.661	0.0163079
571.739	0.0163058
571.817	0.0162807
571.896	0.0162080
571.974	0.0162377
572.052	0.0163056
572.130	0.0163361
572.208	0.0162101
572.286	0.0163057
572.364	0.0162463
572.442	0.0163451
572.521	0.0161481
572.599	0.0162508
572.677	0.0162576
572.755	0.0162786
572.833	0.0162003
572.911	0.0163778
572.989	0.0163679
573.067	0.0164108
573.146	0.0163148
573.224	0.0162342
573.302	0.0163067
573.380	0.0162479
573.458	0.0162122
573.536	0.0162614
573.614	0.0162357
573.692	0.0161997
573.771	0.0162859
573.849	0.0163223
573.927	0.0162380
574.005	0.0161401
574.083	0.0161387
574.161	0.0162281
574.239	0.0163023
574.317	0.0163319
574.396	0.0162965
574.474	0.0163869
574.552	0.0162701
574.630	0.0162083
574.708	0.0164148
574.786	0.0162764
574.864	0.0163297
574.942	0.0163021
575.021	0.0162070
575.099	0.0163087
575.177	0.0161984
575.255	0.0162601
575.333	0.0162726
575.411	0.0162211
575.489	0.0161983
575.567	0.0162653
575.646	0.0162151
575.724	0.0163113
575.802	0.0162795
575.880	0.0161627
575.958	0.0163860
576.036	0.0161731
576.114	0.0162553
576.192	0.0164041
576.271	0.0163110
576.349	0.0162935
576.427	0.0161303
576.505	0.0162524
576.583	0.0163172
576.661	0.0163856
576.739	0.0162124
576.817	0.0162106
576.896	0.0162650
576.974	0.0161760
577.052	0.0162325
577.130	0.0162551
577.208	0.0161730
577.286	0.0163102
577.364	0.0163585
577.442	0.0162963
577.521	0.0162189
577.599	0.0162360
577.677	0.0162166
577.755	0.0163419
577.833	0.0162928
577.911	0.0162994
577.989	0.0162510
578.067	0.0162897
578.146	0.0162167
578.224	0.0162138
578.302	0.0161864
578.380	0.0161623
578.458	0.0160987
578.536	0.0162714
578.614	0.0162251
578.692	0.0162167
578.771	0.0162360
578.849	0.0162589
578.927	0.0162715
579.005	0.0162719
579.083	0.0162376
579.161	0.0163520
579.239	0.0162249
579.317	0.0162566
579.396	0.0163324
579.474	0.0162157
579.552	0.0161574
579.630	0.0162163
579.708	0.0163329
579.786	0.0162782
579.864	0.0162586
579.942	0.0162386
580.021	0.0163036
580.099	0.0161351
580.177	0.0161855
580.255	0.0162912
580.333	0.0162932
580.411	0.0162041
580.489	0.0161213
580.567	0.0161418
580.646	0.0161176
580.724	0.0162784
580.802	0.0161935
580.880	0.0161552
580.958	0.0163583
581.036	0.0162406
581.114	0.0161620
581.192	0.0161991
581.271	0.0162174
581.349	0.0162641
581.427	0.0161725
581.505	0.0162101
581.583	0.0162823
581.661	0.0163432
581.739	0.0161642
581.817	0.0162956
581.896	0.0161716
581.974	0.0161762
582.052	0.0162615
582.130	0.0162357
582.208	0.0162597
582.286	0.0161327
582.364	0.0163033
582.442	0.0162000
582.521	0.0162690
582.599	0.0162755
582.677	0.0162352
582.755	0.0163487
582.833	0.0162469
582.911	0.0162465
582.989	0.0162516
583.067	0.0160757
583.146	0.0163276
583.224	0.0162873
583.302	0.0162427
583.380	0.0163365
583.458	0.0162589
583.536	0.0162634
583.614	0.0162755
583.692	0.0163586
583.771	0.0163154
583.849	0.0161880
583.927	0.0164288
584.005	0.0162674
584.083	0.0162762
584.161	0.0162375
584.239	0.0162619
584.317	0.0161736
584.396	0.0163120
584.474	0.0161853
584.552	0.0161747
584.630	0.0163026
584.708	0.0163004
584.786	0.0161432
584.864	0.0163152
584.942	0.0162743
585.021	0.0162711
585.099	0.0163116
585.177	0.0161829
585.255	0.0163314
585.333	0.0163348
585.411	0.0161609
585.489	0.0163033
585.567	0.0162883
585.646	0.0163575
585.724	0.0163740
585.802	0.0162898
585.880	0.0162342
585.958	0.0163493
586.036	0.0161461
586.114	0.0161030
586.192	0.0162000
586.271	0.0162478
586.349	0.0163646
586.427	0.0163030
586.505	0.0162184
586.583	0.0161658
586.661	0.0162306
586.739	0.0161909
586.817	0.0163434
586.896	0.0161909
586.974	0.0162455
587.052	0.0160707
587.130	0.0162444
587.208	0.0161920
587.286	0.0162495
587.364	0.0162451
587.442	0.0163110
587.521	0.0162314
587.599	0.0162079
587.677	0.0161913
587.755	0.0163278
587.833	0.0161131
587.911	0.0162997
587.989	0.0162886
588.067	0.0162847
588.146	0.0162326
588.224	0.0163023
588.302	0.0161904
588.380	0.0162548
588.458	0.0161997
588.536	0.0163307
588.614	0.0162713
588.692	0.0161600
588.771	0.0163081
588.849	0.0162953
588.927	0.0162392
589.005	0.0161648
589.083	0.0161560
589.161	0.0161590
589.239	0.0162894
589.317	0.0163104
589.396	0.0161541
589.474	0.0161797
589.552	0.0161543
589.630	0.0163154
589.708	0.0163549
589.786	0.0162371
589.864	0.0163009
589.942	0.0163796
590.021	0.0163173
590.099	0.0161608
590.177	0.0160806
590.255	0.0161522
590.333	0.0162647
590.411	0.0162533
590.489	0.0161675
590.567	0.0161873
590.646	0.0162210
590.724	0.0163337
590.802	0.0162032
590.880	0.0162173
590.958	0.0163901
591.036	0.0161562
591.114	0.0162415
591.192	0.0163512
591.271	0.0162037
591.349	0.0161037
591.427	0.0162379
591.505	0.0162285
591.583	0.0162087
591.661	0.0161986
591.739	0.0163635
591.817	0.0161911
591.896	0.0162262
591.974	0.0162638
592.052	0.0161995
592.130	0.0162945
592.208	0.0162856
592.286	0.0163408
592.364	0.0162309
592.442	0.0162048
592.521	0.0162246
592.599	0.0162325
592.677	0.0162204
592.755	0.0161988
592.833	0.0161710
592.911	0.0162077
592.989	0.0161995
593.067	0.0161949
593.146	0.0161552
593.224	0.0162427
593.302	0.0163055
593.380	0.0163351
593.458	0.0162777
593.536	0.0162761
593.614	0.0162010
593.692	0.0162597
593.771	0.0161638
593.849	0.0162248
593.927	0.0163371
594.005	0.0162620
594.083	0.0163375
594.161	0.0162886
594.239	0.0162592
594.317	0.0162024
594.396	0.0161786
594.474	0.0163153
594.552	0.0162764
594.630	0.0162965
594.708	0.0162195
594.786	0.0162434
594.864	0.0162715
594.942	0.0162180
595.021	0.0162186
595.099	0.0162109
595.177	0.0162739
595.255	0.0162511
595.333	0.0163065
595.411	0.0162366
595.489	0.0162748
595.567	0.0161692
595.646	0.0163081
595.724	0.0161852
595.802	0.0162371
595.880	0.0162546
595.958	0.0162318
596.036	0.0161570
596.114	0.0163272
596.192	0.0163290
596.271	0.0162647
596.349	0.0163168
596.427	0.0161894
596.505	0.0162797
596.583	0.0163787
596.661	0.0162248
596.739	0.0161980
596.817	0.0162919
596.896	0.0161612
596.974	0.0162272
597.052	0.0161486
597.130	0.0163432
597.208	0.0162714
597.286	0.0162543
597.364	0.0160952
597.442	0.0162362
597.521	0.0162350
597.599	0.0162449
597.677	0.0164361
597.755	0.0162691
597.833	0.0162179
597.911	0.0162345
597.989	0.0162851
598.067	0.0162817
598.146	0.0162852
598.224	0.0161938
598.302	0.0162743
598.380	0.0163404
598.458	0.0162173
598.536	0.0162813
598.614	0.0162518
598.692	0.0164060
598.771	0.0162621
598.849	0.0162594
598.927	0.0162223
599.005	0.0163129
599.083	0.0164339
599.161	0.0162595
599.239	0.0162737
599.317	0.0163707
599.396	0.0162698
599.474	0.0163755
599.552	0.0163740
599.630	0.0162173
599.708	0.0162477
599.786	0.0163103
599.864	0.0163681
599.942	0.0163976
600.021	0.0162122
600.099	0.0163430
600.177	0.0162325
600.255	0.0162810
600.333	0.0164497
600.411	0.0162559
600.489	0.0164129
600.567	0.0163435
600.646	0.0163987
600.724	0.0164585
600.802	0.0162189
600.880	0.0162879
600.958	0.0163279
601.036	0.0163066
601.114	0.0163934
601.192	0.0164148
601.271	0.0164373
601.349	0.0162670
601.427	0.0162489
601.505	0.0162067
601.583	0.0162737
601.661	0.0163661
601.739	0.0163121
601.817	0.0162502
601.896	0.0161996
601.974	0.0161150
602.052	0.0162297
602.130	0.0162768
602.208	0.0161557
602.286	0.0162843
602.364	0.0162949
602.442	0.0162025
602.521	0.0160902
602.599	0.0162208
602.677	0.0163819
602.755	0.0162148
602.833	0.0162120
602.911	0.0161228
602.989	0.0161279
603.067	0.0161569
603.146	0.0161692
603.224	0.0161865
603.302	0.0161752
603.380	0.0162119
603.458	0.0161682
603.536	0.0161611
603.614	0.0161188
603.692	0.0162041
603.771	0.0161650
603.849	0.0161526
603.927	0.0162353
604.005	0.0162542
604.083	0.0161748
604.161	0.0161974
604.239	0.0162589
604.317	0.0162764
604.396	0.0162246
604.474	0.0162528
604.552	0.0162967
604.630	0.0161031
604.708	0.0161811
604.786	0.0161950
604.864	0.0162082
604.942	0.0163320
605.021	0.0161612
605.099	0.0161018
605.177	0.0162203
605.255	0.0162609
605.333	0.0162924
605.411	0.0162524
605.489	0.0161655
605.567	0.0162389
605.646	0.0162329
605.724	0.0161962
605.802	0.0162745
605.880	0.0162845
605.958	0.0161495
606.036	0.0162283
606.114	0.0164314
606.192	0.0160924
606.271	0.0161300
606.349	0.0162201
606.427	0.0162874
606.505	0.0162339
606.583	0.0162238
606.661	0.0161913
606.739	0.0161485
606.817	0.0162822
606.896	0.0162657
606.974	0.0161633
607.052	0.0163388
607.130	0.0160474
607.208	0.0161045
607.286	0.0162830
607.364	0.0162476
607.442	0.0161980
607.521	0.0162381
607.599	0.0162135
607.677	0.0161958
607.755	0.0161243
607.833	0.0162100
607.911	0.0161611
607.989	0.0162994
608.067	0.0162971
608.146	0.0161527
608.224	0.0161719
608.302	0.0162173
608.380	0.0162782
608.458	0.0161929
608.536	0.0161221
608.614	0.0161933
608.692	0.0161951
608.771	0.0162286
608.849	0.0161122
608.927	0.0161585
609.005	0.0161475
609.083	0.0161449
609.161	0.0163454
609.239	0.0162194
609.317	0.0161091
609.396	0.0161346
609.474	0.0162278
609.552	0.0161978
609.630	0.0161283
609.708	0.0160643
609.786	0.0161604
609.864	0.0161606
609.942	0.0161447
610.021	0.0161098
610.099	0.0161996
610.177	0.0163132
610.255	0.0161792
610.333	0.0161571
610.411	0.0162321
610.489	0.0162311
610.567	0.0161758
610.646	0.0162312
610.724	0.0163075
610.802	0.0161143
610.880	0.0162073
610.958	0.0162936
611.036	0.0162071
611.114	0.0162545
611.192	0.0162193
611.271	0.0161958
611.349	0.0161345
611.427	0.0162189
611.505	0.0162206
611.583	0.0161555
611.661	0.0162024
611.739	0.0163047
611.817	0.0163464
611.896	0.0162398
611.974	0.0161146
612.052	0.0162454
612.130	0.0162602
612.208	0.0161275
612.286	0.0162215
612.364	0.0163673
612.442	0.0162607
612.521	0.0162238
612.599	0.0161547
612.677	0.0163097
612.755	0.0162246
612.833	0.0162804
612.911	0.0163417
612.989	0.0162940
613.067	0.0163567
613.146	0.0161145
613.224	0.0161211
613.302	0.0163200
613.380	0.0163300
613.458	0.0163108
613.536	0.0163834
613.614	0.0162360
613.692	0.0162698
613.771	0.0163865
613.849	0.0164541
613.927	0.0162121
614.005	0.0163441
614.083	0.0162720
614.161	0.0162709
614.239	0.0162495
614.317	0.0163034
614.396	0.0163777
614.474	0.0162138
614.552	0.0163004
614.630	0.0163616
614.708	0.0163425
614.786	0.0162740
614.864	0.0162572
614.942	0.0161693
615.021	0.0162806
615.099	0.0164829
615.177	0.0162475
615.255	0.0162382
615.333	0.0163521
615.411	0.0163032
615.489	0.0162363
615.567	0.0162519
615.646	0.0162666
615.724	0.0162703
615.802	0.0163213
615.880	0.0162072
615.958	0.0164212
616.036	0.0164151
616.114	0.0163076
616.192	0.0162827
616.271	0.0163667
616.349	0.0163067
616.427	0.0162843
616.505	0.0162450
616.583	0.0162589
616.661	0.0162918
616.739	0.0163253
616.817	0.0163335
616.896	0.0162883
616.974	0.0163901
617.052	0.0162417
617.130	0.0163965
617.208	0.0165019
617.286	0.0163360
617.364	0.0163049
617.442	0.0163146
617.521	0.0163446
617.599	0.0162401
617.677	0.0164029
617.755	0.0162272
617.833	0.0163150
617.911	0.0163885
617.989	0.0163365
618.067	0.0163899
618.146	0.0162675
618.224	0.0163423
618.302	0.0162878
618.380	0.0162337
618.458	0.0163636
618.536	0.0162736
618.614	0.0162569
618.692	0.0163723
618.771	0.0162477
618.849	0.0162914
618.927	0.0164088
619.005	0.0162995
619.083	0.0162836
619.161	0.0163091
619.239	0.0162685
619.317	0.0162849
619.396	0.0162581
619.474	0.0162496
619.552	0.0163164
619.630	0.0163904
619.708	0.0162991
619.786	0.0162007
619.864	0.0163615
619.942	0.0162806
620.021	0.0163445
620.099	0.0162642
620.177	0.0161990
620.255	0.0163258
620.333	0.0163274
620.411	0.0161396
620.489	0.0163356
620.567	0.0162034
620.646	0.0161555
620.724	0.0162982
620.802	0.0162758
620.880	0.0164754
620.958	0.0162937
621.036	0.0162888
621.114	0.0162531
621.192	0.0164369
621.271	0.0162244
621.349	0.0163035
621.427	0.0162576
621.505	0.0163216
621.583	0.0163774
621.661	0.0163148
621.739	0.0163219
621.817	0.0162772
621.896	0.0163473
621.974	0.0162197
622.052	0.0161555
622.130	0.0163722
622.208	0.0162200
622.286	0.0162753
622.364	0.0163689
622.442	0.0164168
622.521	0.0163612
622.599	0.0164466
622.677	0.0163303
622.755	0.0161565
622.833	0.0162143
622.911	0.0163632
622.989	0.0162224
623.067	0.0161992
623.146	0.0161864
623.224	0.0163999
623.302	0.0162673
623.380	0.0162555
623.458	0.0162955
623.536	0.0161939
623.614	0.0162312
623.692	0.0163062
623.771	0.0162308
623.849	0.0161556
623.927	0.0161657
624.005	0.0161519
624.083	0.0161188
624.161	0.0163758
624.239	0.0163987
624.317	0.0161552
624.396	0.0162122
624.474	0.0161201
624.552	0.0162006
624.630	0.0163451
624.708	0.0162474
624.786	0.0162338
624.864	0.0161716
624.942	0.0162202
625.021	0.0162019
625.099	0.0162005
625.177	0.0161421
625.255	0.0162074
625.333	0.0161926
625.411	0.0163302
625.489	0.0162422
625.567	0.0161452
625.646	0.0163007
625.724	0.0162075
625.802	0.0163754
625.880	0.0162878
625.958	0.0161675
626.036	0.0161975
626.114	0.0162567
626.192	0.0162061
626.271	0.0162038
626.349	0.0162585
626.427	0.0163170
626.505	0.0163898
626.583	0.0161252
626.661	0.0162503
626.739	0.0161492
626.817	0.0162556
626.896	0.0162235
626.974	0.0162106
627.052	0.0162694
627.130	0.0162225
627.208	0.0161720
627.286	0.0162421
627.364	0.0161536
627.442	0.0161625
627.521	0.0162511
627.599	0.0163625
627.677	0.0162833
627.755	0.0162117
627.833	0.0162112
627.911	0.0161237
627.989	0.0161553
628.067	0.0161091
628.146	0.0161311
628.224	0.0160373
628.302	0.0161378
628.380	0.0162739
628.458	0.0161915
628.536	0.0163406
628.614	0.0161743
628.692	0.0161864
628.771	0.0161625
628.849	0.0163780
628.927	0.0162537
629.005	0.0161469
629.083	0.0161157
629.161	0.0162315
629.239	0.0162032
629.317	0.0161139
629.396	0.0160586
629.474	0.0160582
629.552	0.0162563
629.630	0.0162366
629.708	0.0162022
629.786	0.0161104
629.864	0.0161306
629.942	0.0162134
630.021	0.0162780
630.099	0.0162601
630.177	0.0161346
630.255	0.0160144
630.333	0.0161209
630.411	0.0160815
630.489	0.0161292
630.567	0.0161794
630.646	0.0162326
630.724	0.0162108
630.802	0.0162312
630.880	0.0163684
630.958	0.0162223
631.036	0.0162353
631.114	0.0162508
631.192	0.0162217
631.271	0.0162568
631.349	0.0161678
631.427	0.0161749
631.505	0.0162141
631.583	0.0161522
631.661	0.0161600
631.739	0.0162415
631.817	0.0161422
631.896	0.0160801
631.974	0.0161117
632.052	0.0162254
632.130	0.0162288
632.208	0.0162690
632.286	0.0161168
632.364	0.0162517
632.442	0.0162539
632.521	0.0162064
632.599	0.0160480
632.677	0.0163209
632.755	0.0163059
632.833	0.0160891
632.911	0.0161103
632.989	0.0161027
633.067	0.0161257
633.146	0.0161482
633.224	0.0162767
633.302	0.0161653
633.380	0.0160612
633.458	0.0162208
633.536	0.0161925
633.614	0.0162880
633.692	0.0161999
633.771	0.0161798
633.849	0.0163111
633.927	0.0161574
634.005	0.0160268
634.083	0.0162059
634.161	0.0162062
634.239	0.0162918
634.317	0.0162011
634.396	0.0161765
634.474	0.0163505
634.552	0.0163361
634.630	0.0161901
634.708	0.0161636
634.786	0.0162852
634.864	0.0163416
634.942	0.0162364
635.021	0.0162388
635.099	0.0163267
635.177	0.0161755
635.255	0.0161903
635.333	0.0163484
635.411	0.0162849
635.489	0.0162424
635.567	0.0162058
635.646	0.0162725
635.724	0.0161889
635.802	0.0161957
635.880	0.0163422
635.958	0.0162794
636.036	0.0162627
636.114	0.0162511
636.192	0.0161505
636.271	0.0162637
636.349	0.0162891
636.427	0.0162597
636.505	0.0161818
636.583	0.0163685
636.661	0.0162547
636.739	0.0161665
636.817	0.0163358
636.896	0.0162528
636.974	0.0163801
637.052	0.0161255
637.130	0.0163174
637.208	0.0162887
637.286	0.0162950
637.364	0.0162399
637.442	0.0163461
637.521	0.0163060
637.599	0.0163446
637.677	0.0161716
637.755	0.0163116
637.833	0.0162582
637.911	0.0160341
637.989	0.0160912
638.067	0.0162947
638.146	0.0162951
638.224	0.0162820
638.302	0.0162857
638.380	0.0162061
638.458	0.0162817
638.536	0.0164332
638.614	0.0162411
638.692	0.0160889
638.771	0.0162479
638.849	0.0162994
638.927	0.0162965
639.005	0.0162583
639.083	0.0162362
639.161	0.0163003
639.239	0.0161723
639.317	0.0162718
639.396	0.0162433
639.474	0.0163657
639.552	0.0162450
639.630	0.0161926
639.708	0.0161134
639.786	0.0162524
639.864	0.0163183
639.942	0.0162116
640.021	0.0162353
640.099	0.0161469
640.177	0.0160863
640.255	0.0162862
640.333	0.0162730
640.411	0.0162128
640.489	0.0160928
640.567	0.0162247
640.646	0.0161477
640.724	0.0162541
640.802	0.0162882
640.880	0.0162212
640.958	0.0160817
641.036	0.0162497
641.114	0.0161046
641.192	0.0161055
641.271	0.0162105
641.349	0.0161980
641.427	0.0162589
641.505	0.0163683
641.583	0.0163272
641.661	0.0161892
641.739	0.0161670
641.817	0.0161581
641.896	0.0161985
641.974	0.0163519
642.052	0.0163948
642.130	0.0162634
642.208	0.0162130
642.286	0.0162595
642.364	0.0162946
642.442	0.0163262
642.521	0.0161522
642.599	0.0162623
642.677	0.0161452
642.755	0.0163011
642.833	0.0162882
642.911	0.0161414
642.989	0.0161991
643.067	0.0163153
643.146	0.0161798
643.224	0.0161609
643.302	0.0162487
643.380	0.0162021
643.458	0.0162776
643.536	0.0163333
643.614	0.0162444
643.692	0.0162794
643.771	0.0163243
643.849	0.0162923
643.927	0.0163137
644.005	0.0162323
644.083	0.0162585
644.161	0.0162786
644.239	0.0162935
644.317	0.0161970
644.396	0.0162507
644.474	0.0163262
644.552	0.0162665
644.630	0.0162400
644.708	0.0162725
644.786	0.0162561
644.864	0.0163334
644.942	0.0162363
645.021	0.0162910
645.099	0.0161365
645.177	0.0162355
645.255	0.0163474
645.333	0.0161570
645.411	0.0162376
645.489	0.0162196
645.567	0.0163202
645.646	0.0162328
645.724	0.0161605
645.802	0.0164095
645.880	0.0163838
645.958	0.0162887
646.036	0.0163512
646.114	0.0161195
646.192	0.0161366
646.271	0.0163325
646.349	0.0163855
646.427	0.0161577
646.505	0.0161902
646.583	0.0162711
646.661	0.0163255
646.739	0.0163095
646.817	0.0161575
646.896	0.0162037
646.974	0.0163087
647.052	0.0164187
647.130	0.0162995
647.208	0.0163470
647.286	0.0162453
647.364	0.0162500
647.442	0.0162108
647.521	0.0162795
647.599	0.0163059
647.677	0.0163196
647.755	0.0163493
647.833	0.0162932
647.911	0.0162350
647.989	0.0162050
648.067	0.0162904
648.146	0.0164610
648.224	0.0162191
648.302	0.0164015
648.380	0.0162733
648.458	0.0163138
648.536	0.0164241
648.614	0.0162794
648.692	0.0163356
648.771	0.0164098
648.849	0.0163847
648.927	0.0162877
649.005	0.0163147
649.083	0.0164505
649.161	0.0162217
649.239	0.0162746
649.317	0.0163952
649.396	0.0164711
649.474	0.0163158
649.552	0.0162731
649.630	0.0162592
649.708	0.0163926
649.786	0.0162995
649.864	0.0162241
649.942	0.0162198
650.021	0.0162698
650.099	0.0163508
650.177	0.0162550
650.255	0.0162309
650.333	0.0163466
650.411	0.0162970
650.489	0.0160523
650.567	0.0162827
650.646	0.0163100
650.724	0.0162630
650.802	0.0163263
650.880	0.0162299
650.958	0.0162542
651.036	0.0162927
651.114	0.0163462
651.192	0.0162202
651.271	0.0161467
651.349	0.0163113
651.427	0.0161867
651.505	0.0161327
651.583	0.0163170
651.661	0.0162553
651.739	0.0162514
651.817	0.0162341
651.896	0.0160979
651.974	0.0162038
652.052	0.0162074
652.130	0.0162513
652.208	0.0161832
652.286	0.0161777
652.364	0.0162138
652.442	0.0162414
652.521	0.0162414
652.599	0.0161500
652.677	0.0162257
652.755	0.0161807
652.833	0.0162128
652.911	0.0161817
652.989	0.0161900
653.067	0.0163683
653.146	0.0162837
653.224	0.0161732
653.302	0.0161375
653.380	0.0161523
653.458	0.0161435
653.536	0.0162853
653.614	0.0162824
653.692	0.0161572
653.771	0.0161956
653.849	0.0161570
653.927	0.0161423
654.005	0.0163179
654.083	0.0162295
654.161	0.0163042
654.239	0.0161789
654.317	0.0161906
654.396	0.0161666
654.474	0.0161550
654.552	0.0160812
654.630	0.0161586
654.708	0.0161887
654.786	0.0162289
654.864	0.0162540
654.942	0.0161611
655.021	0.0162080
655.099	0.0162122
655.177	0.0161771
655.255	0.0162481
655.333	0.0160223
655.411	0.0161328
655.489	0.0162392
655.567	0.0162939
655.646	0.0162092
655.724	0.0161504
655.802	0.0162043
655.880	0.0162091
655.958	0.0161777
656.036	0.0162290
656.114	0.0162628
656.192	0.0162193
656.271	0.0162788
656.349	0.0161989
656.427	0.0162621
656.505	0.0162722
656.583	0.0162678
656.661	0.0163557
656.739	0.0163069
656.817	0.0163055
656.896	0.0162032
656.974	0.0162676
657.052	0.0162037
657.130	0.0162148
657.208	0.0161721
657.286	0.0163075
657.364	0.0162350
657.442	0.0162290
657.521	0.0162075
657.599	0.0162121
657.677	0.0162106
657.755	0.0160891
657.833	0.0161266
657.911	0.0161432
657.989	0.0161278
658.067	0.0162746
658.146	0.0162508
658.224	0.0162239
658.302	0.0162153
658.380	0.0161714
658.458	0.0161450
658.536	0.0162508
658.614	0.0162476
658.692	0.0162229
658.771	0.0161388
658.849	0.0163074
658.927	0.0162724
659.005	0.0163811
659.083	0.0163184
659.161	0.0163090
659.239	0.0163346
659.317	0.0162017
659.396	0.0162985
659.474	0.0163065
659.552	0.0161539
659.630	0.0162966
659.708	0.0163228
659.786	0.0161794
659.864	0.0161290
659.942	0.0162682
660.021	0.0163083
660.099	0.0162176
660.177	0.0161927
660.255	0.0162684
660.333	0.0162052
660.411	0.0161352
660.489	0.0161800
660.567	0.0162347
660.646	0.0161325
660.724	0.0162071
660.802	0.0162067
660.880	0.0162653
660.958	0.0162504
661.036	0.0163065
661.114	0.0161637
661.192	0.0162209
661.271	0.0162767
661.349	0.0162710
661.427	0.0162192
661.505	0.0161751
661.583	0.0161093
661.661	0.0161472
661.739	0.0162565
661.817	0.0163560
661.896	0.0162190
661.974	0.0162444
662.052	0.0162972
662.130	0.0162006
662.208	0.0161615
662.286	0.0163290
662.364	0.0163129
662.442	0.0162738
662.521	0.0163229
662.599	0.0161581
662.677	0.0162733
662.755	0.0163341
662.833	0.0161700
662.911	0.0162329
662.989	0.0163448
663.067	0.0162952
663.146	0.0162724
663.224	0.0162239
663.302	0.0164105
663.380	0.0164241
663.458	0.0162288
663.536	0.0162380
663.614	0.0162207
663.692	0.0163194
663.771	0.0162100
663.849	0.0162249
663.927	0.0163268
664.005	0.0162937
664.083	0.0162370
664.161	0.0161230
664.239	0.0162174
664.317	0.0161379
664.396	0.0162414
664.474	0.0161568
664.552	0.0163232
664.630	0.0162760
664.708	0.0162434
664.786	0.0161268
664.864	0.0161967
664.942	0.0161323
665.021	0.0163194
665.099	0.0162016
665.177	0.0162325
665.255	0.0161539
665.333	0.0161717
665.411	0.0163270
665.489	0.0163010
665.567	0.0162807
665.646	0.0161604
665.724	0.0161040
665.802	0.0161255
665.880	0.0161550
665.958	0.0162122
666.036	0.0163403
666.114	0.0162520
666.192	0.0160551
666.271	0.0161061
666.349	0.0161283
666.427	0.0162797
666.505	0.0161485
666.583	0.0162563
666.661	0.0162212
666.739	0.0161831
666.817	0.0161049
666.896	0.0161608
666.974	0.0163095
667.052	0.0162925
667.130	0.0162389
667.208	0.0161635
667.286	0.0162860
667.364	0.0163705
667.442	0.0163708
667.521	0.0163237
667.599	0.0161591
667.677	0.0161771
667.755	0.0161148
667.833	0.0161784
667.911	0.0161260
667.989	0.0160812
668.067	0.0161882
668.146	0.0161264
668.224	0.0160989
668.302	0.0161707
668.380	0.0162308
668.458	0.0163041
668.536	0.0163919
668.614	0.0164305
668.692	0.0165030
668.771	0.0165065
668.849	0.0165269
668.927	0.0164164
669.005	0.0163898
669.083	0.0162445
669.161	0.0161882
669.239	0.0162031
669.317	0.0161215
669.396	0.0161440
669.474	0.0160912
669.552	0.0159508
669.630	0.0159962
669.708	0.0159204
669.786	0.0159845
669.864	0.0161983
669.942	0.0162964
670.021	0.0164878
670.099	0.0165359
670.177	0.0167162
670.255	0.0167543
670.333	0.0167754
670.411	0.0165939
670.489	0.0165987
670.567	0.0163531
670.646	0.0163428
670.724	0.0160762
670.802	0.0158311
670.880	0.0158176
670.958	0.0156710
671.036	0.0157932
671.114	0.0156324
671.192	0.0156470
671.271	0.0158471
671.349	0.0161282
671.427	0.0161816
671.505	0.0163705
671.583	0.0166402
671.661	0.0167065
671.739	0.0167941
671.817	0.0167553
671.896	0.0166681
671.974	0.0164910
672.052	0.0164109
672.130	0.0163751
672.208	0.0160915
672.286	0.0158379
672.364	0.0156955
672.442	0.0156609
672.521	0.0157464
672.599	0.0158759
672.677	0.0158001
672.755	0.0160387
672.833	0.0157827
672.911	0.0160738
672.989	0.0162656
673.067	0.0162381
673.146	0.0162818
673.224	0.0164632
673.302	0.0165302
673.380	0.0164685
673.458	0.0165280
673.536	0.0164991
673.614	0.0163763
673.692	0.0164511
673.771	0.0162841
673.849	0.0162252
673.927	0.0161951
674.005	0.0161569
674.083	0.0160464
674.161	0.0160504
674.239	0.0160805
674.317	0.0159807
674.396	0.0160738
674.474	0.0160706
674.552	0.0163510
674.630	0.0162944
674.708	0.0164699
674.786	0.0165358
674.864	0.0165813
674.942	0.0166766
675.021	0.0165342
675.099	0.0165467
675.177	0.0163921
675.255	0.0163385
675.333	0.0162206
675.411	0.0161441
675.489	0.0160088
675.567	0.0160513
675.646	0.0162118
675.724	0.0160858
675.802	0.0162734
675.880	0.0163299
675.958	0.0163712
676.036	0.0162282
676.114	0.0163395
676.192	0.0163960
676.271	0.0162934
676.349	0.0160299
676.427	0.0161356
676.505	0.0161573
676.583	0.0161076
676.661	0.0160545
676.739	0.0161755
676.817	0.0162154
676.896	0.0162336
676.974	0.0162951
677.052	0.0163320
677.130	0.0165885
677.208	0.0165408
677.286	0.0165033
677.364	0.0165723
677.442	0.0164709
677.521	0.0162559
677.599	0.0163159
677.677	0.0163852
677.755	0.0161127
677.833	0.0159671
677.911	0.0159467
677.989	0.0160159
678.067	0.0159763
678.146	0.0160149
678.224	0.0161333
678.302	0.0163539
678.380	0.0162228
678.458	0.0163367
678.536	0.0164943
678.614	0.0165660
678.692	0.0166059
678.771	0.0166306
678.849	0.0164597
678.927	0.0164418
679.005	0.0163985
679.083	0.0162536
679.161	0.0162003
679.239	0.0161037
679.317	0.0159182
679.396	0.0159464
679.474	0.0159802
679.552	0.0160412
679.630	0.0158759
679.708	0.0160372
679.786	0.0162164
679.864	0.0162607
679.942	0.0164213
680.021	0.0164973
680.099	0.0162910
680.177	0.0164449
680.255	0.0163986
680.333	0.0163317
680.411	0.0164462
680.489	0.0163047
680.567	0.0162158
680.646	0.0161388
680.724	0.0160847
680.802	0.0160126
680.880	0.0160941
680.958	0.0161735
681.036	0.0162598
681.114	0.0161276
681.192	0.0163052
681.271	0.0163042
681.349	0.0162926
681.427	0.0165395
681.505	0.0162180
681.583	0.0162540
681.661	0.0161418
681.739	0.0163006
681.817	0.0161028
681.896	0.0161707
681.974	0.0160920
682.052	0.0161651
682.130	0.0161926
682.208	0.0161890
682.286	0.0161443
682.364	0.0162283
682.442	0.0163356
682.521	0.0163714
682.599	0.0161510
682.677	0.0162511
682.755	0.0163004
682.833	0.0163564
682.911	0.0162187
682.989	0.0161876
683.067	0.0161977
683.146	0.0162725
683.224	0.0162811
683.302	0.0160332
683.380	0.0160136
683.458	0.0160720
683.536	0.0161436
683.614	0.0161568
683.692	0.0162669
683.771	0.0164430
683.849	0.0164817
683.927	0.0163211
684.005	0.0162903
684.083	0.0163052
684.161	0.0164737
684.239	0.0164079
684.317	0.0162778
684.396	0.0162834
684.474	0.0161379
684.552	0.0161000
684.630	0.0161067
684.708	0.0160967
684.786	0.0162289
684.864	0.0160603
684.942	0.0161934
685.021	0.0162096
685.099	0.0163432
685.177	0.0163409
685.255	0.0163571
685.333	0.0164895
685.411	0.0166228
685.489	0.0163931
685.567	0.0164655
685.646	0.0165025
685.724	0.0163173
685.802	0.0162843
685.880	0.0162395
685.958	0.0159995
686.036	0.0160492
686.114	0.0161396
686.192	0.0160214
686.271	0.0158806
686.349	0.0160892
686.427	0.0161226
686.505	0.0162638
686.583	0.0162069
686.661	0.0163527
686.739	0.0164305
686.817	0.0165083
686.896	0.0164021
686.974	0.0165008
687.052	0.0164594
687.130	0.0164693
687.208	0.0165808
687.286	0.0163216
687.364	0.0162923
687.442	0.0161393
687.521	0.0160060
687.599	0.0159811
687.677	0.0158292
687.755	0.0160855
687.833	0.0160916
687.911	0.0160672
687.989	0.0161105
688.067	0.0162401
688.146	0.0162246
688.224	0.0164173
688.302	0.0163906
688.380	0.0164409
688.458	0.0163548
688.536	0.0164787
688.614	0.0163039
688.692	0.0163467
688.771	0.0162369
688.849	0.0162508
688.927	0.0162001
689.005	0.0161485
689.083	0.0162769
689.161	0.0163017
689.239	0.0162508
689.317	0.0161445
689.396	0.0162842
689.474	0.0164825
689.552	0.0164217
689.630	0.0164190
689.708	0.0163708
689.786	0.0162605
689.864	0.0164038
689.942	0.0163934
690.021	0.0163023
690.099	0.0163873
690.177	0.0164107
690.255	0.0161686
690.333	0.0162234
690.411	0.0163393
690.489	0.0163161
690.567	0.0162672
690.646	0.0162089
690.724	0.0162116
690.802	0.0161575
690.880	0.0161282
690.958	0.0161262
691.036	0.0162888
691.114	0.0161236
691.192	0.0162541
691.271	0.0163459
691.349	0.0161843
691.427	0.0160710
691.505	0.0162522
691.583	0.0162498
691.661	0.0162573
691.739	0.0161022
691.817	0.0161543
691.896	0.0162440
691.974	0.0161710
692.052	0.0162421
692.130	0.0161817
692.208	0.0162749
692.286	0.0162683
692.364	0.0162462
692.442	0.0163414
692.521	0.0161675
692.599	0.0162557
692.677	0.0162195
692.755	0.0160893
692.833	0.0161884
692.911	0.0162837
692.989	0.0161357
693.067	0.0163595
693.146	0.0161848
693.224	0.0161763
693.302	0.0162750
693.380	0.0162565
693.458	0.0163340
693.536	0.0163473
693.614	0.0164211
693.692	0.0164658
693.771	0.0164942
693.849	0.0164982
693.927	0.0163793
694.005	0.0164565
694.083	0.0164821
694.161	0.0164229
694.239	0.0163716
694.317	0.0163410
694.396	0.0163446
694.474	0.0162144
694.552	0.0162103
694.630	0.0162379
694.708	0.0161324
694.786	0.0161888
694.864	0.0162914
694.942	0.0164231
695.021	0.0163081
695.099	0.0163898
695.177	0.0162170
695.255	0.0163520
695.333	0.0162195
695.411	0.0162574
695.489	0.0161988
695.567	0.0161922
695.646	0.0162285
695.724	0.0161924
695.802	0.0161357
695.880	0.0162093
695.958	0.0161868
696.036	0.0161776
696.114	0.0161930
696.192	0.0160543
696.271	0.0159606
696.349	0.0160295
696.427	0.0159467
696.505	0.0160120
696.583	0.0159918
696.661	0.0159892
696.739	0.0159304
696.817	0.0160789
696.896	0.0159534
696.974	0.0160796
697.052	0.0160067
697.130	0.0161012
697.208	0.0161669
697.286	0.0161452
697.364	0.0162086
697.442	0.0162836
697.521	0.0164243
697.599	0.0163678
697.677	0.0164260
697.755	0.0165823
697.833	0.0164621
697.911	0.0165266
697.989	0.0166779
698.067	0.0165223
698.146	0.0166068
698.224	0.0165483
698.302	0.0166264
698.380	0.0165295
698.458	0.0166257
698.536	0.0165971
698.614	0.0165227
698.692	0.0165759
698.771	0.0164092
698.849	0.0164006
698.927	0.0163416
699.005	0.0162620
699.083	0.0162823
699.161	0.0161367
699.239	0.0159431
699.317	0.0160093
699.396	0.0160804
699.474	0.0160120
699.552	0.0158160
699.630	0.0159045
699.708	0.0158049
699.786	0.0159442
699.864	0.0160051
699.942	0.0159245
700.021	0.0160862
700.099	0.0162001
700.177	0.0163451
700.255	0.0163224
700.333	0.0163441
700.411	0.0165174
700.489	0.0164293
700.567	0.0166045
700.646	0.0166207
700.724	0.0166164
700.802	0.0164455
700.880	0.0163956
700.958	0.0163158
701.036	0.0163173
701.114	0.0162057
701.192	0.0162682
701.271	0.0161499
701.349	0.0162505
701.427	0.0160085
701.505	0.0159634
701.583	0.0160410
701.661	0.0160623
701.739	0.0159344
701.817	0.0161509
701.896	0.0160867
701.974	0.0160168
702.052	0.0160403
702.130	0.0160718
702.208	0.0161285
702.286	0.0160480
702.364	0.0160371
702.442	0.0161771
702.521	0.0160815
702.599	0.0160299
702.677	0.0161192
702.755	0.0160303
702.833	0.0160478
702.911	0.0160913
702.989	0.0160059
703.067	0.0159923
703.146	0.0160732
703.224	0.0160808
703.302	0.0161570
703.380	0.0163167
703.458	0.0162999
703.536	0.0164633
703.614	0.0165011
703.692	0.0165693
703.771	0.0166122
703.849	0.0165133
703.927	0.0165413
704.005	0.0167002
704.083	0.0167796
704.161	0.0166208
704.239	0.0167010
704.317	0.0167404
704.396	0.0166350
704.474	0.0166861
704.552	0.0167542
704.630	0.0165578
704.708	0.0165852
704.786	0.0167536
704.864	0.0165670
704.942	0.0165359
705.021	0.0163641
705.099	0.0163998
705.177	0.0164560
705.255	0.0164220
705.333	0.0162683
705.411	0.0162863
705.489	0.0165351
705.567	0.0164173
705.646	0.0162547
705.724	0.0163836
705.802	0.0164733
705.880	0.0162634
705.958	0.0160735
706.036	0.0159430
706.114	0.0158540
706.192	0.0158302
706.271	0.0156239
706.349	0.0155762
706.427	0.0153627
706.505	0.0153584
706.583	0.0152947
706.661	0.0152750
706.739	0.0151265
706.817	0.0149689
706.896	0.0152877
706.974	0.0153531
707.052	0.0155445
707.130	0.0155692
707.208	0.0157369
707.286	0.0158800
707.364	0.0161110
707.442	0.0163642
707.521	0.0165965
707.599	0.0168065
707.677	0.0170674
707.755	0.0172708
707.833	0.0173572
707.911	0.0174131
707.989	0.0174844
708.067	0.0174072
708.146	0.0174183
708.224	0.0171356
708.302	0.0168083
708.380	0.0167482
708.458	0.0166281
708.536	0.0162206
708.614	0.0159887
708.692	0.0157042
708.771	0.0154594
708.849	0.0152524
708.927	0.0150056
709.005	0.0148853
709.083	0.0148219
709.161	0.0149003
709.239	0.0149665
709.317	0.0150327
709.396	0.0150542
709.474	0.0153217
709.552	0.0155538
709.630	0.0156193
709.708	0.0160964
709.786	0.0163416
709.864	0.0166160
709.942	0.0170574
710.021	0.0172002
710.099	0.0174544
710.177	0.0179379
710.255	0.0180805
710.333	0.0182526
710.411	0.0183060
710.489	0.0183497
710.567	0.0182863
710.646	0.0182262
710.724	0.0182359
710.802	0.0180135
710.880	0.0177887
710.958	0.0176180
711.036	0.0173883
711.114	0.0171803
711.192	0.0168786
711.271	0.0165859
711.349	0.0161621
711.427	0.0159124
711.505	0.0155896
711.583	0.0153123
711.661	0.0148537
711.739	0.0147424
711.817	0.0147195
711.896	0.0145232
711.974	0.0144095
712.052	0.0144431
712.130	0.0144807
712.208	0.0144801
712.286	0.0146523
712.364	0.0149808
712.442	0.0152313
712.521	0.0154139
712.599	0.0155649
712.677	0.0157879
712.755	0.0161678
712.833	0.0162632
712.911	0.0164082
712.989	0.0164340
713.067	0.0163515
713.146	0.0165147
713.224	0.0165764
713.302	0.0165230
713.380	0.0164182
713.458	0.0163297
713.536	0.0163663
713.614	0.0160538
713.692	0.0159995
713.771	0.0158758
713.849	0.0157603
713.927	0.0157709
714.005	0.0158254
714.083	0.0157373
714.161	0.0157650
714.239	0.0161253
714.317	0.0162134
714.396	0.0162030
714.474	0.0164354
714.552	0.0167446
714.630	0.0169104
714.708	0.0169488
714.786	0.0171873
714.864	0.0174006
714.942	0.0174765
715.021	0.0174591
715.099	0.0175879
715.177	0.0176867
715.255	0.0176068
715.333	0.0175380
715.411	0.0172810
715.489	0.0170998
715.567	0.0169352
715.646	0.0166875
715.724	0.0163309
715.802	0.0160931
715.880	0.0157129
715.958	0.0153795
716.036	0.0151104
716.114	0.0151134
716.192	0.0149384
716.271	0.0146790
716.349	0.0147716
716.427	0.0147320
716.505	0.0150684
716.583	0.0151616
716.661	0.0155869
716.739	0.0157538
716.817	0.0161221
716.896	0.0164774
716.974	0.0166729
717.052	0.0170836
717.130	0.0171001
717.208	0.0172205
717.286	0.0174851
717.364	0.0175191
717.442	0.0175743
717.521	0.0175912
717.599	0.0175798
717.677	0.0178188
717.755	0.0178510
717.833	0.0177647
717.911	0.0177381
717.989	0.0177865
718.067	0.0178545
718.146	0.0176832
718.224	0.0176850
718.302	0.0174995
718.380	0.0171136
718.458	0.0169199
718.536	0.0165030
718.614	0.0161316
718.692	0.0160272
718.771	0.0154613
718.849	0.0152217
718.927	0.0149308
719.005	0.0146361
719.083	0.0144152
719.161	0.0142601
719.239	0.0140503
719.317	0.0138911
719.396	0.0140695
719.474	0.0140076
719.552	0.0139684
719.630	0.0139006
719.708	0.0139867
719.786	0.0138521
719.864	0.0138614
719.942	0.0138962
720.021	0.0140136
720.099	0.0142021
720.177	0.0143163
720.255	0.0144006
720.333	0.0148201
720.411	0.0149758
720.489	0.0152143
720.567	0.0157333
720.646	0.0163422
720.724	0.0166141
720.802	0.0169976
720.880	0.0174404
720.958	0.0177908
721.036	0.0181238
721.114	0.0187296
721.192	0.0188225
721.271	0.0189574
721.349	0.0191857
721.427	0.0192583
721.505	0.0192143
721.583	0.0193865
721.661	0.0194135
721.739	0.0193023
721.817	0.0192400
721.896	0.0189270
721.974	0.0187491
722.052	0.0184512
722.130	0.0181600
722.208	0.0177569
722.286	0.0172723
722.364	0.0168329
722.442	0.0165166
722.521	0.0158935
722.599	0.0153483
722.677	0.0150334
722.755	0.0144414
722.833	0.0141434
722.911	0.0137327
722.989	0.0136030
723.067	0.0134231
723.146	0.0134623
723.224	0.0135257
723.302	0.0136855
723.380	0.0139315
723.458	0.0141084
723.536	0.0143526
723.614	0.0146049
723.692	0.0150365
723.771	0.0153388
723.849	0.0157642
723.927	0.0160725
724.005	0.0164261
724.083	0.0168864
724.161	0.0171741
724.239	0.0176099
724.317	0.0180470
724.396	0.0184076
724.474	0.0187409
724.552	0.0189249
724.630	0.0192789
724.708	0.0194300
724.786	0.0194279
724.864	0.0193869
724.942	0.0192036
725.021	0.0190968
725.099	0.0187609
725.177	0.0185513
725.255	0.0180236
725.333	0.0175426
725.411	0.0172347
725.489	0.0168883
725.567	0.0164970
725.646	0.0162180
725.724	0.0156992
725.802	0.0153488
725.880	0.0149799
725.958	0.0145106
726.036	0.0142934
726.114	0.0141624
726.192	0.0137852
726.271	0.0133598
726.349	0.0131396
726.427	0.0128241
726.505	0.0124987
726.583	0.0123666
726.661	0.0120763
726.739	0.0118022
726.817	0.0118709
726.896	0.0117527
726.974	0.0117641
727.052	0.0118882
727.130	0.0120886
727.208	0.0122560
727.286	0.0126537
727.364	0.0129988
727.442	0.0135287
727.521	0.0141880
727.599	0.0148641
727.677	0.0154024
727.755	0.0162130
727.833	0.0169330
727.911	0.0176338
727.989	0.0184947
728.067	0.0191318
728.146	0.0198615
728.224	0.0205026
728.302	0.0209658
728.380	0.0213867
728.458	0.0217502
728.536	0.0218874
728.614	0.0220863
728.692	0.0222485
728.771	0.0219405
728.849	0.0219080
728.927	0.0217090
729.005	0.0213959
729.083	0.0208594
729.161	0.0203468
729.239	0.0198965
729.317	0.0192648
729.396	0.0184821
729.474	0.0178059
729.552	0.0172086
729.630	0.0166827
729.708	0.0160202
729.786	0.0153426
729.864	0.0149483
729.942	0.0144398
730.021	0.0139677
730.099	0.0137795
730.177	0.0135527
730.255	0.0133195
730.333	0.0131721
730.411	0.0132909
730.489	0.0132176
730.567	0.0133372
730.646	0.0133791
730.724	0.0134699
730.802	0.0136847
730.880	0.0139619
730.958	0.0140143
731.036	0.0143774
731.114	0.0145451
731.192	0.0147404
731.271	0.0149590
731.349	0.0152497
731.427	0.0154218
731.505	0.0157848
731.583	0.0160946
731.661	0.0163707
731.739	0.0163338
731.817	0.0165953
731.896	0.0167460
731.974	0.0170860
732.052	0.0171296
732.130	0.0172160
732.208	0.0172932
732.286	0.0173834
732.364	0.0173506
732.442	0.0172968
732.521	0.0172340
732.599	0.0170686
732.677	0.0169459
732.755	0.0165778
732.833	0.0164001
732.911	0.0162642
732.989	0.0157835
733.067	0.0156796
733.146	0.0152026
733.224	0.0150089
733.302	0.0147710
733.380	0.0147790
733.458	0.0145249
733.536	0.0143839
733.614	0.0142451
733.692	0.0143867
733.771	0.0142893
733.849	0.0142195
733.927	0.0143878
734.005	0.0143970
734.083	0.0146175
734.161	0.0147051
734.239	0.0147957
734.317	0.0148570
734.396	0.0150948
734.474	0.0151598
734.552	0.0156880
734.630	0.0158617
734.708	0.0162226
734.786	0.0166567
734.864	0.0171367
734.942	0.0175719
735.021	0.0181406
735.099	0.0186123
735.177	0.0189290
735.255	0.0192372
735.333	0.0194028
735.411	0.0198860
735.489	0.0199996
735.567	0.0200641
735.646	0.0201146
735.724	0.0201306
735.802	0.0198668
735.880	0.0196471
735.958	0.0194315
736.036	0.0189890
736.114	0.0187303
736.192	0.0183034
736.271	0.0178271
736.349	0.0171509
736.427	0.0166776
736.505	0.0160683
736.583	0.0154604
736.661	0.0148994
736.739	0.0144519
736.817	0.0138370
736.896	0.0136176
736.974	0.0132986
737.052	0.0131926
737.130	0.0132682
737.208	0.0134437
737.286	0.0136106
737.364	0.0139883
737.442	0.0143816
737.521	0.0151973
737.599	0.0157022
737.677	0.0162145
737.755	0.0167504
737.833	0.0170683
737.911	0.0176077
737.989	0.0179523
738.067	0.0181265
738.146	0.0183148
738.224	0.0183385
738.302	0.0184541
738.380	0.0183425
738.458	0.0182635
738.536	0.0180896
738.614	0.0179683
738.692	0.0178488
738.771	0.0175547
738.849	0.0173738
738.927	0.0170918
739.005	0.0166481
739.083	0.0164030
739.161	0.0159270
739.239	0.0157341
739.317	0.0153787
739.396	0.0148116
739.474	0.0143414
739.552	0.0139859
739.630	0.0134045
739.708	0.0130907
739.786	0.0127346
739.864	0.0124450
739.942	0.0121582
740.021	0.0119882
740.099	0.0118915
740.177	0.0119301
740.255	0.0121010
740.333	0.0120655
740.411	0.0121945
740.489	0.0124990
740.567	0.0126193
740.646	0.0130941
740.724	0.0133661
740.802	0.0140502
740.880	0.0144979
740.958	0.0148296
741.036	0.0153394
741.114	0.0158691
741.192	0.0163760
741.271	0.0170700
741.349	0.0176477
741.427	0.0181939
741.505	0.0187340
741.583	0.0189619
741.661	0.0195827
741.739	0.0198475
741.817	0.0200249
741.896	0.0200546
741.974	0.0198951
742.052	0.0200835
742.130	0.0199487
742.208	0.0197332
742.286	0.0194864
742.364	0.0191933
742.442	0.0189216
742.521	0.0187242
742.599	0.0184933
742.677	0.0182423
742.755	0.0180421
742.833	0.0177572
742.911	0.0177182
742.989	0.0177220
743.067	0.0175077
743.146	0.0173953
743.224	0.0173215
743.302	0.0173474
743.380	0.0173134
743.458	0.0175266
743.536	0.0175826
743.614	0.0177628
743.692	0.0179138
743.771	0.0181459
743.849	0.0181164
743.927	0.0184161
744.005	0.0185326
744.083	0.0187415
744.161	0.0187473
744.239	0.0188067
744.317	0.0185053
744.396	0.0185170
744.474	0.0181911
744.552	0.0177412
744.630	0.0173288
744.708	0.0169014
744.786	0.0163926
744.864	0.0158281
744.942	0.0151365
745.021	0.0146545
745.099	0.0141029
745.177	0.0135734
745.255	0.0131635
745.333	0.0126081
745.411	0.0122726
745.489	0.0119003
745.567	0.0116274
745.646	0.0114370
745.724	0.0113100
745.802	0.0112770
745.880	0.0112288
745.958	0.0111808
746.036	0.0111431
746.114	0.0110993
746.192	0.0111951
746.271	0.0112037
746.349	0.0113641
746.427	0.0116136
746.505	0.0118174
746.583	0.0121194
746.661	0.0123954
746.739	0.0128612
746.817	0.0132701
746.896	0.0135946
746.974	0.0142587
747.052	0.0148239
747.130	0.0153823
747.208	0.0159075
747.286	0.0166038
747.364	0.0172467
747.442	0.0180296
747.521	0.0186410
747.599	0.0189377
747.677	0.0195653
747.755	0.0200168
747.833	0.0202448
747.911	0.0204750
747.989	0.0206620
748.067	0.0206877
748.146	0.0206497
748.224	0.0203481
748.302	0.0203186
748.380	0.0200898
748.458	0.0198056
748.536	0.0194817
748.614	0.0194583
748.692	0.0192918
748.771	0.0189742
748.849	0.0190196
748.927	0.0189157
749.005	0.0188045
749.083	0.0187333
749.161	0.0187568
749.239	0.0185692
749.317	0.0184625
749.396	0.0184744
749.474	0.0182480
749.552	0.0181283
749.630	0.0180643
749.708	0.0178353
749.786	0.0178048
749.864	0.0177054
749.942	0.0175493
750.021	0.0172177
750.099	0.0173617
750.177	0.0172440
750.255	0.0170892
750.333	0.0167295
750.411	0.0166096
750.489	0.0164761
750.567	0.0160911
750.646	0.0158951
750.724	0.0155357
750.802	0.0150935
750.880	0.0148054
750.958	0.0144854
751.036	0.0141737
751.114	0.0137833
751.192	0.0136901
751.271	0.0135075
751.349	0.0133704
751.427	0.0132127
751.505	0.0131068
751.583	0.0132874
751.661	0.0132773
751.739	0.0132081
751.817	0.0133486
751.896	0.0132887
751.974	0.0134354
752.052	0.0133076
752.130	0.0131853
752.208	0.0132696
752.286	0.0133950
752.364	0.0133923
752.442	0.0133662
752.521	0.0135844
752.599	0.0135795
752.677	0.0139369
752.755	0.0139868
752.833	0.0141587
752.911	0.0145327
752.989	0.0147154
753.067	0.0147232
753.146	0.0151530
753.224	0.0155135
753.302	0.0157655
753.380	0.0162872
753.458	0.0166641
753.536	0.0171145
753.614	0.0174926
753.692	0.0177718
753.771	0.0179651
753.849	0.0181481
753.927	0.0183983
754.005	0.0184737
754.083	0.0182705
754.161	0.0184361
754.239	0.0183044
754.317	0.0182914
754.396	0.0180773
754.474	0.0179148
754.552	0.0179356
754.630	0.0179173
754.708	0.0179693
754.786	0.0177341
754.864	0.0176604
754.942	0.0177005
755.021	0.0176548
755.099	0.0177065
755.177	0.0177348
755.255	0.0176380
755.333	0.0175951
755.411	0.0175512
755.489	0.0176913
755.567	0.0176887
755.646	0.0177641
755.724	0.0180673
755.802	0.0179231
755.880	0.0181095
755.958	0.0184135
756.036	0.0184977
756.114	0.0183241
756.192	0.0184824
756.271	0.0183284
756.349	0.0183337
756.427	0.0181094
756.505	0.0178869
756.583	0.0174382
756.661	0.0172347
756.739	0.0167608
756.817	0.0164784
756.896	0.0159807
756.974	0.0156943
757.052	0.0151732
757.130	0.0147839
757.208	0.0144994
757.286	0.0144049
757.364	0.0140639
757.442	0.0138701
757.521	0.0136745
757.599	0.0136420
757.677	0.0135678
757.755	0.0135696
757.833	0.0135335
757.911	0.0136292
757.989	0.0136008
758.067	0.0135226
758.146	0.0137177
758.224	0.0140231
758.302	0.0142060
758.380	0.0142449
758.458	0.0146790
758.536	0.0146696
758.614	0.0149047
758.692	0.0149503
758.771	0.0152923
758.849	0.0154881
758.927	0.0155329
759.005	0.0157192
759.083	0.0158949
759.161	0.0161366
759.239	0.0162556
759.317	0.0165094
759.396	0.0167967
759.474	0.0169779
759.552	0.0169978
759.630	0.0171491
759.708	0.0171844
759.786	0.0172955
759.864	0.0173454
759.942	0.0174216
760.021	0.0173260
760.099	0.0173864
760.177	0.0172616
760.255	0.0170310
760.333	0.0172483
760.411	0.0172339
760.489	0.0172008
760.567	0.0171133
760.646	0.0169732
760.724	0.0170717
760.802	0.0171645
760.880	0.0171701
760.958	0.0171597
761.036	0.0170718
761.114	0.0170933
761.192	0.0170727
761.271	0.0169759
761.349	0.0169435
761.427	0.0169200
761.505	0.0170024
761.583	0.0169890
761.661	0.0168864
761.739	0.0168752
761.817	0.0168951
761.896	0.0172213
761.974	0.0169426
762.052	0.0170119
762.130	0.0171357
762.208	0.0170567
762.286	0.0169769
762.364	0.0169444
762.442	0.0167743
762.521	0.0166063
762.599	0.0162868
762.677	0.0161557
762.755	0.0159300
762.833	0.0157239
762.911	0.0156145
762.989	0.0153759
763.067	0.0152622
763.146	0.0151307
763.224	0.0150800
763.302	0.0149255
763.380	0.0148461
763.458	0.0150309
763.536	0.0148386
763.614	0.0147668
763.692	0.0147446
763.771	0.0149111
763.849	0.0150428
763.927	0.0150414
764.005	0.0151169
764.083	0.0154727
764.161	0.0157740
764.239	0.0158602
764.317	0.0160049
764.396	0.0161291
764.474	0.0162536
764.552	0.0165912
764.630	0.0166534
764.708	0.0167155
764.786	0.0167854
764.864	0.0169890
764.942	0.0168896
765.021	0.0169400
765.099	0.0168899
765.177	0.0170047
765.255	0.0168803
765.333	0.0167107
765.411	0.0168583
765.489	0.0168539
765.567	0.0168785
765.646	0.0166413
765.724	0.0165884
765.802	0.0163383
765.880	0.0162271
765.958	0.0161361
766.036	0.0161629
766.114	0.0159792
766.192	0.0160316
766.271	0.0158662
766.349	0.0158910
766.427	0.0157600
766.505	0.0157349
766.583	0.0159192
766.661	0.0158984
766.739	0.0161349
766.817	0.0164002
766.896	0.0165775
766.974	0.0167792
767.052	0.0168238
767.130	0.0170041
767.208	0.0170112
767.286	0.0171502
767.364	0.0173122
767.442	0.0172978
767.521	0.0174377
767.599	0.0174269
767.677	0.0175027
767.755	0.0172820
767.833	0.0172408
767.911	0.0172556
767.989	0.0171287
768.067	0.0168501
768.146	0.0166459
768.224	0.0165558
768.302	0.0164088
768.380	0.0161326
768.458	0.0159768
768.536	0.0156045
768.614	0.0155616
768.692	0.0153973
768.771	0.0150826
768.849	0.0149178
768.927	0.0147443
769.005	0.0147565
769.083	0.0146284
769.161	0.0144374
769.239	0.0146348
769.317	0.0144936
769.396	0.0147074
769.474	0.0147760
769.552	0.0148600
769.630	0.0148278
769.708	0.0150089
769.786	0.0152357
769.864	0.0155199
769.942	0.0155761
770.021	0.0158901
770.099	0.0160992
770.177	0.0162418
770.255	0.0164341
770.333	0.0165401
770.411	0.0168577
770.489	0.0168765
770.567	0.0168690
770.646	0.0168615
770.724	0.0169239
770.802	0.0169482
770.880	0.0169083
770.958	0.0169672
771.036	0.0167829
771.114	0.0168865
771.192	0.0166955
771.271	0.0165704
771.349	0.0166269
771.427	0.0163854
771.505	0.0163494
771.583	0.0164215
771.661	0.0163824
771.739	0.0163841
771.817	0.0162965
771.896	0.0163517
771.974	0.0163811
772.052	0.0164149
772.130	0.0163782
772.208	0.0165092
772.286	0.0166179
772.364	0.0166772
772.442	0.0167525
772.521	0.0169263
772.599	0.0169640
772.677	0.0171409
772.755	0.0171773
772.833	0.0172940
772.911	0.0173615
772.989	0.0173611
773.067	0.0173586
773.146	0.0173562
773.224	0.0174609
773.302	0.0172243
773.380	0.0172659
773.458	0.0170403
773.536	0.0171506
773.614	0.0168245
773.692	0.0169202
773.771	0.0167358
773.849	0.0166007
773.927	0.0164714
774.005	0.0162608
774.083	0.0163077
774.161	0.0160304
774.239	0.0157577
774.317	0.0156660
774.396	0.0154898
774.474	0.0152206
774.552	0.0150446
774.630	0.0150675
774.708	0.0150220
774.786	0.0147918
774.864	0.0146793
774.942	0.0147639
775.021	0.0147227
775.099	0.0148441
775.177	0.0149796
775.255	0.0149562
775.333	0.0151299
775.411	0.0151987
775.489	0.0154006
775.567	0.0154577
775.646	0.0156898
775.724	0.0157709
775.802	0.0159504
775.880	0.0161002
775.958	0.0162591
776.036	0.0163317
776.114	0.0163625
776.192	0.0166864
776.271	0.0167281
776.349	0.0167706
776.427	0.0167492
776.505	0.0168636
776.583	0.0166595
776.661	0.0167095
776.739	0.0167093
776.817	0.0165808
776.896	0.0163422
776.974	0.0164685
777.052	0.0163509
777.130	0.0160604
777.208	0.0161002
777.286	0.0160028
777.364	0.0158025
777.442	0.0158221
777.521	0.0156856
777.599	0.0157996
777.677	0.0154404
777.755	0.0156586
777.833	0.0157166
777.911	0.0156497
777.989	0.0157111
778.067	0.0159369
778.146	0.0159369
778.224	0.0161596
778.302	0.0163925
778.380	0.0164981
778.458	0.0167536
778.536	0.0168276
778.614	0.0171592
778.692	0.0174312
778.771	0.0175776
778.849	0.0177034
778.927	0.0178705
779.005	0.0178285
779.083	0.0179223
779.161	0.0179494
779.239	0.0179783
779.317	0.0178702
779.396	0.0177687
779.474	0.0177322
779.552	0.0175306
779.630	0.0174326
779.708	0.0172317
779.786	0.0171700
779.864	0.0170108
779.942	0.0168487
780.021	0.0165713
780.099	0.0162765
780.177	0.0162383
780.255	0.0159309
780.333	0.0159130
780.411	0.0157140
780.489	0.0155238
780.567	0.0153983
780.646	0.0153960
780.724	0.0152591
780.802	0.0153068
780.880	0.0154001
780.958	0.0154237
781.036	0.0152720
781.114	0.0155408
781.192	0.0155513
781.271	0.0154797
781.349	0.0155727
781.427	0.0156129
781.505	0.0156690
781.583	0.0158604
781.661	0.0157586
781.739	0.0159024
781.817	0.0160220
781.896	0.0159121
781.974	0.0158808
782.052	0.0161308
782.130	0.0162088
782.208	0.0161835
782.286	0.0162908
782.364	0.0164798
782.442	0.0163200
782.521	0.0164310
782.599	0.0164271
782.677	0.0164235
782.755	0.0162830
782.833	0.0164978
782.911	0.0161407
782.989	0.0163152
783.067	0.0162479
783.146	0.0161790
783.224	0.0159526
783.302	0.0160869
783.380	0.0158810
783.458	0.0158268
783.536	0.0157618
783.614	0.0158851
783.692	0.0157251
783.771	0.0156190
783.849	0.0156328
783.927	0.0157275
784.005	0.0158327
784.083	0.0159450
784.161	0.0158798
784.239	0.0160274
784.317	0.0161631
784.396	0.0161047
784.474	0.0162288
784.552	0.0163290
784.630	0.0163451
784.708	0.0164624
784.786	0.0166447
784.864	0.0167619
784.942	0.0169098
785.021	0.0170080
785.099	0.0170049
785.177	0.0171273
785.255	0.0171937
785.333	0.0173189
785.411	0.0172576
785.489	0.0170141
785.567	0.0172641
785.646	0.0171169
785.724	0.0169174
785.802	0.0169370
785.880	0.0166223
785.958	0.0165176
786.036	0.0164262
786.114	0.0161617
786.192	0.0159818
786.271	0.0158101
786.349	0.0158297
786.427	0.0157246
786.505	0.0156517
786.583	0.0156947
786.661	0.0156234
786.739	0.0156313
786.817	0.0156877
786.896	0.0157752
786.974	0.0158248
787.052	0.0158814
787.130	0.0158494
787.208	0.0159830
787.286	0.0160455
787.364	0.0161639
787.442	0.0163071
787.521	0.0164180
787.599	0.0164832
787.677	0.0164576
787.755	0.0166641
787.833	0.0168112
787.911	0.0167888
787.989	0.0169377
788.067	0.0168275
788.146	0.0168705
788.224	0.0168382
788.302	0.0169379
788.380	0.0167327
788.458	0.0166180
788.536	0.0166481
788.614	0.0164460
788.692	0.0165671
788.771	0.0163053
788.849	0.0161028
788.927	0.0160703
789.005	0.0159860
789.083	0.0158266
789.161	0.0158087
789.239	0.0156310
789.317	0.0155864
789.396	0.0156247
789.474	0.0154369
789.552	0.0153915
789.630	0.0155097
789.708	0.0153695
789.786	0.0154054
789.864	0.0154390
789.942	0.0154691
790.021	0.0155614
790.099	0.0157500
790.177	0.0157854
790.255	0.0160585
790.333	0.0159727
790.411	0.0160033
790.489	0.0163457
790.567	0.0164352
790.646	0.0165520
790.724	0.0164719
790.802	0.0164795
790.880	0.0166454
790.958	0.0166001
791.036	0.0166963
791.114	0.0168581
791.192	0.0169111
791.271	0.0167389
791.349	0.0168365
791.427	0.0168304
791.505	0.0167870
791.583	0.0165620
791.661	0.0164860
791.739	0.0164502
791.817	0.0163405
791.896	0.0161996
791.974	0.0159237
792.052	0.0158049
792.130	0.0157679
792.208	0.0157385
792.286	0.0156989
792.364	0.0155584
792.442	0.0157045
792.521	0.0156800
792.599	0.0156780
792.677	0.0157702
792.755	0.0158381
792.833	0.0158937
792.911	0.0161214
792.989	0.0162859
793.067	0.0164536
793.146	0.0162925
793.224	0.0163926
793.302	0.0164370
793.380	0.0165983
793.458	0.0167293
793.536	0.0167365
793.614	0.0166478
793.692	0.0167969
793.771	0.0167941
793.849	0.0167377
793.927	0.0167335
794.005	0.0167138
794.083	0.0167007
794.161	0.0167439
794.239	0.0168023
794.317	0.0166188
794.396	0.0167462
794.474	0.0167658
794.552	0.0164910
794.630	0.0165086
794.708	0.0166734
794.786	0.0164808
794.864	0.0163558
794.942	0.0163358
795.021	0.0162860
795.099	0.0161811
795.177	0.0160590
795.255	0.0160680
795.333	0.0159792
795.411	0.0158533
795.489	0.0159886
795.567	0.0157499
795.646	0.0158085
795.724	0.0158558
795.802	0.0157964
795.880	0.0159127
795.958	0.0159196
796.036	0.0159972
796.114	0.0160907
796.192	0.0160882
796.271	0.0162803
796.349	0.0163928
796.427	0.0165192
796.505	0.0164452
796.583	0.0165081
796.661	0.0165966
796.739	0.0167690
796.817	0.0167181
796.896	0.0168896
796.974	0.0166721
797.052	0.0167023
797.130	0.0166356
797.208	0.0166267
797.286	0.0166849
797.364	0.0164291
797.442	0.0164507
797.521	0.0164219
797.599	0.0163467
797.677	0.0162219
797.755	0.0161169
797.833	0.0161106
797.911	0.0159966
797.989	0.0159198
798.067	0.0157617
798.146	0.0157604
798.224	0.0155750
798.302	0.0155997
798.380	0.0157084
798.458	0.0157180
798.536	0.0157298
798.614	0.0156606
798.692	0.0157147
798.771	0.0157547
798.849	0.0156940
798.927	0.0158012
799.005	0.0158817
799.083	0.0160289
799.161	0.0161108
799.239	0.0162177
799.317	0.0162615
799.396	0.0164729
799.474	0.0165442
799.552	0.0164740
799.630	0.0166983
799.708	0.0168169
799.786	0.0167956
799.864	0.0167612
799.942	0.0168073
800.021	0.0167923
800.099	0.0169063
800.177	0.0167599
800.255	0.0167719
800.333	0.0167874
800.411	0.0167662
800.489	0.0165672
800.567	0.0166327
800.646	0.0164769
800.724	0.0163686
800.802	0.0164771
800.880	0.0162733
800.958	0.0161540
801.036	0.0160751
801.114	0.0162409
801.192	0.0161132
801.271	0.0162273
801.349	0.0161395
801.427	0.0162831
801.505	0.0161672
801.583	0.0162481
801.661	0.0161286
801.739	0.0163033
801.817	0.0163077
801.896	0.0164122
801.974	0.0163549
802.052	0.0163229
802.130	0.0163873
802.208	0.0165073
802.286	0.0162449
802.364	0.0162336
802.442	0.0163364
802.521	0.0163853
802.599	0.0164288
802.677	0.0163402
802.755	0.0163057
802.833	0.0163930
802.911	0.0163107
802.989	0.0162451
803.067	0.0165202
803.146	0.0165461
803.224	0.0164553
803.302	0.0165072
803.380	0.0165046
803.458	0.0164800
803.536	0.0163552
803.614	0.0162816
803.692	0.0163725
803.771	0.0164008
803.849	0.0163227
803.927	0.0164193
804.005	0.0161713
804.083	0.0161333
804.161	0.0161398
804.239	0.0160812
804.317	0.0160588
804.396	0.0160016
804.474	0.0159611
804.552	0.0159473
804.630	0.0159695
804.708	0.0160497
804.786	0.0159586
804.864	0.0159436
804.942	0.0159650
805.021	0.0159325
805.099	0.0159394
805.177	0.0162167
805.255	0.0161222
805.333	0.0160059
805.411	0.0162933
805.489	0.0162055
805.567	0.0163743
805.646	0.0163252
805.724	0.0164875
805.802	0.0164381
805.880	0.0163723
805.958	0.0164608
806.036	0.0164331
806.114	0.0164801
806.192	0.0164353
806.271	0.0164232
806.349	0.0165005
806.427	0.0164014
806.505	0.0163360
806.583	0.0163448
806.661	0.0163455
806.739	0.0163787
806.817	0.0162482
806.896	0.0161266
806.974	0.0162159
807.052	0.0162079
807.130	0.0160297
807.208	0.0158613
807.286	0.0158889
807.364	0.0159563
807.442	0.0159243
807.521	0.0159613
807.599	0.0158746
807.677	0.0159946
807.755	0.0157462
807.833	0.0159604
807.911	0.0160591
807.989	0.0160594
808.067	0.0161528
808.146	0.0162480
808.224	0.0163017
808.302	0.0162861
808.380	0.0164247
808.458	0.0165193
808.536	0.0166415
808.614	0.0165804
808.692	0.0166679
808.771	0.0166942
808.849	0.0166443
808.927	0.0167191
809.005	0.0168034
809.083	0.0167082
809.161	0.0165673
809.239	0.0164146
809.317	0.0164472
809.396	0.0164454
809.474	0.0163861
809.552	0.0163160
809.630	0.0163521
809.708	0.0162708
809.786	0.0161400
809.864	0.0160677
809.942	0.0160936
810.021	0.0159834
810.099	0.0160224
810.177	0.0162005
810.255	0.0160667
810.333	0.0160986
810.411	0.0159959
810.489	0.0161326
810.567	0.0160650
810.646	0.0160532
810.724	0.0160139
810.802	0.0161041
810.880	0.0161533
810.958	0.0161096
811.036	0.0163036
811.114	0.0162302
811.192	0.0162605
811.271	0.0163836
811.349	0.0164501
811.427	0.0163438
811.505	0.0164828
811.583	0.0166223
811.661	0.0164772
811.739	0.0165036
811.817	0.0165672
811.896	0.0165339
811.974	0.0164445
812.052	0.0163729
812.130	0.0162753
812.208	0.0162262
812.286	0.0162368
812.364	0.0162730
812.442	0.0161960
812.521	0.0159645
812.599	0.0160372
812.677	0.0159988
812.755	0.0158655
812.833	0.0158831
812.911	0.0159745
812.989	0.0158556
813.067	0.0159294
813.146	0.0158646
813.224	0.0159493
813.302	0.0160242
813.380	0.0160435
813.458	0.0159569
813.536	0.0160412
813.614	0.0160402
813.692	0.0161872
813.771	0.0163439
813.849	0.0163865
813.927	0.0163474
814.005	0.0162957
814.083	0.0163657
814.161	0.0163853
814.239	0.0165973
814.317	0.0165403
814.396	0.0166145
814.474	0.0167435
814.552	0.0165434
814.630	0.0166534
814.708	0.0166113
814.786	0.0166554
814.864	0.0168066
814.942	0.0166512
815.021	0.0165348
815.099	0.0165298
815.177	0.0164627
815.255	0.0163308
815.333	0.0164056
815.411	0.0161470
815.489	0.0159743
815.567	0.0159995
815.646	0.0158974
815.724	0.0157413
815.802	0.0158212
815.880	0.0156878
815.958	0.0155312
816.036	0.0155632
816.114	0.0155222
816.192	0.0155503
816.271	0.0155262
816.349	0.0155657
816.427	0.0155245
816.505	0.0158052
816.583	0.0155647
816.661	0.0157102
816.739	0.0158976
816.817	0.0158967
816.896	0.0162217
816.974	0.0163515
817.052	0.0163295
817.130	0.0165987
817.208	0.0165669
817.286	0.0167545
817.364	0.0169582
817.442	0.0169924
817.521	0.0169233
817.599	0.0168652
817.677	0.0169819
817.755	0.0168600
817.833	0.0169328
817.911	0.0170993
817.989	0.0168150
818.067	0.0166451
818.146	0.0167121
818.224	0.0166373
818.302	0.0165162
818.380	0.0164401
818.458	0.0162868
818.536	0.0163943
818.614	0.0161449
818.692	0.0162684
818.771	0.0159730
818.849	0.0159572
818.927	0.0159921
819.005	0.0158285
819.083	0.0158076
819.161	0.0160487
819.239	0.0159611
819.317	0.0159064
819.396	0.0160148
819.474	0.0160384
819.552	0.0161633
819.630	0.0161582
819.708	0.0161121
819.786	0.0162484
819.864	0.0162241
819.942	0.0160988
820.021	0.0163129
820.099	0.0162931
820.177	0.0161865
820.255	0.0163243
820.333	0.0164126
820.411	0.0162303
820.489	0.0164111
820.567	0.0162409
820.646	0.0162088
820.724	0.0164824
820.802	0.0162450
820.880	0.0164122
820.958	0.0161528
821.036	0.0162083
821.114	0.0162462
821.192	0.0161391
821.271	0.0161095
821.349	0.0162245
821.427	0.0162501
821.505	0.0161809
821.583	0.0162164
821.661	0.0161473
821.739	0.0162532
821.817	0.0162029
821.896	0.0161787
821.974	0.0161758
822.052	0.0162929
822.130	0.0163203
822.208	0.0163403
822.286	0.0162981
822.364	0.0162237
822.442	0.0160911
822.521	0.0162611
822.599	0.0161772
822.677	0.0160156
822.755	0.0161243
822.833	0.0161665
822.911	0.0161742
822.989	0.0161139
823.067	0.0162538
823.146	0.0161329
823.224	0.0160765
823.302	0.0159787
823.380	0.0161107
823.458	0.0161425
823.536	0.0160596
823.614	0.0160679
823.692	0.0159595
823.771	0.0159368
823.849	0.0159339
823.927	0.0160776
824.005	0.0161081
824.083	0.0159809
824.161	0.0159502
824.239	0.0159173
824.317	0.0159242
824.396	0.0160275
824.474	0.0159746
824.552	0.0158308
824.630	0.0161514
824.708	0.0160643
824.786	0.0162574
824.864	0.0162633
824.942	0.0163341
825.021	0.0163965
825.099	0.0164894
825.177	0.0165778
825.255	0.0166634
825.333	0.0165981
825.411	0.0168061
825.489	0.0168221
825.567	0.0169339
825.646	0.0170161
825.724	0.0170306
825.802	0.0169076
825.880	0.0170312
825.958	0.0170078
826.036	0.0168301
826.114	0.0167869
826.192	0.0167400
826.271	0.0169004
826.349	0.0166898
826.427	0.0166820
826.505	0.0165756
826.583	0.0163964
826.661	0.0164098
826.739	0.0162535
826.817	0.0160837
826.896	0.0160548
826.974	0.0161299
827.052	0.0159553
827.130	0.0158347
827.208	0.0157376
827.286	0.0158634
827.364	0.0158208
827.442	0.0156347
827.521	0.0155719
827.599	0.0154749
827.677	0.0156544
827.755	0.0154808
827.833	0.0156562
827.911	0.0154787
827.989	0.0155143
828.067	0.0155792
828.146	0.0156628
828.224	0.0157688
828.302	0.0157347
828.380	0.0158675
828.458	0.0159203
828.536	0.0160317
828.614	0.0160120
828.692	0.0161028
828.771	0.0162840
828.849	0.0163156
828.927	0.0162676
829.005	0.0163763
829.083	0.0162942
829.161	0.0163199
829.239	0.0162065
829.317	0.0164169
829.396	0.0164188
829.474	0.0163345
829.552	0.0163318
829.630	0.0162502
829.708	0.0163757
829.786	0.0163418
829.864	0.0163596
829.942	0.0162448
830.021	0.0162783
830.099	0.0163850
830.177	0.0161840
830.255	0.0160434
830.333	0.0161414
830.411	0.0162110
830.489	0.0161661
830.567	0.0160699
830.646	0.0161542
830.724	0.0161211
830.802	0.0161665
830.880	0.0162086
830.958	0.0162134
831.036	0.0161856
831.114	0.0162367
831.192	0.0163076
831.271	0.0163378
831.349	0.0163759
831.427	0.0163898
831.505	0.0164861
831.583	0.0165816
831.661	0.0165804
831.739	0.0165615
831.817	0.0164412
831.896	0.0166086
831.974	0.0166011
832.052	0.0164319
832.130	0.0166595
832.208	0.0165140
832.286	0.0164703
832.364	0.0163906
832.442	0.0162617
832.521	0.0162426
832.599	0.0162302
832.677	0.0163486
832.755	0.0162914
832.833	0.0162430
832.911	0.0161856
832.989	0.0161781
833.067	0.0161224
833.146	0.0161198
833.224	0.0160336
833.302	0.0161469
833.380	0.0160600
833.458	0.0161816
833.536	0.0162172
833.614	0.0162574
833.692	0.0161444
833.771	0.0164380
833.849	0.0165254
833.927	0.0164404
834.005	0.0163702
834.083	0.0164333
834.161	0.0163618
834.239	0.0164407
834.317	0.0164543
834.396	0.0164505
834.474	0.0163882
834.552	0.0163631
834.630	0.0164040
834.708	0.0163332
834.786	0.0162315
834.864	0.0162372
834.942	0.0161155
835.021	0.0159971
835.099	0.0158959
835.177	0.0159042
835.255	0.0159261
835.333	0.0158166
835.411	0.0158497
835.489	0.0159207
835.567	0.0159374
835.646	0.0158402
835.724	0.0157791
835.802	0.0159087
835.880	0.0158815
835.958	0.0161703
836.036	0.0160439
836.114	0.0161792
836.192	0.0161044
836.271	0.0161642
836.349	0.0160511
836.427	0.0160874
836.505	0.0162353
836.583	0.0161340
836.661	0.0160743
836.739	0.0161625
836.817	0.0160449
836.896	0.0159094
836.974	0.0159491
837.052	0.0161792
837.130	0.0159756
837.208	0.0158951
837.286	0.0159851
837.364	0.0160902
837.442	0.0161686
837.521	0.0161591
837.599	0.0161315
837.677	0.0162270
837.755	0.0164880
837.833	0.0162197
837.911	0.0163892
837.989	0.0165446
838.067	0.0164408
838.146	0.0165756
838.224	0.0166920
838.302	0.0166730
838.380	0.0166724
838.458	0.0167290
838.536	0.0166158
838.614	0.0168092
838.692	0.0167598
838.771	0.0167161
838.849	0.0166734
838.927	0.0167640
839.005	0.0168211
839.083	0.0168450
839.161	0.0166363
839.239	0.0165209
839.317	0.0167599
839.396	0.0166168
839.474	0.0165140
839.552	0.0164139
839.630	0.0163758
839.708	0.0163911
839.786	0.0164876
839.864	0.0163586
839.942	0.0164219
840.021	0.0163716
840.099	0.0164067
840.177	0.0164493
840.255	0.0162786
840.333	0.0161485
840.411	0.0162669
840.489	0.0163520
840.567	0.0164076
840.646	0.0163230
840.724	0.0161202
840.802	0.0161095
840.880	0.0161561
840.958	0.0160782
841.036	0.0160268
841.114	0.0160223
841.192	0.0158001
841.271	0.0158709
841.349	0.0158441
841.427	0.0157822
841.505	0.0157716
841.583	0.0155872
841.661	0.0156930
841.739	0.0156657
841.817	0.0156817
841.896	0.0157616
841.974	0.0156766
842.052	0.0157487
842.130	0.0158378
842.208	0.0157436
842.286	0.0157597
842.364	0.0157393
842.442	0.0159394
842.521	0.0157127
842.599	0.0159582
842.677	0.0161557
842.755	0.0160406
842.833	0.0160926
842.911	0.0160939
842.989	0.0160062
843.067	0.0159498
843.146	0.0160355
843.224	0.0161427
843.302	0.0160049
843.380	0.0161335
843.458	0.0160485
843.536	0.0161908
843.614	0.0161283
843.692	0.0160274
843.771	0.0162989
843.849	0.0162911
843.927	0.0163066
844.005	0.0163114
844.083	0.0163708
844.161	0.0164394
844.239	0.0166344
844.317	0.0166714
844.396	0.0167202
844.474	0.0167859
844.552	0.0169125
844.630	0.0168882
844.708	0.0169461
844.786	0.0169542
844.864	0.0169041
844.942	0.0168491
845.021	0.0168883
845.099	0.0169030
845.177	0.0169605
845.255	0.0167820
845.333	0.0166070
845.411	0.0167248
845.489	0.0166804
845.567	0.0166573
845.646	0.0166154
845.724	0.0164918
845.802	0.0163321
845.880	0.0164635
845.958	0.0163787
846.036	0.0163260
846.114	0.0162897
846.192	0.0161945
846.271	0.0160774
846.349	0.0161367
846.427	0.0160851
846.505	0.0159931
846.583	0.0159151
846.661	0.0159565
846.739	0.0158255
846.817	0.0159317
846.896	0.0159978
846.974	0.0158972
847.052	0.0159539
847.130	0.0159409
847.208	0.0159002
847.286	0.0159955
847.364	0.0159872
847.442	0.0159100
847.521	0.0158751
847.599	0.0159654
847.677	0.0159538
847.755	0.0158402
847.833	0.0159186
847.911	0.0158768
847.989	0.0160017
848.067	0.0158694
848.146	0.0158480
848.224	0.0158324
848.302	0.0158850
848.380	0.0158500
848.458	0.0157935
848.536	0.0155733
848.614	0.0156740
848.692	0.0156628
848.771	0.0157373
848.849	0.0156718
848.927	0.0155408
849.005	0.0154240
849.083	0.0156812
849.161	0.0157629
849.239	0.0158181
849.317	0.0157748
849.396	0.0158871
849.474	0.0157227
849.552	0.0159544
849.630	0.0160918
849.708	0.0162592
849.786	0.0163150
849.864	0.0162083
849.942	0.0162662
850.021	0.0165192
850.099	0.0163835
850.177	0.0165195
850.255	0.0165695
850.333	0.0166690
850.411	0.0165487
850.489	0.0165746
850.567	0.0166746
850.646	0.0166662
850.724	0.0167402
850.802	0.0169080
850.880	0.0168746
850.958	0.0168945
851.036	0.0169115
851.114	0.0168114
851.192	0.0169225
851.271	0.0168321
851.349	0.0168056
851.427	0.0168668
851.505	0.0168321
851.583	0.0167639
851.661	0.0166464
851.739	0.0166685
851.817	0.0166402
851.896	0.0165844
851.974	0.0164388
852.052	0.0164619
852.130	0.0164341
852.208	0.0163082
852.286	0.0163968
852.364	0.0162895
852.442	0.0162079
852.521	0.0161959
852.599	0.0162366
852.677	0.0162032
852.755	0.0163542
852.833	0.0162179
852.911	0.0161345
852.989	0.0161052
853.067	0.0158791
853.146	0.0158566
853.224	0.0158364
853.302	0.0159313
853.380	0.0158617
853.458	0.0158809
853.536	0.0159669
853.614	0.0157823
853.692	0.0159303
853.771	0.0159386
853.849	0.0159403
853.927	0.0158993
854.005	0.0158997
854.083	0.0159054
854.161	0.0160555
854.239	0.0158540
854.317	0.0158611
854.396	0.0160645
854.474	0.0160201
854.552	0.0159761
854.630	0.0159011
854.708	0.0160253
854.786	0.0159023
854.864	0.0159719
854.942	0.0159258
855.021	0.0158741
855.099	0.0160405
855.177	0.0160069
855.255	0.0160594
855.333	0.0161830
855.411	0.0160945
855.489	0.0161101
855.567	0.0161604
855.646	0.0162806
855.724	0.0162644
855.802	0.0162157
855.880	0.0163632
855.958	0.0164321
856.036	0.0164390
856.114	0.0162589
856.192	0.0165229
856.271	0.0165977
856.349	0.0165313
856.427	0.0166080
856.505	0.0166824
856.583	0.0166879
856.661	0.0167242
856.739	0.0166761
856.817	0.0166173
856.896	0.0166898
856.974	0.0166151
857.052	0.0165545
857.130	0.0167020
857.208	0.0165088
857.286	0.0165134
857.364	0.0164411
857.442	0.0163430
857.521	0.0163969
857.599	0.0164636
857.677	0.0161887
857.755	0.0163149
857.833	0.0162856
857.911	0.0162397
857.989	0.0164081
858.067	0.0163622
858.146	0.0162103
858.224	0.0163938
858.302	0.0163087
858.380	0.0163436
858.458	0.0163890
858.536	0.0163736
858.614	0.0164333
858.692	0.0163976
858.771	0.0164146
858.849	0.0163655
858.927	0.0164493
859.005	0.0163471
859.083	0.0163457
859.161	0.0163153
859.239	0.0163945
859.317	0.0161903
859.396	0.0161272
859.474	0.0161005
859.552	0.0161240
859.630	0.0161102
859.708	0.0161080
859.786	0.0160590
859.864	0.0159746
859.942	0.0159172
860.021	0.0158057
860.099	0.0159846
860.177	0.0158989
860.255	0.0158956
860.333	0.0158051
860.411	0.0158490
860.489	0.0159536
860.567	0.0158760
860.646	0.0158683
860.724	0.0159413
860.802	0.0159055
860.880	0.0159214
860.958	0.0160043
861.036	0.0161857
861.114	0.0161525
861.192	0.0162099
861.271	0.0162270
861.349	0.0160899
861.427	0.0163124
861.505	0.0164332
861.583	0.0165591
861.661	0.0163441
861.739	0.0163099
861.817	0.0164228
861.896	0.0164799
861.974	0.0164919
862.052	0.0164761
862.130	0.0163863
862.208	0.0161443
862.286	0.0163153
862.364	0.0164567
862.442	0.0162871
862.521	0.0161597
862.599	0.0162596
862.677	0.0161763
862.755	0.0162699
862.833	0.0163758
862.911	0.0162821
862.989	0.0163259
863.067	0.0162539
863.146	0.0163235
863.224	0.0162750
863.302	0.0164590
863.380	0.0163683
863.458	0.0162402
863.536	0.0163389
863.614	0.0161942
863.692	0.0162360
863.771	0.0160970
863.849	0.0160916
863.927	0.0162820
864.005	0.0162883
864.083	0.0162191
864.161	0.0162189
864.239	0.0163437
864.317	0.0162328
864.396	0.0162504
864.474	0.0162663
864.552	0.0162725
864.630	0.0163070
864.708	0.0163118
864.786	0.0164659
864.864	0.0164116
864.942	0.0163975
865.021	0.0164648
865.099	0.0163391
865.177	0.0164114
865.255	0.0165085
865.333	0.0162977
865.411	0.0163233
865.489	0.0162033
865.567	0.0163351
865.646	0.0163396
865.724	0.0160951
865.802	0.0162988
865.880	0.0162066
865.958	0.0161778
866.036	0.0159867
866.114	0.0161254
866.192	0.0160741
866.271	0.0160751
866.349	0.0160785
866.427	0.0159370
866.505	0.0159879
866.583	0.0160352
866.661	0.0160466
866.739	0.0159902
866.817	0.0159455
866.896	0.0159847
866.974	0.0159510
867.052	0.0160544
867.130	0.0160648
867.208	0.0161497
867.286	0.0160929
867.364	0.0162141
867.442	0.0163192
867.521	0.0161959
867.599	0.0163186
867.677	0.0162679
867.755	0.0164648
867.833	0.0164586
867.911	0.0163888
867.989	0.0163458
868.067	0.0163187
868.146	0.0165343
868.224	0.0162855
868.302	0.0163683
868.380	0.0163978
868.458	0.0163993
868.536	0.0165473
868.614	0.0164960
868.692	0.0163849
868.771	0.0163554
868.849	0.0163612
868.927	0.0162926
869.005	0.0162759
869.083	0.0164076
869.161	0.0163090
869.239	0.0162298
869.317	0.0163301
869.396	0.0163022
869.474	0.0161011
869.552	0.0161169
869.630	0.0161887
869.708	0.0162511
869.786	0.0162229
869.864	0.0162672
869.942	0.0162013
