06/03/2022	15:51:57	Ver.	4.1	UNKNOWN
Optical Delay	550.020508	Delta X		0.078125	Sweeps	1	Scan Rate	0/0
Coordinates	Axis 1	NaN	Axis 2	NaN	Axis 3	NaN	Axis 4	NaN	Axis 5	NaN	Axis 6	0.000000
TX Power	0.000000	RX Power	0.000000

550.021	0.0168137
550.099	0.0168277
550.177	0.0166631
550.255	0.0167106
550.333	0.0168974
550.411	0.0167014
550.489	0.0167662
550.567	0.0168254
550.646	0.0167231
550.724	0.0167863
550.802	0.0167439
550.880	0.0167475
550.958	0.0167135
551.036	0.0166637
551.114	0.0167512
551.192	0.0169740
551.271	0.0167874
551.349	0.0168448
551.427	0.0166769
551.505	0.0167142
551.583	0.0169211
551.661	0.0167140
551.739	0.0167751
551.817	0.0169093
551.896	0.0167326
551.974	0.0167999
552.052	0.0168563
552.130	0.0167545
552.208	0.0168668
552.286	0.0168388
552.364	0.0168672
552.442	0.0168022
552.521	0.0167399
552.599	0.0168876
552.677	0.0168399
552.755	0.0168155
552.833	0.0167883
552.911	0.0167783
552.989	0.0170061
553.067	0.0168207
553.146	0.0168691
553.224	0.0167995
553.302	0.0169063
553.380	0.0169188
553.458	0.0169388
553.536	0.0168391
553.614	0.0168753
553.692	0.0167844
553.771	0.0168433
553.849	0.0167410
553.927	0.0169393
554.005	0.0168916
554.083	0.0168069
554.161	0.0168915
554.239	0.0169579
554.317	0.0167628
554.396	0.0170253
554.474	0.0168987
554.552	0.0168777
554.630	0.0168708
554.708	0.0168532
554.786	0.0167626
554.864	0.0170034
554.942	0.0170499
555.021	0.0168507
555.099	0.0167254
555.177	0.0168769
555.255	0.0168664
555.333	0.0168895
555.411	0.0169038
555.489	0.0169189
555.567	0.0169399
555.646	0.0167544
555.724	0.0167908
555.802	0.0168850
555.880	0.0168697
555.958	0.0168415
556.036	0.0168275
556.114	0.0168122
556.192	0.0168746
556.271	0.0167959
556.349	0.0167818
556.427	0.0168740
556.505	0.0169778
556.583	0.0168769
556.661	0.0168295
556.739	0.0168872
556.817	0.0169155
556.896	0.0168528
556.974	0.0168758
557.052	0.0169035
557.130	0.0168515
557.208	0.0168401
557.286	0.0168185
557.364	0.0169669
557.442	0.0169071
557.521	0.0170476
557.599	0.0167555
557.677	0.0167359
557.755	0.0168981
557.833	0.0169591
557.911	0.0169278
557.989	0.0168785
558.067	0.0168111
558.146	0.0168884
558.224	0.0168135
558.302	0.0168244
558.380	0.0169141
558.458	0.0167863
558.536	0.0167919
558.614	0.0168933
558.692	0.0168655
558.771	0.0168700
558.849	0.0168697
558.927	0.0168382
559.005	0.0168681
559.083	0.0169231
559.161	0.0169101
559.239	0.0167947
559.317	0.0168681
559.396	0.0169153
559.474	0.0170012
559.552	0.0167357
559.630	0.0169608
559.708	0.0168103
559.786	0.0169012
559.864	0.0170190
559.942	0.0167471
560.021	0.0168400
560.099	0.0168792
560.177	0.0169613
560.255	0.0168355
560.333	0.0169732
560.411	0.0170832
560.489	0.0169171
560.567	0.0168987
560.646	0.0169341
560.724	0.0170229
560.802	0.0169244
560.880	0.0168766
560.958	0.0169450
561.036	0.0168533
561.114	0.0170446
561.192	0.0170222
561.271	0.0168013
561.349	0.0170369
561.427	0.0170255
561.505	0.0168707
561.583	0.0169144
561.661	0.0170341
561.739	0.0168889
561.817	0.0168893
561.896	0.0168848
561.974	0.0170486
562.052	0.0169505
562.130	0.0168764
562.208	0.0169429
562.286	0.0168049
562.364	0.0169561
562.442	0.0169450
562.521	0.0169350
562.599	0.0168495
562.677	0.0169225
562.755	0.0169902
562.833	0.0169308
562.911	0.0168768
562.989	0.0168735
563.067	0.0168900
563.146	0.0167719
563.224	0.0169048
563.302	0.0169321
563.380	0.0169573
563.458	0.0169868
563.536	0.0168206
563.614	0.0168670
563.692	0.0168649
563.771	0.0168409
563.849	0.0168807
563.927	0.0167953
564.005	0.0169998
564.083	0.0168903
564.161	0.0167490
564.239	0.0168500
564.317	0.0167905
564.396	0.0168140
564.474	0.0168569
564.552	0.0167650
564.630	0.0170625
564.708	0.0170702
564.786	0.0168865
564.864	0.0169122
564.942	0.0169239
565.021	0.0168184
565.099	0.0168176
565.177	0.0168819
565.255	0.0168133
565.333	0.0167791
565.411	0.0168148
565.489	0.0169373
565.567	0.0169022
565.646	0.0167378
565.724	0.0168156
565.802	0.0168621
565.880	0.0168768
565.958	0.0168848
566.036	0.0169791
566.114	0.0167361
566.192	0.0169287
566.271	0.0169330
566.349	0.0167567
566.427	0.0167392
566.505	0.0168698
566.583	0.0168781
566.661	0.0170471
566.739	0.0168786
566.817	0.0167936
566.896	0.0167345
566.974	0.0167683
567.052	0.0168124
567.130	0.0169871
567.208	0.0168733
567.286	0.0168015
567.364	0.0167233
567.442	0.0168700
567.521	0.0168990
567.599	0.0167641
567.677	0.0167528
567.755	0.0168526
567.833	0.0168540
567.911	0.0167239
567.989	0.0167645
568.067	0.0169426
568.146	0.0168399
568.224	0.0169872
568.302	0.0169070
568.380	0.0168757
568.458	0.0168593
568.536	0.0167773
568.614	0.0168316
568.692	0.0168229
568.771	0.0168142
568.849	0.0168245
568.927	0.0168694
569.005	0.0168746
569.083	0.0167501
569.161	0.0167809
569.239	0.0169450
569.317	0.0169740
569.396	0.0167892
569.474	0.0167535
569.552	0.0167291
569.630	0.0168201
569.708	0.0167621
569.786	0.0168599
569.864	0.0168369
569.942	0.0167648
570.021	0.0168739
570.099	0.0169541
570.177	0.0168434
570.255	0.0167699
570.333	0.0168758
570.411	0.0169377
570.489	0.0169250
570.567	0.0167372
570.646	0.0167345
570.724	0.0169291
570.802	0.0169167
570.880	0.0168299
570.958	0.0167526
571.036	0.0168772
571.114	0.0166467
571.192	0.0167718
571.271	0.0168685
571.349	0.0169818
571.427	0.0168888
571.505	0.0168349
571.583	0.0167125
571.661	0.0168475
571.739	0.0168895
571.817	0.0169760
571.896	0.0169682
571.974	0.0168407
572.052	0.0167889
572.130	0.0167497
572.208	0.0168320
572.286	0.0168393
572.364	0.0169041
572.442	0.0169012
572.521	0.0168098
572.599	0.0168604
572.677	0.0167822
572.755	0.0168816
572.833	0.0168045
572.911	0.0168848
572.989	0.0168362
573.067	0.0169882
573.146	0.0168353
573.224	0.0167753
573.302	0.0169135
573.380	0.0168868
573.458	0.0168849
573.536	0.0169061
573.614	0.0168529
573.692	0.0168577
573.771	0.0169135
573.849	0.0169633
573.927	0.0168927
574.005	0.0168739
574.083	0.0168954
574.161	0.0169784
574.239	0.0168467
574.317	0.0169249
574.396	0.0168971
574.474	0.0168906
574.552	0.0168447
574.630	0.0167757
574.708	0.0169006
574.786	0.0167016
574.864	0.0168105
574.942	0.0168779
575.021	0.0168352
575.099	0.0168269
575.177	0.0168557
575.255	0.0168451
575.333	0.0168173
575.411	0.0168759
575.489	0.0168704
575.567	0.0169245
575.646	0.0169286
575.724	0.0169386
575.802	0.0167876
575.880	0.0168853
575.958	0.0168576
576.036	0.0170103
576.114	0.0166738
576.192	0.0167818
576.271	0.0168436
576.349	0.0168527
576.427	0.0168976
576.505	0.0168847
576.583	0.0168144
576.661	0.0168083
576.739	0.0168433
576.817	0.0168761
576.896	0.0168228
576.974	0.0169092
577.052	0.0168328
577.130	0.0167437
577.208	0.0168150
577.286	0.0168875
577.364	0.0168313
577.442	0.0168076
577.521	0.0168481
577.599	0.0166850
577.677	0.0167654
577.755	0.0168758
577.833	0.0167307
577.911	0.0168224
577.989	0.0167921
578.067	0.0169218
578.146	0.0168746
578.224	0.0168504
578.302	0.0168153
578.380	0.0168262
578.458	0.0169075
578.536	0.0167159
578.614	0.0168880
578.692	0.0168811
578.771	0.0167282
578.849	0.0166802
578.927	0.0169073
579.005	0.0168594
579.083	0.0168644
579.161	0.0168304
579.239	0.0169090
579.317	0.0168024
579.396	0.0169388
579.474	0.0169312
579.552	0.0168742
579.630	0.0168966
579.708	0.0168809
579.786	0.0167456
579.864	0.0168343
579.942	0.0170682
580.021	0.0170358
580.099	0.0169314
580.177	0.0168592
580.255	0.0169044
580.333	0.0169693
580.411	0.0168668
580.489	0.0168603
580.567	0.0169176
580.646	0.0168287
580.724	0.0170000
580.802	0.0168332
580.880	0.0169704
580.958	0.0168933
581.036	0.0169640
581.114	0.0168037
581.192	0.0167582
581.271	0.0169422
581.349	0.0169234
581.427	0.0168925
581.505	0.0168943
581.583	0.0169515
581.661	0.0170701
581.739	0.0170079
581.817	0.0170123
581.896	0.0169424
581.974	0.0167998
582.052	0.0169225
582.130	0.0170627
582.208	0.0169682
582.286	0.0169655
582.364	0.0169918
582.442	0.0168974
582.521	0.0168277
582.599	0.0170006
582.677	0.0169814
582.755	0.0169215
582.833	0.0170470
582.911	0.0168944
582.989	0.0169965
583.067	0.0169424
583.146	0.0169743
583.224	0.0168633
583.302	0.0170212
583.380	0.0169947
583.458	0.0168818
583.536	0.0169366
583.614	0.0169841
583.692	0.0169047
583.771	0.0170138
583.849	0.0168317
583.927	0.0168698
584.005	0.0169749
584.083	0.0169442
584.161	0.0168142
584.239	0.0167790
584.317	0.0168185
584.396	0.0168864
584.474	0.0170019
584.552	0.0168580
584.630	0.0169411
584.708	0.0169444
584.786	0.0169276
584.864	0.0170264
584.942	0.0169017
585.021	0.0169036
585.099	0.0169247
585.177	0.0169078
585.255	0.0169051
585.333	0.0168320
585.411	0.0168147
585.489	0.0169536
585.567	0.0169942
585.646	0.0168829
585.724	0.0169727
585.802	0.0168951
585.880	0.0168403
585.958	0.0168196
586.036	0.0166991
586.114	0.0169143
586.192	0.0168221
586.271	0.0167828
586.349	0.0169337
586.427	0.0167960
586.505	0.0167483
586.583	0.0167560
586.661	0.0168370
586.739	0.0167547
586.817	0.0168044
586.896	0.0168842
586.974	0.0167915
587.052	0.0167123
587.130	0.0168220
587.208	0.0168807
587.286	0.0169697
587.364	0.0168124
587.442	0.0167636
587.521	0.0169644
587.599	0.0167599
587.677	0.0168503
587.755	0.0169169
587.833	0.0169142
587.911	0.0168479
587.989	0.0169335
588.067	0.0167751
588.146	0.0168681
588.224	0.0168142
588.302	0.0169942
588.380	0.0168692
588.458	0.0168132
588.536	0.0168621
588.614	0.0167245
588.692	0.0169459
588.771	0.0168594
588.849	0.0168902
588.927	0.0167007
589.005	0.0168041
589.083	0.0170925
589.161	0.0169149
589.239	0.0166203
589.317	0.0167888
589.396	0.0170293
589.474	0.0168190
589.552	0.0168141
589.630	0.0168073
589.708	0.0167257
589.786	0.0169656
589.864	0.0168570
589.942	0.0166898
590.021	0.0168135
590.099	0.0167960
590.177	0.0168212
590.255	0.0168584
590.333	0.0168376
590.411	0.0168828
590.489	0.0167670
590.567	0.0168555
590.646	0.0169476
590.724	0.0168512
590.802	0.0169658
590.880	0.0169102
590.958	0.0169270
591.036	0.0169086
591.114	0.0167852
591.192	0.0168382
591.271	0.0169020
591.349	0.0167615
591.427	0.0168547
591.505	0.0169638
591.583	0.0169904
591.661	0.0169988
591.739	0.0169664
591.817	0.0168950
591.896	0.0169632
591.974	0.0169762
592.052	0.0168652
592.130	0.0169140
592.208	0.0170428
592.286	0.0168221
592.364	0.0170722
592.442	0.0169178
592.521	0.0169099
592.599	0.0169411
592.677	0.0169191
592.755	0.0168526
592.833	0.0169920
592.911	0.0169195
592.989	0.0169816
593.067	0.0169598
593.146	0.0168979
593.224	0.0168529
593.302	0.0169360
593.380	0.0168929
593.458	0.0169752
593.536	0.0170105
593.614	0.0169761
593.692	0.0168320
593.771	0.0168400
593.849	0.0169795
593.927	0.0170860
594.005	0.0170375
594.083	0.0169392
594.161	0.0169997
594.239	0.0167101
594.317	0.0169405
594.396	0.0169833
594.474	0.0169874
594.552	0.0168864
594.630	0.0169436
594.708	0.0168273
594.786	0.0169447
594.864	0.0170000
594.942	0.0170263
595.021	0.0168963
595.099	0.0168438
595.177	0.0168349
595.255	0.0168608
595.333	0.0169314
595.411	0.0170612
595.489	0.0170219
595.567	0.0168336
595.646	0.0169447
595.724	0.0168504
595.802	0.0169846
595.880	0.0169234
595.958	0.0168873
596.036	0.0169080
596.114	0.0168799
596.192	0.0169470
596.271	0.0169256
596.349	0.0169762
596.427	0.0167903
596.505	0.0168836
596.583	0.0170322
596.661	0.0169053
596.739	0.0170444
596.817	0.0169788
596.896	0.0169522
596.974	0.0168468
597.052	0.0169050
597.130	0.0169793
597.208	0.0169508
597.286	0.0170161
597.364	0.0169710
597.442	0.0168948
597.521	0.0169630
597.599	0.0169196
597.677	0.0169203
597.755	0.0169776
597.833	0.0167739
597.911	0.0168459
597.989	0.0168532
598.067	0.0168161
598.146	0.0167658
598.224	0.0168320
598.302	0.0169777
598.380	0.0168855
598.458	0.0168639
598.536	0.0169488
598.614	0.0169486
598.692	0.0169307
598.771	0.0168222
598.849	0.0168990
598.927	0.0167805
599.005	0.0168690
599.083	0.0170062
599.161	0.0168283
599.239	0.0169150
599.317	0.0168095
599.396	0.0169123
599.474	0.0169327
599.552	0.0168781
599.630	0.0169712
599.708	0.0169818
599.786	0.0169647
599.864	0.0167860
599.942	0.0169099
600.021	0.0168285
600.099	0.0168060
600.177	0.0169682
600.255	0.0168551
600.333	0.0168495
600.411	0.0169460
600.489	0.0168718
600.567	0.0169027
600.646	0.0170430
600.724	0.0170007
600.802	0.0169368
600.880	0.0169324
600.958	0.0168465
601.036	0.0169049
601.114	0.0169418
601.192	0.0169035
601.271	0.0170386
601.349	0.0169216
601.427	0.0168731
601.505	0.0169599
601.583	0.0169767
601.661	0.0168164
601.739	0.0168147
601.817	0.0168257
601.896	0.0168436
601.974	0.0168599
602.052	0.0168922
602.130	0.0168731
602.208	0.0168000
602.286	0.0168443
602.364	0.0168143
602.442	0.0169720
602.521	0.0167826
602.599	0.0167459
602.677	0.0169994
602.755	0.0167654
602.833	0.0167982
602.911	0.0167842
602.989	0.0168484
603.067	0.0168987
603.146	0.0169550
603.224	0.0169736
603.302	0.0168938
603.380	0.0168460
603.458	0.0166566
603.536	0.0166879
603.614	0.0169511
603.692	0.0169314
603.771	0.0169186
603.849	0.0168662
603.927	0.0168201
604.005	0.0169113
604.083	0.0168961
604.161	0.0168333
604.239	0.0168750
604.317	0.0168637
604.396	0.0167351
604.474	0.0169730
604.552	0.0168353
604.630	0.0168787
604.708	0.0169252
604.786	0.0169174
604.864	0.0167883
604.942	0.0168526
605.021	0.0168967
605.099	0.0169609
605.177	0.0167841
605.255	0.0168730
605.333	0.0168687
605.411	0.0167806
605.489	0.0168201
605.567	0.0169450
605.646	0.0168658
605.724	0.0169057
605.802	0.0167562
605.880	0.0167929
605.958	0.0169147
606.036	0.0168396
606.114	0.0168405
606.192	0.0168341
606.271	0.0168085
606.349	0.0167627
606.427	0.0169035
606.505	0.0167143
606.583	0.0167714
606.661	0.0169498
606.739	0.0170384
606.817	0.0168981
606.896	0.0168218
606.974	0.0168050
607.052	0.0167786
607.130	0.0168073
607.208	0.0167793
607.286	0.0168284
607.364	0.0167721
607.442	0.0168561
607.521	0.0167738
607.599	0.0167060
607.677	0.0168859
607.755	0.0169118
607.833	0.0168067
607.911	0.0168397
607.989	0.0168320
608.067	0.0168939
608.146	0.0168140
608.224	0.0168010
608.302	0.0169164
608.380	0.0166914
608.458	0.0167270
608.536	0.0168954
608.614	0.0168190
608.692	0.0169054
608.771	0.0168024
608.849	0.0169065
608.927	0.0168782
609.005	0.0168874
609.083	0.0169239
609.161	0.0166349
609.239	0.0167966
609.317	0.0168887
609.396	0.0168471
609.474	0.0168032
609.552	0.0168284
609.630	0.0168747
609.708	0.0167690
609.786	0.0167950
609.864	0.0168443
609.942	0.0169523
610.021	0.0168801
610.099	0.0169457
610.177	0.0167985
610.255	0.0168711
610.333	0.0169627
610.411	0.0168393
610.489	0.0168903
610.567	0.0168738
610.646	0.0169196
610.724	0.0168690
610.802	0.0169331
610.880	0.0169147
610.958	0.0168074
611.036	0.0168436
611.114	0.0168861
611.192	0.0167928
611.271	0.0170618
611.349	0.0169319
611.427	0.0168552
611.505	0.0167694
611.583	0.0168504
611.661	0.0168006
611.739	0.0169214
611.817	0.0169444
611.896	0.0168521
611.974	0.0167692
612.052	0.0168873
612.130	0.0169309
612.208	0.0169788
612.286	0.0168252
612.364	0.0168723
612.442	0.0169977
612.521	0.0169150
612.599	0.0168907
612.677	0.0167134
612.755	0.0168702
612.833	0.0167252
612.911	0.0168494
612.989	0.0168268
613.067	0.0166997
613.146	0.0168288
613.224	0.0169230
613.302	0.0169334
613.380	0.0168752
613.458	0.0167844
613.536	0.0168391
613.614	0.0167744
613.692	0.0168203
613.771	0.0168526
613.849	0.0168631
613.927	0.0168903
614.005	0.0169802
614.083	0.0168173
614.161	0.0167920
614.239	0.0167413
614.317	0.0169548
614.396	0.0169231
614.474	0.0169476
614.552	0.0168611
614.630	0.0169447
614.708	0.0168562
614.786	0.0169785
614.864	0.0169158
614.942	0.0168348
615.021	0.0169632
615.099	0.0170047
615.177	0.0169415
615.255	0.0169592
615.333	0.0169536
615.411	0.0168818
615.489	0.0168850
615.567	0.0168448
615.646	0.0169527
615.724	0.0169337
615.802	0.0168698
615.880	0.0168642
615.958	0.0169276
616.036	0.0169179
616.114	0.0167564
616.192	0.0169604
616.271	0.0169765
616.349	0.0169597
616.427	0.0169870
616.505	0.0170081
616.583	0.0168471
616.661	0.0169497
616.739	0.0169242
616.817	0.0170087
616.896	0.0171054
616.974	0.0168914
617.052	0.0169559
617.130	0.0169736
617.208	0.0169669
617.286	0.0169544
617.364	0.0170084
617.442	0.0168776
617.521	0.0168680
617.599	0.0168929
617.677	0.0168768
617.755	0.0168907
617.833	0.0169422
617.911	0.0169046
617.989	0.0168420
618.067	0.0169141
618.146	0.0169148
618.224	0.0169190
618.302	0.0167969
618.380	0.0168880
618.458	0.0169485
618.536	0.0170335
618.614	0.0170396
618.692	0.0168489
618.771	0.0168749
618.849	0.0169438
618.927	0.0169688
619.005	0.0169645
619.083	0.0169427
619.161	0.0169360
619.239	0.0169211
619.317	0.0170063
619.396	0.0169687
619.474	0.0169316
619.552	0.0167751
619.630	0.0169496
619.708	0.0169104
619.786	0.0167932
619.864	0.0170309
619.942	0.0170145
620.021	0.0169070
620.099	0.0169095
620.177	0.0169685
620.255	0.0168393
620.333	0.0169111
620.411	0.0170858
620.489	0.0169737
620.567	0.0167723
620.646	0.0169137
620.724	0.0168160
620.802	0.0168720
620.880	0.0169700
620.958	0.0168922
621.036	0.0170295
621.114	0.0170393
621.192	0.0168810
621.271	0.0169341
621.349	0.0169934
621.427	0.0169946
621.505	0.0168406
621.583	0.0168557
621.661	0.0168751
621.739	0.0169024
621.817	0.0169350
621.896	0.0169223
621.974	0.0169521
622.052	0.0169521
622.130	0.0170026
622.208	0.0169426
622.286	0.0168608
622.364	0.0168990
622.442	0.0170833
622.521	0.0168323
622.599	0.0168675
622.677	0.0168035
622.755	0.0169505
622.833	0.0168733
622.911	0.0169881
622.989	0.0169422
623.067	0.0167861
623.146	0.0168667
623.224	0.0169060
623.302	0.0168266
623.380	0.0169076
623.458	0.0168750
623.536	0.0169878
623.614	0.0169167
623.692	0.0168793
623.771	0.0169709
623.849	0.0168890
623.927	0.0168486
624.005	0.0169034
624.083	0.0169415
624.161	0.0169165
624.239	0.0168638
624.317	0.0168184
624.396	0.0167164
624.474	0.0168645
624.552	0.0169588
624.630	0.0168462
624.708	0.0169309
624.786	0.0167792
624.864	0.0169402
624.942	0.0169041
625.021	0.0166866
625.099	0.0169038
625.177	0.0168818
625.255	0.0168636
625.333	0.0167847
625.411	0.0168649
625.489	0.0169381
625.567	0.0169469
625.646	0.0167345
625.724	0.0167308
625.802	0.0168931
625.880	0.0169476
625.958	0.0168221
626.036	0.0169901
626.114	0.0167903
626.192	0.0168079
626.271	0.0168711
626.349	0.0167233
626.427	0.0167973
626.505	0.0168641
626.583	0.0168704
626.661	0.0168318
626.739	0.0168044
626.817	0.0168998
626.896	0.0168309
626.974	0.0168729
627.052	0.0168447
627.130	0.0169626
627.208	0.0168503
627.286	0.0168757
627.364	0.0168881
627.442	0.0167353
627.521	0.0169519
627.599	0.0168550
627.677	0.0169781
627.755	0.0168693
627.833	0.0168171
627.911	0.0170008
627.989	0.0169165
628.067	0.0167033
628.146	0.0167618
628.224	0.0170882
628.302	0.0169992
628.380	0.0167902
628.458	0.0169001
628.536	0.0169176
628.614	0.0167371
628.692	0.0168024
628.771	0.0168913
628.849	0.0168851
628.927	0.0169849
629.005	0.0167265
629.083	0.0169090
629.161	0.0169624
629.239	0.0168497
629.317	0.0168527
629.396	0.0169563
629.474	0.0167662
629.552	0.0168942
629.630	0.0168212
629.708	0.0168304
629.786	0.0168318
629.864	0.0168710
629.942	0.0168838
630.021	0.0168901
630.099	0.0167843
630.177	0.0168063
630.255	0.0168161
630.333	0.0167429
630.411	0.0168787
630.489	0.0169902
630.567	0.0168504
630.646	0.0168854
630.724	0.0167941
630.802	0.0169522
630.880	0.0167009
630.958	0.0168201
631.036	0.0168955
631.114	0.0168112
631.192	0.0168279
631.271	0.0168610
631.349	0.0167798
631.427	0.0168145
631.505	0.0168069
631.583	0.0169002
631.661	0.0168600
631.739	0.0168666
631.817	0.0168583
631.896	0.0167900
631.974	0.0168172
632.052	0.0168787
632.130	0.0168848
632.208	0.0169273
632.286	0.0167506
632.364	0.0167028
632.442	0.0169369
632.521	0.0168461
632.599	0.0168554
632.677	0.0167721
632.755	0.0169425
632.833	0.0167754
632.911	0.0167937
632.989	0.0168984
633.067	0.0169615
633.146	0.0168591
633.224	0.0169611
633.302	0.0167812
633.380	0.0168382
633.458	0.0168271
633.536	0.0169269
633.614	0.0170224
633.692	0.0167764
633.771	0.0168758
633.849	0.0169832
633.927	0.0169283
634.005	0.0168540
634.083	0.0167982
634.161	0.0169062
634.239	0.0167952
634.317	0.0169617
634.396	0.0169121
634.474	0.0168694
634.552	0.0168062
634.630	0.0168259
634.708	0.0167841
634.786	0.0168873
634.864	0.0169705
634.942	0.0167971
635.021	0.0168463
635.099	0.0168179
635.177	0.0168532
635.255	0.0167975
635.333	0.0169427
635.411	0.0168357
635.489	0.0168098
635.567	0.0168956
635.646	0.0169111
635.724	0.0168806
635.802	0.0168198
635.880	0.0168740
635.958	0.0169012
636.036	0.0168118
636.114	0.0169073
636.192	0.0168875
636.271	0.0167264
636.349	0.0169371
636.427	0.0169728
636.505	0.0168716
636.583	0.0169467
636.661	0.0169392
636.739	0.0169103
636.817	0.0168703
636.896	0.0169174
636.974	0.0169119
637.052	0.0169707
637.130	0.0168587
637.208	0.0169974
637.286	0.0169650
637.364	0.0168455
637.442	0.0169127
637.521	0.0170283
637.599	0.0168947
637.677	0.0170782
637.755	0.0168449
637.833	0.0167976
637.911	0.0169664
637.989	0.0169687
638.067	0.0168771
638.146	0.0168429
638.224	0.0169189
638.302	0.0169810
638.380	0.0169320
638.458	0.0169464
638.536	0.0169696
638.614	0.0168692
638.692	0.0169829
638.771	0.0168282
638.849	0.0168146
638.927	0.0169244
639.005	0.0167720
639.083	0.0169095
639.161	0.0169398
639.239	0.0167504
639.317	0.0168234
639.396	0.0168923
639.474	0.0169258
639.552	0.0167566
639.630	0.0169893
639.708	0.0168139
639.786	0.0168125
639.864	0.0168856
639.942	0.0168839
640.021	0.0168909
640.099	0.0169357
640.177	0.0168348
640.255	0.0168128
640.333	0.0167694
640.411	0.0170051
640.489	0.0169180
640.567	0.0167944
640.646	0.0168739
640.724	0.0167305
640.802	0.0169496
640.880	0.0167651
640.958	0.0168302
641.036	0.0169283
641.114	0.0168236
641.192	0.0169174
641.271	0.0168332
641.349	0.0168693
641.427	0.0167436
641.505	0.0166940
641.583	0.0168015
641.661	0.0169068
641.739	0.0168817
641.817	0.0168016
641.896	0.0168929
641.974	0.0168015
642.052	0.0168689
642.130	0.0167653
642.208	0.0167790
642.286	0.0169530
642.364	0.0169289
642.442	0.0169152
642.521	0.0168485
642.599	0.0169831
642.677	0.0168104
642.755	0.0168666
642.833	0.0169253
642.911	0.0169502
642.989	0.0167875
643.067	0.0169367
643.146	0.0168019
643.224	0.0168039
643.302	0.0168857
643.380	0.0168479
643.458	0.0169312
643.536	0.0167032
643.614	0.0168523
643.692	0.0168644
643.771	0.0168738
643.849	0.0169058
643.927	0.0170203
644.005	0.0169137
644.083	0.0168217
644.161	0.0169926
644.239	0.0169292
644.317	0.0169312
644.396	0.0168358
644.474	0.0167666
644.552	0.0168082
644.630	0.0168420
644.708	0.0169704
644.786	0.0168407
644.864	0.0168229
644.942	0.0168193
645.021	0.0168155
645.099	0.0167934
645.177	0.0168332
645.255	0.0169621
645.333	0.0167909
645.411	0.0168155
645.489	0.0167395
645.567	0.0168065
645.646	0.0169382
645.724	0.0169392
645.802	0.0167724
645.880	0.0168164
645.958	0.0168806
646.036	0.0168703
646.114	0.0168064
646.192	0.0168274
646.271	0.0167282
646.349	0.0167578
646.427	0.0168633
646.505	0.0167817
646.583	0.0169171
646.661	0.0167226
646.739	0.0167574
646.817	0.0168012
646.896	0.0167580
646.974	0.0168835
647.052	0.0167496
647.130	0.0168591
647.208	0.0168299
647.286	0.0166789
647.364	0.0168160
647.442	0.0168279
647.521	0.0168661
647.599	0.0169273
647.677	0.0169216
647.755	0.0168362
647.833	0.0168837
647.911	0.0169123
647.989	0.0167760
648.067	0.0167277
648.146	0.0168135
648.224	0.0168900
648.302	0.0168136
648.380	0.0167718
648.458	0.0167049
648.536	0.0167487
648.614	0.0167264
648.692	0.0168553
648.771	0.0168388
648.849	0.0168617
648.927	0.0167252
649.005	0.0167870
649.083	0.0168092
649.161	0.0168781
649.239	0.0168925
649.317	0.0168283
649.396	0.0167268
649.474	0.0166961
649.552	0.0168260
649.630	0.0168902
649.708	0.0169279
649.786	0.0168712
649.864	0.0167934
649.942	0.0168121
650.021	0.0168484
650.099	0.0168809
650.177	0.0169007
650.255	0.0168685
650.333	0.0169418
650.411	0.0169925
650.489	0.0168704
650.567	0.0168737
650.646	0.0168194
650.724	0.0168514
650.802	0.0168692
650.880	0.0167470
650.958	0.0167631
651.036	0.0167752
651.114	0.0167905
651.192	0.0168511
651.271	0.0168346
651.349	0.0168910
651.427	0.0168845
651.505	0.0168908
651.583	0.0168240
651.661	0.0168243
651.739	0.0168208
651.817	0.0168558
651.896	0.0167796
651.974	0.0168790
652.052	0.0168030
652.130	0.0169653
652.208	0.0168929
652.286	0.0168034
652.364	0.0169346
652.442	0.0168168
652.521	0.0168481
652.599	0.0167584
652.677	0.0167770
652.755	0.0166949
652.833	0.0166988
652.911	0.0168639
652.989	0.0167313
653.067	0.0167223
653.146	0.0167452
653.224	0.0167204
653.302	0.0169087
653.380	0.0169233
653.458	0.0169225
653.536	0.0169943
653.614	0.0170011
653.692	0.0168930
653.771	0.0168675
653.849	0.0169933
653.927	0.0169997
654.005	0.0167876
654.083	0.0169408
654.161	0.0168404
654.239	0.0168983
654.317	0.0169397
654.396	0.0167749
654.474	0.0168003
654.552	0.0168430
654.630	0.0167986
654.708	0.0170446
654.786	0.0169044
654.864	0.0169347
654.942	0.0170652
655.021	0.0170251
655.099	0.0169592
655.177	0.0170210
655.255	0.0169133
655.333	0.0168734
655.411	0.0169157
655.489	0.0170229
655.567	0.0168565
655.646	0.0168277
655.724	0.0168169
655.802	0.0167147
655.880	0.0167377
655.958	0.0167502
656.036	0.0168067
656.114	0.0168970
656.192	0.0167834
656.271	0.0167069
656.349	0.0167857
656.427	0.0167507
656.505	0.0167564
656.583	0.0167796
656.661	0.0169429
656.739	0.0168862
656.817	0.0170647
656.896	0.0168466
656.974	0.0168150
657.052	0.0168423
657.130	0.0168744
657.208	0.0168340
657.286	0.0167004
657.364	0.0168724
657.442	0.0169565
657.521	0.0167935
657.599	0.0169061
657.677	0.0168316
657.755	0.0168840
657.833	0.0169366
657.911	0.0168413
657.989	0.0169715
658.067	0.0169669
658.146	0.0169016
658.224	0.0168921
658.302	0.0170487
658.380	0.0170472
658.458	0.0169020
658.536	0.0170181
658.614	0.0169614
658.692	0.0170250
658.771	0.0168384
658.849	0.0168372
658.927	0.0170154
659.005	0.0169103
659.083	0.0169024
659.161	0.0169270
659.239	0.0169513
659.317	0.0169521
659.396	0.0169460
659.474	0.0168465
659.552	0.0169070
659.630	0.0168895
659.708	0.0167340
659.786	0.0167580
659.864	0.0168375
659.942	0.0167300
660.021	0.0168452
660.099	0.0168835
660.177	0.0167558
660.255	0.0166862
660.333	0.0166673
660.411	0.0167487
660.489	0.0169275
660.567	0.0168835
660.646	0.0167976
660.724	0.0168002
660.802	0.0169096
660.880	0.0169833
660.958	0.0167316
661.036	0.0168036
661.114	0.0168404
661.192	0.0166898
661.271	0.0168775
661.349	0.0169603
661.427	0.0168243
661.505	0.0168124
661.583	0.0168307
661.661	0.0169381
661.739	0.0169971
661.817	0.0168691
661.896	0.0169984
661.974	0.0169477
662.052	0.0169469
662.130	0.0167892
662.208	0.0168974
662.286	0.0169227
662.364	0.0170107
662.442	0.0169623
662.521	0.0167987
662.599	0.0168623
662.677	0.0168691
662.755	0.0168346
662.833	0.0168252
662.911	0.0168493
662.989	0.0169201
663.067	0.0167970
663.146	0.0168015
663.224	0.0167644
663.302	0.0169284
663.380	0.0170257
663.458	0.0169646
663.536	0.0166306
663.614	0.0168310
663.692	0.0169269
663.771	0.0167878
663.849	0.0167540
663.927	0.0168632
664.005	0.0168961
664.083	0.0167225
664.161	0.0166554
664.239	0.0168716
664.317	0.0167752
664.396	0.0167255
664.474	0.0166369
664.552	0.0168667
664.630	0.0168464
664.708	0.0166911
664.786	0.0169025
664.864	0.0168295
664.942	0.0165989
665.021	0.0168079
665.099	0.0167560
665.177	0.0167793
665.255	0.0166951
665.333	0.0167790
665.411	0.0168526
665.489	0.0167465
665.567	0.0169177
665.646	0.0168692
665.724	0.0168015
665.802	0.0168101
665.880	0.0168140
665.958	0.0168007
666.036	0.0169202
666.114	0.0168155
666.192	0.0168871
666.271	0.0168915
666.349	0.0168661
666.427	0.0168345
666.505	0.0167863
666.583	0.0168047
666.661	0.0168565
666.739	0.0169781
666.817	0.0168397
666.896	0.0167510
666.974	0.0169381
667.052	0.0170146
667.130	0.0169021
667.208	0.0169174
667.286	0.0168549
667.364	0.0167955
667.442	0.0169644
667.521	0.0167815
667.599	0.0166911
667.677	0.0167938
667.755	0.0166872
667.833	0.0167133
667.911	0.0167776
667.989	0.0167360
668.067	0.0166325
668.146	0.0168361
668.224	0.0169341
668.302	0.0168023
668.380	0.0167640
668.458	0.0168842
668.536	0.0169556
668.614	0.0168522
668.692	0.0168790
668.771	0.0168918
668.849	0.0168925
668.927	0.0170354
669.005	0.0168118
669.083	0.0169095
669.161	0.0166929
669.239	0.0166792
669.317	0.0168488
669.396	0.0167997
669.474	0.0166246
669.552	0.0167854
669.630	0.0168684
669.708	0.0169546
669.786	0.0167251
669.864	0.0167903
669.942	0.0169642
670.021	0.0168844
670.099	0.0169315
670.177	0.0168973
670.255	0.0170007
670.333	0.0170575
670.411	0.0169173
670.489	0.0168503
670.567	0.0169073
670.646	0.0167516
670.724	0.0168472
670.802	0.0167091
670.880	0.0168243
670.958	0.0167597
671.036	0.0168690
671.114	0.0168738
671.192	0.0168515
671.271	0.0167994
671.349	0.0170184
671.427	0.0167838
671.505	0.0168640
671.583	0.0169984
671.661	0.0171455
671.739	0.0169740
671.817	0.0168890
671.896	0.0169706
671.974	0.0168877
672.052	0.0168295
672.130	0.0167472
672.208	0.0168482
672.286	0.0167662
672.364	0.0167708
672.442	0.0168906
672.521	0.0167686
672.599	0.0167277
672.677	0.0169284
672.755	0.0167994
672.833	0.0167116
672.911	0.0168410
672.989	0.0169987
673.067	0.0170710
673.146	0.0170391
673.224	0.0170873
673.302	0.0170299
673.380	0.0169380
673.458	0.0170166
673.536	0.0169017
673.614	0.0168787
673.692	0.0169373
673.771	0.0171315
673.849	0.0169830
673.927	0.0169064
674.005	0.0170127
674.083	0.0168016
674.161	0.0167823
674.239	0.0169489
674.317	0.0170166
674.396	0.0168858
674.474	0.0170682
674.552	0.0169968
674.630	0.0168169
674.708	0.0169328
674.786	0.0168644
674.864	0.0170092
674.942	0.0169988
675.021	0.0169189
675.099	0.0168827
675.177	0.0168566
675.255	0.0168703
675.333	0.0168401
675.411	0.0168365
675.489	0.0169021
675.567	0.0167980
675.646	0.0169653
675.724	0.0169363
675.802	0.0168321
675.880	0.0170387
675.958	0.0168190
676.036	0.0168523
676.114	0.0168796
676.192	0.0168138
676.271	0.0167791
676.349	0.0169073
676.427	0.0169756
676.505	0.0168491
676.583	0.0169305
676.661	0.0167735
676.739	0.0168607
676.817	0.0167651
676.896	0.0168028
676.974	0.0169691
677.052	0.0170058
677.130	0.0169423
677.208	0.0168675
677.286	0.0167978
677.364	0.0167999
677.442	0.0168192
677.521	0.0168985
677.599	0.0168822
677.677	0.0168328
677.755	0.0168432
677.833	0.0168459
677.911	0.0168867
677.989	0.0167974
678.067	0.0168204
678.146	0.0168230
678.224	0.0168736
678.302	0.0168750
678.380	0.0169842
678.458	0.0169424
678.536	0.0169519
678.614	0.0169907
678.692	0.0166886
678.771	0.0168161
678.849	0.0170159
678.927	0.0168789
679.005	0.0167930
679.083	0.0170890
679.161	0.0168636
679.239	0.0168512
679.317	0.0169025
679.396	0.0169089
679.474	0.0168930
679.552	0.0168956
679.630	0.0168758
679.708	0.0169949
679.786	0.0169074
679.864	0.0168505
679.942	0.0169320
680.021	0.0169270
680.099	0.0169315
680.177	0.0169313
680.255	0.0167322
680.333	0.0167255
680.411	0.0169823
680.489	0.0169078
680.567	0.0168771
680.646	0.0168639
680.724	0.0168698
680.802	0.0170200
680.880	0.0169080
680.958	0.0167364
681.036	0.0168741
681.114	0.0167811
681.192	0.0169279
681.271	0.0167626
681.349	0.0167242
681.427	0.0168143
681.505	0.0167097
681.583	0.0169108
681.661	0.0167802
681.739	0.0167667
681.817	0.0168074
681.896	0.0168504
681.974	0.0168188
682.052	0.0167905
682.130	0.0168312
682.208	0.0168116
682.286	0.0168559
682.364	0.0169306
682.442	0.0168661
682.521	0.0167214
682.599	0.0167827
682.677	0.0168158
682.755	0.0168159
682.833	0.0168451
682.911	0.0168062
682.989	0.0168167
683.067	0.0167073
683.146	0.0168468
683.224	0.0167166
683.302	0.0166596
683.380	0.0167992
683.458	0.0166718
683.536	0.0167908
683.614	0.0167384
683.692	0.0167870
683.771	0.0167973
683.849	0.0167645
683.927	0.0167787
684.005	0.0167070
684.083	0.0167455
684.161	0.0167282
684.239	0.0168515
684.317	0.0167210
684.396	0.0166146
684.474	0.0168269
684.552	0.0167832
684.630	0.0168116
684.708	0.0169302
684.786	0.0168576
684.864	0.0168420
684.942	0.0168910
685.021	0.0168241
685.099	0.0169265
685.177	0.0169604
685.255	0.0169247
685.333	0.0169877
685.411	0.0168981
685.489	0.0169501
685.567	0.0170602
685.646	0.0170662
685.724	0.0170452
685.802	0.0169078
685.880	0.0168832
685.958	0.0169518
686.036	0.0168493
686.114	0.0168983
686.192	0.0168241
686.271	0.0168772
686.349	0.0169049
686.427	0.0169247
686.505	0.0168035
686.583	0.0168539
686.661	0.0170477
686.739	0.0169577
686.817	0.0169499
686.896	0.0169578
686.974	0.0170001
687.052	0.0167635
687.130	0.0168025
687.208	0.0168519
687.286	0.0167311
687.364	0.0168683
687.442	0.0168649
687.521	0.0166655
687.599	0.0167311
687.677	0.0169368
687.755	0.0167053
687.833	0.0168080
687.911	0.0168002
687.989	0.0167721
688.067	0.0168644
688.146	0.0167813
688.224	0.0168413
688.302	0.0168819
688.380	0.0169094
688.458	0.0169201
688.536	0.0168006
688.614	0.0166980
688.692	0.0168956
688.771	0.0168481
688.849	0.0167352
688.927	0.0167159
689.005	0.0168153
689.083	0.0168153
689.161	0.0168928
689.239	0.0167560
689.317	0.0168275
689.396	0.0168558
689.474	0.0168963
689.552	0.0169350
689.630	0.0168067
689.708	0.0168903
689.786	0.0168832
689.864	0.0169202
689.942	0.0168452
690.021	0.0168604
690.099	0.0170123
690.177	0.0170225
690.255	0.0170572
690.333	0.0169560
690.411	0.0169954
690.489	0.0170901
690.567	0.0170631
690.646	0.0171830
690.724	0.0171998
690.802	0.0171416
690.880	0.0171793
690.958	0.0170488
691.036	0.0170676
691.114	0.0170422
691.192	0.0169322
691.271	0.0169983
691.349	0.0171231
691.427	0.0170492
691.505	0.0169121
691.583	0.0169778
691.661	0.0169039
691.739	0.0167632
691.817	0.0167513
691.896	0.0168035
691.974	0.0168813
692.052	0.0167378
692.130	0.0167754
692.208	0.0168603
692.286	0.0167899
692.364	0.0167986
692.442	0.0169766
692.521	0.0170821
692.599	0.0169553
692.677	0.0169357
692.755	0.0171677
692.833	0.0170814
692.911	0.0170134
692.989	0.0169730
693.067	0.0170105
693.146	0.0170358
693.224	0.0170900
693.302	0.0169987
693.380	0.0169689
693.458	0.0169453
693.536	0.0169340
693.614	0.0169404
693.692	0.0168126
693.771	0.0170182
693.849	0.0170042
693.927	0.0168784
694.005	0.0168743
694.083	0.0170071
694.161	0.0170066
694.239	0.0168853
694.317	0.0169683
694.396	0.0169158
694.474	0.0170318
694.552	0.0169537
694.630	0.0169570
694.708	0.0170776
694.786	0.0169543
694.864	0.0169711
694.942	0.0168268
695.021	0.0169803
695.099	0.0168179
695.177	0.0167233
695.255	0.0168759
695.333	0.0167433
695.411	0.0168404
695.489	0.0166706
695.567	0.0165148
695.646	0.0166946
695.724	0.0166051
695.802	0.0164998
695.880	0.0166367
695.958	0.0166606
696.036	0.0165494
696.114	0.0167386
696.192	0.0167711
696.271	0.0168141
696.349	0.0167388
696.427	0.0167917
696.505	0.0169538
696.583	0.0168754
696.661	0.0169860
696.739	0.0170434
696.817	0.0170692
696.896	0.0170602
696.974	0.0172170
697.052	0.0172128
697.130	0.0170852
697.208	0.0171317
697.286	0.0171278
697.364	0.0172202
697.442	0.0172549
697.521	0.0171185
697.599	0.0171774
697.677	0.0171307
697.755	0.0170911
697.833	0.0169661
697.911	0.0170500
697.989	0.0171051
698.067	0.0170538
698.146	0.0169907
698.224	0.0170349
698.302	0.0170802
698.380	0.0170039
698.458	0.0167746
698.536	0.0169089
698.614	0.0169927
698.692	0.0168896
698.771	0.0168276
698.849	0.0167699
698.927	0.0168080
699.005	0.0167223
699.083	0.0166801
699.161	0.0166715
699.239	0.0167834
699.317	0.0165423
699.396	0.0164741
699.474	0.0166295
699.552	0.0166472
699.630	0.0166304
699.708	0.0165173
699.786	0.0167327
699.864	0.0167290
699.942	0.0165752
700.021	0.0167477
700.099	0.0167542
700.177	0.0166749
700.255	0.0168559
700.333	0.0168662
700.411	0.0168232
700.489	0.0168972
700.567	0.0169434
700.646	0.0169798
700.724	0.0169688
700.802	0.0169128
700.880	0.0169534
700.958	0.0169643
701.036	0.0169563
701.114	0.0169276
701.192	0.0170631
701.271	0.0169663
701.349	0.0170100
701.427	0.0169260
701.505	0.0170094
701.583	0.0168695
701.661	0.0170938
701.739	0.0170352
701.817	0.0169313
701.896	0.0169483
701.974	0.0169824
702.052	0.0168861
702.130	0.0168822
702.208	0.0168851
702.286	0.0166921
702.364	0.0168932
702.442	0.0169684
702.521	0.0169495
702.599	0.0168759
702.677	0.0169722
702.755	0.0169833
702.833	0.0168964
702.911	0.0171821
702.989	0.0170605
703.067	0.0171011
703.146	0.0170219
703.224	0.0171038
703.302	0.0170592
703.380	0.0170928
703.458	0.0170547
703.536	0.0169240
703.614	0.0168963
703.692	0.0169682
703.771	0.0167262
703.849	0.0168505
703.927	0.0167427
704.005	0.0167687
704.083	0.0166287
704.161	0.0167867
704.239	0.0166036
704.317	0.0164885
704.396	0.0166025
704.474	0.0166010
704.552	0.0166110
704.630	0.0165816
704.708	0.0166552
704.786	0.0167113
704.864	0.0166309
704.942	0.0167440
705.021	0.0168105
705.099	0.0168633
705.177	0.0169860
705.255	0.0170441
705.333	0.0170400
705.411	0.0170977
705.489	0.0170650
705.567	0.0170603
705.646	0.0170883
705.724	0.0170872
705.802	0.0169920
705.880	0.0169611
705.958	0.0169662
706.036	0.0168280
706.114	0.0167278
706.192	0.0167319
706.271	0.0165865
706.349	0.0166122
706.427	0.0164794
706.505	0.0165294
706.583	0.0164319
706.661	0.0165501
706.739	0.0164503
706.817	0.0163274
706.896	0.0164556
706.974	0.0166263
707.052	0.0166122
707.130	0.0166504
707.208	0.0167479
707.286	0.0167599
707.364	0.0168529
707.442	0.0167604
707.521	0.0170380
707.599	0.0170052
707.677	0.0168921
707.755	0.0168876
707.833	0.0167965
707.911	0.0168257
707.989	0.0169501
708.067	0.0168391
708.146	0.0167970
708.224	0.0167520
708.302	0.0167413
708.380	0.0167142
708.458	0.0167828
708.536	0.0168926
708.614	0.0168889
708.692	0.0168597
708.771	0.0170303
708.849	0.0169438
708.927	0.0171401
709.005	0.0170772
709.083	0.0171870
709.161	0.0172564
709.239	0.0174792
709.317	0.0173053
709.396	0.0172958
709.474	0.0174984
709.552	0.0174799
709.630	0.0175172
709.708	0.0174503
709.786	0.0174531
709.864	0.0173133
709.942	0.0172759
710.021	0.0171044
710.099	0.0171763
710.177	0.0171539
710.255	0.0169774
710.333	0.0168699
710.411	0.0167448
710.489	0.0167632
710.567	0.0168230
710.646	0.0167288
710.724	0.0166392
710.802	0.0166904
710.880	0.0165005
710.958	0.0163432
711.036	0.0165656
711.114	0.0166705
711.192	0.0164259
711.271	0.0165854
711.349	0.0165697
711.427	0.0164732
711.505	0.0167571
711.583	0.0167512
711.661	0.0167368
711.739	0.0167301
711.817	0.0168156
711.896	0.0168850
711.974	0.0170656
712.052	0.0170008
712.130	0.0168575
712.208	0.0169012
712.286	0.0169156
712.364	0.0170205
712.442	0.0170378
712.521	0.0170486
712.599	0.0170058
712.677	0.0169292
712.755	0.0168433
712.833	0.0169985
712.911	0.0167604
712.989	0.0168327
713.067	0.0165598
713.146	0.0164227
713.224	0.0164589
713.302	0.0164011
713.380	0.0162794
713.458	0.0162894
713.536	0.0163198
713.614	0.0163411
713.692	0.0161957
713.771	0.0161558
713.849	0.0163728
713.927	0.0164362
714.005	0.0164986
714.083	0.0165971
714.161	0.0167161
714.239	0.0169389
714.317	0.0169693
714.396	0.0171195
714.474	0.0172942
714.552	0.0172531
714.630	0.0173798
714.708	0.0175130
714.786	0.0175904
714.864	0.0176773
714.942	0.0176496
715.021	0.0177987
715.099	0.0178675
715.177	0.0177447
715.255	0.0177576
715.333	0.0176981
715.411	0.0176691
715.489	0.0176603
715.567	0.0175568
715.646	0.0175301
715.724	0.0173600
715.802	0.0172890
715.880	0.0172125
715.958	0.0171333
716.036	0.0172028
716.114	0.0169687
716.192	0.0169997
716.271	0.0170765
716.349	0.0168314
716.427	0.0166866
716.505	0.0168501
716.583	0.0168581
716.661	0.0167236
716.739	0.0165871
716.817	0.0166316
716.896	0.0165147
716.974	0.0165764
717.052	0.0165350
717.130	0.0163661
717.208	0.0163039
717.286	0.0163150
717.364	0.0162311
717.442	0.0162939
717.521	0.0161467
717.599	0.0161420
717.677	0.0160562
717.755	0.0161593
717.833	0.0158183
717.911	0.0160426
717.989	0.0160496
718.067	0.0160310
718.146	0.0160369
718.224	0.0162653
718.302	0.0161675
718.380	0.0163034
718.458	0.0165179
718.536	0.0166103
718.614	0.0169270
718.692	0.0170094
718.771	0.0172502
718.849	0.0175058
718.927	0.0175936
719.005	0.0176704
719.083	0.0179019
719.161	0.0182329
719.239	0.0182886
719.317	0.0181348
719.396	0.0184376
719.474	0.0183687
719.552	0.0182668
719.630	0.0180450
719.708	0.0181035
719.786	0.0180159
719.864	0.0176640
719.942	0.0175446
720.021	0.0172242
720.099	0.0168841
720.177	0.0167030
720.255	0.0163253
720.333	0.0162383
720.411	0.0159621
720.489	0.0158466
720.567	0.0156835
720.646	0.0155255
720.724	0.0153847
720.802	0.0154253
720.880	0.0153886
720.958	0.0155286
721.036	0.0154853
721.114	0.0155827
721.192	0.0157891
721.271	0.0159949
721.349	0.0161578
721.427	0.0162590
721.505	0.0164915
721.583	0.0166320
721.661	0.0169417
721.739	0.0171724
721.817	0.0171856
721.896	0.0175085
721.974	0.0175861
722.052	0.0177036
722.130	0.0176834
722.208	0.0178887
722.286	0.0177980
722.364	0.0179363
722.442	0.0177168
722.521	0.0178184
722.599	0.0178236
722.677	0.0177982
722.755	0.0178159
722.833	0.0177625
722.911	0.0179350
722.989	0.0178164
723.067	0.0176497
723.146	0.0176665
723.224	0.0177531
723.302	0.0176997
723.380	0.0175847
723.458	0.0176164
723.536	0.0175331
723.614	0.0177079
723.692	0.0176979
723.771	0.0174987
723.849	0.0172881
723.927	0.0171420
724.005	0.0170284
724.083	0.0168759
724.161	0.0166251
724.239	0.0165261
724.317	0.0164706
724.396	0.0163394
724.474	0.0159923
724.552	0.0158207
724.630	0.0157185
724.708	0.0156321
724.786	0.0156001
724.864	0.0153973
724.942	0.0153740
725.021	0.0154662
725.099	0.0155212
725.177	0.0155694
725.255	0.0155002
725.333	0.0155390
725.411	0.0157611
725.489	0.0158603
725.567	0.0160065
725.646	0.0161933
725.724	0.0164072
725.802	0.0163948
725.880	0.0167099
725.958	0.0167831
726.036	0.0170705
726.114	0.0171094
726.192	0.0171701
726.271	0.0172981
726.349	0.0174005
726.427	0.0172263
726.505	0.0173347
726.583	0.0171534
726.661	0.0170886
726.739	0.0172123
726.817	0.0171335
726.896	0.0170106
726.974	0.0168710
727.052	0.0169663
727.130	0.0168857
727.208	0.0168717
727.286	0.0169714
727.364	0.0168425
727.442	0.0169470
727.521	0.0168678
727.599	0.0171314
727.677	0.0172160
727.755	0.0171583
727.833	0.0174444
727.911	0.0175749
727.989	0.0176181
728.067	0.0176283
728.146	0.0177885
728.224	0.0177888
728.302	0.0180141
728.380	0.0179597
728.458	0.0181368
728.536	0.0178709
728.614	0.0179826
728.692	0.0179631
728.771	0.0179183
728.849	0.0175645
728.927	0.0175839
729.005	0.0173878
729.083	0.0171371
729.161	0.0170497
729.239	0.0166734
729.317	0.0164373
729.396	0.0162328
729.474	0.0157841
729.552	0.0154610
729.630	0.0150960
729.708	0.0150732
729.786	0.0148602
729.864	0.0147530
729.942	0.0145358
730.021	0.0146311
730.099	0.0147002
730.177	0.0148806
730.255	0.0150861
730.333	0.0154289
730.411	0.0155338
730.489	0.0158694
730.567	0.0163115
730.646	0.0166176
730.724	0.0170577
730.802	0.0172894
730.880	0.0175237
730.958	0.0178498
731.036	0.0180804
731.114	0.0182550
731.192	0.0183275
731.271	0.0183190
731.349	0.0182596
731.427	0.0182362
731.505	0.0181394
731.583	0.0181596
731.661	0.0179482
731.739	0.0177943
731.817	0.0177323
731.896	0.0173789
731.974	0.0172094
732.052	0.0170238
732.130	0.0167562
732.208	0.0166444
732.286	0.0163522
732.364	0.0163739
732.442	0.0162715
732.521	0.0162963
732.599	0.0162371
732.677	0.0164265
732.755	0.0165920
732.833	0.0166374
732.911	0.0167947
732.989	0.0170423
733.067	0.0172996
733.146	0.0175993
733.224	0.0176520
733.302	0.0176920
733.380	0.0177734
733.458	0.0180167
733.536	0.0180584
733.614	0.0178747
733.692	0.0178642
733.771	0.0177991
733.849	0.0175898
733.927	0.0174735
734.005	0.0171117
734.083	0.0169368
734.161	0.0166844
734.239	0.0163593
734.317	0.0161073
734.396	0.0159026
734.474	0.0157176
734.552	0.0153951
734.630	0.0152374
734.708	0.0151283
734.786	0.0150149
734.864	0.0149467
734.942	0.0150172
735.021	0.0150961
735.099	0.0151716
735.177	0.0151736
735.255	0.0153358
735.333	0.0155296
735.411	0.0158041
735.489	0.0160632
735.567	0.0160603
735.646	0.0162280
735.724	0.0164964
735.802	0.0166853
735.880	0.0169093
735.958	0.0170748
736.036	0.0171020
736.114	0.0172392
736.192	0.0174518
736.271	0.0175003
736.349	0.0176977
736.427	0.0176376
736.505	0.0178053
736.583	0.0178818
736.661	0.0180446
736.739	0.0181553
736.817	0.0181013
736.896	0.0182117
736.974	0.0183765
737.052	0.0183037
737.130	0.0180217
737.208	0.0181203
737.286	0.0180021
737.364	0.0180660
737.442	0.0180260
737.521	0.0178447
737.599	0.0176703
737.677	0.0177059
737.755	0.0177135
737.833	0.0174426
737.911	0.0171267
737.989	0.0172273
738.067	0.0170851
738.146	0.0169382
738.224	0.0168441
738.302	0.0166202
738.380	0.0168350
738.458	0.0167905
738.536	0.0166209
738.614	0.0166561
738.692	0.0166347
738.771	0.0165995
738.849	0.0166682
738.927	0.0166005
739.005	0.0167213
739.083	0.0166428
739.161	0.0166109
739.239	0.0166203
739.317	0.0164767
739.396	0.0162815
739.474	0.0162218
739.552	0.0163851
739.630	0.0161507
739.708	0.0160941
739.786	0.0159103
739.864	0.0158891
739.942	0.0159751
740.021	0.0159354
740.099	0.0157324
740.177	0.0158728
740.255	0.0159866
740.333	0.0157541
740.411	0.0157898
740.489	0.0159009
740.567	0.0160526
740.646	0.0160921
740.724	0.0161586
740.802	0.0162688
740.880	0.0162878
740.958	0.0165553
741.036	0.0166557
741.114	0.0167966
741.192	0.0168578
741.271	0.0169847
741.349	0.0172382
741.427	0.0173482
741.505	0.0173099
741.583	0.0173751
741.661	0.0176357
741.739	0.0175410
741.817	0.0177027
741.896	0.0176286
741.974	0.0178044
742.052	0.0176584
742.130	0.0177001
742.208	0.0177771
742.286	0.0176589
742.364	0.0177258
742.442	0.0176827
742.521	0.0175890
742.599	0.0177765
742.677	0.0177137
742.755	0.0174250
742.833	0.0174588
742.911	0.0175800
742.989	0.0172845
743.067	0.0173015
743.146	0.0170412
743.224	0.0168661
743.302	0.0167825
743.380	0.0163982
743.458	0.0163813
743.536	0.0161715
743.614	0.0158540
743.692	0.0157869
743.771	0.0156860
743.849	0.0156969
743.927	0.0155520
744.005	0.0156160
744.083	0.0154283
744.161	0.0153973
744.239	0.0154862
744.317	0.0155518
744.396	0.0156753
744.474	0.0159040
744.552	0.0160846
744.630	0.0162486
744.708	0.0163400
744.786	0.0164799
744.864	0.0165347
744.942	0.0167071
745.021	0.0166539
745.099	0.0168186
745.177	0.0168971
745.255	0.0171258
745.333	0.0172569
745.411	0.0172792
745.489	0.0173846
745.567	0.0175348
745.646	0.0177729
745.724	0.0177172
745.802	0.0179566
745.880	0.0180453
745.958	0.0180804
746.036	0.0181792
746.114	0.0181721
746.192	0.0182662
746.271	0.0182247
746.349	0.0182137
746.427	0.0181560
746.505	0.0182443
746.583	0.0180531
746.661	0.0180009
746.739	0.0180803
746.817	0.0179471
746.896	0.0176185
746.974	0.0175060
747.052	0.0173434
747.130	0.0173351
747.208	0.0173401
747.286	0.0170596
747.364	0.0169592
747.442	0.0168330
747.521	0.0168001
747.599	0.0166045
747.677	0.0164003
747.755	0.0163081
747.833	0.0160215
747.911	0.0159315
747.989	0.0157983
748.067	0.0157037
748.146	0.0156005
748.224	0.0155228
748.302	0.0154459
748.380	0.0153615
748.458	0.0152087
748.536	0.0153593
748.614	0.0155659
748.692	0.0154473
748.771	0.0155197
748.849	0.0156524
748.927	0.0156982
749.005	0.0158215
749.083	0.0159413
749.161	0.0160367
749.239	0.0160787
749.317	0.0161881
749.396	0.0162952
749.474	0.0163779
749.552	0.0165679
749.630	0.0166348
749.708	0.0167389
749.786	0.0166998
749.864	0.0168307
749.942	0.0169407
750.021	0.0172652
750.099	0.0173501
750.177	0.0172095
750.255	0.0172393
750.333	0.0175642
750.411	0.0177072
750.489	0.0176366
750.567	0.0178281
750.646	0.0178635
750.724	0.0177341
750.802	0.0177131
750.880	0.0177770
750.958	0.0176253
751.036	0.0176140
751.114	0.0175040
751.192	0.0174626
751.271	0.0174149
751.349	0.0174447
751.427	0.0172298
751.505	0.0172330
751.583	0.0171339
751.661	0.0170488
751.739	0.0171093
751.817	0.0169488
751.896	0.0168928
751.974	0.0168929
752.052	0.0168087
752.130	0.0167460
752.208	0.0167566
752.286	0.0169411
752.364	0.0168332
752.442	0.0170053
752.521	0.0169475
752.599	0.0170365
752.677	0.0172456
752.755	0.0174240
752.833	0.0174715
752.911	0.0175033
752.989	0.0177288
753.067	0.0177966
753.146	0.0177625
753.224	0.0178503
753.302	0.0177133
753.380	0.0177220
753.458	0.0177049
753.536	0.0176779
753.614	0.0175749
753.692	0.0174265
753.771	0.0171722
753.849	0.0172561
753.927	0.0170927
754.005	0.0170668
754.083	0.0170235
754.161	0.0169791
754.239	0.0167501
754.317	0.0167181
754.396	0.0166183
754.474	0.0165520
754.552	0.0163173
754.630	0.0161660
754.708	0.0159641
754.786	0.0159176
754.864	0.0157659
754.942	0.0155225
755.021	0.0154198
755.099	0.0152901
755.177	0.0151326
755.255	0.0152486
755.333	0.0151232
755.411	0.0152086
755.489	0.0151425
755.567	0.0151828
755.646	0.0154941
755.724	0.0155528
755.802	0.0157101
755.880	0.0159042
755.958	0.0160420
756.036	0.0163847
756.114	0.0166273
756.192	0.0167284
756.271	0.0168588
756.349	0.0171001
756.427	0.0173656
756.505	0.0175423
756.583	0.0177160
756.661	0.0176816
756.739	0.0177851
756.817	0.0179910
756.896	0.0180490
756.974	0.0180486
757.052	0.0182013
757.130	0.0183487
757.208	0.0181310
757.286	0.0183238
757.364	0.0183636
757.442	0.0182945
757.521	0.0182288
757.599	0.0182932
757.677	0.0181631
757.755	0.0179969
757.833	0.0179043
757.911	0.0177030
757.989	0.0175417
758.067	0.0173818
758.146	0.0172623
758.224	0.0171041
758.302	0.0168657
758.380	0.0166997
758.458	0.0164742
758.536	0.0162930
758.614	0.0162217
758.692	0.0161474
758.771	0.0159137
758.849	0.0159604
758.927	0.0158569
759.005	0.0158398
759.083	0.0159595
759.161	0.0159055
759.239	0.0158675
759.317	0.0160446
759.396	0.0159528
759.474	0.0161991
759.552	0.0162200
759.630	0.0162719
759.708	0.0162612
759.786	0.0163871
759.864	0.0165846
759.942	0.0168577
760.021	0.0167769
760.099	0.0171452
760.177	0.0172923
760.255	0.0174167
760.333	0.0174094
760.411	0.0175756
760.489	0.0174647
760.567	0.0175832
760.646	0.0176842
760.724	0.0175262
760.802	0.0175491
760.880	0.0176737
760.958	0.0174855
761.036	0.0174737
761.114	0.0174953
761.192	0.0173676
761.271	0.0172325
761.349	0.0172095
761.427	0.0171452
761.505	0.0170666
761.583	0.0170895
761.661	0.0169524
761.739	0.0168533
761.817	0.0167620
761.896	0.0167585
761.974	0.0167792
762.052	0.0167896
762.130	0.0167036
762.208	0.0165749
762.286	0.0164864
762.364	0.0164677
762.442	0.0163531
762.521	0.0162464
762.599	0.0162624
762.677	0.0161405
762.755	0.0159621
762.833	0.0160554
762.911	0.0160741
762.989	0.0161589
763.067	0.0161179
763.146	0.0161906
763.224	0.0161336
763.302	0.0161874
763.380	0.0162247
763.458	0.0163860
763.536	0.0162068
763.614	0.0164243
763.692	0.0166090
763.771	0.0165920
763.849	0.0166486
763.927	0.0168994
764.005	0.0169048
764.083	0.0170071
764.161	0.0172565
764.239	0.0172990
764.317	0.0175819
764.396	0.0174659
764.474	0.0174483
764.552	0.0173419
764.630	0.0174275
764.708	0.0174940
764.786	0.0174378
764.864	0.0175018
764.942	0.0173831
765.021	0.0173901
765.099	0.0173627
765.177	0.0173229
765.255	0.0170822
765.333	0.0172659
765.411	0.0171478
765.489	0.0169844
765.567	0.0170977
765.646	0.0168644
765.724	0.0167494
765.802	0.0167357
765.880	0.0165068
765.958	0.0163177
766.036	0.0161823
766.114	0.0160310
766.192	0.0159059
766.271	0.0158576
766.349	0.0156431
766.427	0.0156423
766.505	0.0154839
766.583	0.0153693
766.661	0.0154944
766.739	0.0155028
766.817	0.0155869
766.896	0.0157088
766.974	0.0159479
767.052	0.0159811
767.130	0.0161765
767.208	0.0164923
767.286	0.0166956
767.364	0.0169423
767.442	0.0170710
767.521	0.0173012
767.599	0.0177235
767.677	0.0177408
767.755	0.0180086
767.833	0.0182953
767.911	0.0183779
767.989	0.0186418
768.067	0.0188007
768.146	0.0188225
768.224	0.0190350
768.302	0.0190636
768.380	0.0191242
768.458	0.0191489
768.536	0.0189829
768.614	0.0189064
768.692	0.0188813
768.771	0.0186041
768.849	0.0184328
768.927	0.0181341
769.005	0.0178015
769.083	0.0176810
769.161	0.0173434
769.239	0.0168939
769.317	0.0165423
769.396	0.0161941
769.474	0.0160966
769.552	0.0157591
769.630	0.0156042
769.708	0.0153364
769.786	0.0152332
769.864	0.0151203
769.942	0.0150790
770.021	0.0150794
770.099	0.0151443
770.177	0.0151632
770.255	0.0152922
770.333	0.0155115
770.411	0.0153711
770.489	0.0155077
770.567	0.0157284
770.646	0.0159479
770.724	0.0160016
770.802	0.0162521
770.880	0.0163940
770.958	0.0165910
771.036	0.0166594
771.114	0.0170144
771.192	0.0171103
771.271	0.0172025
771.349	0.0172054
771.427	0.0173596
771.505	0.0173777
771.583	0.0173292
771.661	0.0174573
771.739	0.0172518
771.817	0.0170507
771.896	0.0170187
771.974	0.0169186
772.052	0.0168362
772.130	0.0166760
772.208	0.0164886
772.286	0.0165096
772.364	0.0164786
772.442	0.0165379
772.521	0.0162101
772.599	0.0162502
772.677	0.0162768
772.755	0.0161222
772.833	0.0162928
772.911	0.0163551
772.989	0.0162046
773.067	0.0162244
773.146	0.0162637
773.224	0.0164750
773.302	0.0164410
773.380	0.0164254
773.458	0.0164070
773.536	0.0165539
773.614	0.0165395
773.692	0.0168084
773.771	0.0169242
773.849	0.0170224
773.927	0.0171806
774.005	0.0172801
774.083	0.0175130
774.161	0.0178204
774.239	0.0178925
774.317	0.0179562
774.396	0.0180820
774.474	0.0182785
774.552	0.0182600
774.630	0.0185561
774.708	0.0185883
774.786	0.0186164
774.864	0.0187408
774.942	0.0185891
775.021	0.0185284
775.099	0.0184950
775.177	0.0186833
775.255	0.0184851
775.333	0.0183823
775.411	0.0182650
775.489	0.0180723
775.567	0.0180222
775.646	0.0177315
775.724	0.0177177
775.802	0.0174284
775.880	0.0174242
775.958	0.0170806
776.036	0.0169083
776.114	0.0166866
776.192	0.0164936
776.271	0.0165684
776.349	0.0163881
776.427	0.0161199
776.505	0.0161803
776.583	0.0161147
776.661	0.0159314
776.739	0.0158833
776.817	0.0156847
776.896	0.0158820
776.974	0.0159829
777.052	0.0158327
777.130	0.0160035
777.208	0.0159319
777.286	0.0160229
777.364	0.0159208
777.442	0.0160569
777.521	0.0160889
777.599	0.0160435
777.677	0.0161188
777.755	0.0160805
777.833	0.0161163
777.911	0.0163306
777.989	0.0160007
778.067	0.0162254
778.146	0.0161532
778.224	0.0161597
778.302	0.0164158
778.380	0.0164961
778.458	0.0164526
778.536	0.0164710
778.614	0.0165487
778.692	0.0165269
778.771	0.0164798
778.849	0.0164467
778.927	0.0166376
779.005	0.0164209
779.083	0.0163674
779.161	0.0164919
779.239	0.0163436
779.317	0.0162634
779.396	0.0162239
779.474	0.0161950
779.552	0.0162998
779.630	0.0162225
779.708	0.0162683
779.786	0.0164157
779.864	0.0164843
779.942	0.0163573
780.021	0.0167211
780.099	0.0166548
780.177	0.0165643
780.255	0.0168511
780.333	0.0171143
780.411	0.0171694
780.489	0.0170865
780.567	0.0172140
780.646	0.0175208
780.724	0.0176905
780.802	0.0177700
780.880	0.0177950
780.958	0.0179369
781.036	0.0179882
781.114	0.0181907
781.192	0.0182561
781.271	0.0182715
781.349	0.0183458
781.427	0.0185090
781.505	0.0185252
781.583	0.0183766
781.661	0.0185319
781.739	0.0186288
781.817	0.0185371
781.896	0.0184132
781.974	0.0183100
782.052	0.0182232
782.130	0.0182050
782.208	0.0181259
782.286	0.0179439
782.364	0.0176192
782.442	0.0175098
782.521	0.0173929
782.599	0.0170524
782.677	0.0169567
782.755	0.0166209
782.833	0.0165099
782.911	0.0164700
782.989	0.0164355
783.067	0.0164153
783.146	0.0161382
783.224	0.0160772
783.302	0.0160298
783.380	0.0160050
783.458	0.0158241
783.536	0.0158503
783.614	0.0159226
783.692	0.0158799
783.771	0.0159196
783.849	0.0158995
783.927	0.0160251
784.005	0.0159108
784.083	0.0159427
784.161	0.0161012
784.239	0.0161665
784.317	0.0161709
784.396	0.0163017
784.474	0.0162540
784.552	0.0164149
784.630	0.0164400
784.708	0.0165485
784.786	0.0164795
784.864	0.0166634
784.942	0.0165019
785.021	0.0164603
785.099	0.0167325
785.177	0.0165724
785.255	0.0167552
785.333	0.0168356
785.411	0.0168196
785.489	0.0167954
785.567	0.0167109
785.646	0.0168344
785.724	0.0167093
785.802	0.0166481
785.880	0.0164851
785.958	0.0164462
786.036	0.0163727
786.114	0.0163667
786.192	0.0162257
786.271	0.0161509
786.349	0.0161374
786.427	0.0160265
786.505	0.0159959
786.583	0.0161858
786.661	0.0162498
786.739	0.0162965
786.817	0.0161391
786.896	0.0163221
786.974	0.0164847
787.052	0.0166456
787.130	0.0166417
787.208	0.0167421
787.286	0.0170950
787.364	0.0171693
787.442	0.0173016
787.521	0.0172858
787.599	0.0174208
787.677	0.0175225
787.755	0.0174722
787.833	0.0177489
787.911	0.0177068
787.989	0.0177367
788.067	0.0177351
788.146	0.0179315
788.224	0.0178829
788.302	0.0179712
788.380	0.0180113
788.458	0.0179536
788.536	0.0181609
788.614	0.0182058
788.692	0.0180625
788.771	0.0180097
788.849	0.0180394
788.927	0.0178088
789.005	0.0178636
789.083	0.0177052
789.161	0.0177866
789.239	0.0175754
789.317	0.0174152
789.396	0.0172266
789.474	0.0170740
789.552	0.0170693
789.630	0.0167350
789.708	0.0167651
789.786	0.0166063
789.864	0.0166090
789.942	0.0165958
790.021	0.0164694
790.099	0.0163387
790.177	0.0165033
790.255	0.0163400
790.333	0.0163995
790.411	0.0165194
790.489	0.0165731
790.567	0.0164779
790.646	0.0165639
790.724	0.0166837
790.802	0.0165009
790.880	0.0164553
790.958	0.0165866
791.036	0.0166634
791.114	0.0166221
791.192	0.0164192
791.271	0.0163937
791.349	0.0164381
791.427	0.0164148
791.505	0.0164248
791.583	0.0164135
791.661	0.0164648
791.739	0.0163502
791.817	0.0163776
791.896	0.0164361
791.974	0.0166766
792.052	0.0164911
792.130	0.0165010
792.208	0.0165314
792.286	0.0165017
792.364	0.0166440
792.442	0.0166179
792.521	0.0164507
792.599	0.0164175
792.677	0.0163930
792.755	0.0163367
792.833	0.0164571
792.911	0.0164360
792.989	0.0164278
793.067	0.0163716
793.146	0.0164101
793.224	0.0163598
793.302	0.0163289
793.380	0.0164598
793.458	0.0165377
793.536	0.0163972
793.614	0.0166212
793.692	0.0167195
793.771	0.0167857
793.849	0.0167840
793.927	0.0170210
794.005	0.0169102
794.083	0.0170124
794.161	0.0172243
794.239	0.0172990
794.317	0.0173678
794.396	0.0173806
794.474	0.0174952
794.552	0.0176247
794.630	0.0176138
794.708	0.0175066
794.786	0.0175932
794.864	0.0175449
794.942	0.0176264
795.021	0.0175877
795.099	0.0173842
795.177	0.0175070
795.255	0.0173874
795.333	0.0173396
795.411	0.0173148
795.489	0.0172951
795.567	0.0173098
795.646	0.0172232
795.724	0.0171085
795.802	0.0171874
795.880	0.0171071
795.958	0.0170067
796.036	0.0170917
796.114	0.0169751
796.192	0.0169097
796.271	0.0169512
796.349	0.0170193
796.427	0.0169870
796.505	0.0169639
796.583	0.0169899
796.661	0.0169833
796.739	0.0169736
796.817	0.0169618
796.896	0.0171125
796.974	0.0170611
797.052	0.0170168
797.130	0.0170449
797.208	0.0171137
797.286	0.0170924
797.364	0.0170361
797.442	0.0172130
797.521	0.0171391
797.599	0.0171383
797.677	0.0169492
797.755	0.0169617
797.833	0.0169798
797.911	0.0170016
797.989	0.0169566
798.067	0.0169661
798.146	0.0167748
798.224	0.0168533
798.302	0.0167820
798.380	0.0166914
798.458	0.0165772
798.536	0.0165350
798.614	0.0164186
798.692	0.0165327
798.771	0.0163805
798.849	0.0163716
798.927	0.0163165
799.005	0.0162280
799.083	0.0163303
799.161	0.0162763
799.239	0.0161620
799.317	0.0163142
799.396	0.0163910
799.474	0.0164134
799.552	0.0164361
799.630	0.0165913
799.708	0.0165199
799.786	0.0164064
799.864	0.0164836
799.942	0.0164699
800.021	0.0165094
800.099	0.0165121
800.177	0.0166835
800.255	0.0165681
800.333	0.0166403
800.411	0.0166830
800.489	0.0168614
800.567	0.0170142
800.646	0.0169662
800.724	0.0170019
800.802	0.0169707
800.880	0.0171478
800.958	0.0171877
801.036	0.0172197
801.114	0.0173318
801.192	0.0172350
801.271	0.0171773
801.349	0.0172286
801.427	0.0172229
801.505	0.0171308
801.583	0.0172431
801.661	0.0170889
801.739	0.0169789
801.817	0.0171049
801.896	0.0170145
801.974	0.0168330
802.052	0.0167338
802.130	0.0167233
802.208	0.0167166
802.286	0.0165764
802.364	0.0166480
802.442	0.0166205
802.521	0.0164971
802.599	0.0165395
802.677	0.0166626
802.755	0.0166467
802.833	0.0165908
802.911	0.0166151
802.989	0.0166670
803.067	0.0167954
803.146	0.0168143
803.224	0.0169436
803.302	0.0168813
803.380	0.0169551
803.458	0.0172576
803.536	0.0172668
803.614	0.0171370
803.692	0.0171941
803.771	0.0170712
803.849	0.0172186
803.927	0.0172092
804.005	0.0171724
804.083	0.0172309
804.161	0.0170941
804.239	0.0172122
804.317	0.0170566
804.396	0.0171549
804.474	0.0172360
804.552	0.0171385
804.630	0.0171671
804.708	0.0171663
804.786	0.0171145
804.864	0.0170334
804.942	0.0171398
805.021	0.0171151
805.099	0.0170957
805.177	0.0171524
805.255	0.0169520
805.333	0.0168867
805.411	0.0168133
805.489	0.0165881
805.567	0.0166399
805.646	0.0166914
805.724	0.0164916
805.802	0.0164613
805.880	0.0163071
805.958	0.0164183
806.036	0.0161094
806.114	0.0162887
806.192	0.0161939
806.271	0.0161829
806.349	0.0162960
806.427	0.0163656
806.505	0.0163371
806.583	0.0164549
806.661	0.0165257
806.739	0.0164837
806.817	0.0164546
806.896	0.0165998
806.974	0.0166673
807.052	0.0167520
807.130	0.0168539
807.208	0.0168180
807.286	0.0167249
807.364	0.0168732
807.442	0.0167452
807.521	0.0168507
807.599	0.0168034
807.677	0.0168095
807.755	0.0167990
807.833	0.0168562
807.911	0.0168588
807.989	0.0168336
808.067	0.0168116
808.146	0.0168376
808.224	0.0169365
808.302	0.0168887
808.380	0.0168910
808.458	0.0169143
808.536	0.0169179
808.614	0.0168591
808.692	0.0169758
808.771	0.0168555
808.849	0.0167555
808.927	0.0168614
809.005	0.0168042
809.083	0.0167377
809.161	0.0168031
809.239	0.0168797
809.317	0.0166847
809.396	0.0166257
809.474	0.0166265
809.552	0.0167736
809.630	0.0166176
809.708	0.0165951
809.786	0.0167457
809.864	0.0168169
809.942	0.0165976
810.021	0.0166483
810.099	0.0165163
810.177	0.0166325
810.255	0.0166875
810.333	0.0166462
810.411	0.0167250
810.489	0.0165431
810.567	0.0165574
810.646	0.0166111
810.724	0.0165939
810.802	0.0165777
810.880	0.0168238
810.958	0.0166887
811.036	0.0167160
811.114	0.0167553
811.192	0.0168764
811.271	0.0168388
811.349	0.0169811
811.427	0.0168407
811.505	0.0170049
811.583	0.0170731
811.661	0.0171521
811.739	0.0173413
811.817	0.0173095
811.896	0.0174675
811.974	0.0173882
812.052	0.0173223
812.130	0.0173172
812.208	0.0173123
812.286	0.0173964
812.364	0.0173826
812.442	0.0173876
812.521	0.0172107
812.599	0.0174214
812.677	0.0171204
812.755	0.0171767
812.833	0.0172057
812.911	0.0170936
812.989	0.0170715
813.067	0.0169570
813.146	0.0169963
813.224	0.0170750
813.302	0.0167638
813.380	0.0167460
813.458	0.0167607
813.536	0.0166728
813.614	0.0165111
813.692	0.0164499
813.771	0.0165176
813.849	0.0164730
813.927	0.0164223
814.005	0.0164314
814.083	0.0164024
814.161	0.0163790
814.239	0.0162385
814.317	0.0163691
814.396	0.0162550
814.474	0.0163459
814.552	0.0162970
814.630	0.0163944
814.708	0.0164981
814.786	0.0165127
814.864	0.0166627
814.942	0.0166247
815.021	0.0165498
815.099	0.0167483
815.177	0.0167549
815.255	0.0167337
815.333	0.0168789
815.411	0.0170002
815.489	0.0169518
815.567	0.0170007
815.646	0.0171437
815.724	0.0171654
815.802	0.0170419
815.880	0.0172120
815.958	0.0172349
816.036	0.0173146
816.114	0.0172707
816.192	0.0172138
816.271	0.0171957
816.349	0.0174184
816.427	0.0173899
816.505	0.0172779
816.583	0.0173229
816.661	0.0172299
816.739	0.0172491
816.817	0.0171252
816.896	0.0172112
816.974	0.0171194
817.052	0.0169695
817.130	0.0169775
817.208	0.0170683
817.286	0.0168031
817.364	0.0167645
817.442	0.0168369
817.521	0.0167793
817.599	0.0166530
817.677	0.0166685
817.755	0.0166925
817.833	0.0168658
817.911	0.0167588
817.989	0.0166780
818.067	0.0167953
818.146	0.0166085
818.224	0.0164759
818.302	0.0167569
818.380	0.0167025
818.458	0.0166785
818.536	0.0166210
818.614	0.0166006
818.692	0.0166933
818.771	0.0167403
818.849	0.0168593
818.927	0.0166985
819.005	0.0167959
819.083	0.0167894
819.161	0.0168903
819.239	0.0169769
819.317	0.0169790
819.396	0.0169916
819.474	0.0170456
819.552	0.0170847
819.630	0.0171049
819.708	0.0173730
819.786	0.0172406
819.864	0.0174097
819.942	0.0174129
820.021	0.0173729
820.099	0.0174059
820.177	0.0174783
820.255	0.0174323
820.333	0.0173932
820.411	0.0174289
820.489	0.0175426
820.567	0.0174266
820.646	0.0173153
820.724	0.0173375
820.802	0.0171608
820.880	0.0170433
820.958	0.0170768
821.036	0.0170683
821.114	0.0170033
821.192	0.0168393
821.271	0.0170072
821.349	0.0168112
821.427	0.0167101
821.505	0.0167212
821.583	0.0167512
821.661	0.0167447
821.739	0.0166360
821.817	0.0165185
821.896	0.0165844
821.974	0.0164191
822.052	0.0164977
822.130	0.0164612
822.208	0.0164420
822.286	0.0164648
822.364	0.0165321
822.442	0.0166353
822.521	0.0166467
822.599	0.0165776
822.677	0.0166496
822.755	0.0166432
822.833	0.0166499
822.911	0.0168056
822.989	0.0167596
823.067	0.0167023
823.146	0.0168578
823.224	0.0169741
823.302	0.0168372
823.380	0.0168447
823.458	0.0169499
823.536	0.0168564
823.614	0.0170744
823.692	0.0170526
823.771	0.0170767
823.849	0.0170959
823.927	0.0171103
824.005	0.0170518
824.083	0.0170415
824.161	0.0170893
824.239	0.0170280
824.317	0.0170892
824.396	0.0169932
824.474	0.0170218
824.552	0.0170448
824.630	0.0168821
824.708	0.0170098
824.786	0.0168021
824.864	0.0169396
824.942	0.0169379
825.021	0.0169386
825.099	0.0167696
825.177	0.0169276
825.255	0.0167567
825.333	0.0168142
825.411	0.0168680
825.489	0.0166177
825.567	0.0168137
825.646	0.0167410
825.724	0.0167130
825.802	0.0166524
825.880	0.0165684
825.958	0.0165005
826.036	0.0164404
826.114	0.0166166
826.192	0.0164851
826.271	0.0163905
826.349	0.0166296
826.427	0.0165660
826.505	0.0165302
826.583	0.0165755
826.661	0.0166948
826.739	0.0167417
826.817	0.0169624
826.896	0.0169370
826.974	0.0168330
827.052	0.0168008
827.130	0.0171092
827.208	0.0171584
827.286	0.0170356
827.364	0.0169637
827.442	0.0171109
827.521	0.0169900
827.599	0.0172108
827.677	0.0170663
827.755	0.0169040
827.833	0.0170411
827.911	0.0169456
827.989	0.0170026
828.067	0.0168371
828.146	0.0168328
828.224	0.0168658
828.302	0.0167904
828.380	0.0168798
828.458	0.0169004
828.536	0.0169609
828.614	0.0170542
828.692	0.0169213
828.771	0.0169950
828.849	0.0169540
828.927	0.0170776
829.005	0.0170708
829.083	0.0171651
829.161	0.0170651
829.239	0.0169919
829.317	0.0169519
829.396	0.0170441
829.474	0.0168451
829.552	0.0168407
829.630	0.0167805
829.708	0.0169020
829.786	0.0168556
829.864	0.0168761
829.942	0.0165675
830.021	0.0165988
830.099	0.0166071
830.177	0.0166946
830.255	0.0165865
830.333	0.0166894
830.411	0.0165734
830.489	0.0166779
830.567	0.0166563
830.646	0.0166264
830.724	0.0167569
830.802	0.0167851
830.880	0.0167152
830.958	0.0166380
831.036	0.0167351
831.114	0.0166957
831.192	0.0168007
831.271	0.0167475
831.349	0.0168512
831.427	0.0167013
831.505	0.0167458
831.583	0.0167742
831.661	0.0168166
831.739	0.0167256
831.817	0.0166740
831.896	0.0167801
831.974	0.0168307
832.052	0.0167033
832.130	0.0168001
832.208	0.0167526
832.286	0.0168498
832.364	0.0167494
832.442	0.0167396
832.521	0.0167720
832.599	0.0167471
832.677	0.0166846
832.755	0.0169116
832.833	0.0168279
832.911	0.0167424
832.989	0.0167164
833.067	0.0167052
833.146	0.0168592
833.224	0.0167850
833.302	0.0168332
833.380	0.0166691
833.458	0.0169286
833.536	0.0167691
833.614	0.0168512
833.692	0.0169300
833.771	0.0168964
833.849	0.0171988
833.927	0.0169441
834.005	0.0170117
834.083	0.0170615
834.161	0.0170079
834.239	0.0168968
834.317	0.0169021
834.396	0.0169761
834.474	0.0170345
834.552	0.0169027
834.630	0.0170163
834.708	0.0169128
834.786	0.0169450
834.864	0.0169328
834.942	0.0169080
835.021	0.0168629
835.099	0.0169839
835.177	0.0169035
835.255	0.0167987
835.333	0.0168871
835.411	0.0167696
835.489	0.0169725
835.567	0.0168526
835.646	0.0168511
835.724	0.0167182
835.802	0.0168547
835.880	0.0168906
835.958	0.0168830
836.036	0.0169405
836.114	0.0168359
836.192	0.0167796
836.271	0.0168637
836.349	0.0168779
836.427	0.0168051
836.505	0.0167370
836.583	0.0166088
836.661	0.0166360
836.739	0.0167679
836.817	0.0167629
836.896	0.0166708
836.974	0.0166466
837.052	0.0166317
837.130	0.0168205
837.208	0.0167220
837.286	0.0168425
837.364	0.0169013
837.442	0.0169236
837.521	0.0169348
837.599	0.0169777
837.677	0.0167839
837.755	0.0168711
837.833	0.0169749
837.911	0.0171056
837.989	0.0170331
838.067	0.0168549
838.146	0.0171085
838.224	0.0171108
838.302	0.0169735
838.380	0.0168361
838.458	0.0168238
838.536	0.0167908
838.614	0.0168517
838.692	0.0169375
838.771	0.0169202
838.849	0.0168082
838.927	0.0168204
839.005	0.0169176
839.083	0.0168949
839.161	0.0168908
839.239	0.0169158
839.317	0.0169183
839.396	0.0167979
839.474	0.0169006
839.552	0.0167235
839.630	0.0167986
839.708	0.0168844
839.786	0.0167213
839.864	0.0167843
839.942	0.0169417
840.021	0.0169236
840.099	0.0170121
840.177	0.0168589
840.255	0.0170102
840.333	0.0170174
840.411	0.0168298
840.489	0.0169286
840.567	0.0168800
840.646	0.0170081
840.724	0.0170160
840.802	0.0168318
840.880	0.0168480
840.958	0.0168569
841.036	0.0167300
841.114	0.0167855
841.192	0.0167873
841.271	0.0167452
841.349	0.0167149
841.427	0.0167318
841.505	0.0167705
841.583	0.0166394
841.661	0.0167670
841.739	0.0167774
841.817	0.0169274
841.896	0.0169038
841.974	0.0168903
842.052	0.0170129
842.130	0.0169544
842.208	0.0169553
842.286	0.0169218
842.364	0.0171188
842.442	0.0171280
842.521	0.0170179
842.599	0.0171508
842.677	0.0172809
842.755	0.0173677
842.833	0.0171661
842.911	0.0172810
842.989	0.0173090
843.067	0.0171297
843.146	0.0171829
843.224	0.0171577
843.302	0.0171258
843.380	0.0171696
843.458	0.0170722
843.536	0.0171685
843.614	0.0170432
843.692	0.0169743
843.771	0.0169483
843.849	0.0168786
843.927	0.0167902
844.005	0.0168447
844.083	0.0168967
844.161	0.0167755
844.239	0.0167587
844.317	0.0166539
844.396	0.0167429
844.474	0.0167379
844.552	0.0167899
844.630	0.0168686
844.708	0.0168975
844.786	0.0166605
844.864	0.0168207
844.942	0.0167155
845.021	0.0168288
845.099	0.0168462
845.177	0.0168381
845.255	0.0169131
845.333	0.0168520
845.411	0.0168478
845.489	0.0167686
845.567	0.0167318
845.646	0.0169407
845.724	0.0168543
845.802	0.0167416
845.880	0.0167917
845.958	0.0167786
846.036	0.0167264
846.114	0.0167485
846.192	0.0168921
846.271	0.0167989
846.349	0.0166454
846.427	0.0167429
846.505	0.0168791
846.583	0.0168697
846.661	0.0167551
846.739	0.0169817
846.817	0.0169337
846.896	0.0168408
846.974	0.0169562
847.052	0.0169776
847.130	0.0170844
847.208	0.0171644
847.286	0.0170045
847.364	0.0171844
847.442	0.0172038
847.521	0.0171690
847.599	0.0172298
847.677	0.0171281
847.755	0.0171024
847.833	0.0171609
847.911	0.0169910
847.989	0.0168610
848.067	0.0169201
848.146	0.0169625
848.224	0.0169572
848.302	0.0169485
848.380	0.0168272
848.458	0.0169315
848.536	0.0168040
848.614	0.0167929
848.692	0.0167681
848.771	0.0168621
848.849	0.0169015
848.927	0.0169313
849.005	0.0169930
849.083	0.0169154
849.161	0.0169009
849.239	0.0170473
849.317	0.0172724
849.396	0.0170747
849.474	0.0171774
849.552	0.0170538
849.630	0.0170626
849.708	0.0170119
849.786	0.0169666
849.864	0.0171103
849.942	0.0168987
850.021	0.0169292
850.099	0.0169655
850.177	0.0170084
850.255	0.0168828
850.333	0.0169632
850.411	0.0168776
850.489	0.0168379
850.567	0.0169886
850.646	0.0168967
850.724	0.0168678
850.802	0.0168697
850.880	0.0170786
850.958	0.0168490
851.036	0.0168578
851.114	0.0170498
851.192	0.0169074
851.271	0.0168755
851.349	0.0169463
851.427	0.0169479
851.505	0.0169109
851.583	0.0167625
851.661	0.0167642
851.739	0.0169262
851.817	0.0168517
851.896	0.0167487
851.974	0.0168301
852.052	0.0169154
852.130	0.0167984
852.208	0.0168671
852.286	0.0168906
852.364	0.0169758
852.442	0.0168147
852.521	0.0168572
852.599	0.0169010
852.677	0.0167306
852.755	0.0167529
852.833	0.0167227
852.911	0.0166845
852.989	0.0166590
853.067	0.0167548
853.146	0.0168378
853.224	0.0167375
853.302	0.0168022
853.380	0.0168923
853.458	0.0168600
853.536	0.0168361
853.614	0.0169050
853.692	0.0170023
853.771	0.0170063
853.849	0.0169488
853.927	0.0170892
854.005	0.0171515
854.083	0.0171466
854.161	0.0171018
854.239	0.0171991
854.317	0.0171613
854.396	0.0170468
854.474	0.0171161
854.552	0.0171468
854.630	0.0171703
854.708	0.0170539
854.786	0.0170177
854.864	0.0169823
854.942	0.0168315
855.021	0.0168319
855.099	0.0168153
855.177	0.0168435
855.255	0.0168169
855.333	0.0166761
855.411	0.0165764
855.489	0.0166778
855.567	0.0167472
855.646	0.0167234
855.724	0.0166556
855.802	0.0167043
855.880	0.0167605
855.958	0.0167963
856.036	0.0169801
856.114	0.0168468
856.192	0.0167794
856.271	0.0170154
856.349	0.0169932
856.427	0.0167643
856.505	0.0169022
856.583	0.0169150
856.661	0.0168448
856.739	0.0169052
856.817	0.0168241
856.896	0.0167874
856.974	0.0167531
857.052	0.0167326
857.130	0.0167248
857.208	0.0167040
857.286	0.0167292
857.364	0.0168256
857.442	0.0167774
857.521	0.0167042
857.599	0.0166493
857.677	0.0169019
857.755	0.0168119
857.833	0.0168605
857.911	0.0168455
857.989	0.0168587
858.067	0.0168452
858.146	0.0170216
858.224	0.0169579
858.302	0.0168668
858.380	0.0168514
858.458	0.0170112
858.536	0.0172351
858.614	0.0170345
858.692	0.0171092
858.771	0.0171570
858.849	0.0170794
858.927	0.0169442
859.005	0.0168542
859.083	0.0171152
859.161	0.0169516
859.239	0.0169435
859.317	0.0169246
859.396	0.0170251
859.474	0.0169096
859.552	0.0167710
859.630	0.0168125
859.708	0.0169034
859.786	0.0168217
859.864	0.0167143
859.942	0.0167271
860.021	0.0167701
860.099	0.0168279
860.177	0.0167049
860.255	0.0167386
860.333	0.0167640
860.411	0.0167524
860.489	0.0166830
860.567	0.0167613
860.646	0.0168291
860.724	0.0165969
860.802	0.0167503
860.880	0.0167727
860.958	0.0167435
861.036	0.0166447
861.114	0.0166906
861.192	0.0167823
861.271	0.0166177
861.349	0.0165532
861.427	0.0166846
861.505	0.0165083
861.583	0.0165916
861.661	0.0166741
861.739	0.0166049
861.817	0.0166282
861.896	0.0166016
861.974	0.0165865
862.052	0.0165664
862.130	0.0167068
862.208	0.0167046
862.286	0.0165524
862.364	0.0166070
862.442	0.0166722
862.521	0.0167390
862.599	0.0166688
862.677	0.0168922
862.755	0.0169317
862.833	0.0169187
862.911	0.0167788
862.989	0.0170463
863.067	0.0170445
863.146	0.0170245
863.224	0.0170155
863.302	0.0169745
863.380	0.0170962
863.458	0.0169943
863.536	0.0171000
863.614	0.0169637
863.692	0.0168415
863.771	0.0168616
863.849	0.0169341
863.927	0.0168419
864.005	0.0168881
864.083	0.0169003
864.161	0.0167855
864.239	0.0167033
864.317	0.0167830
864.396	0.0168800
864.474	0.0168788
864.552	0.0168542
864.630	0.0169317
864.708	0.0170177
864.786	0.0170106
864.864	0.0169370
864.942	0.0170785
865.021	0.0172012
865.099	0.0171805
865.177	0.0171423
865.255	0.0171753
865.333	0.0171807
865.411	0.0171444
865.489	0.0171812
865.567	0.0172854
865.646	0.0171233
865.724	0.0169834
865.802	0.0171414
865.880	0.0171505
865.958	0.0171548
866.036	0.0171026
866.114	0.0167416
866.192	0.0167599
866.271	0.0168791
866.349	0.0168154
866.427	0.0166135
866.505	0.0167831
866.583	0.0166941
866.661	0.0166176
866.739	0.0167682
866.817	0.0168068
866.896	0.0166432
866.974	0.0166194
867.052	0.0167002
867.130	0.0166836
867.208	0.0167200
867.286	0.0166087
867.364	0.0167367
867.442	0.0167809
867.521	0.0167322
867.599	0.0168629
867.677	0.0168397
867.755	0.0168731
867.833	0.0167561
867.911	0.0167073
867.989	0.0166991
868.067	0.0166567
868.146	0.0167776
868.224	0.0168076
868.302	0.0166191
868.380	0.0165887
868.458	0.0166859
868.536	0.0166650
868.614	0.0165666
868.692	0.0167516
868.771	0.0167833
868.849	0.0168298
868.927	0.0166987
869.005	0.0168458
869.083	0.0167407
869.161	0.0168069
869.239	0.0169653
869.317	0.0168456
869.396	0.0169317
869.474	0.0170390
869.552	0.0171049
869.630	0.0170788
869.708	0.0170195
869.786	0.0170770
869.864	0.0171328
869.942	0.0170831
