06/29/2022	22:40:04	Ver.	4.1	UNKNOWN
Optical Delay	630.002507	Delta X		0.078125	Sweeps	1	Scan Rate	0/0
Coordinates	Axis 1	NaN	Axis 2	NaN	Axis 3	NaN	Axis 4	NaN	Axis 5	NaN	Axis 6	0.000000
TX Power	0.000000	RX Power	0.000000

630.003	0.0156644
630.081	0.0156553
630.159	0.0156566
630.237	0.0155621
630.315	0.0155331
630.393	0.0157083
630.471	0.0157623
630.549	0.0158171
630.628	0.0156592
630.706	0.0156678
630.784	0.0157435
630.862	0.0156732
630.940	0.0157322
631.018	0.0156835
631.096	0.0156866
631.174	0.0156695
631.253	0.0157272
631.331	0.0156853
631.409	0.0157370
631.487	0.0156863
631.565	0.0156454
631.643	0.0156416
631.721	0.0157803
631.799	0.0157077
631.878	0.0157218
631.956	0.0155962
632.034	0.0156557
632.112	0.0156227
632.190	0.0157704
632.268	0.0156947
632.346	0.0156708
632.424	0.0157869
632.503	0.0157320
632.581	0.0156323
632.659	0.0155869
632.737	0.0155956
632.815	0.0157093
632.893	0.0157322
632.971	0.0156515
633.049	0.0157841
633.128	0.0156702
633.206	0.0156231
633.284	0.0156567
633.362	0.0157075
633.440	0.0156678
633.518	0.0156381
633.596	0.0157638
633.674	0.0157030
633.753	0.0156681
633.831	0.0156778
633.909	0.0156874
633.987	0.0156367
634.065	0.0155827
634.143	0.0157919
634.221	0.0156765
634.299	0.0156759
634.378	0.0156398
634.456	0.0156812
634.534	0.0155991
634.612	0.0157999
634.690	0.0155672
634.768	0.0155764
634.846	0.0155768
634.924	0.0156749
635.003	0.0156918
635.081	0.0155354
635.159	0.0156611
635.237	0.0157136
635.315	0.0157601
635.393	0.0155708
635.471	0.0155720
635.549	0.0157172
635.628	0.0157250
635.706	0.0156826
635.784	0.0157377
635.862	0.0156528
635.940	0.0157615
636.018	0.0157674
636.096	0.0158456
636.174	0.0155846
636.253	0.0155734
636.331	0.0155957
636.409	0.0156178
636.487	0.0157738
636.565	0.0156825
636.643	0.0157230
636.721	0.0156824
636.799	0.0157038
636.878	0.0156084
636.956	0.0156080
637.034	0.0156589
637.112	0.0155907
637.190	0.0157533
637.268	0.0157664
637.346	0.0156246
637.424	0.0156413
637.503	0.0156229
637.581	0.0158331
637.659	0.0157331
637.737	0.0156355
637.815	0.0157442
637.893	0.0156735
637.971	0.0156369
638.049	0.0155991
638.128	0.0156359
638.206	0.0156824
638.284	0.0156136
638.362	0.0156896
638.440	0.0155962
638.518	0.0155735
638.596	0.0156319
638.674	0.0156573
638.753	0.0156693
638.831	0.0156770
638.909	0.0157372
638.987	0.0156671
639.065	0.0157070
639.143	0.0156101
639.221	0.0155558
639.299	0.0156626
639.378	0.0157143
639.456	0.0155883
639.534	0.0157306
639.612	0.0156645
639.690	0.0156866
639.768	0.0156674
639.846	0.0156980
639.924	0.0157110
640.003	0.0156638
640.081	0.0156410
640.159	0.0157053
640.237	0.0157944
640.315	0.0157790
640.393	0.0156986
640.471	0.0155606
640.549	0.0157626
640.628	0.0158072
640.706	0.0157116
640.784	0.0157858
640.862	0.0157011
640.940	0.0157369
641.018	0.0157291
641.096	0.0157041
641.174	0.0156513
641.253	0.0157460
641.331	0.0156757
641.409	0.0156343
641.487	0.0155649
641.565	0.0156496
641.643	0.0156754
641.721	0.0157212
641.799	0.0157539
641.878	0.0157127
641.956	0.0157456
642.034	0.0157465
642.112	0.0158179
642.190	0.0156467
642.268	0.0155921
642.346	0.0155183
642.424	0.0157170
642.503	0.0156580
642.581	0.0155794
642.659	0.0157968
642.737	0.0157296
642.815	0.0156821
642.893	0.0155940
642.971	0.0155943
643.049	0.0156634
643.128	0.0157256
643.206	0.0156466
643.284	0.0157113
643.362	0.0156379
643.440	0.0156458
643.518	0.0155293
643.596	0.0156842
643.674	0.0156115
643.753	0.0157142
643.831	0.0157187
643.909	0.0156448
643.987	0.0156763
644.065	0.0157214
644.143	0.0157510
644.221	0.0156475
644.299	0.0156620
644.378	0.0156889
644.456	0.0155540
644.534	0.0157021
644.612	0.0157454
644.690	0.0157389
644.768	0.0156425
644.846	0.0156969
644.924	0.0157134
645.003	0.0156545
645.081	0.0156731
645.159	0.0157965
645.237	0.0156371
645.315	0.0156185
645.393	0.0156492
645.471	0.0155972
645.549	0.0155624
645.628	0.0156130
645.706	0.0155110
645.784	0.0156261
645.862	0.0156033
645.940	0.0157213
646.018	0.0157381
646.096	0.0156171
646.174	0.0156235
646.253	0.0156138
646.331	0.0156110
646.409	0.0157230
646.487	0.0156734
646.565	0.0156269
646.643	0.0155747
646.721	0.0156819
646.799	0.0156546
646.878	0.0157066
646.956	0.0155594
647.034	0.0156390
647.112	0.0156653
647.190	0.0156539
647.268	0.0156066
647.346	0.0155540
647.424	0.0155614
647.503	0.0157603
647.581	0.0156952
647.659	0.0156626
647.737	0.0156340
647.815	0.0155247
647.893	0.0155787
647.971	0.0156596
648.049	0.0157627
648.128	0.0157122
648.206	0.0156169
648.284	0.0154837
648.362	0.0156658
648.440	0.0156858
648.518	0.0156398
648.596	0.0156734
648.674	0.0155867
648.753	0.0156976
648.831	0.0156437
648.909	0.0156454
648.987	0.0155872
649.065	0.0156747
649.143	0.0155570
649.221	0.0155033
649.299	0.0157463
649.378	0.0156409
649.456	0.0156116
649.534	0.0156975
649.612	0.0155651
649.690	0.0155090
649.768	0.0157003
649.846	0.0156920
649.924	0.0156314
650.003	0.0156300
650.081	0.0156773
650.159	0.0156757
650.237	0.0155696
650.315	0.0156447
650.393	0.0155532
650.471	0.0157898
650.549	0.0156332
650.628	0.0156890
650.706	0.0157178
650.784	0.0156380
650.862	0.0155374
650.940	0.0156702
651.018	0.0156892
651.096	0.0157217
651.174	0.0157288
651.253	0.0154857
651.331	0.0157820
651.409	0.0156773
651.487	0.0156441
651.565	0.0157153
651.643	0.0157072
651.721	0.0157071
651.799	0.0155892
651.878	0.0156795
651.956	0.0156262
652.034	0.0155305
652.112	0.0156921
652.190	0.0156284
652.268	0.0157266
652.346	0.0155617
652.424	0.0155630
652.503	0.0157526
652.581	0.0156310
652.659	0.0155630
652.737	0.0155619
652.815	0.0156104
652.893	0.0155367
652.971	0.0157799
653.049	0.0156921
653.128	0.0155960
653.206	0.0157291
653.284	0.0156530
653.362	0.0154034
653.440	0.0157037
653.518	0.0158395
653.596	0.0155097
653.674	0.0156834
653.753	0.0157164
653.831	0.0155934
653.909	0.0156515
653.987	0.0157048
654.065	0.0157449
654.143	0.0156128
654.221	0.0156499
654.299	0.0156402
654.378	0.0157083
654.456	0.0155149
654.534	0.0155849
654.612	0.0155360
654.690	0.0156325
654.768	0.0157762
654.846	0.0156676
654.924	0.0155707
655.003	0.0156824
655.081	0.0155186
655.159	0.0156775
655.237	0.0157504
655.315	0.0157076
655.393	0.0156226
655.471	0.0157655
655.549	0.0156733
655.628	0.0157198
655.706	0.0155531
655.784	0.0156991
655.862	0.0155565
655.940	0.0156668
656.018	0.0157133
656.096	0.0156837
656.174	0.0157076
656.253	0.0157413
656.331	0.0155346
656.409	0.0156055
656.487	0.0156559
656.565	0.0158248
656.643	0.0157175
656.721	0.0156401
656.799	0.0155441
656.878	0.0158245
656.956	0.0156732
657.034	0.0156597
657.112	0.0156393
657.190	0.0157143
657.268	0.0156778
657.346	0.0156928
657.424	0.0156686
657.503	0.0157121
657.581	0.0156313
657.659	0.0156602
657.737	0.0155802
657.815	0.0156084
657.893	0.0156789
657.971	0.0155088
658.049	0.0157412
658.128	0.0156583
658.206	0.0156100
658.284	0.0156736
658.362	0.0156233
658.440	0.0156783
658.518	0.0156713
658.596	0.0156822
658.674	0.0156252
658.753	0.0155620
658.831	0.0157895
658.909	0.0157371
658.987	0.0157827
659.065	0.0155223
659.143	0.0156305
659.221	0.0156763
659.299	0.0157616
659.378	0.0155995
659.456	0.0156493
659.534	0.0156799
659.612	0.0155518
659.690	0.0157477
659.768	0.0157661
659.846	0.0157167
659.924	0.0156477
660.003	0.0156609
660.081	0.0157339
660.159	0.0157503
660.237	0.0157030
660.315	0.0156622
660.393	0.0157694
660.471	0.0155823
660.549	0.0157300
660.628	0.0156749
660.706	0.0154468
660.784	0.0155816
660.862	0.0157359
660.940	0.0157225
661.018	0.0155891
661.096	0.0157404
661.174	0.0156491
661.253	0.0156539
661.331	0.0155969
661.409	0.0156466
661.487	0.0156361
661.565	0.0156053
661.643	0.0156654
661.721	0.0156844
661.799	0.0156779
661.878	0.0156743
661.956	0.0155786
662.034	0.0155570
662.112	0.0155891
662.190	0.0156882
662.268	0.0158157
662.346	0.0155867
662.424	0.0155610
662.503	0.0156207
662.581	0.0156368
662.659	0.0156542
662.737	0.0156830
662.815	0.0156581
662.893	0.0155717
662.971	0.0157897
663.049	0.0156675
663.128	0.0154547
663.206	0.0156623
663.284	0.0157038
663.362	0.0157107
663.440	0.0157145
663.518	0.0155337
663.596	0.0156520
663.674	0.0156644
663.753	0.0155038
663.831	0.0156368
663.909	0.0156785
663.987	0.0156591
664.065	0.0156384
664.143	0.0157681
664.221	0.0156190
664.299	0.0156651
664.378	0.0156688
664.456	0.0157005
664.534	0.0156113
664.612	0.0156339
664.690	0.0156480
664.768	0.0155579
664.846	0.0156409
664.924	0.0156109
665.003	0.0155838
665.081	0.0157261
665.159	0.0156461
665.237	0.0155828
665.315	0.0157317
665.393	0.0156033
665.471	0.0156873
665.549	0.0156990
665.628	0.0157498
665.706	0.0157564
665.784	0.0156043
665.862	0.0156868
665.940	0.0156899
666.018	0.0155728
666.096	0.0156573
666.174	0.0156898
666.253	0.0157346
666.331	0.0156689
666.409	0.0156548
666.487	0.0157243
666.565	0.0157661
666.643	0.0156409
666.721	0.0156435
666.799	0.0156496
666.878	0.0156902
666.956	0.0157169
667.034	0.0156651
667.112	0.0157014
667.190	0.0156644
667.268	0.0157111
667.346	0.0157053
667.424	0.0156010
667.503	0.0156980
667.581	0.0156696
667.659	0.0155830
667.737	0.0156087
667.815	0.0157233
667.893	0.0157191
667.971	0.0155720
668.049	0.0157057
668.128	0.0155970
668.206	0.0156284
668.284	0.0157497
668.362	0.0157131
668.440	0.0156379
668.518	0.0157564
668.596	0.0155853
668.674	0.0154942
668.753	0.0156858
668.831	0.0156969
668.909	0.0156413
668.987	0.0157143
669.065	0.0156364
669.143	0.0158685
669.221	0.0156387
669.299	0.0155950
669.378	0.0156154
669.456	0.0156889
669.534	0.0155479
669.612	0.0156360
669.690	0.0155788
669.768	0.0156733
669.846	0.0156960
669.924	0.0156407
670.003	0.0156007
670.081	0.0156123
670.159	0.0156952
670.237	0.0156418
670.315	0.0155676
670.393	0.0156943
670.471	0.0157008
670.549	0.0155836
670.628	0.0157069
670.706	0.0155247
670.784	0.0157796
670.862	0.0156974
670.940	0.0154779
671.018	0.0158183
671.096	0.0157586
671.174	0.0155171
671.253	0.0155566
671.331	0.0156961
671.409	0.0155627
671.487	0.0155594
671.565	0.0156991
671.643	0.0155532
671.721	0.0155547
671.799	0.0157615
671.878	0.0156555
671.956	0.0156074
672.034	0.0156551
672.112	0.0157303
672.190	0.0157231
672.268	0.0156178
672.346	0.0156958
672.424	0.0156545
672.503	0.0157189
672.581	0.0155797
672.659	0.0156287
672.737	0.0157094
672.815	0.0157520
672.893	0.0156570
672.971	0.0155604
673.049	0.0155941
673.128	0.0157166
673.206	0.0156122
673.284	0.0155560
673.362	0.0156700
673.440	0.0155218
673.518	0.0155643
673.596	0.0155380
673.674	0.0158685
673.753	0.0156413
673.831	0.0156350
673.909	0.0157162
673.987	0.0157210
674.065	0.0155732
674.143	0.0155018
674.221	0.0155720
674.299	0.0157318
674.378	0.0156611
674.456	0.0156099
674.534	0.0157575
674.612	0.0157625
674.690	0.0155583
674.768	0.0156978
674.846	0.0157362
674.924	0.0156945
675.003	0.0155556
675.081	0.0156889
675.159	0.0156281
675.237	0.0156367
675.315	0.0157011
675.393	0.0156944
675.471	0.0156763
675.549	0.0156578
675.628	0.0157291
675.706	0.0157447
675.784	0.0157798
675.862	0.0156332
675.940	0.0156925
676.018	0.0156804
676.096	0.0156432
676.174	0.0158163
676.253	0.0156774
676.331	0.0156757
676.409	0.0156657
676.487	0.0156090
676.565	0.0157375
676.643	0.0156577
676.721	0.0156413
676.799	0.0157964
676.878	0.0156593
676.956	0.0156127
677.034	0.0156182
677.112	0.0156933
677.190	0.0157360
677.268	0.0156850
677.346	0.0157249
677.424	0.0157087
677.503	0.0156534
677.581	0.0157399
677.659	0.0157182
677.737	0.0155980
677.815	0.0157712
677.893	0.0157058
677.971	0.0156341
678.049	0.0157108
678.128	0.0156641
678.206	0.0156051
678.284	0.0157124
678.362	0.0156760
678.440	0.0155293
678.518	0.0157623
678.596	0.0157470
678.674	0.0157324
678.753	0.0156504
678.831	0.0158858
678.909	0.0156643
678.987	0.0156576
679.065	0.0157399
679.143	0.0157600
679.221	0.0155457
679.299	0.0158117
679.378	0.0157188
679.456	0.0157066
679.534	0.0157079
679.612	0.0158423
679.690	0.0158355
679.768	0.0158017
679.846	0.0157120
679.924	0.0157664
680.003	0.0155907
680.081	0.0157022
680.159	0.0156676
680.237	0.0157002
680.315	0.0156261
680.393	0.0156509
680.471	0.0155547
680.549	0.0156928
680.628	0.0156803
680.706	0.0157008
680.784	0.0157225
680.862	0.0155228
680.940	0.0156112
681.018	0.0157254
681.096	0.0157027
681.174	0.0158210
681.253	0.0157641
681.331	0.0157126
681.409	0.0156441
681.487	0.0156956
681.565	0.0156542
681.643	0.0155792
681.721	0.0156664
681.799	0.0155849
681.878	0.0156201
681.956	0.0155878
682.034	0.0156680
682.112	0.0156322
682.190	0.0156096
682.268	0.0157583
682.346	0.0156857
682.424	0.0156742
682.503	0.0157145
682.581	0.0158013
682.659	0.0156805
682.737	0.0157398
682.815	0.0156754
682.893	0.0157294
682.971	0.0156223
683.049	0.0156187
683.128	0.0156293
683.206	0.0157262
683.284	0.0158479
683.362	0.0156628
683.440	0.0155811
683.518	0.0156276
683.596	0.0157758
683.674	0.0155605
683.753	0.0156441
683.831	0.0155727
683.909	0.0157188
683.987	0.0156592
684.065	0.0156785
684.143	0.0156836
684.221	0.0157896
684.299	0.0157207
684.378	0.0155928
684.456	0.0156612
684.534	0.0156964
684.612	0.0155862
684.690	0.0156686
684.768	0.0155976
684.846	0.0156867
684.924	0.0156447
685.003	0.0157188
685.081	0.0157138
685.159	0.0156963
685.237	0.0155598
685.315	0.0156757
685.393	0.0157652
685.471	0.0157136
685.549	0.0157957
685.628	0.0156488
685.706	0.0156252
685.784	0.0157494
685.862	0.0156553
685.940	0.0155451
686.018	0.0157298
686.096	0.0156670
686.174	0.0155939
686.253	0.0156404
686.331	0.0157671
686.409	0.0157080
686.487	0.0156366
686.565	0.0156750
686.643	0.0156967
686.721	0.0157185
686.799	0.0157428
686.878	0.0157339
686.956	0.0156418
687.034	0.0156394
687.112	0.0156863
687.190	0.0157441
687.268	0.0157095
687.346	0.0156484
687.424	0.0156952
687.503	0.0156476
687.581	0.0157135
687.659	0.0155924
687.737	0.0157266
687.815	0.0156076
687.893	0.0157383
687.971	0.0157018
688.049	0.0155891
688.128	0.0155224
688.206	0.0156319
688.284	0.0158031
688.362	0.0156850
688.440	0.0157167
688.518	0.0157158
688.596	0.0156787
688.674	0.0157134
688.753	0.0157330
688.831	0.0158150
688.909	0.0158603
688.987	0.0155531
689.065	0.0157384
689.143	0.0157870
689.221	0.0156316
689.299	0.0157012
689.378	0.0156809
689.456	0.0156216
689.534	0.0157449
689.612	0.0156216
689.690	0.0155415
689.768	0.0157737
689.846	0.0157386
689.924	0.0155703
690.003	0.0156834
690.081	0.0157982
690.159	0.0155453
690.237	0.0156515
690.315	0.0157375
690.393	0.0157231
690.471	0.0155698
690.549	0.0157261
690.628	0.0157368
690.706	0.0157869
690.784	0.0157604
690.862	0.0157213
690.940	0.0157533
691.018	0.0157172
691.096	0.0156953
691.174	0.0157260
691.253	0.0155135
691.331	0.0156820
691.409	0.0157367
691.487	0.0157990
691.565	0.0157112
691.643	0.0157373
691.721	0.0155834
691.799	0.0155497
691.878	0.0156570
691.956	0.0155042
692.034	0.0156694
692.112	0.0156744
692.190	0.0157860
692.268	0.0157381
692.346	0.0154684
692.424	0.0154606
692.503	0.0156079
692.581	0.0156742
692.659	0.0158224
692.737	0.0157571
692.815	0.0155493
692.893	0.0156335
692.971	0.0156238
693.049	0.0157083
693.128	0.0156332
693.206	0.0156828
693.284	0.0158189
693.362	0.0155968
693.440	0.0155873
693.518	0.0157552
693.596	0.0157732
693.674	0.0157262
693.753	0.0155855
693.831	0.0156998
693.909	0.0155689
693.987	0.0156552
694.065	0.0156461
694.143	0.0157181
694.221	0.0156657
694.299	0.0157530
694.378	0.0157638
694.456	0.0156409
694.534	0.0156744
694.612	0.0156293
694.690	0.0157101
694.768	0.0156788
694.846	0.0155698
694.924	0.0156755
695.003	0.0157779
695.081	0.0156461
695.159	0.0156648
695.237	0.0155972
695.315	0.0158404
695.393	0.0156924
695.471	0.0156686
695.549	0.0156557
695.628	0.0157327
695.706	0.0157387
695.784	0.0156030
695.862	0.0156461
695.940	0.0158595
696.018	0.0156895
696.096	0.0155943
696.174	0.0156538
696.253	0.0156343
696.331	0.0156647
696.409	0.0155222
696.487	0.0156532
696.565	0.0157338
696.643	0.0156762
696.721	0.0155166
696.799	0.0155589
696.878	0.0158011
696.956	0.0156494
697.034	0.0155451
697.112	0.0156927
697.190	0.0155782
697.268	0.0157713
697.346	0.0157344
697.424	0.0156632
697.503	0.0154915
697.581	0.0156579
697.659	0.0156601
697.737	0.0156313
697.815	0.0156754
697.893	0.0156837
697.971	0.0156804
698.049	0.0156248
698.128	0.0156332
698.206	0.0157610
698.284	0.0157817
698.362	0.0155927
698.440	0.0155395
698.518	0.0156046
698.596	0.0155596
698.674	0.0156435
698.753	0.0156476
698.831	0.0155891
698.909	0.0156626
698.987	0.0156432
699.065	0.0158159
699.143	0.0156304
699.221	0.0156661
699.299	0.0156044
699.378	0.0155173
699.456	0.0155916
699.534	0.0157027
699.612	0.0156668
699.690	0.0156686
699.768	0.0157634
699.846	0.0155770
699.924	0.0156666
700.003	0.0156135
700.081	0.0156108
700.159	0.0157298
700.237	0.0156979
700.315	0.0156715
700.393	0.0157512
700.471	0.0157958
700.549	0.0157257
700.628	0.0157314
700.706	0.0156004
700.784	0.0155278
700.862	0.0156525
700.940	0.0157574
701.018	0.0156253
701.096	0.0157608
701.174	0.0157189
701.253	0.0157307
701.331	0.0156458
701.409	0.0156666
701.487	0.0156611
701.565	0.0156310
701.643	0.0155279
701.721	0.0157587
701.799	0.0156221
701.878	0.0156477
701.956	0.0155821
702.034	0.0156526
702.112	0.0158121
702.190	0.0156473
702.268	0.0156253
702.346	0.0157032
702.424	0.0157138
702.503	0.0157697
702.581	0.0156481
702.659	0.0158508
702.737	0.0157853
702.815	0.0157466
702.893	0.0157862
702.971	0.0156128
703.049	0.0156413
703.128	0.0157681
703.206	0.0156507
703.284	0.0156203
703.362	0.0155964
703.440	0.0155633
703.518	0.0156844
703.596	0.0156232
703.674	0.0156748
703.753	0.0157785
703.831	0.0155527
703.909	0.0155290
703.987	0.0156712
704.065	0.0157043
704.143	0.0157581
704.221	0.0155547
704.299	0.0157024
704.378	0.0156087
704.456	0.0157060
704.534	0.0157384
704.612	0.0156880
704.690	0.0157024
704.768	0.0156711
704.846	0.0156429
704.924	0.0156039
705.003	0.0157277
705.081	0.0156986
705.159	0.0155863
705.237	0.0158610
705.315	0.0158839
705.393	0.0156603
705.471	0.0157182
705.549	0.0157693
705.628	0.0155930
705.706	0.0156825
705.784	0.0155927
705.862	0.0155788
705.940	0.0156394
706.018	0.0156580
706.096	0.0156417
706.174	0.0156472
706.253	0.0158009
706.331	0.0157272
706.409	0.0156007
706.487	0.0156871
706.565	0.0157435
706.643	0.0157633
706.721	0.0156361
706.799	0.0157002
706.878	0.0156772
706.956	0.0156379
707.034	0.0156512
707.112	0.0157228
707.190	0.0157473
707.268	0.0156493
707.346	0.0156679
707.424	0.0156036
707.503	0.0157324
707.581	0.0155504
707.659	0.0156832
707.737	0.0157249
707.815	0.0156047
707.893	0.0157013
707.971	0.0156956
708.049	0.0156599
708.128	0.0156849
708.206	0.0155865
708.284	0.0155933
708.362	0.0155768
708.440	0.0157086
708.518	0.0156013
708.596	0.0156350
708.674	0.0157941
708.753	0.0156026
708.831	0.0155534
708.909	0.0156529
708.987	0.0155466
709.065	0.0156466
709.143	0.0156356
709.221	0.0155813
709.299	0.0155658
709.378	0.0157961
709.456	0.0156213
709.534	0.0156806
709.612	0.0156059
709.690	0.0157210
709.768	0.0156075
709.846	0.0156026
709.924	0.0157490
710.003	0.0157683
710.081	0.0155276
710.159	0.0155576
710.237	0.0155994
710.315	0.0155917
710.393	0.0154964
710.471	0.0156046
710.549	0.0156988
710.628	0.0156757
710.706	0.0156973
710.784	0.0155062
710.862	0.0155439
710.940	0.0157634
711.018	0.0156128
711.096	0.0156276
711.174	0.0156896
711.253	0.0156794
711.331	0.0155855
711.409	0.0156876
711.487	0.0156869
711.565	0.0155988
711.643	0.0155524
711.721	0.0156992
711.799	0.0155338
711.878	0.0155773
711.956	0.0156790
712.034	0.0155428
712.112	0.0156481
712.190	0.0156611
712.268	0.0156719
712.346	0.0156880
712.424	0.0157159
712.503	0.0156309
712.581	0.0155626
712.659	0.0155434
712.737	0.0157031
712.815	0.0157070
712.893	0.0156178
712.971	0.0156094
713.049	0.0156950
713.128	0.0157144
713.206	0.0157119
713.284	0.0156810
713.362	0.0158524
713.440	0.0157805
713.518	0.0156535
713.596	0.0156679
713.674	0.0157767
713.753	0.0158208
713.831	0.0157994
713.909	0.0156525
713.987	0.0157710
714.065	0.0157179
714.143	0.0157109
714.221	0.0157383
714.299	0.0158073
714.378	0.0156925
714.456	0.0157761
714.534	0.0157228
714.612	0.0157108
714.690	0.0157247
714.768	0.0156516
714.846	0.0157577
714.924	0.0156774
715.003	0.0157811
715.081	0.0156563
715.159	0.0157462
715.237	0.0156860
715.315	0.0156705
715.393	0.0156838
715.471	0.0157130
715.549	0.0157554
715.628	0.0156639
715.706	0.0156097
715.784	0.0157131
715.862	0.0157213
715.940	0.0156586
716.018	0.0157110
716.096	0.0156532
716.174	0.0156803
716.253	0.0156367
716.331	0.0156021
716.409	0.0157308
716.487	0.0156429
716.565	0.0156432
716.643	0.0156461
716.721	0.0156371
716.799	0.0155617
716.878	0.0156328
716.956	0.0155389
717.034	0.0156364
717.112	0.0158080
717.190	0.0157308
717.268	0.0157225
717.346	0.0156030
717.424	0.0156673
717.503	0.0158128
717.581	0.0157365
717.659	0.0157423
717.737	0.0156821
717.815	0.0156017
717.893	0.0158220
717.971	0.0158513
718.049	0.0156884
718.128	0.0157021
718.206	0.0157098
718.284	0.0157449
718.362	0.0157140
718.440	0.0155533
718.518	0.0156365
718.596	0.0157365
718.674	0.0157057
718.753	0.0156266
718.831	0.0157710
718.909	0.0156557
718.987	0.0155888
719.065	0.0157738
719.143	0.0157443
719.221	0.0157961
719.299	0.0157852
719.378	0.0154890
719.456	0.0155870
719.534	0.0157764
719.612	0.0156660
719.690	0.0155694
719.768	0.0157025
719.846	0.0156286
719.924	0.0155363
720.003	0.0157028
720.081	0.0156542
720.159	0.0156208
720.237	0.0156509
720.315	0.0156055
720.393	0.0156447
720.471	0.0155944
720.549	0.0155406
720.628	0.0155200
720.706	0.0155816
720.784	0.0157474
720.862	0.0155054
720.940	0.0154824
721.018	0.0156448
721.096	0.0156272
721.174	0.0155893
721.253	0.0157176
721.331	0.0155822
721.409	0.0156593
721.487	0.0157618
721.565	0.0157386
721.643	0.0156447
721.721	0.0156396
721.799	0.0158160
721.878	0.0157079
721.956	0.0158182
722.034	0.0156559
722.112	0.0157745
722.190	0.0157846
722.268	0.0157459
722.346	0.0157994
722.424	0.0157410
722.503	0.0156476
722.581	0.0157724
722.659	0.0157600
722.737	0.0157362
722.815	0.0157551
722.893	0.0156628
722.971	0.0157489
723.049	0.0157333
723.128	0.0156802
723.206	0.0155856
723.284	0.0157125
723.362	0.0157160
723.440	0.0155968
723.518	0.0158224
723.596	0.0156424
723.674	0.0156434
723.753	0.0157197
723.831	0.0156117
723.909	0.0156435
723.987	0.0155698
724.065	0.0157898
724.143	0.0155797
724.221	0.0156623
724.299	0.0155927
724.378	0.0157487
724.456	0.0155717
724.534	0.0156174
724.612	0.0156555
724.690	0.0155882
724.768	0.0156514
724.846	0.0156080
724.924	0.0156728
725.003	0.0157198
725.081	0.0157981
725.159	0.0157835
725.237	0.0155643
725.315	0.0157131
725.393	0.0157259
725.471	0.0156050
725.549	0.0157039
725.628	0.0156191
725.706	0.0156159
725.784	0.0157962
725.862	0.0156493
725.940	0.0155505
726.018	0.0156853
726.096	0.0156847
726.174	0.0156718
726.253	0.0156654
726.331	0.0156733
726.409	0.0156245
726.487	0.0156213
726.565	0.0157143
726.643	0.0157275
726.721	0.0156295
726.799	0.0156415
726.878	0.0156158
726.956	0.0156670
727.034	0.0154305
727.112	0.0156284
727.190	0.0156581
727.268	0.0157430
727.346	0.0155969
727.424	0.0156104
727.503	0.0155832
727.581	0.0157558
727.659	0.0157417
727.737	0.0155959
727.815	0.0156364
727.893	0.0157404
727.971	0.0156409
728.049	0.0155506
728.128	0.0155421
728.206	0.0157384
728.284	0.0157593
728.362	0.0158158
728.440	0.0156167
728.518	0.0157612
728.596	0.0155727
728.674	0.0157529
728.753	0.0156786
728.831	0.0156663
728.909	0.0156679
728.987	0.0157352
729.065	0.0156036
729.143	0.0155690
729.221	0.0155556
729.299	0.0157354
729.378	0.0156846
729.456	0.0156754
729.534	0.0155637
729.612	0.0155900
729.690	0.0156174
729.768	0.0156078
729.846	0.0155434
729.924	0.0154909
730.003	0.0155764
730.081	0.0155273
730.159	0.0155967
730.237	0.0155890
730.315	0.0156996
730.393	0.0155766
730.471	0.0155076
730.549	0.0155492
730.628	0.0156361
730.706	0.0154630
730.784	0.0156430
730.862	0.0156523
730.940	0.0155048
731.018	0.0157281
731.096	0.0156557
731.174	0.0155579
731.253	0.0155664
731.331	0.0156319
731.409	0.0157244
731.487	0.0156496
731.565	0.0157055
731.643	0.0156946
731.721	0.0155920
731.799	0.0155663
731.878	0.0157932
731.956	0.0156093
732.034	0.0157261
732.112	0.0157738
732.190	0.0156756
732.268	0.0156984
732.346	0.0157326
732.424	0.0156493
732.503	0.0155932
732.581	0.0157344
732.659	0.0157424
732.737	0.0157175
732.815	0.0157930
732.893	0.0157026
732.971	0.0155819
733.049	0.0156152
733.128	0.0156549
733.206	0.0156944
733.284	0.0156441
733.362	0.0155959
733.440	0.0156882
733.518	0.0157878
733.596	0.0156667
733.674	0.0156299
733.753	0.0157692
733.831	0.0157276
733.909	0.0155579
733.987	0.0158330
734.065	0.0157159
734.143	0.0156928
734.221	0.0157054
734.299	0.0156789
734.378	0.0155555
734.456	0.0157264
734.534	0.0156811
734.612	0.0156786
734.690	0.0155952
734.768	0.0155939
734.846	0.0157529
734.924	0.0156470
735.003	0.0155501
735.081	0.0156195
735.159	0.0154922
735.237	0.0155827
735.315	0.0155686
735.393	0.0156113
735.471	0.0155945
735.549	0.0156995
735.628	0.0156351
735.706	0.0156880
735.784	0.0155687
735.862	0.0156980
735.940	0.0155608
736.018	0.0155869
736.096	0.0156879
736.174	0.0155713
736.253	0.0156137
736.331	0.0155198
736.409	0.0157100
736.487	0.0157401
736.565	0.0155883
736.643	0.0156168
736.721	0.0157767
736.799	0.0157954
736.878	0.0156985
736.956	0.0156855
737.034	0.0157444
737.112	0.0156886
737.190	0.0157816
737.268	0.0156269
737.346	0.0156509
737.424	0.0156755
737.503	0.0156518
737.581	0.0154747
737.659	0.0157511
737.737	0.0156268
737.815	0.0156519
737.893	0.0157171
737.971	0.0156710
738.049	0.0156183
738.128	0.0156877
738.206	0.0156107
738.284	0.0155485
738.362	0.0155800
738.440	0.0157588
738.518	0.0155760
738.596	0.0155985
738.674	0.0155508
738.753	0.0156145
738.831	0.0157152
738.909	0.0155993
738.987	0.0156771
739.065	0.0156956
739.143	0.0155662
739.221	0.0156240
739.299	0.0155145
739.378	0.0156133
739.456	0.0155746
739.534	0.0156410
739.612	0.0156784
739.690	0.0156728
739.768	0.0155556
739.846	0.0155067
739.924	0.0155296
740.003	0.0155971
740.081	0.0155724
740.159	0.0156300
740.237	0.0155212
740.315	0.0156375
740.393	0.0155692
740.471	0.0156799
740.549	0.0155339
740.628	0.0156524
740.706	0.0157668
740.784	0.0155868
740.862	0.0155838
740.940	0.0155444
741.018	0.0155479
741.096	0.0157856
741.174	0.0157587
741.253	0.0156860
741.331	0.0157662
741.409	0.0155274
741.487	0.0154749
741.565	0.0156875
741.643	0.0157836
741.721	0.0155758
741.799	0.0157036
741.878	0.0155880
741.956	0.0157101
742.034	0.0156406
742.112	0.0156710
742.190	0.0156660
742.268	0.0156727
742.346	0.0157177
742.424	0.0156165
742.503	0.0157661
742.581	0.0155248
742.659	0.0155918
742.737	0.0156200
742.815	0.0156824
742.893	0.0156633
742.971	0.0156602
743.049	0.0155548
743.128	0.0156123
743.206	0.0156890
743.284	0.0155351
743.362	0.0156300
743.440	0.0157022
743.518	0.0157669
743.596	0.0155709
743.674	0.0155149
743.753	0.0157678
743.831	0.0157052
743.909	0.0155711
743.987	0.0156799
744.065	0.0156851
744.143	0.0156075
744.221	0.0156799
744.299	0.0156329
744.378	0.0156084
744.456	0.0155740
744.534	0.0156944
744.612	0.0157508
744.690	0.0156158
744.768	0.0156616
744.846	0.0156847
744.924	0.0155665
745.003	0.0155703
745.081	0.0156564
745.159	0.0155535
745.237	0.0156911
745.315	0.0156017
745.393	0.0155812
745.471	0.0157935
745.549	0.0155804
745.628	0.0157255
745.706	0.0156863
745.784	0.0156530
745.862	0.0156946
745.940	0.0155910
746.018	0.0156114
746.096	0.0157334
746.174	0.0156474
746.253	0.0156175
746.331	0.0157133
746.409	0.0156640
746.487	0.0155749
746.565	0.0156512
746.643	0.0157188
746.721	0.0155576
746.799	0.0156645
746.878	0.0156164
746.956	0.0156110
747.034	0.0156642
747.112	0.0154869
747.190	0.0156767
747.268	0.0157143
747.346	0.0157290
747.424	0.0157796
747.503	0.0155750
747.581	0.0157054
747.659	0.0156934
747.737	0.0157200
747.815	0.0157559
747.893	0.0156699
747.971	0.0156939
748.049	0.0156253
748.128	0.0156741
748.206	0.0157107
748.284	0.0156322
748.362	0.0155825
748.440	0.0156851
748.518	0.0155897
748.596	0.0155663
748.674	0.0155821
748.753	0.0156784
748.831	0.0156967
748.909	0.0155661
748.987	0.0155855
749.065	0.0156564
749.143	0.0158154
749.221	0.0156465
749.299	0.0156773
749.378	0.0158052
749.456	0.0156676
749.534	0.0155865
749.612	0.0157268
749.690	0.0157307
749.768	0.0154018
749.846	0.0156885
749.924	0.0157507
750.003	0.0157497
750.081	0.0156579
750.159	0.0156572
750.237	0.0156713
750.315	0.0156322
750.393	0.0157213
750.471	0.0157200
750.549	0.0157098
750.628	0.0157321
750.706	0.0156631
750.784	0.0156435
750.862	0.0156608
750.940	0.0157011
751.018	0.0157677
751.096	0.0158366
751.174	0.0155212
751.253	0.0156557
751.331	0.0155851
751.409	0.0156531
751.487	0.0156463
751.565	0.0156503
751.643	0.0156723
751.721	0.0156427
751.799	0.0156437
751.878	0.0156821
751.956	0.0154863
752.034	0.0156572
752.112	0.0155747
752.190	0.0155221
752.268	0.0156155
752.346	0.0154837
752.424	0.0155109
752.503	0.0156002
752.581	0.0156303
752.659	0.0155939
752.737	0.0156845
752.815	0.0156078
752.893	0.0156097
752.971	0.0156712
753.049	0.0156536
753.128	0.0156834
753.206	0.0156741
753.284	0.0156274
753.362	0.0156062
753.440	0.0156800
753.518	0.0156922
753.596	0.0157048
753.674	0.0156856
753.753	0.0156310
753.831	0.0155672
753.909	0.0158052
753.987	0.0156780
754.065	0.0155138
754.143	0.0157273
754.221	0.0157244
754.299	0.0157021
754.378	0.0156683
754.456	0.0157124
754.534	0.0156818
754.612	0.0156067
754.690	0.0157547
754.768	0.0155945
754.846	0.0157210
754.924	0.0157150
755.003	0.0157928
755.081	0.0156595
755.159	0.0158372
755.237	0.0156333
755.315	0.0156331
755.393	0.0156522
755.471	0.0155312
755.549	0.0156118
755.628	0.0157033
755.706	0.0158237
755.784	0.0155508
755.862	0.0155826
755.940	0.0156796
756.018	0.0156802
756.096	0.0156539
756.174	0.0156087
756.253	0.0155709
756.331	0.0156988
756.409	0.0156832
756.487	0.0155952
756.565	0.0156452
756.643	0.0156921
756.721	0.0157632
756.799	0.0156104
756.878	0.0157072
756.956	0.0157695
757.034	0.0156191
757.112	0.0158278
757.190	0.0155188
757.268	0.0156491
757.346	0.0156118
757.424	0.0156301
757.503	0.0156723
757.581	0.0155771
757.659	0.0157055
757.737	0.0156898
757.815	0.0156574
757.893	0.0156506
757.971	0.0156279
758.049	0.0155859
758.128	0.0156546
758.206	0.0156124
758.284	0.0156403
758.362	0.0157028
758.440	0.0155489
758.518	0.0156448
758.596	0.0155927
758.674	0.0156308
758.753	0.0156966
758.831	0.0156825
758.909	0.0155643
758.987	0.0156316
759.065	0.0155516
759.143	0.0155778
759.221	0.0156184
759.299	0.0154996
759.378	0.0156336
759.456	0.0156094
759.534	0.0157520
759.612	0.0156611
759.690	0.0154949
759.768	0.0157639
759.846	0.0157636
759.924	0.0157039
760.003	0.0156889
760.081	0.0156728
760.159	0.0156062
760.237	0.0156528
760.315	0.0157152
760.393	0.0156426
760.471	0.0157661
760.549	0.0155862
760.628	0.0155833
760.706	0.0155675
760.784	0.0155260
760.862	0.0155418
760.940	0.0157787
761.018	0.0156102
761.096	0.0155599
761.174	0.0155842
761.253	0.0155144
761.331	0.0156399
761.409	0.0156525
761.487	0.0155190
761.565	0.0156230
761.643	0.0156034
761.721	0.0154745
761.799	0.0156902
761.878	0.0157456
761.956	0.0156676
762.034	0.0156351
762.112	0.0157785
762.190	0.0156943
762.268	0.0156834
762.346	0.0156575
762.424	0.0156492
762.503	0.0157442
762.581	0.0157561
762.659	0.0156584
762.737	0.0157173
762.815	0.0157275
762.893	0.0156888
762.971	0.0156790
763.049	0.0157362
763.128	0.0156141
763.206	0.0157317
763.284	0.0156970
763.362	0.0157723
763.440	0.0156581
763.518	0.0155468
763.596	0.0157831
763.674	0.0157671
763.753	0.0156818
763.831	0.0156766
763.909	0.0155698
763.987	0.0156510
764.065	0.0156805
764.143	0.0157358
764.221	0.0156835
764.299	0.0155846
764.378	0.0157207
764.456	0.0156227
764.534	0.0156249
764.612	0.0156972
764.690	0.0156313
764.768	0.0156020
764.846	0.0156236
764.924	0.0157882
765.003	0.0156422
765.081	0.0156892
765.159	0.0157051
765.237	0.0156120
765.315	0.0156065
765.393	0.0155879
765.471	0.0158074
765.549	0.0157025
765.628	0.0155650
765.706	0.0157290
765.784	0.0157108
765.862	0.0156617
765.940	0.0156637
766.018	0.0157377
766.096	0.0157573
766.174	0.0157072
766.253	0.0156907
766.331	0.0155367
766.409	0.0157159
766.487	0.0157944
766.565	0.0157497
766.643	0.0157353
766.721	0.0155766
766.799	0.0156419
766.878	0.0155889
766.956	0.0157396
767.034	0.0158615
767.112	0.0157685
767.190	0.0157753
767.268	0.0157878
767.346	0.0156843
767.424	0.0156796
767.503	0.0155742
767.581	0.0157755
767.659	0.0156995
767.737	0.0156896
767.815	0.0155997
767.893	0.0157687
767.971	0.0156936
768.049	0.0156094
768.128	0.0155787
768.206	0.0156195
768.284	0.0155524
768.362	0.0156049
768.440	0.0157813
768.518	0.0158253
768.596	0.0158610
768.674	0.0157354
768.753	0.0156348
768.831	0.0157145
768.909	0.0156209
768.987	0.0158090
769.065	0.0158709
769.143	0.0156972
769.221	0.0157256
769.299	0.0157719
769.378	0.0156854
769.456	0.0157118
769.534	0.0156525
769.612	0.0157395
769.690	0.0157639
769.768	0.0155754
769.846	0.0156606
769.924	0.0156570
770.003	0.0158134
770.081	0.0157466
770.159	0.0156751
770.237	0.0156189
770.315	0.0157075
770.393	0.0157804
770.471	0.0156998
770.549	0.0156972
770.628	0.0157369
770.706	0.0156645
770.784	0.0156377
770.862	0.0155708
770.940	0.0156100
771.018	0.0156848
771.096	0.0156432
771.174	0.0156601
771.253	0.0156423
771.331	0.0156551
771.409	0.0156470
771.487	0.0155373
771.565	0.0156467
771.643	0.0157415
771.721	0.0157182
771.799	0.0157339
771.878	0.0156782
771.956	0.0157362
772.034	0.0157877
772.112	0.0157101
772.190	0.0156145
772.268	0.0157136
772.346	0.0157917
772.424	0.0157064
772.503	0.0156042
772.581	0.0156637
772.659	0.0156964
772.737	0.0156741
772.815	0.0155354
772.893	0.0156924
772.971	0.0156837
773.049	0.0157265
773.128	0.0157004
773.206	0.0156512
773.284	0.0158120
773.362	0.0156104
773.440	0.0156378
773.518	0.0157102
773.596	0.0158353
773.674	0.0156509
773.753	0.0156714
773.831	0.0157359
773.909	0.0156906
773.987	0.0156927
774.065	0.0157927
774.143	0.0157774
774.221	0.0155829
774.299	0.0157165
774.378	0.0156526
774.456	0.0156737
774.534	0.0156020
774.612	0.0156648
774.690	0.0157416
774.768	0.0157803
774.846	0.0157075
774.924	0.0157673
775.003	0.0157982
775.081	0.0157405
775.159	0.0155975
775.237	0.0155965
775.315	0.0155705
775.393	0.0155975
775.471	0.0156747
775.549	0.0156869
775.628	0.0156143
775.706	0.0155811
775.784	0.0156905
775.862	0.0158320
775.940	0.0157382
776.018	0.0155882
776.096	0.0157406
776.174	0.0157763
776.253	0.0156348
776.331	0.0155821
776.409	0.0157415
776.487	0.0157807
776.565	0.0157551
776.643	0.0157497
776.721	0.0156585
776.799	0.0156960
776.878	0.0156351
776.956	0.0157347
777.034	0.0156270
777.112	0.0156768
777.190	0.0156670
777.268	0.0156517
777.346	0.0156578
777.424	0.0157919
777.503	0.0157890
777.581	0.0157272
777.659	0.0156718
777.737	0.0157805
777.815	0.0156685
777.893	0.0156435
777.971	0.0156974
778.049	0.0156953
778.128	0.0157007
778.206	0.0155677
778.284	0.0156712
778.362	0.0155997
778.440	0.0156361
778.518	0.0156836
778.596	0.0157443
778.674	0.0156995
778.753	0.0156853
778.831	0.0157040
778.909	0.0156508
778.987	0.0157027
779.065	0.0157044
779.143	0.0156488
779.221	0.0156656
779.299	0.0157211
779.378	0.0157440
779.456	0.0156225
779.534	0.0157770
779.612	0.0156151
779.690	0.0157622
779.768	0.0157026
779.846	0.0156026
779.924	0.0158217
780.003	0.0157473
780.081	0.0156898
780.159	0.0155907
780.237	0.0157616
780.315	0.0156634
780.393	0.0155994
780.471	0.0157043
780.549	0.0157703
780.628	0.0156467
780.706	0.0156818
780.784	0.0156556
780.862	0.0155927
780.940	0.0157525
781.018	0.0157957
781.096	0.0157462
781.174	0.0157621
781.253	0.0156249
781.331	0.0154764
781.409	0.0156594
781.487	0.0157732
781.565	0.0156754
781.643	0.0156576
781.721	0.0156839
781.799	0.0157741
781.878	0.0157354
781.956	0.0156283
782.034	0.0157844
782.112	0.0157020
782.190	0.0158153
782.268	0.0157500
782.346	0.0156705
782.424	0.0157651
782.503	0.0157763
782.581	0.0157994
782.659	0.0158256
782.737	0.0156845
782.815	0.0157607
782.893	0.0158940
782.971	0.0156361
783.049	0.0156477
783.128	0.0154949
783.206	0.0157677
783.284	0.0156358
783.362	0.0155877
783.440	0.0156131
783.518	0.0156573
783.596	0.0156164
783.674	0.0156065
783.753	0.0156226
783.831	0.0157624
783.909	0.0156199
783.987	0.0156312
784.065	0.0157494
784.143	0.0157552
784.221	0.0155447
784.299	0.0156033
784.378	0.0157009
784.456	0.0156990
784.534	0.0157069
784.612	0.0157741
784.690	0.0157919
784.768	0.0157507
784.846	0.0156985
784.924	0.0158597
785.003	0.0157894
785.081	0.0157116
785.159	0.0156927
785.237	0.0156578
785.315	0.0158076
785.393	0.0158710
785.471	0.0156867
785.549	0.0157547
785.628	0.0157080
785.706	0.0157369
785.784	0.0158432
785.862	0.0157915
785.940	0.0157227
786.018	0.0157201
786.096	0.0156306
786.174	0.0157465
786.253	0.0156804
786.331	0.0157517
786.409	0.0156465
786.487	0.0157754
786.565	0.0156027
786.643	0.0155901
786.721	0.0157148
786.799	0.0157255
786.878	0.0156643
786.956	0.0156662
787.034	0.0156553
787.112	0.0157059
787.190	0.0155625
787.268	0.0156504
787.346	0.0156590
787.424	0.0156969
787.503	0.0157462
787.581	0.0157370
787.659	0.0155667
787.737	0.0157536
787.815	0.0156442
787.893	0.0156194
787.971	0.0157190
788.049	0.0157242
788.128	0.0157538
788.206	0.0155758
788.284	0.0157225
788.362	0.0156644
788.440	0.0157470
788.518	0.0156502
788.596	0.0156969
788.674	0.0155962
788.753	0.0157810
788.831	0.0156898
788.909	0.0157324
788.987	0.0158617
789.065	0.0156142
789.143	0.0158286
789.221	0.0155727
789.299	0.0156837
789.378	0.0156488
789.456	0.0156455
789.534	0.0157424
789.612	0.0157327
789.690	0.0158282
789.768	0.0156992
789.846	0.0156944
789.924	0.0156927
790.003	0.0156731
790.081	0.0155336
790.159	0.0157761
790.237	0.0158030
790.315	0.0157436
790.393	0.0155927
790.471	0.0157244
790.549	0.0157041
790.628	0.0157233
790.706	0.0157034
790.784	0.0156279
790.862	0.0157336
790.940	0.0156903
791.018	0.0156188
791.096	0.0156186
791.174	0.0157906
791.253	0.0156750
791.331	0.0156360
791.409	0.0156938
791.487	0.0157155
791.565	0.0157317
791.643	0.0158408
791.721	0.0158213
791.799	0.0156424
791.878	0.0156926
791.956	0.0158450
792.034	0.0157381
792.112	0.0157803
792.190	0.0157992
792.268	0.0156787
792.346	0.0156035
792.424	0.0156658
792.503	0.0157617
792.581	0.0157432
792.659	0.0155841
792.737	0.0156754
792.815	0.0157386
792.893	0.0157036
792.971	0.0156281
793.049	0.0156807
793.128	0.0156995
793.206	0.0156697
793.284	0.0156578
793.362	0.0157095
793.440	0.0156692
793.518	0.0156665
793.596	0.0157256
793.674	0.0156973
793.753	0.0156392
793.831	0.0157150
793.909	0.0157832
793.987	0.0157193
794.065	0.0156062
794.143	0.0156877
794.221	0.0157304
794.299	0.0157532
794.378	0.0157279
794.456	0.0157658
794.534	0.0157238
794.612	0.0156557
794.690	0.0158025
794.768	0.0157014
794.846	0.0157410
794.924	0.0156961
795.003	0.0157294
795.081	0.0157620
795.159	0.0156416
795.237	0.0156498
795.315	0.0156616
795.393	0.0157379
795.471	0.0155858
795.549	0.0157327
795.628	0.0158040
795.706	0.0158390
795.784	0.0155421
795.862	0.0155869
795.940	0.0156959
796.018	0.0156879
796.096	0.0156751
796.174	0.0156956
796.253	0.0155724
796.331	0.0155821
796.409	0.0157682
796.487	0.0157102
796.565	0.0155135
796.643	0.0156515
796.721	0.0156382
796.799	0.0156380
796.878	0.0156325
796.956	0.0155930
797.034	0.0157088
797.112	0.0157359
797.190	0.0156914
797.268	0.0157121
797.346	0.0156979
797.424	0.0157195
797.503	0.0155855
797.581	0.0156287
797.659	0.0156930
797.737	0.0156711
797.815	0.0156312
797.893	0.0156754
797.971	0.0156539
798.049	0.0157182
798.128	0.0157150
798.206	0.0156852
798.284	0.0155290
798.362	0.0155723
798.440	0.0157036
798.518	0.0157314
798.596	0.0156882
798.674	0.0157050
798.753	0.0157047
798.831	0.0154891
798.909	0.0157224
798.987	0.0157300
799.065	0.0157074
799.143	0.0157607
799.221	0.0156187
799.299	0.0157652
799.378	0.0156182
799.456	0.0156226
799.534	0.0157299
799.612	0.0158179
799.690	0.0156853
799.768	0.0158161
799.846	0.0155825
799.924	0.0156226
800.003	0.0157046
800.081	0.0157529
800.159	0.0157055
800.237	0.0158212
800.315	0.0157489
800.393	0.0157413
800.471	0.0157179
800.549	0.0157639
800.628	0.0157380
800.706	0.0157228
800.784	0.0157722
800.862	0.0157079
800.940	0.0156734
801.018	0.0156735
801.096	0.0156280
801.174	0.0156249
801.253	0.0156380
801.331	0.0155913
801.409	0.0156854
801.487	0.0156241
801.565	0.0156184
801.643	0.0156959
801.721	0.0157002
801.799	0.0155612
801.878	0.0156285
801.956	0.0157025
802.034	0.0157359
802.112	0.0157095
802.190	0.0155524
802.268	0.0156815
802.346	0.0157506
802.424	0.0156305
802.503	0.0157571
802.581	0.0156624
802.659	0.0157003
802.737	0.0157911
802.815	0.0158115
802.893	0.0156961
802.971	0.0157581
803.049	0.0156612
803.128	0.0157321
803.206	0.0157293
803.284	0.0157674
803.362	0.0156595
803.440	0.0156966
803.518	0.0156187
803.596	0.0157887
803.674	0.0155750
803.753	0.0155741
803.831	0.0156313
803.909	0.0156097
803.987	0.0154934
804.065	0.0156094
804.143	0.0156643
804.221	0.0155946
804.299	0.0158035
804.378	0.0155843
804.456	0.0156644
804.534	0.0157453
804.612	0.0158157
804.690	0.0158288
804.768	0.0155871
804.846	0.0155128
804.924	0.0156674
805.003	0.0154765
805.081	0.0157018
805.159	0.0156894
805.237	0.0157080
805.315	0.0158716
805.393	0.0157705
805.471	0.0158465
805.549	0.0156274
805.628	0.0157756
805.706	0.0157290
805.784	0.0156973
805.862	0.0156773
805.940	0.0156808
806.018	0.0156429
806.096	0.0157270
806.174	0.0156879
806.253	0.0158297
806.331	0.0156753
806.409	0.0157432
806.487	0.0157689
806.565	0.0156526
806.643	0.0157713
806.721	0.0157195
806.799	0.0155988
806.878	0.0155677
806.956	0.0157103
807.034	0.0156666
807.112	0.0155779
807.190	0.0156155
807.268	0.0156791
807.346	0.0156593
807.424	0.0157623
807.503	0.0156464
807.581	0.0156252
807.659	0.0157467
807.737	0.0157344
807.815	0.0156654
807.893	0.0156658
807.971	0.0157493
808.049	0.0156045
808.128	0.0157079
808.206	0.0156136
808.284	0.0156894
808.362	0.0157368
808.440	0.0157093
808.518	0.0156942
808.596	0.0156879
808.674	0.0156613
808.753	0.0156005
808.831	0.0155840
808.909	0.0157095
808.987	0.0157789
809.065	0.0157533
809.143	0.0157387
809.221	0.0156902
809.299	0.0156749
809.378	0.0155993
809.456	0.0156382
809.534	0.0158092
809.612	0.0156180
809.690	0.0155390
809.768	0.0157309
809.846	0.0157207
809.924	0.0155053
810.003	0.0156573
810.081	0.0156959
810.159	0.0157574
810.237	0.0156997
810.315	0.0157507
810.393	0.0156038
810.471	0.0156282
810.549	0.0155708
810.628	0.0156372
810.706	0.0156807
810.784	0.0155746
810.862	0.0156651
810.940	0.0157971
811.018	0.0157751
811.096	0.0157472
811.174	0.0155286
811.253	0.0157523
811.331	0.0156763
811.409	0.0157158
811.487	0.0157194
811.565	0.0156403
811.643	0.0156631
811.721	0.0156847
811.799	0.0157871
811.878	0.0156480
811.956	0.0156396
812.034	0.0157671
812.112	0.0157620
812.190	0.0155769
812.268	0.0155788
812.346	0.0157704
812.424	0.0157034
812.503	0.0157195
812.581	0.0157453
812.659	0.0157690
812.737	0.0155873
812.815	0.0157259
812.893	0.0156992
812.971	0.0156393
813.049	0.0158591
813.128	0.0157183
813.206	0.0156196
813.284	0.0157238
813.362	0.0157241
813.440	0.0157116
813.518	0.0156654
813.596	0.0156967
813.674	0.0156785
813.753	0.0156850
813.831	0.0155791
813.909	0.0157320
813.987	0.0158078
814.065	0.0156276
814.143	0.0155859
814.221	0.0155493
814.299	0.0157260
814.378	0.0157439
814.456	0.0157493
814.534	0.0157565
814.612	0.0156258
814.690	0.0157510
814.768	0.0156918
814.846	0.0157127
814.924	0.0157001
815.003	0.0157154
815.081	0.0156847
815.159	0.0157458
815.237	0.0156297
815.315	0.0157667
815.393	0.0156610
815.471	0.0157127
815.549	0.0157569
815.628	0.0158825
815.706	0.0156980
815.784	0.0156543
815.862	0.0157576
815.940	0.0156895
816.018	0.0158574
816.096	0.0155463
816.174	0.0157509
816.253	0.0156818
816.331	0.0156226
816.409	0.0156222
816.487	0.0157236
816.565	0.0155204
816.643	0.0154786
816.721	0.0157192
816.799	0.0156396
816.878	0.0155885
816.956	0.0156082
817.034	0.0156467
817.112	0.0156099
817.190	0.0154599
817.268	0.0156190
817.346	0.0157641
817.424	0.0156400
817.503	0.0156381
817.581	0.0156602
817.659	0.0156790
817.737	0.0157991
817.815	0.0158049
817.893	0.0156429
817.971	0.0155254
818.049	0.0156920
818.128	0.0156532
818.206	0.0157755
818.284	0.0155988
818.362	0.0156802
818.440	0.0156503
818.518	0.0157298
818.596	0.0157371
818.674	0.0155947
818.753	0.0156738
818.831	0.0156763
818.909	0.0155704
818.987	0.0157675
819.065	0.0156647
819.143	0.0154928
819.221	0.0155618
819.299	0.0156679
819.378	0.0157016
819.456	0.0157093
819.534	0.0156215
819.612	0.0157710
819.690	0.0156545
819.768	0.0156229
819.846	0.0156313
819.924	0.0156635
820.003	0.0156084
820.081	0.0156219
820.159	0.0157013
820.237	0.0155552
820.315	0.0156667
820.393	0.0157454
820.471	0.0158045
820.549	0.0155348
820.628	0.0155974
820.706	0.0156416
820.784	0.0156568
820.862	0.0155410
820.940	0.0157346
821.018	0.0156210
821.096	0.0155519
821.174	0.0156271
821.253	0.0157511
821.331	0.0156992
821.409	0.0155151
821.487	0.0156586
821.565	0.0157204
821.643	0.0156123
821.721	0.0156796
821.799	0.0156960
821.878	0.0157735
821.956	0.0157746
822.034	0.0155965
822.112	0.0156552
822.190	0.0157777
822.268	0.0156670
822.346	0.0156062
822.424	0.0155209
822.503	0.0157388
822.581	0.0156477
822.659	0.0156458
822.737	0.0157699
822.815	0.0157614
822.893	0.0157218
822.971	0.0156639
823.049	0.0157070
823.128	0.0156477
823.206	0.0156116
823.284	0.0156603
823.362	0.0155698
823.440	0.0156872
823.518	0.0157069
823.596	0.0157098
823.674	0.0157599
823.753	0.0156803
823.831	0.0157518
823.909	0.0158582
823.987	0.0156378
824.065	0.0157697
824.143	0.0157122
824.221	0.0157539
824.299	0.0156310
824.378	0.0156458
824.456	0.0157451
824.534	0.0157069
824.612	0.0156329
824.690	0.0156411
824.768	0.0156162
824.846	0.0156599
824.924	0.0155952
825.003	0.0157402
825.081	0.0158286
825.159	0.0156609
825.237	0.0157910
825.315	0.0156062
825.393	0.0157557
825.471	0.0156348
825.549	0.0156927
825.628	0.0157256
825.706	0.0157112
825.784	0.0156482
825.862	0.0157355
825.940	0.0157673
826.018	0.0158801
826.096	0.0157506
826.174	0.0156573
826.253	0.0157204
826.331	0.0158154
826.409	0.0157787
826.487	0.0157957
826.565	0.0157449
826.643	0.0155554
826.721	0.0156946
826.799	0.0156207
826.878	0.0156777
826.956	0.0158143
827.034	0.0157113
827.112	0.0157035
827.190	0.0156977
827.268	0.0156893
827.346	0.0156953
827.424	0.0156538
827.503	0.0156339
827.581	0.0156659
827.659	0.0156757
827.737	0.0156715
827.815	0.0157650
827.893	0.0157050
827.971	0.0156138
828.049	0.0157409
828.128	0.0156544
828.206	0.0156898
828.284	0.0158041
828.362	0.0156058
828.440	0.0155870
828.518	0.0155196
828.596	0.0156458
828.674	0.0157669
828.753	0.0158398
828.831	0.0156227
828.909	0.0156776
828.987	0.0155707
829.065	0.0156755
829.143	0.0157797
829.221	0.0157101
829.299	0.0157286
829.378	0.0157258
829.456	0.0155726
829.534	0.0156081
829.612	0.0156384
829.690	0.0158171
829.768	0.0158007
829.846	0.0156619
829.924	0.0157175
830.003	0.0156830
830.081	0.0156979
830.159	0.0157476
830.237	0.0156989
830.315	0.0156934
830.393	0.0157493
830.471	0.0156328
830.549	0.0156034
830.628	0.0156038
830.706	0.0156236
830.784	0.0157555
830.862	0.0156283
830.940	0.0157004
831.018	0.0156555
831.096	0.0158025
831.174	0.0156792
831.253	0.0156667
831.331	0.0156414
831.409	0.0158112
831.487	0.0156469
831.565	0.0156166
831.643	0.0156751
831.721	0.0155824
831.799	0.0156754
831.878	0.0158023
831.956	0.0156117
832.034	0.0155531
832.112	0.0156356
832.190	0.0156674
832.268	0.0156577
832.346	0.0157181
832.424	0.0156042
832.503	0.0157211
832.581	0.0156174
832.659	0.0156692
832.737	0.0156669
832.815	0.0157549
832.893	0.0157368
832.971	0.0156742
833.049	0.0155833
833.128	0.0157906
833.206	0.0157701
833.284	0.0155468
833.362	0.0156522
833.440	0.0157133
833.518	0.0157188
833.596	0.0155999
833.674	0.0156462
833.753	0.0158021
833.831	0.0155736
833.909	0.0156055
833.987	0.0157950
834.065	0.0156660
834.143	0.0156356
834.221	0.0157568
834.299	0.0156910
834.378	0.0154832
834.456	0.0155989
834.534	0.0156450
834.612	0.0157215
834.690	0.0155623
834.768	0.0154838
834.846	0.0158191
834.924	0.0159128
835.003	0.0158105
835.081	0.0157045
835.159	0.0157909
835.237	0.0157842
835.315	0.0157069
835.393	0.0159613
835.471	0.0157717
835.549	0.0156505
835.628	0.0157229
835.706	0.0157614
835.784	0.0157314
835.862	0.0158586
835.940	0.0157070
836.018	0.0157178
836.096	0.0156762
836.174	0.0158619
836.253	0.0156664
836.331	0.0155533
836.409	0.0157338
836.487	0.0156963
836.565	0.0156121
836.643	0.0156158
836.721	0.0156257
836.799	0.0157131
836.878	0.0155296
836.956	0.0155108
837.034	0.0154932
837.112	0.0155786
837.190	0.0155996
837.268	0.0155312
837.346	0.0156491
837.424	0.0156768
837.503	0.0156528
837.581	0.0155952
837.659	0.0155951
837.737	0.0158035
837.815	0.0157262
837.893	0.0156116
837.971	0.0157355
838.049	0.0157075
838.128	0.0156946
838.206	0.0158322
838.284	0.0157150
838.362	0.0157939
838.440	0.0157241
838.518	0.0155498
838.596	0.0157124
838.674	0.0158296
838.753	0.0157819
838.831	0.0156413
838.909	0.0155731
838.987	0.0157384
839.065	0.0157985
839.143	0.0157571
839.221	0.0158191
839.299	0.0157581
839.378	0.0157017
839.456	0.0157163
839.534	0.0157079
839.612	0.0156483
839.690	0.0157438
839.768	0.0156590
839.846	0.0156651
839.924	0.0155795
840.003	0.0156569
840.081	0.0156762
840.159	0.0157244
840.237	0.0156580
840.315	0.0156827
840.393	0.0154700
840.471	0.0155846
840.549	0.0154841
840.628	0.0155626
840.706	0.0156233
840.784	0.0155089
840.862	0.0154382
840.940	0.0155472
841.018	0.0155605
841.096	0.0156618
841.174	0.0155583
841.253	0.0155463
841.331	0.0156263
841.409	0.0155965
841.487	0.0156105
841.565	0.0155291
841.643	0.0154225
841.721	0.0156815
841.799	0.0155495
841.878	0.0155743
841.956	0.0155654
842.034	0.0155624
842.112	0.0155718
842.190	0.0156953
842.268	0.0157889
842.346	0.0154562
842.424	0.0157297
842.503	0.0158878
842.581	0.0158019
842.659	0.0157037
842.737	0.0157570
842.815	0.0157703
842.893	0.0157671
842.971	0.0158388
843.049	0.0159017
843.128	0.0157069
843.206	0.0158558
843.284	0.0158208
843.362	0.0157109
843.440	0.0158650
843.518	0.0159400
843.596	0.0158215
843.674	0.0158172
843.753	0.0158672
843.831	0.0157314
843.909	0.0156715
843.987	0.0157182
844.065	0.0157607
844.143	0.0156260
844.221	0.0157607
844.299	0.0156621
844.378	0.0155563
844.456	0.0157114
844.534	0.0156547
844.612	0.0157422
844.690	0.0155324
844.768	0.0156168
844.846	0.0154787
844.924	0.0156249
845.003	0.0155505
845.081	0.0154863
845.159	0.0154105
845.237	0.0154327
845.315	0.0154590
845.393	0.0155431
845.471	0.0154273
845.549	0.0154298
845.628	0.0156638
845.706	0.0156229
845.784	0.0155573
845.862	0.0156039
845.940	0.0156583
846.018	0.0157524
846.096	0.0156477
846.174	0.0156324
846.253	0.0155450
846.331	0.0157146
846.409	0.0157550
846.487	0.0157381
846.565	0.0158881
846.643	0.0157269
846.721	0.0158778
846.799	0.0157634
846.878	0.0157148
846.956	0.0159119
847.034	0.0158275
847.112	0.0158314
847.190	0.0157948
847.268	0.0157081
847.346	0.0159073
847.424	0.0158237
847.503	0.0158900
847.581	0.0157446
847.659	0.0158520
847.737	0.0156528
847.815	0.0157084
847.893	0.0157126
847.971	0.0157780
848.049	0.0157585
848.128	0.0156420
848.206	0.0158495
848.284	0.0156752
848.362	0.0156178
848.440	0.0157612
848.518	0.0156331
848.596	0.0155545
848.674	0.0156176
848.753	0.0155191
848.831	0.0155545
848.909	0.0155370
848.987	0.0156091
849.065	0.0155228
849.143	0.0155864
849.221	0.0154745
849.299	0.0154442
849.378	0.0154792
849.456	0.0155602
849.534	0.0154391
849.612	0.0156178
849.690	0.0155235
849.768	0.0154689
849.846	0.0155211
849.924	0.0156019
850.003	0.0156316
850.081	0.0155898
850.159	0.0155685
850.237	0.0155988
850.315	0.0157344
850.393	0.0155688
850.471	0.0156174
850.549	0.0157519
850.628	0.0157672
850.706	0.0159566
850.784	0.0158664
850.862	0.0156986
850.940	0.0158344
851.018	0.0158169
851.096	0.0157957
851.174	0.0157510
851.253	0.0158701
851.331	0.0159151
851.409	0.0159189
851.487	0.0158216
851.565	0.0158711
851.643	0.0159003
851.721	0.0158805
851.799	0.0159452
851.878	0.0157607
851.956	0.0158900
852.034	0.0158121
852.112	0.0157234
852.190	0.0156208
852.268	0.0156960
852.346	0.0158215
852.424	0.0157292
852.503	0.0154754
852.581	0.0155610
852.659	0.0156935
852.737	0.0157184
852.815	0.0156288
852.893	0.0155344
852.971	0.0157053
853.049	0.0155929
853.128	0.0155887
853.206	0.0155505
853.284	0.0156039
853.362	0.0155160
853.440	0.0154817
853.518	0.0155382
853.596	0.0157457
853.674	0.0155521
853.753	0.0156322
853.831	0.0156409
853.909	0.0156676
853.987	0.0156741
854.065	0.0156652
854.143	0.0155859
854.221	0.0157392
854.299	0.0156979
854.378	0.0158106
854.456	0.0156586
854.534	0.0157171
854.612	0.0157289
854.690	0.0156042
854.768	0.0157299
854.846	0.0156435
854.924	0.0158350
855.003	0.0157781
855.081	0.0158044
855.159	0.0157504
855.237	0.0156863
855.315	0.0157320
855.393	0.0157214
855.471	0.0155882
855.549	0.0156187
855.628	0.0157062
855.706	0.0156549
855.784	0.0157498
855.862	0.0157214
855.940	0.0156335
856.018	0.0156953
856.096	0.0156911
856.174	0.0156318
856.253	0.0155865
856.331	0.0155643
856.409	0.0155529
856.487	0.0156701
856.565	0.0156706
856.643	0.0155753
856.721	0.0157811
856.799	0.0156227
856.878	0.0157172
856.956	0.0156747
857.034	0.0156315
857.112	0.0156155
857.190	0.0156287
857.268	0.0156962
857.346	0.0155890
857.424	0.0157403
857.503	0.0156960
857.581	0.0156941
857.659	0.0157125
857.737	0.0156439
857.815	0.0155543
857.893	0.0157115
857.971	0.0156324
858.049	0.0155303
858.128	0.0155918
858.206	0.0157108
858.284	0.0157095
858.362	0.0156644
858.440	0.0156499
858.518	0.0155972
858.596	0.0156364
858.674	0.0157701
858.753	0.0156326
858.831	0.0156348
858.909	0.0157983
858.987	0.0156317
859.065	0.0155853
859.143	0.0155727
859.221	0.0157312
859.299	0.0158279
859.378	0.0157267
859.456	0.0156598
859.534	0.0157623
859.612	0.0156745
859.690	0.0157849
859.768	0.0157890
859.846	0.0157329
859.924	0.0155750
860.003	0.0156682
860.081	0.0158064
860.159	0.0158572
860.237	0.0157233
860.315	0.0157008
860.393	0.0157925
860.471	0.0158231
860.549	0.0157774
860.628	0.0157744
860.706	0.0158684
860.784	0.0156643
860.862	0.0157314
860.940	0.0157741
861.018	0.0157089
861.096	0.0156450
861.174	0.0155492
861.253	0.0157293
861.331	0.0156908
861.409	0.0157027
861.487	0.0156522
861.565	0.0156931
861.643	0.0157229
861.721	0.0155632
861.799	0.0156129
861.878	0.0155214
861.956	0.0155353
862.034	0.0156555
862.112	0.0156042
862.190	0.0154653
862.268	0.0156449
862.346	0.0154326
862.424	0.0154651
862.503	0.0154693
862.581	0.0155615
862.659	0.0155650
862.737	0.0156271
862.815	0.0155162
862.893	0.0155177
862.971	0.0155778
863.049	0.0158015
863.128	0.0156794
863.206	0.0155981
863.284	0.0155100
863.362	0.0157421
863.440	0.0157906
863.518	0.0157124
863.596	0.0156493
863.674	0.0156347
863.753	0.0156581
863.831	0.0157246
863.909	0.0157532
863.987	0.0157303
864.065	0.0157912
864.143	0.0157478
864.221	0.0157867
864.299	0.0157980
864.378	0.0157849
864.456	0.0156680
864.534	0.0158154
864.612	0.0158775
864.690	0.0157623
864.768	0.0157465
864.846	0.0158538
864.924	0.0156669
865.003	0.0158389
865.081	0.0157162
865.159	0.0157397
865.237	0.0157333
865.315	0.0157819
865.393	0.0157671
865.471	0.0158170
865.549	0.0156850
865.628	0.0156973
865.706	0.0156398
865.784	0.0157281
865.862	0.0156489
865.940	0.0158279
866.018	0.0155706
866.096	0.0156741
866.174	0.0155555
866.253	0.0156173
866.331	0.0155713
866.409	0.0155568
866.487	0.0156913
866.565	0.0155787
866.643	0.0157023
866.721	0.0156584
866.799	0.0155885
866.878	0.0156342
866.956	0.0155883
867.034	0.0154392
867.112	0.0155148
867.190	0.0154786
867.268	0.0156272
867.346	0.0154852
867.424	0.0156554
867.503	0.0155273
867.581	0.0156617
867.659	0.0155502
867.737	0.0155084
867.815	0.0156574
867.893	0.0156502
867.971	0.0157028
868.049	0.0156841
868.128	0.0158209
868.206	0.0155792
868.284	0.0156914
868.362	0.0157366
868.440	0.0157835
868.518	0.0157398
868.596	0.0157474
868.674	0.0156680
868.753	0.0157864
868.831	0.0157453
868.909	0.0158479
868.987	0.0157641
869.065	0.0156608
869.143	0.0156294
869.221	0.0157858
869.299	0.0156952
869.378	0.0157507
869.456	0.0158943
869.534	0.0157019
869.612	0.0157823
869.690	0.0157510
869.768	0.0158267
869.846	0.0157352
869.924	0.0157601
870.003	0.0157474
870.081	0.0156718
870.159	0.0156953
870.237	0.0156799
870.315	0.0156167
870.393	0.0156389
870.471	0.0157407
870.549	0.0158916
870.628	0.0157212
870.706	0.0155885
870.784	0.0157001
870.862	0.0156150
870.940	0.0156029
871.018	0.0156725
871.096	0.0153992
871.174	0.0156145
871.253	0.0154776
871.331	0.0156473
871.409	0.0155875
871.487	0.0156661
871.565	0.0154675
871.643	0.0155228
871.721	0.0155391
871.799	0.0155431
871.878	0.0155356
871.956	0.0156122
872.034	0.0155215
872.112	0.0155980
872.190	0.0155143
872.268	0.0155707
872.346	0.0156573
872.424	0.0154800
872.503	0.0155783
872.581	0.0157211
872.659	0.0154466
872.737	0.0156107
872.815	0.0154955
872.893	0.0156103
872.971	0.0156751
873.049	0.0155692
873.128	0.0156161
873.206	0.0156203
873.284	0.0155548
873.362	0.0156062
873.440	0.0156967
873.518	0.0156333
873.596	0.0157711
873.674	0.0156424
873.753	0.0156252
873.831	0.0158202
873.909	0.0156746
873.987	0.0155909
874.065	0.0156417
874.143	0.0156622
874.221	0.0157923
874.299	0.0158057
874.378	0.0157675
874.456	0.0157744
874.534	0.0158230
874.612	0.0158740
874.690	0.0158121
874.768	0.0156801
874.846	0.0157673
874.924	0.0157332
875.003	0.0156744
875.081	0.0158251
875.159	0.0158040
875.237	0.0157252
875.315	0.0156483
875.393	0.0157243
875.471	0.0156319
875.549	0.0157870
875.628	0.0157124
875.706	0.0157421
875.784	0.0157527
875.862	0.0157761
875.940	0.0156915
876.018	0.0157547
876.096	0.0156422
876.174	0.0156433
876.253	0.0157633
876.331	0.0157530
876.409	0.0156765
876.487	0.0156425
876.565	0.0157360
876.643	0.0155963
876.721	0.0156902
876.799	0.0157714
876.878	0.0156721
876.956	0.0154436
877.034	0.0155874
877.112	0.0155733
877.190	0.0157069
877.268	0.0156763
877.346	0.0155936
877.424	0.0155295
877.503	0.0156452
877.581	0.0157513
877.659	0.0156877
877.737	0.0154456
877.815	0.0156445
877.893	0.0156955
877.971	0.0156576
878.049	0.0156467
878.128	0.0157043
878.206	0.0157722
878.284	0.0156764
878.362	0.0156715
878.440	0.0157225
878.518	0.0157867
878.596	0.0156568
878.674	0.0156445
878.753	0.0157021
878.831	0.0156646
878.909	0.0156839
878.987	0.0157059
879.065	0.0155307
879.143	0.0156631
879.221	0.0156902
879.299	0.0157454
879.378	0.0157210
879.456	0.0157925
879.534	0.0158019
879.612	0.0157049
879.690	0.0157768
879.768	0.0157030
879.846	0.0157309
879.924	0.0158047
880.003	0.0158759
880.081	0.0158209
880.159	0.0158070
880.237	0.0157325
880.315	0.0157606
880.393	0.0157563
880.471	0.0157816
880.549	0.0158459
880.628	0.0158009
880.706	0.0157607
880.784	0.0156315
880.862	0.0158490
880.940	0.0158468
881.018	0.0157326
881.096	0.0156892
881.174	0.0157272
881.253	0.0158523
881.331	0.0156297
881.409	0.0156948
881.487	0.0157003
881.565	0.0156220
881.643	0.0157096
881.721	0.0155908
881.799	0.0155376
881.878	0.0155665
881.956	0.0158050
882.034	0.0155754
882.112	0.0156998
882.190	0.0156400
882.268	0.0156834
882.346	0.0155714
882.424	0.0156777
882.503	0.0157762
882.581	0.0156240
882.659	0.0155798
882.737	0.0157420
882.815	0.0155413
882.893	0.0156057
882.971	0.0155927
883.049	0.0155048
883.128	0.0156543
883.206	0.0157914
883.284	0.0155988
883.362	0.0156927
883.440	0.0155974
883.518	0.0158184
883.596	0.0157941
883.674	0.0157616
883.753	0.0156798
883.831	0.0157762
883.909	0.0158068
883.987	0.0156885
884.065	0.0158140
884.143	0.0156502
884.221	0.0158172
884.299	0.0157217
884.378	0.0156746
884.456	0.0157026
884.534	0.0157677
884.612	0.0158912
884.690	0.0157035
884.768	0.0156078
884.846	0.0156087
884.924	0.0156680
885.003	0.0157000
885.081	0.0155991
885.159	0.0156911
885.237	0.0157608
885.315	0.0157843
885.393	0.0157508
885.471	0.0156474
885.549	0.0156735
885.628	0.0156314
885.706	0.0156196
885.784	0.0157373
885.862	0.0156787
885.940	0.0156730
886.018	0.0157692
886.096	0.0157294
886.174	0.0156932
886.253	0.0157345
886.331	0.0157847
886.409	0.0156013
886.487	0.0158063
886.565	0.0157893
886.643	0.0157487
886.721	0.0158059
886.799	0.0155932
886.878	0.0156487
886.956	0.0156943
887.034	0.0156481
887.112	0.0157120
887.190	0.0156998
887.268	0.0158165
887.346	0.0157877
887.424	0.0157225
887.503	0.0156229
887.581	0.0155749
887.659	0.0157507
887.737	0.0156963
887.815	0.0156618
887.893	0.0157568
887.971	0.0156610
888.049	0.0156608
888.128	0.0157224
888.206	0.0157592
888.284	0.0156160
888.362	0.0156322
888.440	0.0157063
888.518	0.0156656
888.596	0.0157024
888.674	0.0157300
888.753	0.0156405
888.831	0.0156556
888.909	0.0155431
888.987	0.0156310
889.065	0.0156471
889.143	0.0155482
889.221	0.0157013
889.299	0.0156317
889.378	0.0156858
889.456	0.0155853
889.534	0.0155182
889.612	0.0156502
889.690	0.0156781
889.768	0.0156045
889.846	0.0155560
889.924	0.0156267
890.003	0.0155400
890.081	0.0155827
890.159	0.0156563
890.237	0.0156610
890.315	0.0155484
890.393	0.0156893
890.471	0.0156824
890.549	0.0156557
890.628	0.0154964
890.706	0.0156323
890.784	0.0155622
890.862	0.0156413
890.940	0.0155605
891.018	0.0156187
891.096	0.0156325
891.174	0.0156145
891.253	0.0157604
891.331	0.0155147
891.409	0.0158103
891.487	0.0157024
891.565	0.0156634
891.643	0.0156995
891.721	0.0155727
891.799	0.0156245
891.878	0.0157633
891.956	0.0157921
892.034	0.0156563
892.112	0.0156428
892.190	0.0156259
892.268	0.0158123
892.346	0.0157530
892.424	0.0156119
892.503	0.0156512
892.581	0.0157710
892.659	0.0157784
892.737	0.0157861
892.815	0.0156767
892.893	0.0158209
892.971	0.0158154
893.049	0.0156706
893.128	0.0158398
893.206	0.0157475
893.284	0.0157786
893.362	0.0157213
893.440	0.0155608
893.518	0.0155602
893.596	0.0158376
893.674	0.0157094
893.753	0.0156534
893.831	0.0155338
893.909	0.0157336
893.987	0.0157024
894.065	0.0155901
894.143	0.0157045
894.221	0.0157949
894.299	0.0156266
894.378	0.0156068
894.456	0.0156562
894.534	0.0158282
894.612	0.0155814
894.690	0.0158107
894.768	0.0156662
894.846	0.0155553
894.924	0.0155851
895.003	0.0156400
895.081	0.0157333
895.159	0.0157381
895.237	0.0155685
895.315	0.0155806
895.393	0.0155166
895.471	0.0156060
895.549	0.0157066
895.628	0.0155968
895.706	0.0156091
895.784	0.0157425
895.862	0.0156579
895.940	0.0156247
896.018	0.0156528
896.096	0.0156714
896.174	0.0157000
896.253	0.0156615
896.331	0.0156037
896.409	0.0159094
896.487	0.0157541
896.565	0.0157430
896.643	0.0157305
896.721	0.0157366
896.799	0.0155656
896.878	0.0156963
896.956	0.0157959
897.034	0.0157713
897.112	0.0156736
897.190	0.0157532
897.268	0.0157215
897.346	0.0158200
897.424	0.0156535
897.503	0.0156802
897.581	0.0156586
897.659	0.0158276
897.737	0.0157729
897.815	0.0157150
897.893	0.0157604
897.971	0.0157076
898.049	0.0156911
898.128	0.0158588
898.206	0.0157034
898.284	0.0157060
898.362	0.0157463
898.440	0.0158244
898.518	0.0157411
898.596	0.0156598
898.674	0.0156870
898.753	0.0158353
898.831	0.0156737
898.909	0.0158142
898.987	0.0156997
899.065	0.0156683
899.143	0.0157359
899.221	0.0157564
899.299	0.0156636
899.378	0.0156910
899.456	0.0157342
899.534	0.0156375
899.612	0.0156242
899.690	0.0158376
899.768	0.0156782
899.846	0.0156312
899.924	0.0156879
900.003	0.0156037
900.081	0.0157009
900.159	0.0156742
900.237	0.0156677
900.315	0.0157227
900.393	0.0160058
900.471	0.0157885
900.549	0.0156270
900.628	0.0157134
900.706	0.0155750
900.784	0.0156846
900.862	0.0157468
900.940	0.0157996
901.018	0.0156944
901.096	0.0157738
901.174	0.0156840
901.253	0.0156356
901.331	0.0156708
901.409	0.0157630
901.487	0.0156866
901.565	0.0156971
901.643	0.0157012
901.721	0.0155721
901.799	0.0157845
901.878	0.0155811
901.956	0.0155997
902.034	0.0157530
902.112	0.0156533
902.190	0.0157047
902.268	0.0156867
902.346	0.0156994
902.424	0.0157063
902.503	0.0157048
902.581	0.0158252
902.659	0.0156446
902.737	0.0156038
902.815	0.0156968
902.893	0.0155873
902.971	0.0157230
903.049	0.0157357
903.128	0.0157344
903.206	0.0155442
903.284	0.0155235
903.362	0.0156430
903.440	0.0156556
903.518	0.0157783
903.596	0.0158290
903.674	0.0156013
903.753	0.0157367
903.831	0.0158444
903.909	0.0157562
903.987	0.0155305
904.065	0.0158062
904.143	0.0157395
904.221	0.0157428
904.299	0.0155555
904.378	0.0158881
904.456	0.0157928
904.534	0.0157682
904.612	0.0157038
904.690	0.0157273
904.768	0.0156498
904.846	0.0158424
904.924	0.0156857
905.003	0.0157662
905.081	0.0157639
905.159	0.0157307
905.237	0.0156721
905.315	0.0157628
905.393	0.0158124
905.471	0.0157623
905.549	0.0156798
905.628	0.0157653
905.706	0.0157880
905.784	0.0157221
905.862	0.0156731
905.940	0.0157288
906.018	0.0156835
906.096	0.0156570
906.174	0.0157776
906.253	0.0155912
906.331	0.0156411
906.409	0.0157237
906.487	0.0158130
906.565	0.0156529
906.643	0.0156596
906.721	0.0156638
906.799	0.0156609
906.878	0.0156645
906.956	0.0155830
907.034	0.0157578
907.112	0.0157452
907.190	0.0156770
907.268	0.0157076
907.346	0.0156448
907.424	0.0155769
907.503	0.0156180
907.581	0.0155705
907.659	0.0155538
907.737	0.0157047
907.815	0.0155061
907.893	0.0156333
907.971	0.0155549
908.049	0.0157469
908.128	0.0156511
908.206	0.0156473
908.284	0.0157677
908.362	0.0156711
908.440	0.0156095
908.518	0.0156977
908.596	0.0157317
908.674	0.0156577
908.753	0.0155621
908.831	0.0157104
908.909	0.0157644
908.987	0.0157047
909.065	0.0155863
909.143	0.0155752
909.221	0.0155944
909.299	0.0155048
909.378	0.0156674
909.456	0.0156593
909.534	0.0156802
909.612	0.0155315
909.690	0.0156281
909.768	0.0156262
909.846	0.0156737
909.924	0.0156409
910.003	0.0155473
910.081	0.0157953
910.159	0.0155911
910.237	0.0155553
910.315	0.0157030
910.393	0.0157937
910.471	0.0156256
910.549	0.0156412
910.628	0.0155904
910.706	0.0157697
910.784	0.0158033
910.862	0.0157081
910.940	0.0157185
911.018	0.0156068
911.096	0.0157204
911.174	0.0157283
911.253	0.0156981
911.331	0.0157254
911.409	0.0157794
911.487	0.0158327
911.565	0.0155504
911.643	0.0156014
911.721	0.0157603
911.799	0.0157576
911.878	0.0157887
911.956	0.0156215
912.034	0.0156818
912.112	0.0156477
912.190	0.0156267
912.268	0.0156554
912.346	0.0156392
912.424	0.0155759
912.503	0.0156515
912.581	0.0156751
912.659	0.0157301
912.737	0.0156805
912.815	0.0155397
912.893	0.0155226
912.971	0.0155524
913.049	0.0156760
913.128	0.0156985
913.206	0.0156230
913.284	0.0156396
913.362	0.0155588
913.440	0.0156251
913.518	0.0156281
913.596	0.0157088
913.674	0.0155467
913.753	0.0155753
913.831	0.0155255
913.909	0.0155396
913.987	0.0156536
914.065	0.0156171
914.143	0.0154993
914.221	0.0156528
914.299	0.0156887
914.378	0.0154983
914.456	0.0156482
914.534	0.0156941
914.612	0.0157167
914.690	0.0155328
914.768	0.0156818
914.846	0.0156236
914.924	0.0157508
915.003	0.0156197
915.081	0.0155668
915.159	0.0156261
915.237	0.0157150
915.315	0.0157150
915.393	0.0156271
915.471	0.0156244
915.549	0.0156061
915.628	0.0156289
915.706	0.0157436
915.784	0.0155502
915.862	0.0155972
915.940	0.0157425
916.018	0.0157088
916.096	0.0155009
916.174	0.0155940
916.253	0.0155724
916.331	0.0157401
916.409	0.0157632
916.487	0.0155863
916.565	0.0156018
916.643	0.0157875
916.721	0.0156999
916.799	0.0157401
916.878	0.0156476
916.956	0.0156810
917.034	0.0156316
917.112	0.0155974
917.190	0.0157066
917.268	0.0157175
917.346	0.0155905
917.424	0.0156194
917.503	0.0157485
917.581	0.0157877
917.659	0.0157124
917.737	0.0156127
917.815	0.0156397
917.893	0.0155898
917.971	0.0155539
918.049	0.0156678
918.128	0.0155604
918.206	0.0157648
918.284	0.0155342
918.362	0.0156078
918.440	0.0155706
918.518	0.0156952
918.596	0.0157403
918.674	0.0156274
918.753	0.0156343
918.831	0.0156892
918.909	0.0155700
918.987	0.0156843
919.065	0.0157420
919.143	0.0156604
919.221	0.0155736
919.299	0.0156198
919.378	0.0156995
919.456	0.0156795
919.534	0.0157697
919.612	0.0156506
919.690	0.0156898
919.768	0.0158089
919.846	0.0156761
919.924	0.0157154
920.003	0.0158022
920.081	0.0156966
920.159	0.0155936
920.237	0.0156200
920.315	0.0157309
920.393	0.0157519
920.471	0.0156647
920.549	0.0157638
920.628	0.0157798
920.706	0.0157989
920.784	0.0156712
920.862	0.0156376
920.940	0.0157065
921.018	0.0156549
921.096	0.0157297
921.174	0.0156097
921.253	0.0155591
921.331	0.0156808
921.409	0.0157298
921.487	0.0156552
921.565	0.0155943
921.643	0.0156017
921.721	0.0156691
921.799	0.0156931
921.878	0.0157298
921.956	0.0156615
922.034	0.0156857
922.112	0.0156511
922.190	0.0157275
922.268	0.0157905
922.346	0.0157986
922.424	0.0156403
922.503	0.0156519
922.581	0.0156744
922.659	0.0156586
922.737	0.0155578
922.815	0.0155869
922.893	0.0158245
922.971	0.0158202
923.049	0.0156722
923.128	0.0156216
923.206	0.0156689
923.284	0.0157721
923.362	0.0158214
923.440	0.0155420
923.518	0.0157396
923.596	0.0156863
923.674	0.0156062
923.753	0.0156297
923.831	0.0157027
923.909	0.0158190
923.987	0.0157159
924.065	0.0156742
924.143	0.0155836
924.221	0.0157259
924.299	0.0157092
924.378	0.0157890
924.456	0.0155629
924.534	0.0156567
924.612	0.0157170
924.690	0.0156366
924.768	0.0156167
924.846	0.0156535
924.924	0.0156374
925.003	0.0155163
925.081	0.0157435
925.159	0.0157070
925.237	0.0157371
925.315	0.0157393
925.393	0.0155820
925.471	0.0156131
925.549	0.0155466
925.628	0.0157204
925.706	0.0157898
925.784	0.0156326
925.862	0.0157088
925.940	0.0156861
926.018	0.0157127
926.096	0.0157371
926.174	0.0156829
926.253	0.0156848
926.331	0.0156188
926.409	0.0156702
926.487	0.0157452
926.565	0.0157532
926.643	0.0155592
926.721	0.0156021
926.799	0.0156272
926.878	0.0156968
926.956	0.0158233
927.034	0.0157798
927.112	0.0157659
927.190	0.0156184
927.268	0.0156837
927.346	0.0155902
927.424	0.0156573
927.503	0.0155858
927.581	0.0156217
927.659	0.0157597
927.737	0.0157444
927.815	0.0157370
927.893	0.0156977
927.971	0.0158167
928.049	0.0156495
928.128	0.0156297
928.206	0.0156116
928.284	0.0156606
928.362	0.0155807
928.440	0.0155354
928.518	0.0157672
928.596	0.0158153
928.674	0.0156107
928.753	0.0156989
928.831	0.0156274
928.909	0.0155907
928.987	0.0156095
929.065	0.0155974
929.143	0.0157751
929.221	0.0158156
929.299	0.0155481
929.378	0.0156054
929.456	0.0156077
929.534	0.0157907
929.612	0.0156397
929.690	0.0157097
929.768	0.0156942
929.846	0.0155491
929.924	0.0156282
930.003	0.0156625
930.081	0.0156669
930.159	0.0157847
930.237	0.0157088
930.315	0.0156129
930.393	0.0156415
930.471	0.0156467
930.549	0.0155221
930.628	0.0157023
930.706	0.0157480
930.784	0.0154596
930.862	0.0157220
930.940	0.0156295
931.018	0.0155927
931.096	0.0158129
931.174	0.0157054
931.253	0.0157567
931.331	0.0155112
931.409	0.0157315
931.487	0.0157211
931.565	0.0156226
931.643	0.0155976
931.721	0.0156698
931.799	0.0157318
931.878	0.0156939
931.956	0.0156388
932.034	0.0157825
932.112	0.0156409
932.190	0.0155328
932.268	0.0156437
932.346	0.0156330
932.424	0.0156586
932.503	0.0156549
932.581	0.0156232
932.659	0.0155907
932.737	0.0155575
932.815	0.0156681
932.893	0.0157006
932.971	0.0156509
933.049	0.0156925
933.128	0.0156530
933.206	0.0156431
933.284	0.0156508
933.362	0.0156322
933.440	0.0156584
933.518	0.0156485
933.596	0.0155527
933.674	0.0157916
933.753	0.0156204
933.831	0.0155686
933.909	0.0156821
933.987	0.0157017
934.065	0.0157583
934.143	0.0156549
934.221	0.0155934
934.299	0.0158229
934.378	0.0158062
934.456	0.0156464
934.534	0.0156412
934.612	0.0156766
934.690	0.0155990
934.768	0.0157774
934.846	0.0156396
934.924	0.0157238
935.003	0.0158246
935.081	0.0156482
935.159	0.0156484
935.237	0.0156544
935.315	0.0158638
935.393	0.0157788
935.471	0.0157501
935.549	0.0155904
935.628	0.0156141
935.706	0.0158007
935.784	0.0158092
935.862	0.0157075
935.940	0.0157131
936.018	0.0156836
936.096	0.0157203
936.174	0.0157070
936.253	0.0156831
936.331	0.0157419
936.409	0.0156603
936.487	0.0157076
936.565	0.0156832
936.643	0.0156790
936.721	0.0155595
936.799	0.0156669
936.878	0.0156120
936.956	0.0156744
937.034	0.0156902
937.112	0.0156805
937.190	0.0157723
937.268	0.0157513
937.346	0.0157943
937.424	0.0158083
937.503	0.0157592
937.581	0.0158005
937.659	0.0156458
937.737	0.0156121
937.815	0.0156079
937.893	0.0156693
937.971	0.0156702
938.049	0.0157275
938.128	0.0157063
938.206	0.0156907
938.284	0.0156970
938.362	0.0156413
938.440	0.0158958
938.518	0.0157104
938.596	0.0157186
938.674	0.0158260
938.753	0.0156673
938.831	0.0156403
938.909	0.0158218
938.987	0.0156125
939.065	0.0156625
939.143	0.0158078
939.221	0.0157540
939.299	0.0156981
939.378	0.0158015
939.456	0.0157427
939.534	0.0155725
939.612	0.0157628
939.690	0.0157405
939.768	0.0156184
939.846	0.0157062
939.924	0.0156196
940.003	0.0157236
940.081	0.0156213
940.159	0.0157738
940.237	0.0157024
940.315	0.0156707
940.393	0.0155630
940.471	0.0156323
940.549	0.0156874
940.628	0.0155830
940.706	0.0156719
940.784	0.0157824
940.862	0.0154401
940.940	0.0155267
941.018	0.0156876
941.096	0.0156145
941.174	0.0156059
941.253	0.0155387
941.331	0.0156564
941.409	0.0154864
941.487	0.0155698
941.565	0.0156779
941.643	0.0155025
941.721	0.0157597
941.799	0.0155642
941.878	0.0154409
941.956	0.0155705
942.034	0.0155470
942.112	0.0157049
942.190	0.0156808
942.268	0.0155367
942.346	0.0157477
942.424	0.0156326
942.503	0.0156127
942.581	0.0158077
942.659	0.0156588
942.737	0.0156771
942.815	0.0155506
942.893	0.0156905
942.971	0.0155505
943.049	0.0155798
943.128	0.0157881
943.206	0.0157729
943.284	0.0155450
943.362	0.0157132
943.440	0.0156767
943.518	0.0157513
943.596	0.0156906
943.674	0.0155531
943.753	0.0157408
943.831	0.0157790
943.909	0.0157616
943.987	0.0156916
944.065	0.0157656
944.143	0.0157186
944.221	0.0156493
944.299	0.0155991
944.378	0.0156684
944.456	0.0158258
944.534	0.0156390
944.612	0.0156040
944.690	0.0155647
944.768	0.0156274
944.846	0.0155845
944.924	0.0156200
945.003	0.0156825
945.081	0.0155446
945.159	0.0156021
945.237	0.0155964
945.315	0.0156287
945.393	0.0156132
945.471	0.0155807
945.549	0.0156397
945.628	0.0155880
945.706	0.0155704
945.784	0.0156755
945.862	0.0154758
945.940	0.0156129
946.018	0.0156403
946.096	0.0156464
946.174	0.0155206
946.253	0.0154969
946.331	0.0156110
946.409	0.0157878
946.487	0.0155825
946.565	0.0157387
946.643	0.0156844
946.721	0.0157700
946.799	0.0156322
946.878	0.0157387
946.956	0.0156306
947.034	0.0157220
947.112	0.0156348
947.190	0.0156017
947.268	0.0156979
947.346	0.0157125
947.424	0.0157743
947.503	0.0156596
947.581	0.0156760
947.659	0.0156654
947.737	0.0155962
947.815	0.0157745
947.893	0.0158023
947.971	0.0157834
948.049	0.0158097
948.128	0.0157253
948.206	0.0156680
948.284	0.0157311
948.362	0.0156599
948.440	0.0157230
948.518	0.0156079
948.596	0.0156385
948.674	0.0157034
948.753	0.0156870
948.831	0.0156831
948.909	0.0156570
948.987	0.0158551
949.065	0.0155639
949.143	0.0156645
949.221	0.0155157
949.299	0.0156622
949.378	0.0155348
949.456	0.0156584
949.534	0.0156561
949.612	0.0155378
949.690	0.0155975
949.768	0.0155065
949.846	0.0156178
949.924	0.0156979
