06/29/2022	23:11:21	Ver.	4.1	UNKNOWN
Optical Delay	630.002507	Delta X		0.078125	Sweeps	1	Scan Rate	0/0
Coordinates	Axis 1	NaN	Axis 2	NaN	Axis 3	NaN	Axis 4	NaN	Axis 5	NaN	Axis 6	0.000000
TX Power	0.000000	RX Power	0.000000

630.003	0.0154802
630.081	0.0154803
630.159	0.0153170
630.237	0.0154297
630.315	0.0154423
630.393	0.0154515
630.471	0.0153582
630.549	0.0154110
630.628	0.0154571
630.706	0.0154262
630.784	0.0154492
630.862	0.0154195
630.940	0.0155004
631.018	0.0154156
631.096	0.0154794
631.174	0.0154431
631.253	0.0155250
631.331	0.0155061
631.409	0.0153160
631.487	0.0153548
631.565	0.0153885
631.643	0.0154939
631.721	0.0155013
631.799	0.0154135
631.878	0.0154555
631.956	0.0154707
632.034	0.0154268
632.112	0.0155831
632.190	0.0153985
632.268	0.0154288
632.346	0.0155391
632.424	0.0154673
632.503	0.0153605
632.581	0.0154237
632.659	0.0154604
632.737	0.0152959
632.815	0.0154301
632.893	0.0154038
632.971	0.0154788
633.049	0.0154271
633.128	0.0154012
633.206	0.0154983
633.284	0.0155128
633.362	0.0154643
633.440	0.0152514
633.518	0.0156154
633.596	0.0155061
633.674	0.0155042
633.753	0.0154352
633.831	0.0155676
633.909	0.0155722
633.987	0.0154919
634.065	0.0154127
634.143	0.0154858
634.221	0.0155761
634.299	0.0154638
634.378	0.0156245
634.456	0.0153549
634.534	0.0154245
634.612	0.0155314
634.690	0.0155199
634.768	0.0155184
634.846	0.0154833
634.924	0.0154655
635.003	0.0153949
635.081	0.0155195
635.159	0.0155312
635.237	0.0154641
635.315	0.0155289
635.393	0.0154251
635.471	0.0154366
635.549	0.0154085
635.628	0.0154047
635.706	0.0154854
635.784	0.0154392
635.862	0.0155357
635.940	0.0155020
636.018	0.0155100
636.096	0.0156432
636.174	0.0154974
636.253	0.0154294
636.331	0.0154398
636.409	0.0154751
636.487	0.0154704
636.565	0.0154335
636.643	0.0153630
636.721	0.0156248
636.799	0.0156541
636.878	0.0154756
636.956	0.0153661
637.034	0.0153133
637.112	0.0153245
637.190	0.0154372
637.268	0.0153998
637.346	0.0154913
637.424	0.0155488
637.503	0.0153455
637.581	0.0154768
637.659	0.0153915
637.737	0.0154316
637.815	0.0155080
637.893	0.0155637
637.971	0.0154321
638.049	0.0153970
638.128	0.0153247
638.206	0.0152320
638.284	0.0153415
638.362	0.0154629
638.440	0.0154245
638.518	0.0152547
638.596	0.0152203
638.674	0.0152818
638.753	0.0153485
638.831	0.0153565
638.909	0.0154089
638.987	0.0153309
639.065	0.0154913
639.143	0.0153625
639.221	0.0153013
639.299	0.0152168
639.378	0.0152320
639.456	0.0154221
639.534	0.0152335
639.612	0.0153613
639.690	0.0153744
639.768	0.0155063
639.846	0.0154095
639.924	0.0153999
640.003	0.0153574
640.081	0.0154156
640.159	0.0154392
640.237	0.0153367
640.315	0.0153538
640.393	0.0152705
640.471	0.0154198
640.549	0.0154010
640.628	0.0153617
640.706	0.0154456
640.784	0.0155083
640.862	0.0153207
640.940	0.0151892
641.018	0.0154441
641.096	0.0154726
641.174	0.0154441
641.253	0.0155392
641.331	0.0154544
641.409	0.0154761
641.487	0.0154904
641.565	0.0154532
641.643	0.0155160
641.721	0.0154874
641.799	0.0154680
641.878	0.0154984
641.956	0.0154343
642.034	0.0154197
642.112	0.0154752
642.190	0.0154504
642.268	0.0154543
642.346	0.0155789
642.424	0.0153556
642.503	0.0153459
642.581	0.0154336
642.659	0.0154695
642.737	0.0154906
642.815	0.0156139
642.893	0.0154240
642.971	0.0156271
643.049	0.0155389
643.128	0.0154334
643.206	0.0155178
643.284	0.0155566
643.362	0.0155244
643.440	0.0155907
643.518	0.0155838
643.596	0.0155703
643.674	0.0154942
643.753	0.0155024
643.831	0.0154917
643.909	0.0154941
643.987	0.0154977
644.065	0.0155167
644.143	0.0155891
644.221	0.0156582
644.299	0.0156567
644.378	0.0155566
644.456	0.0155975
644.534	0.0156527
644.612	0.0156943
644.690	0.0156583
644.768	0.0157340
644.846	0.0156099
644.924	0.0155229
645.003	0.0157153
645.081	0.0156930
645.159	0.0154585
645.237	0.0153885
645.315	0.0156693
645.393	0.0156664
645.471	0.0156415
645.549	0.0156158
645.628	0.0156617
645.706	0.0156713
645.784	0.0156033
645.862	0.0155806
645.940	0.0155462
646.018	0.0157778
646.096	0.0156299
646.174	0.0156084
646.253	0.0155994
646.331	0.0156346
646.409	0.0156274
646.487	0.0156012
646.565	0.0156543
646.643	0.0156408
646.721	0.0155737
646.799	0.0155861
646.878	0.0155833
646.956	0.0156226
647.034	0.0156677
647.112	0.0156659
647.190	0.0157725
647.268	0.0156443
647.346	0.0156661
647.424	0.0155473
647.503	0.0156673
647.581	0.0157272
647.659	0.0157102
647.737	0.0156619
647.815	0.0154983
647.893	0.0156729
647.971	0.0155901
648.049	0.0154828
648.128	0.0155417
648.206	0.0156013
648.284	0.0155855
648.362	0.0155106
648.440	0.0155199
648.518	0.0156336
648.596	0.0156050
648.674	0.0155560
648.753	0.0155558
648.831	0.0155942
648.909	0.0156385
648.987	0.0154918
649.065	0.0155125
649.143	0.0155511
649.221	0.0157024
649.299	0.0155003
649.378	0.0154717
649.456	0.0155276
649.534	0.0155563
649.612	0.0156046
649.690	0.0156055
649.768	0.0154976
649.846	0.0156942
649.924	0.0155445
650.003	0.0154506
650.081	0.0155184
650.159	0.0156465
650.237	0.0156453
650.315	0.0154839
650.393	0.0155386
650.471	0.0156381
650.549	0.0156625
650.628	0.0155037
650.706	0.0154205
650.784	0.0155425
650.862	0.0154179
650.940	0.0155126
651.018	0.0154834
651.096	0.0154849
651.174	0.0155067
651.253	0.0153493
651.331	0.0154374
651.409	0.0154366
651.487	0.0154869
651.565	0.0154961
651.643	0.0154519
651.721	0.0154781
651.799	0.0155788
651.878	0.0154475
651.956	0.0155043
652.034	0.0154295
652.112	0.0154988
652.190	0.0154723
652.268	0.0154969
652.346	0.0154378
652.424	0.0154447
652.503	0.0155028
652.581	0.0155118
652.659	0.0154601
652.737	0.0154503
652.815	0.0154562
652.893	0.0154327
652.971	0.0154659
653.049	0.0155035
653.128	0.0153784
653.206	0.0153403
653.284	0.0153782
653.362	0.0155409
653.440	0.0155013
653.518	0.0154210
653.596	0.0155287
653.674	0.0155294
653.753	0.0154386
653.831	0.0155119
653.909	0.0152760
653.987	0.0154312
654.065	0.0155109
654.143	0.0154343
654.221	0.0155282
654.299	0.0154369
654.378	0.0154309
654.456	0.0154873
654.534	0.0154821
654.612	0.0154560
654.690	0.0154485
654.768	0.0155467
654.846	0.0155812
654.924	0.0154864
655.003	0.0155250
655.081	0.0155959
655.159	0.0155676
655.237	0.0155721
655.315	0.0153302
655.393	0.0156319
655.471	0.0154715
655.549	0.0155455
655.628	0.0156182
655.706	0.0154548
655.784	0.0154137
655.862	0.0154472
655.940	0.0156148
656.018	0.0154738
656.096	0.0155632
656.174	0.0155016
656.253	0.0153875
656.331	0.0155808
656.409	0.0156577
656.487	0.0156356
656.565	0.0154909
656.643	0.0154939
656.721	0.0154993
656.799	0.0154727
656.878	0.0154812
656.956	0.0155727
657.034	0.0154722
657.112	0.0153867
657.190	0.0154439
657.268	0.0154683
657.346	0.0154556
657.424	0.0156213
657.503	0.0156447
657.581	0.0156371
657.659	0.0156142
657.737	0.0155251
657.815	0.0155052
657.893	0.0154822
657.971	0.0154972
658.049	0.0156332
658.128	0.0156440
658.206	0.0155337
658.284	0.0155911
658.362	0.0154444
658.440	0.0155431
658.518	0.0155811
658.596	0.0154939
658.674	0.0156096
658.753	0.0155210
658.831	0.0155325
658.909	0.0154910
658.987	0.0154832
659.065	0.0155692
659.143	0.0155675
659.221	0.0154641
659.299	0.0154641
659.378	0.0155542
659.456	0.0154681
659.534	0.0155328
659.612	0.0155946
659.690	0.0155621
659.768	0.0155247
659.846	0.0155469
659.924	0.0155568
660.003	0.0155144
660.081	0.0155047
660.159	0.0154675
660.237	0.0155834
660.315	0.0155608
660.393	0.0156964
660.471	0.0154820
660.549	0.0154404
660.628	0.0154529
660.706	0.0155628
660.784	0.0155408
660.862	0.0154211
660.940	0.0156157
661.018	0.0155004
661.096	0.0154839
661.174	0.0154166
661.253	0.0156202
661.331	0.0154668
661.409	0.0154766
661.487	0.0154755
661.565	0.0155269
661.643	0.0156424
661.721	0.0154632
661.799	0.0155390
661.878	0.0154832
661.956	0.0155569
662.034	0.0154933
662.112	0.0155562
662.190	0.0154641
662.268	0.0154615
662.346	0.0155541
662.424	0.0154852
662.503	0.0154957
662.581	0.0154605
662.659	0.0155791
662.737	0.0154423
662.815	0.0154790
662.893	0.0153190
662.971	0.0154882
663.049	0.0154828
663.128	0.0154550
663.206	0.0154851
663.284	0.0154648
663.362	0.0154205
663.440	0.0154302
663.518	0.0154832
663.596	0.0156674
663.674	0.0154836
663.753	0.0154559
663.831	0.0154389
663.909	0.0154450
663.987	0.0154397
664.065	0.0155244
664.143	0.0155019
664.221	0.0155363
664.299	0.0154364
664.378	0.0154620
664.456	0.0153881
664.534	0.0154044
664.612	0.0153987
664.690	0.0153658
664.768	0.0153369
664.846	0.0154006
664.924	0.0154841
665.003	0.0155435
665.081	0.0153345
665.159	0.0155393
665.237	0.0153905
665.315	0.0155728
665.393	0.0155059
665.471	0.0154131
665.549	0.0154218
665.628	0.0154118
665.706	0.0155439
665.784	0.0155189
665.862	0.0155135
665.940	0.0154537
666.018	0.0154285
666.096	0.0154931
666.174	0.0155750
666.253	0.0153929
666.331	0.0154267
666.409	0.0154299
666.487	0.0155643
666.565	0.0154813
666.643	0.0155352
666.721	0.0154931
666.799	0.0155360
666.878	0.0154950
666.956	0.0153278
667.034	0.0156013
667.112	0.0155643
667.190	0.0155246
667.268	0.0154627
667.346	0.0154309
667.424	0.0155906
667.503	0.0154648
667.581	0.0154037
667.659	0.0155008
667.737	0.0155143
667.815	0.0154936
667.893	0.0156289
667.971	0.0154987
668.049	0.0155070
668.128	0.0154763
668.206	0.0154479
668.284	0.0154762
668.362	0.0154813
668.440	0.0155090
668.518	0.0156270
668.596	0.0154656
668.674	0.0154848
668.753	0.0154090
668.831	0.0154745
668.909	0.0154191
668.987	0.0154403
669.065	0.0154911
669.143	0.0153606
669.221	0.0153427
669.299	0.0157253
669.378	0.0155614
669.456	0.0153871
669.534	0.0155335
669.612	0.0153747
669.690	0.0154189
669.768	0.0153623
669.846	0.0155183
669.924	0.0154800
670.003	0.0154751
670.081	0.0154440
670.159	0.0154570
670.237	0.0154729
670.315	0.0154658
670.393	0.0154298
670.471	0.0153321
670.549	0.0153308
670.628	0.0153708
670.706	0.0154616
670.784	0.0153523
670.862	0.0152895
670.940	0.0154213
671.018	0.0154260
671.096	0.0153316
671.174	0.0153485
671.253	0.0155374
671.331	0.0153057
671.409	0.0154694
671.487	0.0154464
671.565	0.0153224
671.643	0.0153841
671.721	0.0154110
671.799	0.0153394
671.878	0.0154189
671.956	0.0155385
672.034	0.0153640
672.112	0.0153561
672.190	0.0153225
672.268	0.0153076
672.346	0.0154084
672.424	0.0154990
672.503	0.0154417
672.581	0.0152842
672.659	0.0153722
672.737	0.0153426
672.815	0.0154256
672.893	0.0153785
672.971	0.0153390
673.049	0.0153584
673.128	0.0152707
673.206	0.0153930
673.284	0.0154405
673.362	0.0154300
673.440	0.0153367
673.518	0.0153671
673.596	0.0153504
673.674	0.0154035
673.753	0.0153436
673.831	0.0153821
673.909	0.0154006
673.987	0.0153620
674.065	0.0153882
674.143	0.0152969
674.221	0.0151993
674.299	0.0154153
674.378	0.0154498
674.456	0.0154588
674.534	0.0153629
674.612	0.0152501
674.690	0.0153749
674.768	0.0153177
674.846	0.0154282
674.924	0.0155265
675.003	0.0153622
675.081	0.0151756
675.159	0.0153368
675.237	0.0154272
675.315	0.0154390
675.393	0.0154967
675.471	0.0153477
675.549	0.0154620
675.628	0.0154181
675.706	0.0153801
675.784	0.0155656
675.862	0.0154547
675.940	0.0154108
676.018	0.0156126
676.096	0.0154901
676.174	0.0154314
676.253	0.0153834
676.331	0.0153806
676.409	0.0154766
676.487	0.0154370
676.565	0.0154010
676.643	0.0153741
676.721	0.0154373
676.799	0.0154430
676.878	0.0154298
676.956	0.0154089
677.034	0.0152796
677.112	0.0154602
677.190	0.0155064
677.268	0.0153542
677.346	0.0153967
677.424	0.0154347
677.503	0.0154285
677.581	0.0155142
677.659	0.0153813
677.737	0.0154415
677.815	0.0154662
677.893	0.0154725
677.971	0.0152821
678.049	0.0154029
678.128	0.0153475
678.206	0.0154796
678.284	0.0154830
678.362	0.0154741
678.440	0.0152933
678.518	0.0153179
678.596	0.0154350
678.674	0.0153331
678.753	0.0153590
678.831	0.0155267
678.909	0.0154852
678.987	0.0155154
679.065	0.0154587
679.143	0.0155389
679.221	0.0154978
679.299	0.0155182
679.378	0.0155940
679.456	0.0153360
679.534	0.0154182
679.612	0.0154379
679.690	0.0155190
679.768	0.0155089
679.846	0.0153670
679.924	0.0153952
680.003	0.0154060
680.081	0.0154454
680.159	0.0154484
680.237	0.0154971
680.315	0.0154952
680.393	0.0154106
680.471	0.0154881
680.549	0.0153761
680.628	0.0154906
680.706	0.0154492
680.784	0.0155409
680.862	0.0154749
680.940	0.0154109
681.018	0.0153420
681.096	0.0154773
681.174	0.0153414
681.253	0.0154078
681.331	0.0154494
681.409	0.0154044
681.487	0.0153956
681.565	0.0153983
681.643	0.0154034
681.721	0.0154037
681.799	0.0153414
681.878	0.0154330
681.956	0.0154758
682.034	0.0155141
682.112	0.0153902
682.190	0.0155040
682.268	0.0153947
682.346	0.0154752
682.424	0.0154481
682.503	0.0154131
682.581	0.0154332
682.659	0.0153233
682.737	0.0154171
682.815	0.0153685
682.893	0.0154518
682.971	0.0154865
683.049	0.0152568
683.128	0.0153246
683.206	0.0154749
683.284	0.0154367
683.362	0.0153524
683.440	0.0154249
683.518	0.0154499
683.596	0.0154275
683.674	0.0154697
683.753	0.0156058
683.831	0.0154863
683.909	0.0153317
683.987	0.0153043
684.065	0.0154234
684.143	0.0153618
684.221	0.0153043
684.299	0.0155013
684.378	0.0154743
684.456	0.0153629
684.534	0.0154800
684.612	0.0154269
684.690	0.0154682
684.768	0.0153965
684.846	0.0153432
684.924	0.0153577
685.003	0.0152978
685.081	0.0153780
685.159	0.0154468
685.237	0.0152364
685.315	0.0155469
685.393	0.0155350
685.471	0.0154077
685.549	0.0154812
685.628	0.0156102
685.706	0.0155370
685.784	0.0154313
685.862	0.0153683
685.940	0.0154674
686.018	0.0154298
686.096	0.0153894
686.174	0.0155058
686.253	0.0154866
686.331	0.0154797
686.409	0.0155463
686.487	0.0154592
686.565	0.0154684
686.643	0.0155415
686.721	0.0154373
686.799	0.0155309
686.878	0.0153353
686.956	0.0154603
687.034	0.0154549
687.112	0.0154488
687.190	0.0153050
687.268	0.0152957
687.346	0.0154968
687.424	0.0155643
687.503	0.0154056
687.581	0.0153838
687.659	0.0154078
687.737	0.0153884
687.815	0.0153921
687.893	0.0154525
687.971	0.0153912
688.049	0.0155277
688.128	0.0154730
688.206	0.0154739
688.284	0.0153957
688.362	0.0153262
688.440	0.0152782
688.518	0.0153449
688.596	0.0153052
688.674	0.0154091
688.753	0.0154366
688.831	0.0152995
688.909	0.0154677
688.987	0.0154938
689.065	0.0153769
689.143	0.0154720
689.221	0.0153657
689.299	0.0153438
689.378	0.0154975
689.456	0.0154719
689.534	0.0153060
689.612	0.0154189
689.690	0.0153855
689.768	0.0154537
689.846	0.0154907
689.924	0.0154072
690.003	0.0154223
690.081	0.0153133
690.159	0.0154056
690.237	0.0154636
690.315	0.0154070
690.393	0.0154677
690.471	0.0153574
690.549	0.0152606
690.628	0.0153150
690.706	0.0152682
690.784	0.0154265
690.862	0.0153658
690.940	0.0154610
691.018	0.0154000
691.096	0.0155723
691.174	0.0153224
691.253	0.0154002
691.331	0.0155008
691.409	0.0155243
691.487	0.0154766
691.565	0.0154377
691.643	0.0154581
691.721	0.0154041
691.799	0.0152972
691.878	0.0153341
691.956	0.0153502
692.034	0.0153422
692.112	0.0155031
692.190	0.0153546
692.268	0.0154252
692.346	0.0154251
692.424	0.0153601
692.503	0.0153548
692.581	0.0153714
692.659	0.0152889
692.737	0.0152855
692.815	0.0153066
692.893	0.0154529
692.971	0.0153999
693.049	0.0154276
693.128	0.0154008
693.206	0.0153950
693.284	0.0153829
693.362	0.0153397
693.440	0.0153731
693.518	0.0154279
693.596	0.0153077
693.674	0.0154477
693.753	0.0153341
693.831	0.0154737
693.909	0.0153188
693.987	0.0152744
694.065	0.0153647
694.143	0.0153008
694.221	0.0154184
694.299	0.0154274
694.378	0.0152972
694.456	0.0154855
694.534	0.0153371
694.612	0.0154607
694.690	0.0155136
694.768	0.0154911
694.846	0.0154784
694.924	0.0155251
695.003	0.0155943
695.081	0.0154992
695.159	0.0153802
695.237	0.0152880
695.315	0.0154500
695.393	0.0154035
695.471	0.0153376
695.549	0.0153754
695.628	0.0153499
695.706	0.0153976
695.784	0.0154587
695.862	0.0153857
695.940	0.0153347
696.018	0.0154588
696.096	0.0154108
696.174	0.0153738
696.253	0.0154082
696.331	0.0152911
696.409	0.0156512
696.487	0.0152917
696.565	0.0153542
696.643	0.0152597
696.721	0.0154220
696.799	0.0153777
696.878	0.0154264
696.956	0.0154584
697.034	0.0153219
697.112	0.0153120
697.190	0.0154402
697.268	0.0155520
697.346	0.0154819
697.424	0.0155588
697.503	0.0154397
697.581	0.0152909
697.659	0.0154055
697.737	0.0154481
697.815	0.0154607
697.893	0.0153441
697.971	0.0153573
698.049	0.0153761
698.128	0.0152938
698.206	0.0153660
698.284	0.0152957
698.362	0.0154017
698.440	0.0153969
698.518	0.0153115
698.596	0.0153551
698.674	0.0153617
698.753	0.0154632
698.831	0.0153825
698.909	0.0152950
698.987	0.0153255
699.065	0.0154324
699.143	0.0153434
699.221	0.0153634
699.299	0.0155208
699.378	0.0152956
699.456	0.0154907
699.534	0.0153489
699.612	0.0153921
699.690	0.0154913
699.768	0.0154324
699.846	0.0155389
699.924	0.0154251
700.003	0.0154612
700.081	0.0155962
700.159	0.0154434
700.237	0.0155008
700.315	0.0154310
700.393	0.0153604
700.471	0.0155169
700.549	0.0156065
700.628	0.0153663
700.706	0.0154858
700.784	0.0155007
700.862	0.0155434
700.940	0.0154726
701.018	0.0155319
701.096	0.0154527
701.174	0.0154214
701.253	0.0153323
701.331	0.0155817
701.409	0.0155113
701.487	0.0155198
701.565	0.0153447
701.643	0.0155167
701.721	0.0154956
701.799	0.0155991
701.878	0.0156049
701.956	0.0154371
702.034	0.0154942
702.112	0.0155643
702.190	0.0155946
702.268	0.0156340
702.346	0.0154685
702.424	0.0155830
702.503	0.0156106
702.581	0.0154327
702.659	0.0153866
702.737	0.0156140
702.815	0.0155933
702.893	0.0154239
702.971	0.0155199
703.049	0.0153883
703.128	0.0155714
703.206	0.0154267
703.284	0.0153754
703.362	0.0154954
703.440	0.0156270
703.518	0.0155774
703.596	0.0155263
703.674	0.0155435
703.753	0.0155963
703.831	0.0155942
703.909	0.0157556
703.987	0.0156064
704.065	0.0155145
704.143	0.0157708
704.221	0.0158231
704.299	0.0157377
704.378	0.0155254
704.456	0.0156482
704.534	0.0157336
704.612	0.0156673
704.690	0.0157779
704.768	0.0156052
704.846	0.0155984
704.924	0.0156145
705.003	0.0155724
705.081	0.0155872
705.159	0.0155899
705.237	0.0154582
705.315	0.0155702
705.393	0.0156181
705.471	0.0154723
705.549	0.0155424
705.628	0.0154356
705.706	0.0155727
705.784	0.0154577
705.862	0.0155019
705.940	0.0154074
706.018	0.0155396
706.096	0.0155336
706.174	0.0155477
706.253	0.0153587
706.331	0.0154421
706.409	0.0154060
706.487	0.0155935
706.565	0.0155018
706.643	0.0155906
706.721	0.0153870
706.799	0.0153292
706.878	0.0154102
706.956	0.0157304
707.034	0.0154941
707.112	0.0155309
707.190	0.0154729
707.268	0.0155526
707.346	0.0155654
707.424	0.0155503
707.503	0.0154848
707.581	0.0155270
707.659	0.0155628
707.737	0.0155163
707.815	0.0154175
707.893	0.0155889
707.971	0.0156405
708.049	0.0155424
708.128	0.0154594
708.206	0.0155328
708.284	0.0155135
708.362	0.0155000
708.440	0.0155275
708.518	0.0154887
708.596	0.0156975
708.674	0.0154946
708.753	0.0155081
708.831	0.0156383
708.909	0.0155070
708.987	0.0156485
709.065	0.0155994
709.143	0.0156192
709.221	0.0155805
709.299	0.0154410
709.378	0.0154910
709.456	0.0155618
709.534	0.0155271
709.612	0.0155519
709.690	0.0154402
709.768	0.0155238
709.846	0.0155498
709.924	0.0154560
710.003	0.0156403
710.081	0.0154713
710.159	0.0155048
710.237	0.0153761
710.315	0.0153661
710.393	0.0153715
710.471	0.0154379
710.549	0.0154560
710.628	0.0153330
710.706	0.0153592
710.784	0.0153961
710.862	0.0153687
710.940	0.0154422
711.018	0.0153373
711.096	0.0154850
711.174	0.0155223
711.253	0.0154833
711.331	0.0156202
711.409	0.0155650
711.487	0.0155559
711.565	0.0154929
711.643	0.0156852
711.721	0.0156749
711.799	0.0156367
711.878	0.0154746
711.956	0.0155857
712.034	0.0156465
712.112	0.0155515
712.190	0.0156293
712.268	0.0156455
712.346	0.0155090
712.424	0.0155827
712.503	0.0154203
712.581	0.0155370
712.659	0.0155406
712.737	0.0155742
712.815	0.0153790
712.893	0.0154848
712.971	0.0154636
713.049	0.0154157
713.128	0.0154247
713.206	0.0152831
713.284	0.0153548
713.362	0.0154684
713.440	0.0153432
713.518	0.0153429
713.596	0.0152700
713.674	0.0155035
713.753	0.0153841
713.831	0.0154141
713.909	0.0152654
713.987	0.0154629
714.065	0.0155348
714.143	0.0155297
714.221	0.0155412
714.299	0.0154951
714.378	0.0155935
714.456	0.0155786
714.534	0.0155480
714.612	0.0154955
714.690	0.0154766
714.768	0.0155284
714.846	0.0155228
714.924	0.0155937
715.003	0.0154853
715.081	0.0155209
715.159	0.0155279
715.237	0.0155768
715.315	0.0154852
715.393	0.0154843
715.471	0.0154566
715.549	0.0154572
715.628	0.0156368
715.706	0.0156177
715.784	0.0153555
715.862	0.0154047
715.940	0.0154399
716.018	0.0155295
716.096	0.0156239
716.174	0.0155919
716.253	0.0155476
716.331	0.0156780
716.409	0.0156998
716.487	0.0155036
716.565	0.0156289
716.643	0.0155836
716.721	0.0155242
716.799	0.0157112
716.878	0.0158015
716.956	0.0156343
717.034	0.0156096
717.112	0.0155478
717.190	0.0157481
717.268	0.0157944
717.346	0.0155632
717.424	0.0155630
717.503	0.0156911
717.581	0.0154573
717.659	0.0153548
717.737	0.0153145
717.815	0.0154768
717.893	0.0152675
717.971	0.0152859
718.049	0.0151812
718.128	0.0150620
718.206	0.0152336
718.284	0.0151596
718.362	0.0150528
718.440	0.0151359
718.518	0.0152704
718.596	0.0152524
718.674	0.0151394
718.753	0.0153537
718.831	0.0154658
718.909	0.0154777
718.987	0.0155041
719.065	0.0156100
719.143	0.0157798
719.221	0.0157561
719.299	0.0158912
719.378	0.0158674
719.456	0.0159035
719.534	0.0159737
719.612	0.0159809
719.690	0.0159481
719.768	0.0159749
719.846	0.0159869
719.924	0.0159867
720.003	0.0161044
720.081	0.0160926
720.159	0.0160471
720.237	0.0159675
720.315	0.0159071
720.393	0.0157982
720.471	0.0156746
720.549	0.0158212
720.628	0.0156749
720.706	0.0155885
720.784	0.0156042
720.862	0.0154829
720.940	0.0152556
721.018	0.0153285
721.096	0.0152220
721.174	0.0151728
721.253	0.0152666
721.331	0.0152757
721.409	0.0150797
721.487	0.0151054
721.565	0.0150477
721.643	0.0149773
721.721	0.0151118
721.799	0.0152232
721.878	0.0150979
721.956	0.0152042
722.034	0.0152303
722.112	0.0153288
722.190	0.0156721
722.268	0.0155291
722.346	0.0156676
722.424	0.0155674
722.503	0.0157583
722.581	0.0156814
722.659	0.0159586
722.737	0.0159450
722.815	0.0159982
722.893	0.0159572
722.971	0.0159222
723.049	0.0159418
723.128	0.0160142
723.206	0.0159648
723.284	0.0160448
723.362	0.0158141
723.440	0.0159571
723.518	0.0157770
723.596	0.0155964
723.674	0.0156155
723.753	0.0156374
723.831	0.0154455
723.909	0.0155130
723.987	0.0154414
724.065	0.0153963
724.143	0.0154008
724.221	0.0153127
724.299	0.0153329
724.378	0.0153831
724.456	0.0153983
724.534	0.0155167
724.612	0.0155128
724.690	0.0155317
724.768	0.0156427
724.846	0.0155972
724.924	0.0157029
725.003	0.0156354
725.081	0.0157404
725.159	0.0158188
725.237	0.0157586
725.315	0.0156802
725.393	0.0156402
725.471	0.0156676
725.549	0.0156071
725.628	0.0155476
725.706	0.0154631
725.784	0.0153259
725.862	0.0153545
725.940	0.0151208
726.018	0.0150934
726.096	0.0151823
726.174	0.0150114
726.253	0.0149390
726.331	0.0151186
726.409	0.0151045
726.487	0.0151767
726.565	0.0152550
726.643	0.0152968
726.721	0.0154461
726.799	0.0155983
726.878	0.0157225
726.956	0.0158096
727.034	0.0159738
727.112	0.0161378
727.190	0.0163032
727.268	0.0162377
727.346	0.0165014
727.424	0.0165138
727.503	0.0165662
727.581	0.0166610
727.659	0.0167424
727.737	0.0164883
727.815	0.0166046
727.893	0.0165306
727.971	0.0163802
728.049	0.0161481
728.128	0.0161878
728.206	0.0160024
728.284	0.0157833
728.362	0.0156864
728.440	0.0155537
728.518	0.0154137
728.596	0.0153480
728.674	0.0150693
728.753	0.0151530
728.831	0.0149680
728.909	0.0148951
728.987	0.0148066
729.065	0.0147021
729.143	0.0147231
729.221	0.0146565
729.299	0.0145254
729.378	0.0145301
729.456	0.0145239
729.534	0.0144553
729.612	0.0144424
729.690	0.0144488
729.768	0.0145360
729.846	0.0145815
729.924	0.0146674
730.003	0.0148137
730.081	0.0149490
730.159	0.0151707
730.237	0.0153387
730.315	0.0154533
730.393	0.0155416
730.471	0.0156660
730.549	0.0159843
730.628	0.0161319
730.706	0.0162564
730.784	0.0165170
730.862	0.0166355
730.940	0.0167205
731.018	0.0168052
731.096	0.0172059
731.174	0.0171824
731.253	0.0173441
731.331	0.0171185
731.409	0.0172278
731.487	0.0172052
731.565	0.0172039
731.643	0.0170318
731.721	0.0169404
731.799	0.0168694
731.878	0.0167278
731.956	0.0164927
732.034	0.0163291
732.112	0.0161842
732.190	0.0159224
732.268	0.0157863
732.346	0.0155450
732.424	0.0153333
732.503	0.0150110
732.581	0.0148805
732.659	0.0148467
732.737	0.0147465
732.815	0.0144682
732.893	0.0144453
732.971	0.0145139
733.049	0.0141996
733.128	0.0143868
733.206	0.0143611
733.284	0.0144189
733.362	0.0143579
733.440	0.0144846
733.518	0.0143614
733.596	0.0144432
733.674	0.0146962
733.753	0.0146165
733.831	0.0147795
733.909	0.0146951
733.987	0.0146864
734.065	0.0150398
734.143	0.0149928
734.221	0.0149853
734.299	0.0151174
734.378	0.0151773
734.456	0.0153054
734.534	0.0153122
734.612	0.0154119
734.690	0.0154957
734.768	0.0154983
734.846	0.0156542
734.924	0.0156112
735.003	0.0157291
735.081	0.0158506
735.159	0.0159418
735.237	0.0161475
735.315	0.0162732
735.393	0.0163395
735.471	0.0164810
735.549	0.0165218
735.628	0.0167004
735.706	0.0166141
735.784	0.0165725
735.862	0.0165463
735.940	0.0164964
736.018	0.0164258
736.096	0.0163866
736.174	0.0163972
736.253	0.0160651
736.331	0.0159277
736.409	0.0159722
736.487	0.0157735
736.565	0.0156995
736.643	0.0155911
736.721	0.0155234
736.799	0.0153023
736.878	0.0152294
736.956	0.0151620
737.034	0.0150253
737.112	0.0151151
737.190	0.0151044
737.268	0.0149109
737.346	0.0150130
737.424	0.0150872
737.503	0.0148761
737.581	0.0149680
737.659	0.0149673
737.737	0.0147809
737.815	0.0148270
737.893	0.0149728
737.971	0.0150810
738.049	0.0149287
738.128	0.0149650
738.206	0.0150458
738.284	0.0149835
738.362	0.0149471
738.440	0.0150552
738.518	0.0149474
738.596	0.0148992
738.674	0.0148697
738.753	0.0149976
738.831	0.0150774
738.909	0.0150311
738.987	0.0149205
739.065	0.0149799
739.143	0.0149117
739.221	0.0151104
739.299	0.0151369
739.378	0.0150981
739.456	0.0153152
739.534	0.0151935
739.612	0.0152255
739.690	0.0154340
739.768	0.0155553
739.846	0.0157123
739.924	0.0158677
740.003	0.0158577
740.081	0.0159055
740.159	0.0160232
740.237	0.0160946
740.315	0.0162654
740.393	0.0162669
740.471	0.0163007
740.549	0.0163102
740.628	0.0162585
740.706	0.0163712
740.784	0.0162661
740.862	0.0162096
740.940	0.0162640
741.018	0.0160997
741.096	0.0159483
741.174	0.0159136
741.253	0.0158440
741.331	0.0157502
741.409	0.0154727
741.487	0.0155067
741.565	0.0153263
741.643	0.0153379
741.721	0.0153184
741.799	0.0152870
741.878	0.0152102
741.956	0.0152910
742.034	0.0152966
742.112	0.0152179
742.190	0.0153318
742.268	0.0154848
742.346	0.0154134
742.424	0.0153893
742.503	0.0153825
742.581	0.0155334
742.659	0.0155348
742.737	0.0156029
742.815	0.0155363
742.893	0.0156027
742.971	0.0156425
743.049	0.0155354
743.128	0.0154976
743.206	0.0155883
743.284	0.0156332
743.362	0.0154694
743.440	0.0154162
743.518	0.0153811
743.596	0.0153651
743.674	0.0152335
743.753	0.0150465
743.831	0.0151540
743.909	0.0151970
743.987	0.0149319
744.065	0.0150939
744.143	0.0150492
744.221	0.0149448
744.299	0.0148935
744.378	0.0149638
744.456	0.0149063
744.534	0.0150328
744.612	0.0150394
744.690	0.0151070
744.768	0.0151724
744.846	0.0152313
744.924	0.0154208
745.003	0.0152316
745.081	0.0154439
745.159	0.0155443
745.237	0.0156761
745.315	0.0157817
745.393	0.0157676
745.471	0.0159265
745.549	0.0160460
745.628	0.0161731
745.706	0.0163250
745.784	0.0162503
745.862	0.0163282
745.940	0.0163320
746.018	0.0164255
746.096	0.0163235
746.174	0.0162403
746.253	0.0163285
746.331	0.0160938
746.409	0.0160072
746.487	0.0159866
746.565	0.0159191
746.643	0.0159595
746.721	0.0157772
746.799	0.0155599
746.878	0.0154419
746.956	0.0153986
747.034	0.0152776
747.112	0.0152521
747.190	0.0151863
747.268	0.0150672
747.346	0.0149529
747.424	0.0149117
747.503	0.0148753
747.581	0.0148670
747.659	0.0150955
747.737	0.0150020
747.815	0.0149066
747.893	0.0150374
747.971	0.0150684
748.049	0.0150970
748.128	0.0153004
748.206	0.0151904
748.284	0.0153903
748.362	0.0152329
748.440	0.0153839
748.518	0.0154587
748.596	0.0156237
748.674	0.0155648
748.753	0.0155334
748.831	0.0156616
748.909	0.0156404
748.987	0.0156007
749.065	0.0157063
749.143	0.0156349
749.221	0.0155547
749.299	0.0157017
749.378	0.0156145
749.456	0.0158259
749.534	0.0157731
749.612	0.0155611
749.690	0.0154234
749.768	0.0156303
749.846	0.0155835
749.924	0.0154642
750.003	0.0155260
750.081	0.0155482
750.159	0.0154519
750.237	0.0154240
750.315	0.0154711
750.393	0.0153139
750.471	0.0153145
750.549	0.0152695
750.628	0.0154272
750.706	0.0153198
750.784	0.0153297
750.862	0.0153553
750.940	0.0154517
751.018	0.0154037
751.096	0.0156519
751.174	0.0154872
751.253	0.0157135
751.331	0.0157030
751.409	0.0157267
751.487	0.0158111
751.565	0.0157686
751.643	0.0155674
751.721	0.0157560
751.799	0.0158369
751.878	0.0158304
751.956	0.0155936
752.034	0.0156772
752.112	0.0156362
752.190	0.0157430
752.268	0.0156394
752.346	0.0155025
752.424	0.0156171
752.503	0.0155821
752.581	0.0155338
752.659	0.0155950
752.737	0.0154562
752.815	0.0155336
752.893	0.0154013
752.971	0.0154198
753.049	0.0153338
753.128	0.0153137
753.206	0.0153945
753.284	0.0152850
753.362	0.0153461
753.440	0.0151578
753.518	0.0151497
753.596	0.0152338
753.674	0.0151759
753.753	0.0152105
753.831	0.0151812
753.909	0.0153540
753.987	0.0153565
754.065	0.0153744
754.143	0.0154153
754.221	0.0154909
754.299	0.0154960
754.378	0.0156336
754.456	0.0157406
754.534	0.0156375
754.612	0.0155414
754.690	0.0156061
754.768	0.0155578
754.846	0.0156635
754.924	0.0156687
755.003	0.0155104
755.081	0.0155655
755.159	0.0156528
755.237	0.0156076
755.315	0.0156944
755.393	0.0156507
755.471	0.0154681
755.549	0.0153281
755.628	0.0153754
755.706	0.0153440
755.784	0.0153153
755.862	0.0152592
755.940	0.0153285
756.018	0.0151219
756.096	0.0152589
756.174	0.0153391
756.253	0.0151974
756.331	0.0154929
756.409	0.0154886
756.487	0.0155007
756.565	0.0156406
756.643	0.0157570
756.721	0.0157980
756.799	0.0158440
756.878	0.0160366
756.956	0.0159714
757.034	0.0161556
757.112	0.0161018
757.190	0.0161187
757.268	0.0161581
757.346	0.0159374
757.424	0.0160502
757.503	0.0157784
757.581	0.0157928
757.659	0.0157465
757.737	0.0155228
757.815	0.0153810
757.893	0.0152855
757.971	0.0152785
758.049	0.0149941
758.128	0.0148707
758.206	0.0147364
758.284	0.0147249
758.362	0.0147203
758.440	0.0147205
758.518	0.0147021
758.596	0.0146268
758.674	0.0146507
758.753	0.0147540
758.831	0.0148055
758.909	0.0149399
758.987	0.0148663
759.065	0.0150712
759.143	0.0152112
759.221	0.0152230
759.299	0.0153521
759.378	0.0154555
759.456	0.0155017
759.534	0.0156278
759.612	0.0156087
759.690	0.0155562
759.768	0.0157635
759.846	0.0159237
759.924	0.0158968
760.003	0.0157592
760.081	0.0158702
760.159	0.0158694
760.237	0.0158662
760.315	0.0158205
760.393	0.0158202
760.471	0.0156441
760.549	0.0157214
760.628	0.0157155
760.706	0.0156277
760.784	0.0156854
760.862	0.0156248
760.940	0.0155064
761.018	0.0155469
761.096	0.0155792
761.174	0.0154140
761.253	0.0153400
761.331	0.0153026
761.409	0.0155099
761.487	0.0154331
761.565	0.0154691
761.643	0.0153071
761.721	0.0152856
761.799	0.0152155
761.878	0.0152583
761.956	0.0152895
762.034	0.0152649
762.112	0.0153127
762.190	0.0151840
762.268	0.0151878
762.346	0.0153476
762.424	0.0154053
762.503	0.0153291
762.581	0.0154373
762.659	0.0155185
762.737	0.0156990
762.815	0.0156443
762.893	0.0157140
762.971	0.0158091
763.049	0.0159069
763.128	0.0159396
763.206	0.0158599
763.284	0.0157225
763.362	0.0158489
763.440	0.0156271
763.518	0.0155206
763.596	0.0154082
763.674	0.0153384
763.753	0.0151963
763.831	0.0150327
763.909	0.0149871
763.987	0.0149409
764.065	0.0148267
764.143	0.0148482
764.221	0.0149120
764.299	0.0148443
764.378	0.0149271
764.456	0.0149012
764.534	0.0149460
764.612	0.0149210
764.690	0.0149549
764.768	0.0151946
764.846	0.0152895
764.924	0.0152772
765.003	0.0153751
765.081	0.0154488
765.159	0.0154227
765.237	0.0154164
765.315	0.0155254
765.393	0.0154401
765.471	0.0155492
765.549	0.0155762
765.628	0.0156748
765.706	0.0155758
765.784	0.0158302
765.862	0.0157693
765.940	0.0157013
766.018	0.0156462
766.096	0.0157272
766.174	0.0159109
766.253	0.0156854
766.331	0.0157925
766.409	0.0157038
766.487	0.0157515
766.565	0.0156900
766.643	0.0158372
766.721	0.0156910
766.799	0.0154983
766.878	0.0154642
766.956	0.0153217
767.034	0.0154076
767.112	0.0152558
767.190	0.0152940
767.268	0.0153299
767.346	0.0152187
767.424	0.0149110
767.503	0.0150938
767.581	0.0151065
767.659	0.0149573
767.737	0.0150966
767.815	0.0151592
767.893	0.0151110
767.971	0.0153041
768.049	0.0153914
768.128	0.0153087
768.206	0.0153107
768.284	0.0153641
768.362	0.0154358
768.440	0.0155381
768.518	0.0156432
768.596	0.0156733
768.674	0.0155116
768.753	0.0155965
768.831	0.0157887
768.909	0.0156708
768.987	0.0154865
769.065	0.0155236
769.143	0.0154684
769.221	0.0154639
769.299	0.0153104
769.378	0.0151111
769.456	0.0152626
769.534	0.0151392
769.612	0.0151337
769.690	0.0149502
769.768	0.0149529
769.846	0.0150348
769.924	0.0150713
770.003	0.0149866
770.081	0.0149979
770.159	0.0148991
770.237	0.0150199
770.315	0.0152231
770.393	0.0150569
770.471	0.0151414
770.549	0.0153548
770.628	0.0152876
770.706	0.0152531
770.784	0.0152980
770.862	0.0155206
770.940	0.0153686
771.018	0.0154904
771.096	0.0155080
771.174	0.0153835
771.253	0.0154810
771.331	0.0156258
771.409	0.0154019
771.487	0.0157021
771.565	0.0157837
771.643	0.0156491
771.721	0.0156300
771.799	0.0156162
771.878	0.0157058
771.956	0.0159409
772.034	0.0157751
772.112	0.0157203
772.190	0.0158109
772.268	0.0157297
772.346	0.0156181
772.424	0.0156429
772.503	0.0155040
772.581	0.0155323
772.659	0.0153841
772.737	0.0154348
772.815	0.0155042
772.893	0.0152483
772.971	0.0150845
773.049	0.0151775
773.128	0.0151266
773.206	0.0151627
773.284	0.0151943
773.362	0.0151804
773.440	0.0150751
773.518	0.0151167
773.596	0.0151680
773.674	0.0151471
773.753	0.0152101
773.831	0.0153038
773.909	0.0152719
773.987	0.0152744
774.065	0.0154823
774.143	0.0155315
774.221	0.0154282
774.299	0.0154587
774.378	0.0156512
774.456	0.0156452
774.534	0.0157439
774.612	0.0157439
774.690	0.0157960
774.768	0.0157835
774.846	0.0157128
774.924	0.0156862
775.003	0.0156647
775.081	0.0156567
775.159	0.0156819
775.237	0.0156181
775.315	0.0156625
775.393	0.0154797
775.471	0.0154390
775.549	0.0153886
775.628	0.0154366
775.706	0.0152431
775.784	0.0152274
775.862	0.0153336
775.940	0.0152292
776.018	0.0152117
776.096	0.0151479
776.174	0.0152874
776.253	0.0153395
776.331	0.0152692
776.409	0.0153246
776.487	0.0153682
776.565	0.0152979
776.643	0.0154017
776.721	0.0154475
776.799	0.0154698
776.878	0.0155753
776.956	0.0155891
777.034	0.0156065
777.112	0.0156221
777.190	0.0156285
777.268	0.0156010
777.346	0.0157001
777.424	0.0157401
777.503	0.0156130
777.581	0.0156748
777.659	0.0155920
777.737	0.0156572
777.815	0.0157744
777.893	0.0156043
777.971	0.0155255
778.049	0.0155031
778.128	0.0153779
778.206	0.0154606
778.284	0.0154681
778.362	0.0153909
778.440	0.0153551
778.518	0.0151887
778.596	0.0152669
778.674	0.0152836
778.753	0.0151848
778.831	0.0151078
778.909	0.0152440
778.987	0.0151730
779.065	0.0152178
779.143	0.0153059
779.221	0.0152872
779.299	0.0153091
779.378	0.0153548
779.456	0.0153367
779.534	0.0154546
779.612	0.0156160
779.690	0.0157606
779.768	0.0156654
779.846	0.0156854
779.924	0.0157822
780.003	0.0157578
780.081	0.0159081
780.159	0.0158554
780.237	0.0157470
780.315	0.0158702
780.393	0.0161301
780.471	0.0159669
780.549	0.0159813
780.628	0.0160037
780.706	0.0158593
780.784	0.0158479
780.862	0.0158810
780.940	0.0157235
781.018	0.0156342
781.096	0.0154541
781.174	0.0153896
781.253	0.0155074
781.331	0.0154912
781.409	0.0152471
781.487	0.0154117
781.565	0.0152588
781.643	0.0152198
781.721	0.0151403
781.799	0.0150400
781.878	0.0148626
781.956	0.0149449
782.034	0.0148787
782.112	0.0149195
782.190	0.0149312
782.268	0.0150388
782.346	0.0149700
782.424	0.0150133
782.503	0.0149597
782.581	0.0150632
782.659	0.0152312
782.737	0.0152282
782.815	0.0151768
782.893	0.0153893
782.971	0.0154337
783.049	0.0155185
783.128	0.0155096
783.206	0.0156007
783.284	0.0156068
783.362	0.0156480
783.440	0.0156698
783.518	0.0158923
783.596	0.0157929
783.674	0.0158746
783.753	0.0159875
783.831	0.0159294
783.909	0.0158413
783.987	0.0159391
784.065	0.0157935
784.143	0.0157406
784.221	0.0157890
784.299	0.0157449
784.378	0.0157273
784.456	0.0155427
784.534	0.0155941
784.612	0.0154610
784.690	0.0155900
784.768	0.0155096
784.846	0.0154607
784.924	0.0154539
785.003	0.0154536
785.081	0.0153864
785.159	0.0155550
785.237	0.0154765
785.315	0.0154562
785.393	0.0157255
785.471	0.0156360
785.549	0.0154289
785.628	0.0155713
785.706	0.0155233
785.784	0.0154198
785.862	0.0155454
785.940	0.0155142
786.018	0.0154328
786.096	0.0154166
786.174	0.0153424
786.253	0.0153299
786.331	0.0153898
786.409	0.0153130
786.487	0.0154147
786.565	0.0154134
786.643	0.0154019
786.721	0.0153516
786.799	0.0153632
786.878	0.0153697
786.956	0.0153357
787.034	0.0151866
787.112	0.0153373
787.190	0.0154646
787.268	0.0154218
787.346	0.0154438
787.424	0.0155010
787.503	0.0154652
787.581	0.0154436
787.659	0.0154086
787.737	0.0154151
787.815	0.0154955
787.893	0.0155005
787.971	0.0155057
788.049	0.0154089
788.128	0.0154287
788.206	0.0154403
788.284	0.0154734
788.362	0.0155080
788.440	0.0155054
788.518	0.0155407
788.596	0.0157031
788.674	0.0157151
788.753	0.0157475
788.831	0.0158758
788.909	0.0156626
788.987	0.0157108
789.065	0.0156324
789.143	0.0156796
789.221	0.0157102
789.299	0.0156577
789.378	0.0155456
789.456	0.0157020
789.534	0.0155473
789.612	0.0154435
789.690	0.0154840
789.768	0.0155050
789.846	0.0153783
789.924	0.0151689
790.003	0.0153285
790.081	0.0152934
790.159	0.0154343
790.237	0.0152592
790.315	0.0152711
790.393	0.0153526
790.471	0.0152946
790.549	0.0155049
790.628	0.0154133
790.706	0.0154022
790.784	0.0154623
790.862	0.0155485
790.940	0.0154745
791.018	0.0156271
791.096	0.0155701
791.174	0.0155214
791.253	0.0155332
791.331	0.0156847
791.409	0.0155460
791.487	0.0155814
791.565	0.0156077
791.643	0.0155637
791.721	0.0156978
791.799	0.0155319
791.878	0.0155647
791.956	0.0155459
792.034	0.0155724
792.112	0.0155173
792.190	0.0154668
792.268	0.0155238
792.346	0.0154543
792.424	0.0154510
792.503	0.0155481
792.581	0.0154272
792.659	0.0154871
792.737	0.0154387
792.815	0.0152679
792.893	0.0153711
792.971	0.0153826
793.049	0.0152931
793.128	0.0153815
793.206	0.0154458
793.284	0.0154012
793.362	0.0153117
793.440	0.0153767
793.518	0.0153873
793.596	0.0155339
793.674	0.0155627
793.753	0.0153136
793.831	0.0153415
793.909	0.0155112
793.987	0.0154216
794.065	0.0154418
794.143	0.0154418
794.221	0.0153213
794.299	0.0153698
794.378	0.0153642
794.456	0.0153519
794.534	0.0152531
794.612	0.0153014
794.690	0.0153158
794.768	0.0152528
794.846	0.0152564
794.924	0.0152987
795.003	0.0153562
795.081	0.0154265
795.159	0.0153608
795.237	0.0154311
795.315	0.0154538
795.393	0.0155450
795.471	0.0155679
795.549	0.0155483
795.628	0.0155749
795.706	0.0154811
795.784	0.0156527
795.862	0.0156796
795.940	0.0156894
796.018	0.0156756
796.096	0.0157876
796.174	0.0157229
796.253	0.0157117
796.331	0.0157661
796.409	0.0158377
796.487	0.0157000
796.565	0.0157079
796.643	0.0157427
796.721	0.0157906
796.799	0.0155914
796.878	0.0157359
796.956	0.0156813
797.034	0.0156821
797.112	0.0156394
797.190	0.0155712
797.268	0.0156442
797.346	0.0156602
797.424	0.0155563
797.503	0.0154768
797.581	0.0155882
797.659	0.0155418
797.737	0.0155254
797.815	0.0155247
797.893	0.0153526
797.971	0.0154213
798.049	0.0154906
798.128	0.0154749
798.206	0.0153789
798.284	0.0153899
798.362	0.0153207
798.440	0.0154379
798.518	0.0154523
798.596	0.0152735
798.674	0.0153949
798.753	0.0154198
798.831	0.0153617
798.909	0.0154221
798.987	0.0154322
799.065	0.0153723
799.143	0.0153600
799.221	0.0154682
799.299	0.0155399
799.378	0.0155198
799.456	0.0155930
799.534	0.0154977
799.612	0.0156951
799.690	0.0155738
799.768	0.0156274
799.846	0.0155679
799.924	0.0155829
800.003	0.0157145
800.081	0.0157188
800.159	0.0156865
800.237	0.0155489
800.315	0.0154953
800.393	0.0156700
800.471	0.0155788
800.549	0.0155775
800.628	0.0155328
800.706	0.0154215
800.784	0.0154684
800.862	0.0154454
800.940	0.0154716
801.018	0.0153214
801.096	0.0153471
801.174	0.0152751
801.253	0.0153365
801.331	0.0155035
801.409	0.0154282
801.487	0.0154985
801.565	0.0154332
801.643	0.0154237
801.721	0.0154927
801.799	0.0155258
801.878	0.0155303
801.956	0.0154063
802.034	0.0154965
802.112	0.0156012
802.190	0.0156486
802.268	0.0155458
802.346	0.0155746
802.424	0.0156614
802.503	0.0155585
802.581	0.0156432
802.659	0.0156152
802.737	0.0154662
802.815	0.0156307
802.893	0.0155909
802.971	0.0156124
803.049	0.0156442
803.128	0.0156051
803.206	0.0156508
803.284	0.0156237
803.362	0.0155265
803.440	0.0156087
803.518	0.0155848
803.596	0.0155859
803.674	0.0155941
803.753	0.0155536
803.831	0.0155411
803.909	0.0155460
803.987	0.0156747
804.065	0.0156429
804.143	0.0157069
804.221	0.0153373
804.299	0.0155778
804.378	0.0155956
804.456	0.0157124
804.534	0.0155394
804.612	0.0154636
804.690	0.0154011
804.768	0.0155493
804.846	0.0153562
804.924	0.0153738
805.003	0.0153629
805.081	0.0153059
805.159	0.0153416
805.237	0.0152576
805.315	0.0152706
805.393	0.0153072
805.471	0.0153348
805.549	0.0153767
805.628	0.0153198
805.706	0.0152873
805.784	0.0153072
805.862	0.0153360
805.940	0.0154783
806.018	0.0154388
806.096	0.0154922
806.174	0.0154694
806.253	0.0155162
806.331	0.0153986
806.409	0.0155495
806.487	0.0155962
806.565	0.0155443
806.643	0.0156030
806.721	0.0155759
806.799	0.0155460
806.878	0.0155276
806.956	0.0157025
807.034	0.0156383
807.112	0.0155556
807.190	0.0154732
807.268	0.0156568
807.346	0.0156346
807.424	0.0156645
807.503	0.0157218
807.581	0.0156061
807.659	0.0155733
807.737	0.0155685
807.815	0.0157450
807.893	0.0157198
807.971	0.0156226
808.049	0.0157224
808.128	0.0156522
808.206	0.0155669
808.284	0.0155310
808.362	0.0156743
808.440	0.0157533
808.518	0.0155279
808.596	0.0156316
808.674	0.0157240
808.753	0.0156885
808.831	0.0155083
808.909	0.0154910
808.987	0.0157397
809.065	0.0155449
809.143	0.0156020
809.221	0.0156828
809.299	0.0156587
809.378	0.0157082
809.456	0.0155917
809.534	0.0154690
809.612	0.0155076
809.690	0.0155737
809.768	0.0155977
809.846	0.0155027
809.924	0.0156884
810.003	0.0155547
810.081	0.0155820
810.159	0.0156533
810.237	0.0154986
810.315	0.0156211
810.393	0.0155905
810.471	0.0157422
810.549	0.0157797
810.628	0.0156926
810.706	0.0156236
810.784	0.0157041
810.862	0.0157590
810.940	0.0155756
811.018	0.0156331
811.096	0.0156264
811.174	0.0157173
811.253	0.0156625
811.331	0.0154890
811.409	0.0155477
811.487	0.0155824
811.565	0.0155233
811.643	0.0155894
811.721	0.0154740
811.799	0.0155159
811.878	0.0154510
811.956	0.0155882
812.034	0.0156270
812.112	0.0155202
812.190	0.0154782
812.268	0.0157147
812.346	0.0156521
812.424	0.0156705
812.503	0.0156635
812.581	0.0156780
812.659	0.0156984
812.737	0.0156532
812.815	0.0157207
812.893	0.0156093
812.971	0.0156684
813.049	0.0157334
813.128	0.0156524
813.206	0.0156642
813.284	0.0157345
813.362	0.0156650
813.440	0.0156937
813.518	0.0156311
813.596	0.0155894
813.674	0.0155511
813.753	0.0155066
813.831	0.0156017
813.909	0.0155225
813.987	0.0154432
814.065	0.0154201
814.143	0.0155177
814.221	0.0154836
814.299	0.0154665
814.378	0.0155843
814.456	0.0155135
814.534	0.0155154
814.612	0.0153911
814.690	0.0155410
814.768	0.0155911
814.846	0.0154724
814.924	0.0156211
815.003	0.0156575
815.081	0.0156217
815.159	0.0157082
815.237	0.0155460
815.315	0.0157611
815.393	0.0157033
815.471	0.0156514
815.549	0.0156580
815.628	0.0157059
815.706	0.0157711
815.784	0.0156873
815.862	0.0157404
815.940	0.0157457
816.018	0.0158404
816.096	0.0156844
816.174	0.0157121
816.253	0.0157151
816.331	0.0156306
816.409	0.0156904
816.487	0.0156458
816.565	0.0157903
816.643	0.0156690
816.721	0.0155996
816.799	0.0156286
816.878	0.0156750
816.956	0.0156429
817.034	0.0156336
817.112	0.0156910
817.190	0.0154769
817.268	0.0155286
817.346	0.0153534
817.424	0.0155047
817.503	0.0152951
817.581	0.0151353
817.659	0.0152531
817.737	0.0153643
817.815	0.0152667
817.893	0.0152254
817.971	0.0152322
818.049	0.0151214
818.128	0.0151717
818.206	0.0150497
818.284	0.0152594
818.362	0.0153455
818.440	0.0153909
818.518	0.0153895
818.596	0.0153285
818.674	0.0155882
818.753	0.0154995
818.831	0.0157088
818.909	0.0155148
818.987	0.0156499
819.065	0.0157401
819.143	0.0156740
819.221	0.0156814
819.299	0.0157178
819.378	0.0157590
819.456	0.0157851
819.534	0.0156882
819.612	0.0157561
819.690	0.0156308
819.768	0.0155370
819.846	0.0156080
819.924	0.0156699
820.003	0.0154362
820.081	0.0154150
820.159	0.0155810
820.237	0.0156258
820.315	0.0154634
820.393	0.0154665
820.471	0.0154463
820.549	0.0154694
820.628	0.0155651
820.706	0.0154115
820.784	0.0154407
820.862	0.0155118
820.940	0.0153529
821.018	0.0154434
821.096	0.0154062
821.174	0.0154426
821.253	0.0154881
821.331	0.0154903
821.409	0.0155816
821.487	0.0153892
821.565	0.0154937
821.643	0.0154455
821.721	0.0154493
821.799	0.0155445
821.878	0.0154221
821.956	0.0153293
822.034	0.0154905
822.112	0.0154816
822.190	0.0155167
822.268	0.0154377
822.346	0.0154723
822.424	0.0154198
822.503	0.0154477
822.581	0.0154813
822.659	0.0154817
822.737	0.0155411
822.815	0.0154746
822.893	0.0155846
822.971	0.0156107
823.049	0.0157082
823.128	0.0155995
823.206	0.0157025
823.284	0.0155598
823.362	0.0156430
823.440	0.0157301
823.518	0.0157327
823.596	0.0156828
823.674	0.0156423
823.753	0.0156774
823.831	0.0156876
823.909	0.0156474
823.987	0.0156716
824.065	0.0157142
824.143	0.0157003
824.221	0.0156758
824.299	0.0156979
824.378	0.0158248
824.456	0.0156384
824.534	0.0156410
824.612	0.0154775
824.690	0.0155231
824.768	0.0155995
824.846	0.0155559
824.924	0.0153870
825.003	0.0154263
825.081	0.0154579
825.159	0.0153063
825.237	0.0154775
825.315	0.0153643
825.393	0.0153772
825.471	0.0152918
825.549	0.0152620
825.628	0.0154163
825.706	0.0152578
825.784	0.0152383
825.862	0.0153527
825.940	0.0153061
826.018	0.0153944
826.096	0.0153183
826.174	0.0151776
826.253	0.0152651
826.331	0.0153376
826.409	0.0152461
826.487	0.0152319
826.565	0.0152202
826.643	0.0153289
826.721	0.0152799
826.799	0.0151931
826.878	0.0153265
826.956	0.0152177
827.034	0.0153539
827.112	0.0155029
827.190	0.0154247
827.268	0.0153846
827.346	0.0154758
827.424	0.0156719
827.503	0.0156757
827.581	0.0156304
827.659	0.0156811
827.737	0.0157598
827.815	0.0157040
827.893	0.0157522
827.971	0.0156124
828.049	0.0157441
828.128	0.0159154
828.206	0.0157368
828.284	0.0157317
828.362	0.0156647
828.440	0.0156814
828.518	0.0157521
828.596	0.0156796
828.674	0.0158167
828.753	0.0156507
828.831	0.0156357
828.909	0.0155231
828.987	0.0153741
829.065	0.0153999
829.143	0.0154961
829.221	0.0154693
829.299	0.0153281
829.378	0.0153146
829.456	0.0153912
829.534	0.0152746
829.612	0.0151765
829.690	0.0152504
829.768	0.0152705
829.846	0.0152541
829.924	0.0152749
830.003	0.0150584
830.081	0.0151079
830.159	0.0150253
830.237	0.0152917
830.315	0.0152651
830.393	0.0152442
830.471	0.0153780
830.549	0.0152621
830.628	0.0152324
830.706	0.0152322
830.784	0.0153078
830.862	0.0152927
830.940	0.0153810
831.018	0.0153713
831.096	0.0152602
831.174	0.0153917
831.253	0.0154948
831.331	0.0154351
831.409	0.0154353
831.487	0.0156198
831.565	0.0156873
831.643	0.0155443
831.721	0.0156718
831.799	0.0157172
831.878	0.0156669
831.956	0.0156599
832.034	0.0159064
832.112	0.0159355
832.190	0.0157817
832.268	0.0158038
832.346	0.0158106
832.424	0.0159878
832.503	0.0158431
832.581	0.0158333
832.659	0.0157981
832.737	0.0158437
832.815	0.0158021
832.893	0.0157793
832.971	0.0156861
833.049	0.0156311
833.128	0.0155788
833.206	0.0155582
833.284	0.0155337
833.362	0.0155959
833.440	0.0157006
833.518	0.0154601
833.596	0.0154401
833.674	0.0155486
833.753	0.0154826
833.831	0.0156619
833.909	0.0155210
833.987	0.0153624
834.065	0.0154383
834.143	0.0154720
834.221	0.0153339
834.299	0.0153248
834.378	0.0155606
834.456	0.0154675
834.534	0.0153650
834.612	0.0154943
834.690	0.0153033
834.768	0.0154639
834.846	0.0154653
834.924	0.0153389
835.003	0.0153127
835.081	0.0154416
835.159	0.0154346
835.237	0.0153631
835.315	0.0154661
835.393	0.0154776
835.471	0.0153779
835.549	0.0154829
835.628	0.0152970
835.706	0.0153546
835.784	0.0155086
835.862	0.0155381
835.940	0.0154409
836.018	0.0154391
836.096	0.0155016
836.174	0.0157359
836.253	0.0156128
836.331	0.0156286
836.409	0.0155958
836.487	0.0156268
836.565	0.0156342
836.643	0.0156122
836.721	0.0155447
836.799	0.0156474
836.878	0.0156578
836.956	0.0155414
837.034	0.0155796
837.112	0.0157207
837.190	0.0156016
837.268	0.0156569
837.346	0.0155721
837.424	0.0156797
837.503	0.0155318
837.581	0.0156664
837.659	0.0154903
837.737	0.0156046
837.815	0.0155848
837.893	0.0155697
837.971	0.0155618
838.049	0.0155653
838.128	0.0154417
838.206	0.0155521
838.284	0.0155325
838.362	0.0155208
838.440	0.0156004
838.518	0.0154871
838.596	0.0155762
838.674	0.0155392
838.753	0.0155362
838.831	0.0154966
838.909	0.0154823
838.987	0.0155658
839.065	0.0154675
839.143	0.0155689
839.221	0.0155828
839.299	0.0155520
839.378	0.0154848
839.456	0.0155942
839.534	0.0153986
839.612	0.0154613
839.690	0.0153746
839.768	0.0156270
839.846	0.0154631
839.924	0.0154110
840.003	0.0153905
840.081	0.0154105
840.159	0.0153979
840.237	0.0153124
840.315	0.0153674
840.393	0.0153184
840.471	0.0152529
840.549	0.0152296
840.628	0.0151816
840.706	0.0152751
840.784	0.0152199
840.862	0.0153647
840.940	0.0152422
841.018	0.0152848
841.096	0.0152789
841.174	0.0152655
841.253	0.0152238
841.331	0.0152959
841.409	0.0152587
841.487	0.0154436
841.565	0.0153182
841.643	0.0153326
841.721	0.0153092
841.799	0.0153120
841.878	0.0153264
841.956	0.0154196
842.034	0.0153782
842.112	0.0153671
842.190	0.0154858
842.268	0.0155211
842.346	0.0154748
842.424	0.0156310
842.503	0.0155982
842.581	0.0156490
842.659	0.0155365
842.737	0.0155351
842.815	0.0155907
842.893	0.0155173
842.971	0.0155954
843.049	0.0156863
843.128	0.0157002
843.206	0.0155836
843.284	0.0155112
843.362	0.0153970
843.440	0.0155562
843.518	0.0155833
843.596	0.0154967
843.674	0.0154755
843.753	0.0154277
843.831	0.0154171
843.909	0.0154463
843.987	0.0152514
844.065	0.0152884
844.143	0.0155013
844.221	0.0154344
844.299	0.0153379
844.378	0.0153393
844.456	0.0153759
844.534	0.0153774
844.612	0.0153056
844.690	0.0153757
844.768	0.0153037
844.846	0.0154498
844.924	0.0153592
845.003	0.0155099
845.081	0.0154923
845.159	0.0153902
845.237	0.0152895
845.315	0.0154819
845.393	0.0154617
845.471	0.0153638
845.549	0.0154547
845.628	0.0154098
845.706	0.0154925
845.784	0.0155739
845.862	0.0155309
845.940	0.0154813
846.018	0.0154581
846.096	0.0154063
846.174	0.0154111
846.253	0.0155560
846.331	0.0155449
846.409	0.0155109
846.487	0.0155113
846.565	0.0154742
846.643	0.0154827
846.721	0.0154442
846.799	0.0155975
846.878	0.0155692
846.956	0.0155650
847.034	0.0155664
847.112	0.0153707
847.190	0.0155679
847.268	0.0156082
847.346	0.0155801
847.424	0.0156068
847.503	0.0154518
847.581	0.0157375
847.659	0.0155627
847.737	0.0155730
847.815	0.0155607
847.893	0.0155682
847.971	0.0156680
848.049	0.0155421
848.128	0.0155563
848.206	0.0156542
848.284	0.0156577
848.362	0.0155978
848.440	0.0155405
848.518	0.0154768
848.596	0.0155766
848.674	0.0156638
848.753	0.0154708
848.831	0.0155804
848.909	0.0155233
848.987	0.0155027
849.065	0.0153786
849.143	0.0153521
849.221	0.0154727
849.299	0.0154570
849.378	0.0153653
849.456	0.0154047
849.534	0.0154817
849.612	0.0155176
849.690	0.0154366
849.768	0.0154839
849.846	0.0154459
849.924	0.0153985
850.003	0.0153178
850.081	0.0152113
850.159	0.0153611
850.237	0.0154388
850.315	0.0154694
850.393	0.0153544
850.471	0.0153844
850.549	0.0154343
850.628	0.0153328
850.706	0.0153713
850.784	0.0154060
850.862	0.0154510
850.940	0.0153755
851.018	0.0154351
851.096	0.0154360
851.174	0.0153697
851.253	0.0153861
851.331	0.0153508
851.409	0.0154199
851.487	0.0154534
851.565	0.0154838
851.643	0.0154977
851.721	0.0154375
851.799	0.0153609
851.878	0.0154060
851.956	0.0154664
852.034	0.0155006
852.112	0.0155022
852.190	0.0154288
852.268	0.0154438
852.346	0.0156263
852.424	0.0154745
852.503	0.0153864
852.581	0.0154007
852.659	0.0154272
852.737	0.0154116
852.815	0.0154013
852.893	0.0155176
852.971	0.0155791
853.049	0.0156255
853.128	0.0153790
853.206	0.0154570
853.284	0.0154574
853.362	0.0154912
853.440	0.0155411
853.518	0.0156685
853.596	0.0156062
853.674	0.0154527
853.753	0.0156537
853.831	0.0156654
853.909	0.0155606
853.987	0.0155986
854.065	0.0155384
854.143	0.0155634
854.221	0.0154099
854.299	0.0156320
854.378	0.0155475
854.456	0.0154037
854.534	0.0155997
854.612	0.0154989
854.690	0.0155440
854.768	0.0153872
854.846	0.0155179
854.924	0.0155932
855.003	0.0155956
855.081	0.0154678
855.159	0.0154814
855.237	0.0155857
855.315	0.0154480
855.393	0.0154391
855.471	0.0155125
855.549	0.0155957
855.628	0.0155279
855.706	0.0155775
855.784	0.0153924
855.862	0.0154154
855.940	0.0155222
856.018	0.0153478
856.096	0.0155201
856.174	0.0155450
856.253	0.0155271
856.331	0.0154446
856.409	0.0155261
856.487	0.0154653
856.565	0.0154864
856.643	0.0154221
856.721	0.0153976
856.799	0.0153545
856.878	0.0154186
856.956	0.0154063
857.034	0.0153606
857.112	0.0153723
857.190	0.0154012
857.268	0.0156280
857.346	0.0153770
857.424	0.0153391
857.503	0.0152707
857.581	0.0154924
857.659	0.0154755
857.737	0.0155979
857.815	0.0154082
857.893	0.0153501
857.971	0.0154293
858.049	0.0154267
858.128	0.0154620
858.206	0.0155807
858.284	0.0154736
858.362	0.0156791
858.440	0.0154884
858.518	0.0154997
858.596	0.0156356
858.674	0.0155548
858.753	0.0156721
858.831	0.0156544
858.909	0.0154951
858.987	0.0155804
859.065	0.0156183
859.143	0.0154761
859.221	0.0154488
859.299	0.0154357
859.378	0.0155727
859.456	0.0155069
859.534	0.0155229
859.612	0.0154556
859.690	0.0154991
859.768	0.0154358
859.846	0.0154630
859.924	0.0153458
860.003	0.0155722
860.081	0.0155025
860.159	0.0153413
860.237	0.0155273
860.315	0.0155540
860.393	0.0153934
860.471	0.0154589
860.549	0.0154119
860.628	0.0153680
860.706	0.0155555
860.784	0.0153964
860.862	0.0152953
860.940	0.0154404
861.018	0.0153568
861.096	0.0153333
861.174	0.0153493
861.253	0.0153645
861.331	0.0152841
861.409	0.0152880
861.487	0.0154940
861.565	0.0152605
861.643	0.0152654
861.721	0.0155163
861.799	0.0153383
861.878	0.0153453
861.956	0.0154029
862.034	0.0154765
862.112	0.0153861
862.190	0.0153877
862.268	0.0153226
862.346	0.0154048
862.424	0.0155827
862.503	0.0155956
862.581	0.0154006
862.659	0.0155259
862.737	0.0155119
862.815	0.0154508
862.893	0.0155143
862.971	0.0156126
863.049	0.0154866
863.128	0.0154319
863.206	0.0155212
863.284	0.0155657
863.362	0.0154428
863.440	0.0154515
863.518	0.0154742
863.596	0.0154900
863.674	0.0156264
863.753	0.0154006
863.831	0.0154700
863.909	0.0154852
863.987	0.0154459
864.065	0.0155966
864.143	0.0154713
864.221	0.0154520
864.299	0.0153981
864.378	0.0155397
864.456	0.0155178
864.534	0.0155405
864.612	0.0155244
864.690	0.0155885
864.768	0.0154711
864.846	0.0155029
864.924	0.0155248
865.003	0.0156694
865.081	0.0155991
865.159	0.0155555
865.237	0.0154980
865.315	0.0155380
865.393	0.0155640
865.471	0.0155195
865.549	0.0155471
865.628	0.0154867
865.706	0.0154628
865.784	0.0153892
865.862	0.0153905
865.940	0.0152966
866.018	0.0153901
866.096	0.0154672
866.174	0.0153931
866.253	0.0153280
866.331	0.0154005
866.409	0.0153004
866.487	0.0153382
866.565	0.0154091
866.643	0.0153840
866.721	0.0154601
866.799	0.0153843
866.878	0.0153268
866.956	0.0154220
867.034	0.0153891
867.112	0.0154427
867.190	0.0154832
867.268	0.0153832
867.346	0.0154893
867.424	0.0156260
867.503	0.0155214
867.581	0.0155186
867.659	0.0155833
867.737	0.0155192
867.815	0.0155523
867.893	0.0155799
867.971	0.0153504
868.049	0.0156520
868.128	0.0156151
868.206	0.0153723
868.284	0.0156882
868.362	0.0156406
868.440	0.0155674
868.518	0.0154263
868.596	0.0155751
868.674	0.0156176
868.753	0.0155208
868.831	0.0155273
868.909	0.0155305
868.987	0.0155952
869.065	0.0154621
869.143	0.0156187
869.221	0.0154813
869.299	0.0154237
869.378	0.0155581
869.456	0.0154318
869.534	0.0155293
869.612	0.0155050
869.690	0.0156837
869.768	0.0156340
869.846	0.0155129
869.924	0.0154131
870.003	0.0154219
870.081	0.0155101
870.159	0.0154515
870.237	0.0154317
870.315	0.0153630
870.393	0.0153044
870.471	0.0153667
870.549	0.0153288
870.628	0.0155018
870.706	0.0152972
870.784	0.0151760
870.862	0.0155151
870.940	0.0153918
871.018	0.0153246
871.096	0.0154234
871.174	0.0153130
871.253	0.0154232
871.331	0.0153371
871.409	0.0154560
871.487	0.0154792
871.565	0.0154688
871.643	0.0155283
871.721	0.0155311
871.799	0.0155125
871.878	0.0153409
871.956	0.0153738
872.034	0.0154320
872.112	0.0154574
872.190	0.0154395
872.268	0.0154917
872.346	0.0154012
872.424	0.0153552
872.503	0.0154007
872.581	0.0155402
872.659	0.0155260
872.737	0.0156036
872.815	0.0155467
872.893	0.0154501
872.971	0.0154223
873.049	0.0154994
873.128	0.0154205
873.206	0.0155584
873.284	0.0155988
873.362	0.0154618
873.440	0.0155004
873.518	0.0156624
873.596	0.0155930
873.674	0.0154839
873.753	0.0156200
873.831	0.0156620
873.909	0.0156858
873.987	0.0155186
874.065	0.0156609
874.143	0.0156319
874.221	0.0156105
874.299	0.0155212
874.378	0.0155569
874.456	0.0154395
874.534	0.0156097
874.612	0.0155444
874.690	0.0155587
874.768	0.0155648
874.846	0.0155099
874.924	0.0155165
875.003	0.0155925
875.081	0.0155637
875.159	0.0155382
875.237	0.0155853
875.315	0.0154078
875.393	0.0155098
875.471	0.0155267
875.549	0.0154884
875.628	0.0156316
875.706	0.0156192
875.784	0.0154996
875.862	0.0154069
875.940	0.0155659
876.018	0.0155404
876.096	0.0154709
876.174	0.0155350
876.253	0.0155146
876.331	0.0153922
876.409	0.0155869
876.487	0.0155769
876.565	0.0155051
876.643	0.0154677
876.721	0.0155442
876.799	0.0155104
876.878	0.0154809
876.956	0.0156021
877.034	0.0155635
877.112	0.0154963
877.190	0.0155711
877.268	0.0156621
877.346	0.0155949
877.424	0.0156016
877.503	0.0153881
877.581	0.0155101
877.659	0.0155193
877.737	0.0154790
877.815	0.0155160
877.893	0.0155542
877.971	0.0154958
878.049	0.0155710
878.128	0.0154600
878.206	0.0155341
878.284	0.0154533
878.362	0.0156543
878.440	0.0156660
878.518	0.0155735
878.596	0.0153885
878.674	0.0154818
878.753	0.0155803
878.831	0.0154711
878.909	0.0153160
878.987	0.0155698
879.065	0.0154932
879.143	0.0155051
879.221	0.0154181
879.299	0.0153755
879.378	0.0154096
879.456	0.0153389
879.534	0.0154142
879.612	0.0154411
879.690	0.0154460
879.768	0.0153545
879.846	0.0153054
879.924	0.0154499
880.003	0.0153816
880.081	0.0153693
880.159	0.0154135
880.237	0.0154206
880.315	0.0154064
880.393	0.0154913
880.471	0.0154238
880.549	0.0154625
880.628	0.0155524
880.706	0.0153502
880.784	0.0153648
880.862	0.0153456
880.940	0.0153738
881.018	0.0154754
881.096	0.0154601
881.174	0.0154793
881.253	0.0154077
881.331	0.0154929
881.409	0.0154803
881.487	0.0154824
881.565	0.0154565
881.643	0.0154729
881.721	0.0154863
881.799	0.0153976
881.878	0.0154447
881.956	0.0156025
882.034	0.0154461
882.112	0.0154249
882.190	0.0155394
882.268	0.0155664
882.346	0.0155685
882.424	0.0154536
882.503	0.0156138
882.581	0.0155396
882.659	0.0154177
882.737	0.0154260
882.815	0.0155504
882.893	0.0154980
882.971	0.0154623
883.049	0.0155387
883.128	0.0155004
883.206	0.0154177
883.284	0.0154996
883.362	0.0154601
883.440	0.0154983
883.518	0.0154002
883.596	0.0155566
883.674	0.0153577
883.753	0.0153634
883.831	0.0155743
883.909	0.0154955
883.987	0.0154794
884.065	0.0154770
884.143	0.0155497
884.221	0.0154920
884.299	0.0155825
884.378	0.0155421
884.456	0.0155901
884.534	0.0154695
884.612	0.0154460
884.690	0.0155599
884.768	0.0156583
884.846	0.0155563
884.924	0.0156495
885.003	0.0155067
885.081	0.0155564
885.159	0.0155222
885.237	0.0156232
885.315	0.0155497
885.393	0.0156402
885.471	0.0155298
885.549	0.0155804
885.628	0.0155206
885.706	0.0155347
885.784	0.0155163
885.862	0.0153957
885.940	0.0154687
886.018	0.0154488
886.096	0.0155206
886.174	0.0154495
886.253	0.0155050
886.331	0.0153812
886.409	0.0155622
886.487	0.0155645
886.565	0.0155419
886.643	0.0154147
886.721	0.0155521
886.799	0.0155872
886.878	0.0153885
886.956	0.0154007
887.034	0.0155085
887.112	0.0156013
887.190	0.0154263
887.268	0.0154333
887.346	0.0154554
887.424	0.0155789
887.503	0.0153358
887.581	0.0154733
887.659	0.0155253
887.737	0.0154459
887.815	0.0153619
887.893	0.0154801
887.971	0.0153540
888.049	0.0155087
888.128	0.0154928
888.206	0.0155729
888.284	0.0154927
888.362	0.0154086
888.440	0.0154538
888.518	0.0154185
888.596	0.0153416
888.674	0.0154015
888.753	0.0154823
888.831	0.0153895
888.909	0.0155255
888.987	0.0154884
889.065	0.0154490
889.143	0.0154651
889.221	0.0154715
889.299	0.0154078
889.378	0.0154652
889.456	0.0152387
889.534	0.0154430
889.612	0.0154279
889.690	0.0155206
889.768	0.0155217
889.846	0.0153579
889.924	0.0152859
890.003	0.0153967
890.081	0.0155238
890.159	0.0156588
890.237	0.0154012
890.315	0.0155268
890.393	0.0153928
890.471	0.0155700
890.549	0.0154272
890.628	0.0154746
890.706	0.0154517
890.784	0.0154896
890.862	0.0154497
890.940	0.0155850
891.018	0.0154816
891.096	0.0154742
891.174	0.0155496
891.253	0.0154620
891.331	0.0155141
891.409	0.0156313
891.487	0.0156240
891.565	0.0155465
891.643	0.0155529
891.721	0.0155349
891.799	0.0155990
891.878	0.0154572
891.956	0.0154957
892.034	0.0154298
892.112	0.0154689
892.190	0.0154714
892.268	0.0154645
892.346	0.0155113
892.424	0.0154944
892.503	0.0155936
892.581	0.0156620
892.659	0.0154196
892.737	0.0153902
892.815	0.0155107
892.893	0.0155643
892.971	0.0155383
893.049	0.0154993
893.128	0.0155962
893.206	0.0155413
893.284	0.0155254
893.362	0.0155694
893.440	0.0155826
893.518	0.0155427
893.596	0.0154228
893.674	0.0155272
893.753	0.0155679
893.831	0.0155618
893.909	0.0155346
893.987	0.0154810
894.065	0.0154765
894.143	0.0155341
894.221	0.0156119
894.299	0.0155839
894.378	0.0155189
894.456	0.0155286
894.534	0.0156297
894.612	0.0156434
894.690	0.0155554
894.768	0.0155877
894.846	0.0155470
894.924	0.0155584
895.003	0.0155720
895.081	0.0156468
895.159	0.0155300
895.237	0.0156519
895.315	0.0153796
895.393	0.0156161
895.471	0.0156261
895.549	0.0155890
895.628	0.0156197
895.706	0.0155694
895.784	0.0156252
895.862	0.0156099
895.940	0.0156907
896.018	0.0156073
896.096	0.0156242
896.174	0.0156067
896.253	0.0155144
896.331	0.0156163
896.409	0.0156389
896.487	0.0156023
896.565	0.0156052
896.643	0.0154753
896.721	0.0155773
896.799	0.0155852
896.878	0.0154911
896.956	0.0154050
897.034	0.0154675
897.112	0.0155939
897.190	0.0154828
897.268	0.0155019
897.346	0.0155418
897.424	0.0154321
897.503	0.0155247
897.581	0.0155878
897.659	0.0155652
897.737	0.0154440
897.815	0.0155590
897.893	0.0155473
897.971	0.0155795
898.049	0.0155898
898.128	0.0155820
898.206	0.0155782
898.284	0.0156245
898.362	0.0156237
898.440	0.0157296
898.518	0.0155607
898.596	0.0157593
898.674	0.0157998
898.753	0.0156860
898.831	0.0156995
898.909	0.0157163
898.987	0.0156006
899.065	0.0155860
899.143	0.0154916
899.221	0.0155019
899.299	0.0155105
899.378	0.0155230
899.456	0.0155192
899.534	0.0155247
899.612	0.0154287
899.690	0.0154899
899.768	0.0156271
899.846	0.0154044
899.924	0.0154895
900.003	0.0154547
900.081	0.0155286
900.159	0.0154551
900.237	0.0154318
900.315	0.0154446
900.393	0.0155212
900.471	0.0154053
900.549	0.0154169
900.628	0.0154556
900.706	0.0155832
900.784	0.0155096
900.862	0.0153930
900.940	0.0153289
901.018	0.0155492
901.096	0.0154967
901.174	0.0153822
901.253	0.0153830
901.331	0.0153556
901.409	0.0154496
901.487	0.0155142
901.565	0.0154435
901.643	0.0154029
901.721	0.0154858
901.799	0.0154271
901.878	0.0152802
901.956	0.0153331
902.034	0.0155634
902.112	0.0153311
902.190	0.0154433
902.268	0.0152907
902.346	0.0154393
902.424	0.0154253
902.503	0.0153774
902.581	0.0153272
902.659	0.0154438
902.737	0.0153052
902.815	0.0153527
902.893	0.0153424
902.971	0.0152738
903.049	0.0154420
903.128	0.0154733
903.206	0.0153335
903.284	0.0155363
903.362	0.0154294
903.440	0.0153924
903.518	0.0154008
903.596	0.0153245
903.674	0.0154397
903.753	0.0154070
903.831	0.0153109
903.909	0.0153416
903.987	0.0155880
904.065	0.0155268
904.143	0.0153143
904.221	0.0154454
904.299	0.0155505
904.378	0.0154172
904.456	0.0153770
904.534	0.0154186
904.612	0.0153852
904.690	0.0154599
904.768	0.0155262
904.846	0.0154974
904.924	0.0155557
905.003	0.0155199
905.081	0.0153653
905.159	0.0155714
905.237	0.0155543
905.315	0.0154897
905.393	0.0152325
905.471	0.0155251
905.549	0.0154659
905.628	0.0154290
905.706	0.0154762
905.784	0.0154684
905.862	0.0155859
905.940	0.0155668
906.018	0.0153762
906.096	0.0156339
906.174	0.0154939
906.253	0.0154443
906.331	0.0153648
906.409	0.0155176
906.487	0.0156234
906.565	0.0155281
906.643	0.0154661
906.721	0.0155344
906.799	0.0154570
906.878	0.0154501
906.956	0.0155376
907.034	0.0155159
907.112	0.0154914
907.190	0.0154578
907.268	0.0154120
907.346	0.0153658
907.424	0.0156348
907.503	0.0154900
907.581	0.0153763
907.659	0.0153743
907.737	0.0154514
907.815	0.0155137
907.893	0.0153661
907.971	0.0154291
908.049	0.0154102
908.128	0.0152471
908.206	0.0154079
908.284	0.0154749
908.362	0.0155033
908.440	0.0153397
908.518	0.0154575
908.596	0.0155405
908.674	0.0154084
908.753	0.0154858
908.831	0.0155246
908.909	0.0154573
908.987	0.0153986
909.065	0.0153415
909.143	0.0155143
909.221	0.0156802
909.299	0.0155655
909.378	0.0155431
909.456	0.0156277
909.534	0.0155304
909.612	0.0155033
909.690	0.0155770
909.768	0.0155949
909.846	0.0155314
909.924	0.0155091
910.003	0.0154308
910.081	0.0154830
910.159	0.0153577
910.237	0.0155233
910.315	0.0154545
910.393	0.0154714
910.471	0.0155470
910.549	0.0156050
910.628	0.0155524
910.706	0.0156316
910.784	0.0155814
910.862	0.0155101
910.940	0.0157092
911.018	0.0155923
911.096	0.0155780
911.174	0.0156121
911.253	0.0156945
911.331	0.0156054
911.409	0.0155075
911.487	0.0155561
911.565	0.0156381
911.643	0.0155833
911.721	0.0155482
911.799	0.0155126
911.878	0.0155415
911.956	0.0153745
912.034	0.0154498
912.112	0.0155456
912.190	0.0156374
912.268	0.0154022
912.346	0.0154095
912.424	0.0154252
912.503	0.0155232
912.581	0.0154844
912.659	0.0154387
912.737	0.0155580
912.815	0.0154328
912.893	0.0153600
912.971	0.0154892
913.049	0.0155518
913.128	0.0155022
913.206	0.0154842
913.284	0.0156395
913.362	0.0154305
913.440	0.0156112
913.518	0.0155395
913.596	0.0154807
913.674	0.0154070
913.753	0.0154308
913.831	0.0154851
913.909	0.0155470
913.987	0.0156340
914.065	0.0154744
914.143	0.0154860
914.221	0.0155578
914.299	0.0156482
914.378	0.0154761
914.456	0.0156143
914.534	0.0156681
914.612	0.0155490
914.690	0.0155316
914.768	0.0156155
914.846	0.0155571
914.924	0.0156408
915.003	0.0155209
915.081	0.0155397
915.159	0.0155394
915.237	0.0156049
915.315	0.0156033
915.393	0.0155102
915.471	0.0154507
915.549	0.0154922
915.628	0.0155806
915.706	0.0156425
915.784	0.0155934
915.862	0.0155737
915.940	0.0155679
916.018	0.0155743
916.096	0.0155050
916.174	0.0155670
916.253	0.0156594
916.331	0.0156532
916.409	0.0155883
916.487	0.0155388
916.565	0.0156361
916.643	0.0156947
916.721	0.0154772
916.799	0.0156138
916.878	0.0155341
916.956	0.0156451
917.034	0.0156360
917.112	0.0155643
917.190	0.0156168
917.268	0.0155104
917.346	0.0155630
917.424	0.0156804
917.503	0.0154589
917.581	0.0156275
917.659	0.0154964
917.737	0.0156006
917.815	0.0154536
917.893	0.0154430
917.971	0.0155147
918.049	0.0155821
918.128	0.0155711
918.206	0.0155334
918.284	0.0155527
918.362	0.0155249
918.440	0.0155471
918.518	0.0154949
918.596	0.0154328
918.674	0.0155477
918.753	0.0155152
918.831	0.0155769
918.909	0.0156231
918.987	0.0155920
919.065	0.0155405
919.143	0.0156135
919.221	0.0155247
919.299	0.0155838
919.378	0.0155777
919.456	0.0156355
919.534	0.0155155
919.612	0.0155489
919.690	0.0154874
919.768	0.0154345
919.846	0.0154845
919.924	0.0155251
920.003	0.0153471
920.081	0.0153473
920.159	0.0154533
920.237	0.0153967
920.315	0.0154189
920.393	0.0153532
920.471	0.0153322
920.549	0.0154021
920.628	0.0154333
920.706	0.0153741
920.784	0.0154068
920.862	0.0155087
920.940	0.0155259
921.018	0.0154504
921.096	0.0154416
921.174	0.0154482
921.253	0.0155311
921.331	0.0154229
921.409	0.0155211
921.487	0.0154883
921.565	0.0155535
921.643	0.0155934
921.721	0.0155958
921.799	0.0156017
921.878	0.0156557
921.956	0.0156359
922.034	0.0156188
922.112	0.0157301
922.190	0.0155778
922.268	0.0155545
922.346	0.0156160
922.424	0.0157256
922.503	0.0156082
922.581	0.0155452
922.659	0.0155661
922.737	0.0155511
922.815	0.0154787
922.893	0.0155785
922.971	0.0155083
923.049	0.0154264
923.128	0.0154453
923.206	0.0153093
923.284	0.0154934
923.362	0.0154211
923.440	0.0153999
923.518	0.0154269
923.596	0.0154860
923.674	0.0154291
923.753	0.0152133
923.831	0.0153248
923.909	0.0154021
923.987	0.0152921
924.065	0.0154156
924.143	0.0153463
924.221	0.0152843
924.299	0.0154054
924.378	0.0154256
924.456	0.0154893
924.534	0.0154003
924.612	0.0154619
924.690	0.0154633
924.768	0.0154569
924.846	0.0155361
924.924	0.0154726
925.003	0.0157585
925.081	0.0154765
925.159	0.0155518
925.237	0.0156942
925.315	0.0155680
925.393	0.0155487
925.471	0.0156430
925.549	0.0157265
925.628	0.0156720
925.706	0.0158070
925.784	0.0155129
925.862	0.0155209
925.940	0.0156120
926.018	0.0154996
926.096	0.0155009
926.174	0.0155039
926.253	0.0154649
926.331	0.0153474
926.409	0.0155478
926.487	0.0154366
926.565	0.0154139
926.643	0.0154912
926.721	0.0153999
926.799	0.0152491
926.878	0.0154360
926.956	0.0155605
927.034	0.0152708
927.112	0.0152402
927.190	0.0153497
927.268	0.0154750
927.346	0.0153838
927.424	0.0154102
927.503	0.0152545
927.581	0.0153694
927.659	0.0151848
927.737	0.0153801
927.815	0.0154620
927.893	0.0154071
927.971	0.0154503
928.049	0.0154650
928.128	0.0154618
928.206	0.0154434
928.284	0.0153323
928.362	0.0152958
928.440	0.0153806
928.518	0.0152417
928.596	0.0152960
928.674	0.0153096
928.753	0.0152813
928.831	0.0152901
928.909	0.0153834
928.987	0.0154959
929.065	0.0153584
929.143	0.0154579
929.221	0.0152763
929.299	0.0154312
929.378	0.0154678
929.456	0.0154963
929.534	0.0154394
929.612	0.0154057
929.690	0.0153642
929.768	0.0155695
929.846	0.0155494
929.924	0.0155359
930.003	0.0153471
930.081	0.0155044
930.159	0.0155442
930.237	0.0154893
930.315	0.0153546
930.393	0.0154717
930.471	0.0155241
930.549	0.0153967
930.628	0.0154597
930.706	0.0154285
930.784	0.0155288
930.862	0.0155465
930.940	0.0154559
931.018	0.0154838
931.096	0.0153646
931.174	0.0153957
931.253	0.0155073
931.331	0.0154446
931.409	0.0153430
931.487	0.0155906
931.565	0.0153379
931.643	0.0155000
931.721	0.0155174
931.799	0.0154134
931.878	0.0154364
931.956	0.0155208
932.034	0.0156161
932.112	0.0155976
932.190	0.0154060
932.268	0.0155172
932.346	0.0156025
932.424	0.0155688
932.503	0.0154689
932.581	0.0156460
932.659	0.0155949
932.737	0.0156732
932.815	0.0155127
932.893	0.0155492
932.971	0.0156445
933.049	0.0155574
933.128	0.0156046
933.206	0.0156833
933.284	0.0156269
933.362	0.0154659
933.440	0.0156555
933.518	0.0157248
933.596	0.0155704
933.674	0.0154903
933.753	0.0154980
933.831	0.0155090
933.909	0.0154700
933.987	0.0154530
934.065	0.0156153
934.143	0.0155125
934.221	0.0156366
934.299	0.0155138
934.378	0.0156146
934.456	0.0155216
934.534	0.0155402
934.612	0.0155096
934.690	0.0155676
934.768	0.0157476
934.846	0.0156065
934.924	0.0153994
935.003	0.0154295
935.081	0.0156221
935.159	0.0155644
935.237	0.0155637
935.315	0.0155394
935.393	0.0154005
935.471	0.0154169
935.549	0.0155010
935.628	0.0155362
935.706	0.0155344
935.784	0.0154718
935.862	0.0157442
935.940	0.0155666
936.018	0.0155463
936.096	0.0154923
936.174	0.0156290
936.253	0.0155940
936.331	0.0157865
936.409	0.0156645
936.487	0.0156438
936.565	0.0156118
936.643	0.0155365
936.721	0.0155727
936.799	0.0154189
936.878	0.0154504
936.956	0.0154789
937.034	0.0155831
937.112	0.0157026
937.190	0.0155099
937.268	0.0155041
937.346	0.0155747
937.424	0.0154337
937.503	0.0154057
937.581	0.0155407
937.659	0.0155311
937.737	0.0154449
937.815	0.0154000
937.893	0.0153436
937.971	0.0154358
938.049	0.0155247
938.128	0.0154250
938.206	0.0153115
938.284	0.0152595
938.362	0.0154271
938.440	0.0155224
938.518	0.0154981
938.596	0.0154789
938.674	0.0152817
938.753	0.0153719
938.831	0.0152652
938.909	0.0153694
938.987	0.0154221
939.065	0.0153519
939.143	0.0153984
939.221	0.0153593
939.299	0.0152978
939.378	0.0154213
939.456	0.0153712
939.534	0.0153206
939.612	0.0153545
939.690	0.0154744
939.768	0.0154147
939.846	0.0154622
939.924	0.0153675
940.003	0.0153866
940.081	0.0153059
940.159	0.0155425
940.237	0.0154932
940.315	0.0153405
940.393	0.0154607
940.471	0.0153335
940.549	0.0154700
940.628	0.0156085
940.706	0.0153337
940.784	0.0153935
940.862	0.0154398
940.940	0.0155384
941.018	0.0154455
941.096	0.0154271
941.174	0.0153304
941.253	0.0153630
941.331	0.0153455
941.409	0.0154451
941.487	0.0154015
941.565	0.0153441
941.643	0.0153886
941.721	0.0154021
941.799	0.0152525
941.878	0.0154858
941.956	0.0153899
942.034	0.0154714
942.112	0.0153497
942.190	0.0152569
942.268	0.0152377
942.346	0.0154392
942.424	0.0153594
942.503	0.0152747
942.581	0.0152402
942.659	0.0152853
942.737	0.0153323
942.815	0.0154577
942.893	0.0153051
942.971	0.0152473
943.049	0.0153065
943.128	0.0154321
943.206	0.0155770
943.284	0.0154026
943.362	0.0154626
943.440	0.0154507
943.518	0.0154972
943.596	0.0152953
943.674	0.0153316
943.753	0.0155173
943.831	0.0154166
943.909	0.0153084
943.987	0.0153620
944.065	0.0154302
944.143	0.0152647
944.221	0.0154375
944.299	0.0154342
944.378	0.0153117
944.456	0.0153963
944.534	0.0154314
944.612	0.0153878
944.690	0.0153507
944.768	0.0153347
944.846	0.0155077
944.924	0.0153128
945.003	0.0153880
945.081	0.0153304
945.159	0.0153910
945.237	0.0153488
945.315	0.0154169
945.393	0.0152947
945.471	0.0154304
945.549	0.0154045
945.628	0.0152829
945.706	0.0154523
945.784	0.0154368
945.862	0.0153480
945.940	0.0153858
946.018	0.0152984
946.096	0.0154365
946.174	0.0154861
946.253	0.0153816
946.331	0.0153398
946.409	0.0153780
946.487	0.0154861
946.565	0.0154280
946.643	0.0153691
946.721	0.0155144
946.799	0.0153116
946.878	0.0154348
946.956	0.0155102
947.034	0.0153616
947.112	0.0153512
947.190	0.0154035
947.268	0.0155045
947.346	0.0154037
947.424	0.0153186
947.503	0.0154913
947.581	0.0153294
947.659	0.0154551
947.737	0.0154075
947.815	0.0156354
947.893	0.0154927
947.971	0.0153575
948.049	0.0154823
948.128	0.0154768
948.206	0.0154250
948.284	0.0153593
948.362	0.0153562
948.440	0.0155320
948.518	0.0154324
948.596	0.0154021
948.674	0.0155256
948.753	0.0154037
948.831	0.0155296
948.909	0.0154756
948.987	0.0156002
949.065	0.0155642
949.143	0.0155744
949.221	0.0155023
949.299	0.0154572
949.378	0.0154729
949.456	0.0155711
949.534	0.0155820
949.612	0.0155317
949.690	0.0154364
949.768	0.0153529
949.846	0.0155479
949.924	0.0153122
